SpectraSuite Data File
++++++++++++++++++++++++++++++++++++
Date: Fri Oct 25 10:47:29 EDT 2013
User: price-jones
Dark Spectrum Present: No
Reference Spectrum Present: No
Number of Sampled Component Spectra: 1
Spectrometers: USB2+H05261
Integration Time (usec): 100000 (USB2+H05261)
Spectra Averaged: 1 (USB2+H05261)
Boxcar Smoothing: 0 (USB2+H05261)
Correct for Electrical Dark: No (USB2+H05261)
Strobe/Lamp Enabled: No (USB2+H05261)
Correct for Detector Non-linearity: No (USB2+H05261)
Correct for Stray Light: No (USB2+H05261)
Number of Pixels in Processed Spectrum: 2048
>>>>>Begin Processed Spectral Data<<<<<
365.73	119.37
365.92	119.37
366.12	119.37
366.32	4.68
366.52	46.81
366.72	135.75
366.91	35.11
367.11	23.41
367.31	28.09
367.51	58.51
367.70	0.00
367.90	21.06
368.10	32.77
368.30	53.83
368.49	56.17
368.69	23.41
368.89	114.69
369.09	65.54
369.28	93.62
369.48	46.81
369.68	88.94
369.87	191.92
370.07	70.22
370.27	182.56
370.47	205.97
370.66	374.49
370.86	369.80
371.06	322.99
371.25	482.15
371.45	519.60
371.65	496.19
371.84	484.49
372.04	510.24
372.24	505.56
372.44	484.49
372.63	482.15
372.83	477.47
373.03	500.87
373.22	535.98
373.42	486.83
373.62	491.51
373.81	477.47
374.01	538.32
374.21	533.64
374.40	571.09
374.60	557.05
374.79	585.13
374.99	571.09
375.19	486.83
375.38	538.32
375.58	631.94
375.78	585.13
375.97	650.67
376.17	613.22
376.37	528.96
376.56	610.88
376.76	566.41
376.95	629.60
377.15	566.41
377.35	634.29
377.54	636.63
377.74	617.90
377.93	645.99
378.13	634.29
378.33	564.07
378.52	655.35
378.72	582.79
378.91	617.90
379.11	543.00
379.31	587.47
379.50	662.37
379.70	676.41
379.89	638.97
380.09	587.47
380.28	528.96
380.48	594.50
380.68	589.82
380.87	657.69
381.07	688.12
381.26	631.94
381.46	692.80
381.65	730.25
381.85	657.69
382.04	667.05
382.24	800.46
382.43	697.48
382.63	650.67
382.83	683.44
383.02	713.86
383.22	695.14
383.41	648.33
383.61	709.18
383.80	821.53
384.00	704.50
384.19	650.67
384.39	718.54
384.58	702.16
384.78	788.76
384.97	779.40
385.17	711.52
385.36	734.93
385.56	770.04
385.75	781.74
385.95	739.61
386.14	786.42
386.34	741.95
386.53	805.14
386.72	734.93
386.92	798.12
387.11	795.78
387.31	793.44
387.50	791.10
387.70	758.33
387.89	837.91
388.09	821.53
388.28	800.46
388.48	870.68
388.67	847.27
388.86	887.06
389.06	863.66
389.25	905.79
389.45	875.36
389.64	837.91
389.84	915.15
390.03	922.17
390.22	964.30
390.42	847.27
390.61	915.15
390.81	868.34
391.00	987.71
391.19	915.15
391.39	910.47
391.58	924.51
391.78	924.51
391.97	938.55
392.16	917.49
392.36	1039.20
392.55	1006.43
392.75	959.62
392.94	1001.75
393.13	919.83
393.33	994.73
393.52	954.94
393.71	964.30
393.91	980.68
394.10	959.62
394.29	1109.41
394.49	929.19
394.68	1025.15
394.88	1102.39
395.07	1067.28
395.26	1135.16
395.46	1107.07
395.65	1088.35
395.84	1114.10
396.04	1135.16
396.23	1062.60
396.42	1053.24
396.62	1076.65
396.81	1144.52
397.00	1118.78
397.19	1128.14
397.39	1163.25
397.58	1238.14
397.77	1170.27
397.97	1224.10
398.16	1256.87
398.35	1259.21
398.55	1313.04
398.74	1282.61
398.93	1254.53
399.12	1364.53
399.32	1341.13
399.51	1320.06
399.70	1261.55
399.90	1341.13
400.09	1313.04
400.28	1275.59
400.47	1371.55
400.67	1469.86
400.86	1434.75
401.05	1481.56
401.24	1432.41
401.44	1420.71
401.63	1453.47
401.82	1427.73
402.01	1474.54
402.21	1610.29
402.40	1423.05
402.59	1556.46
402.78	1540.07
402.97	1575.18
403.17	1523.69
403.36	1521.35
403.55	1626.67
403.74	1607.95
403.93	1598.59
404.13	1661.78
404.32	1565.82
404.51	1556.46
404.70	1806.89
404.89	1610.29
405.09	1614.97
405.28	1722.63
405.47	1624.33
405.66	1643.06
405.85	1626.67
406.05	1657.10
406.24	1774.13
406.43	1823.28
406.62	1802.21
406.81	1851.36
407.00	1792.85
407.20	1689.87
407.39	1771.79
407.58	1849.02
407.77	1753.06
407.96	1923.92
408.15	1968.39
408.34	1837.32
408.54	1968.39
408.73	1928.60
408.92	1895.83
409.11	1949.67
409.30	1891.15
409.49	1989.46
409.68	2043.29
409.87	2008.18
410.07	1994.14
410.26	2099.46
410.45	2003.50
410.64	2150.95
410.83	2045.63
411.02	2141.59
411.21	2218.83
411.40	2099.46
411.59	2228.19
411.78	2092.44
411.98	2249.25
412.17	2225.85
412.36	2282.02
412.55	2296.07
412.74	2349.90
412.93	2380.32
413.12	2401.39
413.31	2523.10
413.50	2516.08
413.69	2429.48
413.88	2485.65
414.07	2450.54
414.26	2520.76
414.45	2635.44
414.64	2406.07
414.83	2539.48
415.02	2733.75
415.22	2712.68
415.41	2740.77
415.60	2722.04
415.79	2754.81
415.98	2782.90
416.17	2876.52
416.36	2752.47
416.55	2693.96
416.74	2913.97
416.93	2796.94
417.12	2743.11
417.31	2911.63
417.50	2792.26
417.69	2960.78
417.88	3110.57
418.07	2937.37
418.26	2977.16
418.45	3014.61
418.64	3112.91
418.83	3148.02
419.02	3103.55
419.21	3019.29
419.39	3009.93
419.58	3005.25
419.77	3049.72
419.96	3192.49
420.15	3162.06
420.34	3206.53
420.53	3307.18
420.72	3368.03
420.91	3323.56
421.10	3449.95
421.29	3386.76
421.48	3234.62
421.67	3426.54
421.86	3260.37
422.05	3180.79
422.24	3274.41
422.43	3253.34
422.61	3279.09
422.80	3363.35
422.99	3475.70
423.18	3428.88
423.37	3555.27
423.56	3452.29
423.75	3391.44
423.94	3307.18
424.13	3166.74
424.32	3332.92
424.50	3574.00
424.69	3424.20
424.88	3365.69
425.07	3412.50
425.26	3295.47
425.45	3431.23
425.64	3508.46
425.83	3300.16
426.01	3562.30
426.20	3398.46
426.39	3557.61
426.58	3412.50
426.77	3365.69
426.96	3538.89
427.15	3576.34
427.33	3578.68
427.52	3597.40
427.71	3562.30
427.90	3494.42
428.09	3581.02
428.28	3597.40
428.46	3627.83
428.65	3698.05
428.84	3859.54
429.03	3667.62
429.22	3576.34
429.40	3770.60
429.59	3695.71
429.78	3517.83
429.97	3620.81
430.16	3702.73
430.34	3761.24
430.53	3822.09
430.72	3845.50
430.91	3775.28
431.10	3779.97
431.28	3988.27
431.47	3999.98
431.66	4107.64
431.85	3939.12
432.03	3974.23
432.22	4119.34
432.41	4138.07
432.60	4105.30
432.79	4114.66
432.97	4105.30
433.16	4044.45
433.35	4175.52
433.54	4154.45
433.72	4138.07
433.91	3981.25
434.10	4248.07
434.28	4152.11
434.47	4248.07
434.66	4194.24
434.85	4411.91
435.03	4250.41
435.22	4421.27
435.41	4393.19
435.59	4372.12
435.78	4402.55
435.97	4358.08
436.16	4407.23
436.34	4470.42
436.53	4444.68
436.72	4566.39
436.90	4491.49
437.09	4430.63
437.28	4400.21
437.46	4447.02
437.65	4533.62
437.84	4664.69
438.02	4636.60
438.21	4709.16
438.40	4524.26
438.58	4770.01
438.77	4791.08
438.96	4798.10
439.14	4891.72
439.33	4873.00
439.52	4929.17
439.70	4917.47
439.89	4908.10
440.08	4877.68
440.26	5041.51
440.45	4882.36
440.63	5135.14
440.82	4992.36
441.01	5172.58
441.19	5226.42
441.38	5366.85
441.57	5275.57
441.75	5284.93
441.94	5551.75
442.12	5387.91
442.31	5584.52
442.50	5504.94
442.68	5507.28
442.87	5397.28
443.05	5666.44
443.24	5652.39
443.43	5713.25
443.61	5657.07
443.80	5708.57
443.98	5640.69
444.17	5287.27
444.35	5748.36
444.54	5715.59
444.73	5774.10
444.91	5636.01
445.10	5687.50
445.28	5668.78
445.47	5549.41
445.65	5708.57
445.84	5909.85
446.02	5823.25
446.21	5757.72
446.39	5659.42
446.58	5671.12
446.77	5865.38
446.95	5701.54
447.14	5792.83
447.32	5933.26
447.51	5703.89
447.69	5921.56
447.88	5785.80
448.06	5926.24
448.25	5673.46
448.43	5863.04
448.62	5832.62
448.80	5746.02
448.99	5891.13
449.17	6094.76
449.36	5909.85
449.54	5930.92
449.73	6188.38
449.91	6167.31
450.10	6207.10
450.28	6195.40
450.46	6223.48
450.65	6204.76
450.83	6312.42
451.02	6338.17
451.20	6284.34
451.39	6319.45
451.57	6059.65
451.76	6202.42
451.94	6478.60
452.13	6431.79
452.31	6136.88
452.49	6284.34
452.68	6216.46
452.86	6176.67
453.05	6356.90
453.23	6279.66
453.42	6340.51
453.60	6431.79
453.78	6593.29
453.97	6387.32
454.15	6169.65
454.34	6359.24
454.52	6499.67
454.70	6607.33
454.89	6621.38
455.07	6530.09
455.26	6747.76
455.44	6703.29
455.62	6705.63
455.81	6612.01
455.99	6780.53
456.17	6876.49
456.36	6717.34
456.54	6902.24
456.73	6953.73
456.91	7201.83
457.09	7047.35
457.28	7138.63
457.46	7131.61
457.64	7103.53
457.83	7138.63
458.01	7042.67
458.19	7248.64
458.38	7117.57
458.56	7360.98
458.74	7089.48
458.93	7267.36
459.11	7225.23
459.29	7204.17
459.48	7382.05
459.66	7248.64
459.84	7201.83
460.03	7349.28
460.21	7398.43
460.39	7513.12
460.57	7431.20
460.76	7442.90
460.94	7665.25
461.12	7681.64
461.31	7691.00
461.49	7662.91
461.67	7644.19
461.85	7721.43
462.04	7611.42
462.22	8168.47
462.40	7833.77
462.59	7721.43
462.77	7861.86
462.95	7812.71
463.13	7716.75
463.32	7712.07
463.50	7871.22
463.68	7782.28
463.86	8018.68
464.05	7868.88
464.23	7878.24
464.41	7915.69
464.59	8039.74
464.78	8060.80
464.96	8056.12
465.14	7962.50
465.32	8100.59
465.50	8238.69
465.69	8079.53
465.87	8154.43
466.05	8308.90
466.23	8226.98
466.41	8194.22
466.60	8259.75
466.78	8212.94
466.96	8325.29
467.14	8456.36
467.32	8355.71
467.51	8369.76
467.69	8287.84
467.87	8348.69
468.05	8287.84
468.23	8346.35
468.41	8432.95
468.60	8374.44
468.78	8547.64
468.96	8592.11
469.14	8627.21
469.32	8683.39
469.50	8283.16
469.69	8641.26
469.87	8699.77
470.05	8718.50
470.23	8678.71
470.41	8575.72
470.59	8844.88
470.77	8800.41
470.95	8755.94
471.14	8798.07
471.32	8851.91
471.50	9109.36
471.68	9268.52
471.86	9104.68
472.04	9205.33
472.22	9308.31
472.40	8971.27
472.58	9224.05
472.77	9322.35
472.95	9427.68
473.13	9502.58
473.31	9359.80
473.49	9406.61
473.67	9291.93
473.85	9502.58
474.03	9619.60
474.21	9439.38
474.39	9556.41
474.57	9710.88
474.75	9734.29
474.93	9731.95
475.12	9991.75
475.30	9823.23
475.48	9900.47
475.66	9949.62
475.84	9923.87
476.02	10078.35
476.20	10024.51
476.38	10272.61
476.56	10480.92
476.74	10452.83
476.92	10286.65
477.10	10532.41
477.28	10635.39
477.46	10480.92
477.64	10892.85
477.82	11063.71
478.00	11009.88
478.18	11185.42
478.36	11199.46
478.54	11190.10
478.72	11295.43
478.90	11405.43
479.08	11426.50
479.26	11527.14
479.44	11690.98
479.62	11714.38
479.80	11618.42
479.98	11913.33
480.16	12002.27
480.34	12058.44
480.52	12184.83
480.70	12332.28
480.88	11962.48
481.06	12400.16
481.24	12332.28
481.41	12334.62
481.59	12732.51
481.77	12762.94
481.95	12809.75
482.13	12966.57
482.31	12929.12
482.49	13296.58
482.67	13013.38
482.85	13502.55
483.03	13582.13
483.21	13579.79
483.39	13830.23
483.57	13584.47
483.74	14040.87
483.92	13982.36
484.10	13933.21
484.28	13872.36
484.46	14340.46
484.64	14532.39
484.82	14455.15
485.00	14452.81
485.18	14537.07
485.35	14822.61
485.53	14754.74
485.71	14927.94
485.89	15021.56
486.07	14970.07
486.25	15190.08
486.43	15426.47
486.61	15470.94
486.78	15417.11
486.96	15723.72
487.14	15939.05
487.32	15878.19
487.50	16308.85
487.68	16046.71
487.85	16592.06
488.03	16491.41
488.21	16751.21
488.39	16393.11
488.57	16877.60
488.75	16844.84
488.92	17097.61
489.10	17364.43
489.28	17291.88
489.46	17542.32
489.64	17345.71
489.81	18022.12
489.99	17827.86
490.17	18218.73
490.35	18129.79
490.53	18232.77
490.70	18335.76
490.88	18307.67
491.06	18895.14
491.24	18614.28
491.41	18579.17
491.59	18530.02
491.77	19124.52
491.95	19166.65
492.13	18932.59
492.30	19548.15
492.48	19697.95
492.66	19538.79
492.84	19372.61
493.01	19782.21
493.19	19964.77
493.37	20231.59
493.54	20060.73
493.72	20348.62
493.90	20641.18
494.08	20423.51
494.25	20889.28
494.43	20837.79
494.61	21008.65
494.79	21001.63
494.96	20933.75
495.14	20863.54
495.32	21135.04
495.49	21619.53
495.67	21436.97
495.85	21394.84
496.02	21659.32
496.20	21696.77
496.38	21954.22
496.55	22071.25
496.73	22347.44
496.91	22328.71
497.09	22478.50
497.26	22747.67
497.44	22609.58
497.62	22733.62
497.79	22991.08
497.97	22829.59
498.14	23133.86
498.32	23180.67
498.50	22944.27
498.67	23229.82
498.85	23400.68
499.03	23791.55
499.20	23391.31
499.38	23503.66
499.56	23873.46
499.73	23569.19
499.91	24170.71
500.08	24226.89
500.26	24126.24
500.44	24395.40
500.61	24053.69
500.79	24269.01
500.97	24276.04
501.14	24762.87
501.32	24652.86
501.49	24826.06
501.67	24821.38
501.84	25191.19
502.02	24833.08
502.20	25319.92
502.37	25312.89
502.55	25146.72
502.72	25343.32
502.90	25142.03
503.07	25291.83
503.25	25521.20
503.43	25523.54
503.60	25982.29
503.78	25865.26
503.95	25799.73
504.13	26101.65
504.30	25687.38
504.48	25958.88
504.65	26373.16
504.83	26347.41
505.01	26637.64
505.18	26206.98
505.36	26438.69
505.53	26391.88
505.71	27143.19
505.88	27133.83
506.06	26562.74
506.23	26689.13
506.41	26937.23
506.58	26927.86
506.76	26909.14
506.93	27508.32
507.11	27391.29
507.28	27182.98
507.46	27468.53
507.63	27297.67
507.81	27372.57
507.98	27445.12
508.16	27480.23
508.33	27868.76
508.50	27946.00
508.68	28065.36
508.85	28313.46
509.03	28285.37
509.20	28182.39
509.38	28292.40
509.55	28552.20
509.73	28304.10
509.90	28662.20
510.08	28493.68
510.25	28718.37
510.42	28374.31
510.60	28922.00
510.77	28959.45
510.95	29111.58
511.12	29209.89
511.30	29247.33
511.47	29383.09
511.64	29418.19
511.82	30078.22
511.99	28959.45
512.17	29582.03
512.34	29479.05
512.51	29905.02
512.69	29979.92
512.86	29968.22
513.04	30213.98
513.21	30281.85
513.38	30160.14
513.56	29713.10
513.73	29874.60
513.90	30405.90
514.08	30256.11
514.25	30609.53
514.43	30539.31
514.60	30368.45
514.77	30314.62
514.95	30897.41
515.12	30934.86
515.29	30813.15
515.47	30911.46
515.64	31307.01
515.81	31433.39
515.99	30897.41
516.16	30998.06
516.33	31351.48
516.51	31494.25
516.68	31271.90
516.85	31084.65
517.03	31531.70
517.20	31248.49
517.37	31381.90
517.54	31796.18
517.72	31688.51
517.89	31419.35
518.06	31983.42
518.24	31740.00
518.41	31941.29
518.58	31908.52
518.75	32165.98
518.93	32210.45
519.10	32032.57
519.27	32355.57
519.45	32526.42
519.62	32751.12
519.79	32428.12
519.96	32598.98
520.14	32809.63
520.31	32540.47
520.48	33198.16
520.65	33067.09
520.83	33212.20
521.00	33394.76
521.17	33567.96
521.34	33427.53
521.52	33132.62
521.69	33563.28
521.86	33961.17
522.03	33411.15
522.20	33099.86
522.38	33565.62
522.55	33902.66
522.72	33621.80
522.89	34059.48
523.07	33940.11
523.24	33598.39
523.41	34258.42
523.58	34007.98
523.75	34422.26
523.92	34419.92
524.10	34185.86
524.27	34532.26
524.44	34387.15
524.61	34508.86
524.78	34721.85
524.96	34623.54
525.13	34539.29
525.30	34904.41
525.47	34799.08
525.64	34878.66
525.81	34937.18
525.98	34834.19
526.16	34778.02
526.33	34778.02
526.50	35274.21
526.67	34864.62
526.84	35171.23
527.01	35140.80
527.18	35377.20
527.36	34881.00
527.53	35449.75
527.70	35538.69
527.87	35445.07
528.04	35536.35
528.21	35849.99
528.38	36130.85
528.55	35913.18
528.72	35913.18
528.89	35936.59
529.07	35934.24
529.24	35676.79
529.41	36119.15
529.58	35997.44
529.75	35967.01
529.92	36315.75
530.09	36027.87
530.26	36055.95
530.43	36172.98
530.60	36130.85
530.77	36105.10
530.94	36720.66
531.11	36453.84
531.28	36694.92
531.46	36463.21
531.63	36622.36
531.80	36587.25
531.97	36755.77
532.14	36809.61
532.31	36423.42
532.48	36961.74
532.65	37057.70
532.82	36907.91
532.99	37317.50
533.16	36842.37
533.33	36893.86
533.50	37132.60
533.67	37347.93
533.84	36943.02
534.01	37324.52
534.18	37303.46
534.35	37696.67
534.52	37387.72
534.69	37530.49
534.86	37486.02
535.03	37450.91
535.20	37659.22
535.37	38176.48
535.54	37731.78
535.71	37834.76
535.88	37301.12
536.05	37942.42
536.22	38298.19
536.38	38103.92
536.55	37879.23
536.72	38192.86
536.89	37752.84
537.06	38188.18
537.23	37876.89
537.40	38244.35
537.57	38539.26
537.74	38389.47
537.91	38667.99
538.08	38595.43
538.25	38504.15
538.42	38426.92
538.59	38604.80
538.75	38106.26
538.92	38487.77
539.09	38759.27
539.26	38796.72
539.43	39012.05
539.60	38672.67
539.77	38677.35
539.94	38653.95
540.11	39145.46
540.28	38696.08
540.44	38969.92
540.61	38822.47
540.78	39091.63
540.95	38953.54
541.12	39189.93
541.29	38890.34
541.46	39346.75
541.62	39049.50
541.79	39491.86
541.96	39131.42
542.13	39000.35
542.30	39810.17
542.47	39606.55
542.63	39384.19
542.80	39709.53
542.97	39519.95
543.14	40072.31
543.31	40051.25
543.48	40217.43
543.64	40371.90
543.81	40322.75
543.98	40009.12
544.15	40151.89
544.32	40229.13
544.48	40172.96
544.65	40467.86
544.82	40421.05
544.99	40301.68
545.16	40320.41
545.32	40470.20
545.49	40395.31
545.66	40435.10
545.83	40151.89
546.00	40603.61
546.16	40304.02
546.33	40746.39
546.50	39749.32
546.67	40872.78
546.83	40304.02
547.00	40266.58
547.17	40479.57
547.34	40744.05
547.50	41031.93
547.67	40744.05
547.84	40891.50
548.00	41088.10
548.17	41263.64
548.34	40938.31
548.51	41537.49
548.67	41303.43
548.84	41193.43
549.01	41071.72
549.18	41034.27
549.34	41209.81
549.51	41375.99
549.68	41624.09
549.84	41546.85
550.01	41439.18
550.18	41406.42
550.34	41385.35
550.51	41354.93
550.68	41008.53
550.84	41015.55
551.01	41216.83
551.18	41280.03
551.34	41596.00
551.51	41596.00
551.68	41745.80
551.84	41890.91
552.01	41476.63
552.18	41663.88
552.34	41163.00
552.51	41799.63
552.68	41380.67
552.84	41855.80
553.01	42249.01
553.18	42068.79
553.34	41820.69
553.51	41563.23
553.67	42073.47
553.84	42410.51
554.01	42183.48
554.17	42462.00
554.34	42401.14
554.51	42323.91
554.67	42522.85
554.84	42316.89
555.00	42164.75
555.17	42092.19
555.33	42473.70
555.50	41762.18
555.67	42066.45
555.83	42038.36
556.00	42433.91
556.16	43023.73
556.33	42274.76
556.50	42174.11
556.66	42927.77
556.83	42249.01
556.99	42490.09
557.16	42923.08
557.32	42574.34
557.49	42614.13
557.65	42485.40
557.82	42693.71
557.98	42607.11
558.15	42707.76
558.32	43140.75
558.48	42740.52
558.65	42595.41
558.81	42831.80
558.98	42686.69
559.14	42588.39
559.31	42663.28
559.47	42930.11
559.64	43283.53
559.80	43016.71
559.97	43133.73
560.13	42939.47
560.30	42555.62
560.46	43271.82
560.63	43044.79
560.79	43405.23
560.96	43241.40
561.12	42747.54
561.29	43192.25
561.45	42918.40
561.61	43290.55
561.78	42852.87
561.94	42927.77
562.11	43058.84
562.27	42899.68
562.44	43339.70
562.60	43257.78
562.77	43470.77
562.93	42960.53
563.10	43529.28
563.26	43115.01
563.42	43344.38
563.59	43316.29
563.75	43552.69
563.92	43290.55
564.08	43274.16
564.24	43894.41
564.41	43571.41
564.57	43409.92
564.74	43285.87
564.90	43274.16
565.07	43817.17
565.23	43306.93
565.39	42958.19
565.56	43522.26
565.72	43789.08
565.88	43512.90
566.05	43512.90
566.21	43353.74
566.38	43835.89
566.54	43744.61
566.70	43728.23
566.87	43526.94
567.03	43742.27
567.19	44048.88
567.36	44034.84
567.52	43423.96
567.68	44252.51
567.85	43798.44
568.01	43826.53
568.17	43833.55
568.34	43674.40
568.50	44121.44
568.66	43445.02
568.83	43983.35
568.99	43716.53
569.15	43454.39
569.32	43936.54
569.48	43491.83
569.64	43419.28
569.81	43959.94
569.97	44004.41
570.13	43585.46
570.30	43894.41
570.46	43461.41
570.62	43468.43
570.78	43498.86
570.95	43842.92
571.11	44350.81
571.27	43569.07
571.43	44212.72
571.60	43971.64
571.76	43627.59
571.92	44229.10
572.09	43920.15
572.25	43639.29
572.41	43494.18
572.57	44027.82
572.74	44582.52
572.90	43880.36
573.06	44170.59
573.22	43721.21
573.38	44072.29
573.55	43545.67
573.71	43976.33
573.87	43707.16
574.03	43945.90
574.20	44011.43
574.36	43789.08
574.52	43800.79
574.68	43866.32
574.84	43973.98
575.01	43728.23
575.17	44044.20
575.33	43817.17
575.49	43948.24
575.65	44385.92
575.82	44444.43
575.98	44142.50
576.14	43971.64
576.30	44175.27
576.46	44074.63
576.62	43796.10
576.79	44116.76
576.95	43646.31
577.11	44231.44
577.27	44559.12
577.43	44451.45
577.59	44502.95
577.75	44102.71
577.92	43775.04
578.08	43945.90
578.24	44233.78
578.40	43903.77
578.56	44369.54
578.72	43861.64
578.88	44109.74
579.04	44315.70
579.21	43803.13
579.37	44121.44
579.53	43995.05
579.69	43985.69
579.85	44048.88
580.01	44278.25
580.17	44100.37
580.33	44334.43
580.49	44137.82
580.65	44065.27
580.82	44671.46
580.98	44355.49
581.14	44268.89
581.30	44243.15
581.46	44044.20
581.62	44060.58
581.78	44140.16
581.94	44399.96
582.10	44177.61
582.26	44509.97
582.42	44151.87
582.58	44311.02
582.74	44402.30
582.90	43955.26
583.06	44130.80
583.22	44322.72
583.38	44608.27
583.54	44353.15
583.70	44252.51
583.86	44594.23
584.02	44280.60
584.18	44486.56
584.34	44662.10
584.50	44151.87
584.66	44451.45
584.82	44165.91
584.98	44605.93
585.14	44184.63
585.30	44212.72
585.46	43931.86
585.62	44119.10
585.78	44259.53
585.94	43957.60
586.10	43910.79
586.26	44472.52
586.42	44208.04
586.58	44437.41
586.74	44449.11
586.90	43945.90
587.06	44266.55
587.22	44273.57
587.38	44425.71
587.54	44577.84
587.70	44598.91
587.86	44619.97
588.02	44371.88
588.18	44643.38
588.34	44268.89
588.49	44289.96
588.65	44423.37
588.81	44055.90
588.97	43952.92
589.13	43702.48
589.29	44439.75
589.45	44334.43
589.61	44481.88
589.77	44732.32
589.93	44505.29
590.08	44589.55
590.24	44327.41
590.40	44762.75
