SpectraSuite Data File
++++++++++++++++++++++++++++++++++++
Date: Fri Oct 25 10:44:53 EDT 2013
User: price-jones
Dark Spectrum Present: No
Reference Spectrum Present: No
Number of Sampled Component Spectra: 1
Spectrometers: USB2+H05261
Integration Time (usec): 100000 (USB2+H05261)
Spectra Averaged: 1 (USB2+H05261)
Boxcar Smoothing: 0 (USB2+H05261)
Correct for Electrical Dark: No (USB2+H05261)
Strobe/Lamp Enabled: No (USB2+H05261)
Correct for Detector Non-linearity: No (USB2+H05261)
Correct for Stray Light: No (USB2+H05261)
Number of Pixels in Processed Spectrum: 2048
>>>>>Begin Processed Spectral Data<<<<<
365.73	191.92
365.92	191.92
366.12	191.92
366.32	44.47
366.52	49.15
366.72	14.04
366.91	0.00
367.11	7.02
367.31	0.00
367.51	0.00
367.70	88.94
367.90	77.24
368.10	53.83
368.30	88.94
368.49	0.00
368.69	98.30
368.89	32.77
369.09	44.47
369.28	98.30
369.48	72.56
369.68	95.96
369.87	191.92
370.07	93.62
370.27	168.52
370.47	208.31
370.66	271.50
370.86	428.32
371.06	433.00
371.25	407.25
371.45	458.74
371.65	425.98
371.84	409.59
372.04	458.74
372.24	423.64
372.44	512.58
372.63	524.28
372.83	437.68
373.03	475.13
373.22	517.26
373.42	456.40
373.62	489.17
373.81	484.49
374.01	440.02
374.21	575.77
374.40	517.26
374.60	519.60
374.79	533.64
374.99	596.84
375.19	543.00
375.38	599.18
375.58	519.60
375.78	568.75
375.97	601.52
376.17	617.90
376.37	606.20
376.56	566.41
376.76	580.45
376.95	575.77
377.15	636.63
377.35	667.05
377.54	631.94
377.74	648.33
377.93	601.52
378.13	594.50
378.33	571.09
378.52	699.82
378.72	660.03
378.91	638.97
379.11	587.47
379.31	671.73
379.50	617.90
379.70	636.63
379.89	660.03
380.09	638.97
380.28	671.73
380.48	669.39
380.68	599.18
380.87	634.29
381.07	624.92
381.26	709.18
381.46	627.26
381.65	657.69
381.85	638.97
382.04	662.37
382.24	699.82
382.43	688.12
382.63	650.67
382.83	592.16
383.02	741.95
383.22	777.06
383.41	678.76
383.61	615.56
383.80	657.69
384.00	706.84
384.19	697.48
384.39	770.04
384.58	734.93
384.78	812.17
384.97	760.67
385.17	748.97
385.36	713.86
385.56	748.97
385.75	678.76
385.95	826.21
386.14	849.61
386.34	734.93
386.53	809.83
386.72	779.40
386.92	683.44
387.11	758.33
387.31	774.72
387.50	765.36
387.70	784.08
387.89	779.40
388.09	851.96
388.28	837.91
388.48	849.61
388.67	833.23
388.86	870.68
389.06	849.61
389.25	809.83
389.45	926.85
389.64	931.53
389.84	919.83
390.03	866.00
390.22	966.64
390.42	919.83
390.61	912.81
390.81	1025.15
391.00	884.72
391.19	973.66
391.39	898.77
391.58	978.34
391.78	863.66
391.97	992.39
392.16	1048.56
392.36	1041.54
392.55	994.73
392.75	1006.43
392.94	896.43
393.13	1081.33
393.33	842.59
393.52	947.92
393.71	884.72
393.91	1093.03
394.10	1015.79
394.29	983.02
394.49	1121.12
394.68	1107.07
394.88	1088.35
395.07	1137.50
395.26	1184.31
395.46	1111.75
395.65	1128.14
395.84	1123.46
396.04	1167.93
396.23	1095.37
396.42	1027.50
396.62	1069.62
396.81	1083.67
397.00	1118.78
397.19	1188.99
397.39	1128.14
397.58	1254.53
397.77	1228.78
397.97	1273.25
398.16	1259.21
398.35	1350.49
398.55	1357.51
398.74	1376.24
398.93	1371.55
399.12	1343.47
399.32	1315.38
399.51	1235.80
399.70	1392.62
399.90	1350.49
400.09	1451.13
400.28	1439.43
400.47	1362.19
400.67	1444.11
400.86	1423.05
401.05	1423.05
401.24	1380.92
401.44	1390.28
401.63	1514.33
401.82	1451.13
402.01	1500.28
402.21	1544.75
402.40	1394.96
402.59	1577.52
402.78	1561.14
402.97	1565.82
403.17	1591.56
403.36	1633.69
403.55	1582.20
403.74	1666.46
403.93	1708.59
404.13	1673.48
404.32	1582.20
404.51	1706.25
404.70	1717.95
404.89	1600.93
405.09	1778.81
405.28	1778.81
405.47	1877.11
405.66	1699.23
405.85	1750.72
406.05	1760.08
406.24	1837.32
406.43	1762.42
406.62	1717.95
406.81	1898.17
407.00	1837.32
407.20	1806.89
407.39	1764.76
407.58	1837.32
407.77	1956.69
407.96	1956.69
408.15	1977.75
408.34	2003.50
408.54	1977.75
408.73	1940.30
408.92	2057.33
409.11	2132.23
409.30	2071.37
409.49	2015.20
409.68	2136.91
409.87	2010.52
410.07	2064.35
410.26	2076.06
410.45	2136.91
410.64	2225.85
410.83	2216.49
411.02	2253.94
411.21	2267.98
411.40	2303.09
411.59	2216.49
411.78	2331.17
411.98	2143.93
412.17	2403.73
412.36	2387.35
412.55	2352.24
412.74	2462.24
412.93	2406.07
413.12	2307.77
413.31	2487.99
413.50	2399.05
413.69	2579.27
413.88	2633.10
414.07	2661.19
414.26	2663.53
414.45	2637.78
414.64	2548.84
414.83	2757.15
415.02	2759.49
415.22	2778.22
415.41	2810.98
415.60	2923.33
415.79	2759.49
415.98	2902.26
416.17	2958.44
416.36	2857.79
416.55	2874.18
416.74	2988.86
416.93	2956.10
417.12	2939.71
417.31	2979.50
417.50	3023.97
417.69	3014.61
417.88	3049.72
418.07	3117.59
418.26	3178.45
418.45	3073.12
418.64	3218.24
418.83	3335.26
419.02	3159.72
419.21	3204.19
419.39	3288.45
419.58	3206.53
419.77	3251.00
419.96	3267.39
420.15	3349.31
420.34	3419.52
420.53	3337.60
420.72	3400.80
420.91	3431.23
421.10	3428.88
421.29	3419.52
421.48	3241.64
421.67	3428.88
421.86	3389.10
422.05	3346.97
422.24	3433.57
422.43	3346.97
422.61	3473.36
422.80	3641.87
422.99	3515.48
423.18	3566.98
423.37	3599.74
423.56	3606.77
423.75	3559.95
423.94	3449.95
424.13	3314.20
424.32	3421.86
424.50	3639.53
424.69	3609.11
424.88	3653.58
425.07	3456.97
425.26	3461.65
425.45	3578.68
425.64	3466.33
425.83	3646.55
426.01	3667.62
426.20	3637.19
426.39	3641.87
426.58	3494.42
426.77	3536.55
426.96	3632.51
427.15	3522.51
427.33	3646.55
427.52	3777.62
427.71	3695.71
427.90	3744.86
428.09	3749.54
428.28	3728.47
428.46	3672.30
428.65	3705.07
428.84	3950.82
429.03	3861.88
429.22	3850.18
429.40	3768.26
429.59	3691.02
429.78	3599.74
429.97	3822.09
430.16	3761.24
430.34	3864.22
430.53	3992.95
430.72	3885.29
430.91	3894.65
431.10	3962.53
431.28	4154.45
431.47	4117.00
431.66	4210.62
431.85	4102.96
432.03	4208.28
432.22	4327.65
432.41	4191.90
432.60	4189.56
432.79	4156.79
432.97	4264.46
433.16	4194.24
433.35	4128.70
433.54	4372.12
433.72	4250.41
433.91	4163.81
434.10	4308.93
434.28	4191.90
434.47	4390.84
434.66	4414.25
434.85	4585.11
435.03	4512.55
435.22	4435.32
435.41	4411.91
435.59	4608.51
435.78	4596.81
435.97	4519.57
436.16	4540.64
436.34	4592.13
436.53	4503.19
436.72	4660.01
436.90	4580.43
437.09	4718.52
437.28	4636.60
437.46	4641.28
437.65	4678.73
437.84	4674.05
438.02	4861.29
438.21	4821.50
438.40	4725.54
438.58	4903.42
438.77	4915.12
438.96	4847.25
439.14	4915.12
439.33	5130.45
439.52	5205.35
439.70	5083.64
439.89	5121.09
440.08	5149.18
440.26	5240.46
440.45	5287.27
440.63	5219.39
440.82	5380.89
441.01	5437.06
441.19	5420.68
441.38	5514.30
441.57	5345.78
441.75	5549.41
441.94	5657.07
442.12	5692.18
442.31	5685.16
442.50	5692.18
442.68	5792.83
442.87	5746.02
443.05	5664.10
443.24	5853.68
443.43	5746.02
443.61	5743.67
443.80	5865.38
443.98	5699.20
444.17	5699.20
444.35	5661.76
444.54	5923.90
444.73	5867.72
444.91	5825.59
445.10	5886.45
445.28	5933.26
445.47	5846.66
445.65	5966.03
445.84	5820.91
446.02	5933.26
446.21	5998.79
446.39	5968.37
446.58	5970.71
446.77	5961.34
446.95	5996.45
447.14	5863.04
447.32	6057.31
447.51	6104.12
447.69	6026.88
447.88	5977.73
448.06	5973.05
448.25	6104.12
448.43	6115.82
448.62	6132.20
448.80	6064.33
448.99	6043.26
449.17	6076.03
449.36	6118.16
449.54	6265.61
449.73	6230.51
449.91	6352.21
450.10	6377.96
450.28	6382.64
450.46	6548.82
450.65	6642.44
450.83	6396.68
451.02	6361.58
451.20	6532.44
451.39	6436.47
451.57	6375.62
451.76	6401.37
451.94	6448.18
452.13	6619.04
452.31	6600.31
452.49	6284.34
452.68	6504.35
452.86	6473.92
453.05	6672.87
453.23	6612.01
453.42	6478.60
453.60	6562.86
453.78	6703.29
453.97	6483.28
454.15	6665.85
454.34	6635.42
454.52	6766.49
454.70	6792.23
454.89	6876.49
455.07	6916.28
455.26	6932.67
455.44	6986.50
455.62	6972.46
455.81	7030.97
455.99	6953.73
456.17	7133.95
456.36	7124.59
456.54	7096.50
456.73	7117.57
456.91	7363.33
457.09	7300.13
457.28	7379.71
457.46	7218.21
457.64	7438.22
457.83	7328.22
458.01	7293.11
458.19	7295.45
458.38	7463.97
458.56	7487.37
458.74	7499.08
458.93	7318.86
459.11	7534.18
459.29	7625.47
459.48	7604.40
459.66	7492.05
459.84	7751.85
460.03	7714.41
460.21	7606.74
460.39	7679.30
460.57	7733.13
460.76	7911.01
460.94	7861.86
461.12	7887.61
461.31	7786.96
461.49	7756.54
461.67	7990.59
461.85	7946.12
462.04	7801.01
462.22	7948.46
462.40	8032.72
462.59	8105.28
462.77	7978.89
462.95	8072.51
463.13	8126.34
463.32	8124.00
463.50	8056.12
463.68	8215.28
463.86	8198.90
464.05	8112.30
464.23	8180.17
464.41	8276.13
464.59	8189.53
464.78	8367.42
464.96	8374.44
465.14	8175.49
465.32	8402.52
465.50	8308.90
465.69	8517.21
465.87	8409.54
466.05	8194.22
466.23	8287.84
466.41	8411.89
466.60	8554.66
466.78	8266.77
466.96	8533.59
467.14	8446.99
467.32	8542.96
467.51	8552.32
467.69	8299.54
467.87	8681.05
468.05	8697.43
468.23	8461.04
468.41	8655.30
468.60	8830.84
468.78	8793.39
468.96	8659.98
469.14	8704.45
469.32	8793.39
469.50	8706.79
469.69	8968.93
469.87	8812.12
470.05	8720.84
470.23	9067.24
470.41	8910.42
470.59	9083.62
470.77	9020.42
470.95	9114.05
471.14	9170.22
471.32	9008.72
471.50	9282.56
471.68	9149.15
471.86	9334.06
472.04	9584.49
472.22	9544.70
472.40	9338.74
472.58	9472.15
472.77	9495.55
472.95	9818.55
473.13	9944.94
473.31	9645.35
473.49	9724.93
473.67	9432.36
473.85	9900.47
474.03	9975.36
474.21	10197.71
474.39	10008.13
474.57	10031.54
474.75	10139.20
474.93	10377.94
475.12	10211.76
475.30	10253.89
475.48	10244.52
475.66	10153.24
475.84	10190.69
476.02	10260.91
476.20	10614.33
476.38	10717.31
476.56	10810.93
476.74	10817.96
476.92	10780.51
477.10	10953.71
477.28	10822.64
477.46	10998.18
477.64	11110.52
477.82	11274.36
478.00	11365.64
478.18	11353.94
478.36	11452.24
478.54	11501.39
478.72	11686.29
478.90	11630.12
479.08	11765.87
479.26	12025.67
479.44	12074.82
479.62	12013.97
479.80	12168.45
479.98	12343.99
480.16	12418.88
480.34	12428.24
480.52	12524.21
480.70	12709.11
480.88	12542.93
481.06	12964.23
481.24	12877.63
481.41	13116.36
481.59	13174.88
481.77	13247.43
481.95	13102.32
482.13	13287.22
482.31	13486.17
482.49	13710.86
482.67	13479.15
482.85	13507.23
483.03	13860.65
483.21	13909.80
483.39	14146.20
483.57	14153.22
483.74	14183.65
483.92	14214.07
484.10	14068.96
484.28	14466.85
484.46	14839.00
484.64	15070.71
484.82	14689.20
485.00	14970.07
485.18	15070.71
485.35	15215.82
485.53	15000.49
485.71	15096.46
485.89	15351.57
486.07	15094.11
486.25	15559.88
486.43	15644.14
486.61	15768.19
486.78	16271.40
486.96	15716.70
487.14	16301.83
487.32	16191.83
487.50	16589.72
487.68	16645.89
487.85	17151.45
488.03	16809.73
488.21	17399.54
488.39	17130.38
488.57	17254.43
488.75	17429.97
488.92	17689.77
489.10	17895.74
489.28	18162.56
489.46	18064.25
489.64	18115.75
489.81	18328.74
489.99	18263.20
490.17	18562.79
490.35	18963.02
490.53	18408.31
490.70	18714.92
490.88	18948.98
491.06	19309.42
491.24	18838.97
491.41	19356.23
491.59	19370.27
491.77	18995.79
491.95	19417.08
492.13	19702.63
492.30	20042.01
492.48	20037.33
492.66	20077.12
492.84	19953.07
493.01	20292.44
493.19	20306.49
493.37	20688.00
493.54	20755.87
493.72	20374.36
493.90	20477.35
494.08	21275.47
494.25	21036.74
494.43	21165.46
494.61	21336.32
494.79	21326.96
494.96	21738.90
495.14	21467.39
495.32	21961.25
495.49	21998.70
495.67	21970.61
495.85	22115.72
496.02	22445.74
496.20	22452.76
496.38	22490.21
496.55	22427.01
496.73	22899.80
496.91	22944.27
497.09	23002.78
497.26	22764.05
497.44	23152.58
497.62	23150.24
497.79	23515.36
497.97	23206.41
498.14	23789.20
498.32	23534.09
498.50	23704.95
498.67	24084.11
498.85	23784.52
499.03	24325.19
499.20	24086.45
499.38	24659.88
499.56	24517.11
499.73	24285.40
499.91	24699.67
500.08	24868.19
500.26	24446.90
500.44	24685.63
500.61	24421.15
500.79	24996.92
500.97	24905.64
501.14	25376.09
501.32	25193.53
501.49	25563.33
501.67	25317.57
501.84	25383.11
502.02	25542.27
502.20	25827.81
502.37	25862.92
502.55	25687.38
502.72	26192.94
502.90	25972.92
503.07	26012.71
503.25	25930.80
503.43	26307.62
503.60	26274.85
503.78	26260.81
503.95	26031.44
504.13	26511.25
504.30	26611.89
504.48	26719.56
504.65	27185.32
504.83	27290.65
505.01	27164.26
505.18	27124.47
505.36	27337.46
505.53	27412.35
505.71	27407.67
505.88	27527.04
506.06	27625.34
506.23	27407.67
506.41	27576.19
506.58	27543.42
506.76	27735.35
506.93	27873.44
507.11	27934.29
507.28	27929.61
507.46	28065.36
507.63	28313.46
507.81	28151.96
507.98	27777.48
508.16	28259.63
508.33	28247.93
508.50	28821.36
508.68	28781.57
508.85	29074.13
509.03	28947.75
509.20	29062.43
509.38	29296.49
509.55	29205.20
509.73	29443.94
509.90	29340.96
510.08	29104.56
510.25	29287.12
510.42	28994.56
510.60	29551.60
510.77	29935.45
510.95	29769.27
511.12	29408.83
511.30	29788.00
511.47	30204.61
511.64	30106.31
511.82	30192.91
511.99	29961.20
512.17	30394.20
512.34	29984.60
512.51	30436.33
512.69	30199.93
512.86	30766.34
513.04	30960.61
513.21	30590.80
513.38	30731.23
513.56	30799.11
513.73	30429.30
513.90	31222.75
514.08	31051.89
514.25	30679.74
514.43	31094.02
514.60	31026.14
514.77	30979.33
514.95	31681.49
515.12	31424.03
515.29	31356.16
515.47	31655.75
515.64	31779.79
515.81	31428.71
515.99	32067.68
516.16	32070.02
516.33	31599.57
516.51	31981.08
516.68	31695.53
516.85	31248.49
517.03	32006.83
517.20	31945.97
517.37	32521.74
517.54	32486.64
517.72	32437.48
517.89	32053.64
518.06	32210.45
518.24	32210.45
518.41	32210.45
518.58	32446.85
518.75	32903.25
518.93	32678.56
519.10	32870.48
519.27	32865.80
519.45	33310.50
519.62	33144.33
519.79	33060.07
519.96	33003.89
520.14	33778.61
520.31	33317.53
520.48	33310.50
520.65	33266.03
520.83	33689.67
521.00	33769.25
521.17	34005.64
521.34	34155.44
521.52	34183.52
521.69	33741.16
521.86	34220.97
522.03	34497.16
522.20	34199.91
522.38	34312.25
522.55	34265.44
522.72	34256.08
522.89	33970.54
523.07	34700.78
523.24	34314.59
523.41	34705.46
523.58	34754.61
523.75	34756.96
523.92	35278.89
524.10	35143.14
524.27	34778.02
524.44	34904.41
524.61	35519.97
524.78	35285.92
524.96	35349.11
525.13	35501.25
525.30	35477.84
525.47	35145.48
525.64	35335.07
525.81	35328.05
525.98	35978.72
526.16	35353.79
526.33	35864.03
526.50	35512.95
526.67	35349.11
526.84	35482.52
527.01	35145.48
527.18	35875.73
527.36	35833.60
527.53	36271.28
527.70	36107.44
527.87	36170.64
528.04	36165.96
528.21	35948.29
528.38	36355.54
528.55	36830.67
528.72	36727.69
528.89	37046.00
529.07	36278.30
529.24	36425.76
529.41	36851.73
529.58	36514.70
529.75	36533.42
529.92	36725.35
530.09	36954.72
530.26	36825.99
530.43	37195.79
530.60	37020.25
530.77	36868.12
530.94	37619.43
531.11	36790.88
531.28	37209.84
531.46	37095.15
531.63	37207.50
531.80	37408.78
531.97	37139.62
532.14	37240.26
532.31	37598.37
532.48	37488.36
532.65	37308.14
532.82	37296.44
532.99	37785.61
533.16	37598.37
533.33	37570.28
533.50	37921.36
533.67	37876.89
533.84	38153.07
534.01	37897.95
534.18	37502.40
534.35	37909.66
534.52	38307.55
534.69	38609.48
534.86	38267.76
535.03	38024.34
535.20	38660.97
535.37	38663.31
535.54	38735.87
535.71	38342.66
535.88	38450.32
536.05	38560.33
536.22	38707.78
536.38	38293.50
536.55	38665.65
536.72	38696.08
536.89	38548.62
537.06	38635.22
537.23	38934.81
537.40	38937.15
537.57	39089.29
537.74	39103.33
537.91	38869.28
538.08	39145.46
538.25	38670.33
538.42	39124.40
538.59	39302.28
538.75	38838.85
538.92	39463.77
539.09	39145.46
539.26	38810.76
539.43	39288.23
539.60	39541.01
539.77	39421.64
539.94	39260.15
540.11	39498.88
540.28	39276.53
540.44	39828.90
540.61	39264.83
540.78	39412.28
540.95	39400.58
541.12	39423.98
541.29	39704.85
541.46	39636.97
541.62	39548.03
541.79	40102.74
541.96	39952.94
542.13	40198.70
542.30	39466.11
542.47	39765.70
542.63	40065.29
542.80	40318.07
542.97	40327.43
543.14	40353.18
543.31	40289.98
543.48	40610.64
543.64	41029.59
543.81	40325.09
543.98	40692.55
544.15	40437.44
544.32	41130.23
544.48	41118.53
544.65	41256.62
544.82	41205.13
544.99	40657.45
545.16	40954.69
545.32	40708.94
545.49	41036.61
545.66	41322.16
545.83	41415.78
546.00	41247.26
546.16	41347.90
546.33	40886.82
546.50	40559.14
546.67	41273.01
546.83	41493.02
547.00	41471.95
547.17	41123.21
547.34	41020.23
547.50	41584.30
547.67	41397.06
547.84	41380.67
548.00	41467.27
548.17	42000.91
548.34	41523.44
548.51	41514.08
548.67	41743.45
548.84	41806.65
549.01	41600.68
549.18	41663.88
549.34	41832.39
549.51	41918.99
549.68	41951.76
549.84	41911.97
550.01	42092.19
550.18	42351.99
550.34	42520.51
550.51	41820.69
550.68	42134.32
550.84	41743.45
551.01	42806.06
551.18	42078.15
551.34	41921.34
551.51	42415.19
551.68	42281.78
551.84	42391.78
552.01	42529.87
552.18	42050.06
552.34	42068.79
552.51	42265.39
552.68	42616.47
552.84	42761.59
553.01	42618.81
553.18	42719.46
553.34	42485.40
553.51	42557.96
553.67	42972.24
553.84	42700.73
554.01	42637.54
554.17	43061.18
554.34	42611.79
554.51	42960.53
554.67	43309.27
554.84	42651.58
555.00	42712.44
555.17	42773.29
555.33	42721.80
555.50	42932.45
555.67	42604.77
555.83	42703.07
556.00	43042.45
556.16	43349.06
556.33	42756.91
556.50	43461.41
556.66	43281.19
556.83	42841.17
556.99	43227.35
557.16	43302.25
557.32	43466.09
557.49	43447.36
557.65	42953.51
557.82	43107.99
557.98	43838.23
558.15	43557.37
558.32	43658.01
558.48	43288.21
558.65	43126.71
558.81	42927.77
558.98	43110.33
559.14	43405.23
559.31	43543.33
559.47	43934.20
559.64	43697.80
559.80	43681.42
559.97	43491.83
560.13	43789.08
560.30	43309.27
560.46	43655.67
560.63	43332.68
560.79	44336.77
560.96	43688.44
561.12	43587.80
561.29	43505.88
561.45	43690.78
561.61	43744.61
561.78	43786.74
561.94	43313.95
562.11	43601.84
562.27	43489.49
562.44	43882.70
562.60	43826.53
562.77	43578.43
562.93	43812.49
563.10	44034.84
563.26	43278.85
563.42	44212.72
563.59	43906.11
563.75	44013.77
563.92	43831.21
564.08	44027.82
564.24	43992.71
564.41	43566.73
564.57	43428.64
564.74	43868.66
564.90	43929.51
565.07	43892.07
565.23	44030.16
565.39	44102.71
565.56	44175.27
565.72	43746.95
565.88	43707.16
566.05	43700.14
566.21	43702.48
566.38	44004.41
566.54	44081.65
566.70	44231.44
566.87	44514.65
567.03	44102.71
567.19	44781.47
567.36	43875.68
567.52	43859.30
567.68	44294.64
567.85	44488.90
568.01	44240.81
568.17	43845.26
568.34	44374.22
568.50	44360.17
568.66	44318.04
568.83	44135.48
568.99	44098.03
569.15	43962.28
569.32	43901.43
569.48	44086.33
569.64	44322.72
569.81	44268.89
569.97	44098.03
570.13	44168.25
570.30	44039.52
570.46	44165.91
570.62	43913.13
570.78	44257.19
570.95	43871.00
571.11	44322.72
571.27	44388.26
571.43	44292.30
571.60	44332.09
571.76	43938.88
571.92	44076.97
572.09	44151.87
572.25	44339.11
572.41	44301.66
572.57	44783.81
572.74	44739.34
572.90	44854.03
573.06	44334.43
573.22	44692.53
573.38	44175.27
573.55	44088.67
573.71	44601.25
573.87	44009.09
574.03	44311.02
574.20	44563.80
574.36	44418.69
574.52	44488.90
574.68	44306.34
574.84	44273.57
575.01	44549.76
575.17	44463.16
575.33	44318.04
575.49	44137.82
575.65	44636.36
575.82	44491.24
575.98	44701.89
576.14	45544.48
576.30	44488.90
576.46	44154.21
576.62	44332.09
576.79	44257.19
576.95	44119.10
577.11	44509.97
577.27	44666.78
577.43	44603.59
577.59	44348.47
577.75	44322.72
577.92	44123.78
578.08	44091.01
578.24	44144.84
578.40	44172.93
578.56	44430.39
578.72	44142.50
578.88	44839.98
579.04	44638.70
579.21	44430.39
579.37	44629.34
579.53	44479.54
579.69	44526.35
579.85	44484.22
580.01	44748.70
580.17	44662.10
580.33	44687.85
580.49	44652.74
580.65	44568.48
580.82	44545.08
580.98	44456.14
581.14	43964.62
581.30	44561.46
581.46	44655.08
581.62	44687.85
581.78	44575.50
581.94	45120.85
582.10	44327.41
582.26	44870.41
582.42	44584.86
582.58	44390.60
582.74	44479.54
582.90	44708.91
583.06	44851.69
583.22	44828.28
583.38	44669.12
583.54	45003.82
583.70	44587.21
583.86	44444.43
584.02	44566.14
584.18	44783.81
584.34	44596.57
584.50	44629.34
584.66	44449.11
584.82	44741.68
584.98	44973.39
585.14	45155.96
585.30	44631.68
585.46	44704.23
585.62	44343.79
585.78	44734.66
585.94	44467.84
586.10	44573.16
586.26	44388.26
586.42	44512.31
586.58	44907.86
586.74	45317.45
586.90	44563.80
587.06	44734.66
587.22	45013.18
587.38	44353.15
587.54	44968.71
587.70	45003.82
587.86	45116.17
588.02	44797.85
588.18	44814.24
588.34	44631.68
588.49	44385.92
588.65	44135.48
588.81	44580.18
588.97	44470.18
589.13	45074.04
589.29	44533.37
589.45	44580.18
589.61	44938.29
589.77	45130.21
589.93	44669.12
590.08	45081.06
590.24	44751.04
