SpectraSuite Data File
++++++++++++++++++++++++++++++++++++
Date: Fri Oct 25 11:34:29 EDT 2013
User: price-jones
Dark Spectrum Present: No
Reference Spectrum Present: No
Number of Sampled Component Spectra: 1
Spectrometers: USB2+H05261
Integration Time (usec): 100000 (USB2+H05261)
Spectra Averaged: 1 (USB2+H05261)
Boxcar Smoothing: 0 (USB2+H05261)
Correct for Electrical Dark: No (USB2+H05261)
Strobe/Lamp Enabled: No (USB2+H05261)
Correct for Detector Non-linearity: No (USB2+H05261)
Correct for Stray Light: No (USB2+H05261)
Number of Pixels in Processed Spectrum: 2048
>>>>>Begin Processed Spectral Data<<<<<
365.73	327.68
365.92	327.68
366.12	327.68
366.32	173.20
366.52	180.22
366.72	203.63
366.91	196.60
367.11	194.26
367.31	203.63
367.51	98.30
367.70	168.52
367.90	161.50
368.10	208.31
368.30	156.82
368.49	184.90
368.69	210.65
368.89	196.60
369.09	145.11
369.28	194.26
369.48	210.65
369.68	311.29
369.87	224.69
370.07	227.03
370.27	243.42
370.47	360.44
370.66	484.49
370.86	423.64
371.06	564.07
371.25	519.60
371.45	507.90
371.65	571.09
371.84	528.96
372.04	543.00
372.24	564.07
372.44	557.05
372.63	564.07
372.83	638.97
373.03	615.56
373.22	482.15
373.42	620.24
373.62	723.23
373.81	662.37
374.01	683.44
374.21	596.84
374.40	645.99
374.60	669.39
374.79	657.69
374.99	634.29
375.19	641.31
375.38	627.26
375.58	627.26
375.78	688.12
375.97	617.90
376.17	758.33
376.37	667.05
376.56	648.33
376.76	688.12
376.95	582.79
377.15	645.99
377.35	734.93
377.54	699.82
377.74	748.97
377.93	734.93
378.13	676.41
378.33	685.78
378.52	730.25
378.72	718.54
378.91	697.48
379.11	739.61
379.31	713.86
379.50	671.73
379.70	716.20
379.89	720.88
380.09	638.97
380.28	744.29
380.48	683.44
380.68	669.39
380.87	763.01
381.07	699.82
381.26	800.46
381.46	767.70
381.65	716.20
381.85	713.86
382.04	741.95
382.24	788.76
382.43	772.38
382.63	688.12
382.83	716.20
383.02	793.44
383.22	781.74
383.41	777.06
383.61	800.46
383.80	840.25
384.00	772.38
384.19	774.72
384.39	814.51
384.58	795.78
384.78	770.04
384.97	816.85
385.17	800.46
385.36	821.53
385.56	891.74
385.75	823.87
385.95	795.78
386.14	833.23
386.34	812.17
386.53	863.66
386.72	870.68
386.92	884.72
387.11	917.49
387.31	847.27
387.50	905.79
387.70	760.67
387.89	884.72
388.09	802.80
388.28	880.04
388.48	854.30
388.67	858.98
388.86	929.19
389.06	889.40
389.25	887.06
389.45	936.21
389.64	971.32
389.84	924.51
390.03	950.26
390.22	957.28
390.42	966.64
390.61	912.81
390.81	912.81
391.00	950.26
391.19	922.17
391.39	1043.88
391.58	908.13
391.78	931.53
391.97	964.30
392.16	908.13
392.36	1036.86
392.55	1046.22
392.75	1001.75
392.94	1086.01
393.13	1039.20
393.33	1057.92
393.52	1074.31
393.71	1088.35
393.91	1132.82
394.10	1055.58
394.29	1097.71
394.49	1039.20
394.68	1062.60
394.88	1074.31
395.07	1069.62
395.26	1121.12
395.46	1067.28
395.65	1118.78
395.84	1153.88
396.04	1240.48
396.23	1221.76
396.42	1177.29
396.62	1231.12
396.81	1198.35
397.00	1102.39
397.19	1165.59
397.39	1160.91
397.58	1242.82
397.77	1167.93
397.97	1287.29
398.16	1146.86
398.35	1228.78
398.55	1219.42
398.74	1245.16
398.93	1235.80
399.12	1322.40
399.32	1226.44
399.51	1315.38
399.70	1306.02
399.90	1341.13
400.09	1432.41
400.28	1343.47
400.47	1306.02
400.67	1348.15
400.86	1411.34
401.05	1348.15
401.24	1303.68
401.44	1371.55
401.63	1502.62
401.82	1413.68
402.01	1338.79
402.21	1423.05
402.40	1427.73
402.59	1511.99
402.78	1430.07
402.97	1437.09
403.17	1514.33
403.36	1530.71
403.55	1465.18
403.74	1486.24
403.93	1614.97
404.13	1523.69
404.32	1547.09
404.51	1526.03
404.70	1577.52
404.89	1488.58
405.09	1680.50
405.28	1572.84
405.47	1647.74
405.66	1675.82
405.85	1645.40
406.05	1671.14
406.24	1729.66
406.43	1706.25
406.62	1722.63
406.81	1722.63
407.00	1792.85
407.20	1722.63
407.39	1701.57
407.58	1760.08
407.77	1898.17
407.96	1961.37
408.15	1802.21
408.34	1799.87
408.54	1846.68
408.73	1774.13
408.92	1853.70
409.11	1914.56
409.30	1813.92
409.49	1874.77
409.68	1858.39
409.87	1898.17
410.07	1942.64
410.26	2043.29
410.45	2003.50
410.64	1921.58
410.83	1944.99
411.02	1989.46
411.21	2083.08
411.40	2008.18
411.59	2167.34
411.78	2059.67
411.98	2125.21
412.17	2188.40
412.36	2139.25
412.55	2101.80
412.74	2282.02
412.93	2251.60
413.12	2300.75
413.31	2326.49
413.50	2373.30
413.69	2275.00
413.88	2394.37
414.07	2455.22
414.26	2413.09
414.45	2619.06
414.64	2506.71
414.83	2429.48
415.02	2546.50
415.22	2642.46
415.41	2635.44
415.60	2492.67
415.79	2588.63
415.98	2565.23
416.17	2700.98
416.36	2628.42
416.55	2663.53
416.74	2715.02
416.93	2752.47
417.12	2710.34
417.31	2778.22
417.50	2719.70
417.69	2841.41
417.88	2778.22
418.07	2717.36
418.26	2764.17
418.45	2850.77
418.64	2918.65
418.83	2871.84
419.02	2881.20
419.21	3026.31
419.39	2972.48
419.58	3007.59
419.77	2925.67
419.96	3103.55
420.15	2972.48
420.34	3033.33
420.53	3026.31
420.72	3204.19
420.91	3119.93
421.10	3164.40
421.29	3199.51
421.48	3045.04
421.67	3119.93
421.86	3194.83
422.05	3222.92
422.24	3150.36
422.43	3215.90
422.61	3173.77
422.80	3267.39
422.99	3316.54
423.18	3363.35
423.37	3185.47
423.56	3307.18
423.75	3199.51
423.94	3162.06
424.13	3145.68
424.32	3201.85
424.50	3466.33
424.69	3447.61
424.88	3389.10
425.07	3384.41
425.26	3262.71
425.45	3304.84
425.64	3201.85
425.83	3192.49
426.01	3325.90
426.20	3239.30
426.39	3361.01
426.58	3290.79
426.77	3445.27
426.96	3379.73
427.15	3382.07
427.33	3421.86
427.52	3459.31
427.71	3414.84
427.90	3574.00
428.09	3529.53
428.28	3478.04
428.46	3555.27
428.65	3473.36
428.84	3588.04
429.03	3627.83
429.22	3571.66
429.40	3662.94
429.59	3702.73
429.78	3569.32
429.97	3499.10
430.16	3604.42
430.34	3660.60
430.53	3674.64
430.72	3803.37
430.91	3655.92
431.10	3698.05
431.28	3845.50
431.47	3723.79
431.66	3775.28
431.85	3684.00
432.03	3892.31
432.22	4035.08
432.41	3831.46
432.60	3810.39
432.79	3763.58
432.97	3922.74
433.16	4058.49
433.35	3854.86
433.54	3971.89
433.72	4023.38
433.91	3960.19
434.10	4187.22
434.28	4011.68
434.47	3995.29
434.66	4196.58
434.85	4109.98
435.03	4046.79
435.22	4224.67
435.41	4175.52
435.59	4161.47
435.78	4189.56
435.97	4294.88
436.16	4236.37
436.34	4255.09
436.53	4269.14
436.72	4329.99
436.90	4161.47
437.09	4292.54
437.28	4262.12
437.46	4329.99
437.65	4315.95
437.84	4414.25
438.02	4367.44
438.21	4353.40
438.40	4414.25
438.58	4575.75
438.77	4690.43
438.96	4636.60
439.14	4582.77
439.33	4664.69
439.52	4690.43
439.70	4678.73
439.89	4964.28
440.08	4772.35
440.26	4716.18
440.45	4734.90
440.63	4781.71
440.82	4971.30
441.01	4826.18
441.19	4945.55
441.38	4919.81
441.57	5116.41
441.75	5067.26
441.94	5212.37
442.12	5200.67
442.31	5263.86
442.50	5275.57
442.68	5207.69
442.87	5139.82
443.05	5352.81
443.24	5455.79
443.43	5233.44
443.61	5322.38
443.80	5631.33
443.98	5427.70
444.17	5102.37
444.35	5434.72
444.54	5479.19
444.73	5369.19
444.91	5416.00
445.10	5355.15
445.28	5341.10
445.47	5378.55
445.65	5369.19
445.84	5497.92
446.02	5329.40
446.21	5423.02
446.39	5411.32
446.58	5565.79
446.77	5455.79
446.95	5416.00
447.14	5533.03
447.32	5500.26
447.51	5399.62
447.69	5495.58
447.88	5486.22
448.06	5533.03
448.25	5561.11
448.43	5497.92
448.62	5584.52
448.80	5462.81
448.99	5516.64
449.17	5696.86
449.36	5664.10
449.54	5591.54
449.73	5762.40
449.91	5813.89
450.10	5853.68
450.28	5825.59
450.46	5853.68
450.65	5874.74
450.83	5898.15
451.02	5881.77
451.20	5856.02
451.39	5907.51
451.57	5951.98
451.76	5926.24
451.94	6001.13
452.13	6136.88
452.31	6001.13
452.49	5907.51
452.68	6228.17
452.86	6008.16
453.05	6118.16
453.23	6120.50
453.42	6076.03
453.60	5963.68
453.78	6218.80
453.97	6136.88
454.15	6071.35
454.34	6111.14
454.52	6450.52
454.70	6384.98
454.89	6408.39
455.07	6251.57
455.26	6328.81
455.44	6569.88
455.62	6445.84
455.81	6403.71
455.99	6633.08
456.17	6434.13
456.36	6340.51
456.54	6590.95
456.73	6651.80
456.91	6661.16
457.09	6775.85
457.28	6766.49
457.46	6628.40
457.64	6703.29
457.83	6743.08
458.01	6607.33
458.19	6939.69
458.38	6925.65
458.56	6883.52
458.74	6932.67
458.93	7007.56
459.11	6960.75
459.29	6951.39
459.48	6862.45
459.66	6991.18
459.84	6944.37
460.03	7070.76
460.21	7030.97
460.39	7119.91
460.57	7068.42
460.76	7133.95
460.94	7066.08
461.12	7145.66
461.31	7208.85
461.49	7176.08
461.67	7314.17
461.85	7442.90
462.04	7346.94
462.22	7522.48
462.40	7487.37
462.59	7208.85
462.77	7314.17
462.95	7573.97
463.13	7431.20
463.32	7475.67
463.50	7632.49
463.68	7482.69
463.86	7665.25
464.05	7564.61
464.23	7583.34
464.41	7702.70
464.59	7585.68
464.78	7644.19
464.96	7873.56
465.14	7681.64
465.32	7927.39
465.50	7840.79
465.69	7702.70
465.87	7824.41
466.05	7915.69
466.23	7899.31
466.41	7941.44
466.60	8088.89
466.78	7985.91
466.96	7915.69
467.14	7740.15
467.32	8018.68
467.51	8095.91
467.69	7796.32
467.87	7896.97
468.05	8072.51
468.23	7859.52
468.41	8046.76
468.60	8086.55
468.78	8086.55
468.96	8056.12
469.14	8374.44
469.32	8297.20
469.50	8091.23
469.69	8365.07
469.87	8358.05
470.05	8458.70
470.23	8329.97
470.41	8458.70
470.59	8358.05
470.77	8547.64
470.95	8521.89
471.14	8805.10
471.32	8557.00
471.50	8734.88
471.68	8592.11
471.86	8671.68
472.04	8842.54
472.22	8985.32
472.40	8924.46
472.58	8833.18
472.77	8947.87
472.95	8903.40
473.13	9224.05
473.31	8947.87
473.49	9200.65
473.67	9004.04
473.85	9128.09
474.03	9355.12
474.21	9310.65
474.39	9425.34
474.57	9413.63
474.75	9338.74
474.93	9399.59
475.12	9551.73
475.30	9593.86
475.48	9460.45
475.66	9645.35
475.84	9645.35
476.02	9760.03
476.20	9851.31
476.38	9781.10
476.56	10221.12
476.74	10101.75
476.92	10040.90
477.10	10139.20
477.28	10293.68
477.46	10417.72
477.64	10289.00
477.82	10403.68
478.00	10832.00
478.18	10602.63
478.36	10766.46
478.54	10963.07
478.72	10789.87
478.90	11091.80
479.08	11131.59
479.26	11227.55
479.44	11295.43
479.62	11066.05
479.80	11452.24
479.98	11492.03
480.16	11660.55
480.34	11529.48
480.52	11953.12
480.70	11875.88
480.88	11756.51
481.06	11878.22
481.24	11892.26
481.41	12313.56
481.59	12184.83
481.77	12084.19
481.95	12479.74
482.13	12674.00
482.31	12549.95
482.49	12540.59
482.67	12851.88
482.85	12762.94
483.03	12978.27
483.21	13032.10
483.39	13362.12
483.57	13057.85
483.74	13130.41
483.92	13357.44
484.10	13563.40
484.28	13584.47
484.46	13638.30
484.64	14012.79
484.82	13881.72
485.00	14111.09
485.18	14193.01
485.35	14394.29
485.53	14389.61
485.71	14394.29
485.89	14644.73
486.07	14752.40
486.25	14721.97
486.43	14682.18
486.61	15000.49
486.78	15253.27
486.96	15054.33
487.14	15253.27
487.32	15641.80
487.50	15545.84
487.68	15531.80
487.85	16013.95
488.03	15922.66
488.21	16159.06
488.39	16229.27
488.57	16327.58
488.75	16409.50
488.92	16549.93
489.10	16987.61
489.28	16800.37
489.46	17003.99
489.64	16847.18
489.81	17277.83
489.99	17418.27
490.17	17486.14
490.35	17483.80
490.53	17797.43
490.70	17752.96
490.88	18052.55
491.06	18218.73
491.24	18183.62
491.41	18398.95
491.59	18452.78
491.77	18314.69
491.95	18717.26
492.13	18740.67
492.30	18766.42
492.48	18930.25
492.66	19037.92
492.84	18721.95
493.01	19054.30
493.19	19477.94
493.37	19253.25
493.54	19592.62
493.72	19639.44
493.90	19688.59
494.08	19695.61
494.25	19763.48
494.43	20058.39
494.61	20233.93
494.79	20676.29
494.96	20294.79
495.14	20531.18
495.32	20819.07
495.49	20657.57
495.67	20779.28
495.85	21095.25
496.02	21142.06
496.20	21153.76
496.38	21282.49
496.55	21563.36
496.73	21694.43
496.91	21738.90
497.09	21982.31
497.26	21598.46
497.44	22045.51
497.62	22050.19
497.79	22221.05
497.97	22284.24
498.14	22588.51
498.32	22281.90
498.50	22546.38
498.67	22785.12
498.85	22696.17
499.03	22787.46
499.20	22881.08
499.38	23070.66
499.56	23349.18
499.73	23491.96
499.91	23491.96
500.08	23770.48
500.26	23473.23
500.44	23646.43
500.61	23758.78
500.79	23805.59
500.97	23903.89
501.14	24112.20
501.32	24486.68
501.49	24004.53
501.67	24322.85
501.84	24563.92
502.02	24610.73
502.20	24596.69
502.37	24205.82
502.55	24587.33
502.72	24655.20
502.90	24652.86
503.07	24823.72
503.25	25174.80
503.43	24945.43
503.60	25041.39
503.78	25270.76
503.95	25270.76
504.13	25521.20
504.30	25846.54
504.48	25500.14
504.65	25661.63
504.83	25436.94
505.01	26008.03
505.18	25685.04
505.36	26391.88
505.53	26005.69
505.71	26485.50
505.88	26153.15
506.06	26146.12
506.23	26115.70
506.41	26183.57
506.58	26649.34
506.76	26719.56
506.93	26628.27
507.11	26642.32
507.28	27168.94
507.46	26995.74
507.63	27000.42
507.81	27082.34
507.98	27393.63
508.16	27204.05
508.33	27433.42
508.50	27662.79
508.68	27857.06
508.85	27885.14
509.03	27620.66
509.20	27704.92
509.38	27857.06
509.55	28259.63
509.73	28091.11
509.90	27946.00
510.08	28229.20
510.25	28327.50
510.42	28098.13
510.60	28634.11
510.77	28219.84
510.95	28666.88
511.12	28453.89
511.30	28549.85
511.47	28470.28
511.64	28741.78
511.82	28833.06
511.99	28952.43
512.17	29071.79
512.34	29076.48
512.51	29280.10
512.69	29539.90
512.86	29469.69
513.04	29558.63
513.21	29591.39
513.38	29596.07
513.56	29701.40
513.73	29560.97
513.90	30012.69
514.08	29708.42
514.25	29947.15
514.43	30125.04
514.60	30403.56
514.77	30382.49
514.95	30265.47
515.12	30188.23
515.29	30169.51
515.47	30527.61
515.64	30553.35
515.81	30630.59
515.99	30895.07
516.16	30986.35
516.33	30881.03
516.51	30632.93
516.68	30670.38
516.85	31042.53
517.03	31234.45
517.20	31168.91
517.37	31501.27
517.54	31150.19
517.72	31241.47
517.89	31615.96
518.06	31468.50
518.24	31414.67
518.41	31543.40
518.58	31805.54
518.75	31524.68
518.93	32070.02
519.10	31880.44
519.27	32119.17
519.45	32086.40
519.62	32566.21
519.79	32173.00
519.96	32126.19
520.14	32233.86
520.31	32135.56
520.48	32687.92
520.65	32395.35
520.83	33069.43
521.00	32905.59
521.17	32542.81
521.34	33008.58
521.52	32903.25
521.69	33151.35
521.86	33181.77
522.03	33422.85
522.20	33574.98
522.38	33310.50
522.55	33684.99
522.72	33156.03
522.89	33799.68
523.07	33560.94
523.24	33584.35
523.41	33369.02
523.58	33591.37
523.75	33750.52
523.92	33773.93
524.10	33551.58
524.27	34036.07
524.44	33539.88
524.61	34169.48
524.78	34237.36
524.96	34270.12
525.13	34335.66
525.30	34363.75
525.47	34639.93
525.64	34775.68
525.81	35164.21
525.98	34881.00
526.16	34642.27
526.33	34738.23
526.50	34883.34
526.67	34897.39
526.84	34892.71
527.01	35028.46
527.18	34717.17
527.36	35161.87
527.53	35129.10
527.70	35337.41
527.87	35456.78
528.04	35377.20
528.21	35278.89
528.38	35339.75
528.55	35599.55
528.72	35246.13
528.89	35213.36
529.07	35730.62
529.24	35651.04
529.41	35529.33
529.58	35892.12
529.75	35777.43
529.92	36392.99
530.09	36016.16
530.26	35985.74
530.43	36149.57
530.60	35735.30
530.77	35793.81
530.94	36481.93
531.11	36140.21
531.28	36470.23
531.46	36367.24
531.63	36114.47
531.80	36470.23
531.97	36594.28
532.14	36584.91
532.31	36463.21
532.48	36809.61
532.65	36994.51
532.82	36940.68
532.99	37034.30
533.16	36814.29
533.33	37221.54
533.50	37191.11
533.67	37109.19
533.84	36755.77
534.01	36933.65
534.18	37422.83
534.35	38082.86
534.52	37001.53
534.69	37649.86
534.86	37703.69
535.03	37834.76
535.20	37518.79
535.37	37694.33
535.54	37539.85
535.71	37507.08
535.88	37720.07
536.05	38183.50
536.22	38202.22
536.38	37963.49
536.55	38108.60
536.72	37673.26
536.89	38014.98
537.06	37816.04
537.23	38010.30
537.40	38052.43
537.57	38059.45
537.74	37909.66
537.91	38445.64
538.08	38815.44
538.25	38412.87
538.42	38405.85
538.59	38920.77
538.75	38323.93
538.92	38651.61
539.09	38782.68
539.26	38534.58
539.43	38590.75
539.60	38937.15
539.77	38536.92
539.94	38836.51
540.11	38909.07
540.28	39414.62
540.44	38944.17
540.61	39072.90
540.78	38609.48
540.95	39232.06
541.12	38714.80
541.29	39519.95
541.46	39089.29
541.62	38857.57
541.79	38930.13
541.96	39257.81
542.13	39456.75
542.30	39569.10
542.47	39435.69
542.63	39718.89
542.80	39812.51
542.97	39871.03
543.14	40165.93
543.31	40240.83
543.48	39999.76
543.64	40346.15
543.81	40601.27
543.98	40109.76
544.15	40048.91
544.32	40229.13
544.48	40378.92
544.65	40304.02
544.82	40570.85
544.99	40133.17
545.16	40509.99
545.32	40301.68
545.49	40987.46
545.66	40697.24
545.83	40711.28
546.00	40648.08
546.16	40900.86
546.33	40741.71
546.50	40439.78
546.67	40982.78
546.83	40390.62
547.00	40533.40
547.17	40566.16
547.34	40706.60
547.50	40624.68
547.67	41120.87
547.84	41167.68
548.00	41130.23
548.17	41776.22
548.34	41242.58
548.51	41202.79
548.67	41380.67
548.84	41179.39
549.01	41425.14
549.18	41429.82
549.34	41490.68
549.51	42036.02
549.68	41944.74
549.84	41500.04
550.01	41701.32
550.18	41558.55
550.34	41464.93
550.51	41937.72
550.68	41834.74
550.84	41507.06
551.01	42136.66
551.18	41888.57
551.34	41862.82
551.51	41998.57
551.68	41694.30
551.84	41553.87
552.01	41310.46
552.18	42064.11
552.34	41902.61
552.51	42277.10
552.68	41860.48
552.84	42127.30
553.01	42775.63
553.18	42054.75
553.34	42363.70
553.51	42176.45
553.67	42363.70
553.84	42447.96
554.01	42131.98
554.17	42260.71
554.34	42909.04
554.51	42197.52
554.67	42403.49
554.84	42691.37
555.00	42562.64
555.17	42515.83
555.33	42885.64
555.50	42845.85
555.67	42539.24
555.83	43143.09
556.00	43192.25
556.16	43430.98
556.33	42562.64
556.50	43138.41
556.66	42822.44
556.83	42927.77
556.99	43075.22
557.16	43100.97
557.32	42850.53
557.49	43171.18
557.65	42316.89
557.82	42873.93
557.98	43283.53
558.15	43157.14
558.32	43531.62
558.48	43365.45
558.65	42941.81
558.81	43229.69
558.98	43725.89
559.14	43349.06
559.31	43515.24
559.47	43119.69
559.64	43484.81
559.80	43676.74
559.97	43658.01
560.13	43395.87
560.30	43482.47
560.46	43456.73
560.63	43601.84
560.79	43461.41
560.96	43653.33
561.12	43660.35
561.29	44076.97
561.45	43765.68
561.61	43643.97
561.78	44114.42
561.94	43721.21
562.11	43601.84
562.27	43863.98
562.44	43672.06
562.60	43779.72
562.77	44201.02
562.93	43861.64
563.10	44083.99
563.26	43854.62
563.42	44638.70
563.59	43777.38
563.75	43833.55
563.92	44189.31
564.08	43777.38
564.24	44790.83
564.41	43852.28
564.57	44182.29
564.74	44156.55
564.90	44458.48
565.07	44467.84
565.23	44147.18
565.39	44154.21
565.56	44046.54
565.72	44072.29
565.88	44194.00
566.05	44060.58
566.21	44020.80
566.38	44512.31
566.54	43875.68
566.70	44641.04
566.87	44547.42
567.03	44121.44
567.19	44388.26
567.36	44685.51
567.52	44631.68
567.68	44596.57
567.85	44811.90
568.01	44825.94
568.17	44395.28
568.34	44638.70
568.50	44350.81
568.66	44563.80
568.83	44615.29
568.99	44699.55
569.15	44802.53
569.32	44051.22
569.48	44760.40
569.64	44449.11
569.81	45141.91
569.97	44519.33
570.13	44715.93
570.30	44666.78
570.46	44732.32
570.62	44779.13
570.78	44615.29
570.95	44605.93
571.11	44985.10
571.27	44704.23
571.43	44486.56
571.60	44928.92
571.76	44470.18
571.92	44882.11
572.09	44734.66
572.25	44582.52
572.41	44601.25
572.57	45067.02
572.74	45064.67
572.90	44425.71
573.06	45151.27
573.22	44807.22
573.38	44980.42
573.55	44924.24
573.71	44786.15
573.87	45244.90
574.03	44835.30
574.20	44856.37
574.36	44933.60
574.52	45010.84
574.68	45052.97
574.84	44788.49
575.01	45188.72
575.17	45338.52
575.33	45177.02
575.49	44973.39
575.65	45013.18
575.82	45153.62
575.98	45165.32
576.14	45556.19
576.30	45483.63
576.46	45418.10
576.62	45071.70
576.79	45109.14
576.95	44919.56
577.11	45652.15
577.27	44837.64
577.43	45195.74
577.59	44982.76
577.75	44945.31
577.92	45284.68
578.08	45282.34
578.24	45165.32
578.40	45502.35
578.56	45170.00
578.72	45216.81
578.88	45134.89
579.04	44788.49
579.21	45434.48
579.37	45361.92
579.53	45235.53
579.69	44758.06
579.85	45322.13
580.01	45247.24
580.17	45212.13
580.33	45312.77
580.49	45102.12
580.65	45535.12
580.82	45308.09
580.98	45249.58
581.14	44713.59
581.30	45322.13
581.46	45425.12
581.62	45441.50
581.78	45270.64
581.94	45544.48
582.10	45095.10
582.26	45312.77
582.42	45584.27
582.58	45329.16
582.74	45308.09
582.90	45504.70
583.06	45483.63
583.22	45280.00
583.38	45361.92
583.54	45551.51
583.70	45081.06
583.86	45694.28
584.02	45104.46
584.18	45598.32
584.34	45474.27
584.50	45310.43
584.66	45366.60
584.82	45422.78
584.98	45631.08
585.14	45893.22
585.30	45535.12
585.46	45427.46
585.62	45570.23
585.78	45315.11
585.94	45174.68
586.10	45308.09
586.26	45755.13
586.42	45397.03
586.58	45420.44
586.74	45324.47
586.90	45181.70
587.06	45160.64
587.22	45319.79
587.38	45294.05
587.54	45972.80
587.70	45834.71
587.86	45839.39
588.02	45645.13
588.18	45481.29
588.34	45495.33
588.49	45518.74
588.65	45429.80
588.81	45488.31
588.97	45661.51
589.13	45343.20
589.29	45738.75
589.45	45942.38
589.61	45839.39
589.77	45778.54
589.93	45607.68
590.08	45731.73
