SpectraSuite Data File
++++++++++++++++++++++++++++++++++++
Date: Fri Oct 25 11:22:47 EDT 2013
User: price-jones
Dark Spectrum Present: No
Reference Spectrum Present: No
Number of Sampled Component Spectra: 1
Spectrometers: USB2+H05261
Integration Time (usec): 100000 (USB2+H05261)
Spectra Averaged: 1 (USB2+H05261)
Boxcar Smoothing: 0 (USB2+H05261)
Correct for Electrical Dark: No (USB2+H05261)
Strobe/Lamp Enabled: No (USB2+H05261)
Correct for Detector Non-linearity: No (USB2+H05261)
Correct for Stray Light: No (USB2+H05261)
Number of Pixels in Processed Spectrum: 2048
>>>>>Begin Processed Spectral Data<<<<<
365.73	222.35
365.92	222.35
366.12	222.35
366.32	128.73
366.52	107.66
366.72	170.86
366.91	93.62
367.11	117.03
367.31	95.96
367.51	133.41
367.70	112.35
367.90	70.22
368.10	112.35
368.30	126.39
368.49	91.28
368.69	131.07
368.89	140.43
369.09	140.43
369.28	175.54
369.48	173.20
369.68	135.75
369.87	198.95
370.07	175.54
370.27	224.69
370.47	311.29
370.66	540.66
370.86	608.54
371.06	580.45
371.25	699.82
371.45	585.13
371.65	662.37
371.84	690.46
372.04	671.73
372.24	669.39
372.44	645.99
372.63	746.63
372.83	678.76
373.03	734.93
373.22	692.80
373.42	702.16
373.62	746.63
373.81	767.70
374.01	807.48
374.21	758.33
374.40	882.38
374.60	814.51
374.79	809.83
374.99	844.93
375.19	833.23
375.38	840.25
375.58	858.98
375.78	800.46
375.97	880.04
376.17	849.61
376.37	894.08
376.56	870.68
376.76	844.93
376.95	882.38
377.15	854.30
377.35	851.96
377.54	863.66
377.74	905.79
377.93	905.79
378.13	891.74
378.33	884.72
378.52	870.68
378.72	994.73
378.91	1008.77
379.11	861.32
379.31	912.81
379.50	861.32
379.70	961.96
379.89	1020.47
380.09	973.66
380.28	964.30
380.48	945.58
380.68	990.05
380.87	999.41
381.07	1078.99
381.26	957.28
381.46	1001.75
381.65	1004.09
381.85	978.34
382.04	1123.46
382.24	1001.75
382.43	1095.37
382.63	1060.26
382.83	1078.99
383.02	1039.20
383.22	1062.60
383.41	1121.12
383.61	1081.33
383.80	1111.75
384.00	1142.18
384.19	1259.21
384.39	1118.78
384.58	1165.59
384.78	1151.54
384.97	1137.50
385.17	1116.44
385.36	1064.94
385.56	1144.52
385.75	1188.99
385.95	1144.52
386.14	1170.27
386.34	1165.59
386.53	1205.38
386.72	1233.46
386.92	1186.65
387.11	1249.85
387.31	1327.08
387.50	1205.38
387.70	1181.97
387.89	1369.21
388.09	1315.38
388.28	1315.38
388.48	1188.99
388.67	1280.27
388.86	1266.23
389.06	1364.53
389.25	1343.47
389.45	1390.28
389.64	1324.74
389.84	1345.81
390.03	1350.49
390.22	1420.71
390.42	1296.66
390.61	1317.72
390.81	1390.28
391.00	1378.58
391.19	1439.43
391.39	1523.69
391.58	1479.22
391.78	1439.43
391.97	1406.66
392.16	1409.00
392.36	1500.28
392.55	1486.24
392.75	1565.82
392.94	1596.25
393.13	1511.99
393.33	1500.28
393.52	1533.05
393.71	1547.09
393.91	1544.75
394.10	1678.16
394.29	1610.29
394.49	1640.72
394.68	1633.69
394.88	1617.31
395.07	1614.97
395.26	1654.76
395.46	1664.12
395.65	1638.38
395.84	1755.40
396.04	1797.53
396.23	1872.43
396.42	1809.23
396.62	1757.74
396.81	1823.28
397.00	1755.40
397.19	1732.00
397.39	1743.70
397.58	1760.08
397.77	1792.85
397.97	1788.17
398.16	1811.57
398.35	1757.74
398.55	1820.94
398.74	1851.36
398.93	1970.73
399.12	2003.50
399.32	1905.20
399.51	1916.90
399.70	1923.92
399.90	1956.69
400.09	2134.57
400.28	2062.01
400.47	2001.16
400.67	2104.14
400.86	2054.99
401.05	1984.77
401.24	2085.42
401.44	2026.90
401.63	2069.03
401.82	2136.91
402.01	2115.84
402.21	2160.31
402.40	2188.40
402.59	2169.68
402.78	2244.57
402.97	2165.00
403.17	2326.49
403.36	2317.13
403.55	2282.02
403.74	2289.04
403.93	2298.41
404.13	2335.85
404.32	2335.85
404.51	2417.77
404.70	2509.05
404.89	2291.38
405.09	2509.05
405.28	2483.31
405.47	2457.56
405.66	2541.82
405.85	2452.88
406.05	2583.95
406.24	2696.30
406.43	2534.80
406.62	2630.76
406.81	2597.99
407.00	2464.58
407.20	2686.94
407.39	2663.53
407.58	2773.53
407.77	2778.22
407.96	2853.11
408.15	2796.94
408.34	2724.38
408.54	2815.66
408.73	2864.82
408.92	2761.83
409.11	2799.28
409.30	2888.22
409.49	2939.71
409.68	3075.46
409.87	2965.46
410.07	3019.29
410.26	2928.01
410.45	3054.40
410.64	3192.49
410.83	3150.36
411.02	3129.30
411.21	3325.90
411.40	2986.52
411.59	3180.79
411.78	3091.85
411.98	3199.51
412.17	3321.22
412.36	3295.47
412.55	3323.56
412.74	3297.81
412.93	3370.37
413.12	3370.37
413.31	3449.95
413.50	3426.54
413.69	3393.78
413.88	3578.68
414.07	3592.72
414.26	3639.53
414.45	3714.43
414.64	3693.37
414.83	3756.56
415.02	3786.99
415.22	3758.90
415.41	3861.88
415.60	3929.76
415.79	3983.59
415.98	3974.23
416.17	3880.61
416.36	3941.46
416.55	3969.55
416.74	4126.36
416.93	4016.36
417.12	4032.74
417.31	4152.11
417.50	4269.14
417.69	4227.01
417.88	4266.80
418.07	4252.75
418.26	4241.05
418.45	4320.63
418.64	4573.41
418.83	4554.68
419.02	4547.66
419.21	4402.55
419.39	4526.60
419.58	4519.57
419.77	4386.16
419.96	4655.33
420.15	4688.09
420.34	4575.75
420.53	4559.36
420.72	4709.16
420.91	4690.43
421.10	4685.75
421.29	4905.76
421.48	4657.67
421.67	4765.33
421.86	4781.71
422.05	4807.46
422.24	4762.99
422.43	4865.97
422.61	5025.13
422.80	4983.00
422.99	4847.25
423.18	4994.70
423.37	5043.85
423.56	4826.18
423.75	4961.94
423.94	4868.31
424.13	4599.15
424.32	4755.97
424.50	5018.11
424.69	4992.36
424.88	4985.34
425.07	5011.09
425.26	5020.45
425.45	5027.47
425.64	4901.08
425.83	4908.10
426.01	5011.09
426.20	5146.84
426.39	5160.88
426.58	5041.51
426.77	5074.28
426.96	5100.03
427.15	5256.84
427.33	5149.18
427.52	4994.70
427.71	5247.48
427.90	5252.16
428.09	5315.36
428.28	5441.75
428.46	5416.00
428.65	5385.57
428.84	5605.58
429.03	5645.37
429.22	5387.91
429.40	5589.20
429.59	5493.24
429.78	5071.94
429.97	5203.01
430.16	5497.92
430.34	5703.89
430.53	5685.16
430.72	5785.80
430.91	5720.27
431.10	5631.33
431.28	5692.18
431.47	5781.12
431.66	5893.47
431.85	5706.23
432.03	5806.87
432.22	6038.58
432.41	5982.41
432.60	6066.67
432.79	5991.77
432.97	6029.22
433.16	5959.00
433.35	5900.49
433.54	5940.28
433.72	6005.81
433.91	6143.91
434.10	6253.91
434.28	6050.28
434.47	6169.65
434.66	6333.49
434.85	6263.27
435.03	6457.54
435.22	6424.77
435.41	6628.40
435.59	6448.18
435.78	6509.03
435.97	6499.67
436.16	6462.22
436.34	6527.75
436.53	6408.39
436.72	6551.16
436.90	6300.72
437.09	6693.93
437.28	6612.01
437.46	6670.53
437.65	6738.40
437.84	6684.57
438.02	6780.53
438.21	6806.28
438.40	6665.85
438.58	6871.81
438.77	7105.87
438.96	7016.93
439.14	7077.78
439.33	7119.91
439.52	7304.81
439.70	7243.96
439.89	7239.28
440.08	7449.93
440.26	7215.87
440.45	7510.78
440.63	7581.00
440.82	7599.72
441.01	7466.31
441.19	7620.78
441.38	7754.19
441.57	7920.37
441.75	7747.17
441.94	7948.46
442.12	7927.39
442.31	8072.51
442.50	8058.46
442.68	7962.50
442.87	8128.68
443.05	8133.36
443.24	8163.79
443.43	8109.96
443.61	8348.69
443.80	8629.56
443.98	8142.72
444.17	7971.86
444.35	8255.07
444.54	8308.90
444.73	8430.61
444.91	8318.26
445.10	8449.33
445.28	8498.49
445.47	8241.03
445.65	8383.80
445.84	8477.42
446.02	8517.21
446.21	8257.41
446.39	8524.23
446.58	8404.86
446.77	8517.21
446.95	8119.32
447.14	8451.67
447.32	8737.22
447.51	8475.08
447.69	8332.31
447.88	8557.00
448.06	8557.00
448.25	8514.87
448.43	8610.83
448.62	8601.47
448.80	8564.02
448.99	8615.51
449.17	8844.88
449.36	8638.92
449.54	8908.08
449.73	9104.68
449.91	8938.51
450.10	8990.00
450.28	9004.04
450.46	9137.45
450.65	9032.13
450.83	8980.64
451.02	8997.02
451.20	9254.48
451.39	9071.92
451.57	9177.24
451.76	8954.89
451.94	9273.20
452.13	9341.08
452.31	9415.98
452.49	9249.80
452.68	9308.31
452.86	9444.06
453.05	9617.26
453.23	9476.83
453.42	9331.72
453.60	9406.61
453.78	9647.69
453.97	9540.02
454.15	9593.86
454.34	9572.79
454.52	9767.06
454.70	9708.54
454.89	9706.20
455.07	9762.37
455.26	9736.63
455.44	9905.15
455.62	10003.45
455.81	10012.81
455.99	9844.29
456.17	10150.90
456.36	10176.65
456.54	10401.34
456.73	10218.78
456.91	10614.33
457.09	10443.47
457.28	10408.36
457.46	10518.37
457.64	10619.01
457.83	10420.06
458.01	10377.94
458.19	10642.42
458.38	10565.18
458.56	10562.84
458.74	10743.06
458.93	10698.59
459.11	10733.70
459.29	10752.42
459.48	10832.00
459.66	10801.57
459.84	10803.91
460.03	11070.73
460.21	10789.87
460.39	11068.39
460.57	11154.99
460.76	11084.78
460.94	11344.58
461.12	11192.44
461.31	11075.42
461.49	11180.74
461.67	11255.64
461.85	11407.77
462.04	11257.98
462.22	11845.45
462.40	11609.06
462.59	11339.90
462.77	11372.66
462.95	11651.19
463.13	11583.31
463.32	11517.78
463.50	11749.49
463.68	11779.92
463.86	11826.73
464.05	11613.74
464.23	11749.49
464.41	12049.08
464.59	11833.75
464.78	12250.36
464.96	12135.68
465.14	11873.54
465.32	12025.67
465.50	12182.49
465.69	12198.87
465.87	12079.50
466.05	12329.94
466.23	12208.23
466.41	12208.23
466.60	12517.18
466.78	12095.89
466.96	12081.85
467.14	12437.61
467.32	12463.35
467.51	12580.38
467.69	12131.00
467.87	12348.67
468.05	12753.58
468.23	12489.10
468.41	12603.78
468.60	12407.18
468.78	12772.30
468.96	12482.08
469.14	12725.49
469.32	13202.96
469.50	12601.44
469.69	13209.98
469.87	13217.01
470.05	13022.74
470.23	13205.30
470.41	13083.59
470.59	13329.35
470.77	13399.57
470.95	13547.02
471.14	13738.94
471.32	13371.48
471.50	13785.76
471.68	13699.16
471.86	13750.65
472.04	13715.54
472.22	14101.73
472.40	13827.88
472.58	13783.41
472.77	14043.21
472.95	14167.26
473.13	14546.43
473.31	14319.40
473.49	14113.43
473.67	14094.71
473.85	14251.52
474.03	14480.89
474.21	14321.74
474.39	14768.78
474.57	14839.00
474.75	14909.21
474.93	15173.69
475.12	14867.08
475.30	15147.95
475.48	14951.34
475.66	14876.44
475.84	15344.55
476.02	15630.10
476.20	15208.80
476.38	15873.51
476.56	15976.50
476.74	16030.33
476.92	16077.14
477.10	15737.76
477.28	16147.36
477.46	16023.31
477.64	16460.99
477.82	16533.54
478.00	17046.12
478.18	16748.87
478.36	17144.42
478.54	17338.69
478.72	17076.55
478.90	17561.04
479.08	17731.90
479.26	17628.92
479.44	17661.68
479.62	17961.27
479.80	18342.78
479.98	18197.67
480.16	18593.22
480.34	18492.57
480.52	18314.69
480.70	18490.23
480.88	18607.26
481.06	18918.55
481.24	18967.70
481.41	19309.42
481.59	19480.28
481.77	19810.29
481.95	19644.12
482.13	19992.86
482.31	19822.00
482.49	20318.19
482.67	19903.92
482.85	20690.34
483.03	21018.01
483.21	20908.01
483.39	21006.31
483.57	20772.25
483.74	21149.08
483.92	21172.49
484.10	21174.83
484.28	21706.13
484.46	22157.85
484.64	22408.29
484.82	22075.93
485.00	22441.06
485.18	22562.76
485.35	22991.08
485.53	22752.35
485.71	23257.90
485.89	23627.71
486.07	23751.76
486.25	23260.24
486.43	23681.54
486.61	24198.80
486.78	24067.73
486.96	24114.54
487.14	24905.64
487.32	24664.57
487.50	24863.51
487.68	24865.85
487.85	25312.89
488.03	25727.17
488.21	25933.14
488.39	26195.28
488.57	26375.50
488.75	26169.53
488.92	26431.67
489.10	26700.83
489.28	26642.32
489.46	26799.13
489.64	27248.52
489.81	27789.18
489.99	27772.80
490.17	28233.88
490.35	28360.27
490.53	28669.22
490.70	28306.44
490.88	28395.38
491.06	28685.61
491.24	28680.92
491.41	29060.09
491.59	29242.65
491.77	29205.20
491.95	29792.68
492.13	29816.08
492.30	30146.10
492.48	30216.32
492.66	30389.52
492.84	30354.41
493.01	30504.20
493.19	30485.48
493.37	31208.70
493.54	31646.38
493.72	31641.70
493.90	31449.78
494.08	32156.62
494.25	32191.73
494.43	32245.56
494.61	32704.31
494.79	32624.73
494.96	32580.26
495.14	32926.66
495.32	33457.96
495.49	33315.19
495.67	33591.37
495.85	33479.02
496.02	34167.14
496.20	34249.06
496.38	34190.55
496.55	34443.32
496.73	35037.82
496.91	34766.32
497.09	34939.52
497.26	35213.36
497.44	35105.70
497.62	35653.38
497.79	36261.92
497.97	35751.68
498.14	36041.91
498.32	36367.24
498.50	36437.46
498.67	36285.33
498.85	36402.35
499.03	37275.37
499.20	37291.76
499.38	36919.61
499.56	37319.84
499.73	37495.38
499.91	37514.11
500.08	37731.78
500.26	37591.34
500.44	38047.75
500.61	37989.24
500.79	37881.57
500.97	38071.15
501.14	38323.93
501.32	38752.25
501.49	38817.78
501.67	38515.86
501.84	39068.22
502.02	39007.37
502.20	39433.35
502.37	39475.48
502.55	38990.98
502.72	39250.78
502.90	39468.45
503.07	39526.97
503.25	39435.69
503.43	39672.08
503.60	40327.43
503.78	40474.88
503.95	40353.18
504.13	40779.15
504.30	40598.93
504.48	40725.32
504.65	41076.40
504.83	40947.67
505.01	41696.64
505.18	41153.64
505.36	41684.94
505.53	41008.53
505.71	41745.80
505.88	41488.34
506.06	41399.40
506.23	42129.64
506.41	41603.02
506.58	42508.81
506.76	42127.30
506.93	42583.71
507.11	42593.07
507.28	42698.39
507.46	42660.94
507.63	43393.53
507.81	43423.96
507.98	43058.84
508.16	42845.85
508.33	43732.91
508.50	43540.99
508.68	43552.69
508.85	44296.98
509.03	44254.85
509.20	43866.32
509.38	44423.37
509.55	44545.08
509.73	44666.78
509.90	44935.95
510.08	44924.24
510.25	44524.01
510.42	44725.30
510.60	45158.30
510.77	45338.52
510.95	45436.82
511.12	45127.87
511.30	44912.54
511.47	45820.67
511.64	45439.16
511.82	46110.89
511.99	45642.79
512.17	46347.29
512.34	45682.58
512.51	46766.24
512.69	46260.69
512.86	46396.44
513.04	46855.18
513.21	46630.49
513.38	47014.34
513.56	47070.51
513.73	46813.05
513.90	47344.36
514.08	47189.88
514.25	47227.33
514.43	47505.85
514.60	47468.40
514.77	47744.59
514.95	47819.49
515.12	47796.08
515.29	47639.26
515.47	48156.52
515.64	48549.73
515.81	48264.19
515.99	48484.20
516.16	48673.78
516.33	48374.19
516.51	48905.49
516.68	48514.62
516.85	48491.22
517.03	48699.53
517.20	49036.56
517.37	48861.02
517.54	49015.50
517.72	49024.86
517.89	49247.21
518.06	49654.47
518.24	49338.49
518.41	49195.72
518.58	49223.81
518.75	49516.37
518.93	49588.93
519.10	49600.63
519.27	49745.75
519.45	49790.22
519.62	50106.19
519.79	50363.65
519.96	49975.12
520.14	50263.00
520.31	50300.45
520.48	50358.97
520.65	50490.04
520.83	50693.66
521.00	50824.73
521.17	50747.50
521.34	51124.32
521.52	50829.41
521.69	50698.34
521.86	51075.17
522.03	51180.49
522.20	51573.70
522.38	51412.21
522.55	51536.26
522.72	51473.06
522.89	51484.76
523.07	51573.70
523.24	51842.87
523.41	51735.20
523.58	51522.21
523.75	51772.65
523.92	51938.83
524.10	52196.29
524.27	51842.87
524.44	52339.06
524.61	52332.04
524.78	52570.77
524.96	52390.55
525.13	52530.98
525.30	52622.26
525.47	52491.19
525.64	52584.82
525.81	52783.76
525.98	52935.90
526.16	52912.49
526.33	52809.51
526.50	53228.46
526.67	52856.32
526.84	53200.38
527.01	52919.51
527.18	53418.05
527.36	53137.18
527.53	53165.27
527.70	53396.98
527.87	53495.28
528.04	53151.23
528.21	53483.58
528.38	53188.67
528.55	53783.17
528.72	53474.22
528.89	53549.12
529.07	53532.73
529.24	53694.23
529.41	53759.76
529.58	53719.98
529.75	53911.90
529.92	53806.58
530.09	54035.95
530.26	54033.61
530.43	54010.20
530.60	53853.39
530.77	54014.88
530.94	54356.60
531.11	54218.51
531.28	54298.09
531.46	54452.56
531.63	54384.69
531.80	54581.29
531.97	54501.71
532.14	54667.89
532.31	54515.76
532.48	54749.81
532.65	54628.10
532.82	54466.61
532.99	54644.49
533.16	54691.30
533.33	54997.91
533.50	54859.82
533.67	54988.55
533.84	54674.91
534.01	54955.78
534.18	55238.98
534.35	55360.69
534.52	55136.00
534.69	55269.41
534.86	55435.59
535.03	55274.09
535.20	55332.60
535.37	55367.71
535.54	55278.77
535.71	55334.95
535.88	55353.67
536.05	55622.83
536.22	55760.92
536.38	55648.58
536.55	55899.01
536.72	55791.35
536.89	55819.44
537.06	55629.85
537.23	55723.47
537.40	55543.25
537.57	56020.72
537.74	55849.86
537.91	56231.37
538.08	55969.23
538.25	55889.65
538.42	56025.40
538.59	56409.25
538.75	56163.50
538.92	56219.67
539.09	56528.62
539.26	56360.10
539.43	56107.32
539.60	56135.41
539.77	56427.98
539.94	56591.81
540.11	56395.21
540.28	56463.08
540.44	56430.32
540.61	56427.98
540.78	56535.64
540.95	56598.83
541.12	56605.86
541.29	56863.32
541.46	56589.47
541.62	56673.73
541.79	56999.07
541.96	56704.16
542.13	56577.77
542.30	56657.35
542.47	57010.77
542.63	56896.08
542.80	57162.90
542.97	57148.86
543.14	57212.06
543.31	57073.96
543.48	57228.44
543.64	57488.24
543.81	57097.37
543.98	57326.74
544.15	57509.30
544.32	57621.65
544.48	57490.58
544.65	57378.23
544.82	57598.24
544.99	57371.21
545.16	57338.44
545.32	57535.05
545.49	57701.23
545.66	57841.66
545.83	57841.66
546.00	57743.36
546.16	57881.45
546.33	57762.08
546.50	57614.63
546.67	57748.04
546.83	57581.86
547.00	57766.76
547.17	57958.69
547.34	57907.19
547.50	57961.03
547.67	58220.83
547.84	57963.37
548.00	58080.39
548.17	58389.34
548.34	58246.57
548.51	58391.68
548.67	58445.52
548.84	58323.81
549.01	58281.68
549.18	58223.17
549.34	58246.57
549.51	58347.21
549.68	58379.98
549.84	58340.19
550.01	58585.95
550.18	58433.81
550.34	58440.84
550.51	58553.18
550.68	58592.97
550.84	58651.48
551.01	58628.08
551.18	58410.41
551.34	58511.05
551.51	58745.11
551.68	58700.64
551.84	58707.66
552.01	58555.52
552.18	58876.18
552.34	58712.34
552.51	59061.08
552.68	58700.64
552.84	58812.98
553.01	59096.19
553.18	58705.32
553.34	58941.71
553.51	58953.41
553.67	58714.68
553.84	59004.91
554.01	59208.53
554.17	58962.78
554.34	59161.72
554.51	59054.06
554.67	59133.63
554.84	59075.12
555.00	59138.32
555.17	58930.01
555.33	59306.83
555.50	59044.69
555.67	59058.74
555.83	59114.91
556.00	59363.01
556.16	59484.72
556.33	59316.20
556.50	59250.66
556.66	59367.69
556.83	59131.29
556.99	59426.20
557.16	59690.68
557.32	59700.04
557.49	59817.07
557.65	59618.13
557.82	59487.06
557.98	59529.19
558.15	59494.08
558.32	59629.83
558.48	59344.28
558.65	59657.91
558.81	59568.97
558.98	59819.41
559.14	59810.05
559.31	59613.44
559.47	59739.83
559.64	59779.62
559.80	59817.07
559.97	59601.74
560.13	59718.77
560.30	59788.98
560.46	59929.42
560.63	59746.86
560.79	59952.82
560.96	60011.34
561.12	59948.14
561.29	59978.57
561.45	59856.86
561.61	59803.03
561.78	59913.03
561.94	59898.99
562.11	59999.63
562.27	59915.37
562.44	60123.68
562.60	59994.95
562.77	60060.49
562.93	59964.52
563.10	59997.29
563.26	59966.87
563.42	60203.26
563.59	59952.82
563.75	60149.43
563.92	60126.02
564.08	60137.72
564.24	60390.50
564.41	60151.77
564.57	60121.34
564.74	60331.99
564.90	60453.70
565.07	60331.99
565.23	60303.90
565.39	60062.83
565.56	60418.59
565.72	60207.94
565.88	60090.91
566.05	60320.29
566.21	60182.19
566.38	60205.60
566.54	60343.69
566.70	60374.12
566.87	60362.42
567.03	60182.19
567.19	60561.36
567.36	60376.46
567.52	60420.93
567.68	60610.51
567.85	60404.55
568.01	60617.53
568.17	60317.95
568.34	60456.04
568.50	60645.62
568.66	60420.93
568.83	60528.59
568.99	60280.50
569.15	60556.68
569.32	60395.18
569.48	60519.23
569.64	60502.85
569.81	60470.08
569.97	60519.23
570.13	60610.51
570.30	60568.38
570.46	60575.40
570.62	60870.31
570.78	60458.38
570.95	60474.76
571.11	60692.43
571.27	60577.75
571.43	60657.32
571.60	60685.41
571.76	60584.77
571.92	60692.43
572.09	60664.35
572.25	60559.02
572.41	60570.72
572.57	60734.56
572.74	60912.44
572.90	60598.81
573.06	60657.32
573.22	60598.81
573.38	60662.00
573.55	60701.79
573.71	61090.32
573.87	60860.95
574.03	60697.11
574.20	60846.91
574.36	60685.41
574.52	60811.80
574.68	60741.58
574.84	60966.27
575.01	60828.18
575.17	60598.81
575.33	60858.61
575.49	61048.19
575.65	60910.10
575.82	60987.34
575.98	60856.27
576.14	61127.77
576.30	60954.57
576.46	60776.69
576.62	60708.82
576.79	60860.95
576.95	60535.62
577.11	60905.42
577.27	60842.23
577.43	60945.21
577.59	60755.63
577.75	60856.27
577.92	60917.12
578.08	60786.05
578.24	61087.98
578.40	61066.92
578.56	61200.33
578.72	61034.15
578.88	61062.24
579.04	61015.43
579.21	60846.91
579.37	61132.45
579.53	61244.80
579.69	60612.85
579.85	61020.11
580.01	61120.75
580.17	60860.95
580.33	61038.83
580.49	61183.94
580.65	61038.83
580.82	60718.18
580.98	60802.44
581.14	61010.74
581.30	61174.58
581.46	60797.76
581.62	61127.77
581.78	61073.94
581.94	61106.71
582.10	61078.62
582.26	61043.51
582.42	61043.51
582.58	60882.02
582.74	61195.65
582.90	61001.38
583.06	60931.17
583.22	61010.74
583.38	61139.47
583.54	61090.32
583.70	61127.77
583.86	61137.13
584.02	61090.32
584.18	61031.81
584.34	61041.17
584.50	61050.53
584.66	60889.04
584.82	61015.43
584.98	61240.12
585.14	61048.19
585.30	60959.25
585.46	61174.58
585.62	61188.63
585.78	61221.39
585.94	60893.72
586.10	61118.41
586.26	61200.33
586.42	61272.88
586.58	61099.68
586.74	61003.72
586.90	61195.65
587.06	60788.39
587.22	61181.60
587.38	61071.60
587.54	61207.35
587.70	61247.14
587.86	61059.90
588.02	61230.75
588.18	61446.08
588.34	61181.60
588.49	61134.79
