SpectraSuite Data File
++++++++++++++++++++++++++++++++++++
Date: Fri Oct 25 10:48:12 EDT 2013
User: price-jones
Dark Spectrum Present: No
Reference Spectrum Present: No
Number of Sampled Component Spectra: 1
Spectrometers: USB2+H05261
Integration Time (usec): 100000 (USB2+H05261)
Spectra Averaged: 1 (USB2+H05261)
Boxcar Smoothing: 0 (USB2+H05261)
Correct for Electrical Dark: No (USB2+H05261)
Strobe/Lamp Enabled: No (USB2+H05261)
Correct for Detector Non-linearity: No (USB2+H05261)
Correct for Stray Light: No (USB2+H05261)
Number of Pixels in Processed Spectrum: 2048
>>>>>Begin Processed Spectral Data<<<<<
365.73	159.16
365.92	159.16
366.12	159.16
366.32	93.62
366.52	65.54
366.72	53.83
366.91	2.34
367.11	32.77
367.31	16.38
367.51	2.34
367.70	65.54
367.90	93.62
368.10	16.38
368.30	72.56
368.49	25.75
368.69	119.37
368.89	21.06
369.09	37.45
369.28	145.11
369.48	0.00
369.68	100.64
369.87	114.69
370.07	166.18
370.27	147.45
370.47	243.42
370.66	395.55
370.86	418.96
371.06	470.45
371.25	479.81
371.45	451.72
371.65	402.57
371.84	447.04
372.04	559.39
372.24	486.83
372.44	461.09
372.63	547.69
372.83	554.71
373.03	503.22
373.22	507.90
373.42	535.98
373.62	559.39
373.81	554.71
374.01	578.11
374.21	554.71
374.40	547.69
374.60	526.62
374.79	594.50
374.99	540.66
375.19	660.03
375.38	674.07
375.58	526.62
375.78	650.67
375.97	641.31
376.17	617.90
376.37	554.71
376.56	552.37
376.76	538.32
376.95	624.92
377.15	582.79
377.35	533.64
377.54	573.43
377.74	638.97
377.93	636.63
378.13	624.92
378.33	699.82
378.52	620.24
378.72	699.82
378.91	657.69
379.11	613.22
379.31	655.35
379.50	631.94
379.70	667.05
379.89	791.10
380.09	648.33
380.28	620.24
380.48	650.67
380.68	674.07
380.87	690.46
381.07	725.57
381.26	753.65
381.46	669.39
381.65	657.69
381.85	744.29
382.04	662.37
382.24	711.52
382.43	753.65
382.63	685.78
382.83	713.86
383.02	669.39
383.22	718.54
383.41	655.35
383.61	704.50
383.80	734.93
384.00	739.61
384.19	793.44
384.39	812.17
384.58	725.57
384.78	753.65
384.97	791.10
385.17	713.86
385.36	760.67
385.56	791.10
385.75	683.44
385.95	774.72
386.14	755.99
386.34	837.91
386.53	788.76
386.72	744.29
386.92	887.06
387.11	833.23
387.31	908.13
387.50	889.40
387.70	657.69
387.89	791.10
388.09	774.72
388.28	844.93
388.48	854.30
388.67	917.49
388.86	910.47
389.06	849.61
389.25	903.45
389.45	807.48
389.64	870.68
389.84	868.34
390.03	912.81
390.22	905.79
390.42	861.32
390.61	917.49
390.81	896.43
391.00	961.96
391.19	1011.11
391.39	1046.22
391.58	957.28
391.78	966.64
391.97	1013.45
392.16	947.92
392.36	987.71
392.55	973.66
392.75	940.90
392.94	994.73
393.13	997.07
393.33	959.62
393.52	1020.47
393.71	1053.24
393.91	1004.09
394.10	992.39
394.29	1100.05
394.49	1048.56
394.68	1097.71
394.88	1158.57
395.07	1118.78
395.26	1055.58
395.46	1196.01
395.65	1053.24
395.84	1137.50
396.04	1149.20
396.23	1015.79
396.42	1172.61
396.62	1172.61
396.81	1282.61
397.00	1167.93
397.19	1188.99
397.39	1226.44
397.58	1144.52
397.77	1233.46
397.97	1252.19
398.16	1231.12
398.35	1280.27
398.55	1252.19
398.74	1214.74
398.93	1387.94
399.12	1451.13
399.32	1240.48
399.51	1315.38
399.70	1434.75
399.90	1437.09
400.09	1481.56
400.28	1434.75
400.47	1514.33
400.67	1416.02
400.86	1500.28
401.05	1551.78
401.24	1406.66
401.44	1488.58
401.63	1427.73
401.82	1516.67
402.01	1432.41
402.21	1502.62
402.40	1554.12
402.59	1528.37
402.78	1507.30
402.97	1586.88
403.17	1600.93
403.36	1636.03
403.55	1533.05
403.74	1696.89
403.93	1584.54
404.13	1717.95
404.32	1568.16
404.51	1617.31
404.70	1661.78
404.89	1790.51
405.09	1783.49
405.28	1802.21
405.47	1767.10
405.66	1729.66
405.85	1755.40
406.05	1846.68
406.24	1802.21
406.43	1764.76
406.62	1827.96
406.81	1937.96
407.00	1907.54
407.20	1865.41
407.39	1792.85
407.58	1973.07
407.77	1921.58
407.96	1947.33
408.15	1996.48
408.34	1940.30
408.54	2005.84
408.73	2054.99
408.92	2085.42
409.11	2078.40
409.30	2073.71
409.49	2019.88
409.68	2040.95
409.87	2069.03
410.07	2139.25
410.26	2134.57
410.45	2050.31
410.64	2172.02
410.83	2279.68
411.02	2298.41
411.21	2183.72
411.40	2335.85
411.59	2303.09
411.78	2438.84
411.98	2267.98
412.17	2417.77
412.36	2197.76
412.55	2338.20
412.74	2401.39
412.93	2401.39
413.12	2480.97
413.31	2560.55
413.50	2478.63
413.69	2483.31
413.88	2530.12
414.07	2572.25
414.26	2668.21
414.45	2593.31
414.64	2626.08
414.83	2663.53
415.02	2670.55
415.22	2757.15
415.41	2609.70
415.60	2813.32
415.79	2895.24
415.98	2928.01
416.17	2892.90
416.36	2768.85
416.55	2810.98
416.74	2864.82
416.93	2771.19
417.12	2998.23
417.31	3091.85
417.50	2979.50
417.69	3185.47
417.88	2981.84
418.07	3126.96
418.26	3091.85
418.45	3073.12
418.64	3283.77
418.83	3300.16
419.02	3162.06
419.21	3225.26
419.39	3304.84
419.58	3141.00
419.77	3262.71
419.96	3183.13
420.15	3201.85
420.34	3485.06
420.53	3279.09
420.72	3496.76
420.91	3335.26
421.10	3543.57
421.29	3393.78
421.48	3365.69
421.67	3393.78
421.86	3438.25
422.05	3407.82
422.24	3545.91
422.43	3599.74
422.61	3454.63
422.80	3524.85
422.99	3463.99
423.18	3510.80
423.37	3684.00
423.56	3583.36
423.75	3637.19
423.94	3496.76
424.13	3241.64
424.32	3297.81
424.50	3618.47
424.69	3609.11
424.88	3538.89
425.07	3515.48
425.26	3552.93
425.45	3597.40
425.64	3543.57
425.83	3581.02
426.01	3602.08
426.20	3592.72
426.39	3756.56
426.58	3578.68
426.77	3597.40
426.96	3569.32
427.15	3545.91
427.33	3733.15
427.52	3702.73
427.71	3756.56
427.90	3592.72
428.09	3833.80
428.28	3819.75
428.46	3705.07
428.65	3918.06
428.84	3786.99
429.03	3906.35
429.22	3744.86
429.40	3838.48
429.59	3880.61
429.78	3719.11
429.97	3730.81
430.16	3667.62
430.34	3922.74
430.53	3819.75
430.72	3953.16
430.91	3866.56
431.10	4021.04
431.28	4070.19
431.47	4100.62
431.66	4088.92
431.85	4142.75
432.03	4227.01
432.22	4184.88
432.41	4259.78
432.60	4287.86
432.79	4105.30
432.97	4306.59
433.16	4264.46
433.35	4245.73
433.54	4210.62
433.72	4273.82
433.91	4163.81
434.10	4341.69
434.28	4318.29
434.47	4379.14
434.66	4470.42
434.85	4287.86
435.03	4449.36
435.22	4463.40
435.41	4657.67
435.59	4610.86
435.78	4613.20
435.97	4662.35
436.16	4472.76
436.34	4545.32
436.53	4713.84
436.72	4678.73
436.90	4528.94
437.09	4669.37
437.28	4557.02
437.46	4699.80
437.65	4669.37
437.84	4723.20
438.02	4688.09
438.21	4706.82
438.40	4781.71
438.58	4849.59
438.77	4933.85
438.96	4877.68
439.14	5057.90
439.33	4901.08
439.52	5008.75
439.70	5046.20
439.89	5069.60
440.08	5179.61
440.26	5226.42
440.45	5249.82
440.63	5315.36
440.82	5462.81
441.01	5423.02
441.19	5397.28
441.38	5502.60
441.57	5378.55
441.75	5614.95
441.94	5472.17
442.12	5694.52
442.31	5554.09
442.50	5692.18
442.68	5645.37
442.87	5621.97
443.05	5636.01
443.24	5853.68
443.43	5792.83
443.61	5722.61
443.80	6050.28
443.98	5621.97
444.17	5586.86
444.35	5893.47
444.54	5921.56
444.73	5774.10
444.91	5816.23
445.10	5937.94
445.28	5738.99
445.47	5877.09
445.65	5668.78
445.84	5877.09
446.02	6005.81
446.21	5937.94
446.39	5933.26
446.58	6026.88
446.77	5916.87
446.95	5980.07
447.14	6024.54
447.32	5926.24
447.51	5874.74
447.69	6064.33
447.88	6019.86
448.06	6040.92
448.25	5984.75
448.43	6003.47
448.62	6017.52
448.80	5951.98
448.99	6214.12
449.17	6291.36
449.36	6085.39
449.54	6258.59
449.73	6303.06
449.91	6221.14
450.10	6370.94
450.28	6553.50
450.46	6328.81
450.65	6396.68
450.83	6499.67
451.02	6370.94
451.20	6480.94
451.39	6305.40
451.57	6539.46
451.76	6492.65
451.94	6551.16
452.13	6595.63
452.31	6471.58
452.49	6480.94
452.68	6656.48
452.86	6597.97
453.05	6565.20
453.23	6586.27
453.42	6614.35
453.60	6642.44
453.78	6689.25
453.97	6733.72
454.15	6672.87
454.34	6492.65
454.52	6801.60
454.70	6782.87
454.89	6785.21
455.07	6937.35
455.26	6993.52
455.44	6925.65
455.62	6752.45
455.81	6860.11
455.99	7194.81
456.17	7061.40
456.36	7183.10
456.54	7178.42
456.73	7260.34
456.91	7330.56
457.09	7501.42
457.28	7433.54
457.46	7353.96
457.64	7463.97
457.83	7197.15
458.01	7255.66
458.19	7501.42
458.38	7356.30
458.56	7494.40
458.74	7456.95
458.93	7417.16
459.11	7461.63
459.29	7400.77
459.48	7375.03
459.66	7520.14
459.84	7520.14
460.03	7707.38
460.21	7761.22
460.39	7581.00
460.57	7606.74
460.76	7737.81
460.94	7803.35
461.12	7695.68
461.31	7674.62
461.49	8011.65
461.67	7728.45
461.85	8138.04
462.04	7812.71
462.22	8353.37
462.40	8217.62
462.59	8035.06
462.77	8060.80
462.95	8013.99
463.13	8065.49
463.32	7955.48
463.50	8271.45
463.68	8042.08
463.86	8116.98
464.05	7957.82
464.23	8074.85
464.41	8149.75
464.59	8049.10
464.78	8423.59
464.96	8484.44
465.14	8173.15
465.32	8430.61
465.50	8287.84
465.69	8269.11
465.87	8365.07
466.05	8334.65
466.23	8428.27
466.41	8425.93
466.60	8542.96
466.78	8383.80
466.96	8444.65
467.14	8318.26
467.32	8594.45
467.51	8610.83
467.69	8348.69
467.87	8512.53
468.05	8678.71
468.23	8519.55
468.41	8533.59
468.60	8510.19
468.78	8781.69
468.96	8561.68
469.14	8683.39
469.32	8779.35
469.50	8657.64
469.69	8947.87
469.87	8854.25
470.05	9041.49
470.23	8898.72
470.41	8884.67
470.59	8975.95
470.77	8758.28
470.95	8945.53
471.14	9233.41
471.32	9001.70
471.50	9434.70
471.68	9444.06
471.86	9289.59
472.04	9329.38
472.22	9579.81
472.40	9221.71
472.58	9476.83
472.77	9458.10
472.95	9654.71
473.13	9853.66
473.31	9753.01
473.49	9589.17
473.67	9565.77
473.85	9813.87
474.03	9846.63
474.21	9755.35
474.39	9926.21
474.57	9998.77
474.75	10244.52
474.93	10099.41
475.12	10181.33
475.30	10286.65
475.48	10300.70
475.66	10326.44
475.84	10186.01
476.02	10305.38
476.20	10347.51
476.38	10562.84
476.56	10733.70
476.74	10750.08
476.92	10717.31
477.10	10635.39
477.28	10960.73
477.46	10937.32
477.64	11087.12
477.82	11077.76
478.00	11538.84
478.18	11250.96
478.36	11227.55
478.54	11597.35
478.72	11489.69
478.90	11875.88
479.08	12018.65
479.26	12100.57
479.44	11960.14
479.62	11892.26
479.80	11932.05
479.98	12222.28
480.16	12430.59
480.34	12358.03
480.52	12547.61
480.70	12489.10
480.88	12666.98
481.06	12599.10
481.24	12732.51
481.41	12826.14
481.59	13151.47
481.77	13004.02
481.95	13247.43
482.13	13167.85
482.31	13390.20
482.49	13483.83
482.67	13523.62
482.85	13399.57
483.03	14017.47
483.21	13858.31
483.39	13769.37
483.57	13984.70
483.74	14242.16
483.92	14387.27
484.10	14148.54
484.28	14520.68
484.46	14588.56
484.64	14850.70
484.82	14604.94
485.00	14857.72
485.18	15171.35
485.35	15176.03
485.53	14988.79
485.71	14965.39
485.89	15522.43
486.07	15307.10
486.25	15372.64
486.43	15765.85
486.61	15674.57
486.78	16042.03
486.96	16051.39
487.14	16369.71
487.32	16372.05
487.50	16793.34
487.68	16397.79
487.85	16762.92
488.03	16901.01
488.21	17238.05
488.39	16919.73
488.57	17256.77
488.75	17118.68
488.92	17837.22
489.10	17994.04
489.28	17785.73
489.46	18134.47
489.64	18024.47
489.81	18370.86
489.99	18476.19
490.17	18625.98
490.35	18813.23
490.53	18546.40
490.70	18831.95
490.88	18853.02
491.06	19171.33
491.24	19190.05
491.41	18813.23
491.59	19215.80
491.77	19056.64
491.95	19651.14
492.13	19534.11
492.30	20030.30
492.48	19936.68
492.66	19833.70
492.84	20175.42
493.01	20210.53
493.19	20065.41
493.37	20655.23
493.54	20329.89
493.72	21006.31
493.90	20915.03
494.08	20987.58
494.25	21163.12
494.43	20889.28
494.61	21654.64
494.79	21312.92
494.96	21624.21
495.14	21600.80
495.32	21991.67
495.49	21741.24
495.67	21858.26
495.85	22054.87
496.02	22403.61
496.20	22394.25
496.38	22623.62
496.55	22593.19
496.73	22930.23
496.91	22534.68
497.09	23002.78
497.26	22885.76
497.44	22946.61
497.62	22958.31
497.79	23197.05
497.97	23374.93
498.14	23461.53
498.32	23391.31
498.50	23393.65
498.67	24130.92
498.85	23796.23
499.03	24318.17
499.20	24159.01
499.38	24252.63
499.56	24093.47
499.73	24631.80
499.91	24694.99
500.08	24592.01
500.26	24486.68
500.44	24648.18
500.61	25006.28
500.79	24620.10
500.97	25081.18
501.14	25333.96
501.32	24945.43
501.49	25481.41
501.67	25472.05
501.84	25383.11
502.02	25535.24
502.20	25909.73
502.37	25764.62
502.55	25771.64
502.72	25692.06
502.90	26206.98
503.07	26059.52
503.25	26199.96
503.43	25881.64
503.60	26139.10
503.78	26132.08
503.95	26391.88
504.13	26569.76
504.30	26836.58
504.48	26511.25
504.65	26593.17
504.83	27072.98
505.01	26824.88
505.18	26906.80
505.36	27367.88
505.53	27559.81
505.71	27744.71
505.88	27613.64
506.06	27070.64
506.23	28194.09
506.41	27346.82
506.58	28250.27
506.76	27580.87
506.93	27910.89
507.11	28158.99
507.28	28058.34
507.46	28168.35
507.63	28273.67
507.81	28336.87
507.98	27690.88
508.16	28027.92
508.33	28882.21
508.50	28449.21
508.68	28769.86
508.85	28835.40
509.03	29137.33
509.20	28819.02
509.38	29027.32
509.55	29596.07
509.73	29219.25
509.90	29020.30
510.08	29336.27
510.25	29326.91
510.42	29614.80
510.60	29764.59
510.77	29771.61
510.95	30118.01
511.12	29479.05
511.30	29839.49
511.47	30000.99
511.64	30445.69
511.82	30312.28
511.99	30033.75
512.17	30457.39
512.34	29963.54
512.51	30345.05
512.69	30553.35
512.86	30675.06
513.04	30625.91
513.21	30639.95
513.38	30649.32
513.56	30689.10
513.73	30796.77
513.90	31325.73
514.08	30988.69
514.25	31318.71
514.43	30721.87
514.60	31002.74
514.77	31054.23
514.95	31730.64
515.12	31288.28
515.29	31630.00
515.47	31529.36
515.64	31894.48
515.81	31545.74
515.99	32297.05
516.16	31508.29
516.33	31803.20
516.51	31737.66
516.68	31538.72
516.85	31641.70
517.03	31859.37
517.20	31974.06
517.37	31999.80
517.54	32690.26
517.72	32496.00
517.89	32250.24
518.06	31992.78
518.24	32191.73
518.41	32598.98
518.58	32542.81
518.75	32376.63
518.93	33024.96
519.10	32671.54
519.27	33024.96
519.45	32793.25
519.62	33701.37
519.79	32954.74
519.96	33376.04
520.14	33694.35
520.31	33041.34
520.48	33546.90
520.65	33130.28
520.83	33914.36
521.00	33647.54
521.17	33687.33
521.34	33703.71
521.52	33914.36
521.69	34539.29
521.86	34272.46
522.03	34073.52
522.20	34054.79
522.38	34508.86
522.55	34728.87
522.72	34422.26
522.89	34335.66
523.07	34504.18
523.24	34490.13
523.41	34848.24
523.58	34504.18
523.75	35440.39
523.92	34651.63
524.10	34918.45
524.27	35229.74
524.44	35065.91
524.61	35290.60
524.78	35232.08
524.96	35377.20
525.13	35667.42
525.30	35721.26
525.47	35370.18
525.64	35328.05
525.81	35662.74
525.98	35370.18
526.16	35225.06
526.33	35580.82
526.50	35534.01
526.67	35424.01
526.84	35545.72
527.01	35688.49
527.18	35732.96
527.36	36102.76
527.53	36105.10
527.70	36411.71
527.87	36142.55
528.04	35964.67
528.21	36229.15
528.38	36484.27
528.55	36481.93
528.72	36442.14
528.89	36685.56
529.07	36573.21
529.24	36332.14
529.41	36542.78
529.58	36425.76
529.75	36430.44
529.92	36811.95
530.09	37015.57
530.26	37064.72
530.43	37158.34
530.60	36463.21
530.77	37237.92
530.94	37544.53
531.11	37148.98
531.28	37347.93
531.46	37397.08
531.63	37481.34
531.80	37420.48
531.97	37317.50
532.14	37453.25
532.31	37357.29
532.48	37621.77
532.65	37680.28
532.82	37682.62
532.99	37699.01
533.16	37635.81
533.33	38043.07
533.50	38349.68
533.67	38230.31
533.84	37820.72
534.01	37790.29
534.18	38167.12
534.35	38218.61
534.52	37975.19
534.69	37947.11
534.86	38667.99
535.03	38382.45
535.20	38295.85
535.37	38354.36
535.54	38616.50
535.71	38455.00
535.88	38443.30
536.05	38394.15
536.22	38859.91
536.38	38675.01
536.55	38773.31
536.72	38651.61
536.89	38646.93
537.06	38855.23
537.23	39119.71
537.40	38820.13
537.57	38628.20
537.74	39288.23
537.91	39765.70
538.08	39147.80
538.25	38728.84
538.42	38925.45
538.59	39332.70
538.75	39400.58
538.92	39599.52
539.09	39372.49
539.26	39145.46
539.43	39604.20
539.60	39756.34
539.77	39192.27
539.94	39297.59
540.11	39295.25
540.28	39426.32
540.44	39304.62
540.61	39056.52
540.78	39236.74
540.95	39510.58
541.12	39503.56
541.29	39548.03
541.46	39592.50
541.62	40369.56
541.79	40268.92
541.96	39337.38
542.13	39871.03
542.30	40044.23
542.47	40149.55
542.63	40187.00
542.80	40158.91
542.97	40751.07
543.14	40617.66
543.31	40711.28
543.48	40739.36
543.64	40992.14
543.81	40877.46
543.98	41141.94
544.15	40865.75
544.32	40884.48
544.48	41242.58
544.65	41242.58
544.82	41254.28
544.99	40676.17
545.16	41172.36
545.32	40861.07
545.49	41099.81
545.66	41495.36
545.83	41228.54
546.00	41521.10
546.16	41500.04
546.33	40917.25
546.50	41305.77
546.67	40959.38
546.83	40854.05
547.00	41469.61
547.17	41530.47
547.34	41364.29
547.50	41647.49
547.67	41778.56
547.84	41617.07
548.00	41521.10
548.17	41897.93
548.34	41881.55
548.51	41759.84
548.67	42094.53
548.84	42000.91
549.01	41827.71
549.18	41837.08
549.34	42094.53
549.51	41933.04
549.68	41998.57
549.84	42014.96
550.01	41991.55
550.18	41532.81
550.34	41734.09
550.51	42316.89
550.68	42604.77
550.84	41764.52
551.01	42497.11
551.18	42204.54
551.34	42202.20
551.51	42347.31
551.68	42211.56
551.84	42890.32
552.01	42218.58
552.18	42689.03
552.34	42410.51
552.51	42628.18
552.68	42677.33
552.84	43051.81
553.01	43241.40
553.18	42740.52
553.34	42721.80
553.51	42700.73
553.67	42799.04
553.84	42693.71
554.01	43075.22
554.17	42808.40
554.34	42946.49
554.51	42866.91
554.67	43320.98
554.84	42717.12
555.00	42740.52
555.17	42789.67
555.33	43152.46
555.50	43194.59
555.67	43124.37
555.83	43007.34
556.00	43051.81
556.16	43510.56
556.33	43281.19
556.50	43498.86
556.66	43667.37
556.83	43089.26
556.99	43416.94
557.16	43484.81
557.32	43154.80
557.49	43133.73
557.65	43302.25
557.82	43349.06
557.98	43304.59
558.15	43468.43
558.32	43725.89
558.48	43274.16
558.65	43590.14
558.81	43412.26
558.98	43482.47
559.14	43629.93
559.31	43335.02
559.47	43545.67
559.64	43463.75
559.80	43842.92
559.97	43761.00
560.13	43650.99
560.30	43384.17
560.46	43433.32
560.63	43732.91
560.79	43407.58
560.96	43906.11
561.12	43842.92
561.29	43590.14
561.45	43831.21
561.61	43817.17
561.78	43833.55
561.94	43388.85
562.11	43817.17
562.27	43765.68
562.44	43896.75
562.60	44392.94
562.77	44339.11
562.93	43592.48
563.10	44053.56
563.26	43650.99
563.42	43952.92
563.59	43842.92
563.75	43791.42
563.92	44514.65
564.08	43885.04
564.24	44266.55
564.41	44226.76
564.57	43952.92
564.74	44486.56
564.90	43880.36
565.07	44245.49
565.23	44287.62
565.39	44147.18
565.56	44240.81
565.72	44109.74
565.88	43927.17
566.05	43847.60
566.21	44107.40
566.38	44156.55
566.54	44156.55
566.70	44128.46
566.87	44121.44
567.03	44521.67
567.19	44701.89
567.36	44643.38
567.52	44112.08
567.68	44706.57
567.85	43973.98
568.01	44598.91
568.17	44060.58
568.34	44519.33
568.50	44273.57
568.66	44563.80
568.83	44240.81
568.99	44069.95
569.15	44512.31
569.32	44442.09
569.48	44142.50
569.64	44933.60
569.81	44781.47
569.97	44385.92
570.13	44360.17
570.30	44058.24
570.46	44505.29
570.62	44378.90
570.78	44390.60
570.95	44528.69
571.11	44191.65
571.27	44240.81
571.43	44287.62
571.60	44896.16
571.76	44694.87
571.92	44453.79
572.09	44610.61
572.25	44889.13
572.41	44336.77
572.57	44994.46
572.74	44568.48
572.90	44509.97
573.06	44542.74
573.22	44680.83
573.38	44865.73
573.55	44406.98
573.71	44706.57
573.87	44779.13
574.03	44041.86
574.20	44334.43
574.36	44437.41
574.52	44456.14
574.68	44914.88
574.84	44903.18
575.01	44629.34
575.17	44172.93
575.33	44378.90
575.49	44481.88
575.65	44891.48
575.82	44816.58
575.98	45085.74
576.14	45198.09
576.30	44636.36
576.46	44524.01
576.62	44636.36
576.79	44715.93
576.95	44346.13
577.11	44608.27
577.27	44533.37
577.43	44697.21
577.59	44662.10
577.75	44446.77
577.92	44814.24
578.08	44552.10
578.24	43981.01
578.40	44828.28
578.56	44767.43
578.72	44861.05
578.88	44877.43
579.04	44449.11
579.21	44765.09
579.37	44493.58
579.53	45006.16
579.69	44439.75
579.85	44622.31
580.01	44884.45
580.17	44713.59
580.33	45162.98
580.49	45338.52
580.65	44912.54
580.82	44650.40
580.98	44437.41
581.14	44591.89
581.30	44994.46
581.46	44729.98
581.62	44776.79
581.78	44905.52
581.94	45392.35
582.10	44573.16
582.26	45214.47
582.42	44872.75
582.58	44779.13
582.74	44500.61
582.90	45223.83
583.06	44854.03
583.22	45191.06
583.38	44905.52
583.54	44945.31
583.70	44610.61
583.86	44854.03
584.02	44746.36
584.18	44591.89
584.34	44662.10
584.50	44940.63
584.66	44692.53
584.82	44760.40
584.98	44905.52
585.14	45071.70
585.30	44179.95
585.46	45069.36
585.62	44552.10
585.78	45155.96
585.94	44697.21
586.10	44685.51
586.26	44751.04
586.42	45008.50
586.58	44769.77
586.74	45233.19
586.90	44718.28
587.06	44751.04
587.22	45184.04
587.38	45244.90
587.54	44835.30
587.70	44666.78
587.86	44926.58
588.02	45076.38
588.18	45003.82
588.34	45008.50
588.49	45001.48
588.65	44444.43
588.81	44619.97
588.97	44863.39
589.13	44603.59
589.29	44898.50
589.45	44809.56
589.61	44531.03
589.77	45029.57
589.93	45127.87
590.08	45209.79
590.24	45581.93
