SpectraSuite Data File
++++++++++++++++++++++++++++++++++++
Date: Fri Oct 25 10:47:42 EDT 2013
User: price-jones
Dark Spectrum Present: No
Reference Spectrum Present: No
Number of Sampled Component Spectra: 1
Spectrometers: USB2+H05261
Integration Time (usec): 100000 (USB2+H05261)
Spectra Averaged: 1 (USB2+H05261)
Boxcar Smoothing: 0 (USB2+H05261)
Correct for Electrical Dark: No (USB2+H05261)
Strobe/Lamp Enabled: No (USB2+H05261)
Correct for Detector Non-linearity: No (USB2+H05261)
Correct for Stray Light: No (USB2+H05261)
Number of Pixels in Processed Spectrum: 2048
>>>>>Begin Processed Spectral Data<<<<<
365.73	170.86
365.92	170.86
366.12	170.86
366.32	0.00
366.52	60.85
366.72	84.26
366.91	53.83
367.11	0.00
367.31	49.15
367.51	0.00
367.70	121.71
367.90	51.49
368.10	0.00
368.30	114.69
368.49	11.70
368.69	98.30
368.89	49.15
369.09	28.09
369.28	74.90
369.48	117.03
369.68	67.88
369.87	102.98
370.07	124.05
370.27	140.43
370.47	168.52
370.66	442.36
370.86	367.46
371.06	444.70
371.25	510.24
371.45	449.38
371.65	519.60
371.84	418.96
372.04	397.89
372.24	498.53
372.44	496.19
372.63	447.04
372.83	428.32
373.03	437.68
373.22	526.62
373.42	524.28
373.62	482.15
373.81	582.79
374.01	554.71
374.21	561.73
374.40	489.17
374.60	468.11
374.79	484.49
374.99	578.11
375.19	561.73
375.38	540.66
375.58	543.00
375.78	643.65
375.97	575.77
376.17	681.10
376.37	554.71
376.56	571.09
376.76	517.26
376.95	613.22
377.15	678.76
377.35	610.88
377.54	566.41
377.74	585.13
377.93	725.57
378.13	592.16
378.33	589.82
378.52	594.50
378.72	582.79
378.91	578.11
379.11	573.43
379.31	601.52
379.50	592.16
379.70	575.77
379.89	645.99
380.09	575.77
380.28	589.82
380.48	643.65
380.68	610.88
380.87	641.31
381.07	716.20
381.26	716.20
381.46	692.80
381.65	695.14
381.85	737.27
382.04	624.92
382.24	725.57
382.43	683.44
382.63	734.93
382.83	704.50
383.02	653.01
383.22	786.42
383.41	678.76
383.61	744.29
383.80	753.65
384.00	662.37
384.19	800.46
384.39	805.14
384.58	767.70
384.78	814.51
384.97	809.83
385.17	849.61
385.36	683.44
385.56	753.65
385.75	788.76
385.95	739.61
386.14	772.38
386.34	713.86
386.53	781.74
386.72	763.01
386.92	784.08
387.11	795.78
387.31	849.61
387.50	798.12
387.70	774.72
387.89	793.44
388.09	727.91
388.28	765.36
388.48	837.91
388.67	788.76
388.86	905.79
389.06	889.40
389.25	835.57
389.45	835.57
389.64	805.14
389.84	1001.75
390.03	898.77
390.22	896.43
390.42	889.40
390.61	957.28
390.81	863.66
391.00	903.45
391.19	1025.15
391.39	992.39
391.58	959.62
391.78	929.19
391.97	952.60
392.16	971.32
392.36	966.64
392.55	1018.13
392.75	940.90
392.94	910.47
393.13	915.15
393.33	933.87
393.52	966.64
393.71	1128.14
393.91	1102.39
394.10	1018.13
394.29	1034.52
394.49	1064.94
394.68	1093.03
394.88	1060.26
395.07	1172.61
395.26	1163.25
395.46	1088.35
395.65	1142.18
395.84	1116.44
396.04	1261.55
396.23	1078.99
396.42	1121.12
396.62	1111.75
396.81	1097.71
397.00	1109.41
397.19	1121.12
397.39	1177.29
397.58	1203.04
397.77	1268.57
397.97	1296.66
398.16	1263.89
398.35	1226.44
398.55	1266.23
398.74	1254.53
398.93	1310.70
399.12	1327.08
399.32	1315.38
399.51	1327.08
399.70	1352.83
399.90	1406.66
400.09	1413.68
400.28	1336.45
400.47	1371.55
400.67	1504.96
400.86	1432.41
401.05	1425.39
401.24	1453.47
401.44	1509.65
401.63	1488.58
401.82	1504.96
402.01	1561.14
402.21	1490.92
402.40	1577.52
402.59	1577.52
402.78	1514.33
402.97	1500.28
403.17	1647.74
403.36	1519.01
403.55	1528.37
403.74	1626.67
403.93	1696.89
404.13	1605.61
404.32	1563.48
404.51	1689.87
404.70	1682.85
404.89	1629.01
405.09	1771.79
405.28	1734.34
405.47	1729.66
405.66	1739.02
405.85	1734.34
406.05	1713.27
406.24	1645.40
406.43	1762.42
406.62	1750.72
406.81	1905.20
407.00	1907.54
407.20	1783.49
407.39	1870.09
407.58	1933.28
407.77	1975.41
407.96	1898.17
408.15	1898.17
408.34	1879.45
408.54	2017.54
408.73	2045.63
408.92	1977.75
409.11	1935.62
409.30	2076.06
409.49	2038.61
409.68	1994.14
409.87	2012.86
410.07	2073.71
410.26	2078.40
410.45	2036.27
410.64	2127.55
410.83	2139.25
411.02	2176.70
411.21	2174.36
411.40	2207.13
411.59	2272.66
411.78	2225.85
411.98	2366.28
412.17	2193.08
412.36	2289.04
412.55	2438.84
412.74	2422.45
412.93	2389.69
413.12	2373.30
413.31	2459.90
413.50	2399.05
413.69	2473.95
413.88	2513.74
414.07	2492.67
414.26	2621.40
414.45	2614.38
414.64	2637.78
414.83	2656.51
415.02	2740.77
415.22	2710.34
415.41	2710.34
415.60	2717.36
415.79	2750.13
415.98	2857.79
416.17	2768.85
416.36	2808.64
416.55	2923.33
416.74	3066.10
416.93	3016.95
417.12	2904.60
417.31	2888.22
417.50	2902.26
417.69	3089.51
417.88	3005.25
418.07	3040.36
418.26	2967.80
418.45	3108.23
418.64	3145.68
418.83	3176.11
419.02	3124.62
419.21	3213.56
419.39	3162.06
419.58	3126.96
419.77	3157.38
419.96	3314.20
420.15	3323.56
420.34	3227.60
420.53	3246.32
420.72	3417.18
420.91	3428.88
421.10	3316.54
421.29	3372.71
421.48	3550.59
421.67	3428.88
421.86	3265.05
422.05	3309.52
422.24	3379.73
422.43	3361.01
422.61	3358.67
422.80	3386.76
422.99	3595.06
423.18	3595.06
423.37	3534.21
423.56	3559.95
423.75	3466.33
423.94	3571.66
424.13	3215.90
424.32	3375.05
424.50	3466.33
424.69	3630.17
424.88	3637.19
425.07	3492.08
425.26	3407.82
425.45	3517.83
425.64	3585.70
425.83	3564.64
426.01	3651.24
426.20	3496.76
426.39	3471.01
426.58	3585.70
426.77	3522.51
426.96	3681.66
427.15	3552.93
427.33	3702.73
427.52	3634.85
427.71	3627.83
427.90	3721.45
428.09	3707.41
428.28	3630.17
428.46	3721.45
428.65	3784.65
428.84	3880.61
429.03	3885.29
429.22	3791.67
429.40	3777.62
429.59	3749.54
429.78	3611.45
429.97	3583.36
430.16	3693.37
430.34	3754.22
430.53	3719.11
430.72	3882.95
430.91	3751.88
431.10	3922.74
431.28	4058.49
431.47	4037.42
431.66	4112.32
431.85	4030.40
432.03	4042.11
432.22	4259.78
432.41	4203.60
432.60	4051.47
432.79	4159.13
432.97	4255.09
433.16	4180.20
433.35	4067.85
433.54	4187.22
433.72	4273.82
433.91	4180.20
434.10	4355.74
434.28	4280.84
434.47	4301.90
434.66	4334.67
434.85	4425.95
435.03	4479.79
435.22	4475.10
435.41	4484.47
435.59	4498.51
435.78	4521.92
435.97	4573.41
436.16	4561.70
436.34	4622.56
436.53	4531.28
436.72	4690.43
436.90	4369.78
437.09	4521.92
437.28	4571.07
437.46	4624.90
437.65	4664.69
437.84	4613.20
438.02	4676.39
438.21	4627.24
438.40	4634.26
438.58	4798.10
438.77	4837.89
438.96	4954.91
439.14	4990.02
439.33	5125.77
439.52	4865.97
439.70	4999.38
439.89	5188.97
440.08	5057.90
440.26	5055.56
440.45	5116.41
440.63	5195.99
440.82	5195.99
441.01	5268.55
441.19	5165.56
441.38	5371.53
441.57	5345.78
441.75	5399.62
441.94	5504.94
442.12	5556.43
442.31	5617.29
442.50	5640.69
442.68	5568.13
442.87	5542.39
443.05	5650.05
443.24	5881.77
443.43	5764.74
443.61	5654.73
443.80	5853.68
443.98	5643.03
444.17	5554.09
444.35	5806.87
444.54	5809.21
444.73	5699.20
444.91	5619.63
445.10	5645.37
445.28	5607.92
445.47	5701.54
445.65	5701.54
445.84	5886.45
446.02	5968.37
446.21	5891.13
446.39	5973.05
446.58	5846.66
446.77	5820.91
446.95	5797.51
447.14	5994.11
447.32	6073.69
447.51	5851.34
447.69	5760.06
447.88	6036.24
448.06	6005.81
448.25	5884.11
448.43	6050.28
448.62	5926.24
448.80	5856.02
448.99	5984.75
449.17	6183.70
449.36	6031.56
449.54	6167.31
449.73	6134.54
449.91	6296.04
450.10	6083.05
450.28	6267.95
450.46	6373.28
450.65	6300.72
450.83	6225.82
451.02	6195.40
451.20	6352.21
451.39	6277.32
451.57	6249.23
451.76	6237.53
451.94	6377.96
452.13	6473.92
452.31	6335.83
452.49	6260.93
452.68	6230.51
452.86	6373.28
453.05	6523.07
453.23	6553.50
453.42	6396.68
453.60	6473.92
453.78	6497.33
453.97	6466.90
454.15	6534.78
454.34	6457.54
454.52	6745.42
454.70	6511.37
454.89	6483.28
455.07	6747.76
455.26	6789.89
455.44	6904.58
455.62	7000.54
455.81	6876.49
455.99	6871.81
456.17	6911.60
456.36	6958.41
456.54	6998.20
456.73	7049.69
456.91	7243.96
457.09	7157.36
457.28	7218.21
457.46	6991.18
457.64	7370.35
457.83	7353.96
458.01	7056.72
458.19	7410.14
458.38	7232.26
458.56	7215.87
458.74	7442.90
458.93	7382.05
459.11	7424.18
459.29	7508.44
459.48	7342.26
459.66	7435.88
459.84	7513.12
460.03	7695.68
460.21	7508.44
460.39	7566.95
460.57	7473.33
460.76	7660.57
460.94	7695.68
461.12	7648.87
461.31	7639.51
461.49	7740.15
461.67	7754.19
461.85	7999.95
462.04	7623.12
462.22	8379.12
462.40	7983.57
462.59	7941.44
462.77	7920.37
462.95	7894.63
463.13	7906.33
463.32	7829.09
463.50	8098.25
463.68	8051.44
463.86	8121.66
464.05	7962.50
464.23	8126.34
464.41	7911.01
464.59	7927.39
464.78	8266.77
464.96	7948.46
465.14	8114.64
465.32	8135.70
465.50	8325.29
465.69	8409.54
465.87	8463.38
466.05	8304.22
466.23	8285.50
466.41	8255.07
466.60	8505.51
466.78	8208.26
466.96	8304.22
467.14	8114.64
467.32	8458.70
467.51	8397.84
467.69	8510.19
467.87	8346.35
468.05	8552.32
468.23	8533.59
468.41	8390.82
468.60	8505.51
468.78	8582.74
468.96	8421.25
469.14	8713.81
469.32	8622.53
469.50	8535.93
469.69	8760.63
469.87	8652.96
470.05	8877.65
470.23	8917.44
470.41	9053.19
470.59	9022.77
470.77	8901.06
470.95	8987.66
471.14	9006.38
471.32	8929.14
471.50	9202.99
471.68	9207.67
471.86	9331.72
472.04	9165.54
472.22	9778.76
472.40	9146.81
472.58	9350.44
472.77	9331.72
472.95	9373.85
473.13	9816.21
473.31	9509.60
473.49	9476.83
473.67	9467.47
473.85	9568.11
474.03	9652.37
474.21	9762.37
474.39	9923.87
474.57	10050.26
474.75	9977.70
474.93	9771.74
475.12	10202.40
475.30	10176.65
475.48	10092.39
475.66	10274.95
475.84	10080.69
476.02	10340.49
476.20	10370.91
476.38	10396.66
476.56	10775.83
476.74	10600.29
476.92	10602.63
477.10	10682.20
477.28	10850.72
477.46	10918.60
477.64	11033.29
477.82	10998.18
478.00	11152.65
478.18	11330.53
478.36	11332.87
478.54	11335.21
478.72	11639.48
478.90	11674.59
479.08	11716.72
479.26	11925.03
479.44	11646.51
479.62	11920.35
479.80	11889.92
479.98	12018.65
480.16	12416.54
480.34	11992.90
480.52	12252.70
480.70	12489.10
480.88	12355.69
481.06	12444.63
481.24	12510.16
481.41	12531.23
481.59	12788.69
481.77	12889.33
481.95	13029.76
482.13	13095.30
482.31	13011.04
482.49	13399.57
482.67	13523.62
482.85	13350.42
483.03	13715.54
483.21	13860.65
483.39	13764.69
483.57	14019.81
483.74	14085.34
483.92	14045.55
484.10	13965.98
484.28	14401.32
484.46	14424.72
484.64	14686.86
484.82	14899.85
485.00	14670.48
485.18	14794.53
485.35	14949.00
485.53	14991.13
485.71	15122.20
485.89	15232.21
486.07	15295.40
486.25	15339.87
486.43	15302.42
486.61	15524.77
486.78	15681.59
486.96	15955.43
487.14	15988.20
487.32	16238.64
487.50	16187.14
487.68	16432.90
487.85	16751.21
488.03	16734.83
488.21	17252.09
488.39	16971.22
488.57	17163.15
488.75	17022.72
488.92	17064.85
489.10	17563.38
489.28	17617.21
489.46	18050.21
489.64	17605.51
489.81	18160.22
489.99	17984.68
490.17	18370.86
490.35	18562.79
490.53	18384.91
490.70	18707.90
490.88	18642.37
491.06	19126.86
491.24	19084.73
491.41	18693.86
491.59	19211.12
491.77	19080.05
491.95	19047.28
492.13	19517.73
492.30	19800.93
492.48	19728.38
492.66	20032.65
492.84	19861.79
493.01	20011.58
493.19	19992.86
493.37	20287.76
493.54	20287.76
493.72	20414.15
493.90	20629.48
494.08	20872.90
494.25	20765.23
494.43	21163.12
494.61	21357.39
494.79	21170.15
494.96	21120.99
495.14	21144.40
495.32	21668.68
495.49	21986.99
495.67	22122.74
495.85	21860.60
496.02	21830.18
496.20	22317.01
496.38	22195.30
496.55	22040.82
496.73	23061.30
496.91	22412.97
497.09	22845.97
497.26	22815.54
497.44	23061.30
497.62	22948.95
497.79	23346.84
497.97	22960.66
498.14	23194.71
498.32	23625.37
498.50	23571.54
498.67	23864.10
498.85	23901.55
499.03	24030.28
499.20	23779.84
499.38	23995.17
499.56	24273.70
499.73	24135.60
499.91	24283.06
500.08	24524.13
500.26	24266.67
500.44	24718.40
500.61	24800.32
500.79	24402.43
500.97	24797.98
501.14	24900.96
501.32	25088.20
501.49	24898.62
501.67	25099.90
501.84	25282.47
502.02	24964.15
502.20	25252.04
502.37	25600.78
502.55	25465.03
502.72	25631.21
502.90	25809.09
503.07	25624.18
503.25	25584.40
503.43	26019.74
503.60	25961.22
503.78	26235.06
503.95	26581.46
504.13	26363.79
504.30	26506.57
504.48	26586.15
504.65	26417.63
504.83	26621.25
505.01	27096.38
505.18	26780.41
505.36	27070.64
505.53	26855.31
505.71	26923.18
505.88	27171.28
506.06	26796.79
506.23	27316.39
506.41	27260.22
506.58	27192.34
506.76	27461.51
506.93	27700.24
507.11	27363.20
507.28	27349.16
507.46	27660.45
507.63	27431.08
507.81	27531.72
507.98	27990.47
508.16	27941.32
508.33	28177.71
508.50	28086.43
508.68	28500.70
508.85	28645.82
509.03	28166.01
509.20	28762.84
509.38	28952.43
509.55	28900.94
509.73	29043.71
509.90	29050.73
510.08	28992.22
510.25	28751.14
510.42	28989.88
510.60	29301.17
510.77	29364.36
510.95	29603.10
511.12	29352.66
511.30	29411.17
511.47	29764.59
511.64	29748.21
511.82	29881.62
511.99	29991.62
512.17	29858.21
512.34	30078.22
512.51	30260.79
512.69	30354.41
512.86	30408.24
513.04	30558.03
513.21	30319.30
513.38	30696.13
513.56	30108.65
513.73	30426.96
513.90	30572.08
514.08	31119.76
514.25	30909.11
514.43	31023.80
514.60	30930.18
514.77	30771.02
514.95	31087.00
515.12	31152.53
515.29	31480.21
515.47	31384.24
515.64	31468.50
515.81	31253.17
515.99	31459.14
516.16	31428.71
516.33	31328.07
516.51	31798.52
516.68	31381.90
516.85	31487.23
517.03	31590.21
517.20	32004.49
517.37	31807.88
517.54	32154.28
517.72	31920.23
517.89	31840.65
518.06	32144.92
518.24	31894.48
518.41	31793.84
518.58	32287.69
518.75	32196.41
518.93	32753.46
519.10	32348.54
519.27	32238.54
519.45	32631.75
519.62	32673.88
519.79	32893.89
519.96	32584.94
520.14	33282.42
520.31	33106.88
520.48	33324.55
520.65	32837.72
520.83	33244.97
521.00	33689.67
521.17	33378.38
521.34	33624.14
521.52	34005.64
521.69	33834.78
521.86	33928.41
522.03	33848.83
522.20	33539.88
522.38	34153.10
522.55	34178.84
522.72	34335.66
522.89	34251.40
523.07	33979.90
523.24	34476.09
523.41	34347.36
523.58	34209.27
523.75	34471.41
523.92	34866.96
524.10	34745.25
524.27	35157.19
524.44	34256.08
524.61	34852.92
524.78	35290.60
524.96	35449.75
525.13	35072.93
525.30	35103.35
525.47	35564.44
525.64	35166.55
525.81	35555.08
525.98	35398.26
526.16	35044.84
526.33	35199.32
526.50	35564.44
526.67	35068.25
526.84	35475.50
527.01	35007.39
527.18	35405.28
527.36	35913.18
527.53	35665.08
527.70	35864.03
527.87	36182.34
528.04	35880.41
528.21	36060.63
528.38	36030.21
528.55	36318.09
528.72	36030.21
528.89	36467.89
529.07	36208.09
529.24	36084.04
529.41	36226.81
529.58	36397.67
529.75	36390.65
529.92	36439.80
530.09	36575.55
530.26	36201.07
530.43	36634.06
530.60	36624.70
530.77	36629.38
530.94	37104.51
531.11	36594.28
531.28	36741.73
531.46	36877.48
531.63	37303.46
531.80	37233.24
531.97	37380.70
532.14	37258.99
532.31	37090.47
532.48	37170.05
532.65	37483.68
532.82	37041.32
532.99	37310.48
533.16	37179.41
533.33	37188.77
533.50	37654.54
533.67	37427.51
533.84	37441.55
534.01	37720.07
534.18	37897.95
534.35	38094.56
534.52	37703.69
534.69	37785.61
534.86	38024.34
535.03	37902.64
535.20	38277.12
535.37	38286.48
535.54	38244.35
535.71	38483.09
535.88	38518.20
536.05	38146.05
536.22	38361.38
536.38	38345.00
536.55	38270.10
536.72	38192.86
536.89	38162.43
537.06	38178.82
537.23	38560.33
537.40	38756.93
537.57	38789.70
537.74	38237.33
537.91	39232.06
538.08	38553.30
538.25	38581.39
538.42	38707.78
538.59	38583.73
538.75	38330.95
538.92	38960.56
539.09	39257.81
539.26	38707.78
539.43	38953.54
539.60	39199.29
539.77	38572.03
539.94	39166.52
540.11	39077.58
540.28	39321.00
540.44	39297.59
540.61	39370.15
540.78	39161.84
540.95	39206.31
541.12	38773.31
541.29	39372.49
541.46	39093.97
541.62	39543.35
541.79	39578.46
541.96	39510.58
542.13	39391.22
542.30	39487.18
542.47	39641.65
542.63	39466.11
542.80	40109.76
542.97	40261.90
543.14	40575.53
543.31	40299.34
543.48	40238.49
543.64	40971.08
543.81	40715.96
543.98	40212.74
544.15	40495.95
544.32	40500.63
544.48	40659.79
544.65	40652.76
544.82	40942.99
544.99	40203.38
545.16	40348.50
545.32	40414.03
545.49	40495.95
545.66	40933.63
545.83	41132.57
546.00	41057.68
546.16	40704.26
546.33	40683.19
546.50	40769.79
546.67	40598.93
546.83	40467.86
547.00	40870.43
547.17	40863.41
547.34	40851.71
547.50	40797.88
547.67	41415.78
547.84	41099.81
548.00	40877.46
548.17	41347.90
548.34	41287.05
548.51	41303.43
548.67	41649.83
548.84	41422.80
549.01	41394.71
549.18	41265.99
549.34	41338.54
549.51	41516.42
549.68	41813.67
549.84	41621.75
550.01	41755.16
550.18	41647.49
550.34	41785.58
550.51	41577.28
550.68	41528.13
550.84	41574.94
551.01	41698.98
551.18	41797.29
551.34	42141.35
551.51	41961.12
551.68	41998.57
551.84	41888.57
552.01	41724.73
552.18	42068.79
552.34	42129.64
552.51	42267.73
552.68	42450.30
552.84	42316.89
553.01	42050.06
553.18	42155.39
553.34	42190.50
553.51	41979.85
553.67	42462.00
553.84	42422.21
554.01	42789.67
554.17	42623.50
554.34	42925.42
554.51	42431.57
554.67	42639.88
554.84	42623.50
555.00	42497.11
555.17	42564.98
555.33	42808.40
555.50	42462.00
555.67	42691.37
555.83	42859.89
556.00	42733.50
556.16	42930.11
556.33	43145.44
556.50	43168.84
556.66	43058.84
556.83	42384.76
556.99	42674.99
557.16	42820.10
557.32	42770.95
557.49	42836.48
557.65	42983.94
557.82	42543.92
557.98	42674.99
558.15	42698.39
558.32	43246.08
558.48	42887.98
558.65	43033.09
558.81	43264.80
558.98	42920.74
559.14	43199.27
559.31	43225.01
559.47	43058.84
559.64	43751.63
559.80	43526.94
559.97	43217.99
560.13	43257.78
560.30	43192.25
560.46	43433.32
560.63	43342.04
560.79	43482.47
560.96	43665.03
561.12	43475.45
561.29	43299.91
561.45	43276.51
561.61	43159.48
561.78	43377.15
561.94	43194.59
562.11	43161.82
562.27	43819.51
562.44	43267.14
562.60	43124.37
562.77	43976.33
562.93	43491.83
563.10	43782.06
563.26	43686.10
563.42	43442.68
563.59	43676.74
563.75	43618.22
563.92	43861.64
564.08	43746.95
564.24	43845.26
564.41	43920.15
564.57	43686.10
564.74	43693.12
564.90	44189.31
565.07	43519.92
565.23	43751.63
565.39	43807.81
565.56	43606.52
565.72	43688.44
565.88	43772.70
566.05	43777.38
566.21	43260.12
566.38	43798.44
566.54	43831.21
566.70	44203.36
566.87	43922.49
567.03	43922.49
567.19	44126.12
567.36	44102.71
567.52	43690.78
567.68	44243.15
567.85	43786.74
568.01	44088.67
568.17	43945.90
568.34	44128.46
568.50	43828.87
568.66	43335.02
568.83	44142.50
568.99	44023.14
569.15	44229.10
569.32	43498.86
569.48	43634.61
569.64	44156.55
569.81	44051.22
569.97	43878.02
570.13	44109.74
570.30	43812.49
570.46	44009.09
570.62	43941.22
570.78	43791.42
570.95	44198.68
571.11	44268.89
571.27	44011.43
571.43	44369.54
571.60	44385.92
571.76	44119.10
571.92	43959.94
572.09	44170.59
572.25	44327.41
572.41	44474.86
572.57	44055.90
572.74	45024.89
572.90	44121.44
573.06	44247.83
573.22	44247.83
573.38	44072.29
573.55	44147.18
573.71	44346.13
573.87	44095.69
574.03	44013.77
574.20	44081.65
574.36	44135.48
574.52	44299.32
574.68	44423.37
574.84	44378.90
575.01	44191.65
575.17	44079.31
575.33	44231.44
575.49	44414.01
575.65	44229.10
575.82	44978.07
575.98	44395.28
576.14	44217.40
576.30	44369.54
576.46	44257.19
576.62	44198.68
576.79	44364.85
576.95	43866.32
577.11	44388.26
577.27	44362.51
577.43	44521.67
577.59	44275.91
577.75	44205.70
577.92	43812.49
578.08	44126.12
578.24	44219.74
578.40	44151.87
578.56	44575.50
578.72	44374.22
578.88	44652.74
579.04	44610.61
579.21	44226.76
579.37	44210.38
579.53	44563.80
579.69	43688.44
579.85	44353.15
580.01	44636.36
580.17	44388.26
580.33	44669.12
580.49	44741.68
580.65	44746.36
580.82	44514.65
580.98	44406.98
581.14	44107.40
581.30	44629.34
581.46	44390.60
581.62	44266.55
581.78	44479.54
581.94	44921.90
582.10	44790.83
582.26	44924.24
582.42	44444.43
582.58	44432.73
582.74	44509.97
582.90	44650.40
583.06	44680.83
583.22	44624.65
583.38	44774.45
583.54	44825.94
583.70	43995.05
583.86	43971.64
584.02	44362.51
584.18	44631.68
584.34	44737.00
584.50	44428.05
584.66	44470.18
584.82	44322.72
584.98	44865.73
585.14	44498.26
585.30	44332.09
585.46	44409.32
585.62	44615.29
585.78	44563.80
585.94	44311.02
586.10	44294.64
586.26	44397.62
586.42	44648.06
586.58	44781.47
586.74	44542.74
586.90	44369.54
587.06	44369.54
587.22	44428.05
587.38	44128.46
587.54	44996.80
587.70	44830.62
587.86	44973.39
588.02	44687.85
588.18	44900.84
588.34	44533.37
588.49	44039.52
588.65	44399.96
588.81	44437.41
588.97	44376.56
589.13	43990.37
589.29	44378.90
589.45	44411.67
589.61	44676.15
589.77	44942.97
589.93	44776.79
590.08	45193.40
590.24	45071.70
