SpectraSuite Data File
++++++++++++++++++++++++++++++++++++
Date: Fri Oct 25 11:34:01 EDT 2013
User: price-jones
Dark Spectrum Present: No
Reference Spectrum Present: No
Number of Sampled Component Spectra: 1
Spectrometers: USB2+H05261
Integration Time (usec): 100000 (USB2+H05261)
Spectra Averaged: 1 (USB2+H05261)
Boxcar Smoothing: 0 (USB2+H05261)
Correct for Electrical Dark: No (USB2+H05261)
Strobe/Lamp Enabled: No (USB2+H05261)
Correct for Detector Non-linearity: No (USB2+H05261)
Correct for Stray Light: No (USB2+H05261)
Number of Pixels in Processed Spectrum: 2048
>>>>>Begin Processed Spectral Data<<<<<
365.73	332.36
365.92	332.36
366.12	332.36
366.32	198.95
366.52	184.90
366.72	147.45
366.91	168.52
367.11	182.56
367.31	161.50
367.51	114.69
367.70	147.45
367.90	114.69
368.10	177.88
368.30	159.16
368.49	187.24
368.69	273.84
368.89	180.22
369.09	112.35
369.28	210.65
369.48	208.31
369.68	175.54
369.87	231.71
370.07	227.03
370.27	266.82
370.47	351.08
370.66	550.03
370.86	409.59
371.06	519.60
371.25	543.00
371.45	510.24
371.65	531.30
371.84	622.58
372.04	594.50
372.24	575.77
372.44	641.31
372.63	688.12
372.83	589.82
373.03	573.43
373.22	648.33
373.42	610.88
373.62	650.67
373.81	624.92
374.01	620.24
374.21	650.67
374.40	631.94
374.60	634.29
374.79	557.05
374.99	580.45
375.19	636.63
375.38	636.63
375.58	585.13
375.78	676.41
375.97	655.35
376.17	706.84
376.37	601.52
376.56	683.44
376.76	634.29
376.95	643.65
377.15	688.12
377.35	664.71
377.54	650.67
377.74	692.80
377.93	674.07
378.13	716.20
378.33	627.26
378.52	594.50
378.72	734.93
378.91	629.60
379.11	674.07
379.31	664.71
379.50	709.18
379.70	779.40
379.89	795.78
380.09	667.05
380.28	795.78
380.48	690.46
380.68	772.38
380.87	702.16
381.07	788.76
381.26	763.01
381.46	781.74
381.65	760.67
381.85	770.04
382.04	716.20
382.24	819.19
382.43	835.57
382.63	730.25
382.83	732.59
383.02	807.48
383.22	812.17
383.41	844.93
383.61	748.97
383.80	823.87
384.00	821.53
384.19	814.51
384.39	840.25
384.58	814.51
384.78	777.06
384.97	812.17
385.17	830.89
385.36	870.68
385.56	774.72
385.75	753.65
385.95	765.36
386.14	868.34
386.34	809.83
386.53	837.91
386.72	887.06
386.92	875.36
387.11	858.98
387.31	889.40
387.50	849.61
387.70	912.81
387.89	924.51
388.09	912.81
388.28	903.45
388.48	877.70
388.67	873.02
388.86	924.51
389.06	889.40
389.25	891.74
389.45	915.15
389.64	945.58
389.84	983.02
390.03	1006.43
390.22	973.66
390.42	924.51
390.61	964.30
390.81	987.71
391.00	924.51
391.19	1011.11
391.39	1041.54
391.58	999.41
391.78	983.02
391.97	1015.79
392.16	938.55
392.36	1032.18
392.55	1102.39
392.75	1020.47
392.94	992.39
393.13	1055.58
393.33	1090.69
393.52	1088.35
393.71	1095.37
393.91	1125.80
394.10	1107.07
394.29	1069.62
394.49	1057.92
394.68	1039.20
394.88	1078.99
395.07	1172.61
395.26	1093.03
395.46	1109.41
395.65	1160.91
395.84	1205.38
396.04	1156.22
396.23	1139.84
396.42	1135.16
396.62	1179.63
396.81	1174.95
397.00	1116.44
397.19	1139.84
397.39	1181.97
397.58	1179.63
397.77	1238.14
397.97	1219.42
398.16	1341.13
398.35	1277.93
398.55	1240.48
398.74	1294.32
398.93	1210.06
399.12	1357.51
399.32	1261.55
399.51	1324.74
399.70	1254.53
399.90	1315.38
400.09	1369.21
400.28	1490.92
400.47	1303.68
400.67	1383.26
400.86	1352.83
401.05	1401.98
401.24	1444.11
401.44	1432.41
401.63	1500.28
401.82	1394.96
402.01	1418.36
402.21	1439.43
402.40	1399.64
402.59	1441.77
402.78	1509.65
402.97	1401.98
403.17	1519.01
403.36	1448.79
403.55	1650.08
403.74	1570.50
403.93	1535.39
404.13	1537.73
404.32	1603.27
404.51	1549.43
404.70	1561.14
404.89	1568.16
405.09	1621.99
405.28	1727.32
405.47	1671.14
405.66	1692.21
405.85	1614.97
406.05	1703.91
406.24	1724.97
406.43	1713.27
406.62	1636.03
406.81	1736.68
407.00	1844.34
407.20	1769.44
407.39	1762.42
407.58	1809.23
407.77	1743.70
407.96	1839.66
408.15	1753.06
408.34	1842.00
408.54	1877.11
408.73	1832.64
408.92	1891.15
409.11	1827.96
409.30	1888.81
409.49	1944.99
409.68	1968.39
409.87	2092.44
410.07	2080.74
410.26	2054.99
410.45	2062.01
410.64	2090.10
410.83	2071.37
411.02	2043.29
411.21	2059.67
411.40	2134.57
411.59	2200.10
411.78	2174.36
411.98	2193.08
412.17	2155.63
412.36	2225.85
412.55	2165.00
412.74	2314.79
412.93	2324.15
413.12	2239.89
413.31	2415.43
413.50	2434.16
413.69	2314.79
413.88	2436.50
414.07	2387.35
414.26	2431.82
414.45	2487.99
414.64	2499.69
414.83	2576.93
415.02	2527.78
415.22	2495.01
415.41	2651.83
415.60	2567.57
415.79	2630.76
415.98	2710.34
416.17	2661.19
416.36	2724.38
416.55	2626.08
416.74	2705.66
416.93	2827.37
417.12	2757.15
417.31	2761.83
417.50	2892.90
417.69	2937.37
417.88	2881.20
418.07	2899.92
418.26	2860.13
418.45	2916.31
418.64	3110.57
418.83	2958.44
419.02	3026.31
419.21	3098.87
419.39	3063.76
419.58	3087.17
419.77	2998.23
419.96	3061.42
420.15	3063.76
420.34	3080.14
420.53	3178.45
420.72	3201.85
420.91	3145.68
421.10	3206.53
421.29	3288.45
421.48	3173.77
421.67	3276.75
421.86	3115.25
422.05	3335.26
422.24	3248.66
422.43	3316.54
422.61	3339.94
422.80	3248.66
422.99	3391.44
423.18	3445.27
423.37	3316.54
423.56	3328.24
423.75	3377.39
423.94	3342.28
424.13	3136.32
424.32	3279.09
424.50	3452.29
424.69	3412.50
424.88	3435.91
425.07	3400.80
425.26	3300.16
425.45	3414.84
425.64	3328.24
425.83	3379.73
426.01	3400.80
426.20	3375.05
426.39	3386.76
426.58	3445.27
426.77	3412.50
426.96	3531.87
427.15	3555.27
427.33	3382.07
427.52	3417.18
427.71	3662.94
427.90	3581.02
428.09	3693.37
428.28	3644.21
428.46	3599.74
428.65	3686.34
428.84	3786.99
429.03	3700.39
429.22	3660.60
429.40	3644.21
429.59	3758.90
429.78	3653.58
429.97	3681.66
430.16	3824.44
430.34	3733.15
430.53	3922.74
430.72	3899.33
430.91	3808.05
431.10	3889.97
431.28	3871.25
431.47	3906.35
431.66	3964.87
431.85	3871.25
432.03	4053.81
432.22	3985.93
432.41	4065.51
432.60	4058.49
432.79	3953.16
432.97	4025.72
433.16	4184.88
433.35	4037.42
433.54	4187.22
433.72	4093.60
433.91	4114.66
434.10	4131.05
434.28	4105.30
434.47	4154.45
434.66	4248.07
434.85	4301.90
435.03	4203.60
435.22	4180.20
435.41	4369.78
435.59	4411.91
435.78	4400.21
435.97	4367.44
436.16	4325.31
436.34	4334.67
436.53	4435.32
436.72	4449.36
436.90	4451.70
437.09	4362.76
437.28	4299.56
437.46	4498.51
437.65	4561.70
437.84	4608.51
438.02	4447.02
438.21	4746.61
438.40	4451.70
438.58	4681.07
438.77	4650.64
438.96	4732.56
439.14	4868.31
439.33	4882.36
439.52	4774.69
439.70	4854.27
439.89	4938.53
440.08	4961.94
440.26	5060.24
440.45	4983.00
440.63	5088.32
440.82	5172.58
441.01	5081.30
441.19	5048.54
441.38	5177.26
441.57	5284.93
441.75	5343.44
441.94	5303.65
442.12	5507.28
442.31	5540.05
442.50	5273.23
442.68	5261.52
442.87	5357.49
443.05	5544.73
443.24	5589.20
443.43	5355.15
443.61	5437.06
443.80	5795.17
443.98	5357.49
444.17	5275.57
444.35	5605.58
444.54	5614.95
444.73	5694.52
444.91	5516.64
445.10	5495.58
445.28	5603.24
445.47	5570.48
445.65	5598.56
445.84	5692.18
446.02	5729.63
446.21	5600.90
446.39	5572.82
446.58	5666.44
446.77	5626.65
446.95	5729.63
447.14	5687.50
447.32	5617.29
447.51	5584.52
447.69	5664.10
447.88	5626.65
448.06	5776.44
448.25	5757.72
448.43	5722.61
448.62	5783.46
448.80	5818.57
448.99	5823.25
449.17	5877.09
449.36	5675.80
449.54	5912.19
449.73	5947.30
449.91	6094.76
450.10	6022.20
450.28	6176.67
450.46	5916.87
450.65	6097.10
450.83	5961.34
451.02	6012.84
451.20	6115.82
451.39	6038.58
451.57	6026.88
451.76	6132.20
451.94	6113.48
452.13	6296.04
452.31	6171.99
452.49	6200.08
452.68	6183.70
452.86	6204.76
453.05	6466.90
453.23	6293.70
453.42	6282.00
453.60	6069.01
453.78	6375.62
453.97	6204.76
454.15	6106.46
454.34	6438.81
454.52	6342.85
454.70	6361.58
454.89	6459.88
455.07	6520.73
455.26	6616.69
455.44	6633.08
455.62	6483.28
455.81	6480.94
455.99	6562.86
456.17	6612.01
456.36	6768.83
456.54	6705.63
456.73	6881.18
456.91	6927.99
457.09	6892.88
457.28	7063.74
457.46	6958.41
457.64	6913.94
457.83	6993.52
458.01	6857.77
458.19	7012.24
458.38	6897.56
458.56	7126.93
458.74	7178.42
458.93	7126.93
459.11	7089.48
459.29	7061.40
459.48	7084.80
459.66	7250.98
459.84	7119.91
460.03	7349.28
460.21	7470.99
460.39	7295.45
460.57	7321.20
460.76	7349.28
460.94	7447.58
461.12	7309.49
461.31	7375.03
461.49	7330.56
461.67	7328.22
461.85	7695.68
462.04	7489.71
462.22	7744.83
462.40	7611.42
462.59	7545.89
462.77	7627.81
462.95	7880.58
463.13	7691.00
463.32	7674.62
463.50	7819.73
463.68	7775.26
463.86	7871.22
464.05	7672.28
464.23	7775.26
464.41	7744.83
464.59	7686.32
464.78	8173.15
464.96	8121.66
465.14	7751.85
465.32	7939.10
465.50	8149.75
465.69	7934.42
465.87	8126.34
466.05	8100.59
466.23	8035.06
466.41	8243.37
466.60	8142.72
466.78	7999.95
466.96	8023.36
467.14	8292.52
467.32	8180.17
467.51	8475.08
467.69	8023.36
467.87	8241.03
468.05	8367.42
468.23	8346.35
468.41	8161.45
468.60	8344.01
468.78	8549.98
468.96	8264.43
469.14	8674.03
469.32	8547.64
469.50	8402.52
469.69	8519.55
469.87	8613.17
470.05	8655.30
470.23	8641.26
470.41	8645.94
470.59	8975.95
470.77	8781.69
470.95	8861.27
471.14	9015.74
471.32	8671.68
471.50	8936.17
471.68	9041.49
471.86	8891.70
472.04	9125.75
472.22	9240.44
472.40	9228.73
472.58	9076.60
472.77	9296.61
472.95	9205.33
473.13	9509.60
473.31	9334.06
473.49	9348.10
473.67	9322.35
473.85	9390.23
474.03	9685.14
474.21	9767.06
474.39	9607.90
474.57	9575.13
474.75	9846.63
474.93	9937.91
475.12	9823.23
475.30	9741.31
475.48	9951.96
475.66	10001.11
475.84	9827.91
476.02	10054.94
476.20	10040.90
476.38	10497.30
476.56	10476.24
476.74	10466.88
476.92	10384.96
477.10	10272.61
477.28	10541.77
477.46	10333.47
477.64	10808.59
477.82	10846.04
478.00	11274.36
478.18	11147.97
478.36	11089.46
478.54	11190.10
478.72	11351.60
478.90	11447.56
479.08	11473.31
479.26	11595.01
479.44	11454.58
479.62	11644.17
479.80	11637.14
479.98	12067.80
480.16	12053.76
480.34	11903.96
480.52	12131.00
480.70	12311.22
480.88	12053.76
481.06	12112.27
481.24	12292.49
481.41	12393.14
481.59	12690.38
481.77	12587.40
481.95	12753.58
482.13	12819.11
482.31	12669.32
482.49	13228.71
482.67	13027.42
482.85	13408.93
483.03	13401.91
483.21	13579.79
483.39	13834.91
483.57	13481.49
483.74	13680.43
483.92	14019.81
484.10	13642.98
484.28	14083.00
484.46	14298.33
484.64	14391.95
484.82	14277.27
485.00	14539.41
485.18	14796.87
485.35	14656.43
485.53	14974.75
485.71	15115.18
485.89	14909.21
486.07	15124.54
486.25	15440.51
486.43	15342.21
486.61	15370.30
486.78	15520.09
486.96	15496.69
487.14	15992.88
487.32	15936.71
487.50	16056.08
487.68	16262.04
487.85	16470.35
488.03	16716.11
488.21	16580.36
488.39	16681.00
488.57	16669.30
488.75	17039.10
488.92	17282.52
489.10	17352.73
489.28	17378.48
489.46	17853.61
489.64	17671.04
489.81	18099.36
489.99	17759.98
490.17	17891.06
490.35	18003.40
490.53	18274.90
490.70	18504.28
490.88	18293.63
491.06	18647.05
491.24	18616.62
491.41	19073.03
491.59	18693.86
491.77	18984.09
491.95	19293.04
492.13	19372.61
492.30	19220.48
492.48	19459.21
492.66	19541.13
492.84	19669.86
493.01	19847.74
493.19	19737.74
493.37	19950.73
493.54	20156.69
493.72	20107.54
493.90	20315.85
494.08	20465.64
494.25	20688.00
494.43	20716.08
494.61	20929.07
494.79	21118.65
494.96	21013.33
495.14	20919.71
495.32	21376.11
495.49	21603.14
495.67	21553.99
495.85	21919.12
496.02	21825.50
496.20	22078.27
496.38	21975.29
496.55	22366.16
496.73	22544.04
496.91	22438.72
497.09	22637.66
497.26	22831.93
497.44	22403.61
497.62	22717.24
497.79	23304.71
497.97	22852.99
498.14	23264.92
498.32	23367.91
498.50	23325.78
498.67	23613.66
498.85	23983.47
499.03	23718.99
499.20	23864.10
499.38	23957.72
499.56	24196.46
499.73	24322.85
499.91	24233.91
500.08	24528.81
500.26	24381.36
500.44	24299.44
500.61	24236.25
500.79	24648.18
500.97	24809.68
501.14	25008.62
501.32	24975.86
501.49	24903.30
501.67	25448.64
501.84	24929.05
502.02	25106.93
502.20	25032.03
502.37	25633.55
502.55	25542.27
502.72	25673.34
502.90	25769.30
503.07	25722.49
503.25	25926.11
503.43	25727.17
503.60	25869.94
503.78	25834.83
503.95	26036.12
504.13	26265.49
504.30	26581.46
504.48	26335.71
504.65	26232.72
504.83	26541.68
505.01	26747.64
505.18	26534.65
505.36	26969.99
505.53	26635.30
505.71	26813.18
505.88	27178.30
506.06	26712.53
506.23	27227.45
506.41	27555.13
506.58	27098.72
506.76	27566.83
506.93	27480.23
507.11	27428.74
507.28	27700.24
507.46	27964.72
507.63	28252.61
507.81	28158.99
507.98	27995.15
508.16	28201.11
508.33	28168.35
508.50	28570.92
508.68	28357.93
508.85	29057.75
509.03	28664.54
509.20	28849.44
509.38	29200.52
509.55	29078.82
509.73	28767.52
509.90	29067.11
510.08	28987.53
510.25	29022.64
510.42	28772.21
510.60	29202.86
510.77	29507.13
510.95	29916.73
511.12	29394.79
511.30	29673.31
511.47	29834.81
511.64	29631.18
511.82	29893.32
511.99	30277.17
512.17	30298.23
512.34	30211.64
512.51	30452.71
512.69	30178.87
512.86	30401.22
513.04	30555.69
513.21	30525.27
513.38	30710.17
513.56	30661.02
513.73	30684.42
513.90	30689.10
514.08	30464.41
514.25	30794.43
514.43	31393.61
514.60	31227.43
514.77	30707.83
514.95	31035.50
515.12	31360.84
515.29	31531.70
515.47	31484.89
515.64	31412.33
515.81	31285.94
515.99	31747.03
516.16	32095.77
516.33	31964.70
516.51	32201.09
516.68	31899.16
516.85	31981.08
517.03	32271.31
517.20	32191.73
517.37	32079.38
517.54	32304.07
517.72	32491.32
517.89	32725.37
518.06	32638.77
518.24	33024.96
518.41	32730.05
518.58	32641.11
518.75	32779.20
518.93	33235.61
519.10	32718.35
519.27	33074.11
519.45	32912.61
519.62	33397.10
519.79	33270.72
519.96	33530.51
520.14	33544.56
520.31	33549.24
520.48	33659.24
520.65	33832.44
520.83	33949.47
521.00	33935.43
521.17	33755.21
521.34	33722.44
521.52	34178.84
521.69	33734.14
521.86	34691.42
522.03	34155.44
522.20	34527.58
522.38	35056.54
522.55	34543.97
522.72	34698.44
522.89	34501.84
523.07	34710.14
523.24	34707.80
523.41	34813.13
523.58	34726.53
523.75	34869.30
523.92	34789.72
524.10	35042.50
524.27	35131.44
524.44	35075.27
524.61	35613.59
524.78	35250.81
524.96	35683.81
525.13	35693.17
525.30	35683.81
525.47	35714.23
525.64	35641.68
525.81	35924.88
525.98	35627.63
526.16	35723.60
526.33	35871.05
526.50	36360.22
526.67	35845.30
526.84	36215.11
527.01	36140.21
527.18	36093.40
527.36	36226.81
527.53	36070.00
527.70	37233.24
527.87	37062.38
528.04	36451.50
528.21	36664.49
528.38	36849.39
528.55	36517.04
528.72	36685.56
528.89	36713.64
529.07	36524.06
529.24	36914.93
529.41	36830.67
529.58	37572.62
529.75	36978.12
529.92	37315.16
530.09	36816.63
530.26	37130.26
530.43	37184.09
530.60	37104.51
530.77	37359.63
530.94	37460.27
531.11	37273.03
531.28	37340.91
531.46	37202.82
531.63	37975.19
531.80	37612.41
531.97	37663.90
532.14	37879.23
532.31	37677.94
532.48	37860.51
532.65	38401.17
532.82	37546.87
532.99	37944.76
533.16	37811.35
533.33	38469.04
533.50	38525.22
533.67	38396.49
533.84	38204.56
534.01	38602.46
534.18	38410.53
534.35	38665.65
534.52	38782.68
534.69	38700.76
534.86	39070.56
535.03	39026.09
535.20	38574.37
535.37	39318.66
535.54	39136.10
535.71	38815.44
535.88	39070.56
536.05	38962.90
536.22	39578.46
536.38	39423.98
536.55	39370.15
536.72	39182.91
536.89	39086.95
537.06	38948.85
537.23	39372.49
537.40	39590.16
537.57	39239.08
537.74	39452.07
537.91	39655.70
538.08	39381.85
538.25	39335.04
538.42	39765.70
538.59	39779.74
538.75	39807.83
538.92	39754.00
539.09	39992.73
539.26	40091.04
539.43	39569.10
539.60	40072.31
539.77	39934.22
539.94	39768.04
540.11	40297.00
540.28	40121.46
540.44	40362.54
540.61	40154.23
540.78	40531.06
540.95	40414.03
541.12	39913.16
541.29	40149.55
541.46	40666.81
541.62	40196.36
541.79	40346.15
541.96	40374.24
542.13	40622.34
542.30	40694.89
542.47	40788.52
542.63	40914.90
542.80	41308.11
542.97	41036.61
543.14	40971.08
543.31	41181.73
543.48	41366.63
543.64	41495.36
543.81	41467.27
543.98	41228.54
544.15	41158.32
544.32	41853.46
544.48	42246.67
544.65	41209.81
544.82	41368.97
544.99	41832.39
545.16	41706.01
545.32	41478.97
545.49	42181.13
545.66	42230.29
545.83	42153.05
546.00	42038.36
546.16	41879.21
546.33	42164.75
546.50	41656.85
546.67	42263.05
546.83	41736.43
547.00	42174.11
547.17	42031.34
547.34	42148.37
547.50	42824.78
547.67	42450.30
547.84	42735.84
548.00	42869.25
548.17	42997.98
548.34	42731.16
548.51	43040.11
548.67	43005.00
548.84	42981.60
549.01	42492.43
549.18	42454.98
549.34	43084.58
549.51	43016.71
549.68	42707.76
549.84	42717.12
550.01	42909.04
550.18	42564.98
550.34	43115.01
550.51	42862.23
550.68	43065.86
550.84	42873.93
551.01	43250.76
551.18	43084.58
551.34	43086.92
551.51	43117.35
551.68	44053.56
551.84	43210.97
552.01	43330.34
552.18	43636.95
552.34	43026.07
552.51	43400.55
552.68	43068.20
552.84	43559.71
553.01	43913.13
553.18	43519.92
553.34	43409.92
553.51	43360.76
553.67	43672.06
553.84	44002.07
554.01	43831.21
554.17	43796.10
554.34	43971.64
554.51	43770.36
554.67	43945.90
554.84	43931.86
555.00	43807.81
555.17	44041.86
555.33	44147.18
555.50	43772.70
555.67	44100.37
555.83	44304.00
556.00	44048.88
556.16	44626.99
556.33	44442.09
556.50	44411.67
556.66	44346.13
556.83	44355.49
556.99	44720.62
557.16	44622.31
557.32	44671.46
557.49	44748.70
557.65	44296.98
557.82	44610.61
557.98	44428.05
558.15	44596.57
558.32	44545.08
558.48	44088.67
558.65	44589.55
558.81	44809.56
558.98	44727.64
559.14	44734.66
559.31	44760.40
559.47	44601.25
559.64	45167.66
559.80	44713.59
559.97	45043.61
560.13	44861.05
560.30	44713.59
560.46	44973.39
560.63	44949.99
560.79	45207.45
560.96	45214.47
561.12	45207.45
561.29	44957.01
561.45	45287.03
561.61	44893.82
561.78	44886.79
561.94	44570.82
562.11	45207.45
562.27	45045.95
562.44	45308.09
562.60	45523.42
562.77	45558.53
562.93	44935.95
563.10	45399.37
563.26	45415.76
563.42	45701.30
563.59	45034.25
563.75	45226.17
563.92	45188.72
564.08	45333.84
564.24	45776.20
564.41	45556.19
564.57	45925.99
564.74	45603.00
564.90	45558.53
565.07	45748.11
565.23	44891.48
565.39	45727.05
565.56	45787.90
565.72	45570.23
565.88	46019.61
566.05	45855.78
566.21	45467.25
566.38	45574.91
566.54	45792.58
566.70	45752.79
566.87	45603.00
567.03	46036.00
567.19	45792.58
567.36	45577.25
567.52	45448.52
567.68	46351.97
567.85	45951.74
568.01	46347.29
568.17	45975.14
568.34	46075.79
568.50	45736.41
568.66	46220.90
568.83	46092.17
568.99	45895.56
569.15	45783.22
569.32	45914.29
569.48	45748.11
569.64	46677.30
569.81	46286.43
569.97	45972.80
570.13	46075.79
570.30	45516.40
570.46	45698.96
570.62	45851.09
570.78	46131.96
570.95	45996.21
571.11	46349.63
571.27	46167.07
571.43	46033.66
571.60	46073.45
571.76	46157.70
571.92	45928.33
572.09	46005.57
572.25	46099.19
572.41	45930.67
572.57	46167.07
572.74	46408.14
572.90	45961.10
573.06	46508.79
573.22	46314.52
573.38	46541.55
573.55	46302.82
573.71	46773.27
573.87	46672.62
574.03	46300.48
574.20	46834.12
574.36	46473.68
574.52	46382.40
574.68	46508.79
574.84	46164.73
575.01	46543.89
575.17	46815.40
575.33	46527.51
575.49	46204.52
575.65	46607.09
575.82	46363.67
575.98	46188.13
576.14	46628.15
576.30	46419.84
576.46	46459.63
576.62	46443.25
576.79	46597.73
576.95	46096.85
577.11	46445.59
577.27	46499.42
577.43	46354.31
577.59	46391.76
577.75	46333.24
577.92	46384.74
578.08	46426.87
578.24	46602.41
578.40	46653.90
578.56	46375.37
578.72	46569.64
578.88	46642.20
579.04	46567.30
579.21	46454.95
579.37	46749.86
579.53	46728.80
579.69	46663.26
579.85	46251.33
580.01	46696.03
580.17	46511.13
580.33	46782.63
580.49	47217.97
580.65	46796.67
580.82	46581.34
580.98	46368.35
581.14	46248.99
581.30	46562.62
581.46	46747.52
581.62	46237.28
581.78	46478.36
581.94	46890.29
582.10	46628.15
582.26	46770.93
582.42	46590.70
582.58	46623.47
582.74	46960.51
582.90	46974.55
583.06	46967.53
583.22	46454.95
583.38	46384.74
583.54	46630.49
583.70	46756.88
583.86	46761.56
584.02	47035.41
584.18	46789.65
584.34	46953.49
584.50	47105.62
584.66	46857.52
584.82	46920.72
584.98	47262.44
585.14	47171.16
585.30	46440.91
585.46	46871.57
585.62	46504.10
585.78	46562.62
585.94	46277.07
586.10	46703.05
586.26	46511.13
586.42	46974.55
586.58	46707.73
586.74	46820.08
586.90	46759.22
587.06	46586.02
587.22	46946.47
587.38	46536.87
587.54	47091.58
587.70	47320.95
587.86	46979.23
588.02	46485.38
588.18	46712.41
588.34	46679.64
588.49	46941.78
588.65	46916.04
588.81	46761.56
588.97	46997.96
589.13	47086.90
589.29	46962.85
589.45	46899.65
589.61	46850.50
589.77	47035.41
589.93	47555.00
590.08	47466.06
