SpectraSuite Data File
++++++++++++++++++++++++++++++++++++
Date: Fri Oct 25 11:23:24 EDT 2013
User: price-jones
Dark Spectrum Present: No
Reference Spectrum Present: No
Number of Sampled Component Spectra: 1
Spectrometers: USB2+H05261
Integration Time (usec): 100000 (USB2+H05261)
Spectra Averaged: 1 (USB2+H05261)
Boxcar Smoothing: 0 (USB2+H05261)
Correct for Electrical Dark: No (USB2+H05261)
Strobe/Lamp Enabled: No (USB2+H05261)
Correct for Detector Non-linearity: No (USB2+H05261)
Correct for Stray Light: No (USB2+H05261)
Number of Pixels in Processed Spectrum: 2048
>>>>>Begin Processed Spectral Data<<<<<
365.73	124.05
365.92	124.05
366.12	124.05
366.32	93.62
366.52	149.79
366.72	173.20
366.91	128.73
367.11	131.07
367.31	163.84
367.51	77.24
367.70	79.58
367.90	102.98
368.10	124.05
368.30	128.73
368.49	117.03
368.69	145.11
368.89	138.09
369.09	133.41
369.28	128.73
369.48	147.45
369.68	168.52
369.87	191.92
370.07	166.18
370.27	278.52
370.47	322.99
370.66	552.37
370.86	645.99
371.06	690.46
371.25	638.97
371.45	786.42
371.65	758.33
371.84	629.60
372.04	765.36
372.24	709.18
372.44	774.72
372.63	746.63
372.83	732.59
373.03	723.23
373.22	746.63
373.42	812.17
373.62	795.78
373.81	741.95
374.01	751.31
374.21	786.42
374.40	765.36
374.60	802.80
374.79	786.42
374.99	753.65
375.19	765.36
375.38	910.47
375.58	840.25
375.78	882.38
375.97	807.48
376.17	894.08
376.37	833.23
376.56	849.61
376.76	912.81
376.95	882.38
377.15	938.55
377.35	877.70
377.54	861.32
377.74	870.68
377.93	856.64
378.13	840.25
378.33	964.30
378.52	964.30
378.72	858.98
378.91	966.64
379.11	889.40
379.31	947.92
379.50	926.85
379.70	945.58
379.89	1081.33
380.09	1053.24
380.28	994.73
380.48	1039.20
380.68	980.68
380.87	1036.86
381.07	1013.45
381.26	1053.24
381.46	887.06
381.65	1062.60
381.85	1004.09
382.04	1062.60
382.24	1100.05
382.43	1069.62
382.63	985.37
382.83	1116.44
383.02	1167.93
383.22	1100.05
383.41	1088.35
383.61	1043.88
383.80	1188.99
384.00	1048.56
384.19	1184.31
384.39	1076.65
384.58	1086.01
384.78	1132.82
384.97	1179.63
385.17	1057.92
385.36	1196.01
385.56	1172.61
385.75	1055.58
385.95	1121.12
386.14	1200.69
386.34	1100.05
386.53	1184.31
386.72	1153.88
386.92	1275.59
387.11	1287.29
387.31	1334.11
387.50	1263.89
387.70	1242.82
387.89	1273.25
388.09	1256.87
388.28	1277.93
388.48	1299.00
388.67	1268.57
388.86	1320.06
389.06	1348.15
389.25	1366.87
389.45	1348.15
389.64	1291.98
389.84	1437.09
390.03	1427.73
390.22	1519.01
390.42	1394.96
390.61	1420.71
390.81	1423.05
391.00	1413.68
391.19	1397.30
391.39	1437.09
391.58	1413.68
391.78	1460.49
391.97	1516.67
392.16	1570.50
392.36	1516.67
392.55	1460.49
392.75	1504.96
392.94	1476.88
393.13	1479.22
393.33	1509.65
393.52	1516.67
393.71	1551.78
393.91	1643.06
394.10	1614.97
394.29	1626.67
394.49	1558.80
394.68	1724.97
394.88	1708.59
395.07	1703.91
395.26	1586.88
395.46	1722.63
395.65	1689.87
395.84	1638.38
396.04	1813.92
396.23	1771.79
396.42	1755.40
396.62	1802.21
396.81	1937.96
397.00	1799.87
397.19	1724.97
397.39	1809.23
397.58	1846.68
397.77	1799.87
397.97	1937.96
398.16	1860.73
398.35	1916.90
398.55	1928.60
398.74	1928.60
398.93	1968.39
399.12	1823.28
399.32	1849.02
399.51	1942.64
399.70	1895.83
399.90	1867.75
400.09	1921.58
400.28	2139.25
400.47	2073.71
400.67	2024.56
400.86	2052.65
401.05	2047.97
401.24	2071.37
401.44	2066.69
401.63	2113.50
401.82	2303.09
402.01	1980.09
402.21	2160.31
402.40	2169.68
402.59	2176.70
402.78	2143.93
402.97	2225.85
403.17	2242.23
403.36	2162.66
403.55	2340.54
403.74	2441.18
403.93	2347.56
404.13	2399.05
404.32	2417.77
404.51	2420.11
404.70	2485.65
404.89	2373.30
405.09	2443.52
405.28	2520.76
405.47	2593.31
405.66	2513.74
405.85	2640.12
406.05	2457.56
406.24	2443.52
406.43	2509.05
406.62	2534.80
406.81	2759.49
407.00	2459.90
407.20	2630.76
407.39	2698.64
407.58	2537.14
407.77	2810.98
407.96	2806.30
408.15	2747.79
408.34	2729.06
408.54	2773.53
408.73	2799.28
408.92	2911.63
409.11	2785.24
409.30	2920.99
409.49	2827.37
409.68	2939.71
409.87	2932.69
410.07	3028.65
410.26	3033.33
410.45	3014.61
410.64	2946.73
410.83	3094.19
411.02	3119.93
411.21	3194.83
411.40	3122.27
411.59	3236.96
411.78	3136.32
411.98	3201.85
412.17	3220.58
412.36	3323.56
412.55	3440.59
412.74	3382.07
412.93	3391.44
413.12	3485.06
413.31	3585.70
413.50	3522.51
413.69	3456.97
413.88	3499.10
414.07	3705.07
414.26	3716.77
414.45	3648.90
414.64	3674.64
414.83	3716.77
415.02	3805.71
415.22	3749.54
415.41	3861.88
415.60	3946.14
415.79	3911.04
415.98	3875.93
416.17	3974.23
416.36	3953.16
416.55	4067.85
416.74	4009.34
416.93	4011.68
417.12	4187.22
417.31	4086.58
417.50	4142.75
417.69	4290.20
417.88	4386.16
418.07	4411.91
418.26	4320.63
418.45	4346.37
418.64	4374.46
418.83	4557.02
419.02	4329.99
419.21	4554.68
419.39	4465.74
419.58	4491.49
419.77	4397.87
419.96	4671.71
420.15	4610.86
420.34	4582.77
420.53	4575.75
420.72	4669.37
420.91	4788.74
421.10	4821.50
421.29	4877.68
421.48	4784.06
421.67	4833.21
421.86	4643.62
422.05	4940.87
422.24	4887.04
422.43	4870.65
422.61	4917.47
422.80	5053.22
422.99	5093.01
423.18	5013.43
423.37	5085.98
423.56	4919.81
423.75	4961.94
423.94	4816.82
424.13	4781.71
424.32	4788.74
424.50	4992.36
424.69	5001.72
424.88	5130.45
425.07	4926.83
425.26	4910.44
425.45	4997.04
425.64	4947.89
425.83	4936.19
426.01	5135.14
426.20	5071.94
426.39	5090.67
426.58	5008.75
426.77	5057.90
426.96	5214.71
427.15	5167.90
427.33	5291.95
427.52	5224.08
427.71	5322.38
427.90	5334.08
428.09	5273.23
428.28	5343.44
428.46	5416.00
428.65	5266.21
428.84	5612.60
429.03	5401.96
429.22	5303.65
429.40	5518.98
429.59	5628.99
429.78	5411.32
429.97	5296.63
430.16	5488.56
430.34	5657.07
430.53	5589.20
430.72	5673.46
430.91	5659.42
431.10	5720.27
431.28	5760.06
431.47	5853.68
431.66	5921.56
431.85	5795.17
432.03	5879.43
432.22	6181.35
432.41	5893.47
432.60	5933.26
432.79	5921.56
432.97	6005.81
433.16	6150.93
433.35	6054.97
433.54	6078.37
433.72	6202.42
433.91	6312.42
434.10	6272.64
434.28	6108.80
434.47	6188.38
434.66	6293.70
434.85	6296.04
435.03	6431.79
435.22	6328.81
435.41	6565.20
435.59	6326.47
435.78	6487.96
435.97	6502.01
436.16	6375.62
436.34	6494.99
436.53	6572.22
436.72	6707.98
436.90	6445.84
437.09	6729.04
437.28	6459.88
437.46	6670.53
437.65	6703.29
437.84	6913.94
438.02	6745.42
438.21	6836.70
438.40	6710.32
438.58	7084.80
438.77	6939.69
438.96	6979.48
439.14	7012.24
439.33	7108.21
439.52	7211.19
439.70	7276.73
439.89	7323.54
440.08	7447.58
440.26	7382.05
440.45	7379.71
440.63	7431.20
440.82	7707.38
441.01	7639.51
441.19	7644.19
441.38	7667.60
441.57	7719.09
441.75	7782.28
441.94	7894.63
442.12	8091.23
442.31	8107.62
442.50	8098.25
442.68	8009.31
442.87	7964.84
443.05	8030.38
443.24	8205.92
443.43	8255.07
443.61	8423.59
443.80	8432.95
443.98	8138.04
444.17	8009.31
444.35	8269.11
444.54	8421.25
444.73	8329.97
444.91	8414.23
445.10	8306.56
445.28	8301.88
445.47	8177.83
445.65	8255.07
445.84	8404.86
446.02	8580.40
446.21	8559.34
446.39	8521.89
446.58	8585.08
446.77	8521.89
446.95	8226.98
447.14	8383.80
447.32	8734.88
447.51	8636.58
447.69	8402.52
447.88	8657.64
448.06	8587.43
448.25	8667.00
448.43	8643.60
448.62	8692.75
448.80	8695.09
448.99	8580.40
449.17	8938.51
449.36	8601.47
449.54	8990.00
449.73	9046.17
449.91	9060.21
450.10	9022.77
450.28	9053.19
450.46	9039.15
450.65	9041.49
450.83	9076.60
451.02	9118.73
451.20	9238.09
451.39	9357.46
451.57	9252.14
451.76	9312.99
451.94	9256.82
452.13	9554.07
452.31	9415.98
452.49	9081.28
452.68	9483.85
452.86	9366.82
453.05	9453.42
453.23	9528.32
453.42	9383.21
453.60	9481.51
453.78	9664.07
453.97	9486.19
454.15	9556.41
454.34	9605.56
454.52	9827.91
454.70	9760.03
454.89	9628.96
455.07	9809.19
455.26	9614.92
455.44	9909.83
455.62	10186.01
455.81	9900.47
455.99	9898.13
456.17	10146.22
456.36	10083.03
456.54	10155.58
456.73	10328.78
456.91	10649.44
457.09	10335.81
457.28	10731.36
457.46	10160.27
457.64	10604.97
457.83	10490.28
458.01	10600.29
458.19	10780.51
458.38	10572.20
458.56	10930.30
458.74	10899.87
458.93	10712.63
459.11	10923.28
459.29	10668.16
459.48	10817.96
459.66	10988.82
459.84	11052.01
460.03	10974.77
460.21	10881.15
460.39	11089.46
460.57	11059.03
460.76	11101.16
460.94	11208.83
461.12	11232.23
461.31	11154.99
461.49	11365.64
461.67	11276.70
461.85	11541.18
462.04	11410.11
462.22	11676.93
462.40	11604.38
462.59	11637.14
462.77	11583.31
462.95	11583.31
463.13	11777.58
463.32	11651.19
463.50	11602.04
463.68	11962.48
463.86	11941.41
464.05	11669.91
464.23	11660.55
464.41	12016.31
464.59	11826.73
464.78	12025.67
464.96	12060.78
465.14	11957.80
465.32	11922.69
465.50	12065.46
465.69	12346.33
465.87	12325.26
466.05	12339.30
466.23	12201.21
466.41	12407.18
466.60	12538.25
466.78	12159.08
466.96	12372.07
467.14	12278.45
467.32	12601.44
467.51	12596.76
467.69	12386.12
467.87	12294.83
468.05	12713.79
468.23	12528.89
468.41	12526.55
468.60	12709.11
468.78	12924.44
468.96	12702.09
469.14	12769.96
469.32	13181.90
469.50	12648.26
469.69	13170.19
469.87	13039.12
470.05	13111.68
470.23	13371.48
470.41	13139.77
470.59	13238.07
470.77	13425.31
470.95	13219.35
471.14	13781.07
471.32	13092.96
471.50	13682.77
471.68	13593.83
471.86	13841.93
472.04	13905.12
472.22	14204.71
472.40	13818.52
472.58	14008.11
472.77	14263.22
472.95	14193.01
473.13	14637.71
473.31	14197.69
473.49	14127.47
473.67	14195.35
473.85	14359.19
474.03	14785.16
474.21	14647.07
474.39	14817.93
474.57	14869.42
474.75	14761.76
474.93	15051.99
475.12	14932.62
475.30	15110.50
475.48	15030.92
475.66	15342.21
475.84	15337.53
476.02	15477.96
476.20	15517.75
476.38	15761.17
476.56	16332.26
476.74	16035.01
476.92	16067.78
477.10	16201.19
477.28	16201.19
477.46	16301.83
477.64	16702.06
477.82	16837.81
478.00	17331.67
478.18	16858.88
478.36	16938.46
478.54	17500.19
478.72	17060.16
478.90	17226.34
479.08	17371.46
479.26	17776.37
479.44	17661.68
479.62	17898.08
479.80	18031.49
479.98	18335.76
480.16	18494.91
480.34	18583.85
480.52	18848.33
480.70	18883.44
480.88	18834.29
481.06	18941.96
481.24	19066.00
481.41	19381.98
481.59	19403.04
481.77	19716.67
481.95	19630.07
482.13	19690.93
482.31	19798.59
482.49	20030.30
482.67	20212.87
482.85	20397.77
483.03	20758.21
483.21	20926.73
483.39	20905.66
483.57	21184.19
483.74	21455.69
483.92	21607.83
484.10	21413.56
484.28	21841.88
484.46	22005.72
484.64	22499.57
484.82	22370.84
485.00	22410.63
485.18	22925.55
485.35	22998.10
485.53	22972.36
485.71	23094.07
485.89	23770.48
486.07	23201.73
486.25	23513.02
486.43	23852.40
486.61	24077.09
486.78	24409.45
486.96	24060.71
487.14	24694.99
487.32	24730.10
487.50	24592.01
487.68	25252.04
487.85	25223.95
488.03	25675.68
488.21	25898.03
488.39	25968.24
488.57	26155.49
488.75	26319.32
488.92	26466.78
489.10	27040.21
489.28	26967.65
489.46	27384.27
489.64	27227.45
489.81	27653.43
489.99	27821.95
490.17	28304.10
490.35	28166.01
490.53	28027.92
490.70	28603.69
490.88	28435.17
491.06	28999.24
491.24	28828.38
491.41	28978.17
491.59	29305.85
491.77	29752.89
491.95	29848.85
492.13	29972.90
492.30	30174.19
492.48	30291.21
492.66	30242.06
492.84	30218.66
493.01	30962.95
493.19	31138.49
493.37	31178.28
493.54	31367.86
493.72	31587.87
493.90	31655.75
494.08	31798.52
494.25	32294.71
494.43	32128.53
494.61	32552.17
494.79	32734.73
494.96	32692.60
495.14	32491.32
495.32	32987.51
495.49	33137.30
495.67	33462.64
495.85	33715.42
496.02	34204.59
496.20	34419.92
496.38	34415.24
496.55	34183.52
496.73	35093.99
496.91	34932.50
497.09	35152.51
497.26	35105.70
497.44	35110.38
497.62	35482.52
497.79	35665.08
497.97	35374.86
498.14	36177.66
498.32	36018.50
498.50	36266.60
498.67	36446.82
498.85	36985.15
499.03	37001.53
499.20	36851.73
499.38	37074.09
499.56	37720.07
499.73	37298.78
499.91	37429.85
500.08	37673.26
500.26	37626.45
500.44	37890.93
500.61	38139.03
500.79	38031.36
500.97	38347.34
501.14	38698.42
501.32	38859.91
501.49	38588.41
501.67	38639.90
501.84	38960.56
502.02	38981.62
502.20	39061.20
502.37	39725.91
502.55	39952.94
502.72	39786.77
502.90	39910.82
503.07	39606.55
503.25	40191.68
503.43	39833.58
503.60	40170.61
503.78	40318.07
503.95	40268.92
504.13	41067.04
504.30	40472.54
504.48	41020.23
504.65	40811.92
504.83	41488.34
505.01	41741.11
505.18	41427.48
505.36	41792.61
505.53	41680.26
505.71	41766.86
505.88	42328.59
506.06	41507.06
506.23	42136.66
506.41	42059.43
506.58	42309.86
506.76	42272.42
506.93	42679.67
507.11	42272.42
507.28	42726.48
507.46	42864.57
507.63	43372.47
507.81	43260.12
507.98	43283.53
508.16	43271.82
508.33	43693.12
508.50	43786.74
508.68	43779.72
508.85	44179.95
509.03	44360.17
509.20	44348.47
509.38	44720.62
509.55	44900.84
509.73	44304.00
509.90	44650.40
510.08	44722.96
510.25	44907.86
510.42	44790.83
510.60	44737.00
510.77	45265.96
510.95	45642.79
511.12	45219.15
511.30	45427.46
511.47	45813.65
511.64	45954.08
511.82	46127.28
511.99	45825.35
512.17	46586.02
512.34	46021.95
512.51	46557.94
512.69	46396.44
512.86	46693.69
513.04	46518.15
513.21	46829.44
513.38	46658.58
513.56	47332.65
513.73	47042.43
513.90	47147.75
514.08	47196.90
514.25	47693.10
514.43	47594.79
514.60	47620.54
514.77	47737.57
514.95	47976.30
515.12	48060.56
515.29	48076.94
515.47	47777.36
515.64	48549.73
515.81	47861.61
515.99	48535.69
516.16	48825.92
516.33	48884.43
516.51	48610.59
516.68	48905.49
516.85	48690.16
517.03	49074.01
517.20	49191.04
517.37	48556.75
517.54	49003.80
517.72	49162.95
517.89	49605.31
518.06	49392.33
518.24	49750.43
518.41	49279.98
518.58	49965.76
518.75	49586.59
518.93	49516.37
519.10	49691.91
519.27	49928.31
519.45	50085.12
519.62	49961.08
519.79	50169.38
519.96	50185.77
520.14	50578.98
520.31	50124.91
520.48	50389.39
520.65	50464.29
520.83	50859.84
521.00	50897.29
521.17	50677.28
521.34	51056.45
521.52	51061.13
521.69	51063.47
521.86	51192.20
522.03	51250.71
522.20	51569.02
522.38	51519.87
522.55	51470.72
522.72	51767.97
522.89	51337.31
523.07	52039.47
523.24	51756.27
523.41	51767.97
523.58	51810.10
523.75	52217.35
523.92	52055.85
524.10	51980.96
524.27	51980.96
524.44	52133.09
524.61	52210.33
524.78	52502.90
524.96	52362.46
525.13	52779.08
525.30	52362.46
525.47	52774.40
525.64	52584.82
525.81	52823.55
525.98	52985.05
526.16	52949.94
526.33	52940.58
526.50	53198.04
526.67	52729.93
526.84	53387.62
527.01	53104.41
527.18	52989.73
527.36	53001.43
527.53	53141.86
527.70	53506.99
527.87	53528.05
528.04	53399.32
528.21	53624.01
528.38	53111.44
528.55	53787.85
528.72	53499.97
528.89	53715.29
529.07	53696.57
529.24	53485.92
529.41	53872.11
529.58	53794.87
529.75	53928.28
529.92	54232.55
530.09	54096.80
530.26	54017.22
530.43	54305.11
530.60	53921.26
530.77	53937.65
530.94	54295.75
531.11	54223.19
531.28	54511.08
531.46	54518.10
531.63	54578.95
531.80	54410.43
531.97	54681.94
532.14	54625.76
532.31	54621.08
532.48	54864.50
532.65	54789.60
532.82	54674.91
532.99	54719.38
533.16	54719.38
533.33	54845.77
533.50	54878.54
533.67	55159.41
533.84	54672.57
534.01	55166.43
534.18	55353.67
534.35	55655.60
534.52	55370.05
534.69	55194.51
534.86	55217.92
535.03	55428.57
535.20	55274.09
535.37	55660.28
535.54	55580.70
535.71	55311.54
535.88	55702.41
536.05	55639.22
536.22	55807.73
536.38	55650.92
536.55	55648.58
536.72	55786.67
536.89	55730.50
537.06	55913.06
537.23	56133.07
537.40	55931.78
537.57	56090.94
537.74	55927.10
537.91	56100.30
538.08	56062.85
538.25	55723.47
538.42	56205.62
538.59	56596.49
538.75	56069.87
538.92	56250.09
539.09	56217.33
539.26	56334.35
539.43	56229.03
539.60	56243.07
539.77	56371.80
539.94	56451.38
540.11	56556.70
540.28	56432.66
540.44	56378.82
540.61	56498.19
540.78	56474.79
540.95	56458.40
541.12	56807.14
541.29	56779.06
541.46	56729.90
541.62	56779.06
541.79	56842.25
541.96	56729.90
542.13	56706.50
542.30	56853.95
542.47	57041.20
542.63	56860.97
542.80	57134.82
542.97	57333.76
543.14	57048.22
543.31	57169.93
543.48	57322.06
543.64	57836.98
543.81	57549.09
543.98	57521.01
544.15	57528.03
544.32	57595.90
544.48	57675.48
544.65	57411.00
544.82	57813.57
544.99	57373.55
545.16	57705.91
545.32	57513.98
545.49	57701.23
545.66	57939.96
545.83	58080.39
546.00	57654.42
546.16	57858.04
546.33	57668.46
546.50	57804.21
546.67	57825.28
546.83	57422.70
547.00	57787.83
547.17	57872.09
547.34	57972.73
547.50	57993.79
547.67	58169.33
547.84	58218.49
548.00	58365.94
548.17	58398.71
548.34	58108.48
548.51	58368.28
548.67	58230.19
548.84	58284.02
549.01	58265.30
549.18	58286.36
549.34	58155.29
549.51	58405.73
549.68	58590.63
549.84	58520.41
550.01	58548.50
550.18	58384.66
550.34	58621.06
550.51	58721.70
550.68	58429.13
550.84	58489.99
551.01	58796.60
551.18	58644.46
551.34	58733.40
551.51	58553.18
551.68	58658.51
551.84	58562.54
552.01	58532.12
552.18	58904.26
552.34	58791.92
552.51	58796.60
552.68	58534.46
552.84	58801.28
553.01	59189.81
553.18	58908.94
553.34	59011.93
553.51	58908.94
553.67	59014.27
553.84	59070.44
554.01	58948.73
554.17	59117.25
554.34	59093.85
554.51	59203.85
554.67	59327.90
554.84	59173.42
555.00	59281.09
555.17	59175.76
555.33	59449.61
555.50	59173.42
555.67	59121.93
555.83	59288.11
556.00	59325.56
556.16	59601.74
556.33	59325.56
556.50	59187.47
556.66	59615.79
556.83	59229.60
556.99	59400.46
557.16	59751.54
557.32	59512.80
557.49	59819.41
557.65	59458.97
557.82	59557.27
557.98	59496.42
558.15	59524.50
558.32	59587.70
558.48	59639.19
558.65	59772.60
558.81	59608.76
558.98	59636.85
559.14	59739.83
559.31	59725.79
559.47	59948.14
559.64	59999.63
559.80	59901.33
559.97	59842.82
560.13	59671.96
560.30	59714.09
560.46	59891.97
560.63	60123.68
560.79	60149.43
560.96	60032.40
561.12	59891.97
561.29	60158.79
561.45	60102.62
561.61	59994.95
561.78	60067.51
561.94	60027.72
562.11	60023.04
562.27	60001.97
562.44	59955.16
562.60	60097.94
562.77	60231.35
562.93	59807.71
563.10	60292.20
563.26	59959.84
563.42	60140.07
563.59	60149.43
563.75	60168.15
563.92	60137.72
564.08	60292.20
564.24	60430.29
564.41	60191.56
564.57	60247.73
564.74	60446.68
564.90	60371.78
565.07	60170.49
565.23	60374.12
565.39	60245.39
565.56	60570.72
565.72	60308.58
565.88	60493.49
566.05	60334.33
566.21	60273.48
566.38	60221.98
566.54	60526.25
566.70	60528.59
566.87	60561.36
567.03	60299.22
567.19	60683.07
567.36	60453.70
567.52	60331.99
567.68	60786.05
567.85	60481.78
568.01	60549.66
568.17	60465.40
568.34	60453.70
568.50	60530.93
568.66	60472.42
568.83	60554.34
568.99	60364.76
569.15	60676.05
569.32	60767.33
569.48	60444.33
569.64	60727.54
569.81	60432.63
569.97	60477.10
570.13	60725.20
570.30	60477.10
570.46	60673.71
570.62	60652.64
570.78	60697.11
570.95	60664.35
571.11	60891.38
571.27	60498.17
571.43	60617.53
571.60	60795.42
571.76	60846.91
571.92	60669.03
572.09	60797.76
572.25	60647.96
572.41	60619.88
572.57	60570.72
572.74	60999.04
572.90	60694.77
573.06	60851.59
573.22	60788.39
573.38	60718.18
573.55	60753.29
573.71	60779.03
573.87	60790.73
574.03	60781.37
574.20	60872.65
574.36	60774.35
574.52	61003.72
574.68	61022.45
574.84	60870.31
575.01	60865.63
575.17	60842.23
575.33	60867.97
575.49	60552.00
575.65	60903.08
575.82	61010.74
575.98	60842.23
576.14	61148.84
576.30	61104.37
576.46	60870.31
576.62	60912.44
576.79	60924.14
576.95	60769.67
577.11	61041.17
577.27	61059.90
577.43	60968.61
577.59	60814.14
577.75	60874.99
577.92	60910.10
578.08	60889.04
578.24	60898.40
578.40	61109.05
578.56	60973.30
578.72	60996.70
578.88	61181.60
579.04	61214.37
579.21	61062.24
579.37	61099.68
579.53	61207.35
579.69	60786.05
579.85	60874.99
580.01	61197.99
580.17	61043.51
580.33	61064.58
580.49	61076.28
580.65	61006.06
580.82	60952.23
580.98	61083.30
581.14	60863.29
581.30	61303.31
581.46	61043.51
581.62	60963.93
581.78	61179.26
581.94	61240.12
582.10	60905.42
582.26	61242.46
582.42	61123.09
582.58	61113.73
582.74	61043.51
582.90	61069.26
583.06	61123.09
583.22	60832.86
583.38	61095.00
583.54	61036.49
583.70	60996.70
583.86	61242.46
584.02	60982.66
584.18	61258.84
584.34	61066.92
584.50	61209.69
584.66	60926.49
584.82	60860.95
584.98	61401.61
585.14	61226.07
585.30	61282.25
585.46	61151.18
585.62	61300.97
585.78	61188.63
585.94	60767.33
586.10	61111.39
586.26	61174.58
586.42	61155.86
586.58	61401.61
586.74	61169.90
586.90	60921.80
587.06	61169.90
587.22	61043.51
587.38	61099.68
587.54	61366.51
587.70	61319.70
587.86	61293.95
588.02	61310.33
588.18	61357.14
588.34	61186.28
588.49	61134.79
