SpectraSuite Data File
++++++++++++++++++++++++++++++++++++
Date: Fri Oct 25 10:47:23 EDT 2013
User: price-jones
Dark Spectrum Present: No
Reference Spectrum Present: No
Number of Sampled Component Spectra: 1
Spectrometers: USB2+H05261
Integration Time (usec): 100000 (USB2+H05261)
Spectra Averaged: 1 (USB2+H05261)
Boxcar Smoothing: 0 (USB2+H05261)
Correct for Electrical Dark: No (USB2+H05261)
Strobe/Lamp Enabled: No (USB2+H05261)
Correct for Detector Non-linearity: No (USB2+H05261)
Correct for Stray Light: No (USB2+H05261)
Number of Pixels in Processed Spectrum: 2048
>>>>>Begin Processed Spectral Data<<<<<
365.73	142.77
365.92	142.77
366.12	142.77
366.32	35.11
366.52	0.00
366.72	37.45
366.91	65.54
367.11	25.75
367.31	30.43
367.51	9.36
367.70	84.26
367.90	25.75
368.10	30.43
368.30	46.81
368.49	107.66
368.69	35.11
368.89	84.26
369.09	0.00
369.28	107.66
369.48	88.94
369.68	95.96
369.87	173.20
370.07	117.03
370.27	149.79
370.47	121.71
370.66	402.57
370.86	423.64
371.06	479.81
371.25	402.57
371.45	510.24
371.65	486.83
371.84	477.47
372.04	376.83
372.24	491.51
372.44	531.30
372.63	519.60
372.83	578.11
373.03	486.83
373.22	505.56
373.42	519.60
373.62	472.79
373.81	585.13
374.01	519.60
374.21	634.29
374.40	526.62
374.60	599.18
374.79	533.64
374.99	543.00
375.19	545.34
375.38	528.96
375.58	559.39
375.78	615.56
375.97	613.22
376.17	587.47
376.37	545.34
376.56	575.77
376.76	585.13
376.95	543.00
377.15	620.24
377.35	617.90
377.54	615.56
377.74	599.18
377.93	615.56
378.13	535.98
378.33	657.69
378.52	678.76
378.72	620.24
378.91	566.41
379.11	585.13
379.31	620.24
379.50	641.31
379.70	629.60
379.89	678.76
380.09	589.82
380.28	631.94
380.48	667.05
380.68	568.75
380.87	624.92
381.07	711.52
381.26	683.44
381.46	648.33
381.65	692.80
381.85	615.56
382.04	697.48
382.24	660.03
382.43	741.95
382.63	664.71
382.83	660.03
383.02	741.95
383.22	739.61
383.41	704.50
383.61	755.99
383.80	704.50
384.00	753.65
384.19	732.59
384.39	758.33
384.58	767.70
384.78	856.64
384.97	748.97
385.17	737.27
385.36	755.99
385.56	863.66
385.75	763.01
385.95	807.48
386.14	809.83
386.34	748.97
386.53	758.33
386.72	716.20
386.92	795.78
387.11	833.23
387.31	844.93
387.50	837.91
387.70	798.12
387.89	863.66
388.09	751.31
388.28	866.00
388.48	774.72
388.67	880.04
388.86	959.62
389.06	837.91
389.25	819.19
389.45	915.15
389.64	854.30
389.84	938.55
390.03	957.28
390.22	880.04
390.42	954.94
390.61	901.11
390.81	992.39
391.00	887.06
391.19	1015.79
391.39	976.00
391.58	896.43
391.78	971.32
391.97	966.64
392.16	954.94
392.36	1048.56
392.55	940.90
392.75	936.21
392.94	952.60
393.13	973.66
393.33	1013.45
393.52	1008.77
393.71	1090.69
393.91	1095.37
394.10	971.32
394.29	1083.67
394.49	1123.46
394.68	1100.05
394.88	1076.65
395.07	1043.88
395.26	1088.35
395.46	1165.59
395.65	1142.18
395.84	1151.54
396.04	1057.92
396.23	1114.10
396.42	1151.54
396.62	1111.75
396.81	1158.57
397.00	1125.80
397.19	1167.93
397.39	1217.08
397.58	1291.98
397.77	1261.55
397.97	1331.76
398.16	1352.83
398.35	1348.15
398.55	1350.49
398.74	1268.57
398.93	1406.66
399.12	1350.49
399.32	1366.87
399.51	1362.19
399.70	1437.09
399.90	1446.45
400.09	1394.96
400.28	1467.52
400.47	1390.28
400.67	1378.58
400.86	1476.88
401.05	1439.43
401.24	1495.60
401.44	1500.28
401.63	1547.09
401.82	1556.46
402.01	1521.35
402.21	1514.33
402.40	1631.35
402.59	1535.39
402.78	1556.46
402.97	1638.38
403.17	1570.50
403.36	1636.03
403.55	1582.20
403.74	1650.08
403.93	1591.56
404.13	1614.97
404.32	1621.99
404.51	1722.63
404.70	1820.94
404.89	1519.01
405.09	1713.27
405.28	1811.57
405.47	1818.60
405.66	1795.19
405.85	1834.98
406.05	1842.00
406.24	1830.30
406.43	1771.79
406.62	1839.66
406.81	1930.94
407.00	1872.43
407.20	1902.86
407.39	1760.08
407.58	1961.37
407.77	1909.88
407.96	2045.63
408.15	1977.75
408.34	1961.37
408.54	1970.73
408.73	1954.35
408.92	2092.44
409.11	2083.08
409.30	2162.66
409.49	2106.48
409.68	2064.35
409.87	1991.80
410.07	2127.55
410.26	2174.36
410.45	2132.23
410.64	2115.84
410.83	2230.53
411.02	2195.42
411.21	2303.09
411.40	2258.62
411.59	2249.25
411.78	2291.38
411.98	2359.26
412.17	2466.92
412.36	2420.11
412.55	2466.92
412.74	2485.65
412.93	2300.75
413.12	2434.16
413.31	2637.78
413.50	2614.38
413.69	2579.27
413.88	2656.51
414.07	2452.88
414.26	2637.78
414.45	2597.99
414.64	2537.14
414.83	2600.34
415.02	2612.04
415.22	2675.23
415.41	2766.51
415.60	2829.71
415.79	2827.37
415.98	2988.86
416.17	2944.39
416.36	2984.18
416.55	2827.37
416.74	2883.54
416.93	2988.86
417.12	2972.48
417.31	2979.50
417.50	3082.49
417.69	3075.46
417.88	3159.72
418.07	3098.87
418.26	3068.44
418.45	3159.72
418.64	3251.00
418.83	3197.17
419.02	3180.79
419.21	3180.79
419.39	3232.28
419.58	3162.06
419.77	3173.77
419.96	3272.07
420.15	3199.51
420.34	3351.65
420.53	3318.88
420.72	3328.24
420.91	3456.97
421.10	3461.65
421.29	3487.40
421.48	3330.58
421.67	3552.93
421.86	3325.90
422.05	3456.97
422.24	3309.52
422.43	3672.30
422.61	3569.32
422.80	3648.90
422.99	3651.24
423.18	3581.02
423.37	3592.72
423.56	3581.02
423.75	3461.65
423.94	3571.66
424.13	3344.63
424.32	3396.12
424.50	3564.64
424.69	3660.60
424.88	3770.60
425.07	3562.30
425.26	3459.31
425.45	3691.02
425.64	3569.32
425.83	3627.83
426.01	3637.19
426.20	3651.24
426.39	3637.19
426.58	3581.02
426.77	3578.68
426.96	3791.67
427.15	3665.28
427.33	3705.07
427.52	3609.11
427.71	3803.37
427.90	3737.84
428.09	3847.84
428.28	3751.88
428.46	3896.99
428.65	3819.75
428.84	4044.45
429.03	3904.01
429.22	3707.41
429.40	3948.48
429.59	3798.69
429.78	3627.83
429.97	3679.32
430.16	3674.64
430.34	3922.74
430.53	3854.86
430.72	3796.35
430.91	3904.01
431.10	4072.53
431.28	4028.06
431.47	4203.60
431.66	4219.99
431.85	4023.38
432.03	4227.01
432.22	4278.50
432.41	4238.71
432.60	4348.72
432.79	4320.63
432.97	4337.01
433.16	4344.03
433.35	4332.33
433.54	4259.78
433.72	4365.10
433.91	4395.53
434.10	4236.37
434.28	4318.29
434.47	4423.61
434.66	4411.91
434.85	4589.79
435.03	4442.34
435.22	4432.97
435.41	4568.73
435.59	4641.28
435.78	4533.62
435.97	4505.53
436.16	4638.94
436.34	4697.46
436.53	4606.17
436.72	4751.29
436.90	4580.43
437.09	4741.93
437.28	4716.18
437.46	4596.81
437.65	4690.43
437.84	4779.37
438.02	4669.37
438.21	4905.76
438.40	4751.29
438.58	4849.59
438.77	4987.68
438.96	4933.85
439.14	5095.35
439.33	4971.30
439.52	5078.96
439.70	5135.14
439.89	5118.75
440.08	5130.45
440.26	5163.22
440.45	5128.11
440.63	5420.68
440.82	5261.52
441.01	5416.00
441.19	5425.36
441.38	5526.00
441.57	5483.88
441.75	5657.07
441.94	5755.38
442.12	5584.52
442.31	5650.05
442.50	5760.06
442.68	5696.86
442.87	5708.57
443.05	5603.24
443.24	5806.87
443.43	5905.17
443.61	5818.57
443.80	6017.52
443.98	5710.91
444.17	5561.11
444.35	5987.09
444.54	5942.62
444.73	6064.33
444.91	5701.54
445.10	5678.14
445.28	5893.47
445.47	5961.34
445.65	5865.38
445.84	5827.93
446.02	6026.88
446.21	5923.90
446.39	5919.21
446.58	6094.76
446.77	5966.03
446.95	5891.13
447.14	6085.39
447.32	6043.26
447.51	5930.92
447.69	6094.76
447.88	6120.50
448.06	6029.22
448.25	5956.66
448.43	6024.54
448.62	6186.04
448.80	6099.44
448.99	6232.85
449.17	6054.97
449.36	6083.05
449.54	6317.11
449.73	6324.13
449.91	6410.73
450.10	6480.94
450.28	6532.44
450.46	6352.21
450.65	6476.26
450.83	6581.59
451.02	6459.88
451.20	6621.38
451.39	6586.27
451.57	6511.37
451.76	6494.99
451.94	6586.27
452.13	6438.81
452.31	6717.34
452.49	6546.48
452.68	6497.33
452.86	6530.09
453.05	6513.71
453.23	6597.97
453.42	6567.54
453.60	6544.14
453.78	6815.64
453.97	6717.34
454.15	6654.14
454.34	6623.72
454.52	6850.75
454.70	6813.30
454.89	6747.76
455.07	6913.94
455.26	6836.70
455.44	6946.71
455.62	6876.49
455.81	7002.88
455.99	6927.99
456.17	7040.33
456.36	7059.06
456.54	7206.51
456.73	7178.42
456.91	7414.82
457.09	7396.09
457.28	7349.28
457.46	7133.95
457.64	7239.28
457.83	7211.19
458.01	7360.98
458.19	7377.37
458.38	7353.96
458.56	7667.60
458.74	7386.73
458.93	7468.65
459.11	7487.37
459.29	7403.11
459.48	7534.18
459.66	7606.74
459.84	7583.34
460.03	7784.62
460.21	7719.09
460.39	7747.17
460.57	7709.72
460.76	7775.26
460.94	7838.45
461.12	7906.33
461.31	8049.10
461.49	7817.39
461.67	7859.52
461.85	7932.08
462.04	8121.66
462.22	8367.42
462.40	8013.99
462.59	8084.21
462.77	7983.57
462.95	8077.19
463.13	8063.15
463.32	8245.71
463.50	8154.43
463.68	8322.94
463.86	8250.39
464.05	8215.28
464.23	8243.37
464.41	8294.86
464.59	8079.53
464.78	8439.97
464.96	8308.90
465.14	8074.85
465.32	8306.56
465.50	8479.76
465.69	8496.14
465.87	8365.07
466.05	8318.26
466.23	8461.04
466.41	8278.47
466.60	8592.11
466.78	8297.20
466.96	8456.36
467.14	8587.43
467.32	8741.90
467.51	8767.65
467.69	8526.57
467.87	8528.91
468.05	8503.17
468.23	8564.02
468.41	8535.93
468.60	8772.33
468.78	8725.52
468.96	8814.46
469.14	8863.61
469.32	9055.53
469.50	8472.74
469.69	8844.88
469.87	9048.51
470.05	9163.20
470.23	8973.61
470.41	8968.93
470.59	9221.71
470.77	9153.84
470.95	9163.20
471.14	9160.86
471.32	9207.67
471.50	9514.28
471.68	9455.76
471.86	9465.13
472.04	9427.68
472.22	9626.62
472.40	9366.82
472.58	9497.89
472.77	9652.37
472.95	9640.67
473.13	9980.04
473.31	9654.71
473.49	9788.12
473.67	9727.27
473.85	9628.96
474.03	10064.30
474.21	9893.44
474.39	10118.14
474.57	10078.35
474.75	10303.04
474.93	10286.65
475.12	10160.27
475.30	10155.58
475.48	10300.70
475.66	10434.11
475.84	10335.81
476.02	10501.98
476.20	10417.72
476.38	10780.51
476.56	10972.43
476.74	10834.34
476.92	10766.46
477.10	10848.38
477.28	11016.90
477.46	10942.00
477.64	11159.67
477.82	11225.21
478.00	11571.61
478.18	11241.59
478.36	11751.83
478.54	11538.84
478.72	11744.81
478.90	11651.19
479.08	11943.75
479.26	12128.66
479.44	11960.14
479.62	12266.75
479.80	12121.63
479.98	12053.76
480.16	12538.25
480.34	12280.79
480.52	12662.30
480.70	12453.99
480.88	12463.35
481.06	12809.75
481.24	12678.68
481.41	13074.23
481.59	13184.24
481.77	13224.03
481.95	13170.19
482.13	13242.75
482.31	13186.58
482.49	13640.64
482.67	13664.05
482.85	13811.50
483.03	13935.55
483.21	14059.60
483.39	14162.58
483.57	14235.14
483.74	14375.57
483.92	14232.80
484.10	14214.07
484.28	14389.61
484.46	14803.89
484.64	15040.28
484.82	14537.07
485.00	15119.86
485.18	15096.46
485.35	15220.50
485.53	15007.52
485.71	15272.00
485.89	15410.09
486.07	15272.00
486.25	15676.91
486.43	15733.08
486.61	15868.83
486.78	16121.61
486.96	16013.95
487.14	16217.57
487.32	16458.65
487.50	16762.92
487.68	16573.33
487.85	16908.03
488.03	17226.34
488.21	17174.85
488.39	17280.18
488.57	17532.95
488.75	17331.67
488.92	17701.47
489.10	17809.14
489.28	17879.35
489.46	18265.54
489.64	18036.17
489.81	18523.00
489.99	18443.42
490.17	18654.07
490.35	18691.52
490.53	18726.63
490.70	18988.77
490.88	18808.54
491.06	19328.14
491.24	19037.92
491.41	19087.07
491.59	19225.16
491.77	19115.16
491.95	19569.22
492.13	19864.13
492.30	19838.38
492.48	19985.83
492.66	20128.61
492.84	20404.79
493.01	20304.15
493.19	20552.24
493.37	20879.92
493.54	20512.46
493.72	20856.51
493.90	20727.78
494.08	21172.49
494.25	21387.82
494.43	21579.74
494.61	21626.55
494.79	21467.39
494.96	21741.24
495.14	21584.42
495.32	21710.81
495.49	22139.13
495.67	22185.94
495.85	22214.02
496.02	22281.90
496.20	22642.34
496.38	22867.03
496.55	22602.55
496.73	23262.58
496.91	22920.87
497.09	23466.21
497.26	23084.70
497.44	22831.93
497.62	23307.05
497.79	23449.83
497.97	23557.49
498.14	23723.67
498.32	23800.91
498.50	24077.09
498.67	24208.16
498.85	24346.25
499.03	24093.47
499.20	24067.73
499.38	24294.76
499.56	24364.98
499.73	24699.67
499.91	24416.47
500.08	24645.84
500.26	24603.71
500.44	24884.58
500.61	25003.94
500.79	24748.82
500.97	25151.40
501.14	25191.19
501.32	25266.08
501.49	25429.92
501.67	25891.01
501.84	25474.39
502.02	25572.69
502.20	26139.10
502.37	25912.07
502.55	25886.32
502.72	26029.10
502.90	25823.13
503.07	25781.00
503.25	26141.44
503.43	26309.96
503.60	26209.32
503.78	26661.04
503.95	26127.40
504.13	26740.62
504.30	27012.12
504.48	26773.39
504.65	26714.87
504.83	26960.63
505.01	26920.84
505.18	27199.37
505.36	27388.95
505.53	27218.09
505.71	27463.85
505.88	27690.88
506.06	27473.21
506.23	27599.60
506.41	27555.13
506.58	27924.93
506.76	27894.50
506.93	27770.46
507.11	28109.83
507.28	28184.73
507.46	27913.23
507.63	27803.22
507.81	28559.22
507.98	28140.26
508.16	28643.48
508.33	28453.89
508.50	28662.20
508.68	28819.02
508.85	29069.45
509.03	29053.07
509.20	28861.15
509.38	29387.77
509.55	29280.10
509.73	29165.42
509.90	29425.22
510.08	29731.83
510.25	29350.32
510.42	29514.16
510.60	29766.93
510.77	29628.84
510.95	30188.23
511.12	29514.16
511.30	29993.97
511.47	30345.05
511.64	30345.05
511.82	30719.53
511.99	30068.86
512.17	30171.85
512.34	29937.79
512.51	31023.80
512.69	30415.26
512.86	31005.08
513.04	30707.83
513.21	31012.10
513.38	30644.63
513.56	30693.79
513.73	30871.67
513.90	30899.75
514.08	30993.37
514.25	31007.42
514.43	31489.57
514.60	31431.05
514.77	31126.78
514.95	31522.34
515.12	31489.57
515.29	31618.30
515.47	31709.58
515.64	32013.85
515.81	31793.84
515.99	31653.40
516.16	31903.84
516.33	32142.58
516.51	31803.20
516.68	31763.41
516.85	31735.32
517.03	32121.51
517.20	32163.64
517.37	32573.24
517.54	32144.92
517.72	32329.82
517.89	32285.35
518.06	32254.92
518.24	32336.84
518.41	32357.91
518.58	32421.10
518.75	32800.27
518.93	33029.64
519.10	32889.21
519.27	33202.84
519.45	33111.56
519.62	33149.01
519.79	33371.36
519.96	33024.96
520.14	33872.23
520.31	33460.30
520.48	34272.46
520.65	33827.76
520.83	33916.70
521.00	33663.93
521.17	33741.16
521.34	33834.78
521.52	33869.89
521.69	33944.79
521.86	34253.74
522.03	34501.84
522.20	34117.99
522.38	34590.78
522.55	34033.73
522.72	34335.66
522.89	34181.18
523.07	34586.10
523.24	34117.99
523.41	34602.48
523.58	34602.48
523.75	35068.25
523.92	35204.00
524.10	34850.58
524.27	35084.63
524.44	34845.90
524.61	35416.99
524.78	35690.83
524.96	35580.82
525.13	35220.38
525.30	35374.86
525.47	35793.81
525.64	35756.36
525.81	35704.87
525.98	35498.91
526.16	35211.02
526.33	35152.51
526.50	35887.43
526.67	35491.88
526.84	35880.41
527.01	35669.76
527.18	35894.46
527.36	35711.89
527.53	35887.43
527.70	36409.37
527.87	36453.84
528.04	36629.38
528.21	36638.75
528.38	36329.80
528.55	36765.14
528.72	36498.31
528.89	36526.40
529.07	36683.22
529.24	36708.96
529.41	36650.45
529.58	37151.32
529.75	36879.82
529.92	36907.91
530.09	37038.98
530.26	37518.79
530.43	37251.97
530.60	37186.43
530.77	37233.24
530.94	37350.27
531.11	36961.74
531.28	37174.73
531.46	37479.00
531.63	37376.01
531.80	37500.06
531.97	37710.71
532.14	37668.58
532.31	37553.90
532.48	37759.86
532.65	38073.49
532.82	37563.26
532.99	38003.28
533.16	37589.00
533.33	37514.11
533.50	38335.63
533.67	37879.23
533.84	37823.06
534.01	38267.76
534.18	38452.66
534.35	38609.48
534.52	38036.05
534.69	38508.83
534.86	38646.93
535.03	38045.41
535.20	38745.23
535.37	38850.55
535.54	38663.31
535.71	38305.21
535.88	38459.68
536.05	38249.03
536.22	39213.34
536.38	38923.11
536.55	38974.60
536.72	38667.99
536.89	38667.99
537.06	38595.43
537.23	38932.47
537.40	38396.49
537.57	39007.37
537.74	38719.48
537.91	39538.67
538.08	38724.16
538.25	39079.92
538.42	39220.36
538.59	39201.63
538.75	39040.14
538.92	39545.69
539.09	39487.18
539.26	39545.69
539.43	39431.01
539.60	39648.68
539.77	39512.92
539.94	39594.84
540.11	39306.96
540.28	39473.13
540.44	39962.31
540.61	39845.28
540.78	39569.10
540.95	39686.12
541.12	39316.32
541.29	39658.04
541.46	39758.68
541.62	39992.73
541.79	40624.68
541.96	39969.33
542.13	39765.70
542.30	39793.79
542.47	40238.49
542.63	40168.27
542.80	40285.30
542.97	40641.06
543.14	40671.49
543.31	40620.00
543.48	40959.38
543.64	40971.08
543.81	41163.00
543.98	41045.97
544.15	40397.65
544.32	40720.64
544.48	40804.90
544.65	41022.57
544.82	41324.50
544.99	40741.71
545.16	41305.77
545.32	40968.74
545.49	41663.88
545.66	41588.98
545.83	41242.58
546.00	41766.86
546.16	41137.26
546.33	41219.17
546.50	40788.52
546.67	41106.83
546.83	41017.89
547.00	41076.40
547.17	41354.93
547.34	41167.68
547.50	41649.83
547.67	41984.53
547.84	41710.69
548.00	41902.61
548.17	41607.70
548.34	41797.29
548.51	41914.31
548.67	41696.64
548.84	41858.14
549.01	41698.98
549.18	41881.55
549.34	42256.03
549.51	42307.52
549.68	41996.23
549.84	42171.77
550.01	42127.30
550.18	41951.76
550.34	42237.31
550.51	42326.25
550.68	41970.49
550.84	42012.62
551.01	42192.84
551.18	42710.10
551.34	41886.23
551.51	42188.16
551.68	42579.03
551.84	42686.69
552.01	42581.37
552.18	42520.51
552.34	42459.66
552.51	42492.43
552.68	42712.44
552.84	42557.96
553.01	43103.31
553.18	42735.84
553.34	42464.34
553.51	42241.99
553.67	42724.14
553.84	42724.14
554.01	43145.44
554.17	43262.46
554.34	42667.97
554.51	42923.08
554.67	43194.59
554.84	43000.32
555.00	42768.61
555.17	42768.61
555.33	43007.34
555.50	42904.36
555.67	43154.80
555.83	43182.88
556.00	43201.61
556.16	43353.74
556.33	43047.13
556.50	43267.14
556.66	43370.13
556.83	43126.71
556.99	43096.28
557.16	43316.29
557.32	43613.54
557.49	43538.65
557.65	42937.13
557.82	43569.07
557.98	43096.28
558.15	43257.78
558.32	43791.42
558.48	43650.99
558.65	43480.13
558.81	43477.79
558.98	43676.74
559.14	43775.04
559.31	43587.80
559.47	43306.93
559.64	43889.73
559.80	43955.26
559.97	43496.52
560.13	43590.14
560.30	43463.75
560.46	43498.86
560.63	43880.36
560.79	43620.56
560.96	44091.01
561.12	43445.02
561.29	43786.74
561.45	43564.39
561.61	43910.79
561.78	43896.75
561.94	43798.44
562.11	43594.82
562.27	43487.15
562.44	43653.33
562.60	43653.33
562.77	44364.85
562.93	44217.40
563.10	43721.21
563.26	43753.97
563.42	44346.13
563.59	43978.67
563.75	44041.86
563.92	44446.77
564.08	44318.04
564.24	43995.05
564.41	43892.07
564.57	44233.78
564.74	44030.16
564.90	43878.02
565.07	43927.17
565.23	44158.89
565.39	44037.18
565.56	44226.76
565.72	44231.44
565.88	44081.65
566.05	44346.13
566.21	44362.51
566.38	44711.25
566.54	44016.11
566.70	44409.32
566.87	44519.33
567.03	44465.50
567.19	44704.23
567.36	44306.34
567.52	44343.79
567.68	44374.22
567.85	44282.94
568.01	44528.69
568.17	44006.75
568.34	44657.42
568.50	44481.88
568.66	43800.79
568.83	44322.72
568.99	44018.46
569.15	44072.29
569.32	43915.47
569.48	44083.99
569.64	44814.24
569.81	44397.62
569.97	44292.30
570.13	44573.16
570.30	44360.17
570.46	43992.71
570.62	44123.78
570.78	44011.43
570.95	44215.06
571.11	44758.06
571.27	44694.87
571.43	44783.81
571.60	44603.59
571.76	44776.79
571.92	44603.59
572.09	44783.81
572.25	44465.50
572.41	44685.51
572.57	44641.04
572.74	44767.43
572.90	44811.90
573.06	44896.16
573.22	44432.73
573.38	44584.86
573.55	44051.22
573.71	44921.90
573.87	44332.09
574.03	44596.57
574.20	44561.46
574.36	44453.79
574.52	44643.38
574.68	44734.66
574.84	44547.42
575.01	44615.29
575.17	44423.37
575.33	44388.26
575.49	44788.49
575.65	44947.65
575.82	45137.23
575.98	44535.71
576.14	44872.75
576.30	45003.82
576.46	44865.73
576.62	44414.01
576.79	45031.91
576.95	44460.82
577.11	44769.77
577.27	44825.94
577.43	44809.56
577.59	44505.29
577.75	44896.16
577.92	44299.32
578.08	44271.23
578.24	44383.58
578.40	44851.69
578.56	44921.90
578.72	44882.11
578.88	44563.80
579.04	44631.68
579.21	45006.16
579.37	44781.47
579.53	44519.33
579.69	44720.62
579.85	44769.77
580.01	44678.49
580.17	44655.08
580.33	44605.93
580.49	45303.41
580.65	44708.91
580.82	45099.78
580.98	44921.90
581.14	44561.46
581.30	44711.25
581.46	44559.12
581.62	44725.30
581.78	44762.75
581.94	44879.77
582.10	45038.93
582.26	44634.02
582.42	44650.40
582.58	44694.87
582.74	44385.92
582.90	45294.05
583.06	45038.93
583.22	45081.06
583.38	45003.82
583.54	44816.58
583.70	44603.59
583.86	45113.83
584.02	44486.56
584.18	44863.39
584.34	44968.71
584.50	44622.31
584.66	44975.73
584.82	45034.25
584.98	45067.02
585.14	44526.35
585.30	44907.86
585.46	44858.71
585.62	44437.41
585.78	44678.49
585.94	44144.84
586.10	44612.95
586.26	44825.94
586.42	45186.38
586.58	44699.55
586.74	45230.85
586.90	44772.11
587.06	44957.01
587.22	45085.74
587.38	45013.18
587.54	45181.70
587.70	45474.27
587.86	45092.76
588.02	44865.73
588.18	45078.72
588.34	45230.85
588.49	44318.04
588.65	45123.19
588.81	44839.98
588.97	44687.85
589.13	44376.56
589.29	44893.82
589.45	44975.73
589.61	44978.07
589.77	45247.24
589.93	45109.14
590.08	44882.11
590.24	44746.36
