SpectraSuite Data File
++++++++++++++++++++++++++++++++++++
Date: Fri Oct 25 11:25:03 EDT 2013
User: price-jones
Dark Spectrum Present: No
Reference Spectrum Present: No
Number of Sampled Component Spectra: 1
Spectrometers: USB2+H05261
Integration Time (usec): 100000 (USB2+H05261)
Spectra Averaged: 1 (USB2+H05261)
Boxcar Smoothing: 0 (USB2+H05261)
Correct for Electrical Dark: No (USB2+H05261)
Strobe/Lamp Enabled: No (USB2+H05261)
Correct for Detector Non-linearity: No (USB2+H05261)
Correct for Stray Light: No (USB2+H05261)
Number of Pixels in Processed Spectrum: 2048
>>>>>Begin Processed Spectral Data<<<<<
365.73	227.03
365.92	227.03
366.12	227.03
366.32	168.52
366.52	126.39
366.72	189.58
366.91	147.45
367.11	168.52
367.31	84.26
367.51	170.86
367.70	124.05
367.90	119.37
368.10	105.32
368.30	126.39
368.49	138.09
368.69	142.77
368.89	154.48
369.09	138.09
369.28	149.79
369.48	224.69
369.68	198.95
369.87	250.44
370.07	194.26
370.27	252.78
370.47	313.63
370.66	599.18
370.86	648.33
371.06	685.78
371.25	695.14
371.45	688.12
371.65	624.92
371.84	613.22
372.04	667.05
372.24	725.57
372.44	763.01
372.63	753.65
372.83	830.89
373.03	732.59
373.22	727.91
373.42	809.83
373.62	802.80
373.81	744.29
374.01	812.17
374.21	765.36
374.40	746.63
374.60	887.06
374.79	823.87
374.99	877.70
375.19	800.46
375.38	966.64
375.58	835.57
375.78	896.43
375.97	854.30
376.17	898.77
376.37	882.38
376.56	943.24
376.76	784.08
376.95	873.02
377.15	786.42
377.35	821.53
377.54	957.28
377.74	896.43
377.93	844.93
378.13	919.83
378.33	987.71
378.52	945.58
378.72	924.51
378.91	978.34
379.11	1050.90
379.31	994.73
379.50	889.40
379.70	926.85
379.89	973.66
380.09	933.87
380.28	1001.75
380.48	1027.50
380.68	1025.15
380.87	945.58
381.07	959.62
381.26	1121.12
381.46	1029.84
381.65	1062.60
381.85	1118.78
382.04	971.32
382.24	1100.05
382.43	1046.22
382.63	1142.18
382.83	1114.10
383.02	1013.45
383.22	1102.39
383.41	1001.75
383.61	1097.71
383.80	1158.57
384.00	1139.84
384.19	1146.86
384.39	1076.65
384.58	1174.95
384.78	1125.80
384.97	1254.53
385.17	1125.80
385.36	1125.80
385.56	1289.64
385.75	1277.93
385.95	1226.44
386.14	1245.16
386.34	1245.16
386.53	1224.10
386.72	1128.14
386.92	1275.59
387.11	1153.88
387.31	1308.36
387.50	1203.04
387.70	1296.66
387.89	1369.21
388.09	1240.48
388.28	1313.04
388.48	1301.34
388.67	1380.92
388.86	1306.02
389.06	1371.55
389.25	1366.87
389.45	1313.04
389.64	1378.58
389.84	1437.09
390.03	1460.49
390.22	1373.89
390.42	1299.00
390.61	1273.25
390.81	1224.10
391.00	1437.09
391.19	1444.11
391.39	1423.05
391.58	1416.02
391.78	1455.81
391.97	1451.13
392.16	1526.03
392.36	1533.05
392.55	1509.65
392.75	1427.73
392.94	1549.43
393.13	1507.30
393.33	1547.09
393.52	1668.80
393.71	1535.39
393.91	1570.50
394.10	1549.43
394.29	1619.65
394.49	1511.99
394.68	1657.10
394.88	1657.10
395.07	1710.93
395.26	1610.29
395.46	1678.16
395.65	1624.33
395.84	1755.40
396.04	1741.36
396.23	1729.66
396.42	1811.57
396.62	1811.57
396.81	1781.15
397.00	1781.15
397.19	1783.49
397.39	1741.36
397.58	1928.60
397.77	1804.55
397.97	1842.00
398.16	1856.04
398.35	1937.96
398.55	1825.62
398.74	1732.00
398.93	1952.01
399.12	1959.03
399.32	1888.81
399.51	1940.30
399.70	1982.43
399.90	1877.11
400.09	2031.58
400.28	2045.63
400.47	2010.52
400.67	2036.27
400.86	2078.40
401.05	2150.95
401.24	2127.55
401.44	2260.96
401.63	2179.04
401.82	2176.70
402.01	2059.67
402.21	2097.12
402.40	2286.70
402.59	2176.70
402.78	2282.02
402.97	2193.08
403.17	2296.07
403.36	2214.15
403.55	2310.11
403.74	2354.58
403.93	2307.77
404.13	2377.98
404.32	2312.45
404.51	2345.22
404.70	2380.32
404.89	2377.98
405.09	2527.78
405.28	2450.54
405.47	2513.74
405.66	2506.71
405.85	2569.91
406.05	2544.16
406.24	2492.67
406.43	2595.65
406.62	2612.04
406.81	2572.25
407.00	2590.97
407.20	2579.27
407.39	2668.21
407.58	2696.30
407.77	2644.81
407.96	2768.85
408.15	2860.13
408.34	2633.10
408.54	2897.58
408.73	2869.50
408.92	2813.32
409.11	2918.65
409.30	2939.71
409.49	2878.86
409.68	3056.74
409.87	2895.24
410.07	3000.57
410.26	3030.99
410.45	3070.78
410.64	2979.50
410.83	3066.10
411.02	3138.66
411.21	3105.89
411.40	3103.55
411.59	3066.10
411.78	3187.81
411.98	3260.37
412.17	3236.96
412.36	3258.03
412.55	3370.37
412.74	3379.73
412.93	3428.88
413.12	3192.49
413.31	3552.93
413.50	3440.59
413.69	3389.10
413.88	3576.34
414.07	3527.19
414.26	3555.27
414.45	3714.43
414.64	3634.85
414.83	3653.58
415.02	3763.58
415.22	3794.01
415.41	3882.95
415.60	3810.39
415.79	3922.74
415.98	3918.06
416.17	3847.84
416.36	3929.76
416.55	3999.98
416.74	4093.60
416.93	4002.32
417.12	4098.28
417.31	4142.75
417.50	4182.54
417.69	4259.78
417.88	4191.90
418.07	4255.09
418.26	4241.05
418.45	4231.69
418.64	4292.54
418.83	4290.20
419.02	4374.46
419.21	4442.34
419.39	4491.49
419.58	4404.89
419.77	4344.03
419.96	4650.64
420.15	4393.19
420.34	4535.96
420.53	4606.17
420.72	4751.29
420.91	4772.35
421.10	4734.90
421.29	4744.27
421.48	4592.13
421.67	4681.07
421.86	4889.38
422.05	4816.82
422.24	4805.12
422.43	4929.17
422.61	4936.19
422.80	4844.91
422.99	4924.49
423.18	4884.70
423.37	4994.70
423.56	4940.87
423.75	4882.36
423.94	4894.06
424.13	4615.54
424.32	4844.91
424.50	4957.25
424.69	5090.67
424.88	5116.41
425.07	4884.70
425.26	4718.52
425.45	5004.07
425.64	5001.72
425.83	5027.47
426.01	5078.96
426.20	4945.55
426.39	4983.00
426.58	5064.92
426.77	5027.47
426.96	5116.41
427.15	5088.32
427.33	5231.10
427.52	5233.44
427.71	5195.99
427.90	5259.18
428.09	5359.83
428.28	5376.21
428.46	5313.02
428.65	5275.57
428.84	5605.58
429.03	5474.51
429.22	5291.95
429.40	5406.64
429.59	5572.82
429.78	5327.06
429.97	5294.29
430.16	5504.94
430.34	5582.18
430.53	5741.33
430.72	5572.82
430.91	5493.24
431.10	5596.22
431.28	5746.02
431.47	5689.84
431.66	5940.28
431.85	5834.96
432.03	5926.24
432.22	5944.96
432.41	5853.68
432.60	6001.13
432.79	5921.56
432.97	6066.67
433.16	5902.83
433.35	5905.17
433.54	5998.79
433.72	6052.63
433.91	5893.47
434.10	6019.86
434.28	6115.82
434.47	6249.23
434.66	6162.63
434.85	6258.59
435.03	6417.75
435.22	6427.11
435.41	6504.35
435.59	6326.47
435.78	6434.13
435.97	6518.39
436.16	6382.64
436.34	6361.58
436.53	6307.74
436.72	6647.12
436.90	6473.92
437.09	6604.99
437.28	6506.69
437.46	6579.25
437.65	6534.78
437.84	6813.30
438.02	6722.02
438.21	6747.76
438.40	6672.87
438.58	6902.24
438.77	6862.45
438.96	6841.39
439.14	7164.38
439.33	7068.42
439.52	7318.86
439.70	7211.19
439.89	7482.69
440.08	7447.58
440.26	7351.62
440.45	7370.35
440.63	7508.44
440.82	7522.48
441.01	7597.38
441.19	7620.78
441.38	7866.54
441.57	7597.38
441.75	7892.29
441.94	7936.76
442.12	7852.50
442.31	8035.06
442.50	7892.29
442.68	7946.12
442.87	7723.77
443.05	8067.83
443.24	8060.80
443.43	8182.51
443.61	7943.78
443.80	8479.76
443.98	8135.70
444.17	7707.38
444.35	8049.10
444.54	8503.17
444.73	8262.09
444.91	8315.92
445.10	8088.89
445.28	8102.93
445.47	8257.41
445.65	8379.12
445.84	8545.30
446.02	8685.73
446.21	8383.80
446.39	8219.96
446.58	8404.86
446.77	8559.34
446.95	8339.33
447.14	8238.69
447.32	8416.57
447.51	8346.35
447.69	8461.04
447.88	8507.85
448.06	8439.97
448.25	8493.80
448.43	8517.21
448.62	8727.86
448.80	8587.43
448.99	8751.26
449.17	8795.73
449.36	8755.94
449.54	8791.05
449.73	8837.86
449.91	8905.74
450.10	8912.76
450.28	9043.83
450.46	9022.77
450.65	9034.47
450.83	8975.95
451.02	8954.89
451.20	9310.65
451.39	9064.89
451.57	8847.22
451.76	9060.21
451.94	9270.86
452.13	9390.23
452.31	9256.82
452.49	9104.68
452.68	9202.99
452.86	9205.33
453.05	9401.93
453.23	9397.25
453.42	9184.26
453.60	9432.36
453.78	9458.10
453.97	9511.94
454.15	9511.94
454.34	9373.85
454.52	9437.04
454.70	9717.90
454.89	9933.23
455.07	9804.50
455.26	9818.55
455.44	9860.68
455.62	9823.23
455.81	10111.11
455.99	9736.63
456.17	10010.47
456.36	10097.07
456.54	10080.69
456.73	10232.82
456.91	10061.96
457.09	10310.06
457.28	10747.74
457.46	10216.44
457.64	10438.79
457.83	10335.81
458.01	10537.09
458.19	10513.69
458.38	10565.18
458.56	11070.73
458.74	10696.25
458.93	10630.71
459.11	10691.57
459.29	10789.87
459.48	10712.63
459.66	10743.06
459.84	10890.51
460.03	11033.29
460.21	11052.01
460.39	10906.90
460.57	10899.87
460.76	11157.33
460.94	11052.01
461.12	11201.80
461.31	11070.73
461.49	11248.61
461.67	11126.91
461.85	11297.77
462.04	11243.93
462.22	11810.34
462.40	11377.34
462.59	11508.41
462.77	11508.41
462.95	11426.50
463.13	11506.07
463.32	11442.88
463.50	11655.87
463.68	11751.83
463.86	11756.51
464.05	11494.37
464.23	11559.91
464.41	12058.44
464.59	11559.91
464.78	12051.42
464.96	11885.24
465.14	11712.04
465.32	11887.58
465.50	12114.61
465.69	12374.41
465.87	12243.34
466.05	11962.48
466.23	12170.79
466.41	12086.53
466.60	12332.28
466.78	11946.09
466.96	12072.48
467.14	12065.46
467.32	12346.33
467.51	12517.18
467.69	12102.91
467.87	12379.09
468.05	12500.80
468.23	12329.94
468.41	12402.50
468.60	12652.94
468.78	12781.67
468.96	12451.65
469.14	12886.99
469.32	13071.89
469.50	12507.82
469.69	13104.66
469.87	13188.92
470.05	13343.39
470.23	13046.15
470.41	12961.89
470.59	13165.51
470.77	12938.48
470.95	13425.31
471.14	13572.77
471.32	13050.83
471.50	13577.45
471.68	13696.82
471.86	13458.08
472.04	13628.94
472.22	13912.14
472.40	13598.51
472.58	13816.18
472.77	13811.50
472.95	14005.77
473.13	14427.06
473.31	14090.02
473.49	14085.34
473.67	14157.90
473.85	13912.14
474.03	14562.81
474.21	14698.56
474.39	14700.90
474.57	14560.47
474.75	15000.49
474.93	15089.43
475.12	14843.68
475.30	15272.00
475.48	14834.32
475.66	15166.67
475.84	14977.09
476.02	15384.34
476.20	15293.06
476.38	15534.14
476.56	16056.08
476.74	15885.22
476.92	15978.84
477.10	15779.89
477.28	15985.86
477.46	16163.74
477.64	16126.29
477.82	16613.12
478.00	16844.84
478.18	16858.88
478.36	17118.68
478.54	17216.98
478.72	17231.02
478.90	17319.96
479.08	17624.23
479.26	17706.15
479.44	17741.26
479.62	17635.94
479.80	18057.23
479.98	18284.26
480.16	18310.01
480.34	18125.11
480.52	18462.15
480.70	18647.05
480.88	18544.06
481.06	18588.53
481.24	18436.40
481.41	18897.49
481.59	19412.40
481.77	19414.74
481.95	19660.50
482.13	19866.47
482.31	19779.87
482.49	20081.80
482.67	19962.43
482.85	20582.67
483.03	20460.96
483.21	20830.77
483.39	20711.40
483.57	20870.56
483.74	21163.12
483.92	21240.36
484.10	21537.61
484.28	21738.90
484.46	21792.73
484.64	22094.66
484.82	21774.00
485.00	22370.84
485.18	22714.90
485.35	22860.01
485.53	22684.47
485.71	22916.19
485.89	23215.77
486.07	23073.00
486.25	23311.74
486.43	23735.37
486.61	23726.01
486.78	24123.90
486.96	24109.86
487.14	24652.86
487.32	24484.34
487.50	24931.39
487.68	24793.29
487.85	25270.76
488.03	25439.28
488.21	25692.06
488.39	26012.71
488.57	26204.64
488.75	26281.88
488.92	26321.66
489.10	26932.54
489.28	26546.36
489.46	27154.90
489.64	27140.85
489.81	27623.00
489.99	27751.73
490.17	27587.89
490.35	28318.14
490.53	28158.99
490.70	28201.11
490.88	27915.57
491.06	28603.69
491.24	28666.88
491.41	28802.63
491.59	29240.31
491.77	29095.20
491.95	29542.24
492.13	29890.98
492.30	29642.88
492.48	30176.53
492.66	30183.55
492.84	30150.78
493.01	30625.91
493.19	30649.32
493.37	30803.79
493.54	31250.83
493.72	31131.47
493.90	31267.22
494.08	31421.69
494.25	31894.48
494.43	32081.72
494.61	31700.22
494.79	32606.00
494.96	31985.76
495.14	32378.97
495.32	32924.32
495.49	32968.79
495.67	33280.08
495.85	33163.05
496.02	33366.68
496.20	34000.96
496.38	33818.40
496.55	34260.76
496.73	34623.54
496.91	34209.27
497.09	34675.04
497.26	34768.66
497.44	34682.06
497.62	35409.96
497.79	35777.43
497.97	35426.35
498.14	35667.42
498.32	36116.81
498.50	36062.97
498.67	36603.64
498.85	35976.37
499.03	36568.53
499.20	36809.61
499.38	36786.20
499.56	36943.02
499.73	37048.34
499.91	36842.37
500.08	37230.90
500.26	37228.56
500.44	37507.08
500.61	37497.72
500.79	37872.21
500.97	38033.71
501.14	38756.93
501.32	38588.41
501.49	38417.55
501.67	38565.01
501.84	38890.34
502.02	38499.47
502.20	38820.13
502.37	39594.84
502.55	39328.02
502.72	39330.36
502.90	39400.58
503.07	39592.50
503.25	39810.17
503.43	40116.78
503.60	39606.55
503.78	39978.69
503.95	40149.55
504.13	40589.57
504.30	40287.64
504.48	40421.05
504.65	40730.00
504.83	40896.18
505.01	41209.81
505.18	40994.48
505.36	41394.71
505.53	41511.74
505.71	41591.32
505.88	42230.29
506.06	41476.63
506.23	41642.81
506.41	41614.72
506.58	42019.64
506.76	42232.63
506.93	42157.73
507.11	41888.57
507.28	42885.64
507.46	42913.72
507.63	42728.82
507.81	43435.66
507.98	42911.38
508.16	42899.68
508.33	43124.37
508.50	43119.69
508.68	43484.81
508.85	44151.87
509.03	43751.63
509.20	43775.04
509.38	44041.86
509.55	44259.53
509.73	43985.69
509.90	44521.67
510.08	44491.24
510.25	44381.24
510.42	44610.61
510.60	45048.29
510.77	44882.11
510.95	45413.41
511.12	45071.70
511.30	45434.48
511.47	45432.14
511.64	45581.93
511.82	45738.75
511.99	45633.42
512.17	45724.71
512.34	45638.11
512.51	46089.83
512.69	46227.92
512.86	46429.21
513.04	46305.16
513.21	46307.50
513.38	47143.07
513.56	47133.71
513.73	46602.41
513.90	47047.11
514.08	46426.87
514.25	47173.50
514.43	47229.67
514.60	47187.54
514.77	47241.37
514.95	47643.94
515.12	47688.42
515.29	47154.77
515.47	47667.35
515.64	47950.56
515.81	48023.11
515.99	47906.08
516.16	48137.80
516.33	48509.94
516.51	48795.49
516.68	48058.22
516.85	48226.74
517.03	48793.15
517.20	48783.79
517.37	48442.07
517.54	48573.14
517.72	48439.73
517.89	49193.38
518.06	49099.76
518.24	49272.96
518.41	49380.62
518.58	49127.84
518.75	49413.39
518.93	48999.12
519.10	49565.52
519.27	49467.22
519.45	49727.02
519.62	49879.16
519.79	49883.84
519.96	49743.41
520.14	49968.10
520.31	50202.15
520.48	50281.73
520.65	50164.70
520.83	50377.69
521.00	50679.62
521.17	50464.29
521.34	50630.47
521.52	50700.68
521.69	50880.91
521.86	50660.90
522.03	50906.65
522.20	51021.34
522.38	51154.75
522.55	51393.48
522.72	51206.24
522.89	51334.97
523.07	51643.92
523.24	51475.40
523.41	51395.82
523.58	51330.29
523.75	51901.38
523.92	51672.01
524.10	52076.92
524.27	51882.66
524.44	52004.36
524.61	52126.07
524.78	52224.37
524.96	52107.35
525.13	52428.00
525.30	52149.48
525.47	52018.41
525.64	52406.94
525.81	52886.74
525.98	52552.05
526.16	52619.92
526.33	52648.01
526.50	52568.43
526.67	52327.36
526.84	52839.93
527.01	53057.60
527.18	52570.77
527.36	52800.15
527.53	52942.92
527.70	53324.43
527.87	53097.39
528.04	52905.47
528.21	53595.93
528.38	53352.51
528.55	53612.31
528.72	53296.34
528.89	53485.92
529.07	53333.79
529.24	53446.13
529.41	53556.14
529.58	53572.52
529.75	53401.66
529.92	53741.04
530.09	53771.47
530.26	54108.50
530.43	54110.85
530.60	53719.98
530.77	53661.46
530.94	53989.14
531.11	53738.70
531.28	53944.67
531.46	54461.93
531.63	54241.92
531.80	53930.62
531.97	54337.88
532.14	54475.97
532.31	54377.67
532.48	54408.09
532.65	54358.94
532.82	54452.56
532.99	54862.16
533.16	54431.50
533.33	54768.54
533.50	54710.02
533.67	54908.97
533.84	54574.27
534.01	54845.77
534.18	54951.10
534.35	55229.62
534.52	54850.45
534.69	54993.23
534.86	55288.13
535.03	55110.25
535.20	55110.25
535.37	55468.36
535.54	55384.10
535.71	55348.99
535.88	55311.54
536.05	55531.55
536.22	55683.69
536.38	55515.17
536.55	55426.23
536.72	55456.65
536.89	55346.65
537.06	55613.47
537.23	55744.54
537.40	55327.92
537.57	55597.09
537.74	55538.57
537.91	56030.08
538.08	56016.04
538.25	55538.57
538.42	55613.47
538.59	56238.39
538.75	55966.89
538.92	56172.86
539.09	55966.89
539.26	56041.79
539.43	56102.64
539.60	56079.24
539.77	56168.18
539.94	56409.25
540.11	56390.53
540.28	56254.78
540.44	56264.14
540.61	56329.67
540.78	56130.73
540.95	56147.11
541.12	56402.23
541.29	56392.87
541.46	56619.90
541.62	56484.15
541.79	56423.29
541.96	56666.71
542.13	56514.58
542.30	56645.65
542.47	56636.28
542.63	56952.26
542.80	56844.59
542.97	56966.30
543.14	57209.71
543.31	56872.68
543.48	57120.77
543.64	57373.55
543.81	57408.66
543.98	57221.42
544.15	57282.27
544.32	57289.29
544.48	57481.22
544.65	57387.60
544.82	57336.10
544.99	57481.22
545.16	57399.30
545.32	57221.42
545.49	57532.71
545.66	57804.21
545.83	57659.10
546.00	57673.14
546.16	57628.67
546.33	57631.01
546.50	57249.50
546.67	57616.97
546.83	57446.11
547.00	57708.25
547.17	57661.44
547.34	57668.46
547.50	58017.20
547.67	57909.53
547.84	57897.83
548.00	58073.37
548.17	58124.86
548.34	58005.50
548.51	58056.99
548.67	58183.38
548.84	58241.89
549.01	57925.92
549.18	58113.16
549.34	58143.59
549.51	58164.65
549.68	58305.09
549.84	58185.72
550.01	58412.75
550.18	58199.76
550.34	58431.47
550.51	58506.37
550.68	58541.48
550.84	58080.39
551.01	58335.51
551.18	58277.00
551.34	58391.68
551.51	58667.87
551.68	58536.80
551.84	58429.13
552.01	58246.57
552.18	58532.12
552.34	58457.22
552.51	58763.83
552.68	58522.76
552.84	58480.63
553.01	59023.63
553.18	58712.34
553.34	58679.57
553.51	58681.91
553.67	58672.55
553.84	58979.16
554.01	58983.84
554.17	58918.31
554.34	59065.76
554.51	59018.95
554.67	58915.96
554.84	58944.05
555.00	59054.06
555.17	59147.68
555.33	58922.99
555.50	59032.99
555.67	58848.09
555.83	58862.13
556.00	59091.51
556.16	59255.34
556.33	59320.88
556.50	59032.99
556.66	59210.87
556.83	59042.35
556.99	59302.15
557.16	59145.34
557.32	59348.96
557.49	59311.52
557.65	59196.83
557.82	59360.67
557.98	59180.45
558.15	59456.63
558.32	59458.97
558.48	59306.83
558.65	59313.86
558.81	59503.44
558.98	59419.18
559.14	59547.91
559.31	59538.55
559.47	59559.61
559.64	59648.55
559.80	59664.94
559.97	59587.70
560.13	59597.06
560.30	59524.50
560.46	59615.79
560.63	59643.87
560.79	59838.14
560.96	59957.50
561.12	59737.49
561.29	60055.81
561.45	59852.18
561.61	59678.98
561.78	59608.76
561.94	59606.42
562.11	59774.94
562.27	59845.16
562.44	60023.04
562.60	59908.35
562.77	59938.78
562.93	59721.11
563.10	59927.08
563.26	59831.11
563.42	59969.21
563.59	59906.01
563.75	59983.25
563.92	59997.29
564.08	60060.49
564.24	60207.94
564.41	60207.94
564.57	60123.68
564.74	60034.74
564.90	60051.12
565.07	60032.40
565.23	59994.95
565.39	59959.84
565.56	60212.62
565.72	60165.81
565.88	60184.54
566.05	60275.82
566.21	60004.31
566.38	60245.39
566.54	60102.62
566.70	60378.80
566.87	60336.67
567.03	60165.81
567.19	60434.97
567.36	60114.32
567.52	60282.84
567.68	60463.06
567.85	60367.10
568.01	60481.78
568.17	60250.07
568.34	60212.62
568.50	60374.12
568.66	60243.05
568.83	60399.86
568.99	60367.10
569.15	60362.42
569.32	60285.18
569.48	60343.69
569.64	60425.61
569.81	60385.82
569.97	60331.99
570.13	60374.12
570.30	60268.79
570.46	60383.48
570.62	60528.59
570.78	60301.56
570.95	60346.03
571.11	60523.91
571.27	60374.12
571.43	60376.46
571.60	60652.64
571.76	60362.42
571.92	60317.95
572.09	60743.92
572.25	60495.83
572.41	60470.08
572.57	60516.89
572.74	60809.46
572.90	60495.83
573.06	60390.50
573.22	60514.55
573.38	60584.77
573.55	60413.91
573.71	60739.24
573.87	60662.00
574.03	60411.57
574.20	60676.05
574.36	60549.66
574.52	60479.44
574.68	60776.69
574.84	60783.71
575.01	60640.94
575.17	60687.75
575.33	60582.43
575.49	60605.83
575.65	60741.58
575.82	60631.58
575.98	60687.75
576.14	61031.81
576.30	60636.26
576.46	60608.17
576.62	60732.22
576.79	60605.83
576.95	60566.04
577.11	60828.18
577.27	60755.63
577.43	60846.91
577.59	60596.47
577.75	60526.25
577.92	60736.90
578.08	60764.99
578.24	60853.93
578.40	60867.97
578.56	60858.61
578.72	60825.84
578.88	61076.28
579.04	61076.28
579.21	60814.14
579.37	60924.14
579.53	60898.40
579.69	60638.60
579.85	60659.66
580.01	60535.62
580.17	60715.84
580.33	60907.76
580.49	60970.96
580.65	60928.83
580.82	60874.99
580.98	60877.33
581.14	60715.84
581.30	61071.60
581.46	60842.23
581.62	60942.87
581.78	60776.69
581.94	60996.70
582.10	60800.10
582.26	60844.57
582.42	60711.16
582.58	60989.68
582.74	60711.16
582.90	60729.88
583.06	60889.04
583.22	60626.90
583.38	60893.72
583.54	60891.38
583.70	60905.42
583.86	61146.50
584.02	60959.25
584.18	60959.25
584.34	61029.47
584.50	60956.91
584.66	60757.97
584.82	60851.59
584.98	61048.19
585.14	61027.13
585.30	60743.92
585.46	61057.56
585.62	60933.51
585.78	61226.07
585.94	60882.02
586.10	61041.17
586.26	60846.91
586.42	61256.50
586.58	61219.05
586.74	61015.43
586.90	61123.09
587.06	61066.92
587.22	61099.68
587.38	60945.21
587.54	60924.14
587.70	60938.19
587.86	61127.77
588.02	61146.50
588.18	61151.18
588.34	61015.43
588.49	60889.04
