SpectraSuite Data File
++++++++++++++++++++++++++++++++++++
Date: Fri Oct 25 11:25:52 EDT 2013
User: price-jones
Dark Spectrum Present: No
Reference Spectrum Present: No
Number of Sampled Component Spectra: 1
Spectrometers: USB2+H05261
Integration Time (usec): 100000 (USB2+H05261)
Spectra Averaged: 1 (USB2+H05261)
Boxcar Smoothing: 0 (USB2+H05261)
Correct for Electrical Dark: No (USB2+H05261)
Strobe/Lamp Enabled: No (USB2+H05261)
Correct for Detector Non-linearity: No (USB2+H05261)
Correct for Stray Light: No (USB2+H05261)
Number of Pixels in Processed Spectrum: 2048
>>>>>Begin Processed Spectral Data<<<<<
365.73	245.76
365.92	245.76
366.12	245.76
366.32	208.31
366.52	133.41
366.72	105.32
366.91	161.50
367.11	51.49
367.31	168.52
367.51	170.86
367.70	112.35
367.90	81.92
368.10	156.82
368.30	93.62
368.49	117.03
368.69	147.45
368.89	180.22
369.09	184.90
369.28	154.48
369.48	117.03
369.68	126.39
369.87	184.90
370.07	107.66
370.27	236.39
370.47	351.08
370.66	526.62
370.86	552.37
371.06	744.29
371.25	676.41
371.45	606.20
371.65	667.05
371.84	660.03
372.04	702.16
372.24	732.59
372.44	723.23
372.63	695.14
372.83	716.20
373.03	713.86
373.22	763.01
373.42	765.36
373.62	727.91
373.81	807.48
374.01	802.80
374.21	795.78
374.40	821.53
374.60	866.00
374.79	863.66
374.99	786.42
375.19	870.68
375.38	915.15
375.58	788.76
375.78	929.19
375.97	854.30
376.17	903.45
376.37	844.93
376.56	830.89
376.76	910.47
376.95	861.32
377.15	912.81
377.35	903.45
377.54	971.32
377.74	943.24
377.93	929.19
378.13	926.85
378.33	931.53
378.52	901.11
378.72	896.43
378.91	1048.56
379.11	931.53
379.31	901.11
379.50	959.62
379.70	987.71
379.89	980.68
380.09	908.13
380.28	950.26
380.48	1027.50
380.68	990.05
380.87	903.45
381.07	1053.24
381.26	1015.79
381.46	1050.90
381.65	983.02
381.85	1053.24
382.04	1046.22
382.24	1071.97
382.43	1090.69
382.63	1034.52
382.83	1053.24
383.02	1123.46
383.22	1128.14
383.41	1036.86
383.61	994.73
383.80	1088.35
384.00	1107.07
384.19	1090.69
384.39	1125.80
384.58	1111.75
384.78	1205.38
384.97	1184.31
385.17	1036.86
385.36	1109.41
385.56	1139.84
385.75	1198.35
385.95	1238.14
386.14	1142.18
386.34	1280.27
386.53	1242.82
386.72	1163.25
386.92	1273.25
387.11	1181.97
387.31	1193.67
387.50	1212.40
387.70	1217.08
387.89	1165.59
388.09	1181.97
388.28	1270.91
388.48	1268.57
388.67	1275.59
388.86	1357.51
389.06	1296.66
389.25	1458.15
389.45	1434.75
389.64	1387.94
389.84	1406.66
390.03	1446.45
390.22	1406.66
390.42	1420.71
390.61	1280.27
390.81	1547.09
391.00	1418.36
391.19	1434.75
391.39	1479.22
391.58	1497.94
391.78	1511.99
391.97	1432.41
392.16	1324.74
392.36	1462.83
392.55	1507.30
392.75	1511.99
392.94	1479.22
393.13	1472.20
393.33	1526.03
393.52	1437.09
393.71	1558.80
393.91	1605.61
394.10	1423.05
394.29	1605.61
394.49	1629.01
394.68	1652.42
394.88	1666.46
395.07	1582.20
395.26	1750.72
395.46	1722.63
395.65	1741.36
395.84	1624.33
396.04	1715.61
396.23	1687.53
396.42	1755.40
396.62	1722.63
396.81	1797.53
397.00	1842.00
397.19	1881.79
397.39	1720.29
397.58	1863.07
397.77	1753.06
397.97	1804.55
398.16	1797.53
398.35	1935.62
398.55	1881.79
398.74	1898.17
398.93	1982.43
399.12	1900.52
399.32	1933.28
399.51	1935.62
399.70	1898.17
399.90	2001.16
400.09	1996.48
400.28	1994.14
400.47	2062.01
400.67	2050.31
400.86	2038.61
401.05	2146.27
401.24	2169.68
401.44	2043.29
401.63	2120.53
401.82	2160.31
402.01	2120.53
402.21	2141.59
402.40	2225.85
402.59	2188.40
402.78	2260.96
402.97	2176.70
403.17	2275.00
403.36	2258.62
403.55	2176.70
403.74	2373.30
403.93	2296.07
404.13	2359.26
404.32	2359.26
404.51	2389.69
404.70	2438.84
404.89	2438.84
405.09	2438.84
405.28	2445.86
405.47	2415.43
405.66	2431.82
405.85	2506.71
406.05	2452.88
406.24	2621.40
406.43	2548.84
406.62	2712.68
406.81	2747.79
407.00	2597.99
407.20	2597.99
407.39	2621.40
407.58	2717.36
407.77	2698.64
407.96	2698.64
408.15	2757.15
408.34	2750.13
408.54	2801.62
408.73	2684.59
408.92	2883.54
409.11	2857.79
409.30	2949.08
409.49	3021.63
409.68	2937.37
409.87	2867.16
410.07	3002.91
410.26	2965.46
410.45	3007.59
410.64	3084.83
410.83	3117.59
411.02	3014.61
411.21	3178.45
411.40	2977.16
411.59	3208.87
411.78	3229.94
411.98	3344.63
412.17	3218.24
412.36	3286.11
412.55	3375.05
412.74	3407.82
412.93	3363.35
413.12	3274.41
413.31	3466.33
413.50	3426.54
413.69	3440.59
413.88	3611.45
414.07	3538.89
414.26	3646.55
414.45	3730.81
414.64	3653.58
414.83	3768.26
415.02	3791.67
415.22	3765.92
415.41	3775.28
415.60	3889.97
415.79	3964.87
415.98	3990.61
416.17	4042.11
416.36	3918.06
416.55	3843.16
416.74	4030.40
416.93	3908.69
417.12	4266.80
417.31	4140.41
417.50	3995.29
417.69	4381.48
417.88	4194.24
418.07	4301.90
418.26	4245.73
418.45	4395.53
418.64	4400.21
418.83	4337.01
419.02	4482.13
419.21	4479.79
419.39	4344.03
419.58	4491.49
419.77	4414.25
419.96	4552.34
420.15	4594.47
420.34	4624.90
420.53	4540.64
420.72	4606.17
420.91	4744.27
421.10	4772.35
421.29	4802.78
421.48	4669.37
421.67	4734.90
421.86	4842.57
422.05	4809.80
422.24	4638.94
422.43	4786.40
422.61	4931.51
422.80	4795.76
422.99	4887.04
423.18	5055.56
423.37	4933.85
423.56	4990.02
423.75	4957.25
423.94	4802.78
424.13	4622.56
424.32	4559.36
424.50	4954.91
424.69	5097.69
424.88	4975.98
425.07	4887.04
425.26	4917.47
425.45	4931.51
425.64	4894.06
425.83	4971.30
426.01	5102.37
426.20	5111.73
426.39	5032.15
426.58	5221.74
426.77	5191.31
426.96	5144.50
427.15	5116.41
427.33	5069.60
427.52	5219.39
427.71	5273.23
427.90	5268.55
428.09	5423.02
428.28	5261.52
428.46	5350.46
428.65	5392.59
428.84	5502.60
429.03	5434.72
429.22	5411.32
429.40	5380.89
429.59	5378.55
429.78	5097.69
429.97	5282.59
430.16	5579.84
430.34	5460.47
430.53	5528.35
430.72	5675.80
430.91	5673.46
431.10	5556.43
431.28	5619.63
431.47	5834.96
431.66	5811.55
431.85	5673.46
432.03	5935.60
432.22	5944.96
432.41	5886.45
432.60	5837.30
432.79	5867.72
432.97	5921.56
433.16	6015.18
433.35	6031.56
433.54	5947.30
433.72	6333.49
433.91	6134.54
434.10	6214.12
434.28	6171.99
434.47	6193.06
434.66	6188.38
434.85	6338.17
435.03	6310.08
435.22	6328.81
435.41	6443.49
435.59	6293.70
435.78	6312.42
435.97	6384.98
436.16	6359.24
436.34	6408.39
436.53	6525.41
436.72	6548.82
436.90	6352.21
437.09	6600.31
437.28	6431.79
437.46	6684.57
437.65	6494.99
437.84	6913.94
438.02	6761.81
438.21	6752.45
438.40	6623.72
438.58	7094.16
438.77	7047.35
438.96	6986.50
439.14	6944.37
439.33	7180.76
439.52	7126.93
439.70	7206.51
439.89	7351.62
440.08	7258.00
440.26	7456.95
440.45	7283.75
440.63	7499.08
440.82	7639.51
441.01	7625.47
441.19	7630.15
441.38	7761.22
441.57	7903.99
441.75	7557.59
441.94	7756.54
442.12	7805.69
442.31	8091.23
442.50	8004.63
442.68	7852.50
442.87	8011.65
443.05	8250.39
443.24	8107.62
443.43	8219.96
443.61	8053.78
443.80	8524.23
443.98	8018.68
444.17	7918.03
444.35	8166.13
444.54	8313.58
444.73	8311.24
444.91	8250.39
445.10	8339.33
445.28	8271.45
445.47	8219.96
445.65	8236.35
445.84	8355.71
446.02	8552.32
446.21	8442.31
446.39	8510.19
446.58	8505.51
446.77	8514.87
446.95	8472.74
447.14	8416.57
447.32	8397.84
447.51	8592.11
447.69	8425.93
447.88	8512.53
448.06	8578.06
448.25	8589.77
448.43	8580.40
448.62	8493.80
448.80	8580.40
448.99	8610.83
449.17	8774.67
449.36	8608.49
449.54	8744.24
449.73	8978.30
449.91	8926.80
450.10	8833.18
450.28	9181.92
450.46	8830.84
450.65	8842.54
450.83	8940.85
451.02	9085.96
451.20	9167.88
451.39	9296.61
451.57	9090.64
451.76	8966.59
451.94	9160.86
452.13	9458.10
452.31	9350.44
452.49	9020.42
452.68	9472.15
452.86	9446.40
453.05	9549.39
453.23	9591.52
453.42	9401.93
453.60	9277.88
453.78	9771.74
453.97	9448.74
454.15	9451.08
454.34	9460.45
454.52	9753.01
454.70	9687.48
454.89	9757.69
455.07	9785.78
455.26	9743.65
455.44	9954.30
455.62	9907.49
455.81	10104.09
455.99	10036.22
456.17	9987.07
456.36	10289.00
456.54	10150.90
456.73	10228.14
456.91	10572.20
457.09	10717.31
457.28	10562.84
457.46	10183.67
457.64	10321.76
457.83	10298.36
458.01	10389.64
458.19	10551.14
458.38	10509.01
458.56	10665.82
458.74	10710.29
458.93	10752.42
459.11	10614.33
459.29	10801.57
459.48	10607.31
459.66	10689.23
459.84	10988.82
460.03	11236.91
460.21	10972.43
460.39	10892.85
460.57	11061.37
460.76	11037.97
460.94	11101.16
461.12	11005.20
461.31	10995.84
461.49	11101.16
461.67	11400.75
461.85	11442.88
462.04	11379.68
462.22	11674.59
462.40	11611.40
462.59	11637.14
462.77	11377.34
462.95	11639.48
463.13	11707.36
463.32	11276.70
463.50	11698.00
463.68	11974.18
463.86	11981.20
464.05	11662.89
464.23	11592.67
464.41	12032.69
464.59	11522.46
464.78	12191.85
464.96	12058.44
465.14	11770.55
465.32	12145.04
465.50	12074.82
465.69	12393.14
465.87	12018.65
466.05	11981.20
466.23	11990.56
466.41	12393.14
466.60	12358.03
466.78	12138.02
466.96	12145.04
467.14	12194.19
467.32	12299.52
467.51	12620.17
467.69	11929.71
467.87	12402.50
468.05	12669.32
468.23	12486.76
468.41	12556.97
468.60	12629.53
468.78	12636.55
468.96	12894.01
469.14	12901.03
469.32	12964.23
469.50	12608.47
469.69	13034.44
469.87	13102.32
470.05	13289.56
470.23	13083.59
470.41	13186.58
470.59	13373.82
470.77	13041.46
470.95	13202.96
471.14	13525.96
471.32	13048.49
471.50	13551.70
471.68	13488.51
471.86	13446.38
472.04	13575.11
472.22	14178.97
472.40	13689.79
472.58	13820.86
472.77	14036.19
472.95	14169.60
473.13	14272.59
473.31	14120.45
473.49	14136.84
473.67	14141.52
473.85	14286.63
474.03	14476.21
474.21	14473.87
474.39	14745.38
474.57	14415.36
474.75	14867.08
474.93	14773.46
475.12	14757.08
475.30	14941.98
475.48	14839.00
475.66	15309.44
475.84	14970.07
476.02	15517.75
476.20	15302.42
476.38	15854.79
476.56	15988.20
476.74	16077.14
476.92	15974.16
477.10	15822.02
477.28	16168.42
477.46	16161.40
477.64	16336.94
477.82	16299.49
478.00	17053.14
478.18	16760.58
478.36	16812.07
478.54	17102.29
478.72	17025.06
478.90	17413.59
479.08	17745.94
479.26	17603.17
479.44	17575.08
479.62	17664.02
479.80	18178.94
479.98	18225.75
480.16	18546.40
480.34	18340.44
480.52	18721.95
480.70	18544.06
480.88	18377.89
481.06	18618.96
481.24	19147.92
481.41	19037.92
481.59	19419.42
481.77	19545.81
481.95	19349.21
482.13	19559.86
482.31	19969.45
482.49	20135.63
482.67	19964.77
482.85	20606.08
483.03	20418.83
483.21	20870.56
483.39	21099.93
483.57	20828.43
483.74	21163.12
483.92	21202.91
484.10	21191.21
484.28	21635.91
484.46	21963.59
484.64	22340.41
484.82	21893.37
485.00	22326.37
485.18	22574.47
485.35	22831.93
485.53	22757.03
485.71	22927.89
485.89	23403.02
486.07	23463.87
486.25	23447.49
486.43	23667.50
486.61	23728.35
486.78	23714.31
486.96	24212.84
487.14	24535.84
487.32	24409.45
487.50	24964.15
487.68	24905.64
487.85	25275.45
488.03	25607.80
488.21	25682.70
488.39	25703.76
488.57	26188.25
488.75	26258.47
488.92	26710.19
489.10	26836.58
489.28	26639.98
489.46	26991.06
489.64	26738.28
489.81	27292.99
489.99	27520.02
490.17	27477.89
490.35	27852.38
490.53	28301.76
490.70	28034.94
490.88	28102.81
491.06	28814.34
491.24	28758.16
491.41	29130.31
491.59	29172.44
491.77	29118.60
491.95	29607.78
492.13	29839.49
492.30	29717.78
492.48	30132.06
492.66	29986.94
492.84	30183.55
493.01	30874.01
493.19	30466.75
493.37	30728.89
493.54	30899.75
493.72	31332.75
493.90	31475.52
494.08	31697.88
494.25	31637.02
494.43	32004.49
494.61	32180.03
494.79	32636.43
494.96	32458.55
495.14	32620.05
495.32	32739.41
495.49	33088.15
495.67	33392.42
495.85	33261.35
496.02	33759.89
496.20	33736.48
496.38	34054.79
496.55	33944.79
496.73	34953.56
496.91	34550.99
497.09	34536.94
497.26	35091.65
497.44	34920.79
497.62	35098.67
497.79	36046.59
497.97	35419.33
498.14	35849.99
498.32	36025.53
498.50	36201.07
498.67	36268.94
498.85	36423.42
499.03	36891.52
499.20	36671.51
499.38	36680.88
499.56	36954.72
499.73	37350.27
499.91	37198.13
500.08	37457.93
500.26	37385.38
500.44	37507.08
500.61	37111.53
500.79	37654.54
500.97	38281.80
501.14	38190.52
501.32	38747.57
501.49	38349.68
501.67	38550.96
501.84	39283.55
502.02	38775.66
502.20	38848.21
502.37	39185.25
502.55	38738.21
502.72	39606.55
502.90	39372.49
503.07	39210.99
503.25	39622.93
503.43	39571.44
503.60	40016.14
503.78	40299.34
503.95	40549.78
504.13	40367.22
504.30	40369.56
504.48	40718.30
504.65	40832.99
504.83	40439.78
505.01	41553.87
505.18	41088.10
505.36	41523.44
505.53	41020.23
505.71	41570.25
505.88	41806.65
506.06	41340.88
506.23	41677.92
506.41	41736.43
506.58	41799.63
506.76	41652.17
506.93	42359.02
507.11	42597.75
507.28	42724.14
507.46	42775.63
507.63	42700.73
507.81	42916.06
507.98	42452.64
508.16	43044.79
508.33	43054.15
508.50	43433.32
508.68	43377.15
508.85	43988.03
509.03	43943.56
509.20	43714.19
509.38	44423.37
509.55	44643.38
509.73	43952.92
509.90	44519.33
510.08	44687.85
510.25	44767.43
510.42	44435.07
510.60	44912.54
510.77	45343.20
510.95	45502.35
511.12	45010.84
511.30	45191.06
511.47	45184.04
511.64	45668.53
511.82	45612.36
511.99	45715.34
512.17	45783.22
512.34	45928.33
512.51	46265.37
512.69	46103.87
512.86	46195.15
513.04	46391.76
513.21	46728.80
513.38	46759.22
513.56	46864.55
513.73	46976.89
513.90	47126.69
514.08	46761.56
514.25	47468.40
514.43	47257.76
514.60	47634.58
514.77	47189.88
514.95	47524.58
515.12	47583.09
515.29	47318.61
515.47	47770.33
515.64	48107.37
515.81	47786.72
515.99	48186.95
516.16	47985.66
516.33	48671.44
516.51	48671.44
516.68	48334.40
516.85	48671.44
517.03	48463.13
517.20	48734.63
517.37	48722.93
517.54	48479.52
517.72	48919.54
517.89	49050.61
518.06	49258.91
518.24	49050.61
518.41	49017.84
518.58	49298.70
518.75	49137.21
518.93	49600.63
519.10	49036.56
519.27	49743.41
519.45	49701.28
519.62	49631.06
519.79	50061.72
519.96	49776.17
520.14	50354.29
520.31	49918.95
520.48	50365.99
520.65	50382.37
520.83	50550.89
521.00	50319.18
521.17	50677.28
521.34	50754.52
521.52	51079.85
521.69	50939.42
521.86	51199.22
522.03	51065.81
522.20	51143.05
522.38	51515.19
522.55	51318.59
522.72	51194.54
522.89	51002.61
523.07	51454.34
523.24	51344.33
523.41	51566.68
523.58	51442.63
523.75	51697.75
523.92	51709.46
524.10	51594.77
524.27	51987.98
524.44	51847.55
524.61	51987.98
524.78	52016.07
524.96	52179.90
525.13	52128.41
525.30	52130.75
525.47	52266.50
525.64	52500.56
525.81	52156.50
525.98	52861.00
526.16	52720.57
526.33	52526.30
526.50	52844.62
526.67	52458.43
526.84	52694.82
527.01	52830.57
527.18	53015.47
527.36	52905.47
527.53	53034.20
527.70	53504.65
527.87	53195.70
528.04	53265.91
528.21	53584.22
528.38	53155.91
528.55	53382.94
528.72	53422.73
528.89	53619.33
529.07	53090.37
529.24	53406.34
529.41	53635.72
529.58	53560.82
529.75	53773.81
529.92	53532.73
530.09	53783.17
530.26	53961.05
530.43	53921.26
530.60	53609.97
530.77	53921.26
530.94	53750.40
531.11	53530.39
531.28	53951.69
531.46	54061.69
531.63	54094.46
531.80	54288.73
531.97	54452.56
532.14	54351.92
532.31	54419.80
532.48	54464.27
532.65	54515.76
532.82	54199.79
532.99	54735.77
533.16	54412.77
533.33	54468.95
533.50	54822.37
533.67	54607.04
533.84	54628.10
534.01	54946.42
534.18	54817.69
534.35	55068.12
534.52	54784.92
534.69	55370.05
534.86	55206.22
535.03	55192.17
535.20	55196.85
535.37	55213.24
535.54	55234.30
535.71	55220.26
535.88	55437.93
536.05	55339.63
536.22	55358.35
536.38	55327.92
536.55	55260.05
536.72	55606.45
536.89	55339.63
537.06	55461.33
537.23	55643.90
537.40	55664.96
537.57	55620.49
537.74	55608.79
537.91	56055.83
538.08	55852.20
538.25	55704.75
538.42	56037.11
538.59	56212.65
538.75	55997.32
538.92	55987.95
539.09	56081.58
539.26	56285.20
539.43	56168.18
539.60	56259.46
539.77	56273.50
539.94	56362.44
540.11	56273.50
540.28	56378.82
540.44	56353.08
540.61	56282.86
540.78	56425.64
540.95	56308.61
541.12	56289.88
541.29	56336.69
541.46	56507.55
541.62	56406.91
541.79	56610.54
541.96	56507.55
542.13	56486.49
542.30	56535.64
542.47	56912.47
542.63	56872.68
542.80	56755.65
542.97	57155.88
543.14	57188.65
543.31	57209.71
543.48	57209.71
543.64	57338.44
543.81	57214.40
543.98	57572.50
544.15	57261.21
544.32	57411.00
544.48	57689.52
544.65	57254.18
544.82	57394.62
544.99	57418.02
545.16	57495.26
545.32	57413.34
545.49	57738.68
545.66	57539.73
545.83	57525.69
546.00	57762.08
546.16	57773.78
546.33	57401.64
546.50	57427.38
546.67	57757.40
546.83	57448.45
547.00	57832.30
547.17	57647.39
547.34	57682.50
547.50	58085.07
547.67	58106.14
547.84	57829.96
548.00	57954.00
548.17	58190.40
548.34	58174.02
548.51	58117.84
548.67	58379.98
548.84	57755.06
549.01	58131.89
549.18	58206.78
549.34	58021.88
549.51	58246.57
549.68	58220.83
549.84	58162.31
550.01	58333.17
550.18	58075.71
550.34	58534.46
550.51	58480.63
550.68	58379.98
550.84	58361.26
551.01	58375.30
551.18	58457.22
551.34	58651.48
551.51	58752.13
551.68	58625.74
551.84	58745.11
552.01	58436.16
552.18	58436.16
552.34	58471.26
552.51	58663.19
552.68	58410.41
552.84	58588.29
553.01	58915.96
553.18	58649.14
553.34	58777.87
553.51	58602.33
553.67	58759.15
553.84	58885.54
554.01	59011.93
554.17	58625.74
554.34	58894.90
554.51	58871.49
554.67	58899.58
554.84	58930.01
555.00	58951.07
555.17	58904.26
555.33	59072.78
555.50	58913.62
555.67	58700.64
555.83	59114.91
556.00	59255.34
556.16	59348.96
556.33	59208.53
556.50	59047.04
556.66	59302.15
556.83	59089.16
556.99	59281.09
557.16	59501.10
557.32	59430.88
557.49	59451.95
557.65	59508.12
557.82	59482.37
557.98	59351.30
558.15	59185.13
558.32	59550.25
558.48	59269.39
558.65	59419.18
558.81	59475.35
558.98	59611.10
559.14	59618.13
559.31	59711.75
559.47	59323.22
559.64	59707.07
559.80	59611.10
559.97	59648.55
560.13	59660.26
560.30	59601.74
560.46	59655.57
560.63	59550.25
560.79	59681.32
560.96	60060.49
561.12	59744.51
561.29	59828.77
561.45	59758.56
561.61	59620.47
561.78	59718.77
561.94	59718.77
562.11	59800.69
562.27	59884.95
562.44	59985.59
562.60	59971.55
562.77	59969.21
562.93	59784.30
563.10	60100.28
563.26	59877.93
563.42	60114.32
563.59	59990.27
563.75	59686.00
563.92	59994.95
564.08	59938.78
564.24	60243.05
564.41	60135.38
564.57	59903.67
564.74	59915.37
564.90	60214.96
565.07	60048.78
565.23	60069.85
565.39	60121.34
565.56	60207.94
565.72	60207.94
565.88	60027.72
566.05	60172.83
566.21	60264.11
566.38	60060.49
566.54	60009.00
566.70	60191.56
566.87	60214.96
567.03	60006.65
567.19	60355.39
567.36	60130.70
567.52	60229.01
567.68	60533.28
567.85	60336.67
568.01	60266.45
568.17	60107.30
568.34	60498.17
568.50	60140.07
568.66	60196.24
568.83	60528.59
568.99	60226.66
569.15	60416.25
569.32	60453.70
569.48	60423.27
569.64	60273.48
569.81	60360.08
569.97	60317.95
570.13	60526.25
570.30	60226.66
570.46	60566.04
570.62	60306.24
570.78	60367.10
570.95	60535.62
571.11	60486.46
571.27	60460.72
571.43	60388.16
571.60	60582.43
571.76	60144.75
571.92	60612.85
572.09	60430.29
572.25	60385.82
572.41	60411.57
572.57	60479.44
572.74	60882.02
572.90	60498.17
573.06	60507.53
573.22	60491.15
573.38	60699.45
573.55	60535.62
573.71	60832.86
573.87	60748.60
574.03	60640.94
574.20	60650.30
574.36	60669.03
574.52	60523.91
574.68	60704.13
574.84	61055.21
575.01	60783.71
575.17	60626.90
575.33	60521.57
575.49	60528.59
575.65	60552.00
575.82	60867.97
575.98	60708.82
576.14	60842.23
576.30	60783.71
576.46	60769.67
576.62	60879.67
576.79	60804.78
576.95	60629.24
577.11	60797.76
577.27	60797.76
577.43	60732.22
577.59	60729.88
577.75	60654.98
577.92	60561.36
578.08	60537.96
578.24	60879.67
578.40	60828.18
578.56	60924.14
578.72	60755.63
578.88	61228.41
579.04	60767.33
579.21	60797.76
579.37	61034.15
579.53	60874.99
579.69	60626.90
579.85	60633.92
580.01	60753.29
580.17	60636.26
580.33	60891.38
580.49	60839.89
580.65	60947.55
580.82	60657.32
580.98	60851.59
581.14	60772.01
581.30	60999.04
581.46	60779.03
581.62	60706.47
581.78	60725.20
581.94	60992.02
582.10	60790.73
582.26	60872.65
582.42	60823.50
582.58	60786.05
582.74	60713.50
582.90	60940.53
583.06	60839.89
583.22	60786.05
583.38	60877.33
583.54	60837.54
583.70	60942.87
583.86	60924.14
584.02	60818.82
584.18	61116.07
584.34	61034.15
584.50	60928.83
584.66	60839.89
584.82	60816.48
584.98	60987.34
585.14	61087.98
585.30	60718.18
585.46	60975.64
585.62	60910.10
585.78	60940.53
585.94	60729.88
586.10	61017.77
586.26	61017.77
586.42	61071.60
586.58	61015.43
586.74	61130.11
586.90	61008.40
587.06	60907.76
587.22	61085.64
587.38	60980.32
587.54	60982.66
587.70	61256.50
587.86	61015.43
588.02	61062.24
588.18	61181.60
588.34	60807.12
588.49	61071.60
