SpectraSuite Data File
++++++++++++++++++++++++++++++++++++
Date: Fri Oct 25 10:43:55 EDT 2013
User: price-jones
Dark Spectrum Present: No
Reference Spectrum Present: No
Number of Sampled Component Spectra: 1
Spectrometers: USB2+H05261
Integration Time (usec): 100000 (USB2+H05261)
Spectra Averaged: 1 (USB2+H05261)
Boxcar Smoothing: 0 (USB2+H05261)
Correct for Electrical Dark: No (USB2+H05261)
Strobe/Lamp Enabled: No (USB2+H05261)
Correct for Detector Non-linearity: No (USB2+H05261)
Correct for Stray Light: No (USB2+H05261)
Number of Pixels in Processed Spectrum: 2048
>>>>>Begin Processed Spectral Data<<<<<
365.73	145.11
365.92	145.11
366.12	145.11
366.32	72.56
366.52	0.00
366.72	79.58
366.91	35.11
367.11	39.79
367.31	0.00
367.51	53.83
367.70	35.11
367.90	30.43
368.10	2.34
368.30	86.60
368.49	0.00
368.69	56.17
368.89	0.00
369.09	0.00
369.28	37.45
369.48	32.77
369.68	119.37
369.87	42.13
370.07	67.88
370.27	100.64
370.47	191.92
370.66	447.04
370.86	416.62
371.06	507.90
371.25	447.04
371.45	423.64
371.65	458.74
371.84	444.70
372.04	425.98
372.24	470.45
372.44	526.62
372.63	512.58
372.83	620.24
373.03	575.77
373.22	500.87
373.42	547.69
373.62	585.13
373.81	543.00
374.01	599.18
374.21	559.39
374.40	559.39
374.60	624.92
374.79	566.41
374.99	568.75
375.19	638.97
375.38	603.86
375.58	634.29
375.78	641.31
375.97	697.48
376.17	690.46
376.37	608.54
376.56	594.50
376.76	564.07
376.95	606.20
377.15	627.26
377.35	660.03
377.54	702.16
377.74	648.33
377.93	744.29
378.13	589.82
378.33	767.70
378.52	669.39
378.72	695.14
378.91	613.22
379.11	671.73
379.31	599.18
379.50	627.26
379.70	685.78
379.89	723.23
380.09	641.31
380.28	664.71
380.48	772.38
380.68	763.01
380.87	678.76
381.07	730.25
381.26	709.18
381.46	660.03
381.65	753.65
381.85	777.06
382.04	737.27
382.24	805.14
382.43	723.23
382.63	676.41
382.83	727.91
383.02	678.76
383.22	833.23
383.41	779.40
383.61	720.88
383.80	856.64
384.00	805.14
384.19	730.25
384.39	861.32
384.58	795.78
384.78	800.46
384.97	814.51
385.17	802.80
385.36	807.48
385.56	835.57
385.75	828.55
385.95	849.61
386.14	842.59
386.34	795.78
386.53	842.59
386.72	847.27
386.92	901.11
387.11	828.55
387.31	905.79
387.50	844.93
387.70	887.06
387.89	858.98
388.09	877.70
388.28	908.13
388.48	952.60
388.67	866.00
388.86	1048.56
389.06	959.62
389.25	999.41
389.45	1004.09
389.64	1032.18
389.84	1043.88
390.03	1020.47
390.22	1029.84
390.42	1102.39
390.61	1004.09
390.81	1121.12
391.00	1116.44
391.19	1029.84
391.39	1142.18
391.58	1158.57
391.78	1130.48
391.97	1034.52
392.16	1050.90
392.36	1081.33
392.55	1053.24
392.75	1053.24
392.94	1011.11
393.13	990.05
393.33	983.02
393.52	1160.91
393.71	1118.78
393.91	1188.99
394.10	1095.37
394.29	1203.04
394.49	1266.23
394.68	1299.00
394.88	1259.21
395.07	1287.29
395.26	1287.29
395.46	1191.33
395.65	1221.76
395.84	1219.42
396.04	1322.40
396.23	1233.46
396.42	1158.57
396.62	1174.95
396.81	1254.53
397.00	1235.80
397.19	1409.00
397.39	1406.66
397.58	1401.98
397.77	1479.22
397.97	1593.90
398.16	1497.94
398.35	1530.71
398.55	1554.12
398.74	1493.26
398.93	1666.46
399.12	1589.22
399.32	1554.12
399.51	1535.39
399.70	1626.67
399.90	1549.43
400.09	1668.80
400.28	1734.34
400.47	1668.80
400.67	1792.85
400.86	1839.66
401.05	1778.81
401.24	1797.53
401.44	1816.26
401.63	1806.89
401.82	1743.70
402.01	1823.28
402.21	1863.07
402.40	1818.60
402.59	1919.24
402.78	1785.83
402.97	1823.28
403.17	1930.94
403.36	1874.77
403.55	2022.22
403.74	1891.15
403.93	1952.01
404.13	2003.50
404.32	1952.01
404.51	2005.84
404.70	2050.31
404.89	1926.26
405.09	2064.35
405.28	2106.48
405.47	2024.56
405.66	2003.50
405.85	2118.18
406.05	2012.86
406.24	2118.18
406.43	2101.80
406.62	2143.93
406.81	2211.81
407.00	2221.17
407.20	2157.97
407.39	2253.94
407.58	2293.72
407.77	2265.64
407.96	2293.72
408.15	2331.17
408.34	2373.30
408.54	2450.54
408.73	2382.67
408.92	2396.71
409.11	2368.62
409.30	2427.14
409.49	2485.65
409.68	2368.62
409.87	2370.96
410.07	2317.13
410.26	2495.01
410.45	2492.67
410.64	2506.71
410.83	2614.38
411.02	2684.59
411.21	2738.43
411.40	2640.12
411.59	2658.85
411.78	2820.35
411.98	2761.83
412.17	2829.71
412.36	2864.82
412.55	2794.60
412.74	2890.56
412.93	2806.30
413.12	2895.24
413.31	3007.59
413.50	3005.25
413.69	2951.42
413.88	3171.43
414.07	2991.20
414.26	3087.17
414.45	3061.42
414.64	3141.00
414.83	3131.64
415.02	3199.51
415.22	3112.91
415.41	3321.22
415.60	3276.75
415.79	3358.67
415.98	3396.12
416.17	3421.86
416.36	3473.36
416.55	3412.50
416.74	3391.44
416.93	3440.59
417.12	3461.65
417.31	3288.45
417.50	3499.10
417.69	3651.24
417.88	3665.28
418.07	3583.36
418.26	3662.94
418.45	3707.41
418.64	3794.01
418.83	3726.13
419.02	3658.26
419.21	3796.35
419.39	3733.15
419.58	3812.73
419.77	3712.09
419.96	3850.18
420.15	3840.82
420.34	3908.69
420.53	3948.48
420.72	4046.79
420.91	3929.76
421.10	4138.07
421.29	4056.15
421.48	3861.88
421.67	4060.83
421.86	3943.80
422.05	3906.35
422.24	4018.70
422.43	3918.06
422.61	4004.66
422.80	4187.22
422.99	3988.27
423.18	4007.00
423.37	4119.34
423.56	4145.09
423.75	4114.66
423.94	4028.06
424.13	3810.39
424.32	3960.19
424.50	4191.90
424.69	4067.85
424.88	4205.94
425.07	4100.62
425.26	4060.83
425.45	4222.33
425.64	4154.45
425.83	4198.92
426.01	4203.60
426.20	4184.88
426.39	4156.79
426.58	4128.70
426.77	3887.63
426.96	4109.98
427.15	4187.22
427.33	4191.90
427.52	4376.80
427.71	4325.31
427.90	4329.99
428.09	4397.87
428.28	4379.14
428.46	4236.37
428.65	4245.73
428.84	4421.27
429.03	4461.06
429.22	4351.06
429.40	4255.09
429.59	4238.71
429.78	4173.18
429.97	4002.32
430.16	4194.24
430.34	4219.99
430.53	4325.31
430.72	4372.12
430.91	4430.63
431.10	4507.87
431.28	4674.05
431.47	4791.08
431.66	4643.62
431.85	4608.51
432.03	4702.14
432.22	4905.76
432.41	4844.91
432.60	4748.95
432.79	5001.72
432.97	5046.20
433.16	4973.64
433.35	4856.61
433.54	4938.53
433.72	5032.15
433.91	4863.63
434.10	4889.38
434.28	5041.51
434.47	5083.64
434.66	4983.00
434.85	5153.86
435.03	5048.54
435.22	4964.28
435.41	5289.61
435.59	5245.14
435.78	5348.12
435.97	5448.77
436.16	5343.44
436.34	5411.32
436.53	5554.09
436.72	5458.13
436.90	5305.99
437.09	5495.58
437.28	5432.38
437.46	5397.28
437.65	5528.35
437.84	5430.04
438.02	5282.59
438.21	5336.42
438.40	5397.28
438.58	5596.22
438.77	5664.10
438.96	5603.24
439.14	5844.32
439.33	5886.45
439.52	5893.47
439.70	5851.34
439.89	6054.97
440.08	5949.64
440.26	5980.07
440.45	6015.18
440.63	6050.28
440.82	6132.20
441.01	5994.11
441.19	6193.06
441.38	6239.87
441.57	6424.77
441.75	6345.19
441.94	6637.76
442.12	6506.69
442.31	6509.03
442.50	6427.11
442.68	6539.46
442.87	6490.31
443.05	6750.10
443.24	6740.74
443.43	6747.76
443.61	6815.64
443.80	6867.13
443.98	6740.74
444.17	6689.25
444.35	6789.89
444.54	6885.86
444.73	6927.99
444.91	6759.47
445.10	6710.32
445.28	6670.53
445.47	6619.04
445.65	6761.81
445.84	6953.73
446.02	6993.52
446.21	6869.47
446.39	6787.55
446.58	6825.00
446.77	6939.69
446.95	6787.55
447.14	7059.06
447.32	7063.74
447.51	7016.93
447.69	6993.52
447.88	7126.93
448.06	7124.59
448.25	6810.96
448.43	6995.86
448.62	7152.68
448.80	7002.88
448.99	7213.53
449.17	7070.76
449.36	7096.50
449.54	7269.70
449.73	7335.24
449.91	7290.77
450.10	7513.12
450.28	7482.69
450.46	7485.03
450.65	7478.01
450.83	7627.81
451.02	7384.39
451.20	7611.42
451.39	7676.96
451.57	7487.37
451.76	7452.27
451.94	7522.48
452.13	7555.25
452.31	7510.78
452.49	7400.77
452.68	7513.12
452.86	7531.84
453.05	7557.59
453.23	7747.17
453.42	7592.70
453.60	7653.55
453.78	7812.71
453.97	7686.32
454.15	7674.62
454.34	7623.12
454.52	7911.01
454.70	7861.86
454.89	7873.56
455.07	7847.82
455.26	8086.55
455.44	8238.69
455.62	8053.78
455.81	8100.59
455.99	8128.68
456.17	8112.30
456.36	8266.77
456.54	8360.39
456.73	8177.83
456.91	8641.26
457.09	8329.97
457.28	8592.11
457.46	8446.99
457.64	8561.68
457.83	8360.39
458.01	8472.74
458.19	8777.01
458.38	8393.16
458.56	8720.84
458.74	8608.49
458.93	8720.84
459.11	8578.06
459.29	8517.21
459.48	8578.06
459.66	8608.49
459.84	8788.71
460.03	9057.87
460.21	8849.57
460.39	8748.92
460.57	8915.10
460.76	9130.43
460.94	9128.09
461.12	9067.24
461.31	9132.77
461.49	9076.60
461.67	9139.79
461.85	9149.15
462.04	9095.32
462.22	9125.75
462.40	9397.25
462.59	9254.48
462.77	9116.39
462.95	9500.23
463.13	9385.55
463.32	9427.68
463.50	9589.17
463.68	9437.04
463.86	9401.93
464.05	9266.18
464.23	9245.12
464.41	9509.60
464.59	9214.69
464.78	9558.75
464.96	9558.75
465.14	9291.93
465.32	9488.53
465.50	9631.30
465.69	9783.44
465.87	9563.43
466.05	9556.41
466.23	9617.26
466.41	9423.00
466.60	9823.23
466.78	9558.75
466.96	9652.37
467.14	9621.94
467.32	9870.04
467.51	9685.14
467.69	9600.88
467.87	9764.72
468.05	9930.89
468.23	9858.34
468.41	9872.38
468.60	9856.00
468.78	9991.75
468.96	9956.64
469.14	9923.87
469.32	10188.35
469.50	9750.67
469.69	10129.84
469.87	10167.29
470.05	10195.37
470.23	10445.81
470.41	10190.69
470.59	10473.90
470.77	10228.14
470.95	10490.28
471.14	10509.01
471.32	10221.12
471.50	10649.44
471.68	10902.22
471.86	10789.87
472.04	10881.15
472.22	10899.87
472.40	10731.36
472.58	10717.31
472.77	10848.38
472.95	10824.98
473.13	11187.76
473.31	10981.79
473.49	11016.90
473.67	11171.38
473.85	11283.72
474.03	11585.65
474.21	11372.66
474.39	11597.35
474.57	11403.09
474.75	11492.03
474.93	11599.70
475.12	11749.49
475.30	11873.54
475.48	11662.89
475.66	11955.46
475.84	11641.82
476.02	11918.01
476.20	11777.58
476.38	12046.74
476.56	12053.76
476.74	12299.52
476.92	12210.57
477.10	12123.98
477.28	12526.55
477.46	12444.63
477.64	12594.42
477.82	12882.31
478.00	13034.44
478.18	12765.28
478.36	13011.04
478.54	12975.93
478.72	13046.15
478.90	13472.12
479.08	13509.57
479.26	13488.51
479.44	13558.72
479.62	13673.41
479.80	13830.23
479.98	13935.55
480.16	14363.87
480.34	13886.40
480.52	14286.63
480.70	14263.22
480.88	14040.87
481.06	14164.92
481.24	14558.13
481.41	14813.25
481.59	14843.68
481.77	14846.02
481.95	14806.23
482.13	15309.44
482.31	15075.39
482.49	15634.78
482.67	15300.08
482.85	15716.70
483.03	15894.58
483.21	15807.98
483.39	15892.24
483.57	15953.09
483.74	16329.92
483.92	16135.65
484.10	16081.82
484.28	16404.81
484.46	16624.83
484.64	17041.44
484.82	16734.83
485.00	16807.39
485.18	16992.29
485.35	17371.46
485.53	16758.24
485.71	16608.44
485.89	16884.62
486.07	16901.01
486.25	17128.04
486.43	17678.07
486.61	17593.81
486.78	17790.41
486.96	18099.36
487.14	18462.15
487.32	18450.44
487.50	18544.06
487.68	18831.95
487.85	19332.82
488.03	19049.62
488.21	19431.13
488.39	19276.65
488.57	19187.71
488.75	19711.99
488.92	19761.14
489.10	19810.29
489.28	20435.22
489.46	20414.15
489.64	20430.54
489.81	21177.17
489.99	21027.37
490.17	21195.89
490.35	21362.07
490.53	20980.56
490.70	21432.29
490.88	21331.64
491.06	21553.99
491.24	21635.91
491.41	21645.27
491.59	21656.98
491.77	21568.04
491.95	21979.97
492.13	22108.70
492.30	22389.56
492.48	22412.97
492.66	22822.56
492.84	22895.12
493.01	22871.72
493.19	22565.10
493.37	23108.11
493.54	23098.75
493.72	23452.17
493.90	23440.47
494.08	23470.89
494.25	24180.07
494.43	23936.66
494.61	23833.68
494.79	24273.70
494.96	24311.14
495.14	24353.27
495.32	24432.85
495.49	24493.71
495.67	24552.22
495.85	24999.26
496.02	25205.23
496.20	24767.55
496.38	25352.68
496.55	25282.47
496.73	25734.19
496.91	25823.13
497.09	25949.52
497.26	26155.49
497.44	26260.81
497.62	26099.31
497.79	26319.32
497.97	25888.67
498.14	26431.67
498.32	26258.47
498.50	26651.68
498.67	26766.37
498.85	27028.51
499.03	27012.12
499.20	27241.50
499.38	27314.05
499.56	27194.68
499.73	27278.94
499.91	27651.09
500.08	27402.99
500.26	27112.77
500.44	27208.73
500.61	27866.42
500.79	27688.54
500.97	27789.18
501.14	27910.89
501.32	28273.67
501.49	27941.32
501.67	27789.18
501.84	28407.08
502.02	28575.60
502.20	28697.31
502.37	28465.60
502.55	28692.63
502.72	28856.46
502.90	29165.42
503.07	28999.24
503.25	28903.28
503.43	28692.63
503.60	28896.25
503.78	29179.46
503.95	29298.83
504.13	29355.00
504.30	29406.49
504.48	29497.77
504.65	29619.48
504.83	29933.11
505.01	30441.01
505.18	30195.25
505.36	30733.57
505.53	30651.66
505.71	30714.85
505.88	30843.58
506.06	30333.34
506.23	30792.09
506.41	30485.48
506.58	30635.27
506.76	30742.94
506.93	31201.68
507.11	31044.87
507.28	31262.54
507.46	30836.56
507.63	31182.96
507.81	30955.93
507.98	31625.32
508.16	31702.56
508.33	31700.22
508.50	31887.46
508.68	31875.76
508.85	32231.52
509.03	31892.14
509.20	32259.60
509.38	32245.56
509.55	32388.33
509.73	32400.04
509.90	32758.14
510.08	32545.15
510.25	32196.41
510.42	32486.64
510.60	32741.75
510.77	32664.52
510.95	33223.90
511.12	32954.74
511.30	33242.63
511.47	33570.30
511.64	33598.39
511.82	33387.74
511.99	33347.95
512.17	33769.25
512.34	33912.02
512.51	33633.50
512.69	33799.68
512.86	33834.78
513.04	34085.22
513.21	33865.21
513.38	33813.72
513.56	33855.85
513.73	33296.46
513.90	34129.69
514.08	33680.31
514.25	34110.97
514.43	34106.29
514.60	34246.72
514.77	34403.53
514.95	34909.09
515.12	34373.11
515.29	34864.62
515.47	35227.40
515.64	35189.95
515.81	34930.16
515.99	34878.66
516.16	34799.08
516.33	34696.10
516.51	34478.43
516.68	34326.30
516.85	34469.07
517.03	34433.96
517.20	35016.75
517.37	35438.05
517.54	35234.42
517.72	35571.46
517.89	35096.33
518.06	34576.73
518.24	35089.31
518.41	35573.80
518.58	35491.88
518.75	35754.02
518.93	35873.39
519.10	35442.73
519.27	35974.03
519.45	36194.04
519.62	36105.10
519.79	36456.18
519.96	36472.57
520.14	36980.46
520.31	36006.80
520.48	36446.82
520.65	36390.65
520.83	36985.15
521.00	36847.05
521.17	37184.09
521.34	37242.60
521.52	37354.95
521.69	37167.71
521.86	37071.75
522.03	37549.21
522.20	37078.77
522.38	37251.97
522.55	37457.93
522.72	37050.68
522.89	37598.37
523.07	37584.32
523.24	37460.27
523.41	38279.46
523.58	37792.63
523.75	38464.36
523.92	38279.46
524.10	38761.61
524.27	38490.11
524.44	37851.14
524.61	38279.46
524.78	38478.41
524.96	38557.99
525.13	38759.27
525.30	38827.15
525.47	39171.21
525.64	38258.40
525.81	38536.92
525.98	38581.39
526.16	38352.02
526.33	38309.89
526.50	38380.10
526.67	38127.33
526.84	38541.60
527.01	38384.79
527.18	38948.85
527.36	39346.75
527.53	39033.11
527.70	39531.65
527.87	39873.37
528.04	39049.50
528.21	39449.73
528.38	39693.15
528.55	40264.24
528.72	40144.87
528.89	40353.18
529.07	39997.41
529.24	39828.90
529.41	40067.63
529.58	39608.89
529.75	40144.87
529.92	40299.34
530.09	40278.28
530.26	39948.26
530.43	40367.22
530.60	40423.39
530.77	40219.77
530.94	40891.50
531.11	40229.13
531.28	40502.97
531.46	40854.05
531.63	40975.76
531.80	40388.28
531.97	40645.74
532.14	40692.55
532.31	39744.64
532.48	40126.14
532.65	40521.69
532.82	40526.38
532.99	40896.18
533.16	40650.42
533.33	41284.71
533.50	41432.16
533.67	41090.44
533.84	40931.29
534.01	41031.93
534.18	41024.91
534.35	41574.94
534.52	41361.95
534.69	41294.07
534.86	41603.02
535.03	41624.09
535.20	41928.36
535.37	41937.72
535.54	42057.09
535.71	41993.89
535.88	41846.44
536.05	41954.10
536.22	42162.41
536.38	41724.73
536.55	42010.28
536.72	41745.80
536.89	41544.51
537.06	42160.07
537.23	42143.69
537.40	42192.84
537.57	42377.74
537.74	42405.83
537.91	42555.62
538.08	42218.58
538.25	42139.00
538.42	41942.40
538.59	42347.31
538.75	42160.07
538.92	42281.78
539.09	42483.06
539.26	41965.81
539.43	42277.10
539.60	42457.32
539.77	42220.92
539.94	42782.65
540.11	42354.33
540.28	42515.83
540.44	42574.34
540.61	42625.84
540.78	42462.00
540.95	42230.29
541.12	42773.29
541.29	42710.10
541.46	42773.29
541.62	43196.93
541.79	43072.88
541.96	42497.11
542.13	42780.31
542.30	42934.79
542.47	42974.58
542.63	43246.08
542.80	42997.98
542.97	43746.95
543.14	43742.27
543.31	43707.16
543.48	43751.63
543.64	43615.88
543.81	44147.18
543.98	44140.16
544.15	43805.47
544.32	43983.35
544.48	44320.38
544.65	43847.60
544.82	44355.49
544.99	43807.81
545.16	44348.47
545.32	44177.61
545.49	44753.38
545.66	44779.13
545.83	44477.20
546.00	44055.90
546.16	44397.62
546.33	44119.10
546.50	43971.64
546.67	44360.17
546.83	43800.79
547.00	44311.02
547.17	43648.65
547.34	44341.45
547.50	44406.98
547.67	44631.68
547.84	44582.52
548.00	44961.69
548.17	45102.12
548.34	44615.29
548.51	44875.09
548.67	45015.52
548.84	44655.08
549.01	44842.32
549.18	44872.75
549.34	45001.48
549.51	44978.07
549.68	45141.91
549.84	44858.71
550.01	45237.87
550.18	45057.65
550.34	45134.89
550.51	44994.46
550.68	44591.89
550.84	44964.03
551.01	45127.87
551.18	45069.36
551.34	45057.65
551.51	44912.54
551.68	45495.33
551.84	45167.66
552.01	45254.26
552.18	44903.18
552.34	45052.97
552.51	45329.16
552.68	45352.56
552.84	45160.64
553.01	45301.07
553.18	45507.04
553.34	45439.16
553.51	45153.62
553.67	45897.91
553.84	45935.35
554.01	45734.07
554.17	45680.24
554.34	45598.32
554.51	45673.21
554.67	45834.71
554.84	45717.68
555.00	45741.09
555.17	45689.60
555.33	46068.76
555.50	46050.04
555.67	46082.81
555.83	45619.38
556.00	45930.67
556.16	46426.87
556.33	45780.88
556.50	45853.44
556.66	45848.75
556.83	45525.76
556.99	45907.27
557.16	46045.36
557.32	46253.67
557.49	46033.66
557.65	46089.83
557.82	45954.08
557.98	46384.74
558.15	46174.09
558.32	46122.60
558.48	45886.20
558.65	45991.53
558.81	46124.94
558.98	46054.72
559.14	46115.58
559.31	45918.97
559.47	46265.37
559.64	46267.71
559.80	45975.14
559.97	46768.58
560.13	45909.61
560.30	46546.23
560.46	46244.30
560.63	46579.00
560.79	46536.87
560.96	46824.76
561.12	46305.16
561.29	45907.27
561.45	46328.56
561.61	46131.96
561.78	46155.36
561.94	46150.68
562.11	46038.34
562.27	46237.28
562.44	46543.89
562.60	46946.47
562.77	46518.15
562.93	46330.90
563.10	46604.75
563.26	46574.32
563.42	46794.33
563.59	46227.92
563.75	46614.11
563.92	46749.86
564.08	46597.73
564.24	47194.56
564.41	46618.79
564.57	46672.62
564.74	46033.66
564.90	46646.88
565.07	46361.33
565.23	46604.75
565.39	46312.18
565.56	46850.50
565.72	46136.64
565.88	46417.50
566.05	46616.45
566.21	46689.01
566.38	46415.16
566.54	46595.38
566.70	46845.82
566.87	47157.11
567.03	46866.89
567.19	47489.47
567.36	46794.33
567.52	46733.48
567.68	47004.98
567.85	46499.42
568.01	47098.60
568.17	46789.65
568.34	46988.60
568.50	47082.22
568.66	46644.54
568.83	46890.29
568.99	46630.49
569.15	46571.98
569.32	46546.23
569.48	46588.36
569.64	47091.58
569.81	46529.85
569.97	46866.89
570.13	46284.09
570.30	46068.76
570.46	46234.94
570.62	46288.77
570.78	46593.04
570.95	46515.81
571.11	47035.41
571.27	46539.21
571.43	46857.52
571.60	46712.41
571.76	46340.27
571.92	46960.51
572.09	46674.96
572.25	47107.96
572.41	46990.94
572.57	47082.22
572.74	47117.32
572.90	47086.90
573.06	47084.56
573.22	46944.12
573.38	46574.32
573.55	46607.09
573.71	46806.03
573.87	46993.28
574.03	46607.09
574.20	46836.46
574.36	46850.50
574.52	47042.43
574.68	46923.06
574.84	47248.39
575.01	47185.20
575.17	46878.59
575.33	46824.76
575.49	46548.57
575.65	47239.03
575.82	47049.45
575.98	46855.18
576.14	47381.80
576.30	46852.84
576.46	46815.40
576.62	46539.21
576.79	47168.82
576.95	46550.91
577.11	47313.93
577.27	47042.43
577.43	47100.94
577.59	46883.27
577.75	46813.05
577.92	46834.12
578.08	46351.97
578.24	46644.54
578.40	46745.18
578.56	46696.03
578.72	46880.93
578.88	47178.18
579.04	47437.98
579.21	46560.28
579.37	46925.40
579.53	47309.25
579.69	47122.01
579.85	46890.29
580.01	47171.16
580.17	47044.77
580.33	47049.45
580.49	46990.94
580.65	46726.46
580.82	47126.69
580.98	46639.86
581.14	46389.42
581.30	47271.80
581.46	47416.91
581.62	47564.37
581.78	47077.54
581.94	47346.70
582.10	47187.54
582.26	47232.01
582.42	47192.22
582.58	46958.17
582.74	46967.53
582.90	47299.89
583.06	47313.93
583.22	46920.72
583.38	47367.76
583.54	47236.69
583.70	47114.98
583.86	47454.36
584.02	46756.88
584.18	47559.69
584.34	47353.72
584.50	46733.48
584.66	47122.01
584.82	46859.87
584.98	47278.82
585.14	47044.77
585.30	46703.05
585.46	46838.80
585.62	46948.81
585.78	46670.28
585.94	46909.02
586.10	47030.72
586.26	47107.96
586.42	47002.64
586.58	47100.94
586.74	47327.97
586.90	47182.86
587.06	46981.57
587.22	47075.19
587.38	47096.26
587.54	47332.65
587.70	47372.44
587.86	47344.36
588.02	47105.62
588.18	47260.10
588.34	46780.29
588.49	46232.60
588.65	46637.51
588.81	46656.24
588.97	46534.53
589.13	46487.72
589.29	46997.96
589.45	46937.10
589.61	46820.08
589.77	46904.34
589.93	46976.89
