SpectraSuite Data File
++++++++++++++++++++++++++++++++++++
Date: Fri Oct 25 11:23:22 EDT 2013
User: price-jones
Dark Spectrum Present: No
Reference Spectrum Present: No
Number of Sampled Component Spectra: 1
Spectrometers: USB2+H05261
Integration Time (usec): 100000 (USB2+H05261)
Spectra Averaged: 1 (USB2+H05261)
Boxcar Smoothing: 0 (USB2+H05261)
Correct for Electrical Dark: No (USB2+H05261)
Strobe/Lamp Enabled: No (USB2+H05261)
Correct for Detector Non-linearity: No (USB2+H05261)
Correct for Stray Light: No (USB2+H05261)
Number of Pixels in Processed Spectrum: 2048
>>>>>Begin Processed Spectral Data<<<<<
365.73	236.39
365.92	236.39
366.12	236.39
366.32	105.32
366.52	131.07
366.72	189.58
366.91	147.45
367.11	138.09
367.31	46.81
367.51	77.24
367.70	121.71
367.90	107.66
368.10	149.79
368.30	135.75
368.49	53.83
368.69	161.50
368.89	53.83
369.09	152.13
369.28	159.16
369.48	149.79
369.68	201.29
369.87	248.10
370.07	170.86
370.27	198.95
370.47	351.08
370.66	543.00
370.86	636.63
371.06	688.12
371.25	589.82
371.45	748.97
371.65	704.50
371.84	669.39
372.04	688.12
372.24	676.41
372.44	685.78
372.63	723.23
372.83	791.10
373.03	774.72
373.22	713.86
373.42	737.27
373.62	657.69
373.81	877.70
374.01	828.55
374.21	774.72
374.40	849.61
374.60	896.43
374.79	868.34
374.99	793.44
375.19	830.89
375.38	851.96
375.58	786.42
375.78	884.72
375.97	741.95
376.17	898.77
376.37	837.91
376.56	802.80
376.76	875.36
376.95	833.23
377.15	854.30
377.35	844.93
377.54	917.49
377.74	940.90
377.93	835.57
378.13	873.02
378.33	933.87
378.52	1004.09
378.72	933.87
378.91	1006.43
379.11	891.74
379.31	954.94
379.50	873.02
379.70	983.02
379.89	947.92
380.09	1050.90
380.28	943.24
380.48	945.58
380.68	938.55
380.87	971.32
381.07	985.37
381.26	1086.01
381.46	1008.77
381.65	997.07
381.85	1029.84
382.04	1022.81
382.24	903.45
382.43	1034.52
382.63	1100.05
382.83	1081.33
383.02	1039.20
383.22	1111.75
383.41	1071.97
383.61	1067.28
383.80	1144.52
384.00	1029.84
384.19	1095.37
384.39	1102.39
384.58	1196.01
384.78	1074.31
384.97	1219.42
385.17	1151.54
385.36	1179.63
385.56	1219.42
385.75	1111.75
385.95	1179.63
386.14	1186.65
386.34	1219.42
386.53	1200.69
386.72	1210.06
386.92	1273.25
387.11	1191.33
387.31	1221.76
387.50	1121.12
387.70	1224.10
387.89	1303.68
388.09	1331.76
388.28	1306.02
388.48	1378.58
388.67	1320.06
388.86	1247.51
389.06	1252.19
389.25	1366.87
389.45	1380.92
389.64	1378.58
389.84	1387.94
390.03	1343.47
390.22	1399.64
390.42	1324.74
390.61	1343.47
390.81	1439.43
391.00	1479.22
391.19	1444.11
391.39	1568.16
391.58	1455.81
391.78	1425.39
391.97	1425.39
392.16	1462.83
392.36	1446.45
392.55	1455.81
392.75	1586.88
392.94	1474.54
393.13	1493.26
393.33	1558.80
393.52	1593.90
393.71	1586.88
393.91	1621.99
394.10	1591.56
394.29	1600.93
394.49	1607.95
394.68	1600.93
394.88	1659.44
395.07	1621.99
395.26	1619.65
395.46	1659.44
395.65	1715.61
395.84	1710.93
396.04	1853.70
396.23	1778.81
396.42	1701.57
396.62	1724.97
396.81	1874.77
397.00	1750.72
397.19	1860.73
397.39	1771.79
397.58	1823.28
397.77	1856.04
397.97	1853.70
398.16	1863.07
398.35	1902.86
398.55	1905.20
398.74	1863.07
398.93	1940.30
399.12	1914.56
399.32	2010.52
399.51	1860.73
399.70	1937.96
399.90	1949.67
400.09	2111.16
400.28	2024.56
400.47	2008.18
400.67	2092.44
400.86	2092.44
401.05	2033.93
401.24	2157.97
401.44	2172.02
401.63	2216.49
401.82	2097.12
402.01	2029.24
402.21	2155.63
402.40	2183.72
402.59	2183.72
402.78	2134.57
402.97	2263.30
403.17	2347.56
403.36	2249.25
403.55	2277.34
403.74	2333.51
403.93	2436.50
404.13	2277.34
404.32	2471.61
404.51	2342.88
404.70	2462.24
404.89	2387.35
405.09	2406.07
405.28	2434.16
405.47	2452.88
405.66	2609.70
405.85	2572.25
406.05	2548.84
406.24	2546.50
406.43	2506.71
406.62	2612.04
406.81	2616.72
407.00	2541.82
407.20	2462.24
407.39	2705.66
407.58	2719.70
407.77	2829.71
407.96	2768.85
408.15	2757.15
408.34	2649.49
408.54	2761.83
408.73	2799.28
408.92	2792.26
409.11	2855.45
409.30	2834.39
409.49	2803.96
409.68	2918.65
409.87	2862.48
410.07	3000.57
410.26	2935.03
410.45	2871.84
410.64	3063.76
410.83	3091.85
411.02	3103.55
411.21	3225.26
411.40	3133.98
411.59	3199.51
411.78	3204.19
411.98	3283.77
412.17	3335.26
412.36	3389.10
412.55	3353.99
412.74	3475.70
412.93	3412.50
413.12	3363.35
413.31	3543.57
413.50	3480.38
413.69	3375.05
413.88	3543.57
414.07	3686.34
414.26	3541.23
414.45	3744.86
414.64	3599.74
414.83	3758.90
415.02	3728.47
415.22	3808.05
415.41	3779.97
415.60	3948.48
415.79	3852.52
415.98	3861.88
416.17	4070.19
416.36	4035.08
416.55	3997.64
416.74	4091.26
416.93	4016.36
417.12	4180.20
417.31	4318.29
417.50	4177.86
417.69	4250.41
417.88	4376.80
418.07	4306.59
418.26	4395.53
418.45	4416.59
418.64	4571.07
418.83	4622.56
419.02	4444.68
419.21	4575.75
419.39	4458.72
419.58	4428.29
419.77	4535.96
419.96	4519.57
420.15	4741.93
420.34	4657.67
420.53	4638.94
420.72	4706.82
420.91	4603.83
421.10	4779.37
421.29	4805.12
421.48	4662.35
421.67	4781.71
421.86	4903.42
422.05	4711.50
422.24	4915.12
422.43	4926.83
422.61	4919.81
422.80	4983.00
422.99	4980.66
423.18	4919.81
423.37	5081.30
423.56	4968.96
423.75	5076.62
423.94	4917.47
424.13	4601.49
424.32	4894.06
424.50	4961.94
424.69	5123.43
424.88	5114.07
425.07	5055.56
425.26	5043.85
425.45	4931.51
425.64	4985.34
425.83	4901.08
426.01	5210.03
426.20	5135.14
426.39	5128.11
426.58	5043.85
426.77	5135.14
426.96	5125.77
427.15	5179.61
427.33	5275.57
427.52	5212.37
427.71	5315.36
427.90	5305.99
428.09	5385.57
428.28	5448.77
428.46	5352.81
428.65	5362.17
428.84	5523.66
429.03	5446.43
429.22	5352.81
429.40	5434.72
429.59	5444.09
429.78	5359.83
429.97	5444.09
430.16	5502.60
430.34	5650.05
430.53	5607.92
430.72	5799.85
430.91	5577.50
431.10	5738.99
431.28	5731.97
431.47	5827.93
431.66	5851.34
431.85	5713.25
432.03	6069.01
432.22	5949.64
432.41	5984.75
432.60	5827.93
432.79	5846.66
432.97	5980.07
433.16	6127.52
433.35	6246.89
433.54	6202.42
433.72	6272.64
433.91	6092.41
434.10	6291.36
434.28	6202.42
434.47	6141.57
434.66	6356.90
434.85	6183.70
435.03	6413.07
435.22	6214.12
435.41	6392.00
435.59	6537.12
435.78	6523.07
435.97	6520.73
436.16	6619.04
436.34	6431.79
436.53	6415.41
436.72	6691.59
436.90	6459.88
437.09	6553.50
437.28	6520.73
437.46	6595.63
437.65	6740.74
437.84	6675.21
438.02	6792.23
438.21	6848.41
438.40	6761.81
438.58	6862.45
438.77	6836.70
438.96	6967.77
439.14	7117.57
439.33	7248.64
439.52	7080.12
439.70	7323.54
439.89	7414.82
440.08	7468.65
440.26	7382.05
440.45	7456.95
440.63	7674.62
440.82	7691.00
441.01	7712.07
441.19	7644.19
441.38	7911.01
441.57	7726.11
441.75	7847.82
441.94	8063.15
442.12	7882.92
442.31	7967.18
442.50	7864.20
442.68	8049.10
442.87	8056.12
443.05	8109.96
443.24	8386.14
443.43	8173.15
443.61	8116.98
443.80	8304.22
443.98	8035.06
444.17	7740.15
444.35	8299.54
444.54	8451.67
444.73	8353.37
444.91	8524.23
445.10	8423.59
445.28	8388.48
445.47	8367.42
445.65	8430.61
445.84	8519.55
446.02	8578.06
446.21	8500.83
446.39	8297.20
446.58	8627.21
446.77	8533.59
446.95	8461.04
447.14	8351.03
447.32	8348.69
447.51	8491.46
447.69	8528.91
447.88	8641.26
448.06	8545.30
448.25	8486.78
448.43	8751.26
448.62	8786.37
448.80	8589.77
448.99	8674.03
449.17	8650.62
449.36	8795.73
449.54	8863.61
449.73	9020.42
449.91	9104.68
450.10	9034.47
450.28	9217.03
450.46	9071.92
450.65	8971.27
450.83	9107.02
451.02	9233.41
451.20	9076.60
451.39	9172.56
451.57	9167.88
451.76	9076.60
451.94	9076.60
452.13	9334.06
452.31	9371.50
452.49	9280.22
452.68	9525.98
452.86	9289.59
453.05	9446.40
453.23	9430.02
453.42	9364.48
453.60	9308.31
453.78	9652.37
453.97	9425.34
454.15	9444.06
454.34	9537.68
454.52	9774.08
454.70	9659.39
454.89	9736.63
455.07	9769.40
455.26	9783.44
455.44	10040.90
455.62	10050.26
455.81	9820.89
455.99	10244.52
456.17	10043.24
456.36	10017.49
456.54	10342.83
456.73	10335.81
456.91	10623.69
457.09	10506.66
457.28	10740.72
457.46	10413.04
457.64	10633.05
457.83	10476.24
458.01	10628.37
458.19	10710.29
458.38	10616.67
458.56	10864.77
458.74	10609.65
458.93	10586.24
459.11	10691.57
459.29	10719.65
459.48	10832.00
459.66	10780.51
459.84	10857.75
460.03	10946.69
460.21	11236.91
460.39	11007.54
460.57	11101.16
460.76	10963.07
460.94	11272.02
461.12	11257.98
461.31	11424.15
461.49	11468.62
461.67	11241.59
461.85	11499.05
462.04	11531.82
462.22	11522.46
462.40	11623.10
462.59	11414.79
462.77	11749.49
462.95	11833.75
463.13	11793.96
463.32	11878.22
463.50	11836.09
463.68	11831.41
463.86	11803.32
464.05	11803.32
464.23	11698.00
464.41	11903.96
464.59	11791.62
464.78	12215.26
464.96	12138.02
465.14	11861.84
465.32	12004.61
465.50	12173.13
465.69	12009.29
465.87	12276.11
466.05	12446.97
466.23	12353.35
466.41	12236.32
466.60	12397.82
466.78	12133.34
466.96	12341.64
467.14	12425.90
467.32	12414.20
467.51	12657.62
467.69	12266.75
467.87	12779.32
468.05	12730.17
468.23	12613.15
468.41	12379.09
468.60	12552.29
468.78	12875.29
468.96	12800.39
469.14	13025.08
469.32	13074.23
469.50	12603.78
469.69	12938.48
469.87	12966.57
470.05	13170.19
470.23	13130.41
470.41	13191.26
470.59	13362.12
470.77	13514.25
470.95	13535.32
471.14	13607.87
471.32	13476.80
471.50	13860.65
471.68	13804.48
471.86	13811.50
472.04	13837.25
472.22	14111.09
472.40	13743.63
472.58	13916.83
472.77	13954.27
472.95	14267.91
473.13	14658.78
473.31	14178.97
473.49	14214.07
473.67	14010.45
473.85	14408.34
474.03	14696.22
474.21	14853.04
474.39	14906.87
474.57	15042.62
474.75	15080.07
474.93	15122.20
475.12	14913.89
475.30	15232.21
475.48	15194.76
475.66	15066.03
475.84	15159.65
476.02	15475.62
476.20	15618.39
476.38	15653.50
476.56	15929.69
476.74	15864.15
476.92	15838.41
477.10	15922.66
477.28	16194.17
477.46	16259.70
477.64	16439.92
477.82	16624.83
478.00	17128.04
478.18	16826.11
478.36	17053.14
478.54	17135.06
478.72	17095.27
478.90	17303.58
479.08	17572.74
479.26	17900.42
479.44	17743.60
479.62	17905.10
479.80	18111.07
479.98	18008.08
480.16	18700.88
480.34	18492.57
480.52	18586.19
480.70	18569.81
480.88	18850.67
481.06	18991.11
481.24	19091.75
481.41	19021.53
481.59	19316.44
481.77	19744.76
481.95	19611.35
482.13	19971.79
482.31	19807.95
482.49	20269.04
482.67	20224.57
482.85	20496.07
483.03	20475.01
483.21	20762.89
483.39	20978.22
483.57	21039.08
483.74	21149.08
483.92	21425.26
484.10	21446.33
484.28	21912.10
484.46	22211.68
484.64	22654.05
484.82	21982.31
485.00	22635.32
485.18	22984.06
485.35	23325.78
485.53	22773.41
485.71	23236.84
485.89	23445.15
486.07	23316.42
486.25	23517.70
486.43	23709.63
486.61	24004.53
486.78	24353.27
486.96	24189.44
487.14	24788.61
487.32	24575.62
487.50	24999.26
487.68	25132.67
487.85	25542.27
488.03	25907.39
488.21	26003.35
488.39	25928.45
488.57	26171.87
488.75	26209.32
488.92	26410.60
489.10	26810.84
489.28	26916.16
489.46	27445.12
489.64	27278.94
489.81	27873.44
489.99	27711.94
490.17	27852.38
490.35	28079.41
490.53	28706.67
490.70	28559.22
490.88	28166.01
491.06	29090.52
491.24	28926.68
491.41	28809.65
491.59	29441.60
491.77	29584.37
491.95	29429.90
492.13	29741.19
492.30	30185.89
492.48	30429.30
492.66	30419.94
492.84	30267.81
493.01	31054.23
493.19	30993.37
493.37	31213.38
493.54	31475.52
493.72	31578.51
493.90	31871.07
494.08	31814.90
494.25	31995.12
494.43	32229.18
494.61	32636.43
494.79	32624.73
494.96	32634.09
495.14	33151.35
495.32	33605.41
495.49	33633.50
495.67	33460.30
495.85	33574.98
496.02	34101.61
496.20	34651.63
496.38	34326.30
496.55	34583.76
496.73	35037.82
496.91	34951.22
497.09	35091.65
497.26	35182.93
497.44	35131.44
497.62	35442.73
497.79	36112.13
497.97	35880.41
498.14	36442.14
498.32	36486.61
498.50	36369.58
498.67	36753.43
498.85	36620.02
499.03	37207.50
499.20	37034.30
499.38	37153.66
499.56	37219.20
499.73	37354.95
499.91	37689.65
500.08	37790.29
500.26	37710.71
500.44	37699.01
500.61	37860.51
500.79	38057.11
500.97	38464.36
501.14	38520.54
501.32	38983.96
501.49	38490.11
501.67	38787.36
501.84	38911.41
502.02	38667.99
502.20	39168.87
502.37	39533.99
502.55	39351.43
502.72	39875.71
502.90	40383.60
503.07	39522.29
503.25	40194.02
503.43	40044.23
503.60	40189.34
503.78	40369.56
503.95	40442.12
504.13	40339.13
504.30	40802.56
504.48	41062.36
504.65	40985.12
504.83	41977.51
505.01	41738.77
505.18	41378.33
505.36	41958.78
505.53	41593.66
505.71	41904.95
505.88	41883.89
506.06	41652.17
506.23	42061.77
506.41	42160.07
506.58	42321.57
506.76	42508.81
506.93	42862.23
507.11	42843.51
507.28	42845.85
507.46	42756.91
507.63	43122.03
507.81	43309.27
507.98	42937.13
508.16	43264.80
508.33	44170.59
508.50	43606.52
508.68	44451.45
508.85	44587.21
509.03	43973.98
509.20	44215.06
509.38	44893.82
509.55	44622.31
509.73	44779.13
509.90	44971.05
510.08	45111.49
510.25	45155.96
510.42	45078.72
510.60	45244.90
510.77	45516.40
510.95	45738.75
511.12	45923.65
511.30	45167.66
511.47	45769.18
511.64	46073.45
511.82	46211.54
511.99	45481.29
512.17	46270.05
512.34	46007.91
512.51	46871.57
512.69	46349.63
512.86	46483.04
513.04	46904.34
513.21	46803.69
513.38	47056.47
513.56	47365.42
513.73	47009.66
513.90	47222.65
514.08	47119.66
514.25	47611.18
514.43	47807.78
514.60	47646.29
514.77	47679.05
514.95	47594.79
515.12	47962.26
515.29	47552.66
515.47	48224.40
515.64	48203.33
515.81	47985.66
515.99	48559.09
516.16	49034.22
516.33	48725.27
516.51	48959.33
516.68	48545.05
516.85	48872.73
517.03	48985.07
517.20	49235.51
517.37	49169.97
517.54	49216.78
517.72	49397.01
517.89	49158.27
518.06	49766.81
518.24	49413.39
518.41	49607.65
518.58	49502.33
518.75	49296.36
518.93	49797.24
519.10	49343.17
519.27	49610.00
519.45	49722.34
519.62	50286.41
519.79	49799.58
519.96	50248.96
520.14	50162.36
520.31	50206.83
520.48	50754.52
520.65	50375.35
520.83	50820.05
521.00	50878.57
521.17	50908.99
521.34	50951.12
521.52	51309.22
521.69	50908.99
521.86	51157.09
522.03	51297.52
522.20	51693.07
522.38	51164.11
522.55	51742.22
522.72	51557.32
522.89	51470.72
523.07	51784.35
523.24	51636.90
523.41	51728.18
523.58	51672.01
523.75	52109.69
523.92	51931.81
524.10	52086.28
524.27	52245.44
524.44	52182.24
524.61	52088.62
524.78	52458.43
524.96	52238.42
525.13	52360.12
525.30	52680.78
525.47	52528.64
525.64	52570.77
525.81	52666.73
525.98	53017.82
526.16	52947.60
526.33	52788.44
526.50	53212.08
526.67	52982.71
526.84	53373.58
527.01	53095.05
527.18	53228.46
527.36	53125.48
527.53	53223.78
527.70	53399.32
527.87	53579.54
528.04	53579.54
528.21	53633.38
528.38	53801.89
528.55	53902.54
528.72	53375.92
528.89	53642.74
529.07	53530.39
529.24	53703.59
529.41	53921.26
529.58	53633.38
529.75	53609.97
529.92	54031.27
530.09	54174.04
530.26	54288.73
530.43	54227.87
530.60	54003.18
530.77	53874.45
530.94	54403.41
531.11	54482.99
531.28	54291.07
531.46	54569.59
531.63	54225.53
531.80	54251.28
531.97	54536.82
532.14	54693.64
532.31	54803.64
532.48	54688.96
532.65	54850.45
532.82	55007.27
532.99	54862.16
533.16	54679.60
533.33	55000.25
533.50	55185.15
533.67	55082.17
533.84	54944.08
534.01	55051.74
534.18	54990.89
534.35	55241.32
534.52	55377.08
534.69	55313.88
534.86	55540.91
535.03	55297.50
535.20	55346.65
535.37	55587.72
535.54	55437.93
535.71	55388.78
535.88	55458.99
536.05	55599.43
536.22	55817.10
536.38	55711.77
536.55	55648.58
536.72	55660.28
536.89	56072.21
537.06	55669.64
537.23	55920.08
537.40	55716.45
537.57	55884.97
537.74	55877.95
537.91	56196.26
538.08	55978.59
538.25	55704.75
538.42	55950.51
538.59	56402.23
538.75	56268.82
538.92	56214.99
539.09	56446.70
539.26	56427.98
539.43	56423.29
539.60	56371.80
539.77	56416.27
539.94	56601.18
540.11	56381.16
540.28	56601.18
540.44	56624.58
540.61	56303.93
540.78	56692.46
540.95	56432.66
541.12	56486.49
541.29	56666.71
541.46	56788.42
541.62	56591.81
541.79	56903.10
541.96	56577.77
542.13	56718.20
542.30	56860.97
542.47	56896.08
542.63	57134.82
542.80	56987.36
542.97	57083.33
543.14	57240.14
543.31	57221.42
543.48	57329.08
543.64	57354.83
543.81	57506.96
543.98	57301.00
544.15	57469.51
544.32	57626.33
544.48	57879.11
544.65	57577.18
544.82	57570.16
544.99	57499.94
545.16	57759.74
545.32	57530.37
545.49	57909.53
545.66	57682.50
545.83	57853.36
546.00	57975.07
546.16	58047.63
546.33	57862.72
546.50	57832.30
546.67	57977.41
546.83	57851.02
547.00	57932.94
547.17	58094.44
547.34	57879.11
547.50	57958.69
547.67	58246.57
547.84	58159.97
548.00	58408.07
548.17	58536.80
548.34	58375.30
548.51	58251.25
548.67	58368.28
548.84	58305.09
549.01	58347.21
549.18	58141.25
549.34	58396.37
549.51	58642.12
549.68	58553.18
549.84	58686.59
550.01	58637.44
550.18	58269.98
550.34	58534.46
550.51	58489.99
550.68	58522.76
550.84	58394.03
551.01	58628.08
551.18	58518.07
551.34	58637.44
551.51	58951.07
551.68	58712.34
551.84	58899.58
552.01	58555.52
552.18	58782.55
552.34	58667.87
552.51	58899.58
552.68	58787.24
552.84	58831.71
553.01	59241.30
553.18	58759.15
553.34	59040.01
553.51	58791.92
553.67	58883.20
553.84	59079.80
554.01	59107.89
554.17	59093.85
554.34	59393.43
554.51	59105.55
554.67	59199.17
554.84	59117.25
555.00	59189.81
555.17	59220.23
555.33	59229.60
555.50	59016.61
555.67	59292.79
555.83	59199.17
556.00	59267.05
556.16	59454.29
556.33	59571.32
556.50	59538.55
556.66	59442.59
556.83	59477.69
556.99	59416.84
557.16	59648.55
557.32	59664.94
557.49	59807.71
557.65	59391.09
557.82	59505.78
557.98	59407.48
558.15	59487.06
558.32	59796.01
558.48	59576.00
558.65	59409.82
558.81	59634.51
558.98	59529.19
559.14	59728.13
559.31	59826.43
559.47	59657.91
559.64	60069.85
559.80	59915.37
559.97	59831.11
560.13	59742.17
560.30	59948.14
560.46	59814.73
560.63	59936.44
560.79	59875.58
560.96	60020.70
561.12	60097.94
561.29	59863.88
561.45	59978.57
561.61	59980.91
561.78	60004.31
561.94	60030.06
562.11	59976.23
562.27	60023.04
562.44	60273.48
562.60	60107.30
562.77	60156.45
562.93	59922.40
563.10	60100.28
563.26	60109.64
563.42	60463.06
563.59	60229.01
563.75	60268.79
563.92	60067.51
564.08	60048.78
564.24	60327.31
564.41	60423.27
564.57	60245.39
564.74	60367.10
564.90	60205.60
565.07	60182.19
565.23	60245.39
565.39	60362.42
565.56	60404.55
565.72	60306.24
565.88	60423.27
566.05	60261.77
566.21	60331.99
566.38	60353.05
566.54	60498.17
566.70	60547.32
566.87	60643.28
567.03	60334.33
567.19	60612.85
567.36	60491.15
567.52	60369.44
567.68	60500.51
567.85	60608.17
568.01	60484.12
568.17	60423.27
568.34	60687.75
568.50	60301.56
568.66	60573.06
568.83	60519.23
568.99	60289.86
569.15	60465.40
569.32	60376.46
569.48	60598.81
569.64	60692.43
569.81	60397.52
569.97	60474.76
570.13	60713.50
570.30	60568.38
570.46	60666.69
570.62	60673.71
570.78	60935.85
570.95	60533.28
571.11	60713.50
571.27	60662.00
571.43	60580.09
571.60	60882.02
571.76	60713.50
571.92	60842.23
572.09	60587.11
572.25	60683.07
572.41	60928.83
572.57	60757.97
572.74	60935.85
572.90	60797.76
573.06	60715.84
573.22	60736.90
573.38	60837.54
573.55	60776.69
573.71	60982.66
573.87	60800.10
574.03	60519.23
574.20	60963.93
574.36	60636.26
574.52	60912.44
574.68	60865.63
574.84	60956.91
575.01	61043.51
575.17	61031.81
575.33	60793.07
575.49	60788.39
575.65	60940.53
575.82	60938.19
575.98	60977.98
576.14	61160.54
576.30	61076.28
576.46	60933.51
576.62	60886.70
576.79	60973.30
576.95	60903.08
577.11	60809.46
577.27	60989.68
577.43	61029.47
577.59	60732.22
577.75	60882.02
577.92	60938.19
578.08	60912.44
578.24	60844.57
578.40	61052.87
578.56	61132.45
578.72	60935.85
578.88	61116.07
579.04	61315.01
579.21	60992.02
579.37	61134.79
579.53	61055.21
579.69	61043.51
579.85	61141.81
580.01	60823.50
580.17	60774.35
580.33	60992.02
580.49	61109.05
580.65	61073.94
580.82	60942.87
580.98	60992.02
581.14	60884.36
581.30	61338.42
581.46	60994.36
581.62	61090.32
581.78	61104.37
581.94	61010.74
582.10	61102.03
582.26	60891.38
582.42	61123.09
582.58	61024.79
582.74	61090.32
582.90	60954.57
583.06	60872.65
583.22	61139.47
583.38	61113.73
583.54	61132.45
583.70	61057.56
583.86	61104.37
584.02	61041.17
584.18	61212.03
584.34	61256.50
584.50	61055.21
584.66	61118.41
584.82	60935.85
584.98	61324.38
585.14	61188.63
585.30	60891.38
585.46	61069.26
585.62	61066.92
585.78	61212.03
585.94	61181.60
586.10	61104.37
586.26	61064.58
586.42	61282.25
586.58	61179.26
586.74	61153.52
586.90	61050.53
587.06	61338.42
587.22	61497.58
587.38	61095.00
587.54	61277.57
587.70	61403.95
587.86	61099.68
588.02	61240.12
588.18	61244.80
588.34	61237.78
588.49	61291.61
