SpectraSuite Data File
++++++++++++++++++++++++++++++++++++
Date: Fri Oct 25 11:23:36 EDT 2013
User: price-jones
Dark Spectrum Present: No
Reference Spectrum Present: No
Number of Sampled Component Spectra: 1
Spectrometers: USB2+H05261
Integration Time (usec): 100000 (USB2+H05261)
Spectra Averaged: 1 (USB2+H05261)
Boxcar Smoothing: 0 (USB2+H05261)
Correct for Electrical Dark: No (USB2+H05261)
Strobe/Lamp Enabled: No (USB2+H05261)
Correct for Detector Non-linearity: No (USB2+H05261)
Correct for Stray Light: No (USB2+H05261)
Number of Pixels in Processed Spectrum: 2048
>>>>>Begin Processed Spectral Data<<<<<
365.73	229.37
365.92	229.37
366.12	229.37
366.32	149.79
366.52	184.90
366.72	241.08
366.91	138.09
367.11	117.03
367.31	168.52
367.51	140.43
367.70	184.90
367.90	133.41
368.10	142.77
368.30	191.92
368.49	107.66
368.69	173.20
368.89	175.54
369.09	112.35
369.28	110.01
369.48	102.98
369.68	184.90
369.87	229.37
370.07	187.24
370.27	201.29
370.47	212.99
370.66	578.11
370.86	664.71
371.06	641.31
371.25	671.73
371.45	695.14
371.65	697.48
371.84	702.16
372.04	725.57
372.24	706.84
372.44	711.52
372.63	753.65
372.83	737.27
373.03	802.80
373.22	739.61
373.42	704.50
373.62	744.29
373.81	784.08
374.01	830.89
374.21	819.19
374.40	798.12
374.60	760.67
374.79	854.30
374.99	842.59
375.19	873.02
375.38	828.55
375.58	788.76
375.78	821.53
375.97	842.59
376.17	968.98
376.37	910.47
376.56	861.32
376.76	863.66
376.95	800.46
377.15	833.23
377.35	922.17
377.54	1001.75
377.74	919.83
377.93	903.45
378.13	943.24
378.33	917.49
378.52	912.81
378.72	954.94
378.91	929.19
379.11	915.15
379.31	945.58
379.50	976.00
379.70	983.02
379.89	1032.18
380.09	924.51
380.28	968.98
380.48	940.90
380.68	926.85
380.87	884.72
381.07	1025.15
381.26	1022.81
381.46	1006.43
381.65	1036.86
381.85	954.94
382.04	1032.18
382.24	1032.18
382.43	987.71
382.63	1074.31
382.83	1095.37
383.02	1142.18
383.22	1097.71
383.41	1018.13
383.61	1071.97
383.80	1137.50
384.00	1088.35
384.19	1118.78
384.39	1121.12
384.58	1104.73
384.78	1156.22
384.97	1172.61
385.17	1163.25
385.36	1217.08
385.56	1137.50
385.75	1177.29
385.95	1158.57
386.14	1165.59
386.34	1181.97
386.53	1301.34
386.72	1275.59
386.92	1268.57
387.11	1280.27
387.31	1235.80
387.50	1219.42
387.70	1327.08
387.89	1188.99
388.09	1280.27
388.28	1240.48
388.48	1235.80
388.67	1301.34
388.86	1287.29
389.06	1273.25
389.25	1390.28
389.45	1310.70
389.64	1338.79
389.84	1256.87
390.03	1392.62
390.22	1416.02
390.42	1357.51
390.61	1366.87
390.81	1322.40
391.00	1434.75
391.19	1483.90
391.39	1418.36
391.58	1439.43
391.78	1500.28
391.97	1472.20
392.16	1504.96
392.36	1521.35
392.55	1502.62
392.75	1537.73
392.94	1596.25
393.13	1486.24
393.33	1476.88
393.52	1626.67
393.71	1565.82
393.91	1600.93
394.10	1488.58
394.29	1689.87
394.49	1694.55
394.68	1626.67
394.88	1710.93
395.07	1614.97
395.26	1685.19
395.46	1624.33
395.65	1673.48
395.84	1687.53
396.04	1818.60
396.23	1736.68
396.42	1746.04
396.62	1729.66
396.81	1710.93
397.00	1753.06
397.19	1678.16
397.39	1715.61
397.58	1792.85
397.77	1820.94
397.97	1863.07
398.16	1839.66
398.35	1926.26
398.55	1870.09
398.74	1856.04
398.93	1928.60
399.12	1991.80
399.32	1877.11
399.51	1926.26
399.70	1987.11
399.90	1949.67
400.09	1973.07
400.28	2054.99
400.47	1987.11
400.67	2097.12
400.86	2033.93
401.05	2108.82
401.24	2099.46
401.44	2150.95
401.63	2087.76
401.82	2036.27
402.01	2132.23
402.21	2150.95
402.40	2228.19
402.59	2115.84
402.78	2122.87
402.97	2228.19
403.17	2267.98
403.36	2321.81
403.55	2342.88
403.74	2263.30
403.93	2333.51
404.13	2317.13
404.32	2253.94
404.51	2392.03
404.70	2420.11
404.89	2443.52
405.09	2504.37
405.28	2396.71
405.47	2532.46
405.66	2541.82
405.85	2487.99
406.05	2569.91
406.24	2635.44
406.43	2626.08
406.62	2675.23
406.81	2644.81
407.00	2593.31
407.20	2663.53
407.39	2619.06
407.58	2766.51
407.77	2612.04
407.96	2658.85
408.15	2689.28
408.34	2686.94
408.54	2782.90
408.73	2719.70
408.92	2853.11
409.11	2892.90
409.30	2899.92
409.49	2942.05
409.68	2829.71
409.87	2972.48
410.07	2946.73
410.26	2951.42
410.45	2977.16
410.64	2958.44
410.83	3030.99
411.02	3101.21
411.21	3272.07
411.40	3101.21
411.59	3227.60
411.78	3206.53
411.98	3009.93
412.17	3169.09
412.36	3148.02
412.55	3459.31
412.74	3414.84
412.93	3316.54
413.12	3403.14
413.31	3571.66
413.50	3494.42
413.69	3475.70
413.88	3616.13
414.07	3552.93
414.26	3672.30
414.45	3620.81
414.64	3758.90
414.83	3777.62
415.02	3838.48
415.22	3943.80
415.41	3838.48
415.60	3899.33
415.79	3934.44
415.98	4007.00
416.17	4011.68
416.36	3929.76
416.55	3948.48
416.74	4198.92
416.93	4091.26
417.12	4112.32
417.31	4140.41
417.50	4173.18
417.69	4236.37
417.88	4346.37
418.07	4065.51
418.26	4269.14
418.45	4395.53
418.64	4479.79
418.83	4542.98
419.02	4229.35
419.21	4440.00
419.39	4512.55
419.58	4585.11
419.77	4397.87
419.96	4510.21
420.15	4610.86
420.34	4554.68
420.53	4496.17
420.72	4683.41
420.91	4645.96
421.10	4631.92
421.29	4830.87
421.48	4695.11
421.67	4884.70
421.86	4767.67
422.05	4664.69
422.24	4880.02
422.43	4884.70
422.61	4919.81
422.80	4957.25
422.99	4950.23
423.18	4929.17
423.37	5060.24
423.56	5055.56
423.75	4945.55
423.94	4861.29
424.13	4561.70
424.32	4791.08
424.50	4936.19
424.69	5144.50
424.88	5071.94
425.07	4968.96
425.26	4922.15
425.45	5022.79
425.64	4882.36
425.83	5004.07
426.01	5039.17
426.20	5121.09
426.39	5184.29
426.58	4915.12
426.77	4994.70
426.96	5032.15
427.15	5062.58
427.33	5153.86
427.52	5067.26
427.71	5420.68
427.90	5125.77
428.09	5165.56
428.28	5427.70
428.46	5467.49
428.65	5270.89
428.84	5404.30
429.03	5434.72
429.22	5212.37
429.40	5598.56
429.59	5561.11
429.78	5345.78
429.97	5315.36
430.16	5465.15
430.34	5540.05
430.53	5795.17
430.72	5628.99
430.91	5680.48
431.10	5579.84
431.28	5755.38
431.47	5720.27
431.66	5989.43
431.85	5898.15
432.03	5851.34
432.22	5907.51
432.41	5846.66
432.60	5886.45
432.79	6024.54
432.97	5937.94
433.16	6113.48
433.35	6026.88
433.54	6251.57
433.72	6239.87
433.91	6127.52
434.10	6017.52
434.28	5933.26
434.47	6120.50
434.66	6286.68
434.85	6321.79
435.03	6459.88
435.22	6204.76
435.41	6382.64
435.59	6480.94
435.78	6530.09
435.97	6497.33
436.16	6485.62
436.34	6399.02
436.53	6420.09
436.72	6670.53
436.90	6527.75
437.09	6630.74
437.28	6565.20
437.46	6707.98
437.65	6679.89
437.84	6796.92
438.02	6572.22
438.21	7033.31
438.40	6604.99
438.58	7002.88
438.77	7124.59
438.96	6998.20
439.14	7150.34
439.33	7452.27
439.52	7222.89
439.70	7094.16
439.89	7337.58
440.08	7515.46
440.26	7318.86
440.45	7255.66
440.63	7660.57
440.82	7695.68
441.01	7485.03
441.19	7623.12
441.38	7812.71
441.57	7719.09
441.75	7843.14
441.94	7763.56
442.12	8046.76
442.31	7932.08
442.50	8124.00
442.68	8058.46
442.87	8154.43
443.05	8170.81
443.24	8131.02
443.43	8180.17
443.61	8161.45
443.80	8468.06
443.98	8084.21
444.17	7854.84
444.35	8503.17
444.54	8414.23
444.73	8327.63
444.91	8299.54
445.10	8432.95
445.28	8273.79
445.47	8421.25
445.65	8325.29
445.84	8629.56
446.02	8362.73
446.21	8423.59
446.39	8524.23
446.58	8418.91
446.77	8608.49
446.95	8257.41
447.14	8418.91
447.32	8594.45
447.51	8517.21
447.69	8503.17
447.88	8407.20
448.06	8667.00
448.25	8503.17
448.43	8557.00
448.62	8603.81
448.80	8554.66
448.99	8716.16
449.17	8681.05
449.36	8709.13
449.54	8793.39
449.73	8912.76
449.91	9020.42
450.10	9092.98
450.28	9053.19
450.46	9139.79
450.65	9135.11
450.83	9104.68
451.02	8924.46
451.20	9069.58
451.39	9043.83
451.57	9041.49
451.76	9156.18
451.94	9207.67
452.13	9343.42
452.31	9338.74
452.49	9247.46
452.68	9320.01
452.86	9439.38
453.05	9432.36
453.23	9364.48
453.42	9397.25
453.60	9383.21
453.78	9577.47
453.97	9525.98
454.15	9610.24
454.34	9511.94
454.52	9593.86
454.70	9614.92
454.89	9668.75
455.07	9970.68
455.26	9834.93
455.44	9947.28
455.62	9797.48
455.81	9949.62
455.99	10094.73
456.17	10080.69
456.36	10052.60
456.54	10157.92
456.73	10232.82
456.91	10665.82
457.09	10303.04
457.28	10553.48
457.46	10415.38
457.64	10370.91
457.83	10555.82
458.01	10410.70
458.19	10911.58
458.38	10586.24
458.56	10785.19
458.74	10579.22
458.93	10714.97
459.11	10787.53
459.29	10736.04
459.48	10963.07
459.66	10881.15
459.84	10848.38
460.03	11063.71
460.21	10956.05
460.39	11204.14
460.57	10951.37
460.76	11150.31
460.94	11227.55
461.12	11243.93
461.31	11447.56
461.49	11131.59
461.67	11112.86
461.85	11445.22
462.04	11442.88
462.22	11604.38
462.40	11669.91
462.59	11609.06
462.77	11609.06
462.95	11618.42
463.13	11960.14
463.32	11578.63
463.50	11740.13
463.68	12081.85
463.86	12044.40
464.05	11758.85
464.23	11676.93
464.41	12011.63
464.59	11712.04
464.78	12018.65
464.96	11948.43
465.14	11892.26
465.32	12035.03
465.50	12028.01
465.69	11971.84
465.87	12250.36
466.05	12285.47
466.23	12219.94
466.41	12315.90
466.60	12491.44
466.78	12250.36
466.96	12222.28
467.14	12353.35
467.32	12461.01
467.51	12489.10
467.69	12116.95
467.87	12456.33
468.05	12732.51
468.23	12692.73
468.41	12695.07
468.60	12575.70
468.78	12805.07
468.96	12650.60
469.14	13020.40
469.32	12837.84
469.50	12798.05
469.69	12891.67
469.87	13158.49
470.05	12975.93
470.23	13296.58
470.41	13179.56
470.59	13284.88
470.77	13291.90
470.95	13355.10
471.14	13558.72
471.32	13397.23
471.50	13476.80
471.68	13591.49
471.86	13846.61
472.04	13650.00
472.22	14155.56
472.40	14010.45
472.58	13783.41
472.77	14047.90
472.95	14134.50
473.13	14523.02
473.31	14059.60
473.49	14094.71
473.67	14125.13
473.85	14338.12
474.03	14602.60
474.21	14164.92
474.39	14717.29
474.57	14618.99
474.75	14883.47
474.93	15023.90
475.12	14998.15
475.30	15026.24
475.48	14970.07
475.66	15548.18
475.84	15365.62
476.02	15456.90
476.20	15543.50
476.38	15569.24
476.56	15674.57
476.74	15950.75
476.92	15683.93
477.10	15815.00
477.28	16173.10
477.46	16006.92
477.64	16388.43
477.82	16634.19
478.00	17130.38
478.18	16786.32
478.36	16893.99
478.54	17057.82
478.72	17319.96
478.90	17671.04
479.08	17544.66
479.26	17603.17
479.44	17928.50
479.62	18207.03
479.80	18017.44
479.98	18457.46
480.16	18588.53
480.34	18679.82
480.52	18548.75
480.70	18640.03
480.88	18436.40
481.06	18792.16
481.24	18810.89
481.41	18923.23
481.59	19424.11
481.77	19632.41
481.95	19550.49
482.13	19807.95
482.31	19587.94
482.49	20273.72
482.67	20233.93
482.85	20393.09
483.03	20678.63
483.21	20662.25
483.39	21144.40
483.57	20760.55
483.74	21247.38
483.92	21837.20
484.10	20954.82
484.28	21575.06
484.46	22085.30
484.64	22483.19
484.82	22181.26
485.00	22593.19
485.18	22728.94
485.35	22916.19
485.53	22817.88
485.71	22974.70
485.89	23278.97
486.07	23679.20
486.25	23346.84
486.43	23613.66
486.61	23882.83
486.78	24299.44
486.96	24460.94
487.14	24402.43
487.32	24634.14
487.50	24814.36
487.68	25282.47
487.85	25591.42
488.03	25668.66
488.21	25919.09
488.39	25811.43
488.57	26412.95
488.75	26118.04
488.92	26639.98
489.10	26834.24
489.28	26684.45
489.46	27426.40
489.64	26977.01
489.81	27613.64
489.99	27487.25
490.17	27889.82
490.35	28121.54
490.53	28175.37
490.70	28580.28
490.88	27985.79
491.06	28699.65
491.24	29242.65
491.41	29315.21
491.59	29230.95
491.77	29404.15
491.95	29811.40
492.13	29956.52
492.30	30256.11
492.48	30089.93
492.66	30515.90
492.84	30045.46
493.01	30920.82
493.19	30714.85
493.37	31152.53
493.54	31342.11
493.72	31379.56
493.90	31484.89
494.08	31819.58
494.25	31985.76
494.43	32322.80
494.61	32418.76
494.79	32477.27
494.96	32624.73
495.14	33158.37
495.32	33060.07
495.49	33287.10
495.67	33247.31
495.85	33560.94
496.02	34291.19
496.20	34054.79
496.38	34333.32
496.55	34279.49
496.73	34932.50
496.91	34443.32
497.09	34621.20
497.26	34794.40
497.44	34691.42
497.62	35377.20
497.79	36116.81
497.97	35849.99
498.14	36278.30
498.32	36385.97
498.50	36474.91
498.67	36964.08
498.85	36535.76
499.03	36664.49
499.20	36797.90
499.38	36872.80
499.56	37319.84
499.73	37258.99
499.91	37390.06
500.08	37493.04
500.26	37703.69
500.44	37879.23
500.61	38110.94
500.79	37785.61
500.97	38323.93
501.14	38579.05
501.32	38696.08
501.49	38462.02
501.67	38827.15
501.84	39133.76
502.02	38920.77
502.20	39105.67
502.37	39370.15
502.55	39758.68
502.72	39805.49
502.90	39723.57
503.07	39721.23
503.25	39924.86
503.43	39573.78
503.60	40662.13
503.78	40287.64
503.95	40734.68
504.13	40580.21
504.30	40545.10
504.48	40722.98
504.65	40985.12
504.83	40734.68
505.01	41612.38
505.18	41212.15
505.36	42082.83
505.53	41331.52
505.71	41907.29
505.88	42129.64
506.06	41539.83
506.23	41888.57
506.41	42143.69
506.58	42129.64
506.76	42031.34
506.93	42244.33
507.11	42040.70
507.28	42581.37
507.46	43054.15
507.63	43545.67
507.81	43227.35
507.98	42897.34
508.16	43494.18
508.33	43878.02
508.50	43466.09
508.68	44357.83
508.85	44198.68
509.03	44137.82
509.20	44449.11
509.38	44626.99
509.55	44753.38
509.73	44467.84
509.90	44587.21
510.08	44390.60
510.25	44589.55
510.42	44942.97
510.60	45263.62
510.77	45265.96
510.95	45694.28
511.12	45581.93
511.30	45223.83
511.47	45794.92
511.64	45523.42
511.82	46054.72
511.99	45764.49
512.17	46387.08
512.34	45993.87
512.51	46602.41
512.69	46586.02
512.86	46288.77
513.04	46887.95
513.21	47004.98
513.38	46845.82
513.56	47374.78
513.73	47009.66
513.90	47140.73
514.08	46766.24
514.25	47253.08
514.43	47377.12
514.60	47430.96
514.77	47683.73
514.95	47758.63
515.12	47959.92
515.29	47559.69
515.47	48313.34
515.64	47929.49
515.81	48540.37
515.99	48465.47
516.16	48477.18
516.33	48488.88
516.51	49017.84
516.68	48678.46
516.85	48587.18
517.03	48952.30
517.20	49151.25
517.37	49022.52
517.54	49347.86
517.72	49315.09
517.89	49118.48
518.06	49565.52
518.24	49003.80
518.41	49319.77
518.58	49577.23
518.75	49499.99
518.93	49757.45
519.10	49649.78
519.27	49830.01
519.45	50005.55
519.62	50323.86
519.79	49837.03
519.96	49855.75
520.14	50333.22
520.31	50321.52
520.48	50429.18
520.65	50511.10
520.83	50454.93
521.00	50803.67
521.17	50820.05
521.34	50728.77
521.52	51334.97
521.69	51105.60
521.86	50997.93
522.03	51129.00
522.20	51580.73
522.38	51693.07
522.55	51356.03
522.72	51545.62
522.89	51578.39
523.07	51524.55
523.24	51597.11
523.41	51861.59
523.58	51767.97
523.75	52051.17
523.92	51669.67
524.10	52142.45
524.27	52093.30
524.44	52343.74
524.61	52079.26
524.78	52243.10
524.96	52336.72
525.13	52317.99
525.30	52306.29
525.47	52750.99
525.64	52849.30
525.81	52708.86
525.98	52863.34
526.16	52502.90
526.33	52725.25
526.50	53151.23
526.67	53254.21
526.84	52968.66
527.01	52853.98
527.18	52877.38
527.36	53191.01
527.53	53172.29
527.70	53506.99
527.87	53654.44
528.04	53233.14
528.21	53591.25
528.38	53638.06
528.55	53404.00
528.72	53319.74
528.89	53741.04
529.07	53837.00
529.24	53408.68
529.41	53593.59
529.58	53790.19
529.75	53687.21
529.92	53872.11
530.09	53759.76
530.26	54106.16
530.43	54122.55
530.60	53921.26
530.77	53710.61
530.94	54211.49
531.11	54092.12
531.28	54316.81
531.46	54265.32
531.63	54501.71
531.80	54440.86
531.97	54532.14
532.14	54794.28
532.31	54571.93
532.48	54733.43
532.65	54752.15
532.82	54593.00
532.99	54855.14
533.16	54698.32
533.33	54717.04
533.50	55243.66
533.67	54915.99
533.84	54911.31
534.01	54908.97
534.18	54883.22
534.35	55260.05
534.52	55077.49
534.69	55304.52
534.86	55468.36
535.03	54894.92
535.20	55330.26
535.37	55501.12
535.54	55508.14
535.71	55215.58
535.88	55428.57
536.05	55620.49
536.22	55667.30
536.38	55856.88
536.55	55620.49
536.72	55587.72
536.89	55636.87
537.06	55810.07
537.23	56074.55
537.40	55875.61
537.57	55746.88
537.74	55735.18
537.91	56013.70
538.08	56123.71
538.25	55725.81
538.42	55924.76
538.59	56332.01
538.75	56140.09
538.92	56296.91
539.09	56360.10
539.26	56133.07
539.43	56240.73
539.60	56336.69
539.77	56254.78
539.94	56624.58
540.11	56294.56
540.28	56449.04
540.44	56479.47
540.61	56427.98
540.78	56456.06
540.95	56676.07
541.12	56589.47
541.29	56547.34
541.46	56516.92
541.62	56573.09
541.79	56451.38
541.96	56364.78
542.13	56369.46
542.30	56788.42
542.47	56966.30
542.63	56893.74
542.80	56889.06
542.97	57179.29
543.14	57399.30
543.31	57352.49
543.48	57439.09
543.64	57584.20
543.81	57464.83
543.98	57415.68
544.15	57638.03
544.32	57509.30
544.48	57680.16
544.65	57476.54
544.82	57322.06
544.99	57303.34
545.16	57598.24
545.32	57368.87
545.49	57836.98
545.66	57783.15
545.83	57722.29
546.00	57904.85
546.16	57736.34
546.33	57635.69
546.50	57518.67
546.67	57965.71
546.83	57453.13
547.00	57614.63
547.17	57841.66
547.34	58059.33
547.50	58178.70
547.67	58260.62
547.84	57944.64
548.00	58293.38
548.17	58269.98
548.34	58028.90
548.51	58419.77
548.67	58365.94
548.84	58246.57
549.01	58192.74
549.18	58195.08
549.34	58389.34
549.51	58363.60
549.68	58387.00
549.84	58422.11
550.01	58632.76
550.18	58424.45
550.34	58511.05
550.51	58710.00
550.68	58759.15
550.84	58340.19
551.01	58660.85
551.18	58595.31
551.34	58768.51
551.51	58710.00
551.68	58728.72
551.84	58597.65
552.01	58482.97
552.18	58686.59
552.34	58993.20
552.51	59000.22
552.68	58555.52
552.84	58810.64
553.01	58967.46
553.18	58927.67
553.34	58983.84
553.51	58679.57
553.67	58803.62
553.84	59152.36
554.01	58986.18
554.17	59166.40
554.34	58974.48
554.51	59035.33
554.67	59178.10
554.84	59119.59
555.00	59229.60
555.17	59044.69
555.33	59281.09
555.50	59278.75
555.67	58906.60
555.83	59035.33
556.00	59121.93
556.16	59503.44
556.33	59320.88
556.50	59337.26
556.66	59419.18
556.83	59269.39
556.99	59409.82
557.16	59491.74
557.32	59622.81
557.49	59831.11
557.65	59442.59
557.82	59653.23
557.98	59355.99
558.15	59484.72
558.32	59545.57
558.48	59503.44
558.65	59454.29
558.81	59487.06
558.98	59709.41
559.14	59700.04
559.31	59835.80
559.47	59849.84
559.64	59959.84
559.80	59957.50
559.97	60018.36
560.13	59592.38
560.30	59686.00
560.46	59856.86
560.63	59833.46
560.79	59966.87
560.96	59994.95
561.12	59884.95
561.29	60001.97
561.45	59868.56
561.61	60023.04
561.78	59800.69
561.94	59845.16
562.11	60058.15
562.27	59941.12
562.44	60271.14
562.60	60006.65
562.77	60142.41
562.93	59969.21
563.10	59906.01
563.26	59910.69
563.42	60416.25
563.59	59924.74
563.75	60107.30
563.92	60100.28
564.08	60177.51
564.24	60430.29
564.41	60364.76
564.57	60203.26
564.74	60285.18
564.90	60240.71
565.07	60123.68
565.23	60273.48
565.39	60079.21
565.56	60360.08
565.72	60224.32
565.88	60170.49
566.05	60016.02
566.21	60231.35
566.38	60271.14
566.54	60226.66
566.70	60441.99
566.87	60378.80
567.03	60196.24
567.19	60556.68
567.36	60404.55
567.52	60233.69
567.68	60577.75
567.85	60399.86
568.01	60432.63
568.17	60371.78
568.34	60582.43
568.50	60322.63
568.66	60495.83
568.83	60540.30
568.99	60346.03
569.15	60364.76
569.32	60425.61
569.48	60512.21
569.64	60486.46
569.81	60418.59
569.97	60423.27
570.13	60495.83
570.30	60355.39
570.46	60502.85
570.62	60626.90
570.78	60477.10
570.95	60694.77
571.11	60704.13
571.27	60467.74
571.43	60502.85
571.60	60837.54
571.76	60750.94
571.92	60823.50
572.09	60633.92
572.25	60596.47
572.41	60638.60
572.57	60734.56
572.74	60870.31
572.90	60753.29
573.06	60617.53
573.22	60690.09
573.38	60715.84
573.55	60732.22
573.71	60945.21
573.87	60989.68
574.03	60701.79
574.20	60645.62
574.36	60694.77
574.52	60980.32
574.68	60800.10
574.84	61029.47
575.01	60860.95
575.17	60769.67
575.33	60828.18
575.49	60846.91
575.65	60837.54
575.82	60811.80
575.98	60865.63
576.14	61197.99
576.30	60832.86
576.46	60973.30
576.62	60706.47
576.79	60659.66
576.95	60781.37
577.11	60938.19
577.27	60933.51
577.43	60795.42
577.59	60729.88
577.75	60905.42
577.92	60863.29
578.08	61020.11
578.24	60933.51
578.40	60767.33
578.56	60996.70
578.72	60949.89
578.88	61066.92
579.04	61036.49
579.21	61188.63
579.37	61066.92
579.53	61165.22
579.69	60849.25
579.85	60769.67
580.01	60935.85
580.17	60961.59
580.33	61043.51
580.49	60914.78
580.65	60882.02
580.82	60874.99
580.98	60907.76
581.14	60985.00
581.30	61153.52
581.46	60874.99
581.62	61104.37
581.78	60919.46
581.94	60975.64
582.10	61010.74
582.26	60956.91
582.42	60926.49
582.58	61120.75
582.74	60907.76
582.90	60994.36
583.06	60849.25
583.22	60896.06
583.38	60947.55
583.54	61116.07
583.70	61151.18
583.86	61118.41
584.02	61102.03
584.18	61085.64
584.34	61048.19
584.50	61050.53
584.66	60760.31
584.82	60795.42
584.98	61137.13
585.14	61230.75
585.30	61034.15
585.46	61095.00
585.62	61034.15
585.78	61324.38
585.94	60945.21
586.10	61027.13
586.26	61200.33
586.42	61183.94
586.58	60977.98
586.74	61167.56
586.90	61144.16
587.06	61038.83
587.22	61244.80
587.38	61200.33
587.54	61336.08
587.70	61197.99
587.86	61041.17
588.02	61242.46
588.18	61193.31
588.34	61188.63
588.49	61310.33
