SpectraSuite Data File
++++++++++++++++++++++++++++++++++++
Date: Fri Oct 25 10:44:34 EDT 2013
User: price-jones
Dark Spectrum Present: No
Reference Spectrum Present: No
Number of Sampled Component Spectra: 1
Spectrometers: USB2+H05261
Integration Time (usec): 100000 (USB2+H05261)
Spectra Averaged: 1 (USB2+H05261)
Boxcar Smoothing: 0 (USB2+H05261)
Correct for Electrical Dark: No (USB2+H05261)
Strobe/Lamp Enabled: No (USB2+H05261)
Correct for Detector Non-linearity: No (USB2+H05261)
Correct for Stray Light: No (USB2+H05261)
Number of Pixels in Processed Spectrum: 2048
>>>>>Begin Processed Spectral Data<<<<<
365.73	145.11
365.92	145.11
366.12	145.11
366.32	0.00
366.52	25.75
366.72	49.15
366.91	9.36
367.11	11.70
367.31	4.68
367.51	77.24
367.70	60.85
367.90	56.17
368.10	14.04
368.30	32.77
368.49	32.77
368.69	84.26
368.89	77.24
369.09	67.88
369.28	93.62
369.48	2.34
369.68	67.88
369.87	46.81
370.07	42.13
370.27	149.79
370.47	212.99
370.66	383.85
370.86	430.66
371.06	355.76
371.25	484.49
371.45	451.72
371.65	433.00
371.84	421.30
372.04	348.74
372.24	468.11
372.44	416.62
372.63	519.60
372.83	470.45
373.03	463.43
373.22	423.64
373.42	535.98
373.62	561.73
373.81	552.37
374.01	533.64
374.21	505.56
374.40	512.58
374.60	559.39
374.79	463.43
374.99	554.71
375.19	589.82
375.38	645.99
375.58	559.39
375.78	613.22
375.97	624.92
376.17	643.65
376.37	500.87
376.56	568.75
376.76	554.71
376.95	589.82
377.15	557.05
377.35	631.94
377.54	608.54
377.74	594.50
377.93	662.37
378.13	561.73
378.33	610.88
378.52	629.60
378.72	692.80
378.91	543.00
379.11	636.63
379.31	636.63
379.50	683.44
379.70	662.37
379.89	662.37
380.09	573.43
380.28	601.52
380.48	592.16
380.68	669.39
380.87	624.92
381.07	634.29
381.26	688.12
381.46	662.37
381.65	734.93
381.85	601.52
382.04	664.71
382.24	674.07
382.43	655.35
382.63	608.54
382.83	683.44
383.02	671.73
383.22	758.33
383.41	662.37
383.61	678.76
383.80	716.20
384.00	627.26
384.19	704.50
384.39	725.57
384.58	727.91
384.78	723.23
384.97	758.33
385.17	711.52
385.36	704.50
385.56	746.63
385.75	730.25
385.95	795.78
386.14	741.95
386.34	842.59
386.53	748.97
386.72	821.53
386.92	826.21
387.11	821.53
387.31	798.12
387.50	734.93
387.70	718.54
387.89	805.14
388.09	777.06
388.28	786.42
388.48	844.93
388.67	922.17
388.86	837.91
389.06	896.43
389.25	901.11
389.45	905.79
389.64	833.23
389.84	971.32
390.03	866.00
390.22	1001.75
390.42	903.45
390.61	889.40
390.81	936.21
391.00	901.11
391.19	999.41
391.39	940.90
391.58	933.87
391.78	915.15
391.97	952.60
392.16	922.17
392.36	959.62
392.55	1001.75
392.75	910.47
392.94	1013.45
393.13	905.79
393.33	973.66
393.52	952.60
393.71	1020.47
393.91	1036.86
394.10	1027.50
394.29	1069.62
394.49	1008.77
394.68	1097.71
394.88	1116.44
395.07	1144.52
395.26	1151.54
395.46	1139.84
395.65	1128.14
395.84	1062.60
396.04	1184.31
396.23	1165.59
396.42	1074.31
396.62	1139.84
396.81	1090.69
397.00	1107.07
397.19	1191.33
397.39	1156.22
397.58	1324.74
397.77	1200.69
397.97	1341.13
398.16	1390.28
398.35	1387.94
398.55	1263.89
398.74	1352.83
398.93	1373.89
399.12	1348.15
399.32	1355.17
399.51	1345.81
399.70	1376.24
399.90	1315.38
400.09	1387.94
400.28	1460.49
400.47	1453.47
400.67	1423.05
400.86	1465.18
401.05	1425.39
401.24	1511.99
401.44	1509.65
401.63	1572.84
401.82	1472.20
402.01	1554.12
402.21	1519.01
402.40	1600.93
402.59	1542.41
402.78	1579.86
402.97	1579.86
403.17	1549.43
403.36	1666.46
403.55	1619.65
403.74	1797.53
403.93	1746.04
404.13	1788.17
404.32	1626.67
404.51	1673.48
404.70	1715.61
404.89	1659.44
405.09	1724.97
405.28	1671.14
405.47	1799.87
405.66	1764.76
405.85	1851.36
406.05	1886.47
406.24	1870.09
406.43	1877.11
406.62	1933.28
406.81	1884.13
407.00	1886.47
407.20	1792.85
407.39	1891.15
407.58	1879.45
407.77	1996.48
407.96	2015.20
408.15	1902.86
408.34	1942.64
408.54	2024.56
408.73	2017.54
408.92	2071.37
409.11	2015.20
409.30	2134.57
409.49	2174.36
409.68	1963.71
409.87	2148.61
410.07	2106.48
410.26	2120.53
410.45	2127.55
410.64	2232.87
410.83	2256.28
411.02	2326.49
411.21	2307.77
411.40	2314.79
411.59	2377.98
411.78	2340.54
411.98	2338.20
412.17	2387.35
412.36	2263.30
412.55	2509.05
412.74	2492.67
412.93	2502.03
413.12	2513.74
413.31	2495.01
413.50	2541.82
413.69	2567.57
413.88	2574.59
414.07	2679.91
414.26	2670.55
414.45	2745.45
414.64	2679.91
414.83	2649.49
415.02	2736.09
415.22	2827.37
415.41	2944.39
415.60	2803.96
415.79	2843.75
415.98	2885.88
416.17	2970.14
416.36	2993.55
416.55	2850.77
416.74	3023.97
416.93	2892.90
417.12	3026.31
417.31	3129.30
417.50	2925.67
417.69	3075.46
417.88	3096.53
418.07	3110.57
418.26	3009.93
418.45	3096.53
418.64	3096.53
418.83	3304.84
419.02	3208.87
419.21	3241.64
419.39	3286.11
419.58	3234.62
419.77	3330.58
419.96	3328.24
420.15	3407.82
420.34	3349.31
420.53	3473.36
420.72	3485.06
420.91	3475.70
421.10	3438.25
421.29	3644.21
421.48	3405.48
421.67	3527.19
421.86	3365.69
422.05	3463.99
422.24	3342.28
422.43	3513.14
422.61	3480.38
422.80	3634.85
422.99	3557.61
423.18	3506.12
423.37	3630.17
423.56	3620.81
423.75	3515.48
423.94	3475.70
424.13	3407.82
424.32	3543.57
424.50	3557.61
424.69	3599.74
424.88	3681.66
425.07	3616.13
425.26	3456.97
425.45	3548.25
425.64	3534.21
425.83	3529.53
426.01	3674.64
426.20	3684.00
426.39	3754.22
426.58	3590.38
426.77	3616.13
426.96	3634.85
427.15	3562.30
427.33	3653.58
427.52	3705.07
427.71	3733.15
427.90	3791.67
428.09	3857.20
428.28	3763.58
428.46	3688.68
428.65	3829.12
428.84	3824.44
429.03	4039.76
429.22	3730.81
429.40	3768.26
429.59	3700.39
429.78	3585.70
429.97	3665.28
430.16	3798.69
430.34	3810.39
430.53	3946.14
430.72	3871.25
430.91	3838.48
431.10	3911.04
431.28	4067.85
431.47	4194.24
431.66	4262.12
431.85	4084.23
432.03	4119.34
432.22	4180.20
432.41	4203.60
432.60	4390.84
432.79	4341.69
432.97	4313.61
433.16	4292.54
433.35	4198.92
433.54	4138.07
433.72	4292.54
433.91	4198.92
434.10	4322.97
434.28	4348.72
434.47	4402.55
434.66	4589.79
434.85	4465.74
435.03	4351.06
435.22	4421.27
435.41	4683.41
435.59	4657.67
435.78	4585.11
435.97	4753.63
436.16	4610.86
436.34	4650.64
436.53	4755.97
436.72	4678.73
436.90	4711.50
437.09	4793.42
437.28	4685.75
437.46	4781.71
437.65	4741.93
437.84	4788.74
438.02	4908.10
438.21	4814.48
438.40	4620.22
438.58	4690.43
438.77	4994.70
438.96	4990.02
439.14	5090.67
439.33	5034.49
439.52	5186.63
439.70	5165.56
439.89	5123.43
440.08	5282.59
440.26	5132.79
440.45	5172.58
440.63	5369.19
440.82	5544.73
441.01	5383.23
441.19	5352.81
441.38	5453.45
441.57	5575.16
441.75	5394.93
441.94	5713.25
442.12	5612.60
442.31	5713.25
442.50	5701.54
442.68	5809.21
442.87	5767.08
443.05	5916.87
443.24	5970.71
443.43	5914.53
443.61	5872.40
443.80	6129.86
443.98	5874.74
444.17	5769.42
444.35	5760.06
444.54	5970.71
444.73	5891.13
444.91	5867.72
445.10	5921.56
445.28	5760.06
445.47	5715.59
445.65	5804.53
445.84	5973.05
446.02	6043.26
446.21	5991.77
446.39	6040.92
446.58	6024.54
446.77	6258.59
446.95	5980.07
447.14	6080.71
447.32	6179.01
447.51	6045.60
447.69	6008.16
447.88	6115.82
448.06	5858.36
448.25	6050.28
448.43	6108.80
448.62	6054.97
448.80	6111.14
448.99	6108.80
449.17	6230.51
449.36	6317.11
449.54	6331.15
449.73	6497.33
449.91	6548.82
450.10	6476.26
450.28	6429.45
450.46	6424.77
450.65	6509.03
450.83	6567.54
451.02	6502.01
451.20	6530.09
451.39	6644.78
451.57	6480.94
451.76	6455.20
451.94	6534.78
452.13	6523.07
452.31	6689.25
452.49	6473.92
452.68	6593.29
452.86	6485.62
453.05	6745.42
453.23	6635.42
453.42	6630.74
453.60	6644.78
453.78	6703.29
453.97	6663.51
454.15	6754.79
454.34	6829.68
454.52	6909.26
454.70	6937.35
454.89	6754.79
455.07	7056.72
455.26	7047.35
455.44	7169.06
455.62	7028.63
455.81	7094.16
455.99	7030.97
456.17	6993.52
456.36	7250.98
456.54	7178.42
456.73	7194.81
456.91	7468.65
457.09	7454.61
457.28	7377.37
457.46	7229.91
457.64	7227.57
457.83	7309.49
458.01	7377.37
458.19	7653.55
458.38	7433.54
458.56	7583.34
458.74	7506.10
458.93	7658.23
459.11	7630.15
459.29	7602.06
459.48	7604.40
459.66	7534.18
459.84	7737.81
460.03	7829.09
460.21	7765.90
460.39	7742.49
460.57	7941.44
460.76	7911.01
460.94	7918.03
461.12	7756.54
461.31	7908.67
461.49	7772.92
461.67	7976.55
461.85	8093.57
462.04	8154.43
462.22	8229.32
462.40	7990.59
462.59	8037.40
462.77	8163.79
462.95	8180.17
463.13	8334.65
463.32	8262.09
463.50	8152.09
463.68	8046.76
463.86	8446.99
464.05	8039.74
464.23	8255.07
464.41	8311.24
464.59	8219.96
464.78	8395.50
464.96	8379.12
465.14	8283.16
465.32	8549.98
465.50	8486.78
465.69	8369.76
465.87	8503.17
466.05	8439.97
466.23	8451.67
466.41	8521.89
466.60	8627.21
466.78	8355.71
466.96	8582.74
467.14	8566.36
467.32	8587.43
467.51	8627.21
467.69	8549.98
467.87	8503.17
468.05	8805.10
468.23	8833.18
468.41	8578.06
468.60	8552.32
468.78	8919.78
468.96	8816.80
469.14	8959.57
469.32	9034.47
469.50	8706.79
469.69	8933.82
469.87	9123.41
470.05	8959.57
470.23	9116.39
470.41	9057.87
470.59	9121.07
470.77	9006.38
470.95	9125.75
471.14	9336.40
471.32	9144.47
471.50	9418.32
471.68	9418.32
471.86	9439.38
472.04	9474.49
472.22	9774.08
472.40	9317.67
472.58	9458.10
472.77	9614.92
472.95	9720.24
473.13	9907.49
473.31	9493.21
473.49	9643.01
473.67	9650.03
473.85	9776.42
474.03	10188.35
474.21	10036.22
474.39	10193.03
474.57	10228.14
474.75	10174.31
474.93	10253.89
475.12	10216.44
475.30	10197.71
475.48	10146.22
475.66	10375.59
475.84	10345.17
476.02	10279.63
476.20	10532.41
476.38	10700.93
476.56	11059.03
476.74	10724.33
476.92	11082.44
477.10	10848.38
477.28	11089.46
477.46	11019.24
477.64	11140.95
477.82	11154.99
478.00	11716.72
478.18	11227.55
478.36	11700.34
478.54	11609.06
478.72	11791.62
478.90	11868.86
479.08	12121.63
479.26	12131.00
479.44	12306.54
479.62	12287.81
479.80	12353.35
479.98	12348.67
480.16	12451.65
480.34	12266.75
480.52	12561.66
480.70	12706.77
480.88	12629.53
481.06	12849.54
481.24	12727.83
481.41	12954.87
481.59	13151.47
481.77	13586.81
481.95	13380.84
482.13	13151.47
482.31	13362.12
482.49	13701.50
482.67	13764.69
482.85	13930.87
483.03	14087.68
483.21	14073.64
483.39	14193.01
483.57	14139.18
483.74	14113.43
483.92	14483.24
484.10	14352.16
484.28	14700.90
484.46	14850.70
484.64	14934.96
484.82	14611.96
485.00	14941.98
485.18	15510.73
485.35	15470.94
485.53	14967.73
485.71	15140.93
485.89	15398.38
486.07	15272.00
486.25	15594.99
486.43	15742.44
486.61	15829.04
486.78	16025.65
486.96	16196.51
487.14	16489.07
487.32	16367.37
487.50	16512.48
487.68	16531.20
487.85	16903.35
488.03	17032.08
488.21	17284.86
488.39	17121.02
488.57	17277.83
488.75	17270.81
488.92	17680.41
489.10	17776.37
489.28	18167.24
489.46	18176.60
489.64	18504.28
489.81	18558.11
489.99	18684.50
490.17	18633.00
490.35	18824.93
490.53	18696.20
490.70	18944.30
490.88	19051.96
491.06	19215.80
491.24	18874.08
491.41	19379.64
491.59	19571.56
491.77	19651.14
491.95	19463.90
492.13	19812.63
492.30	19754.12
492.48	20184.78
492.66	20067.75
492.84	20355.64
493.01	20470.33
493.19	20280.74
493.37	20727.78
493.54	20680.97
493.72	21043.76
493.90	21221.64
494.08	21195.89
494.25	21490.80
494.43	21181.85
494.61	21532.93
494.79	21553.99
494.96	21673.36
495.14	21570.38
495.32	21979.97
495.49	21954.22
495.67	21900.39
495.85	22450.42
496.02	22635.32
496.20	22794.48
496.38	22829.59
496.55	22955.97
496.73	23037.89
496.91	23061.30
497.09	22944.27
497.26	23360.89
497.44	23122.15
497.62	23445.15
497.79	23779.84
497.97	23428.76
498.14	23480.25
498.32	24116.88
498.50	23880.49
498.67	24456.26
498.85	24231.57
499.03	24622.44
499.20	24493.71
499.38	24505.41
499.56	24173.05
499.73	24641.16
499.91	24751.17
500.08	24800.32
500.26	24662.22
500.44	24507.75
500.61	24889.26
500.79	24690.31
500.97	24929.05
501.14	25106.93
501.32	25392.47
501.49	25123.31
501.67	25291.83
501.84	25415.88
502.02	25523.54
502.20	25568.01
502.37	26033.78
502.55	26010.37
502.72	26038.46
502.90	26141.44
503.07	26125.06
503.25	26527.63
503.43	26214.00
503.60	26246.77
503.78	26501.89
503.95	26340.39
504.13	26497.20
504.30	26623.59
504.48	26661.04
504.65	26981.70
504.83	27342.14
505.01	27300.01
505.18	27019.14
505.36	27573.85
505.53	27288.31
505.71	27239.15
505.88	27517.68
506.06	27206.39
506.23	27672.15
506.41	27522.36
506.58	27810.25
506.76	27697.90
506.93	27995.15
507.11	28056.00
507.28	28013.87
507.46	27969.40
507.63	28091.11
507.81	28070.04
507.98	28311.12
508.16	28208.14
508.33	28540.49
508.50	28889.23
508.68	28933.70
508.85	28978.17
509.03	29001.58
509.20	29401.81
509.38	29153.71
509.55	29345.64
509.73	29233.29
509.90	29270.74
510.08	29113.92
510.25	29378.40
510.42	29219.25
510.60	29867.58
510.77	30031.41
510.95	30139.08
511.12	30122.69
511.30	30036.09
511.47	30031.41
511.64	30225.68
511.82	30635.27
511.99	30089.93
512.17	30368.45
512.34	30286.53
512.51	30373.13
512.69	31087.00
512.86	30881.03
513.04	30859.96
513.21	30988.69
513.38	30792.09
513.56	30892.73
513.73	30871.67
513.90	31012.10
514.08	30824.86
514.25	31072.95
514.43	30649.32
514.60	31065.93
514.77	31323.39
514.95	31255.51
515.12	31632.34
515.29	31653.40
515.47	31660.43
515.64	32233.86
515.81	31714.26
515.99	31555.10
516.16	32173.00
516.33	31952.99
516.51	31784.48
516.68	31573.83
516.85	31501.27
517.03	32081.72
517.20	32292.37
517.37	32570.90
517.54	32779.20
517.72	32587.28
517.89	32531.11
518.06	32247.90
518.24	32112.15
518.41	32332.16
518.58	32725.37
518.75	32811.97
518.93	33006.23
519.10	33067.09
519.27	32924.32
519.45	32926.66
519.62	33116.24
519.79	33626.48
519.96	33364.34
520.14	33727.12
520.31	33415.83
520.48	33956.49
520.65	33666.27
520.83	33905.00
521.00	33970.54
521.17	33986.92
521.34	34326.30
521.52	33741.16
521.69	34202.25
521.86	34110.97
522.03	34302.89
522.20	34466.73
522.38	34120.33
522.55	34707.80
522.72	34333.32
522.89	34494.82
523.07	34742.91
523.24	34616.52
523.41	34948.88
523.58	34789.72
523.75	35028.46
523.92	35243.79
524.10	35068.25
524.27	35267.19
524.44	35615.93
524.61	35129.10
524.78	35737.64
524.96	35150.17
525.13	35629.98
525.30	35522.31
525.47	36070.00
525.64	35573.80
525.81	35541.03
525.98	35920.20
526.16	35871.05
526.33	35065.91
526.50	35634.66
526.67	35330.39
526.84	35634.66
527.01	35557.42
527.18	35627.63
527.36	36287.67
527.53	36334.48
527.70	36458.52
527.87	36297.03
528.04	36287.67
528.21	36156.60
528.38	36613.00
528.55	36463.21
528.72	36690.24
528.89	37078.77
529.07	36364.90
529.24	36629.38
529.41	36694.92
529.58	36613.00
529.75	36898.55
529.92	37095.15
530.09	36814.29
530.26	37305.80
530.43	37146.64
530.60	37226.22
530.77	37041.32
530.94	36989.83
531.11	37404.10
531.28	37427.51
531.46	37282.39
531.63	37593.68
531.80	37034.30
531.97	37338.57
532.14	37673.26
532.31	37170.05
532.48	37598.37
532.65	37453.25
532.82	37963.49
532.99	37968.17
533.16	37703.69
533.33	37635.81
533.50	38323.93
533.67	37825.40
533.84	38129.67
534.01	38335.63
534.18	37694.33
534.35	38122.65
534.52	38178.82
534.69	38124.99
534.86	38541.60
535.03	38342.66
535.20	38712.46
535.37	38565.01
535.54	38834.17
535.71	38377.76
535.88	38789.70
536.05	38410.53
536.22	39061.20
536.38	38653.95
536.55	38925.45
536.72	38822.47
536.89	38239.67
537.06	38965.24
537.23	38946.51
537.40	39210.99
537.57	39035.45
537.74	39339.72
537.91	39210.99
538.08	39051.84
538.25	38700.76
538.42	38740.55
538.59	39512.92
538.75	38742.89
538.92	39026.09
539.09	39505.90
539.26	39510.58
539.43	39033.11
539.60	39274.19
539.77	39473.13
539.94	39541.01
540.11	38958.22
540.28	39250.78
540.44	39585.48
540.61	39416.96
540.78	40072.31
540.95	38782.68
541.12	39627.61
541.29	39695.49
541.46	39433.35
541.62	40367.22
541.79	39590.16
541.96	39688.46
542.13	39997.41
542.30	39875.71
542.47	40088.70
542.63	40364.88
542.80	40133.17
542.97	40348.50
543.14	40912.56
543.31	40177.64
543.48	40659.79
543.64	41116.19
543.81	40847.03
543.98	40425.73
544.15	40933.63
544.32	41256.62
544.48	41146.62
544.65	40765.11
544.82	40718.30
544.99	40954.69
545.16	40879.80
545.32	40708.94
545.49	41647.49
545.66	41397.06
545.83	41167.68
546.00	41308.11
546.16	41256.62
546.33	41181.73
546.50	40999.16
546.67	41375.99
546.83	40804.90
547.00	41844.10
547.17	41413.44
547.34	41591.32
547.50	41446.21
547.67	41233.22
547.84	41528.13
548.00	41514.08
548.17	41890.91
548.34	41530.47
548.51	42239.65
548.67	41855.80
548.84	41996.23
549.01	41670.90
549.18	41530.47
549.34	41837.08
549.51	42117.94
549.68	42384.76
549.84	42050.06
550.01	42113.26
550.18	41874.52
550.34	42099.22
550.51	42164.75
550.68	41989.21
550.84	41851.12
551.01	42136.66
551.18	42073.47
551.34	42244.33
551.51	42146.03
551.68	42337.95
551.84	42387.10
552.01	42452.64
552.18	42506.47
552.34	42501.79
552.51	42429.23
552.68	42234.97
552.84	42855.21
553.01	42646.90
553.18	42642.22
553.34	42618.81
553.51	42171.77
553.67	42649.24
553.84	42780.31
554.01	42682.01
554.17	42782.65
554.34	42937.13
554.51	42759.25
554.67	43063.52
554.84	43033.09
555.00	42586.05
555.17	42902.02
555.33	42586.05
555.50	42787.33
555.67	42623.50
555.83	42810.74
556.00	42845.85
556.16	43203.95
556.33	42869.25
556.50	43051.81
556.66	43304.59
556.83	42649.24
556.99	43267.14
557.16	43423.96
557.32	43599.50
557.49	43388.85
557.65	43051.81
557.82	43562.05
557.98	42976.92
558.15	43208.63
558.32	43281.19
558.48	42939.47
558.65	43325.66
558.81	43325.66
558.98	43353.74
559.14	43562.05
559.31	43054.15
559.47	43594.82
559.64	43995.05
559.80	43749.29
559.97	43641.63
560.13	43257.78
560.30	43313.95
560.46	43562.05
560.63	43917.81
560.79	43723.55
560.96	43854.62
561.12	43735.25
561.29	43447.36
561.45	43988.03
561.61	43749.29
561.78	43854.62
561.94	43423.96
562.11	43775.04
562.27	43709.50
562.44	44170.59
562.60	44186.97
562.77	44023.14
562.93	43648.65
563.10	44095.69
563.26	43920.15
563.42	43665.03
563.59	43952.92
563.75	43768.02
563.92	44046.54
564.08	43793.76
564.24	43936.54
564.41	44107.40
564.57	44095.69
564.74	43840.57
564.90	43672.06
565.07	43707.16
565.23	43742.27
565.39	43765.68
565.56	44051.22
565.72	44009.09
565.88	44107.40
566.05	43873.34
566.21	44046.54
566.38	43917.81
566.54	44189.31
566.70	44556.78
566.87	44425.71
567.03	44268.89
567.19	44552.10
567.36	44594.23
567.52	43988.03
567.68	44112.08
567.85	44252.51
568.01	44271.23
568.17	43901.43
568.34	44392.94
568.50	44172.93
568.66	43835.89
568.83	44296.98
568.99	44081.65
569.15	44252.51
569.32	44210.38
569.48	43992.71
569.64	44612.95
569.81	44428.05
569.97	43964.62
570.13	44575.50
570.30	43985.69
570.46	43402.89
570.62	44135.48
570.78	44032.50
570.95	44107.40
571.11	44273.57
571.27	44662.10
571.43	43765.68
571.60	44243.15
571.76	44282.94
571.92	44519.33
572.09	44186.97
572.25	44282.94
572.41	44208.04
572.57	44460.82
572.74	44575.50
572.90	44704.23
573.06	44603.59
573.22	44507.63
573.38	44109.74
573.55	44428.05
573.71	44493.58
573.87	44397.62
574.03	44383.58
574.20	44676.15
574.36	44404.64
574.52	44458.48
574.68	44353.15
574.84	44334.43
575.01	44182.29
575.17	44392.94
575.33	44240.81
575.49	44147.18
575.65	44577.84
575.82	44280.60
575.98	44662.10
576.14	45081.06
576.30	44959.35
576.46	44341.45
576.62	44720.62
576.79	44577.84
576.95	44507.63
577.11	44493.58
577.27	44652.74
577.43	44713.59
577.59	44502.95
577.75	44458.48
577.92	43959.94
578.08	44051.22
578.24	44519.33
578.40	44488.90
578.56	44629.34
578.72	44243.15
578.88	44533.37
579.04	44308.68
579.21	44732.32
579.37	44582.52
579.53	44524.01
579.69	44135.48
579.85	44458.48
580.01	44296.98
580.17	44816.58
580.33	44559.12
580.49	44495.92
580.65	44879.77
580.82	44877.43
580.98	44144.84
581.14	44722.96
581.30	44872.75
581.46	44856.37
581.62	44802.53
581.78	44584.86
581.94	45195.74
582.10	44381.24
582.26	44507.63
582.42	44491.24
582.58	44418.69
582.74	44123.78
582.90	44350.81
583.06	44856.37
583.22	44732.32
583.38	44460.82
583.54	44921.90
583.70	44809.56
583.86	44563.80
584.02	44369.54
584.18	44919.56
584.34	44856.37
584.50	44587.21
584.66	44545.08
584.82	44659.76
584.98	45003.82
585.14	44512.31
585.30	44704.23
585.46	44807.22
585.62	44320.38
585.78	44631.68
585.94	44318.04
586.10	44751.04
586.26	45067.02
586.42	44727.64
586.58	44470.18
586.74	44493.58
586.90	44652.74
587.06	44652.74
587.22	44715.93
587.38	44755.72
587.54	44463.16
587.70	44540.39
587.86	44470.18
588.02	44893.82
588.18	44828.28
588.34	44545.08
588.49	44266.55
588.65	44137.82
588.81	44327.41
588.97	44641.04
589.13	44732.32
589.29	44519.33
589.45	44933.60
589.61	44949.99
589.77	44678.49
589.93	44830.62
590.08	45027.23
590.24	45038.93
