SpectraSuite Data File
++++++++++++++++++++++++++++++++++++
Date: Fri Oct 25 11:22:54 EDT 2013
User: price-jones
Dark Spectrum Present: No
Reference Spectrum Present: No
Number of Sampled Component Spectra: 1
Spectrometers: USB2+H05261
Integration Time (usec): 100000 (USB2+H05261)
Spectra Averaged: 1 (USB2+H05261)
Boxcar Smoothing: 0 (USB2+H05261)
Correct for Electrical Dark: No (USB2+H05261)
Strobe/Lamp Enabled: No (USB2+H05261)
Correct for Detector Non-linearity: No (USB2+H05261)
Correct for Stray Light: No (USB2+H05261)
Number of Pixels in Processed Spectrum: 2048
>>>>>Begin Processed Spectral Data<<<<<
365.73	241.08
365.92	241.08
366.12	241.08
366.32	135.75
366.52	133.41
366.72	126.39
366.91	163.84
367.11	161.50
367.31	105.32
367.51	65.54
367.70	84.26
367.90	173.20
368.10	88.94
368.30	79.58
368.49	110.01
368.69	121.71
368.89	105.32
369.09	100.64
369.28	79.58
369.48	163.84
369.68	196.60
369.87	170.86
370.07	208.31
370.27	236.39
370.47	322.99
370.66	535.98
370.86	606.20
371.06	718.54
371.25	624.92
371.45	692.80
371.65	727.91
371.84	697.48
372.04	678.76
372.24	699.82
372.44	739.61
372.63	739.61
372.83	692.80
373.03	753.65
373.22	816.85
373.42	681.10
373.62	802.80
373.81	767.70
374.01	777.06
374.21	748.97
374.40	763.01
374.60	896.43
374.79	767.70
374.99	798.12
375.19	802.80
375.38	781.74
375.58	901.11
375.78	856.64
375.97	894.08
376.17	889.40
376.37	940.90
376.56	880.04
376.76	826.21
376.95	819.19
377.15	877.70
377.35	898.77
377.54	880.04
377.74	945.58
377.93	877.70
378.13	917.49
378.33	873.02
378.52	903.45
378.72	1027.50
378.91	877.70
379.11	919.83
379.31	994.73
379.50	929.19
379.70	908.13
379.89	910.47
380.09	940.90
380.28	971.32
380.48	910.47
380.68	929.19
380.87	992.39
381.07	1029.84
381.26	1029.84
381.46	994.73
381.65	1001.75
381.85	1111.75
382.04	1036.86
382.24	1041.54
382.43	1088.35
382.63	1090.69
382.83	1032.18
383.02	1090.69
383.22	1100.05
383.41	1132.82
383.61	1118.78
383.80	1114.10
384.00	1177.29
384.19	1125.80
384.39	1205.38
384.58	1053.24
384.78	1090.69
384.97	1188.99
385.17	1139.84
385.36	1109.41
385.56	1095.37
385.75	1212.40
385.95	1217.08
386.14	1205.38
386.34	1179.63
386.53	1247.51
386.72	1228.78
386.92	1217.08
387.11	1188.99
387.31	1280.27
387.50	1252.19
387.70	1299.00
387.89	1240.48
388.09	1235.80
388.28	1277.93
388.48	1235.80
388.67	1355.17
388.86	1254.53
389.06	1320.06
389.25	1406.66
389.45	1291.98
389.64	1355.17
389.84	1345.81
390.03	1348.15
390.22	1378.58
390.42	1352.83
390.61	1343.47
390.81	1383.26
391.00	1392.62
391.19	1430.07
391.39	1500.28
391.58	1507.30
391.78	1437.09
391.97	1551.78
392.16	1411.34
392.36	1497.94
392.55	1540.07
392.75	1549.43
392.94	1554.12
393.13	1481.56
393.33	1528.37
393.52	1467.52
393.71	1575.18
393.91	1533.05
394.10	1647.74
394.29	1687.53
394.49	1542.41
394.68	1636.03
394.88	1746.04
395.07	1682.85
395.26	1570.50
395.46	1678.16
395.65	1710.93
395.84	1769.44
396.04	1804.55
396.23	1664.12
396.42	1757.74
396.62	1816.26
396.81	1717.95
397.00	1748.38
397.19	1816.26
397.39	1877.11
397.58	1813.92
397.77	1724.97
397.97	1923.92
398.16	1818.60
398.35	1884.13
398.55	1895.83
398.74	1870.09
398.93	2008.18
399.12	1877.11
399.32	1949.67
399.51	1956.69
399.70	1984.77
399.90	1888.81
400.09	1991.80
400.28	1980.09
400.47	2078.40
400.67	2022.22
400.86	2225.85
401.05	2104.14
401.24	2169.68
401.44	2141.59
401.63	2172.02
401.82	2157.97
402.01	2190.74
402.21	2190.74
402.40	2263.30
402.59	2174.36
402.78	2211.81
402.97	2207.13
403.17	2260.96
403.36	2188.40
403.55	2221.17
403.74	2263.30
403.93	2223.51
404.13	2410.75
404.32	2314.79
404.51	2342.88
404.70	2478.63
404.89	2382.67
405.09	2448.20
405.28	2448.20
405.47	2492.67
405.66	2478.63
405.85	2417.77
406.05	2490.33
406.24	2633.10
406.43	2590.97
406.62	2651.83
406.81	2700.98
407.00	2633.10
407.20	2747.79
407.39	2583.95
407.58	2682.25
407.77	2764.17
407.96	2820.35
408.15	2745.45
408.34	2794.60
408.54	2764.17
408.73	2801.62
408.92	2822.69
409.11	2759.49
409.30	2897.58
409.49	2958.44
409.68	3035.67
409.87	2881.20
410.07	3023.97
410.26	3112.91
410.45	3000.57
410.64	2970.14
410.83	2993.55
411.02	3155.04
411.21	3183.13
411.40	3173.77
411.59	3220.58
411.78	3241.64
411.98	3215.90
412.17	3229.94
412.36	3295.47
412.55	3361.01
412.74	3419.52
412.93	3463.99
413.12	3456.97
413.31	3529.53
413.50	3566.98
413.69	3644.21
413.88	3702.73
414.07	3510.80
414.26	3644.21
414.45	3681.66
414.64	3578.68
414.83	3684.00
415.02	3808.05
415.22	3918.06
415.41	3873.59
415.60	3836.14
415.79	3985.93
415.98	3894.65
416.17	3995.29
416.36	3985.93
416.55	4046.79
416.74	4053.81
416.93	4161.47
417.12	4219.99
417.31	4152.11
417.50	4250.41
417.69	4390.84
417.88	4311.27
418.07	4184.88
418.26	4276.16
418.45	4493.83
418.64	4503.19
418.83	4351.06
419.02	4416.59
419.21	4432.97
419.39	4514.89
419.58	4664.69
419.77	4627.24
419.96	4533.62
420.15	4641.28
420.34	4671.71
420.53	4662.35
420.72	4765.33
420.91	4727.88
421.10	4802.78
421.29	4966.62
421.48	4683.41
421.67	4910.44
421.86	4753.63
422.05	4828.53
422.24	4837.89
422.43	4837.89
422.61	5104.71
422.80	5083.64
422.99	4870.65
423.18	4760.65
423.37	4966.62
423.56	4896.40
423.75	4961.94
423.94	4917.47
424.13	4615.54
424.32	4851.93
424.50	5097.69
424.69	5305.99
424.88	5165.56
425.07	4903.42
425.26	4901.08
425.45	5043.85
425.64	4945.55
425.83	5053.22
426.01	5247.48
426.20	5107.05
426.39	5160.88
426.58	5125.77
426.77	5111.73
426.96	5027.47
427.15	5029.81
427.33	5399.62
427.52	5259.18
427.71	5380.89
427.90	5170.24
428.09	5336.42
428.28	5284.93
428.46	5385.57
428.65	5476.85
428.84	5666.44
429.03	5535.37
429.22	5418.34
429.40	5591.54
429.59	5540.05
429.78	5298.97
429.97	5205.35
430.16	5507.28
430.34	5640.69
430.53	5729.63
430.72	5724.95
430.91	5617.29
431.10	5626.65
431.28	5818.57
431.47	5809.21
431.66	6003.47
431.85	5774.10
432.03	5872.40
432.22	6026.88
432.41	5799.85
432.60	6019.86
432.79	6050.28
432.97	6071.35
433.16	5963.68
433.35	6076.03
433.54	6272.64
433.72	6197.74
433.91	6286.68
434.10	6272.64
434.28	6179.01
434.47	6193.06
434.66	6127.52
434.85	6197.74
435.03	6307.74
435.22	6448.18
435.41	6485.62
435.59	6349.87
435.78	6394.34
435.97	6459.88
436.16	6518.39
436.34	6375.62
436.53	6539.46
436.72	6733.72
436.90	6438.81
437.09	6497.33
437.28	6722.02
437.46	6778.19
437.65	6693.93
437.84	6960.75
438.02	6724.36
438.21	6778.19
438.40	6902.24
438.58	7164.38
438.77	7162.04
438.96	7117.57
439.14	7056.72
439.33	7309.49
439.52	7232.26
439.70	7405.46
439.89	7447.58
440.08	7229.91
440.26	7431.20
440.45	7595.04
440.63	7562.27
440.82	7660.57
441.01	7522.48
441.19	7494.40
441.38	7707.38
441.57	7676.96
441.75	7784.62
441.94	8006.97
442.12	8166.13
442.31	8046.76
442.50	8100.59
442.68	8006.97
442.87	8070.17
443.05	8081.87
443.24	8187.19
443.43	8177.83
443.61	8257.41
443.80	8418.91
443.98	8124.00
444.17	7873.56
444.35	8397.84
444.54	8545.30
444.73	8201.24
444.91	8362.73
445.10	8435.29
445.28	8327.63
445.47	8329.97
445.65	8224.64
445.84	8578.06
446.02	8362.73
446.21	8475.08
446.39	8444.65
446.58	8517.21
446.77	8699.77
446.95	8255.07
447.14	8599.13
447.32	8863.61
447.51	8575.72
447.69	8540.61
447.88	8514.87
448.06	8418.91
448.25	8617.85
448.43	8748.92
448.62	8519.55
448.80	8638.92
448.99	8643.60
449.17	8648.28
449.36	8769.99
449.54	8961.91
449.73	9174.90
449.91	9048.51
450.10	8992.34
450.28	9177.24
450.46	9104.68
450.65	9123.41
450.83	9123.41
451.02	8997.02
451.20	9179.58
451.39	9247.46
451.57	9380.87
451.76	9172.56
451.94	9348.10
452.13	9476.83
452.31	9633.64
452.49	9252.14
452.68	9441.72
452.86	9446.40
453.05	9537.68
453.23	9542.36
453.42	9317.67
453.60	9460.45
453.78	9645.35
453.97	9427.68
454.15	9537.68
454.34	9537.68
454.52	9830.25
454.70	9673.43
454.89	9799.82
455.07	9788.12
455.26	9771.74
455.44	10134.52
455.62	10115.80
455.81	10001.11
455.99	10071.33
456.17	10354.53
456.36	10033.88
456.54	10242.18
456.73	10270.27
456.91	10560.50
457.09	10506.66
457.28	10593.26
457.46	10410.70
457.64	10736.04
457.83	10651.78
458.01	10436.45
458.19	10745.40
458.38	10635.39
458.56	10675.18
458.74	10824.98
458.93	10647.10
459.11	10850.72
459.29	10984.13
459.48	10974.77
459.66	10925.62
459.84	10986.47
460.03	10883.49
460.21	11037.97
460.39	10956.05
460.57	11082.44
460.76	11269.68
460.94	11136.27
461.12	11197.12
461.31	11246.27
461.49	11016.90
461.67	11541.18
461.85	11559.91
462.04	11473.31
462.22	11920.35
462.40	11662.89
462.59	11672.25
462.77	11559.91
462.95	11803.32
463.13	11742.47
463.32	11887.58
463.50	11873.54
463.68	11854.81
463.86	12140.36
464.05	11854.81
464.23	11838.43
464.41	11967.16
464.59	11454.58
464.78	12189.51
464.96	12004.61
465.14	12142.70
465.32	12161.42
465.50	12028.01
465.69	12304.20
465.87	12311.22
466.05	12301.86
466.23	12325.26
466.41	12383.77
466.60	12458.67
466.78	12393.14
466.96	12430.59
467.14	12559.31
467.32	12510.16
467.51	12608.47
467.69	12208.23
467.87	12535.91
468.05	12695.07
468.23	12273.77
468.41	12503.14
468.60	12418.88
468.78	12894.01
468.96	12753.58
469.14	12896.35
469.32	12971.25
469.50	12671.66
469.69	13118.70
469.87	13266.16
470.05	13107.00
470.23	13193.60
470.41	13156.15
470.59	13497.87
470.77	13179.56
470.95	13209.98
471.14	13607.87
471.32	13343.39
471.50	13540.00
471.68	13628.94
471.86	13956.61
472.04	13980.02
472.22	14045.55
472.40	13703.84
472.58	14150.88
472.77	14148.54
472.95	14036.19
473.13	14579.20
473.31	14260.88
473.49	14420.04
473.67	14078.32
473.85	14448.13
474.03	14511.32
474.21	14485.58
474.39	14923.26
474.57	14970.07
474.75	15080.07
474.93	14913.89
475.12	14733.67
475.30	15307.10
475.48	15330.51
475.66	15290.72
475.84	15150.29
476.02	15421.79
476.20	15499.03
476.38	15681.59
476.56	15978.84
476.74	16006.92
476.92	15976.50
477.10	15978.84
477.28	16100.55
477.46	16142.67
477.64	16236.30
477.82	16627.17
478.00	16879.94
478.18	16781.64
478.36	17053.14
478.54	17228.68
478.72	17467.42
478.90	17804.46
479.08	17593.81
479.26	17689.77
479.44	17633.60
479.62	18064.25
479.80	18178.94
479.98	18457.46
480.16	18778.12
480.34	18335.76
480.52	18995.79
480.70	18581.51
480.88	18347.46
481.06	18930.25
481.24	18946.64
481.41	19236.86
481.59	19630.07
481.77	19693.27
481.95	19529.43
482.13	19983.49
482.31	19903.92
482.49	20439.90
482.67	20400.11
482.85	20781.62
483.03	20973.54
483.21	21186.53
483.39	21238.02
483.57	20975.88
483.74	21207.59
483.92	21745.92
484.10	21460.37
484.28	21727.19
484.46	22026.78
484.64	22548.72
484.82	22281.90
485.00	22499.57
485.18	23075.34
485.35	23089.38
485.53	23028.53
485.71	23321.10
485.89	23470.89
486.07	23419.40
486.25	23646.43
486.43	23836.02
486.61	24460.94
486.78	24442.21
486.96	24229.23
487.14	24882.24
487.32	24971.18
487.50	24594.35
487.68	25333.96
487.85	25373.75
488.03	25624.18
488.21	26167.19
488.39	26377.84
488.57	26295.92
488.75	26740.62
488.92	26630.62
489.10	27077.66
489.28	26803.82
489.46	27545.76
489.64	27342.14
489.81	27709.60
489.99	27733.01
490.17	27950.68
490.35	28196.43
490.53	28723.05
490.70	28645.82
490.88	28992.22
491.06	29024.98
491.24	29032.00
491.41	29532.88
491.59	29689.70
491.77	29582.03
491.95	29565.65
492.13	30279.51
492.30	30239.72
492.48	29972.90
492.66	30471.43
492.84	30616.55
493.01	31302.32
493.19	30984.01
493.37	31161.89
493.54	31309.35
493.72	31847.67
493.90	31601.91
494.08	31854.69
494.25	32266.63
494.43	31873.42
494.61	32542.81
494.79	32985.17
494.96	32758.14
495.14	33287.10
495.32	33806.70
495.49	33539.88
495.67	33619.46
495.85	33706.05
496.02	34019.69
496.20	34295.87
496.38	34579.07
496.55	34527.58
496.73	34820.15
496.91	34305.23
497.09	34976.97
497.26	35461.46
497.44	35166.55
497.62	35255.49
497.79	36203.41
497.97	35522.31
498.14	36320.43
498.32	36613.00
498.50	36643.43
498.67	36872.80
498.85	36524.06
499.03	37415.80
499.20	36786.20
499.38	37050.68
499.56	37368.99
499.73	36973.44
499.91	37853.48
500.08	37682.62
500.26	37546.87
500.44	37607.73
500.61	38263.08
500.79	37979.87
500.97	38244.35
501.14	38532.24
501.32	39267.17
501.49	39180.57
501.67	39014.39
501.84	39189.93
502.02	38941.83
502.20	39365.47
502.37	39515.26
502.55	39613.57
502.72	39840.60
502.90	39585.48
503.07	39533.99
503.25	40098.06
503.43	40025.50
503.60	40570.85
503.78	40458.50
503.95	40467.86
504.13	40720.64
504.30	40966.40
504.48	40573.19
504.65	40783.83
504.83	41123.21
505.01	41752.82
505.18	41457.91
505.36	41729.41
505.53	41755.16
505.71	42052.41
505.88	42101.56
506.06	41897.93
506.23	42211.56
506.41	41879.21
506.58	42632.86
506.76	42422.21
506.93	42733.50
507.11	42466.68
507.28	43005.00
507.46	43302.25
507.63	42913.72
507.81	43292.89
507.98	43143.09
508.16	43503.54
508.33	43548.01
508.50	44170.59
508.68	43992.71
508.85	44252.51
509.03	43866.32
509.20	44514.65
509.38	44809.56
509.55	44545.08
509.73	44856.37
509.90	44807.22
510.08	44828.28
510.25	44863.39
510.42	45324.47
510.60	45343.20
510.77	45111.49
510.95	45492.99
511.12	45408.73
511.30	45202.77
511.47	45762.15
511.64	46033.66
511.82	46174.09
511.99	46113.23
512.17	46789.65
512.34	46176.43
512.51	46483.04
512.69	46504.10
512.86	46461.97
513.04	47089.24
513.21	47014.34
513.38	47360.74
513.56	47236.69
513.73	46979.23
513.90	47405.21
514.08	47079.88
514.25	47421.59
514.43	47831.19
514.60	47789.06
514.77	47498.83
514.95	48243.12
515.12	47817.14
515.29	47672.03
515.47	48105.03
515.64	48006.73
515.81	48722.93
515.99	48533.35
516.16	48926.56
516.33	48687.82
516.51	48755.70
516.68	48769.74
516.85	48619.95
517.03	48982.73
517.20	48818.89
517.37	49305.73
517.54	49090.40
517.72	49181.68
517.89	49567.87
518.06	49448.50
518.24	49523.40
518.41	49717.66
518.58	50000.86
518.75	49825.32
518.93	49769.15
519.10	49635.74
519.27	50237.26
519.45	50066.40
519.62	50209.17
519.79	50096.83
519.96	50478.33
520.14	50459.61
520.31	50375.35
520.48	50890.27
520.65	50597.70
520.83	51196.88
521.00	51004.95
521.17	50890.27
521.34	51269.43
521.52	50946.44
521.69	51304.54
521.86	51318.59
522.03	51271.78
522.20	51622.86
522.38	51791.37
522.55	51814.78
522.72	51753.93
522.89	51510.51
523.07	52128.41
523.24	51821.80
523.41	51770.31
523.58	51636.90
523.75	52430.34
523.92	52102.67
524.10	52357.78
524.27	52343.74
524.44	52378.85
524.61	52449.06
524.78	52165.86
524.96	52465.45
525.13	52690.14
525.30	53071.65
525.47	52959.30
525.64	52898.45
525.81	53036.54
525.98	53099.73
526.16	52589.50
526.33	53116.12
526.50	52954.62
526.67	53284.64
526.84	53088.03
527.01	53151.23
527.18	52952.28
527.36	53277.61
527.53	53169.95
527.70	53614.65
527.87	53518.69
528.04	53492.94
528.21	53588.91
528.38	53319.74
528.55	53841.68
528.72	53680.19
528.89	53485.92
529.07	53904.88
529.24	53724.66
529.41	54010.20
529.58	54094.46
529.75	53778.49
529.92	54176.38
530.09	53886.15
530.26	54101.48
530.43	54305.11
530.60	54183.40
530.77	54216.17
530.94	54202.13
531.11	54003.18
531.28	54251.28
531.46	54508.74
531.63	54557.89
531.80	54588.31
531.97	55004.93
532.14	54597.68
532.31	54927.69
532.48	54726.41
532.65	54733.43
532.82	54567.25
532.99	54976.84
533.16	54862.16
533.33	54930.03
533.50	55236.64
533.67	55079.83
533.84	54784.92
534.01	55327.92
534.18	55313.88
534.35	55487.08
534.52	55318.56
534.69	55384.10
534.86	55189.83
535.03	55430.91
535.20	55430.91
535.37	55494.10
535.54	55669.64
535.71	55285.79
535.88	55524.53
536.05	55840.50
536.22	55639.22
536.38	55730.50
536.55	55917.74
536.72	56048.81
536.89	55702.41
537.06	55805.39
537.23	55772.63
537.40	55945.83
537.57	55796.03
537.74	56027.74
537.91	56130.73
538.08	56240.73
538.25	55889.65
538.42	56018.38
538.59	56287.54
538.75	56222.01
538.92	56261.80
539.09	56559.05
539.26	56491.17
539.43	56474.79
539.60	56559.05
539.77	56456.06
539.94	56800.12
540.11	56505.21
540.28	56584.79
540.44	56664.37
540.61	56467.76
540.78	56722.88
540.95	56638.62
541.12	56460.74
541.29	56851.61
541.46	56788.42
541.62	56933.53
541.79	56980.34
541.96	56573.09
542.13	56523.94
542.30	57055.24
542.47	57059.92
542.63	57008.43
542.80	57120.77
542.97	57165.24
543.14	57382.91
543.31	57415.68
543.48	57322.06
543.64	57579.52
543.81	57708.25
543.98	57422.70
544.15	57694.21
544.32	57755.06
544.48	57801.87
544.65	57602.92
544.82	57605.26
544.99	57476.54
545.16	57759.74
545.32	57670.80
545.49	57872.09
545.66	57689.52
545.83	57944.64
546.00	58188.06
546.16	58035.92
546.33	57776.12
546.50	57621.65
546.67	57745.70
546.83	57551.43
547.00	58145.93
547.17	58056.99
547.34	57921.24
547.50	57989.11
547.67	58379.98
547.84	58286.36
548.00	58445.52
548.17	58543.82
548.34	58064.01
548.51	58710.00
548.67	58459.56
548.84	58375.30
549.01	58230.19
549.18	58277.00
549.34	58396.37
549.51	58646.80
549.68	58667.87
549.84	58569.57
550.01	58653.82
550.18	58557.86
550.34	58543.82
550.51	58784.90
550.68	58546.16
550.84	58569.57
551.01	58815.32
551.18	58721.70
551.34	58621.06
551.51	58618.72
551.68	58782.55
551.84	58576.59
552.01	58571.91
552.18	58897.24
552.34	58670.21
552.51	59082.14
552.68	58731.06
552.84	58941.71
553.01	59168.74
553.18	59044.69
553.34	59035.33
553.51	58866.81
553.67	58890.22
553.84	59093.85
554.01	58960.44
554.17	59243.64
554.34	59203.85
554.51	59110.23
554.67	59330.24
554.84	59377.05
555.00	59320.88
555.17	59405.14
555.33	59131.29
555.50	59274.07
555.67	59334.92
555.83	59306.83
556.00	59370.03
556.16	59611.10
556.33	59512.80
556.50	59405.14
556.66	59337.26
556.83	59306.83
556.99	59601.74
557.16	59465.99
557.32	59763.24
557.49	59590.04
557.65	59447.27
557.82	59599.40
557.98	59491.74
558.15	59517.48
558.32	59557.27
558.48	59480.03
558.65	59526.84
558.81	59742.17
558.98	59812.39
559.14	59730.47
559.31	59737.49
559.47	59866.22
559.64	59976.23
559.80	59779.62
559.97	59908.35
560.13	59945.80
560.30	59924.74
560.46	59889.63
560.63	59980.91
560.79	59894.31
560.96	59784.30
561.12	60168.15
561.29	59870.90
561.45	59931.76
561.61	59971.55
561.78	59990.27
561.94	59903.67
562.11	60055.81
562.27	60062.83
562.44	60275.82
562.60	60172.83
562.77	60250.07
562.93	60126.02
563.10	60285.18
563.26	60203.26
563.42	60402.21
563.59	60034.74
563.75	60252.41
563.92	60420.93
564.08	60144.75
564.24	60324.97
564.41	60214.96
564.57	60507.53
564.74	60418.59
564.90	60392.84
565.07	60362.42
565.23	60212.62
565.39	60266.45
565.56	60432.63
565.72	60329.65
565.88	60334.33
566.05	60371.78
566.21	60402.21
566.38	60306.24
566.54	60488.80
566.70	60402.21
566.87	60619.88
567.03	60280.50
567.19	60690.09
567.36	60495.83
567.52	60460.72
567.68	60734.56
567.85	60601.15
568.01	60601.15
568.17	60584.77
568.34	60685.41
568.50	60542.64
568.66	60523.91
568.83	60507.53
568.99	60502.85
569.15	60750.94
569.32	60769.67
569.48	60498.17
569.64	60753.29
569.81	60626.90
569.97	60647.96
570.13	60748.60
570.30	60664.35
570.46	60774.35
570.62	60814.14
570.78	60671.37
570.95	60685.41
571.11	60856.27
571.27	60552.00
571.43	60764.99
571.60	60973.30
571.76	60879.67
571.92	60739.24
572.09	60762.65
572.25	60837.54
572.41	60835.20
572.57	60680.73
572.74	60996.70
572.90	60767.33
573.06	60851.59
573.22	60975.64
573.38	60746.26
573.55	60807.12
573.71	61022.45
573.87	60823.50
574.03	60645.62
574.20	60919.46
574.36	60680.73
574.52	60900.74
574.68	60994.36
574.84	60942.87
575.01	60863.29
575.17	60835.20
575.33	60870.31
575.49	60795.42
575.65	60846.91
575.82	60982.66
575.98	60938.19
576.14	61095.00
576.30	61289.27
576.46	60940.53
576.62	60931.17
576.79	60921.80
576.95	60956.91
577.11	61116.07
577.27	60942.87
577.43	60931.17
577.59	60992.02
577.75	60966.27
577.92	60917.12
578.08	61188.63
578.24	61085.64
578.40	61207.35
578.56	61095.00
578.72	60992.02
578.88	61116.07
579.04	61357.14
579.21	61174.58
579.37	61230.75
579.53	61338.42
579.69	60963.93
579.85	60914.78
580.01	60963.93
580.17	60830.52
580.33	60963.93
580.49	61322.04
580.65	61006.06
580.82	61087.98
580.98	60795.42
581.14	60889.04
581.30	61200.33
581.46	61057.56
581.62	61118.41
581.78	60938.19
581.94	61052.87
582.10	61097.34
582.26	61076.28
582.42	61207.35
582.58	61172.24
582.74	61144.16
582.90	61132.45
583.06	61181.60
583.22	60935.85
583.38	61188.63
583.54	61158.20
583.70	61087.98
583.86	61373.53
584.02	61123.09
584.18	61279.91
584.34	61272.88
584.50	61155.86
584.66	60921.80
584.82	61041.17
584.98	61102.03
585.14	61153.52
585.30	60989.68
585.46	61062.24
585.62	61202.67
585.78	61153.52
585.94	61120.75
586.10	61221.39
586.26	61127.77
586.42	61380.55
586.58	61319.70
586.74	61366.51
586.90	61127.77
587.06	61230.75
587.22	61237.78
587.38	61179.26
587.54	61410.98
587.70	61488.21
587.86	61310.33
588.02	61286.93
588.18	61403.95
588.34	61127.77
588.49	61095.00
