SpectraSuite Data File
++++++++++++++++++++++++++++++++++++
Date: Fri Oct 25 11:22:28 EDT 2013
User: price-jones
Dark Spectrum Present: No
Reference Spectrum Present: No
Number of Sampled Component Spectra: 1
Spectrometers: USB2+H05261
Integration Time (usec): 100000 (USB2+H05261)
Spectra Averaged: 1 (USB2+H05261)
Boxcar Smoothing: 0 (USB2+H05261)
Correct for Electrical Dark: No (USB2+H05261)
Strobe/Lamp Enabled: No (USB2+H05261)
Correct for Detector Non-linearity: No (USB2+H05261)
Correct for Stray Light: No (USB2+H05261)
Number of Pixels in Processed Spectrum: 2048
>>>>>Begin Processed Spectral Data<<<<<
365.73	201.29
365.92	201.29
366.12	201.29
366.32	159.16
366.52	128.73
366.72	152.13
366.91	98.30
367.11	67.88
367.31	112.35
367.51	93.62
367.70	63.19
367.90	173.20
368.10	117.03
368.30	60.85
368.49	180.22
368.69	163.84
368.89	147.45
369.09	84.26
369.28	107.66
369.48	140.43
369.68	220.01
369.87	220.01
370.07	105.32
370.27	238.73
370.47	299.59
370.66	550.03
370.86	617.90
371.06	685.78
371.25	718.54
371.45	592.16
371.65	681.10
371.84	648.33
372.04	610.88
372.24	713.86
372.44	678.76
372.63	751.31
372.83	713.86
373.03	702.16
373.22	732.59
373.42	784.08
373.62	681.10
373.81	812.17
374.01	809.83
374.21	851.96
374.40	812.17
374.60	884.72
374.79	793.44
374.99	772.38
375.19	812.17
375.38	840.25
375.58	807.48
375.78	854.30
375.97	851.96
376.17	912.81
376.37	863.66
376.56	880.04
376.76	877.70
376.95	877.70
377.15	858.98
377.35	880.04
377.54	870.68
377.74	917.49
377.93	887.06
378.13	901.11
378.33	894.08
378.52	959.62
378.72	971.32
378.91	917.49
379.11	959.62
379.31	964.30
379.50	889.40
379.70	926.85
379.89	973.66
380.09	976.00
380.28	987.71
380.48	1057.92
380.68	983.02
380.87	1018.13
381.07	978.34
381.26	1078.99
381.46	985.37
381.65	957.28
381.85	1034.52
382.04	1001.75
382.24	1149.20
382.43	1020.47
382.63	1050.90
382.83	1018.13
383.02	1163.25
383.22	1111.75
383.41	1114.10
383.61	1107.07
383.80	1104.73
384.00	1181.97
384.19	1074.31
384.39	1137.50
384.58	1125.80
384.78	1135.16
384.97	1053.24
385.17	1078.99
385.36	1207.72
385.56	1186.65
385.75	1186.65
385.95	1165.59
386.14	1280.27
386.34	1240.48
386.53	1198.35
386.72	1315.38
386.92	1303.68
387.11	1249.85
387.31	1268.57
387.50	1299.00
387.70	1203.04
387.89	1196.01
388.09	1310.70
388.28	1301.34
388.48	1235.80
388.67	1284.95
388.86	1343.47
389.06	1345.81
389.25	1315.38
389.45	1268.57
389.64	1296.66
389.84	1481.56
390.03	1397.30
390.22	1401.98
390.42	1334.11
390.61	1359.85
390.81	1397.30
391.00	1430.07
391.19	1453.47
391.39	1406.66
391.58	1556.46
391.78	1462.83
391.97	1362.19
392.16	1493.26
392.36	1603.27
392.55	1558.80
392.75	1577.52
392.94	1565.82
393.13	1526.03
393.33	1479.22
393.52	1549.43
393.71	1617.31
393.91	1549.43
394.10	1598.59
394.29	1647.74
394.49	1528.37
394.68	1582.20
394.88	1584.54
395.07	1664.12
395.26	1607.95
395.46	1678.16
395.65	1708.59
395.84	1760.08
396.04	1802.21
396.23	1760.08
396.42	1755.40
396.62	1830.30
396.81	1748.38
397.00	1734.34
397.19	1816.26
397.39	1764.76
397.58	1874.77
397.77	1860.73
397.97	1846.68
398.16	1860.73
398.35	2022.22
398.55	1863.07
398.74	2003.50
398.93	1989.46
399.12	1970.73
399.32	1928.60
399.51	2003.50
399.70	2076.06
399.90	1989.46
400.09	2029.24
400.28	2026.90
400.47	2047.97
400.67	2127.55
400.86	2143.93
401.05	2132.23
401.24	2183.72
401.44	2160.31
401.63	2150.95
401.82	2218.83
402.01	2078.40
402.21	2186.06
402.40	2155.63
402.59	2291.38
402.78	2225.85
402.97	2228.19
403.17	2230.53
403.36	2258.62
403.55	2314.79
403.74	2328.83
403.93	2434.16
404.13	2396.71
404.32	2298.41
404.51	2345.22
404.70	2436.50
404.89	2492.67
405.09	2495.01
405.28	2595.65
405.47	2466.92
405.66	2579.27
405.85	2530.12
406.05	2595.65
406.24	2466.92
406.43	2562.89
406.62	2532.46
406.81	2593.31
407.00	2633.10
407.20	2579.27
407.39	2670.55
407.58	2708.00
407.77	2588.63
407.96	2803.96
408.15	2832.05
408.34	2771.19
408.54	2862.48
408.73	2864.82
408.92	2754.81
409.11	2965.46
409.30	2972.48
409.49	2841.41
409.68	2984.18
409.87	2904.60
410.07	2967.80
410.26	3084.83
410.45	2993.55
410.64	3178.45
410.83	3192.49
411.02	3066.10
411.21	3190.15
411.40	3208.87
411.59	3201.85
411.78	3206.53
411.98	3311.86
412.17	3295.47
412.36	3300.16
412.55	3503.78
412.74	3510.80
412.93	3407.82
413.12	3473.36
413.31	3499.10
413.50	3492.08
413.69	3541.23
413.88	3719.11
414.07	3646.55
414.26	3698.05
414.45	3660.60
414.64	3747.20
414.83	3770.60
415.02	3927.42
415.22	3936.78
415.41	3817.41
415.60	3997.64
415.79	3934.44
415.98	3957.85
416.17	3901.67
416.36	3934.44
416.55	3934.44
416.74	4016.36
416.93	4138.07
417.12	4227.01
417.31	4262.12
417.50	4154.45
417.69	4301.90
417.88	4322.97
418.07	4463.40
418.26	4346.37
418.45	4344.03
418.64	4477.44
418.83	4489.15
419.02	4381.48
419.21	4587.45
419.39	4512.55
419.58	4613.20
419.77	4596.81
419.96	4777.03
420.15	4695.11
420.34	4809.80
420.53	4664.69
420.72	4650.64
420.91	4711.50
421.10	4732.56
421.29	4702.14
421.48	4732.56
421.67	4774.69
421.86	4833.21
422.05	4856.61
422.24	4816.82
422.43	4966.62
422.61	5022.79
422.80	5055.56
422.99	4966.62
423.18	5142.16
423.37	5006.41
423.56	5048.54
423.75	5001.72
423.94	4868.31
424.13	4655.33
424.32	4833.21
424.50	5039.17
424.69	5139.82
424.88	5069.60
425.07	4863.63
425.26	5020.45
425.45	4945.55
425.64	5022.79
425.83	5088.32
426.01	5109.39
426.20	5039.17
426.39	5027.47
426.58	4931.51
426.77	5085.98
426.96	5067.26
427.15	5055.56
427.33	5177.26
427.52	5291.95
427.71	5254.50
427.90	5226.42
428.09	5390.25
428.28	5460.47
428.46	5455.79
428.65	5298.97
428.84	5507.28
429.03	5610.26
429.22	5394.93
429.40	5462.81
429.59	5657.07
429.78	5324.72
429.97	5418.34
430.16	5530.69
430.34	5710.91
430.53	5687.50
430.72	5750.70
430.91	5778.78
431.10	5643.03
431.28	5696.86
431.47	5799.85
431.66	5870.06
431.85	5921.56
432.03	5888.79
432.22	6076.03
432.41	5954.32
432.60	5921.56
432.79	6197.74
432.97	6071.35
433.16	6167.31
433.35	6122.84
433.54	6097.10
433.72	6270.30
433.91	6167.31
434.10	6277.32
434.28	6157.95
434.47	6319.45
434.66	6244.55
434.85	6455.20
435.03	6328.81
435.22	6406.05
435.41	6492.65
435.59	6525.41
435.78	6560.52
435.97	6466.90
436.16	6544.14
436.34	6534.78
436.53	6511.37
436.72	6588.61
436.90	6621.38
437.09	6604.99
437.28	6607.33
437.46	6876.49
437.65	6808.62
437.84	6656.48
438.02	6747.76
438.21	6897.56
438.40	6806.28
438.58	7056.72
438.77	7052.03
438.96	6972.46
439.14	7087.14
439.33	7267.36
439.52	7229.91
439.70	7241.62
439.89	7407.80
440.08	7529.50
440.26	7606.74
440.45	7255.66
440.63	7515.46
440.82	7667.60
441.01	7564.61
441.19	7691.00
441.38	7866.54
441.57	7805.69
441.75	8028.04
441.94	7992.93
442.12	8065.49
442.31	7999.95
442.50	8226.98
442.68	8156.77
442.87	8100.59
443.05	8229.32
443.24	8208.26
443.43	8241.03
443.61	8285.50
443.80	8627.21
443.98	8234.00
444.17	7955.48
444.35	8273.79
444.54	8234.00
444.73	8407.20
444.91	8259.75
445.10	8322.94
445.28	8468.06
445.47	8458.70
445.65	8589.77
445.84	8552.32
446.02	8697.43
446.21	8390.82
446.39	8592.11
446.58	8636.58
446.77	8482.10
446.95	8418.91
447.14	8535.93
447.32	8634.24
447.51	8463.38
447.69	8491.46
447.88	8531.25
448.06	8531.25
448.25	8739.56
448.43	8711.47
448.62	8706.79
448.80	8580.40
448.99	8805.10
449.17	8884.67
449.36	8571.04
449.54	8912.76
449.73	8950.21
449.91	8943.19
450.10	9301.29
450.28	9188.94
450.46	9172.56
450.65	9163.20
450.83	9163.20
451.02	9308.31
451.20	9266.18
451.39	9287.25
451.57	9191.28
451.76	9282.56
451.94	9439.38
452.13	9643.01
452.31	9486.19
452.49	9355.12
452.68	9376.19
452.86	9392.57
453.05	9525.98
453.23	9858.34
453.42	9493.21
453.60	9455.76
453.78	9579.81
453.97	9710.88
454.15	9504.92
454.34	9617.26
454.52	9811.53
454.70	9551.73
454.89	9806.84
455.07	9790.46
455.26	10017.49
455.44	10129.84
455.62	10001.11
455.81	10003.45
455.99	10214.10
456.17	10054.94
456.36	10230.48
456.54	10225.80
456.73	10403.68
456.91	10548.79
457.09	10492.62
457.28	10499.64
457.46	10331.12
457.64	10787.53
457.83	10574.54
458.01	10513.69
458.19	10808.59
458.38	10740.72
458.56	10930.30
458.74	10836.68
458.93	10848.38
459.11	10902.22
459.29	10771.15
459.48	10944.34
459.66	10902.22
459.84	11098.82
460.03	11236.91
460.21	11094.14
460.39	11201.80
460.57	11206.48
460.76	11248.61
460.94	11316.49
461.12	11288.40
461.31	11407.77
461.49	11159.67
461.67	11037.97
461.85	11346.92
462.04	11627.78
462.22	11587.99
462.40	11833.75
462.59	11700.34
462.77	11735.45
462.95	11810.34
463.13	11705.02
463.32	11592.67
463.50	11978.86
463.68	11946.09
463.86	11871.20
464.05	11466.28
464.23	11875.88
464.41	12053.76
464.59	11815.02
464.78	12100.57
464.96	12074.82
465.14	12210.57
465.32	12196.53
465.50	12374.41
465.69	12236.32
465.87	12325.26
466.05	12100.57
466.23	12414.20
466.41	12404.84
466.60	12552.29
466.78	12355.69
466.96	12367.39
467.14	12505.48
467.32	12383.77
467.51	12622.51
467.69	12290.15
467.87	12575.70
468.05	12695.07
468.23	12847.20
468.41	12739.54
468.60	12746.56
468.78	12823.80
468.96	12786.35
469.14	12758.26
469.32	13104.66
469.50	13062.53
469.69	13069.55
469.87	13518.93
470.05	13486.17
470.23	13317.65
470.41	13284.88
470.59	13755.33
470.77	13444.04
470.95	13369.14
471.14	13689.79
471.32	13338.71
471.50	13551.70
471.68	13621.92
471.86	13647.66
472.04	13884.06
472.22	14036.19
472.40	13820.86
472.58	14328.76
472.77	13846.61
472.95	14567.49
473.13	14534.73
473.31	14391.95
473.49	14391.95
473.67	14359.19
473.85	14546.43
474.03	14803.89
474.21	14579.20
474.39	14991.13
474.57	14682.18
474.75	14899.85
474.93	15143.27
475.12	15126.88
475.30	15447.54
475.48	15110.50
475.66	15087.09
475.84	15262.63
476.02	15590.31
476.20	15611.37
476.38	16081.82
476.56	16215.23
476.74	16547.59
476.92	15901.60
477.10	15983.52
477.28	16437.58
477.46	16325.24
477.64	16706.74
477.82	16772.28
478.00	17057.82
478.18	16699.72
478.36	17219.32
478.54	17303.58
478.72	17441.67
478.90	17579.76
479.08	17734.24
479.26	17940.21
479.44	17675.73
479.62	18090.00
479.80	18263.20
479.98	18590.88
480.16	18850.67
480.34	18696.20
480.52	18874.08
480.70	18761.73
480.88	18623.64
481.06	18661.09
481.24	19126.86
481.41	19131.54
481.59	19555.18
481.77	19531.77
481.95	19775.19
482.13	19878.17
482.31	19852.42
482.49	20360.32
482.67	20650.55
482.85	20947.79
483.03	20833.11
483.21	21394.84
483.39	21032.05
483.57	21034.39
483.74	21291.85
483.92	21289.51
484.10	21582.08
484.28	21881.67
484.46	22218.71
484.64	22352.12
484.82	22190.62
485.00	22820.22
485.18	23241.52
485.35	23281.31
485.53	23040.23
485.71	23058.96
485.89	23896.87
486.07	23690.90
486.25	23749.42
486.43	23943.68
486.61	24400.08
486.78	24130.92
486.96	24634.14
487.14	24826.06
487.32	24748.82
487.50	25268.42
487.68	25514.18
487.85	25560.99
488.03	25853.56
488.21	26396.56
488.39	26120.38
488.57	26817.86
488.75	26405.92
488.92	26747.64
489.10	27098.72
489.28	26934.88
489.46	27426.40
489.64	27197.02
489.81	28056.00
489.99	27908.55
490.17	28046.64
490.35	28620.07
490.53	28140.26
490.70	28446.87
490.88	28907.96
491.06	29113.92
491.24	29144.35
491.41	29333.93
491.59	29303.51
491.77	29715.44
491.95	30235.04
492.13	30197.59
492.30	30251.42
492.48	30043.12
492.66	30342.70
492.84	30721.87
493.01	31126.78
493.19	30911.46
493.37	31583.19
493.54	31665.11
493.72	31871.07
493.90	31740.00
494.08	32315.78
494.25	32575.58
494.43	31990.44
494.61	32713.67
494.79	32858.78
494.96	32776.86
495.14	33076.45
495.32	33787.97
495.49	33579.67
495.67	33546.90
495.85	33472.00
496.02	33937.77
496.20	34370.77
496.38	34499.50
496.55	34522.90
496.73	35328.05
496.91	34581.42
497.09	35257.83
497.26	35283.58
497.44	35358.47
497.62	35681.47
497.79	35793.81
497.97	35936.59
498.14	36456.18
498.32	36577.89
498.50	36423.42
498.67	36725.35
498.85	36730.03
499.03	36919.61
499.20	37256.65
499.38	37120.90
499.56	37163.03
499.73	37509.43
499.91	38050.09
500.08	38003.28
500.26	37942.42
500.44	38010.30
500.61	38174.14
500.79	38323.93
500.97	38796.72
501.14	39124.40
501.32	38838.85
501.49	39316.32
501.67	39304.62
501.84	39353.77
502.02	39292.91
502.20	39210.99
502.37	39728.25
502.55	39718.89
502.72	39835.92
502.90	39583.14
503.07	39828.90
503.25	39922.52
503.43	40278.28
503.60	40245.51
503.78	40732.34
503.95	41151.30
504.13	40842.35
504.30	41008.53
504.48	40961.72
504.65	41598.34
504.83	41443.87
505.01	41626.43
505.18	41598.34
505.36	41961.12
505.53	41383.01
505.71	42012.62
505.88	42110.92
506.06	42155.39
506.23	42562.64
506.41	42108.58
506.58	42696.05
506.76	42780.31
506.93	43632.27
507.11	42623.50
507.28	42855.21
507.46	43175.86
507.63	43143.09
507.81	43702.48
507.98	43442.68
508.16	43632.27
508.33	43423.96
508.50	43871.00
508.68	44182.29
508.85	44224.42
509.03	44364.85
509.20	44575.50
509.38	44788.49
509.55	44992.12
509.73	45048.29
509.90	45134.89
510.08	44931.26
510.25	45249.58
510.42	44783.81
510.60	45324.47
510.77	45415.76
510.95	45705.98
511.12	45734.07
511.30	45411.07
511.47	45708.32
511.64	45801.94
511.82	46293.46
511.99	46103.87
512.17	46377.72
512.34	46202.18
512.51	46909.02
512.69	46412.82
512.86	46464.32
513.04	47330.31
513.21	47360.74
513.38	47430.96
513.56	47449.68
513.73	47194.56
513.90	47213.29
514.08	47222.65
514.25	48025.45
514.43	48060.56
514.60	47915.45
514.77	47695.44
514.95	48184.61
515.12	47966.94
515.29	48329.72
515.47	48591.86
515.64	48406.96
515.81	48666.76
515.99	48811.87
516.16	48849.32
516.33	48877.41
516.51	49315.09
516.68	48751.02
516.85	48910.17
517.03	49455.52
517.20	49282.32
517.37	49579.57
517.54	49418.07
517.72	49193.38
517.89	49574.89
518.06	49762.13
518.24	49565.52
518.41	49944.69
518.58	49556.16
518.75	49148.91
518.93	50092.15
519.10	49940.01
519.27	50520.46
519.45	50033.63
519.62	50342.58
519.79	50485.36
519.96	50445.57
520.14	50752.18
520.31	50468.97
520.48	50843.46
520.65	50515.78
520.83	51061.13
521.00	51217.94
521.17	51182.84
521.34	50894.95
521.52	50981.55
521.69	50995.59
521.86	51164.11
522.03	51480.08
522.20	51564.34
522.38	51997.34
522.55	51536.26
522.72	51917.76
522.89	51730.52
523.07	52282.89
523.24	51929.47
523.41	52273.52
523.58	51847.55
523.75	52369.49
523.92	52254.80
524.10	52584.82
524.27	52556.73
524.44	52507.58
524.61	52205.65
524.78	52474.81
524.96	52727.59
525.13	52982.71
525.30	53104.41
525.47	53010.79
525.64	52816.53
525.81	53052.92
525.98	53076.33
526.16	52999.09
526.33	52978.03
526.50	53183.99
526.67	53277.61
526.84	53354.85
527.01	53270.59
527.18	53219.10
527.36	53413.37
527.53	53441.45
527.70	53876.79
527.87	53577.20
528.04	53408.68
528.21	53708.27
528.38	53666.14
528.55	54089.78
528.72	53883.81
528.89	53790.19
529.07	53712.95
529.24	53970.41
529.41	54408.09
529.58	53853.39
529.75	53839.34
529.92	54145.95
530.09	54042.97
530.26	54323.83
530.43	54368.30
530.60	54155.32
530.77	54040.63
530.94	54712.36
531.11	54679.60
531.28	54499.37
531.46	54665.55
531.63	54471.29
531.80	54829.39
531.97	54525.12
532.14	54838.75
532.31	54787.26
532.48	55044.72
532.65	54932.37
532.82	54981.52
532.99	55009.61
533.16	54955.78
533.33	54857.48
533.50	55243.66
533.67	55009.61
533.84	55220.26
534.01	55000.25
534.18	55248.35
534.35	55714.11
534.52	55444.95
534.69	55508.14
534.86	55597.09
535.03	55590.06
535.20	55496.44
535.37	55798.37
535.54	55749.22
535.71	55533.89
535.88	55758.58
536.05	55807.73
536.22	56004.34
536.38	55945.83
536.55	55880.29
536.72	55922.42
536.89	55819.44
537.06	55906.04
537.23	56133.07
537.40	55849.86
537.57	56090.94
537.74	55917.74
537.91	56533.30
538.08	56292.22
538.25	55985.61
538.42	56030.08
538.59	56526.28
538.75	56079.24
538.92	56224.35
539.09	56418.61
539.26	56266.48
539.43	56317.97
539.60	56357.76
539.77	56636.28
539.94	56601.18
540.11	56584.79
540.28	56755.65
540.44	56800.12
540.61	56891.40
540.78	56793.10
540.95	56816.50
541.12	56746.29
541.29	56722.88
541.46	56938.21
541.62	56978.00
541.79	56732.25
541.96	56624.58
542.13	56907.79
542.30	56804.80
542.47	57392.28
542.63	57083.33
542.80	57155.88
542.97	57286.95
543.14	57462.49
543.31	57310.36
543.48	57544.41
543.64	57794.85
543.81	57677.82
543.98	57546.75
544.15	57535.05
544.32	57829.96
544.48	57813.57
544.65	57553.77
544.82	57736.34
544.99	57602.92
545.16	57876.77
545.32	57673.14
545.49	57982.09
545.66	58150.61
545.83	58000.82
546.00	57862.72
546.16	58014.86
546.33	57528.03
546.50	57759.74
546.67	57989.11
546.83	57691.86
547.00	57944.64
547.17	57986.77
547.34	58080.39
547.50	58092.10
547.67	58419.77
547.84	58291.04
548.00	58487.65
548.17	58412.75
548.34	58478.28
548.51	58794.26
548.67	58468.92
548.84	58546.16
549.01	58377.64
549.18	58185.72
549.34	58665.53
549.51	58688.93
549.68	58567.23
549.84	58539.14
550.01	58684.25
550.18	58473.60
550.34	58773.19
550.51	58857.45
550.68	58710.00
550.84	58698.30
551.01	58918.31
551.18	58850.43
551.34	58906.60
551.51	58857.45
551.68	58869.15
551.84	58855.11
552.01	58644.46
552.18	59089.16
552.34	58805.96
552.51	58990.86
552.68	58946.39
552.84	59023.63
553.01	59201.51
553.18	59007.25
553.34	59234.28
553.51	59203.85
553.67	59187.47
553.84	59297.47
554.01	58925.33
554.17	59405.14
554.34	59306.83
554.51	59189.81
554.67	59339.60
554.84	59437.90
555.00	59236.62
555.17	59231.94
555.33	59519.82
555.50	59171.08
555.67	59299.81
555.83	59208.53
556.00	59348.96
556.16	59627.49
556.33	59526.84
556.50	59419.18
556.66	59704.73
556.83	59611.10
556.99	59613.44
557.16	59810.05
557.32	59868.56
557.49	59735.15
557.65	59686.00
557.82	59683.66
557.98	59561.95
558.15	59653.23
558.32	59838.14
558.48	59629.83
558.65	59803.03
558.81	59840.48
558.98	59807.71
559.14	60074.53
559.31	60034.74
559.47	60161.13
559.64	59824.09
559.80	59840.48
559.97	60317.95
560.13	59758.56
560.30	59910.69
560.46	60086.23
560.63	60009.00
560.79	59992.61
560.96	60224.32
561.12	59971.55
561.29	60221.98
561.45	60055.81
561.61	60065.17
561.78	60044.10
561.94	60296.88
562.11	60238.37
562.27	60081.55
562.44	60154.11
562.60	60430.29
562.77	60301.56
562.93	60111.98
563.10	60027.72
563.26	60240.71
563.42	60493.49
563.59	60247.73
563.75	60055.81
563.92	60348.37
564.08	60137.72
564.24	60259.43
564.41	60278.16
564.57	60371.78
564.74	60514.55
564.90	60453.70
565.07	60390.50
565.23	60526.25
565.39	60552.00
565.56	60488.80
565.72	60348.37
565.88	60537.96
566.05	60514.55
566.21	60502.85
566.38	60467.74
566.54	60591.79
566.70	60654.98
566.87	60701.79
567.03	60507.53
567.19	60884.36
567.36	60514.55
567.52	60507.53
567.68	60809.46
567.85	60694.77
568.01	60657.32
568.17	60603.49
568.34	60699.45
568.50	60542.64
568.66	60488.80
568.83	60711.16
568.99	60580.09
569.15	60654.98
569.32	60537.96
569.48	60589.45
569.64	60779.03
569.81	60662.00
569.97	60514.55
570.13	60739.24
570.30	60589.45
570.46	60706.47
570.62	60921.80
570.78	60935.85
570.95	60666.69
571.11	60905.42
571.27	60769.67
571.43	60542.64
571.60	61029.47
571.76	60814.14
571.92	60786.05
572.09	60975.64
572.25	60942.87
572.41	60720.52
572.57	60725.20
572.74	60755.63
572.90	60760.31
573.06	60910.10
573.22	60764.99
573.38	60877.33
573.55	60882.02
573.71	61141.81
573.87	60973.30
574.03	60722.86
574.20	60907.76
574.36	60877.33
574.52	60914.78
574.68	61038.83
574.84	61041.17
575.01	60952.23
575.17	60853.93
575.33	60867.97
575.49	61137.13
575.65	60903.08
575.82	61148.84
575.98	60992.02
576.14	61123.09
576.30	61144.16
576.46	61010.74
576.62	60851.59
576.79	60999.04
576.95	60905.42
577.11	61017.77
577.27	61219.05
577.43	61013.08
577.59	61029.47
577.75	60924.14
577.92	60994.36
578.08	60968.61
578.24	61151.18
578.40	61368.85
578.56	61256.50
578.72	61048.19
578.88	61125.43
579.04	61338.42
579.21	61062.24
579.37	61331.40
579.53	61324.38
579.69	60999.04
579.85	61214.37
580.01	61237.78
580.17	61003.72
580.33	61233.10
580.49	61317.35
580.65	61265.86
580.82	61071.60
580.98	61109.05
581.14	61024.79
581.30	61268.20
581.46	61396.93
581.62	61251.82
581.78	61010.74
581.94	61352.46
582.10	61265.86
582.26	61144.16
582.42	61221.39
582.58	61256.50
582.74	61146.50
582.90	61125.43
583.06	61256.50
583.22	60870.31
583.38	61392.25
583.54	61408.64
583.70	61343.10
583.86	61354.80
584.02	61113.73
584.18	61300.97
584.34	61116.07
584.50	61256.50
584.66	60823.50
584.82	61249.48
584.98	61319.70
585.14	61207.35
585.30	61216.71
585.46	61188.63
585.62	61324.38
585.78	61450.77
585.94	60963.93
586.10	61277.57
586.26	61315.01
586.42	61307.99
586.58	61293.95
586.74	61495.24
586.90	61282.25
587.06	61247.14
587.22	61448.42
587.38	61279.91
587.54	61609.92
587.70	61539.71
587.86	61130.11
588.02	61268.20
588.18	61630.99
588.34	61291.61
588.49	61570.13
