SpectraSuite Data File
++++++++++++++++++++++++++++++++++++
Date: Fri Oct 25 11:26:11 EDT 2013
User: price-jones
Dark Spectrum Present: No
Reference Spectrum Present: No
Number of Sampled Component Spectra: 1
Spectrometers: USB2+H05261
Integration Time (usec): 100000 (USB2+H05261)
Spectra Averaged: 1 (USB2+H05261)
Boxcar Smoothing: 0 (USB2+H05261)
Correct for Electrical Dark: No (USB2+H05261)
Strobe/Lamp Enabled: No (USB2+H05261)
Correct for Detector Non-linearity: No (USB2+H05261)
Correct for Stray Light: No (USB2+H05261)
Number of Pixels in Processed Spectrum: 2048
>>>>>Begin Processed Spectral Data<<<<<
365.73	243.42
365.92	243.42
366.12	243.42
366.32	84.26
366.52	180.22
366.72	159.16
366.91	173.20
367.11	149.79
367.31	163.84
367.51	65.54
367.70	128.73
367.90	201.29
368.10	191.92
368.30	114.69
368.49	168.52
368.69	126.39
368.89	182.56
369.09	177.88
369.28	170.86
369.48	191.92
369.68	182.56
369.87	184.90
370.07	156.82
370.27	184.90
370.47	269.16
370.66	535.98
370.86	615.56
371.06	690.46
371.25	678.76
371.45	653.01
371.65	688.12
371.84	739.61
372.04	681.10
372.24	748.97
372.44	706.84
372.63	716.20
372.83	791.10
373.03	828.55
373.22	751.31
373.42	777.06
373.62	763.01
373.81	795.78
374.01	760.67
374.21	788.76
374.40	837.91
374.60	770.04
374.79	802.80
374.99	816.85
375.19	926.85
375.38	847.27
375.58	781.74
375.78	884.72
375.97	861.32
376.17	901.11
376.37	873.02
376.56	910.47
376.76	880.04
376.95	800.46
377.15	894.08
377.35	882.38
377.54	912.81
377.74	891.74
377.93	957.28
378.13	1004.09
378.33	1015.79
378.52	891.74
378.72	940.90
378.91	971.32
379.11	837.91
379.31	912.81
379.50	922.17
379.70	936.21
379.89	891.74
380.09	936.21
380.28	950.26
380.48	961.96
380.68	987.71
380.87	936.21
381.07	966.64
381.26	957.28
381.46	919.83
381.65	1060.26
381.85	1071.97
382.04	1029.84
382.24	1034.52
382.43	1090.69
382.63	1067.28
382.83	1055.58
383.02	1097.71
383.22	1109.41
383.41	1107.07
383.61	1135.16
383.80	1137.50
384.00	1050.90
384.19	1123.46
384.39	1102.39
384.58	1111.75
384.78	1071.97
384.97	1156.22
385.17	1114.10
385.36	1156.22
385.56	1200.69
385.75	1224.10
385.95	1193.67
386.14	1254.53
386.34	1249.85
386.53	1186.65
386.72	1191.33
386.92	1263.89
387.11	1226.44
387.31	1219.42
387.50	1217.08
387.70	1277.93
387.89	1263.89
388.09	1299.00
388.28	1277.93
388.48	1394.96
388.67	1280.27
388.86	1308.36
389.06	1221.76
389.25	1289.64
389.45	1343.47
389.64	1296.66
389.84	1385.60
390.03	1385.60
390.22	1369.21
390.42	1291.98
390.61	1425.39
390.81	1392.62
391.00	1441.77
391.19	1411.34
391.39	1364.53
391.58	1453.47
391.78	1500.28
391.97	1551.78
392.16	1434.75
392.36	1423.05
392.55	1519.01
392.75	1497.94
392.94	1495.60
393.13	1465.18
393.33	1551.78
393.52	1643.06
393.71	1575.18
393.91	1584.54
394.10	1631.35
394.29	1633.69
394.49	1526.03
394.68	1591.56
394.88	1519.01
395.07	1771.79
395.26	1654.76
395.46	1636.03
395.65	1755.40
395.84	1607.95
396.04	1650.08
396.23	1736.68
396.42	1746.04
396.62	1813.92
396.81	1732.00
397.00	1720.29
397.19	1874.77
397.39	1872.43
397.58	1919.24
397.77	1881.79
397.97	1902.86
398.16	1837.32
398.35	1830.30
398.55	1881.79
398.74	1834.98
398.93	1877.11
399.12	1991.80
399.32	1813.92
399.51	1891.15
399.70	2017.54
399.90	1954.35
400.09	1973.07
400.28	1991.80
400.47	2132.23
400.67	1907.54
400.86	2064.35
401.05	2092.44
401.24	2104.14
401.44	2155.63
401.63	2169.68
401.82	2172.02
402.01	2076.06
402.21	2200.10
402.40	2003.50
402.59	2078.40
402.78	2141.59
402.97	2237.55
403.17	2272.66
403.36	2270.32
403.55	2204.78
403.74	2242.23
403.93	2480.97
404.13	2434.16
404.32	2347.56
404.51	2347.56
404.70	2368.62
404.89	2408.41
405.09	2441.18
405.28	2504.37
405.47	2497.35
405.66	2541.82
405.85	2544.16
406.05	2485.65
406.24	2509.05
406.43	2612.04
406.62	2633.10
406.81	2630.76
407.00	2511.39
407.20	2590.97
407.39	2651.83
407.58	2658.85
407.77	2717.36
407.96	2672.89
408.15	2775.88
408.34	2663.53
408.54	2899.92
408.73	2843.75
408.92	2806.30
409.11	2825.03
409.30	2857.79
409.49	2874.18
409.68	2932.69
409.87	2930.35
410.07	2949.08
410.26	3077.80
410.45	2988.86
410.64	3091.85
410.83	3218.24
411.02	3115.25
411.21	3286.11
411.40	3089.51
411.59	3176.11
411.78	3141.00
411.98	3166.74
412.17	3239.30
412.36	3391.44
412.55	3332.92
412.74	3260.37
412.93	3370.37
413.12	3407.82
413.31	3485.06
413.50	3398.46
413.69	3389.10
413.88	3482.72
414.07	3592.72
414.26	3510.80
414.45	3548.25
414.64	3679.32
414.83	3698.05
415.02	3838.48
415.22	3817.41
415.41	3889.97
415.60	3852.52
415.79	3817.41
415.98	3779.97
416.17	3857.20
416.36	4018.70
416.55	3857.20
416.74	4023.38
416.93	4053.81
417.12	4065.51
417.31	4109.98
417.50	4039.76
417.69	4276.16
417.88	4194.24
418.07	4236.37
418.26	4170.83
418.45	4271.48
418.64	4472.76
418.83	4285.52
419.02	4458.72
419.21	4657.67
419.39	4533.62
419.58	4517.23
419.77	4437.66
419.96	4643.62
420.15	4594.47
420.34	4472.76
420.53	4514.89
420.72	4573.41
420.91	4765.33
421.10	4610.86
421.29	4788.74
421.48	4667.03
421.67	4613.20
421.86	4823.84
422.05	4713.84
422.24	4744.27
422.43	4903.42
422.61	4961.94
422.80	4999.38
422.99	4741.93
423.18	4903.42
423.37	5008.75
423.56	4854.27
423.75	4952.57
423.94	4877.68
424.13	4645.96
424.32	4777.03
424.50	4997.04
424.69	5135.14
424.88	5165.56
425.07	4987.68
425.26	4954.91
425.45	4863.63
425.64	4945.55
425.83	4940.87
426.01	5268.55
426.20	5053.22
426.39	5121.09
426.58	5146.84
426.77	5191.31
426.96	5170.24
427.15	5027.47
427.33	5139.82
427.52	5121.09
427.71	5226.42
427.90	5191.31
428.09	5280.25
428.28	5275.57
428.46	5270.89
428.65	5394.93
428.84	5376.21
429.03	5511.96
429.22	5245.14
429.40	5490.90
429.59	5528.35
429.78	5268.55
429.97	5270.89
430.16	5315.36
430.34	5413.66
430.53	5671.12
430.72	5657.07
430.91	5675.80
431.10	5607.92
431.28	5643.03
431.47	5818.57
431.66	5802.19
431.85	5818.57
432.03	5973.05
432.22	5973.05
432.41	5834.96
432.60	5966.03
432.79	5895.81
432.97	5959.00
433.16	5949.64
433.35	6061.99
433.54	5951.98
433.72	6069.01
433.91	6054.97
434.10	5977.73
434.28	5970.71
434.47	6211.78
434.66	6036.24
434.85	6190.72
435.03	6272.64
435.22	6155.61
435.41	6136.88
435.59	6314.77
435.78	6476.26
435.97	6267.95
436.16	6410.73
436.34	6492.65
436.53	6506.69
436.72	6621.38
436.90	6420.09
437.09	6588.61
437.28	6459.88
437.46	6602.65
437.65	6717.34
437.84	6663.51
438.02	6717.34
438.21	6846.07
438.40	6567.54
438.58	6827.34
438.77	6855.43
438.96	6942.03
439.14	7173.74
439.33	7054.37
439.52	7220.55
439.70	7246.30
439.89	7365.67
440.08	7267.36
440.26	7405.46
440.45	7091.82
440.63	7517.80
440.82	7522.48
441.01	7557.59
441.19	7440.56
441.38	7700.36
441.57	7566.95
441.75	8067.83
441.94	8025.70
442.12	7908.67
442.31	7939.10
442.50	8049.10
442.68	7950.80
442.87	7927.39
443.05	8049.10
443.24	8161.45
443.43	8196.56
443.61	8100.59
443.80	8243.37
443.98	8091.23
444.17	7934.42
444.35	8264.43
444.54	8257.41
444.73	8198.90
444.91	8278.47
445.10	8280.82
445.28	8107.62
445.47	8182.51
445.65	8133.36
445.84	8397.84
446.02	8308.90
446.21	8369.76
446.39	8407.20
446.58	8454.02
446.77	8264.43
446.95	8332.31
447.14	8444.65
447.32	8421.25
447.51	8484.44
447.69	8435.29
447.88	8496.14
448.06	8643.60
448.25	8606.15
448.43	8477.42
448.62	8706.79
448.80	8430.61
448.99	8671.68
449.17	8762.97
449.36	8725.52
449.54	8664.66
449.73	8968.93
449.91	8798.07
450.10	8851.91
450.28	8858.93
450.46	9156.18
450.65	9036.81
450.83	8908.08
451.02	8929.14
451.20	8999.36
451.39	8959.57
451.57	8912.76
451.76	9107.02
451.94	8910.42
452.13	9406.61
452.31	9132.77
452.49	8926.80
452.68	9322.35
452.86	9266.18
453.05	9390.23
453.23	9638.33
453.42	9284.91
453.60	9233.41
453.78	9549.39
453.97	9399.59
454.15	9322.35
454.34	9556.41
454.52	9425.34
454.70	9607.90
454.89	9591.52
455.07	9893.44
455.26	9788.12
455.44	10036.22
455.62	9933.23
455.81	9881.74
455.99	9907.49
456.17	9928.55
456.36	10148.56
456.54	9996.43
456.73	10178.99
456.91	10530.07
457.09	10368.57
457.28	10338.15
457.46	10399.00
457.64	10511.35
457.83	10363.89
458.01	10277.29
458.19	10640.08
458.38	10499.64
458.56	10623.69
458.74	10541.77
458.93	10609.65
459.11	10647.10
459.29	10541.77
459.48	10846.04
459.66	10670.50
459.84	10855.40
460.03	11183.08
460.21	10567.52
460.39	11007.54
460.57	10951.37
460.76	10977.11
460.94	11290.74
461.12	11265.00
461.31	11332.87
461.49	11040.31
461.67	11215.85
461.85	11356.28
462.04	11096.48
462.22	11840.77
462.40	11695.66
462.59	11211.17
462.77	11166.70
462.95	11557.57
463.13	11632.46
463.32	11545.86
463.50	11852.47
463.68	11735.45
463.86	11719.06
464.05	11569.27
464.23	11583.31
464.41	11882.90
464.59	11571.61
464.78	12123.98
464.96	11939.07
465.14	11641.82
465.32	12011.63
465.50	12081.85
465.69	12191.85
465.87	12016.31
466.05	12128.66
466.23	12161.42
466.41	12100.57
466.60	12292.49
466.78	12156.74
466.96	12116.95
467.14	12231.64
467.32	12416.54
467.51	12322.92
467.69	12056.10
467.87	12355.69
468.05	12542.93
468.23	12231.64
468.41	12353.35
468.60	12411.86
468.78	12795.71
468.96	12484.42
469.14	12645.91
469.32	13268.50
469.50	12608.47
469.69	12791.03
469.87	12945.50
470.05	12933.80
470.23	13071.89
470.41	12922.10
470.59	13142.11
470.77	13109.34
470.95	13284.88
471.14	13373.82
471.32	13097.64
471.50	13521.27
471.68	13390.20
471.86	13551.70
472.04	13816.18
472.22	14164.92
472.40	13715.54
472.58	13678.09
472.77	13919.17
472.95	14141.52
473.13	14600.26
473.31	14087.68
473.49	13989.38
473.67	14139.18
473.85	14265.57
474.03	14761.76
474.21	14221.10
474.39	14448.13
474.57	14693.88
474.75	14759.42
474.93	15047.30
475.12	14780.48
475.30	15040.28
475.48	14892.83
475.66	15112.84
475.84	14895.17
476.02	15070.71
476.20	15229.87
476.38	15824.36
476.56	15709.68
476.74	16149.70
476.92	15733.08
477.10	15903.94
477.28	15936.71
477.46	16086.50
477.64	16018.63
477.82	16432.90
478.00	16795.68
478.18	16699.72
478.36	16624.83
478.54	17188.89
478.72	16968.88
478.90	17282.52
479.08	17268.47
479.26	17551.68
479.44	17703.81
479.62	17823.18
479.80	17851.27
479.98	18150.85
480.16	18565.13
480.34	18183.62
480.52	18473.85
480.70	18518.32
480.88	18207.03
481.06	18551.09
481.24	18663.43
481.41	19044.94
481.59	19421.77
481.77	19089.41
481.95	19491.98
482.13	19358.57
482.31	19538.79
482.49	19913.28
482.67	20126.27
482.85	20369.68
483.03	20475.01
483.21	20547.56
483.39	20627.14
483.57	20872.90
483.74	21041.42
483.92	21207.59
484.10	21165.46
484.28	21816.13
484.46	21781.03
484.64	21900.39
484.82	22012.74
485.00	22677.45
485.18	22553.40
485.35	22640.00
485.53	22483.19
485.71	22829.59
485.89	23564.51
486.07	23192.37
486.25	23604.30
486.43	23477.91
486.61	23541.11
486.78	24039.64
486.96	24133.26
487.14	24140.29
487.32	24556.90
487.50	24830.74
487.68	24847.13
487.85	24957.13
488.03	25069.48
488.21	25752.91
488.39	25490.77
488.57	25781.00
488.75	25621.84
488.92	26293.58
489.10	26134.42
489.28	26309.96
489.46	26742.96
489.64	26752.32
489.81	27447.46
489.99	27646.41
490.17	28032.60
490.35	28259.63
490.53	27835.99
490.70	28367.29
490.88	28095.79
491.06	28306.44
491.24	28840.08
491.41	28692.63
491.59	29200.52
491.77	29252.02
491.95	29579.69
492.13	29773.95
492.30	29652.25
492.48	29921.41
492.66	30066.52
492.84	30064.18
493.01	30654.00
493.19	30492.50
493.37	30775.70
493.54	31051.89
493.72	31417.01
493.90	31243.81
494.08	31412.33
494.25	31835.97
494.43	32053.64
494.61	31807.88
494.79	32411.74
494.96	32329.82
495.14	32385.99
495.32	33055.39
495.49	32849.42
495.67	32921.98
495.85	33624.14
496.02	33572.64
496.20	33656.90
496.38	33879.25
496.55	34061.82
496.73	34424.60
496.91	34206.93
497.09	34637.59
497.26	34745.25
497.44	34565.03
497.62	34665.67
497.79	35477.84
497.97	35639.34
498.14	35779.77
498.32	35969.35
498.50	36198.73
498.67	36357.88
498.85	36240.86
499.03	36825.99
499.20	36868.12
499.38	36400.01
499.56	36666.83
499.73	36809.61
499.91	36933.65
500.08	37198.13
500.26	37064.72
500.44	37453.25
500.61	37560.92
500.79	37380.70
500.97	37991.58
501.14	38129.67
501.32	38415.21
501.49	38452.66
501.67	38010.30
501.84	38747.57
502.02	38621.18
502.20	38899.70
502.37	38827.15
502.55	39168.87
502.72	39423.98
502.90	39002.69
503.07	39250.78
503.25	39810.17
503.43	39824.22
503.60	39700.17
503.78	39852.30
503.95	39899.11
504.13	40208.06
504.30	40608.29
504.48	39964.65
504.65	40280.62
504.83	40297.00
505.01	41062.36
505.18	40832.99
505.36	41123.21
505.53	41167.68
505.71	41387.69
505.88	41596.00
506.06	40950.01
506.23	41874.52
506.41	41633.45
506.58	41954.10
506.76	42234.97
506.93	42370.72
507.11	42000.91
507.28	42569.66
507.46	42263.05
507.63	42735.84
507.81	43292.89
507.98	42457.32
508.16	43112.67
508.33	43311.61
508.50	43419.28
508.68	43203.95
508.85	44044.20
509.03	43402.89
509.20	43475.45
509.38	44062.93
509.55	44531.03
509.73	44615.29
509.90	44222.08
510.08	44189.31
510.25	44783.81
510.42	44605.93
510.60	44491.24
510.77	45167.66
510.95	45165.32
511.12	44638.70
511.30	44949.99
511.47	45144.25
511.64	45308.09
511.82	45511.72
511.99	45078.72
512.17	45841.73
512.34	45832.37
512.51	46333.24
512.69	45954.08
512.86	46555.60
513.04	46506.44
513.21	46358.99
513.38	46607.09
513.56	46848.16
513.73	46850.50
513.90	46906.68
514.08	46740.50
514.25	47386.49
514.43	47159.45
514.60	47220.31
514.77	47068.17
514.95	46855.18
515.12	47131.37
515.29	47400.53
515.47	47665.01
515.64	47952.90
515.81	47522.24
515.99	48126.10
516.16	47969.28
516.33	48009.07
516.51	48488.88
516.68	48671.44
516.85	48385.89
517.03	48364.83
517.20	48865.70
517.37	48531.01
517.54	48559.09
517.72	48725.27
517.89	49078.69
518.06	49317.43
518.24	48966.35
518.41	48999.12
518.58	49132.53
518.75	49214.44
518.93	49591.27
519.10	49305.73
519.27	49776.17
519.45	49394.67
519.62	49841.71
519.79	49530.42
519.96	49727.02
520.14	50120.23
520.31	49656.81
520.48	49741.06
520.65	50003.20
520.83	50342.58
521.00	50396.42
521.17	50522.80
521.34	50059.38
521.52	50628.13
521.69	50567.27
521.86	50948.78
522.03	50822.39
522.20	51161.77
522.38	51466.04
522.55	51040.06
522.72	51058.79
522.89	51351.35
523.07	51323.27
523.24	51636.90
523.41	51246.03
523.58	51334.97
523.75	51573.70
523.92	51676.69
524.10	51566.68
524.27	51749.24
524.44	51749.24
524.61	52210.33
524.78	52079.26
524.96	51885.00
525.13	51966.91
525.30	52334.38
525.47	52526.30
525.64	52044.15
525.81	52584.82
525.98	52252.46
526.16	52339.06
526.33	52484.17
526.50	52732.27
526.67	52559.07
526.84	52657.37
527.01	52477.15
527.18	52629.29
527.36	52725.25
527.53	52844.62
527.70	53315.06
527.87	53258.89
528.04	53153.57
528.21	53179.31
528.38	53258.89
528.55	53289.32
528.72	53092.71
528.89	53301.02
529.07	53193.36
529.24	53359.53
529.41	53549.12
529.58	53446.13
529.75	53462.52
529.92	53729.34
530.09	53427.41
530.26	53968.07
530.43	53848.71
530.60	53741.04
530.77	53834.66
530.94	54160.00
531.11	53874.45
531.28	53907.22
531.46	54031.27
531.63	54068.72
531.80	53825.30
531.97	54087.44
532.14	54167.02
532.31	54408.09
532.48	54239.57
532.65	54363.62
532.82	54213.83
532.99	54595.34
533.16	54424.48
533.33	54384.69
533.50	54625.76
533.67	54707.68
533.84	54478.31
534.01	54600.02
534.18	54513.42
534.35	54920.67
534.52	54899.61
534.69	54972.16
534.86	55077.49
535.03	54918.33
535.20	54913.65
535.37	55276.43
535.54	55264.73
535.71	55028.34
535.88	55358.35
536.05	55480.06
536.22	55302.18
536.38	55496.44
536.55	55351.33
536.72	55348.99
536.89	55075.15
537.06	55297.50
537.23	55615.81
537.40	55430.91
537.57	55496.44
537.74	55545.59
537.91	55962.21
538.08	55870.93
538.25	55723.47
538.42	55814.76
538.59	56214.99
538.75	55695.39
538.92	55781.99
539.09	56058.17
539.26	55985.61
539.43	55856.88
539.60	56112.00
539.77	56142.43
539.94	56442.02
540.11	56102.64
540.28	56343.72
540.44	56383.51
540.61	56252.44
540.78	56130.73
540.95	56069.87
541.12	56339.04
541.29	56210.31
541.46	56418.61
541.62	56477.13
541.79	56790.76
541.96	56236.05
542.13	56615.22
542.30	56465.42
542.47	56863.32
542.63	56680.75
542.80	56690.12
542.97	57120.77
543.14	57017.79
543.31	56804.80
543.48	57043.54
543.64	57141.84
543.81	57298.65
543.98	57310.36
544.15	56989.70
544.32	57366.53
544.48	57387.60
544.65	57439.09
544.82	57385.25
544.99	57113.75
545.16	57340.78
545.32	56992.04
545.49	57764.42
545.66	57436.75
545.83	57553.77
546.00	57581.86
546.16	57619.31
546.33	57553.77
546.50	57263.55
546.67	57432.07
546.83	57275.25
547.00	57792.51
547.17	57549.09
547.34	57633.35
547.50	57811.23
547.67	58075.71
547.84	57925.92
548.00	58166.99
548.17	58211.46
548.34	57858.04
548.51	58129.54
548.67	58117.84
548.84	57982.09
549.01	57932.94
549.18	58031.24
549.34	58031.24
549.51	58192.74
549.68	58506.37
549.84	58213.80
550.01	58267.64
550.18	58115.50
550.34	58279.34
550.51	58302.74
550.68	58269.98
550.84	58108.48
551.01	58384.66
551.18	58230.19
551.34	58410.41
551.51	58440.84
551.68	58560.20
551.84	58527.44
552.01	58389.34
552.18	58660.85
552.34	58225.51
552.51	58749.79
552.68	58658.51
552.84	58787.24
553.01	58749.79
553.18	58752.13
553.34	58450.20
553.51	58766.17
553.67	58672.55
553.84	58791.92
554.01	58759.15
554.17	58768.51
554.34	58850.43
554.51	58834.05
554.67	58990.86
554.84	58908.94
555.00	58894.90
555.17	58897.24
555.33	59011.93
555.50	58937.03
555.67	58962.78
555.83	58794.26
556.00	58986.18
556.16	59332.58
556.33	59007.25
556.50	59208.53
556.66	59231.94
556.83	58871.49
556.99	59133.63
557.16	59423.86
557.32	59337.26
557.49	59573.66
557.65	59271.73
557.82	59311.52
557.98	59339.60
558.15	59220.23
558.32	59496.42
558.48	59236.62
558.65	59416.84
558.81	59386.41
558.98	59295.13
559.14	59564.29
559.31	59400.46
559.47	59573.66
559.64	59524.50
559.80	59657.91
559.97	59550.25
560.13	59461.31
560.30	59594.72
560.46	59641.53
560.63	59756.22
560.79	59674.30
560.96	59683.66
561.12	59615.79
561.29	59693.02
561.45	59643.87
561.61	59739.83
561.78	59681.32
561.94	59566.63
562.11	59473.01
562.27	59763.24
562.44	59891.97
562.60	59915.37
562.77	59854.52
562.93	59758.56
563.10	60053.47
563.26	59833.46
563.42	60130.70
563.59	59910.69
563.75	59739.83
563.92	60009.00
564.08	59826.43
564.24	60060.49
564.41	59901.33
564.57	59964.52
564.74	59826.43
564.90	59987.93
565.07	60030.06
565.23	59828.77
565.39	60062.83
565.56	60179.85
565.72	60001.97
565.88	60034.74
566.05	60046.44
566.21	60280.50
566.38	59952.82
566.54	60074.53
566.70	60231.35
566.87	60163.47
567.03	60041.76
567.19	60346.03
567.36	60210.28
567.52	60226.66
567.68	60392.84
567.85	60252.41
568.01	60313.26
568.17	60158.79
568.34	60289.86
568.50	60385.82
568.66	60233.69
568.83	60189.22
568.99	60243.05
569.15	60308.58
569.32	60324.97
569.48	60224.32
569.64	60409.23
569.81	60315.61
569.97	60299.22
570.13	60245.39
570.30	59983.25
570.46	60168.15
570.62	60303.90
570.78	60472.42
570.95	60353.05
571.11	60477.10
571.27	60280.50
571.43	60467.74
571.60	60416.25
571.76	60500.51
571.92	60420.93
572.09	60376.46
572.25	60423.27
572.41	60273.48
572.57	60294.54
572.74	60575.40
572.90	60411.57
573.06	60559.02
573.22	60425.61
573.38	60647.96
573.55	60603.49
573.71	60760.31
573.87	60687.75
574.03	60411.57
574.20	60535.62
574.36	60549.66
574.52	60523.91
574.68	60720.52
574.84	60725.20
575.01	60596.47
575.17	60631.58
575.33	60676.05
575.49	60533.28
575.65	60584.77
575.82	60650.30
575.98	60678.39
576.14	60905.42
576.30	60694.77
576.46	60598.81
576.62	60676.05
576.79	60594.13
576.95	60580.09
577.11	60846.91
577.27	60760.31
577.43	60816.48
577.59	60626.90
577.75	60458.38
577.92	60676.05
578.08	60647.96
578.24	60516.89
578.40	60664.35
578.56	60830.52
578.72	60807.12
578.88	60954.57
579.04	60963.93
579.21	60631.58
579.37	60781.37
579.53	60926.49
579.69	60444.33
579.85	60601.15
580.01	60509.87
580.17	60654.98
580.33	60793.07
580.49	60942.87
580.65	60844.57
580.82	60692.43
580.98	60678.39
581.14	60776.69
581.30	60839.89
581.46	60757.97
581.62	60807.12
581.78	60605.83
581.94	60891.38
582.10	60638.60
582.26	60729.88
582.42	60685.41
582.58	60842.23
582.74	60753.29
582.90	60996.70
583.06	61062.24
583.22	60795.42
583.38	60786.05
583.54	60865.63
583.70	60739.24
583.86	60994.36
584.02	60704.13
584.18	60924.14
584.34	60905.42
584.50	60882.02
584.66	60816.48
584.82	60853.93
584.98	61017.77
585.14	60823.50
585.30	60711.16
585.46	60952.23
585.62	60924.14
585.78	60961.59
585.94	60732.22
586.10	60956.91
586.26	60774.35
586.42	60889.04
586.58	60912.44
586.74	60891.38
586.90	60631.58
587.06	60900.74
587.22	61073.94
587.38	60795.42
587.54	61041.17
587.70	61247.14
587.86	61118.41
588.02	61043.51
588.18	61104.37
588.34	60884.36
588.49	60994.36
