SpectraSuite Data File
++++++++++++++++++++++++++++++++++++
Date: Fri Oct 25 10:43:33 EDT 2013
User: price-jones
Dark Spectrum Present: No
Reference Spectrum Present: No
Number of Sampled Component Spectra: 1
Spectrometers: USB2+H05261
Integration Time (usec): 100000 (USB2+H05261)
Spectra Averaged: 1 (USB2+H05261)
Boxcar Smoothing: 0 (USB2+H05261)
Correct for Electrical Dark: No (USB2+H05261)
Strobe/Lamp Enabled: No (USB2+H05261)
Correct for Detector Non-linearity: No (USB2+H05261)
Correct for Stray Light: No (USB2+H05261)
Number of Pixels in Processed Spectrum: 2048
>>>>>Begin Processed Spectral Data<<<<<
365.73	131.07
365.92	131.07
366.12	131.07
366.32	56.17
366.52	98.30
366.72	16.38
366.91	77.24
367.11	53.83
367.31	18.72
367.51	72.56
367.70	46.81
367.90	0.00
368.10	49.15
368.30	9.36
368.49	4.68
368.69	114.69
368.89	46.81
369.09	23.41
369.28	88.94
369.48	23.41
369.68	77.24
369.87	95.96
370.07	119.37
370.27	187.24
370.47	196.60
370.66	374.49
370.86	393.21
371.06	503.22
371.25	425.98
371.45	423.64
371.65	472.79
371.84	440.02
372.04	381.51
372.24	496.19
372.44	461.09
372.63	496.19
372.83	540.66
373.03	514.92
373.22	491.51
373.42	564.07
373.62	449.38
373.81	517.26
374.01	554.71
374.21	589.82
374.40	538.32
374.60	575.77
374.79	550.03
374.99	594.50
375.19	594.50
375.38	557.05
375.58	571.09
375.78	660.03
375.97	564.07
376.17	592.16
376.37	587.47
376.56	622.58
376.76	578.11
376.95	711.52
377.15	685.78
377.35	606.20
377.54	678.76
377.74	648.33
377.93	690.46
378.13	772.38
378.33	716.20
378.52	634.29
378.72	664.71
378.91	669.39
379.11	634.29
379.31	599.18
379.50	655.35
379.70	683.44
379.89	751.31
380.09	676.41
380.28	669.39
380.48	716.20
380.68	730.25
380.87	751.31
381.07	709.18
381.26	669.39
381.46	741.95
381.65	664.71
381.85	744.29
382.04	678.76
382.24	688.12
382.43	711.52
382.63	631.94
382.83	676.41
383.02	751.31
383.22	807.48
383.41	676.41
383.61	772.38
383.80	751.31
384.00	784.08
384.19	725.57
384.39	821.53
384.58	821.53
384.78	770.04
384.97	830.89
385.17	793.44
385.36	821.53
385.56	800.46
385.75	753.65
385.95	795.78
386.14	828.55
386.34	692.80
386.53	842.59
386.72	882.38
386.92	856.64
387.11	901.11
387.31	917.49
387.50	889.40
387.70	863.66
387.89	894.08
388.09	894.08
388.28	964.30
388.48	933.87
388.67	898.77
388.86	968.98
389.06	987.71
389.25	926.85
389.45	997.07
389.64	1018.13
389.84	1034.52
390.03	938.55
390.22	1081.33
390.42	987.71
390.61	1093.03
390.81	1020.47
391.00	947.92
391.19	1008.77
391.39	1123.46
391.58	1074.31
391.78	1011.11
391.97	1078.99
392.16	1013.45
392.36	1071.97
392.55	973.66
392.75	936.21
392.94	924.51
393.13	994.73
393.33	1034.52
393.52	1015.79
393.71	1090.69
393.91	1100.05
394.10	1076.65
394.29	1153.88
394.49	1144.52
394.68	1247.51
394.88	1158.57
395.07	1193.67
395.26	1198.35
395.46	1320.06
395.65	1273.25
395.84	1188.99
396.04	1221.76
396.23	1188.99
396.42	1116.44
396.62	1078.99
396.81	1226.44
397.00	1245.16
397.19	1280.27
397.39	1336.45
397.58	1301.34
397.77	1338.79
397.97	1362.19
398.16	1469.86
398.35	1444.11
398.55	1488.58
398.74	1537.73
398.93	1556.46
399.12	1563.48
399.32	1504.96
399.51	1511.99
399.70	1624.33
399.90	1650.08
400.09	1638.38
400.28	1577.52
400.47	1596.25
400.67	1717.95
400.86	1760.08
401.05	1657.10
401.24	1715.61
401.44	1753.06
401.63	1774.13
401.82	1753.06
402.01	1746.04
402.21	1724.97
402.40	1685.19
402.59	1694.55
402.78	1741.36
402.97	1797.53
403.17	1834.98
403.36	1912.22
403.55	1825.62
403.74	1900.52
403.93	1813.92
404.13	1912.22
404.32	1886.47
404.51	1933.28
404.70	1926.26
404.89	1963.71
405.09	2069.03
405.28	2008.18
405.47	1877.11
405.66	1912.22
405.85	1926.26
406.05	1977.75
406.24	1982.43
406.43	1963.71
406.62	2076.06
406.81	2174.36
407.00	2047.97
407.20	1947.33
407.39	2033.93
407.58	2172.02
407.77	2146.27
407.96	2256.28
408.15	2303.09
408.34	2277.34
408.54	2172.02
408.73	2300.75
408.92	2253.94
409.11	2298.41
409.30	2326.49
409.49	2279.68
409.68	2396.71
409.87	2237.55
410.07	2307.77
410.26	2326.49
410.45	2389.69
410.64	2417.77
410.83	2495.01
411.02	2436.50
411.21	2626.08
411.40	2499.69
411.59	2750.13
411.78	2600.34
411.98	2562.89
412.17	2724.38
412.36	2738.43
412.55	2642.46
412.74	2616.72
412.93	2710.34
413.12	2710.34
413.31	2874.18
413.50	2822.69
413.69	2773.53
413.88	2923.33
414.07	2918.65
414.26	3002.91
414.45	2984.18
414.64	2881.20
414.83	2923.33
415.02	3190.15
415.22	3028.65
415.41	3129.30
415.60	3110.57
415.79	3047.38
415.98	3332.92
416.17	3255.69
416.36	3269.73
416.55	3166.74
416.74	3328.24
416.93	3220.58
417.12	3279.09
417.31	3435.91
417.50	3311.86
417.69	3513.14
417.88	3466.33
418.07	3265.05
418.26	3424.20
418.45	3492.08
418.64	3557.61
418.83	3604.42
419.02	3515.48
419.21	3435.91
419.39	3644.21
419.58	3620.81
419.77	3494.42
419.96	3693.37
420.15	3730.81
420.34	3712.09
420.53	3637.19
420.72	3772.94
420.91	3803.37
421.10	3875.93
421.29	3894.65
421.48	3756.56
421.67	3955.51
421.86	3854.86
422.05	3765.92
422.24	3873.59
422.43	3796.35
422.61	3815.07
422.80	3925.08
422.99	3831.46
423.18	3922.74
423.37	3950.82
423.56	3971.89
423.75	3978.91
423.94	3981.25
424.13	3815.07
424.32	3772.94
424.50	3922.74
424.69	4025.72
424.88	3988.27
425.07	3878.27
425.26	3892.31
425.45	3962.53
425.64	3981.25
425.83	3920.40
426.01	3971.89
426.20	3983.59
426.39	4051.47
426.58	4014.02
426.77	3936.78
426.96	3894.65
427.15	4163.81
427.33	3946.14
427.52	4032.74
427.71	4060.83
427.90	4210.62
428.09	4194.24
428.28	4184.88
428.46	4067.85
428.65	4131.05
428.84	4315.95
429.03	4283.18
429.22	4119.34
429.40	4147.43
429.59	4081.89
429.78	3941.46
429.97	4028.06
430.16	3918.06
430.34	4037.42
430.53	4142.75
430.72	4201.26
430.91	4166.15
431.10	4301.90
431.28	4463.40
431.47	4564.04
431.66	4652.98
431.85	4416.59
432.03	4547.66
432.22	4667.03
432.41	4578.09
432.60	4594.47
432.79	4587.45
432.97	4662.35
433.16	4809.80
433.35	4528.94
433.54	4755.97
433.72	4692.77
433.91	4706.82
434.10	4788.74
434.28	4842.57
434.47	4767.67
434.66	4765.33
434.85	5011.09
435.03	4978.32
435.22	4767.67
435.41	5184.29
435.59	4985.34
435.78	4896.40
435.97	5130.45
436.16	5170.24
436.34	5195.99
436.53	5121.09
436.72	5186.63
436.90	5029.81
437.09	5291.95
437.28	5006.41
437.46	5163.22
437.65	5282.59
437.84	5231.10
438.02	5233.44
438.21	5207.69
438.40	5018.11
438.58	5385.57
438.77	5439.40
438.96	5357.49
439.14	5610.26
439.33	5638.35
439.52	5507.28
439.70	5558.77
439.89	5631.33
440.08	5558.77
440.26	5731.97
440.45	5603.24
440.63	5865.38
440.82	5984.75
441.01	5830.27
441.19	6031.56
441.38	6099.44
441.57	6235.19
441.75	6083.05
441.94	6265.61
442.12	6197.74
442.31	6279.66
442.50	6399.02
442.68	6232.85
442.87	6333.49
443.05	6469.24
443.24	6445.84
443.43	6452.86
443.61	6431.79
443.80	6520.73
443.98	6368.60
444.17	6153.27
444.35	6317.11
444.54	6630.74
444.73	6609.67
444.91	6494.99
445.10	6614.35
445.28	6518.39
445.47	6401.37
445.65	6422.43
445.84	6469.24
446.02	6569.88
446.21	6399.02
446.39	6541.80
446.58	6710.32
446.77	6600.31
446.95	6705.63
447.14	6642.44
447.32	6637.76
447.51	6576.91
447.69	6771.17
447.88	6668.19
448.06	6911.60
448.25	6743.08
448.43	6836.70
448.62	6719.68
448.80	6689.25
448.99	6932.67
449.17	6960.75
449.36	6799.26
449.54	7089.48
449.73	7136.29
449.91	7190.13
450.10	7220.55
450.28	7246.30
450.46	7370.35
450.65	7377.37
450.83	7328.22
451.02	7033.31
451.20	7206.51
451.39	7201.83
451.57	7213.53
451.76	7155.02
451.94	7260.34
452.13	7243.96
452.31	7173.74
452.49	7023.95
452.68	7309.49
452.86	7229.91
453.05	7346.94
453.23	7351.62
453.42	7290.77
453.60	7241.62
453.78	7566.95
453.97	7288.43
454.15	7454.61
454.34	7396.09
454.52	7737.81
454.70	7531.84
454.89	7562.27
455.07	7517.80
455.26	7583.34
455.44	7789.30
455.62	7658.23
455.81	7651.21
455.99	7833.77
456.17	8037.40
456.36	7796.32
456.54	7974.21
456.73	7964.84
456.91	8180.17
457.09	8182.51
457.28	8149.75
457.46	8107.62
457.64	8011.65
457.83	8170.81
458.01	7939.10
458.19	8418.91
458.38	8074.85
458.56	8280.82
458.74	8013.99
458.93	8252.73
459.11	8217.62
459.29	8266.77
459.48	8273.79
459.66	8269.11
459.84	8552.32
460.03	8517.21
460.21	8526.57
460.39	8695.09
460.57	8346.35
460.76	8479.76
460.94	8788.71
461.12	8746.58
461.31	8674.03
461.49	8695.09
461.67	8608.49
461.85	8891.70
462.04	8683.39
462.22	9067.24
462.40	9020.42
462.59	8922.12
462.77	8716.16
462.95	8936.17
463.13	8947.87
463.32	8851.91
463.50	8985.32
463.68	9050.85
463.86	9085.96
464.05	8865.95
464.23	8872.97
464.41	9130.43
464.59	8947.87
464.78	9247.46
464.96	9116.39
465.14	9050.85
465.32	8952.55
465.50	9195.96
465.69	9418.32
465.87	9298.95
466.05	9046.17
466.23	9259.16
466.41	9170.22
466.60	9535.34
466.78	9369.16
466.96	9317.67
467.14	9210.01
467.32	9373.85
467.51	9212.35
467.69	9076.60
467.87	9240.44
468.05	9736.63
468.23	9273.20
468.41	9530.66
468.60	9673.43
468.78	9584.49
468.96	9647.69
469.14	9753.01
469.32	9673.43
469.50	9352.78
469.69	9813.87
469.87	9905.15
470.05	9874.72
470.23	9802.16
470.41	9851.31
470.59	9916.85
470.77	9977.70
470.95	9774.08
471.14	10200.05
471.32	9788.12
471.50	10214.10
471.68	10312.40
471.86	10143.88
472.04	10296.02
472.22	10658.80
472.40	10310.06
472.58	10246.87
472.77	10312.40
472.95	10469.22
473.13	10855.40
473.31	10530.07
473.49	10668.16
473.67	10586.24
473.85	10724.33
474.03	10927.96
474.21	10937.32
474.39	11061.37
474.57	11169.04
474.75	11023.92
474.93	11248.61
475.12	11403.09
475.30	11260.32
475.48	11126.91
475.66	11325.85
475.84	11185.42
476.02	11585.65
476.20	11531.82
476.38	11496.71
476.56	11824.39
476.74	11779.92
476.92	11957.80
477.10	11866.52
477.28	12131.00
477.46	12016.31
477.64	12224.62
477.82	12477.40
478.00	12573.36
478.18	12376.75
478.36	12716.13
478.54	12442.29
478.72	12964.23
478.90	12872.95
479.08	13142.11
479.26	13085.94
479.44	13200.62
479.62	13242.75
479.80	13319.99
479.98	13497.87
480.16	13741.29
480.34	13327.01
480.52	13439.36
480.70	13731.92
480.88	13284.88
481.06	13937.89
481.24	14087.68
481.41	14122.79
481.59	14249.18
481.77	14260.88
481.95	14466.85
482.13	14544.09
482.31	14394.29
482.49	15007.52
482.67	15066.03
482.85	14951.34
483.03	15016.88
483.21	15281.36
483.39	15365.62
483.57	15431.15
483.74	15384.34
483.92	15494.35
484.10	15438.17
484.28	15878.19
484.46	16079.48
484.64	16372.05
484.82	16243.32
485.00	16126.29
485.18	16503.12
485.35	16603.76
485.53	16194.17
485.71	16245.66
485.89	16774.62
486.07	16360.34
486.25	16812.07
486.43	16847.18
486.61	16943.14
486.78	17088.25
486.96	17390.18
487.14	17774.03
487.32	17577.42
487.50	17797.43
487.68	18200.01
487.85	18387.25
488.03	18581.51
488.21	18750.03
488.39	18630.66
488.57	18677.48
488.75	19075.37
488.92	19302.40
489.10	19225.16
489.28	19463.90
489.46	19484.96
489.64	19400.70
489.81	20128.61
489.99	20084.14
490.17	20233.93
490.35	20421.17
490.53	20107.54
490.70	20418.83
490.88	20376.70
491.06	20952.48
491.24	20622.46
491.41	20751.19
491.59	20725.44
491.77	20706.72
491.95	21149.08
492.13	20938.43
492.30	21671.02
492.48	21553.99
492.66	21563.36
492.84	22122.74
493.01	22221.05
493.19	22061.89
493.37	22424.67
493.54	22485.53
493.72	22445.74
493.90	22302.96
494.08	22920.87
494.25	23002.78
494.43	23374.93
494.61	23274.29
494.79	23482.59
494.96	23496.64
495.14	23161.94
495.32	23613.66
495.49	23529.41
495.67	23660.48
495.85	23714.31
496.02	24123.90
496.20	24580.31
496.38	24236.25
496.55	24821.38
496.73	24744.14
496.91	24748.82
497.09	24678.61
497.26	25053.09
497.44	25055.43
497.62	24805.00
497.79	25584.40
497.97	24968.84
498.14	25488.43
498.32	25518.86
498.50	25678.02
498.67	25628.87
498.85	25862.92
499.03	26419.97
499.20	25963.56
499.38	26132.08
499.56	26078.25
499.73	26745.30
499.91	26111.02
500.08	26593.17
500.26	26181.23
500.44	26888.07
500.61	26452.73
500.79	26501.89
500.97	26902.12
501.14	27164.26
501.32	27297.67
501.49	27164.26
501.67	26916.16
501.84	27379.59
502.02	27395.97
502.20	27850.03
502.37	27859.40
502.55	27653.43
502.72	27913.23
502.90	28025.57
503.07	27814.93
503.25	27791.52
503.43	27981.10
503.60	28142.60
503.78	28175.37
503.95	28318.14
504.13	28510.07
504.30	28737.10
504.48	28456.23
504.65	29095.20
504.83	28938.38
505.01	29076.48
505.18	28989.88
505.36	29392.45
505.53	29481.39
505.71	29553.94
505.88	29640.54
506.06	29139.67
506.23	30150.78
506.41	29289.46
506.58	29949.50
506.76	29750.55
506.93	29937.79
507.11	30008.01
507.28	29827.79
507.46	30127.38
507.63	29663.95
507.81	30286.53
507.98	29769.27
508.16	30242.06
508.33	30497.18
508.50	30464.41
508.68	30855.28
508.85	31257.85
509.03	30953.58
509.20	31108.06
509.38	31199.34
509.55	30682.08
509.73	31281.26
509.90	31456.80
510.08	31796.18
510.25	31391.26
510.42	31344.45
510.60	31885.12
510.77	31967.04
510.95	31887.46
511.12	31936.61
511.30	32142.58
511.47	32107.47
511.64	32224.50
511.82	32095.77
511.99	32503.02
512.17	32063.00
512.34	32287.69
512.51	32273.65
512.69	32861.12
512.86	32708.99
513.04	32718.35
513.21	32872.82
513.38	32683.24
513.56	32657.49
513.73	32886.87
513.90	32837.72
514.08	32811.97
514.25	33270.72
514.43	32896.23
514.60	32779.20
514.77	33369.02
514.95	33268.37
515.12	33394.76
515.29	33647.54
515.47	33663.93
515.64	33813.72
515.81	33652.22
515.99	33586.69
516.16	33603.07
516.33	33291.78
516.51	33879.25
516.68	33453.28
516.85	33219.22
517.03	33397.10
517.20	33907.34
517.37	34326.30
517.54	34497.16
517.72	34022.03
517.89	33921.38
518.06	33991.60
518.24	34134.37
518.41	34398.85
518.58	34487.79
518.75	34754.61
518.93	34951.22
519.10	34904.41
519.27	34958.24
519.45	34857.60
519.62	35367.84
519.79	35204.00
519.96	35370.18
520.14	35199.32
520.31	35335.07
520.48	35105.70
520.65	35454.44
520.83	35896.80
521.00	35931.90
521.17	35489.54
521.34	35854.67
521.52	36060.63
521.69	36332.14
521.86	36002.12
522.03	36292.35
522.20	36191.70
522.38	36315.75
522.55	36662.15
522.72	36587.25
522.89	36465.55
523.07	36751.09
523.24	36430.44
523.41	36872.80
523.58	36914.93
523.75	37317.50
523.92	37130.26
524.10	37006.21
524.27	37109.19
524.44	37116.22
524.61	37537.51
524.78	37308.14
524.96	37137.28
525.13	37244.94
525.30	37916.68
525.47	37558.58
525.64	37766.88
525.81	37682.62
525.98	37670.92
526.16	37287.07
526.33	37457.93
526.50	37434.53
526.67	37326.86
526.84	37511.77
527.01	37413.46
527.18	37357.29
527.36	37670.92
527.53	38209.25
527.70	38286.48
527.87	38366.06
528.04	38220.95
528.21	38536.92
528.38	38251.38
528.55	38967.58
528.72	38890.34
528.89	38618.84
529.07	38583.73
529.24	38810.76
529.41	38712.46
529.58	38649.27
529.75	38813.10
529.92	39000.35
530.09	38871.62
530.26	38916.09
530.43	38923.11
530.60	38838.85
530.77	39131.42
530.94	39428.66
531.11	39505.90
531.28	39384.19
531.46	39533.99
531.63	39981.03
531.80	39599.52
531.97	39009.71
532.14	39117.37
532.31	38981.62
532.48	39550.37
532.65	39934.22
532.82	39597.18
532.99	39367.81
533.16	39653.36
533.33	39826.56
533.50	40037.20
533.67	40072.31
533.84	40084.01
534.01	40105.08
534.18	40130.83
534.35	40676.17
534.52	39819.53
534.69	40222.11
534.86	40706.60
535.03	40465.52
535.20	40437.44
535.37	40509.99
535.54	40732.34
535.71	40521.69
535.88	40917.25
536.05	40751.07
536.22	40751.07
536.38	41088.10
536.55	40179.98
536.72	40392.97
536.89	40371.90
537.06	40650.42
537.23	41116.19
537.40	41043.63
537.57	40699.58
537.74	41034.27
537.91	41574.94
538.08	41020.23
538.25	40931.29
538.42	40961.72
538.59	40952.35
538.75	41230.88
538.92	40879.80
539.09	41315.14
539.26	40788.52
539.43	41148.96
539.60	41446.21
539.77	40917.25
539.94	41153.64
540.11	41303.43
540.28	41631.11
540.44	41228.54
540.61	41799.63
540.78	40945.33
540.95	41167.68
541.12	41375.99
541.29	41375.99
541.46	41598.34
541.62	41764.52
541.79	41874.52
541.96	41722.39
542.13	41638.13
542.30	41837.08
542.47	41916.65
542.63	41783.24
542.80	42061.77
542.97	42440.93
543.14	42799.04
543.31	42581.37
543.48	42522.85
543.64	42653.92
543.81	42871.59
543.98	42511.15
544.15	42263.05
544.32	42813.08
544.48	43281.19
544.65	42899.68
544.82	43112.67
544.99	43028.41
545.16	42625.84
545.32	42773.29
545.49	42972.24
545.66	43632.27
545.83	43159.48
546.00	43126.71
546.16	43508.22
546.33	43133.73
546.50	43033.09
546.67	43208.63
546.83	42965.21
547.00	43208.63
547.17	43049.47
547.34	43491.83
547.50	43171.18
547.67	43267.14
547.84	43599.50
548.00	43463.75
548.17	43510.56
548.34	43440.34
548.51	44280.60
548.67	43489.49
548.84	43943.56
549.01	43456.73
549.18	43615.88
549.34	43641.63
549.51	43632.27
549.68	43517.58
549.84	43957.60
550.01	44126.12
550.18	43847.60
550.34	43688.44
550.51	43831.21
550.68	43803.13
550.84	43627.59
551.01	43613.54
551.18	43686.10
551.34	44018.46
551.51	44318.04
551.68	44320.38
551.84	44044.20
552.01	44034.84
552.18	44011.43
552.34	43934.20
552.51	44364.85
552.68	43863.98
552.84	44296.98
553.01	44362.51
553.18	43922.49
553.34	44435.07
553.51	44451.45
553.67	44247.83
553.84	45052.97
554.01	44563.80
554.17	45123.19
554.34	44942.97
554.51	44758.06
554.67	44587.21
554.84	44088.67
555.00	44706.57
555.17	44392.94
555.33	44535.71
555.50	44767.43
555.67	44329.75
555.83	44463.16
556.00	44339.11
556.16	44804.88
556.33	44687.85
556.50	44905.52
556.66	45043.61
556.83	44430.39
556.99	44739.34
557.16	45090.42
557.32	45031.91
557.49	44512.31
557.65	44617.63
557.82	45099.78
557.98	45092.76
558.15	44538.05
558.32	44921.90
558.48	44711.25
558.65	44982.76
558.81	44669.12
558.98	44631.68
559.14	45244.90
559.31	44524.01
559.47	45137.23
559.64	45139.57
559.80	45212.13
559.97	45174.68
560.13	45092.76
560.30	45221.49
560.46	45170.00
560.63	45319.79
560.79	45010.84
560.96	45631.08
561.12	44830.62
561.29	44945.31
561.45	45390.01
561.61	44818.92
561.78	45310.43
561.94	44994.46
562.11	44919.56
562.27	45113.83
562.44	45249.58
562.60	45586.61
562.77	45523.42
562.93	45141.91
563.10	45567.89
563.26	45050.63
563.42	45631.08
563.59	45305.75
563.75	45116.17
563.92	45687.26
564.08	45504.70
564.24	45607.68
564.41	45963.44
564.57	45474.27
564.74	45572.57
564.90	45268.30
565.07	45537.46
565.23	45275.32
565.39	45338.52
565.56	45558.53
565.72	45439.16
565.88	45247.24
566.05	45301.07
566.21	45071.70
566.38	45682.58
566.54	45581.93
566.70	45680.24
566.87	45825.35
567.03	45647.47
567.19	46164.73
567.36	45633.42
567.52	45654.49
567.68	45645.13
567.85	45495.33
568.01	45514.06
568.17	45549.17
568.34	45757.47
568.50	45277.66
568.66	45043.61
568.83	45741.09
568.99	45584.27
569.15	45717.68
569.32	45825.35
569.48	45453.20
569.64	45546.82
569.81	45635.77
569.97	45586.61
570.13	46000.89
570.30	45165.32
570.46	45443.84
570.62	45413.41
570.78	44961.69
570.95	45553.85
571.11	45790.24
571.27	45633.42
571.43	45497.67
571.60	45965.78
571.76	45350.22
571.92	45881.52
572.09	45823.01
572.25	45989.19
572.41	45808.96
572.57	46368.35
572.74	46370.69
572.90	46143.66
573.06	46251.33
573.22	45998.55
573.38	45862.80
573.55	45684.92
573.71	45832.37
573.87	45879.18
574.03	46092.17
574.20	46143.66
574.36	45785.56
574.52	45933.01
574.68	46087.49
574.84	45897.91
575.01	45780.88
575.17	46033.66
575.33	45815.99
575.49	45860.46
575.65	45598.32
575.82	46000.89
575.98	45738.75
576.14	46057.06
576.30	45986.85
576.46	45886.20
576.62	45759.81
576.79	45668.53
576.95	45951.74
577.11	45984.51
577.27	45755.13
577.43	45916.63
577.59	45907.27
577.75	45588.95
577.92	45577.25
578.08	45633.42
578.24	45450.86
578.40	45991.53
578.56	45705.98
578.72	45963.44
578.88	46068.76
579.04	46024.29
579.21	45385.33
579.37	45530.44
579.53	45586.61
579.69	45853.44
579.85	46061.74
580.01	46031.32
580.17	45663.85
580.33	45811.31
580.49	46043.02
580.65	45869.82
580.82	45588.95
580.98	46305.16
581.14	45436.82
581.30	46071.10
581.46	45708.32
581.62	45897.91
581.78	45902.59
581.94	46108.55
582.10	46136.64
582.26	46061.74
582.42	46050.04
582.58	46043.02
582.74	46225.58
582.90	46080.47
583.06	46412.82
583.22	46059.40
583.38	46370.69
583.54	46541.55
583.70	46466.66
583.86	45841.73
584.02	45481.29
584.18	45942.38
584.34	45862.80
584.50	45862.80
584.66	46197.49
584.82	45762.15
584.98	46520.49
585.14	46162.39
585.30	45991.53
585.46	46043.02
585.62	45600.66
585.78	45996.21
585.94	45717.68
586.10	46071.10
586.26	45710.66
586.42	45925.99
586.58	46209.20
586.74	46052.38
586.90	45811.31
587.06	45975.14
587.22	45925.99
587.38	45996.21
587.54	46162.39
587.70	46181.11
587.86	46300.48
588.02	45769.18
588.18	46162.39
588.34	45600.66
588.49	45904.93
588.65	45530.44
588.81	45776.20
588.97	46021.95
589.13	45504.70
589.29	45455.54
589.45	45497.67
589.61	45642.79
589.77	46143.66
589.93	46260.69
