SpectraSuite Data File
++++++++++++++++++++++++++++++++++++
Date: Fri Oct 25 10:48:01 EDT 2013
User: price-jones
Dark Spectrum Present: No
Reference Spectrum Present: No
Number of Sampled Component Spectra: 1
Spectrometers: USB2+H05261
Integration Time (usec): 100000 (USB2+H05261)
Spectra Averaged: 1 (USB2+H05261)
Boxcar Smoothing: 0 (USB2+H05261)
Correct for Electrical Dark: No (USB2+H05261)
Strobe/Lamp Enabled: No (USB2+H05261)
Correct for Detector Non-linearity: No (USB2+H05261)
Correct for Stray Light: No (USB2+H05261)
Number of Pixels in Processed Spectrum: 2048
>>>>>Begin Processed Spectral Data<<<<<
365.73	126.39
365.92	126.39
366.12	126.39
366.32	81.92
366.52	58.51
366.72	7.02
366.91	60.85
367.11	51.49
367.31	0.00
367.51	56.17
367.70	28.09
367.90	21.06
368.10	9.36
368.30	14.04
368.49	56.17
368.69	58.51
368.89	74.90
369.09	32.77
369.28	86.60
369.48	114.69
369.68	81.92
369.87	110.01
370.07	79.58
370.27	142.77
370.47	180.22
370.66	388.53
370.86	411.93
371.06	425.98
371.25	428.32
371.45	461.09
371.65	442.36
371.84	449.38
372.04	423.64
372.24	468.11
372.44	510.24
372.63	554.71
372.83	472.79
373.03	442.36
373.22	489.17
373.42	402.57
373.62	566.41
373.81	500.87
374.01	578.11
374.21	578.11
374.40	524.28
374.60	533.64
374.79	479.81
374.99	557.05
375.19	498.53
375.38	587.47
375.58	571.09
375.78	561.73
375.97	503.22
376.17	636.63
376.37	610.88
376.56	535.98
376.76	571.09
376.95	608.54
377.15	599.18
377.35	660.03
377.54	648.33
377.74	587.47
377.93	575.77
378.13	517.26
378.33	599.18
378.52	627.26
378.72	585.13
378.91	613.22
379.11	545.34
379.31	578.11
379.50	631.94
379.70	585.13
379.89	589.82
380.09	634.29
380.28	578.11
380.48	695.14
380.68	690.46
380.87	739.61
381.07	695.14
381.26	641.31
381.46	641.31
381.65	723.23
381.85	685.78
382.04	692.80
382.24	671.73
382.43	631.94
382.63	667.05
382.83	634.29
383.02	645.99
383.22	718.54
383.41	688.12
383.61	643.65
383.80	755.99
384.00	737.27
384.19	734.93
384.39	732.59
384.58	704.50
384.78	732.59
384.97	685.78
385.17	667.05
385.36	660.03
385.56	793.44
385.75	732.59
385.95	709.18
386.14	809.83
386.34	791.10
386.53	706.84
386.72	767.70
386.92	755.99
387.11	737.27
387.31	784.08
387.50	816.85
387.70	798.12
387.89	828.55
388.09	870.68
388.28	746.63
388.48	798.12
388.67	915.15
388.86	802.80
389.06	826.21
389.25	908.13
389.45	877.70
389.64	875.36
389.84	940.90
390.03	1004.09
390.22	812.17
390.42	915.15
390.61	863.66
390.81	891.74
391.00	814.51
391.19	973.66
391.39	971.32
391.58	952.60
391.78	985.37
391.97	1039.20
392.16	882.38
392.36	1025.15
392.55	973.66
392.75	917.49
392.94	973.66
393.13	978.34
393.33	903.45
393.52	933.87
393.71	957.28
393.91	1011.11
394.10	992.39
394.29	1074.31
394.49	1149.20
394.68	1137.50
394.88	1114.10
395.07	1078.99
395.26	1128.14
395.46	1121.12
395.65	1093.03
395.84	1039.20
396.04	1128.14
396.23	1174.95
396.42	1116.44
396.62	1048.56
396.81	1203.04
397.00	1130.48
397.19	1188.99
397.39	1146.86
397.58	1167.93
397.77	1165.59
397.97	1137.50
398.16	1247.51
398.35	1303.68
398.55	1331.76
398.74	1296.66
398.93	1299.00
399.12	1306.02
399.32	1282.61
399.51	1228.78
399.70	1313.04
399.90	1336.45
400.09	1394.96
400.28	1409.00
400.47	1371.55
400.67	1425.39
400.86	1409.00
401.05	1509.65
401.24	1511.99
401.44	1523.69
401.63	1474.54
401.82	1448.79
402.01	1411.34
402.21	1472.20
402.40	1586.88
402.59	1479.22
402.78	1511.99
402.97	1537.73
403.17	1495.60
403.36	1519.01
403.55	1577.52
403.74	1493.26
403.93	1593.90
404.13	1626.67
404.32	1640.72
404.51	1687.53
404.70	1671.14
404.89	1645.40
405.09	1727.32
405.28	1746.04
405.47	1739.02
405.66	1643.06
405.85	1783.49
406.05	1687.53
406.24	1706.25
406.43	1769.44
406.62	1746.04
406.81	1844.34
407.00	1846.68
407.20	1729.66
407.39	1959.03
407.58	1952.01
407.77	1907.54
407.96	1898.17
408.15	1802.21
408.34	1968.39
408.54	1973.07
408.73	2024.56
408.92	2026.90
409.11	1977.75
409.30	2001.16
409.49	2038.61
409.68	2066.69
409.87	2024.56
410.07	2078.40
410.26	2057.33
410.45	2017.54
410.64	2118.18
410.83	2195.42
411.02	2139.25
411.21	2235.21
411.40	2160.31
411.59	2279.68
411.78	2303.09
411.98	2289.04
412.17	2300.75
412.36	2258.62
412.55	2289.04
412.74	2331.17
412.93	2352.24
413.12	2480.97
413.31	2502.03
413.50	2553.52
413.69	2408.41
413.88	2560.55
414.07	2462.24
414.26	2553.52
414.45	2569.91
414.64	2527.78
414.83	2693.96
415.02	2595.65
415.22	2595.65
415.41	2841.41
415.60	2612.04
415.79	2715.02
415.98	2785.24
416.17	2747.79
416.36	2752.47
416.55	2836.73
416.74	2937.37
416.93	2771.19
417.12	2911.63
417.31	2937.37
417.50	2909.29
417.69	2874.18
417.88	3056.74
418.07	2963.12
418.26	3098.87
418.45	3075.46
418.64	3190.15
418.83	3089.51
419.02	3038.02
419.21	2991.20
419.39	3166.74
419.58	3148.02
419.77	3040.36
419.96	3040.36
420.15	3220.58
420.34	3077.80
420.53	3253.34
420.72	3279.09
420.91	3211.22
421.10	3339.94
421.29	3384.41
421.48	3279.09
421.67	3368.03
421.86	3318.88
422.05	3351.65
422.24	3281.43
422.43	3304.84
422.61	3391.44
422.80	3513.14
422.99	3478.04
423.18	3433.57
423.37	3473.36
423.56	3449.95
423.75	3485.06
423.94	3435.91
424.13	3131.64
424.32	3290.79
424.50	3442.93
424.69	3576.34
424.88	3510.80
425.07	3414.84
425.26	3459.31
425.45	3463.99
425.64	3449.95
425.83	3454.63
426.01	3597.40
426.20	3492.08
426.39	3676.98
426.58	3445.27
426.77	3449.95
426.96	3534.21
427.15	3592.72
427.33	3578.68
427.52	3602.08
427.71	3550.59
427.90	3625.49
428.09	3688.68
428.28	3639.53
428.46	3798.69
428.65	3772.94
428.84	3641.87
429.03	3831.46
429.22	3648.90
429.40	3714.43
429.59	3726.13
429.78	3522.51
429.97	3466.33
430.16	3651.24
430.34	3777.62
430.53	3796.35
430.72	3854.86
430.91	3894.65
431.10	3892.31
431.28	3990.61
431.47	4065.51
431.66	4124.02
431.85	4018.70
432.03	4149.77
432.22	4149.77
432.41	3836.14
432.60	4147.43
432.79	4222.33
432.97	4072.53
433.16	4304.25
433.35	4095.94
433.54	4145.09
433.72	4198.92
433.91	4369.78
434.10	4283.18
434.28	4269.14
434.47	4320.63
434.66	4283.18
434.85	4432.97
435.03	4320.63
435.22	4456.38
435.41	4400.21
435.59	4425.95
435.78	4440.00
435.97	4526.60
436.16	4430.63
436.34	4585.11
436.53	4552.34
436.72	4732.56
436.90	4463.40
437.09	4690.43
437.28	4669.37
437.46	4648.30
437.65	4741.93
437.84	4671.71
438.02	4596.81
438.21	4596.81
438.40	4648.30
438.58	4873.00
438.77	4770.01
438.96	4830.87
439.14	4938.53
439.33	5118.75
439.52	4933.85
439.70	4884.70
439.89	5116.41
440.08	5036.83
440.26	5090.67
440.45	5034.49
440.63	5146.84
440.82	5090.67
441.01	5074.28
441.19	5303.65
441.38	5327.06
441.57	5376.21
441.75	5437.06
441.94	5582.18
442.12	5596.22
442.31	5631.33
442.50	5636.01
442.68	5308.34
442.87	5467.49
443.05	5591.54
443.24	5476.85
443.43	5659.42
443.61	5579.84
443.80	5877.09
443.98	5631.33
444.17	5507.28
444.35	5579.84
444.54	5895.81
444.73	5734.31
444.91	5748.36
445.10	5959.00
445.28	5755.38
445.47	5624.31
445.65	5736.65
445.84	5654.73
446.02	5860.70
446.21	5731.97
446.39	5713.25
446.58	5856.02
446.77	5809.21
446.95	5722.61
447.14	6003.47
447.32	5760.06
447.51	5790.49
447.69	5865.38
447.88	5968.37
448.06	5881.77
448.25	5879.43
448.43	6029.22
448.62	6005.81
448.80	5928.58
448.99	6057.31
449.17	6047.94
449.36	6005.81
449.54	6101.78
449.73	6354.55
449.91	6169.65
450.10	6218.80
450.28	6469.24
450.46	6200.08
450.65	6148.59
450.83	6314.77
451.02	6132.20
451.20	6394.34
451.39	6186.04
451.57	6190.72
451.76	6139.23
451.94	6452.86
452.13	6305.40
452.31	6457.54
452.49	6305.40
452.68	6436.47
452.86	6384.98
453.05	6363.92
453.23	6499.67
453.42	6424.77
453.60	6314.77
453.78	6607.33
453.97	6532.44
454.15	6609.67
454.34	6429.45
454.52	6644.78
454.70	6513.71
454.89	6829.68
455.07	6539.46
455.26	6820.32
455.44	6722.02
455.62	6883.52
455.81	6881.18
455.99	6883.52
456.17	6775.85
456.36	6881.18
456.54	6906.92
456.73	7040.33
456.91	7220.55
457.09	7033.31
457.28	7293.11
457.46	7028.63
457.64	7199.49
457.83	7187.79
458.01	7005.22
458.19	7332.90
458.38	6988.84
458.56	7260.34
458.74	7372.69
458.93	7243.96
459.11	7248.64
459.29	7229.91
459.48	7351.62
459.66	7302.47
459.84	7407.80
460.03	7510.78
460.21	7382.05
460.39	7489.71
460.57	7508.44
460.76	7550.57
460.94	7693.34
461.12	7508.44
461.31	7609.08
461.49	7730.79
461.67	7405.46
461.85	7691.00
462.04	7733.13
462.22	8304.22
462.40	7850.16
462.59	8039.74
462.77	7974.21
462.95	7887.61
463.13	7901.65
463.32	7880.58
463.50	7889.95
463.68	7878.24
463.86	8112.30
464.05	7953.14
464.23	7840.79
464.41	8028.04
464.59	7793.98
464.78	8114.64
464.96	8051.44
465.14	7957.82
465.32	8308.90
465.50	8280.82
465.69	8156.77
465.87	8152.09
466.05	8121.66
466.23	8154.43
466.41	8212.94
466.60	8528.91
466.78	8241.03
466.96	8315.92
467.14	8173.15
467.32	8379.12
467.51	8425.93
467.69	8290.18
467.87	8362.73
468.05	8573.38
468.23	8369.76
468.41	8449.33
468.60	8329.97
468.78	8411.89
468.96	8404.86
469.14	8557.00
469.32	8835.52
469.50	8657.64
469.69	8713.81
469.87	8868.29
470.05	8737.22
470.23	8774.67
470.41	8716.16
470.59	8716.16
470.77	8739.56
470.95	8971.27
471.14	9202.99
471.32	8849.57
471.50	9378.53
471.68	9132.77
471.86	9137.45
472.04	9245.12
472.22	9322.35
472.40	9249.80
472.58	9233.41
472.77	9200.65
472.95	9383.21
473.13	9792.80
473.31	9394.91
473.49	9249.80
473.67	9394.91
473.85	9465.13
474.03	9902.81
474.21	9888.76
474.39	9895.78
474.57	10087.71
474.75	9926.21
474.93	10066.64
475.12	9926.21
475.30	9933.23
475.48	9958.98
475.66	10141.54
475.84	10094.73
476.02	10279.63
476.20	10272.61
476.38	10356.87
476.56	10583.90
476.74	10569.86
476.92	10466.88
477.10	10640.08
477.28	10932.64
477.46	10642.42
477.64	10998.18
477.82	11108.18
478.00	11346.92
478.18	10981.79
478.36	11262.66
478.54	11351.60
478.72	11412.45
478.90	11637.14
479.08	11595.01
479.26	11978.86
479.44	12006.95
479.62	11819.71
479.80	11946.09
479.98	12023.33
480.16	12313.56
480.34	12131.00
480.52	12278.45
480.70	12482.08
480.88	12180.15
481.06	12348.67
481.24	12393.14
481.41	12840.18
481.59	13146.79
481.77	13018.06
481.95	12751.24
482.13	12910.40
482.31	13158.49
482.49	13584.47
482.67	13310.63
482.85	13284.88
483.03	13458.08
483.21	13626.60
483.39	13881.72
483.57	13965.98
483.74	13987.04
483.92	14043.21
484.10	13832.57
484.28	14024.49
484.46	14242.16
484.64	14480.89
484.82	14251.52
485.00	14513.66
485.18	15094.11
485.35	15215.82
485.53	14780.48
485.71	14745.38
485.89	15389.02
486.07	15037.94
486.25	15197.10
486.43	15428.81
486.61	15618.39
486.78	15552.86
486.96	15964.79
487.14	16079.48
487.32	15908.62
487.50	16063.10
487.68	16334.60
487.85	16374.39
488.03	16999.31
488.21	17118.68
488.39	16889.31
488.57	16964.20
488.75	17151.45
488.92	17085.91
489.10	17298.90
489.28	17451.03
489.46	17598.49
489.64	17605.51
489.81	18232.77
489.99	18230.43
490.17	18335.76
490.35	18462.15
490.53	18382.57
490.70	18431.72
490.88	18911.53
491.06	18820.25
491.24	18827.27
491.41	18834.29
491.59	18927.91
491.77	19054.30
491.95	19080.05
492.13	19152.60
492.30	19704.97
492.48	19672.20
492.66	19468.58
492.84	19662.84
493.01	19740.08
493.19	19807.95
493.37	20168.40
493.54	20240.95
493.72	20514.80
493.90	20456.28
494.08	20889.28
494.25	21128.02
494.43	21158.44
494.61	21181.85
494.79	21010.99
494.96	20996.95
495.14	21102.27
495.32	21259.09
495.49	21181.85
495.67	21514.20
495.85	21621.87
496.02	21989.33
496.20	22019.76
496.38	22136.79
496.55	22230.41
496.73	22951.29
496.91	22600.21
497.09	22565.10
497.26	22817.88
497.44	22857.67
497.62	22944.27
497.79	22986.40
497.97	22927.89
498.14	23454.51
498.32	23374.93
498.50	23281.31
498.67	23372.59
498.85	23396.00
499.03	23857.08
499.20	23854.74
499.38	23894.53
499.56	24386.04
499.73	23931.98
499.91	24144.97
500.08	24269.01
500.26	24339.23
500.44	24177.73
500.61	24060.71
500.79	24341.57
500.97	24741.80
501.14	25029.69
501.32	24552.22
501.49	24875.21
501.67	24847.13
501.84	25376.09
502.02	25116.29
502.20	25465.03
502.37	25624.18
502.55	25324.60
502.72	25390.13
502.90	25352.68
503.07	25689.72
503.25	25703.76
503.43	25640.57
503.60	25862.92
503.78	26111.02
503.95	25991.65
504.13	26356.77
504.30	26361.45
504.48	26419.97
504.65	26478.48
504.83	26600.19
505.01	26845.94
505.18	26611.89
505.36	26534.65
505.53	26801.47
505.71	26939.57
505.88	27573.85
506.06	26836.58
506.23	26883.39
506.41	27150.21
506.58	27236.81
506.76	27147.87
506.93	27697.90
507.11	27353.84
507.28	27482.57
507.46	27552.79
507.63	27711.94
507.81	27779.82
507.98	27606.62
508.16	27810.25
508.33	27976.42
508.50	27978.76
508.68	28116.86
508.85	28481.98
509.03	28430.49
509.20	28011.53
509.38	29247.33
509.55	28957.11
509.73	28711.35
509.90	28957.11
510.08	28809.65
510.25	29270.74
510.42	29039.03
510.60	29397.13
510.77	28886.89
510.95	29385.43
511.12	29401.81
511.30	29439.26
511.47	29771.61
511.64	29429.90
511.82	29942.47
511.99	29729.48
512.17	29820.77
512.34	29628.84
512.51	30075.88
512.69	29993.97
512.86	29998.65
513.04	30478.46
513.21	30368.45
513.38	30188.23
513.56	30450.37
513.73	30277.17
513.90	30452.71
514.08	30623.57
514.25	30459.73
514.43	30572.08
514.60	30764.00
514.77	31122.10
514.95	30881.03
515.12	31019.12
515.29	30939.54
515.47	31346.79
515.64	31419.35
515.81	31065.93
515.99	31208.70
516.16	31243.81
516.33	31229.77
516.51	31749.37
516.68	31311.69
516.85	31447.44
517.03	31580.85
517.20	31756.39
517.37	31758.73
517.54	31967.04
517.72	31997.46
517.89	32018.53
518.06	31744.69
518.24	31971.72
518.41	31974.06
518.58	32465.57
518.75	32041.93
518.93	32514.72
519.10	32273.65
519.27	32692.60
519.45	32840.06
519.62	32292.37
519.79	32685.58
519.96	32601.32
520.14	32725.37
520.31	32652.81
520.48	32844.74
520.65	33039.00
520.83	33446.26
521.00	33338.59
521.17	33226.24
521.34	33439.23
521.52	33298.80
521.69	33584.35
521.86	33659.24
522.03	33956.49
522.20	33778.61
522.38	33792.65
522.55	34160.12
522.72	33780.95
522.89	33883.94
523.07	33764.57
523.24	33837.12
523.41	34082.88
523.58	34157.78
523.75	34600.14
523.92	34274.80
524.10	34843.56
524.27	34731.21
524.44	34459.71
524.61	34787.38
524.78	34726.53
524.96	34735.89
525.13	34518.22
525.30	35283.58
525.47	35089.31
525.64	34794.40
525.81	34827.17
525.98	35040.16
526.16	34693.76
526.33	34988.67
526.50	35220.38
526.67	35136.12
526.84	35030.80
527.01	35206.34
527.18	35840.62
527.36	35498.91
527.53	35557.42
527.70	36128.51
527.87	36165.96
528.04	35620.61
528.21	35716.58
528.38	35908.50
528.55	36081.70
528.72	35962.33
528.89	36184.68
529.07	35969.35
529.24	35934.24
529.41	35950.63
529.58	36383.63
529.75	35805.52
529.92	36264.26
530.09	36748.75
530.26	36610.66
530.43	36519.38
530.60	36144.89
530.77	36488.95
530.94	36737.05
531.11	36570.87
531.28	36947.70
531.46	36687.90
531.63	36741.73
531.80	36512.36
531.97	37247.29
532.14	36903.23
532.31	36786.20
532.48	37036.64
532.65	37371.33
532.82	37102.17
532.99	37380.70
533.16	37074.09
533.33	37581.98
533.50	37464.96
533.67	37539.85
533.84	37261.33
534.01	37581.98
534.18	37099.83
534.35	37890.93
534.52	37411.12
534.69	37628.79
534.86	38127.33
535.03	37572.62
535.20	38178.82
535.37	37757.52
535.54	38469.04
535.71	37965.83
535.88	38375.42
536.05	38337.98
536.22	38026.68
536.38	38148.39
536.55	38202.22
536.72	38593.09
536.89	38602.46
537.06	38309.89
537.23	38405.85
537.40	38384.79
537.57	38139.03
537.74	38707.78
537.91	39005.03
538.08	38904.38
538.25	38679.69
538.42	38663.31
538.59	38562.67
538.75	38637.56
538.92	38520.54
539.09	39093.97
539.26	39119.71
539.43	38955.88
539.60	38946.51
539.77	39021.41
539.94	38770.97
540.11	38663.31
540.28	38733.53
540.44	38951.20
540.61	39044.82
540.78	38815.44
540.95	39391.22
541.12	39379.51
541.29	39225.04
541.46	38888.00
541.62	39154.82
541.79	39885.07
541.96	39281.21
542.13	39700.17
542.30	39447.39
542.47	39625.27
542.63	40023.16
542.80	39957.63
542.97	40191.68
543.14	40360.20
543.31	40062.95
543.48	40226.79
543.64	40877.46
543.81	40257.21
543.98	40470.20
544.15	40191.68
544.32	40353.18
544.48	40657.45
544.65	40582.55
544.82	40304.02
544.99	40100.40
545.16	40451.48
545.32	40395.31
545.49	40477.22
545.66	41144.28
545.83	40800.22
546.00	41333.86
546.16	41017.89
546.33	40655.11
546.50	40399.99
546.67	40739.36
546.83	40467.86
547.00	40952.35
547.17	40952.35
547.34	40840.01
547.50	40854.05
547.67	41160.66
547.84	40872.78
548.00	41163.00
548.17	41394.71
548.34	41539.83
548.51	41677.92
548.67	41933.04
548.84	41507.06
549.01	40959.38
549.18	41113.85
549.34	41134.92
549.51	41481.31
549.68	41413.44
549.84	41703.67
550.01	41766.86
550.18	41436.84
550.34	41567.91
550.51	41212.15
550.68	41591.32
550.84	41104.49
551.01	41696.64
551.18	41792.61
551.34	41720.05
551.51	41750.48
551.68	42188.16
551.84	41731.75
552.01	41715.37
552.18	42087.51
552.34	41860.48
552.51	42085.17
552.68	41858.14
552.84	42054.75
553.01	42178.79
553.18	42026.66
553.34	41935.38
553.51	42120.28
553.67	42183.48
553.84	42146.03
554.01	42616.47
554.17	42714.78
554.34	42625.84
554.51	42300.50
554.67	42618.81
554.84	42241.99
555.00	42258.37
555.17	42387.10
555.33	42625.84
555.50	42305.18
555.67	42536.90
555.83	42777.97
556.00	42541.58
556.16	43217.99
556.33	43225.01
556.50	42784.99
556.66	43187.56
556.83	42581.37
556.99	42745.20
557.16	43115.01
557.32	42586.05
557.49	42913.72
557.65	43257.78
557.82	42333.27
557.98	42834.14
558.15	43208.63
558.32	43435.66
558.48	43079.90
558.65	43138.41
558.81	42705.41
558.98	42925.42
559.14	42990.96
559.31	43086.92
559.47	43157.14
559.64	43711.84
559.80	43419.28
559.97	43269.48
560.13	43302.25
560.30	43346.72
560.46	43370.13
560.63	43290.55
560.79	43384.17
560.96	43679.08
561.12	43622.90
561.29	42902.02
561.45	43414.60
561.61	43714.19
561.78	43545.67
561.94	42796.70
562.11	43227.35
562.27	43721.21
562.44	43356.08
562.60	43667.37
562.77	43873.34
562.93	43381.83
563.10	43615.88
563.26	43178.20
563.42	43618.22
563.59	43306.93
563.75	43484.81
563.92	44013.77
564.08	43805.47
564.24	43643.97
564.41	43540.99
564.57	43878.02
564.74	43590.14
564.90	43807.81
565.07	43615.88
565.23	43648.65
565.39	43688.44
565.56	43889.73
565.72	43290.55
565.88	43866.32
566.05	43758.66
566.21	43618.22
566.38	43398.21
566.54	43882.70
566.70	43868.66
566.87	44502.95
567.03	44023.14
567.19	43988.03
567.36	43981.01
567.52	43725.89
567.68	44311.02
567.85	43718.87
568.01	43941.22
568.17	43246.08
568.34	43971.64
568.50	43826.53
568.66	44130.80
568.83	43768.02
568.99	43473.11
569.15	43934.20
569.32	43973.98
569.48	43742.27
569.64	44196.34
569.81	44233.78
569.97	43449.70
570.13	43969.30
570.30	43615.88
570.46	44023.14
570.62	44165.91
570.78	43658.01
570.95	44226.76
571.11	44371.88
571.27	44184.63
571.43	43929.51
571.60	44233.78
571.76	44009.09
571.92	44215.06
572.09	44236.12
572.25	44081.65
572.41	44086.33
572.57	44624.65
572.74	44722.96
572.90	44357.83
573.06	44371.88
573.22	44673.81
573.38	44236.12
573.55	44119.10
573.71	44184.63
573.87	43931.86
574.03	44231.44
574.20	44203.36
574.36	43775.04
574.52	44254.85
574.68	44245.49
574.84	44261.87
575.01	44060.58
575.17	44023.14
575.33	44041.86
575.49	44273.57
575.65	44081.65
575.82	44421.03
575.98	44418.69
576.14	45015.52
576.30	44299.32
576.46	44327.41
576.62	44121.44
576.79	44322.72
576.95	43856.96
577.11	44107.40
577.27	44163.57
577.43	44315.70
577.59	44072.29
577.75	44268.89
577.92	43835.89
578.08	43938.88
578.24	43992.71
578.40	44051.22
578.56	44348.47
578.72	44219.74
578.88	44694.87
579.04	44215.06
579.21	44142.50
579.37	44271.23
579.53	44088.67
579.69	44339.11
579.85	44231.44
580.01	44161.23
580.17	44493.58
580.33	45113.83
580.49	44495.92
580.65	44629.34
580.82	44577.84
580.98	44170.59
581.14	43775.04
581.30	44641.04
581.46	44376.56
581.62	44318.04
581.78	44376.56
581.94	44722.96
582.10	44577.84
582.26	44371.88
582.42	44219.74
582.58	44575.50
582.74	44432.73
582.90	44594.23
583.06	44575.50
583.22	44863.39
583.38	44526.35
583.54	44301.66
583.70	44147.18
583.86	44374.22
584.02	44198.68
584.18	44877.43
584.34	44374.22
584.50	44495.92
584.66	44247.83
584.82	44189.31
584.98	44662.10
585.14	44905.52
585.30	44552.10
585.46	44596.57
585.62	44465.50
585.78	44545.08
585.94	43976.33
586.10	44252.51
586.26	44388.26
586.42	44968.71
586.58	45057.65
586.74	44783.81
586.90	44549.76
587.06	44516.99
587.22	44598.91
587.38	44545.08
587.54	44622.31
587.70	44795.51
587.86	44458.48
588.02	44844.66
588.18	44683.17
588.34	44605.93
588.49	44566.14
588.65	43924.83
588.81	44275.91
588.97	44268.89
589.13	44280.60
589.29	44622.31
589.45	44325.07
589.61	44528.69
589.77	45132.55
589.93	44208.04
590.08	44980.42
590.24	44847.00
590.40	44650.40
