SpectraSuite Data File
++++++++++++++++++++++++++++++++++++
Date: Fri Oct 25 10:44:24 EDT 2013
User: price-jones
Dark Spectrum Present: No
Reference Spectrum Present: No
Number of Sampled Component Spectra: 1
Spectrometers: USB2+H05261
Integration Time (usec): 100000 (USB2+H05261)
Spectra Averaged: 1 (USB2+H05261)
Boxcar Smoothing: 0 (USB2+H05261)
Correct for Electrical Dark: No (USB2+H05261)
Strobe/Lamp Enabled: No (USB2+H05261)
Correct for Detector Non-linearity: No (USB2+H05261)
Correct for Stray Light: No (USB2+H05261)
Number of Pixels in Processed Spectrum: 2048
>>>>>Begin Processed Spectral Data<<<<<
365.73	107.66
365.92	107.66
366.12	107.66
366.32	42.13
366.52	77.24
366.72	60.85
366.91	4.68
367.11	49.15
367.31	37.45
367.51	11.70
367.70	0.00
367.90	93.62
368.10	91.28
368.30	79.58
368.49	2.34
368.69	46.81
368.89	21.06
369.09	30.43
369.28	39.79
369.48	56.17
369.68	128.73
369.87	135.75
370.07	35.11
370.27	138.09
370.47	133.41
370.66	379.17
370.86	519.60
371.06	421.30
371.25	507.90
371.45	402.57
371.65	479.81
371.84	465.77
372.04	409.59
372.24	521.94
372.44	526.62
372.63	486.83
372.83	552.37
373.03	528.96
373.22	437.68
373.42	510.24
373.62	550.03
373.81	524.28
374.01	566.41
374.21	573.43
374.40	559.39
374.60	587.47
374.79	606.20
374.99	603.86
375.19	566.41
375.38	627.26
375.58	587.47
375.78	599.18
375.97	587.47
376.17	643.65
376.37	678.76
376.56	650.67
376.76	613.22
376.95	603.86
377.15	638.97
377.35	629.60
377.54	648.33
377.74	643.65
377.93	671.73
378.13	615.56
378.33	603.86
378.52	674.07
378.72	695.14
378.91	608.54
379.11	660.03
379.31	730.25
379.50	734.93
379.70	690.46
379.89	678.76
380.09	737.27
380.28	753.65
380.48	720.88
380.68	695.14
380.87	603.86
381.07	685.78
381.26	695.14
381.46	748.97
381.65	739.61
381.85	678.76
382.04	706.84
382.24	732.59
382.43	751.31
382.63	697.48
382.83	802.80
383.02	765.36
383.22	709.18
383.41	727.91
383.61	767.70
383.80	856.64
384.00	802.80
384.19	816.85
384.39	854.30
384.58	779.40
384.78	819.19
384.97	816.85
385.17	781.74
385.36	751.31
385.56	800.46
385.75	866.00
385.95	842.59
386.14	866.00
386.34	727.91
386.53	772.38
386.72	901.11
386.92	763.01
387.11	882.38
387.31	889.40
387.50	926.85
387.70	851.96
387.89	819.19
388.09	901.11
388.28	894.08
388.48	971.32
388.67	985.37
388.86	994.73
389.06	915.15
389.25	1015.79
389.45	997.07
389.64	1053.24
389.84	1057.92
390.03	1057.92
390.22	966.64
390.42	1086.01
390.61	994.73
390.81	1057.92
391.00	1027.50
391.19	1074.31
391.39	1125.80
391.58	1067.28
391.78	1062.60
391.97	1039.20
392.16	1093.03
392.36	1069.62
392.55	1006.43
392.75	961.96
392.94	1008.77
393.13	1076.65
393.33	931.53
393.52	1071.97
393.71	1160.91
393.91	1064.94
394.10	1242.82
394.29	1188.99
394.49	1186.65
394.68	1289.64
394.88	1151.54
395.07	1343.47
395.26	1362.19
395.46	1219.42
395.65	1348.15
395.84	1301.34
396.04	1221.76
396.23	1118.78
396.42	1144.52
396.62	1284.95
396.81	1233.46
397.00	1261.55
397.19	1350.49
397.39	1387.94
397.58	1455.81
397.77	1383.26
397.97	1460.49
398.16	1488.58
398.35	1486.24
398.55	1483.90
398.74	1586.88
398.93	1582.20
399.12	1629.01
399.32	1533.05
399.51	1582.20
399.70	1652.42
399.90	1572.84
400.09	1570.50
400.28	1680.50
400.47	1629.01
400.67	1701.57
400.86	1750.72
401.05	1755.40
401.24	1802.21
401.44	1764.76
401.63	1844.34
401.82	1860.73
402.01	1715.61
402.21	1764.76
402.40	1806.89
402.59	1853.70
402.78	1877.11
402.97	1788.17
403.17	1813.92
403.36	1961.37
403.55	1863.07
403.74	1944.99
403.93	1956.69
404.13	1898.17
404.32	1734.34
404.51	1956.69
404.70	2010.52
404.89	1919.24
405.09	2019.88
405.28	2017.54
405.47	2078.40
405.66	2064.35
405.85	2139.25
406.05	2083.08
406.24	2101.80
406.43	2047.97
406.62	2078.40
406.81	2242.23
407.00	2080.74
407.20	2146.27
407.39	2167.34
407.58	2225.85
407.77	2265.64
407.96	2242.23
408.15	2333.51
408.34	2270.32
408.54	2345.22
408.73	2375.64
408.92	2347.56
409.11	2340.54
409.30	2338.20
409.49	2293.72
409.68	2291.38
409.87	2256.28
410.07	2410.75
410.26	2380.32
410.45	2586.29
410.64	2427.14
410.83	2532.46
411.02	2532.46
411.21	2630.76
411.40	2670.55
411.59	2616.72
411.78	2623.74
411.98	2696.30
412.17	2745.45
412.36	2834.39
412.55	2850.77
412.74	2913.97
412.93	2810.98
413.12	2818.00
413.31	2991.20
413.50	2857.79
413.69	2984.18
413.88	3098.87
414.07	2953.76
414.26	2998.23
414.45	3124.62
414.64	3192.49
414.83	3166.74
415.02	3052.06
415.22	3258.03
415.41	3281.43
415.60	3342.28
415.79	3297.81
415.98	3391.44
416.17	3318.88
416.36	3353.99
416.55	3304.84
416.74	3396.12
416.93	3438.25
417.12	3342.28
417.31	3414.84
417.50	3442.93
417.69	3576.34
417.88	3543.57
418.07	3599.74
418.26	3550.59
418.45	3517.83
418.64	3655.92
418.83	3775.28
419.02	3723.79
419.21	3658.26
419.39	3709.75
419.58	3691.02
419.77	3595.06
419.96	3712.09
420.15	3789.33
420.34	3845.50
420.53	3833.80
420.72	4028.06
420.91	3939.12
421.10	4002.32
421.29	3911.04
421.48	3948.48
421.67	3988.27
421.86	3882.95
422.05	3829.12
422.24	3934.44
422.43	3964.87
422.61	3943.80
422.80	4056.15
422.99	3950.82
423.18	4067.85
423.37	4025.72
423.56	3985.93
423.75	3995.29
423.94	3990.61
424.13	3705.07
424.32	3868.91
424.50	3995.29
424.69	4032.74
424.88	4205.94
425.07	4046.79
425.26	3981.25
425.45	4112.32
425.64	4166.15
425.83	4194.24
426.01	4236.37
426.20	4084.23
426.39	4198.92
426.58	4037.42
426.77	4046.79
426.96	4042.11
427.15	4236.37
427.33	4273.82
427.52	4224.67
427.71	4231.69
427.90	4133.39
428.09	4290.20
428.28	4212.96
428.46	4430.63
428.65	4229.35
428.84	4327.65
429.03	4327.65
429.22	4280.84
429.40	4257.43
429.59	4217.65
429.78	4039.76
429.97	4021.04
430.16	4215.30
430.34	4074.87
430.53	4236.37
430.72	4318.29
430.91	4376.80
431.10	4496.17
431.28	4526.60
431.47	4805.12
431.66	4683.41
431.85	4697.46
432.03	4795.76
432.22	4835.55
432.41	4711.50
432.60	4774.69
432.79	4891.72
432.97	4978.32
433.16	5048.54
433.35	4788.74
433.54	4765.33
433.72	4772.35
433.91	4847.25
434.10	4830.87
434.28	4884.70
434.47	4905.76
434.66	4980.66
434.85	5064.92
435.03	5064.92
435.22	5109.39
435.41	5158.54
435.59	5263.86
435.78	5116.41
435.97	5296.63
436.16	5247.48
436.34	5324.72
436.53	5303.65
436.72	5434.72
436.90	5207.69
437.09	5378.55
437.28	5270.89
437.46	5121.09
437.65	5298.97
437.84	5247.48
438.02	5305.99
438.21	5296.63
438.40	5416.00
438.58	5617.29
438.77	5568.13
438.96	5430.04
439.14	5694.52
439.33	5696.86
439.52	5738.99
439.70	5738.99
439.89	5844.32
440.08	5827.93
440.26	6024.54
440.45	5994.11
440.63	5937.94
440.82	6029.22
441.01	6031.56
441.19	6153.27
441.38	6532.44
441.57	6228.17
441.75	6429.45
441.94	6443.49
442.12	6452.86
442.31	6401.37
442.50	6539.46
442.68	6520.73
442.87	6459.88
443.05	6462.22
443.24	6707.98
443.43	6558.18
443.61	6686.91
443.80	6869.47
443.98	6565.20
444.17	6354.55
444.35	6686.91
444.54	6963.09
444.73	6733.72
444.91	6850.75
445.10	6635.42
445.28	6654.14
445.47	6518.39
445.65	6656.48
445.84	6560.52
446.02	6998.20
446.21	6869.47
446.39	6897.56
446.58	6909.26
446.77	6745.42
446.95	6785.21
447.14	6806.28
447.32	7021.61
447.51	6920.96
447.69	6846.07
447.88	6883.52
448.06	6810.96
448.25	6794.58
448.43	6846.07
448.62	7124.59
448.80	6918.62
448.99	6942.03
449.17	7061.40
449.36	7178.42
449.54	7115.23
449.73	7229.91
449.91	7286.09
450.10	7262.68
450.28	7321.20
450.46	7382.05
450.65	7342.26
450.83	7452.27
451.02	7480.35
451.20	7592.70
451.39	7438.22
451.57	7246.30
451.76	7295.45
451.94	7456.95
452.13	7421.84
452.31	7384.39
452.49	7222.89
452.68	7412.48
452.86	7456.95
453.05	7363.33
453.23	7543.55
453.42	7382.05
453.60	7733.13
453.78	7552.91
453.97	7637.17
454.15	7714.41
454.34	7618.44
454.52	7939.10
454.70	7721.43
454.89	7761.22
455.07	7772.92
455.26	7866.54
455.44	7836.11
455.62	7957.82
455.81	8021.02
455.99	7871.22
456.17	7925.05
456.36	7971.86
456.54	8219.96
456.73	8278.47
456.91	8353.37
457.09	8360.39
457.28	8538.27
457.46	8332.31
457.64	8449.33
457.83	8292.52
458.01	8222.30
458.19	8514.87
458.38	8428.27
458.56	8477.42
458.74	8477.42
458.93	8402.52
459.11	8596.79
459.29	8484.44
459.48	8519.55
459.66	8641.26
459.84	8608.49
460.03	8814.46
460.21	8798.07
460.39	8870.63
460.57	8795.73
460.76	8795.73
460.94	9069.58
461.12	8837.86
461.31	8856.59
461.49	8982.98
461.67	8936.17
461.85	9095.32
462.04	9062.55
462.22	9404.27
462.40	9188.94
462.59	9046.17
462.77	9181.92
462.95	9142.13
463.13	9146.81
463.32	9275.54
463.50	9434.70
463.68	9231.07
463.86	9270.86
464.05	9289.59
464.23	8994.68
464.41	9158.52
464.59	9263.84
464.78	9633.64
464.96	9455.76
465.14	9483.85
465.32	9518.96
465.50	9371.50
465.69	9568.11
465.87	9591.52
466.05	9458.10
466.23	9462.79
466.41	9500.23
466.60	9481.51
466.78	9617.26
466.96	9500.23
467.14	9610.24
467.32	9736.63
467.51	9696.84
467.69	9355.12
467.87	9535.34
468.05	9902.81
468.23	9558.75
468.41	9785.78
468.60	9706.20
468.78	10026.86
468.96	9778.76
469.14	10066.64
469.32	10260.91
469.50	9874.72
469.69	10150.90
469.87	10274.95
470.05	10101.75
470.23	10274.95
470.41	10171.97
470.59	10113.45
470.77	10251.55
470.95	10057.28
471.14	10630.71
471.32	10153.24
471.50	10501.98
471.68	10527.73
471.86	10597.95
472.04	10389.64
472.22	10771.15
472.40	10677.52
472.58	10588.58
472.77	10761.78
472.95	10839.02
473.13	11145.63
473.31	10719.65
473.49	11054.35
473.67	10820.30
473.85	11040.31
474.03	11255.64
474.21	11295.43
474.39	11082.44
474.57	11421.81
474.75	11398.41
474.93	11470.97
475.12	11372.66
475.30	11431.18
475.48	11545.86
475.66	11669.91
475.84	11485.01
476.02	11618.42
476.20	11639.48
476.38	11918.01
476.56	12411.86
476.74	12077.16
476.92	12168.45
477.10	12042.06
477.28	12510.16
477.46	12489.10
477.64	12573.36
477.82	12669.32
478.00	12929.12
478.18	12894.01
478.36	12854.22
478.54	12877.63
478.72	12985.29
478.90	13308.29
479.08	13074.23
479.26	13570.43
479.44	13565.74
479.62	13682.77
479.80	13860.65
479.98	13654.69
480.16	14047.90
480.34	13942.57
480.52	14003.43
480.70	14270.25
480.88	14188.33
481.06	14312.38
481.24	14232.80
481.41	14909.21
481.59	15016.88
481.77	14647.07
481.95	14869.42
482.13	14824.95
482.31	15014.54
482.49	15363.28
482.67	15414.77
482.85	15508.39
483.03	15625.42
483.21	15917.98
483.39	16152.04
483.57	15707.34
483.74	15894.58
483.92	16093.52
484.10	16114.59
484.28	16182.46
484.46	16493.76
484.64	17006.33
484.82	16498.44
485.00	16713.77
485.18	16858.88
485.35	17048.46
485.53	16533.54
485.71	16460.99
485.89	16886.97
486.07	17095.27
486.25	17252.09
486.43	17408.90
486.61	17596.15
486.78	17759.98
486.96	17783.39
487.14	18033.83
487.32	18375.55
487.50	18537.04
487.68	18892.80
487.85	18743.01
488.03	19288.35
488.21	19040.26
488.39	19229.84
488.57	19360.91
488.75	19360.91
488.92	19625.39
489.10	20058.39
489.28	20030.30
489.46	20472.67
489.64	20182.44
489.81	20435.22
489.99	20776.94
490.17	20809.70
490.35	21022.69
490.53	20915.03
490.70	20973.54
490.88	20905.66
491.06	21645.27
491.24	21287.17
491.41	21254.40
491.59	21481.44
491.77	21205.25
491.95	21561.02
492.13	21874.65
492.30	21865.28
492.48	22480.85
492.66	22513.61
492.84	22628.30
493.01	22721.92
493.19	22911.50
493.37	22632.98
493.54	23005.13
493.72	23159.60
493.90	23351.52
494.08	23386.63
494.25	24107.52
494.43	23627.71
494.61	24044.32
494.79	23845.38
494.96	24072.41
495.14	24051.34
495.32	24320.51
495.49	24318.17
495.67	24304.12
495.85	24411.79
496.02	25097.56
496.20	25245.02
496.38	25158.42
496.55	25240.34
496.73	25771.64
496.91	25661.63
497.09	25612.48
497.26	25832.49
497.44	26059.52
497.62	26075.91
497.79	26391.88
497.97	25888.67
498.14	26167.19
498.32	26054.84
498.50	26441.03
498.67	26752.32
498.85	26424.65
499.03	27192.34
499.20	26831.90
499.38	26885.73
499.56	26635.30
499.73	27187.66
499.91	27374.91
500.08	27454.48
500.26	26986.38
500.44	27302.35
500.61	27419.38
500.79	27377.25
500.97	27522.36
501.14	28002.17
501.32	27611.30
501.49	27913.23
501.67	27648.75
501.84	27988.13
502.02	27854.72
502.20	28273.67
502.37	28423.47
502.55	28201.11
502.72	28716.03
502.90	28999.24
503.07	28528.79
503.25	28811.99
503.43	28744.12
503.60	28830.72
503.78	28861.15
503.95	29076.48
504.13	28980.51
504.30	29535.22
504.48	29582.03
504.65	29701.40
504.83	29949.50
505.01	30141.42
505.18	29982.26
505.36	30115.67
505.53	29951.84
505.71	30541.65
505.88	30560.37
506.06	30120.35
506.23	30593.14
506.41	30108.65
506.58	30401.22
506.76	30607.19
506.93	30637.61
507.11	30518.25
507.28	30801.45
507.46	30639.95
507.63	30661.02
507.81	30541.65
507.98	31126.78
508.16	31145.51
508.33	31625.32
508.50	31204.02
508.68	31660.43
508.85	32037.25
509.03	31943.63
509.20	31747.03
509.38	31976.40
509.55	32107.47
509.73	31995.12
509.90	32512.38
510.08	31934.27
510.25	32257.26
510.42	32266.63
510.60	32779.20
510.77	32823.67
510.95	32779.20
511.12	33170.07
511.30	32931.34
511.47	33132.62
511.64	33181.77
511.82	33146.67
511.99	33137.30
512.17	33181.77
512.34	33223.90
512.51	33406.47
512.69	33226.24
512.86	33577.33
513.04	33895.64
513.21	33607.75
513.38	33380.72
513.56	33380.72
513.73	33415.83
513.90	33722.44
514.08	33626.48
514.25	33890.96
514.43	33996.28
514.60	34125.01
514.77	34216.29
514.95	34338.00
515.12	34323.96
515.29	34291.19
515.47	34759.30
515.64	35126.76
515.81	34579.07
515.99	34859.94
516.16	34333.32
516.33	34232.68
516.51	34342.68
516.68	34005.64
516.85	34057.14
517.03	34504.18
517.20	34885.68
517.37	34766.32
517.54	35271.87
517.72	34682.06
517.89	34586.10
518.06	34438.64
518.24	35044.84
518.41	35196.98
518.58	35143.14
518.75	35112.72
518.93	35629.98
519.10	35435.71
519.27	35803.17
519.45	35543.38
519.62	36444.48
519.79	35723.60
519.96	36252.56
520.14	36290.01
520.31	36367.24
520.48	36348.52
520.65	36105.10
520.83	36727.69
521.00	36966.42
521.17	36285.33
521.34	37172.39
521.52	37053.02
521.69	37170.05
521.86	37289.42
522.03	37106.85
522.20	37188.77
522.38	37233.24
522.55	37549.21
522.72	36898.55
522.89	36739.39
523.07	37684.97
523.24	37067.06
523.41	37776.25
523.58	37710.71
523.75	38220.95
523.92	37757.52
524.10	37956.47
524.27	37750.50
524.44	38113.28
524.61	38733.53
524.78	38518.20
524.96	38529.90
525.13	38574.37
525.30	38703.10
525.47	38490.11
525.64	38033.71
525.81	38752.25
525.98	38286.48
526.16	38206.90
526.33	38220.95
526.50	38483.09
526.67	38220.95
526.84	37567.94
527.01	38181.16
527.18	38607.14
527.36	39400.58
527.53	39372.49
527.70	39019.07
527.87	39480.16
528.04	39180.57
528.21	39112.69
528.38	39278.87
528.55	39728.25
528.72	39484.84
528.89	39557.39
529.07	39770.38
529.24	39761.02
529.41	39709.53
529.58	39676.76
529.75	39744.64
529.92	39636.97
530.09	40046.57
530.26	40254.87
530.43	39634.63
530.60	39859.32
530.77	39936.56
530.94	40163.59
531.11	39924.86
531.28	40488.93
531.46	40573.19
531.63	40357.86
531.80	40470.20
531.97	40376.58
532.14	40350.84
532.31	39945.92
532.48	39611.23
532.65	40512.33
532.82	40538.08
532.99	41090.44
533.16	40374.24
533.33	40692.55
533.50	41350.24
533.67	41017.89
533.84	40701.92
534.01	41013.21
534.18	41125.55
534.35	41228.54
534.52	41184.07
534.69	41476.63
534.86	41106.83
535.03	41179.39
535.20	41677.92
535.37	41324.50
535.54	41801.97
535.71	41755.16
535.88	41537.49
536.05	41432.16
536.22	41708.35
536.38	41750.48
536.55	41408.76
536.72	41855.80
536.89	41401.74
537.06	42017.30
537.23	41755.16
537.40	41647.49
537.57	41851.12
537.74	41944.74
537.91	41933.04
538.08	42543.92
538.25	41841.76
538.42	42181.13
538.59	42359.02
538.75	41867.50
538.92	42068.79
539.09	42770.95
539.26	42047.72
539.43	42075.81
539.60	42216.24
539.77	42190.50
539.94	41869.84
540.11	42080.49
540.28	42054.75
540.44	42293.48
540.61	42234.97
540.78	42555.62
540.95	42691.37
541.12	42139.00
541.29	42607.11
541.46	42433.91
541.62	42707.76
541.79	42588.39
541.96	42656.26
542.13	42796.70
542.30	42782.65
542.47	43009.68
542.63	42899.68
542.80	42906.70
542.97	43643.97
543.14	43803.13
543.31	43194.59
543.48	43416.94
543.64	43988.03
543.81	43330.34
543.98	44027.82
544.15	43756.32
544.32	43789.08
544.48	44154.21
544.65	43646.31
544.82	43924.83
544.99	43452.05
545.16	43784.40
545.32	44027.82
545.49	44793.17
545.66	44364.85
545.83	43966.96
546.00	44046.54
546.16	43199.27
546.33	44215.06
546.50	44102.71
546.67	44584.86
546.83	44062.93
547.00	44027.82
547.17	44074.63
547.34	43936.54
547.50	44172.93
547.67	44418.69
547.84	44374.22
548.00	44549.76
548.17	44570.82
548.34	44526.35
548.51	44320.38
548.67	44416.35
548.84	44596.57
549.01	44524.01
549.18	44411.67
549.34	44500.61
549.51	44729.98
549.68	44360.17
549.84	44636.36
550.01	44807.22
550.18	44933.60
550.34	44823.60
550.51	44797.85
550.68	44402.30
550.84	44486.56
551.01	44870.41
551.18	44751.04
551.34	45102.12
551.51	45174.68
551.68	45397.03
551.84	45858.12
552.01	45078.72
552.18	45020.20
552.34	44856.37
552.51	44980.42
552.68	45230.85
552.84	45731.73
553.01	45179.36
553.18	45247.24
553.34	45415.76
553.51	44966.37
553.67	45024.89
553.84	45614.70
554.01	45670.87
554.17	45832.37
554.34	45776.20
554.51	45605.34
554.67	45687.26
554.84	45443.84
555.00	45221.49
555.17	45256.60
555.33	45504.70
555.50	45640.45
555.67	45453.20
555.83	45425.12
556.00	45764.49
556.16	45516.40
556.33	45954.08
556.50	45247.24
556.66	45947.06
556.83	45394.69
556.99	45811.31
557.16	46012.59
557.32	46101.53
557.49	45834.71
557.65	45837.05
557.82	45301.07
557.98	45879.18
558.15	45949.40
558.32	45797.26
558.48	45380.65
558.65	45748.11
558.81	45689.60
558.98	45820.67
559.14	45603.00
559.31	45574.91
559.47	46248.99
559.64	46312.18
559.80	46220.90
559.97	46057.06
560.13	45691.94
560.30	45771.52
560.46	46239.62
560.63	46349.63
560.79	46328.56
560.96	46438.57
561.12	46253.67
561.29	46429.21
561.45	46225.58
561.61	45832.37
561.78	45628.74
561.94	46071.10
562.11	45968.12
562.27	46822.42
562.44	46213.88
562.60	46438.57
562.77	46576.66
562.93	46267.71
563.10	46639.86
563.26	46361.33
563.42	46504.10
563.59	45787.90
563.75	46429.21
563.92	46677.30
564.08	46256.01
564.24	46841.14
564.41	46630.49
564.57	46305.16
564.74	46574.32
564.90	46234.94
565.07	46658.58
565.23	46253.67
565.39	46461.97
565.56	46822.42
565.72	45853.44
565.88	46375.37
566.05	46043.02
566.21	46342.61
566.38	46227.92
566.54	46459.63
566.70	46569.64
566.87	47058.81
567.03	46651.56
567.19	47089.24
567.36	46775.61
567.52	46457.29
567.68	46841.14
567.85	46564.96
568.01	46920.72
568.17	46419.84
568.34	46644.54
568.50	46656.24
568.66	46358.99
568.83	46927.74
568.99	46113.23
569.15	46579.00
569.32	46714.75
569.48	46363.67
569.64	46628.15
569.81	46672.62
569.97	46740.50
570.13	46506.44
570.30	46841.14
570.46	46288.77
570.62	46344.95
570.78	46218.56
570.95	46557.94
571.11	46651.56
571.27	46071.10
571.43	46555.60
571.60	46696.03
571.76	46789.65
571.92	46770.93
572.09	46843.48
572.25	46731.14
572.41	46768.58
572.57	46845.82
572.74	46911.36
572.90	46948.81
573.06	46665.60
573.22	46960.51
573.38	46831.78
573.55	46674.96
573.71	46684.33
573.87	46684.33
574.03	46698.37
574.20	47154.77
574.36	47007.32
574.52	46698.37
574.68	46672.62
574.84	47210.95
575.01	46576.66
575.17	46553.26
575.33	46195.15
575.49	46644.54
575.65	46590.70
575.82	46747.52
575.98	46656.24
576.14	46979.23
576.30	47035.41
576.46	46738.16
576.62	46972.21
576.79	46958.17
576.95	46188.13
577.11	46974.55
577.27	46855.18
577.43	46653.90
577.59	46681.98
577.75	46703.05
577.92	46829.44
578.08	46450.27
578.24	46328.56
578.40	46939.44
578.56	46597.73
578.72	46845.82
578.88	47398.19
579.04	47105.62
579.21	46859.87
579.37	46841.14
579.53	47056.47
579.69	46571.98
579.85	46913.70
580.01	47353.72
580.17	46663.26
580.33	47253.08
580.49	47412.23
580.65	47105.62
580.82	47246.05
580.98	47056.47
581.14	47196.90
581.30	47002.64
581.46	47093.92
581.62	47105.62
581.78	46794.33
581.94	47154.77
582.10	46665.60
582.26	46925.40
582.42	46909.02
582.58	46967.53
582.74	46845.82
582.90	47220.31
583.06	47007.32
583.22	47152.43
583.38	47257.76
583.54	47194.56
583.70	46869.23
583.86	47147.75
584.02	46745.18
584.18	47014.34
584.34	46857.52
584.50	46855.18
584.66	47189.88
584.82	46696.03
584.98	47103.28
585.14	47210.95
585.30	46820.08
585.46	47016.68
585.62	46686.67
585.78	46539.21
585.94	46728.80
586.10	46838.80
586.26	46955.83
586.42	47381.80
586.58	47147.75
586.74	47168.82
586.90	47070.51
587.06	46476.02
587.22	46768.58
587.38	46532.19
587.54	46969.87
587.70	47189.88
587.86	46887.95
588.02	46838.80
588.18	47243.71
588.34	46789.65
588.49	46284.09
588.65	46199.83
588.81	46628.15
588.97	46590.70
589.13	46681.98
589.29	46614.11
589.45	46745.18
589.61	46361.33
589.77	46913.70
