SpectraSuite Data File
++++++++++++++++++++++++++++++++++++
Date: Fri Oct 25 11:23:16 EDT 2013
User: price-jones
Dark Spectrum Present: No
Reference Spectrum Present: No
Number of Sampled Component Spectra: 1
Spectrometers: USB2+H05261
Integration Time (usec): 100000 (USB2+H05261)
Spectra Averaged: 1 (USB2+H05261)
Boxcar Smoothing: 0 (USB2+H05261)
Correct for Electrical Dark: No (USB2+H05261)
Strobe/Lamp Enabled: No (USB2+H05261)
Correct for Detector Non-linearity: No (USB2+H05261)
Correct for Stray Light: No (USB2+H05261)
Number of Pixels in Processed Spectrum: 2048
>>>>>Begin Processed Spectral Data<<<<<
365.73	224.69
365.92	224.69
366.12	224.69
366.32	70.22
366.52	114.69
366.72	152.13
366.91	168.52
367.11	147.45
367.31	145.11
367.51	117.03
367.70	107.66
367.90	128.73
368.10	110.01
368.30	98.30
368.49	191.92
368.69	140.43
368.89	138.09
369.09	147.45
369.28	140.43
369.48	105.32
369.68	182.56
369.87	184.90
370.07	117.03
370.27	175.54
370.47	304.27
370.66	599.18
370.86	634.29
371.06	690.46
371.25	664.71
371.45	629.60
371.65	760.67
371.84	638.97
372.04	692.80
372.24	788.76
372.44	706.84
372.63	713.86
372.83	723.23
373.03	748.97
373.22	774.72
373.42	777.06
373.62	758.33
373.81	835.57
374.01	840.25
374.21	849.61
374.40	870.68
374.60	835.57
374.79	786.42
374.99	861.32
375.19	835.57
375.38	793.44
375.58	858.98
375.78	812.17
375.97	901.11
376.17	933.87
376.37	800.46
376.56	830.89
376.76	896.43
376.95	903.45
377.15	887.06
377.35	903.45
377.54	901.11
377.74	851.96
377.93	868.34
378.13	873.02
378.33	971.32
378.52	1060.26
378.72	924.51
378.91	945.58
379.11	929.19
379.31	1008.77
379.50	866.00
379.70	1001.75
379.89	992.39
380.09	959.62
380.28	1055.58
380.48	978.34
380.68	884.72
380.87	1039.20
381.07	1011.11
381.26	1029.84
381.46	985.37
381.65	999.41
381.85	964.30
382.04	1013.45
382.24	1036.86
382.43	1046.22
382.63	1212.40
382.83	1053.24
383.02	1081.33
383.22	1088.35
383.41	1118.78
383.61	1102.39
383.80	1151.54
384.00	1221.76
384.19	1151.54
384.39	1132.82
384.58	1149.20
384.78	1146.86
384.97	1142.18
385.17	1240.48
385.36	1151.54
385.56	1212.40
385.75	1132.82
385.95	1214.74
386.14	1249.85
386.34	1207.72
386.53	1170.27
386.72	1254.53
386.92	1259.21
387.11	1287.29
387.31	1270.91
387.50	1224.10
387.70	1217.08
387.89	1282.61
388.09	1270.91
388.28	1345.81
388.48	1308.36
388.67	1212.40
388.86	1266.23
389.06	1268.57
389.25	1235.80
389.45	1418.36
389.64	1352.83
389.84	1427.73
390.03	1369.21
390.22	1411.34
390.42	1401.98
390.61	1387.94
390.81	1373.89
391.00	1432.41
391.19	1483.90
391.39	1476.88
391.58	1535.39
391.78	1549.43
391.97	1507.30
392.16	1486.24
392.36	1591.56
392.55	1530.71
392.75	1488.58
392.94	1500.28
393.13	1516.67
393.33	1645.40
393.52	1572.84
393.71	1640.72
393.91	1586.88
394.10	1519.01
394.29	1603.27
394.49	1577.52
394.68	1544.75
394.88	1633.69
395.07	1689.87
395.26	1659.44
395.46	1739.02
395.65	1706.25
395.84	1781.15
396.04	1736.68
396.23	1706.25
396.42	1703.91
396.62	1844.34
396.81	1757.74
397.00	1830.30
397.19	1748.38
397.39	1792.85
397.58	1830.30
397.77	1802.21
397.97	1865.41
398.16	1762.42
398.35	1916.90
398.55	1926.26
398.74	1858.39
398.93	1849.02
399.12	1895.83
399.32	1970.73
399.51	1930.94
399.70	2092.44
399.90	2012.86
400.09	2015.20
400.28	2026.90
400.47	2162.66
400.67	2120.53
400.86	2043.29
401.05	2148.61
401.24	2052.65
401.44	2115.84
401.63	2118.18
401.82	2157.97
402.01	2085.42
402.21	2167.34
402.40	2221.17
402.59	2263.30
402.78	2195.42
402.97	2289.04
403.17	2296.07
403.36	2342.88
403.55	2214.15
403.74	2410.75
403.93	2443.52
404.13	2377.98
404.32	2429.48
404.51	2342.88
404.70	2434.16
404.89	2485.65
405.09	2502.03
405.28	2429.48
405.47	2473.95
405.66	2473.95
405.85	2630.76
406.05	2560.55
406.24	2651.83
406.43	2436.50
406.62	2609.70
406.81	2670.55
407.00	2633.10
407.20	2630.76
407.39	2717.36
407.58	2698.64
407.77	2759.49
407.96	2768.85
408.15	2794.60
408.34	2750.13
408.54	2843.75
408.73	2829.71
408.92	2855.45
409.11	2892.90
409.30	2988.86
409.49	2855.45
409.68	2867.16
409.87	2984.18
410.07	2984.18
410.26	2920.99
410.45	3145.68
410.64	3098.87
410.83	3077.80
411.02	3105.89
411.21	3162.06
411.40	3002.91
411.59	3316.54
411.78	3213.56
411.98	3272.07
412.17	3337.60
412.36	3339.94
412.55	3339.94
412.74	3417.18
412.93	3578.68
413.12	3304.84
413.31	3541.23
413.50	3463.99
413.69	3531.87
413.88	3618.47
414.07	3794.01
414.26	3630.17
414.45	3599.74
414.64	3716.77
414.83	3798.69
415.02	3817.41
415.22	3772.94
415.41	3880.61
415.60	3911.04
415.79	3810.39
415.98	3992.95
416.17	4133.39
416.36	3988.27
416.55	4018.70
416.74	4067.85
416.93	3990.61
417.12	3990.61
417.31	4227.01
417.50	4269.14
417.69	4280.84
417.88	4339.35
418.07	4344.03
418.26	4411.91
418.45	4360.42
418.64	4643.62
418.83	4547.66
419.02	4318.29
419.21	4507.87
419.39	4407.23
419.58	4479.79
419.77	4535.96
419.96	4416.59
420.15	4706.82
420.34	4592.13
420.53	4627.24
420.72	4910.44
420.91	4730.22
421.10	4891.72
421.29	4814.48
421.48	4634.26
421.67	4755.97
421.86	4821.50
422.05	4880.02
422.24	4772.35
422.43	4835.55
422.61	4851.93
422.80	5088.32
422.99	5006.41
423.18	4957.25
423.37	4980.66
423.56	5027.47
423.75	5053.22
423.94	4882.36
424.13	4758.31
424.32	4744.27
424.50	5036.83
424.69	5055.56
424.88	5184.29
425.07	4947.89
425.26	4891.72
425.45	5144.50
425.64	5039.17
425.83	5121.09
426.01	5130.45
426.20	5235.78
426.39	4961.94
426.58	5093.01
426.77	5088.32
426.96	5210.03
427.15	5184.29
427.33	5313.02
427.52	5193.65
427.71	5245.14
427.90	5158.54
428.09	5294.29
428.28	5451.11
428.46	5392.59
428.65	5430.04
428.84	5493.24
429.03	5598.56
429.22	5303.65
429.40	5474.51
429.59	5593.88
429.78	5385.57
429.97	5277.91
430.16	5673.46
430.34	5633.67
430.53	5802.19
430.72	5818.57
430.91	5652.39
431.10	5685.16
431.28	5778.78
431.47	5865.38
431.66	5856.02
431.85	5916.87
432.03	5944.96
432.22	6024.54
432.41	5996.45
432.60	5956.66
432.79	6076.03
432.97	6118.16
433.16	5980.07
433.35	6064.33
433.54	6080.71
433.72	6164.97
433.91	6200.08
434.10	6298.38
434.28	6228.17
434.47	6338.17
434.66	6349.87
434.85	6188.38
435.03	6375.62
435.22	6420.09
435.41	6703.29
435.59	6373.28
435.78	6452.86
435.97	6635.42
436.16	6487.96
436.34	6457.54
436.53	6712.66
436.72	6794.58
436.90	6612.01
437.09	6696.27
437.28	6644.78
437.46	6803.94
437.65	6684.57
437.84	6932.67
438.02	6679.89
438.21	6930.33
438.40	6766.49
438.58	6986.50
438.77	7059.06
438.96	7056.72
439.14	7213.53
439.33	7148.00
439.52	7386.73
439.70	7225.23
439.89	7548.23
440.08	7391.41
440.26	7428.86
440.45	7426.52
440.63	7499.08
440.82	7896.97
441.01	7496.74
441.19	7641.85
441.38	7742.49
441.57	7742.49
441.75	7878.24
441.94	8021.02
442.12	7911.01
442.31	8189.53
442.50	8114.64
442.68	8156.77
442.87	8255.07
443.05	8194.22
443.24	8177.83
443.43	8124.00
443.61	8175.49
443.80	8580.40
443.98	8107.62
444.17	8051.44
444.35	8290.18
444.54	8423.59
444.73	8526.57
444.91	8367.42
445.10	8465.72
445.28	8425.93
445.47	8238.69
445.65	8297.20
445.84	8601.47
446.02	8482.10
446.21	8578.06
446.39	8421.25
446.58	8503.17
446.77	8582.74
446.95	8489.12
447.14	8603.81
447.32	8716.16
447.51	8627.21
447.69	8444.65
447.88	8557.00
448.06	8542.96
448.25	8449.33
448.43	8692.75
448.62	8692.75
448.80	8648.28
448.99	8854.25
449.17	8945.53
449.36	8671.68
449.54	8823.82
449.73	9202.99
449.91	9130.43
450.10	9008.72
450.28	8975.95
450.46	9107.02
450.65	9221.71
450.83	9095.32
451.02	9238.09
451.20	9245.12
451.39	9336.40
451.57	9327.03
451.76	8980.64
451.94	9507.26
452.13	9497.89
452.31	9479.17
452.49	9224.05
452.68	9444.06
452.86	9441.72
453.05	9797.48
453.23	9483.85
453.42	9540.02
453.60	9731.95
453.78	9497.89
453.97	9413.63
454.15	9554.07
454.34	9493.21
454.52	9706.20
454.70	9703.86
454.89	9933.23
455.07	9947.28
455.26	9893.44
455.44	10017.49
455.62	10087.71
455.81	10083.03
455.99	10073.67
456.17	10422.41
456.36	10291.34
456.54	10516.03
456.73	10359.21
456.91	10310.06
457.09	10640.08
457.28	10689.23
457.46	10424.75
457.64	10806.25
457.83	10595.61
458.01	10668.16
458.19	10871.79
458.38	10675.18
458.56	10937.32
458.74	10834.34
458.93	10913.92
459.11	10672.84
459.29	10991.16
459.48	10925.62
459.66	10761.78
459.84	11213.51
460.03	11232.23
460.21	11047.33
460.39	11218.19
460.57	10876.47
460.76	11218.19
460.94	11529.48
461.12	11250.96
461.31	11236.91
461.49	11557.57
461.67	11346.92
461.85	11576.29
462.04	11372.66
462.22	11709.70
462.40	11754.17
462.59	11501.39
462.77	11723.74
462.95	11810.34
463.13	11747.15
463.32	11578.63
463.50	11985.88
463.68	11829.07
463.86	11943.75
464.05	11758.85
464.23	11779.92
464.41	11789.28
464.59	11997.59
464.78	12210.57
464.96	12159.08
465.14	11946.09
465.32	11992.90
465.50	12271.43
465.69	12287.81
465.87	12203.55
466.05	12414.20
466.23	12262.07
466.41	12503.14
466.60	12500.80
466.78	12184.83
466.96	12484.42
467.14	12362.71
467.32	12683.36
467.51	12533.57
467.69	12540.59
467.87	12390.80
468.05	12561.66
468.23	12578.04
468.41	12491.44
468.60	12849.54
468.78	12901.03
468.96	12718.47
469.14	13013.38
469.32	13202.96
469.50	12992.31
469.69	13219.35
469.87	12961.89
470.05	13177.22
470.23	13137.43
470.41	13242.75
470.59	13605.53
470.77	13249.77
470.95	13518.93
471.14	13790.44
471.32	13273.18
471.50	13804.48
471.68	13607.87
471.86	13535.32
472.04	13926.19
472.22	14153.22
472.40	13933.21
472.58	13858.31
472.77	14010.45
472.95	14202.37
473.13	14820.27
473.31	14150.88
473.49	14370.89
473.67	14387.27
473.85	14747.72
474.03	14710.27
474.21	14618.99
474.39	15005.17
474.57	14743.03
474.75	14871.76
474.93	14944.32
475.12	15047.30
475.30	15456.90
475.48	15389.02
475.66	15573.92
475.84	15417.11
476.02	15653.50
476.20	15477.96
476.38	15805.64
476.56	16233.96
476.74	16285.45
476.92	16273.74
477.10	15784.57
477.28	16191.83
477.46	16498.44
477.64	16762.92
477.82	16774.62
478.00	17114.00
478.18	17062.51
478.36	17036.76
478.54	17371.46
478.72	17626.57
478.90	17680.41
479.08	17907.44
479.26	17926.16
479.44	18038.51
479.62	18104.04
479.80	18230.43
479.98	18298.31
480.16	18738.33
480.34	18366.18
480.52	19051.96
480.70	18583.85
480.88	18693.86
481.06	18920.89
481.24	19297.72
481.41	19644.12
481.59	19583.26
481.77	19812.63
481.95	19782.21
482.13	20175.42
482.31	19637.09
482.49	20304.15
482.67	20301.81
482.85	20592.03
483.03	20980.56
483.21	20844.81
483.39	21188.87
483.57	21032.05
483.74	21539.95
483.92	21713.15
484.10	21434.63
484.28	21848.90
484.46	22483.19
484.64	22623.62
484.82	22434.03
485.00	22551.06
485.18	22906.82
485.35	23068.32
485.53	23124.49
485.71	23131.51
485.89	23948.36
486.07	23433.44
486.25	23639.41
486.43	23716.65
486.61	24456.26
486.78	24320.51
486.96	24809.68
487.14	24765.21
487.32	24947.77
487.50	25179.48
487.68	25614.82
487.85	25647.59
488.03	26087.61
488.21	26103.99
488.39	26223.36
488.57	26628.27
488.75	26576.78
488.92	26518.27
489.10	26988.72
489.28	26824.88
489.46	27768.12
489.64	27264.90
489.81	27763.43
489.99	27950.68
490.17	28484.32
490.35	28517.09
490.53	28442.19
490.70	28879.87
490.88	28802.63
491.06	29156.05
491.24	28982.85
491.41	29291.80
491.59	29509.47
491.77	29670.97
491.95	29963.54
492.13	29888.64
492.30	30560.37
492.48	30164.82
492.66	30476.12
492.84	31047.21
493.01	31033.16
493.19	31110.40
493.37	31122.10
493.54	31475.52
493.72	32013.85
493.90	31700.22
494.08	32037.25
494.25	32378.97
494.43	31740.00
494.61	32673.88
494.79	32587.28
494.96	32795.59
495.14	33242.63
495.32	33331.57
495.49	33645.20
495.67	33804.36
495.85	33605.41
496.02	34015.01
496.20	34370.77
496.38	34389.49
496.55	34227.99
496.73	35208.68
496.91	34841.21
497.09	35250.81
497.26	35353.79
497.44	35292.94
497.62	35817.22
497.79	35772.75
497.97	35625.29
498.14	36238.51
498.32	36730.03
498.50	36491.29
498.67	36987.49
498.85	36837.69
499.03	37200.47
499.20	36910.25
499.38	36882.16
499.56	37198.13
499.73	37633.47
499.91	37319.84
500.08	38356.70
500.26	37642.84
500.44	38139.03
500.61	38146.05
500.79	38227.97
500.97	38401.17
501.14	38974.60
501.32	39220.36
501.49	38990.98
501.67	38745.23
501.84	39831.24
502.02	39480.16
502.20	39653.36
502.37	39885.07
502.55	39697.83
502.72	40006.78
502.90	40002.10
503.07	40051.25
503.25	40116.78
503.43	39784.43
503.60	40442.12
503.78	40783.83
503.95	40636.38
504.13	40755.75
504.30	41179.39
504.48	40818.94
504.65	41284.71
504.83	41441.53
505.01	41794.95
505.18	41766.86
505.36	42157.73
505.53	41769.20
505.71	42323.91
505.88	42209.22
506.06	41923.68
506.23	42234.97
506.41	42351.99
506.58	42447.96
506.76	42635.20
506.93	43084.58
507.11	42787.33
507.28	43309.27
507.46	43129.05
507.63	43320.98
507.81	43505.88
507.98	43548.01
508.16	43328.00
508.33	44030.16
508.50	43737.59
508.68	44172.93
508.85	44318.04
509.03	44144.84
509.20	44163.57
509.38	44900.84
509.55	45382.99
509.73	45062.33
509.90	45265.96
510.08	44732.32
510.25	44807.22
510.42	45202.77
510.60	45373.63
510.77	45574.91
510.95	45874.50
511.12	45074.04
511.30	45766.84
511.47	45888.54
511.64	46124.94
511.82	46438.57
511.99	45780.88
512.17	46415.16
512.34	46291.12
512.51	47208.61
512.69	46988.60
512.86	46576.66
513.04	46916.04
513.21	47047.11
513.38	47199.24
513.56	47304.57
513.73	47660.33
513.90	47583.09
514.08	47372.44
514.25	47840.55
514.43	47800.76
514.60	47838.21
514.77	47707.14
514.95	48240.78
515.12	48154.18
515.29	48027.79
515.47	48463.13
515.64	48451.43
515.81	48531.01
515.99	48523.99
516.16	48828.26
516.33	48559.09
516.51	49083.37
516.68	48669.10
516.85	48673.78
517.03	49272.96
517.20	49389.98
517.37	49242.53
517.54	49586.59
517.72	49532.76
517.89	49825.32
518.06	49389.98
518.24	49738.72
518.41	49691.91
518.58	49853.41
518.75	49698.94
518.93	49745.75
519.10	49897.88
519.27	49790.22
519.45	49811.28
519.62	50583.66
519.79	50752.18
519.96	50691.32
520.14	50707.71
520.31	50410.46
520.48	50787.28
520.65	50543.87
520.83	51044.74
521.00	51056.45
521.17	50726.43
521.34	50756.86
521.52	50883.25
521.69	51346.67
521.86	51662.64
522.03	51697.75
522.20	51564.34
522.38	51653.28
522.55	51861.59
522.72	51725.84
522.89	51772.65
523.07	52161.18
523.24	51950.53
523.41	52004.36
523.58	51594.77
523.75	52142.45
523.92	51962.23
524.10	52659.71
524.27	52486.51
524.44	52458.43
524.61	52313.31
524.78	52666.73
524.96	52500.56
525.13	52659.71
525.30	52671.42
525.47	52814.19
525.64	52673.76
525.81	52952.28
525.98	53123.14
526.16	53120.80
526.33	52935.90
526.50	53624.01
526.67	53050.58
526.84	53392.30
527.01	53176.97
527.18	52956.96
527.36	53609.97
527.53	53298.68
527.70	53968.07
527.87	53584.22
528.04	53485.92
528.21	53586.57
528.38	53631.04
528.55	53998.50
528.72	53827.64
528.89	53785.51
529.07	53846.36
529.24	53645.08
529.41	54047.65
529.58	53977.43
529.75	54183.40
529.92	54110.85
530.09	54188.08
530.26	54209.15
530.43	54527.46
530.60	54157.66
530.77	54148.29
530.94	54302.77
531.11	54251.28
531.28	54401.07
531.46	54719.38
531.63	54695.98
531.80	54667.89
531.97	54789.60
532.14	54986.21
532.31	54695.98
532.48	54710.02
532.65	54796.62
532.82	54688.96
532.99	54965.14
533.16	54927.69
533.33	55206.22
533.50	55182.81
533.67	55009.61
533.84	54836.41
534.01	55402.82
534.18	55325.58
534.35	55657.94
534.52	55505.80
534.69	55547.93
534.86	55236.64
535.03	55206.22
535.20	55370.05
535.37	55760.92
535.54	55526.87
535.71	55482.40
535.88	55920.08
536.05	55910.72
536.22	55758.58
536.38	55903.70
536.55	55889.65
536.72	55800.71
536.89	55913.06
537.06	56102.64
537.23	56273.50
537.40	55826.46
537.57	56133.07
537.74	55833.48
537.91	56336.69
538.08	56397.55
538.25	56030.08
538.42	56212.65
538.59	56369.46
538.75	56296.91
538.92	56481.81
539.09	56460.74
539.26	56622.24
539.43	56275.84
539.60	56580.11
539.77	56554.36
539.94	56753.31
540.11	56900.76
540.28	56697.14
540.44	56608.20
540.61	56926.51
540.78	56659.69
540.95	56526.28
541.12	56846.93
541.29	56893.74
541.46	56757.99
541.62	56713.52
541.79	57059.92
541.96	56624.58
542.13	56982.68
542.30	56837.57
542.47	57080.98
542.63	57188.65
542.80	57190.99
542.97	57301.00
543.14	57364.19
543.31	57492.92
543.48	57446.11
543.64	57811.23
543.81	57876.77
543.98	57488.24
544.15	57591.22
544.32	57647.39
544.48	57689.52
544.65	57574.84
544.82	57715.27
544.99	57408.66
545.16	57841.66
545.32	57502.28
545.49	57991.45
545.66	58038.26
545.83	57914.22
546.00	57986.77
546.16	57961.03
546.33	57818.25
546.50	58031.24
546.67	58089.76
546.83	57738.68
547.00	57839.32
547.17	58127.20
547.34	58003.16
547.50	58211.46
547.67	58227.85
547.84	58302.74
548.00	58372.96
548.17	58347.21
548.34	58337.85
548.51	58520.41
548.67	58546.16
548.84	58497.01
549.01	58539.14
549.18	58356.58
549.34	58571.91
549.51	58621.06
549.68	58574.25
549.84	58590.63
550.01	58834.05
550.18	58485.31
550.34	58635.10
550.51	58630.42
550.68	59054.06
550.84	58625.74
551.01	58773.19
551.18	58768.51
551.34	58740.42
551.51	58749.79
551.68	58850.43
551.84	58972.14
552.01	58773.19
552.18	58873.84
552.34	58773.19
552.51	59023.63
552.68	58953.41
552.84	58951.07
553.01	59248.32
553.18	59133.63
553.34	59154.70
553.51	59002.56
553.67	59065.76
553.84	59325.56
554.01	59152.36
554.17	59231.94
554.34	59416.84
554.51	59309.18
554.67	59458.97
554.84	59128.95
555.00	59274.07
555.17	59292.79
555.33	59234.28
555.50	59250.66
555.67	59166.40
555.83	59330.24
556.00	59435.56
556.16	59519.82
556.33	59557.27
556.50	59400.46
556.66	59627.49
556.83	59327.90
556.99	59735.15
557.16	59688.34
557.32	59723.45
557.49	59779.62
557.65	59468.33
557.82	59798.35
557.98	59709.41
558.15	59573.66
558.32	59487.06
558.48	59690.68
558.65	59688.34
558.81	59693.02
558.98	59765.58
559.14	59948.14
559.31	59777.28
559.47	59866.22
559.64	60126.02
559.80	59999.63
559.97	60093.25
560.13	59959.84
560.30	60055.81
560.46	60205.60
560.63	60079.21
560.79	60055.81
560.96	60147.09
561.12	60126.02
561.29	60100.28
561.45	60083.89
561.61	60133.04
561.78	60044.10
561.94	59985.59
562.11	60233.69
562.27	59990.27
562.44	60083.89
562.60	60313.26
562.77	60189.22
562.93	59906.01
563.10	60163.47
563.26	60207.94
563.42	60434.97
563.59	60296.88
563.75	60357.74
563.92	60303.90
564.08	60076.87
564.24	60341.35
564.41	60360.08
564.57	60371.78
564.74	60509.87
564.90	60559.02
565.07	60317.95
565.23	60383.48
565.39	60369.44
565.56	60472.42
565.72	60467.74
565.88	60341.35
566.05	60238.37
566.21	60374.12
566.38	60486.46
566.54	60505.19
566.70	60514.55
566.87	60657.32
567.03	60467.74
567.19	60619.88
567.36	60615.19
567.52	60451.36
567.68	60678.39
567.85	60575.40
568.01	60617.53
568.17	60453.70
568.34	60690.09
568.50	60636.26
568.66	60619.88
568.83	60638.60
568.99	60280.50
569.15	60741.58
569.32	60612.85
569.48	60596.47
569.64	60842.23
569.81	60626.90
569.97	60584.77
570.13	60704.13
570.30	60575.40
570.46	60837.54
570.62	60844.57
570.78	60846.91
570.95	60811.80
571.11	60837.54
571.27	60900.74
571.43	60825.84
571.60	61020.11
571.76	60818.82
571.92	60657.32
572.09	60673.71
572.25	60867.97
572.41	60814.14
572.57	60779.03
572.74	60907.76
572.90	60704.13
573.06	60987.34
573.22	60889.04
573.38	60889.04
573.55	60830.52
573.71	61059.90
573.87	60844.57
574.03	60704.13
574.20	60886.70
574.36	61027.13
574.52	61125.43
574.68	60992.02
574.84	61003.72
575.01	60823.50
575.17	60992.02
575.33	60956.91
575.49	61092.66
575.65	60961.59
575.82	61041.17
575.98	60940.53
576.14	61167.56
576.30	60985.00
576.46	60945.21
576.62	60882.02
576.79	60912.44
576.95	61109.05
577.11	61066.92
577.27	61041.17
577.43	60975.64
577.59	61015.43
577.75	61205.01
577.92	61048.19
578.08	60910.10
578.24	61097.34
578.40	61221.39
578.56	61200.33
578.72	61010.74
578.88	61350.12
579.04	61455.45
579.21	61020.11
579.37	61338.42
579.53	61336.08
579.69	60797.76
579.85	61029.47
580.01	61167.56
580.17	61071.60
580.33	61235.44
580.49	61092.66
580.65	60996.70
580.82	61188.63
580.98	60891.38
581.14	61111.39
581.30	61336.08
581.46	61244.80
581.62	61230.75
581.78	61263.52
581.94	61169.90
582.10	61006.06
582.26	61389.91
582.42	61183.94
582.58	61118.41
582.74	61237.78
582.90	61148.84
583.06	61247.14
583.22	61190.97
583.38	61223.73
583.54	61127.77
583.70	61249.48
583.86	61212.03
584.02	60956.91
584.18	61429.70
584.34	61258.84
584.50	61190.97
584.66	61254.16
584.82	60807.12
584.98	61371.19
585.14	61228.41
585.30	61118.41
585.46	61289.27
585.62	61382.89
585.78	61345.44
585.94	61022.45
586.10	61434.38
586.26	61256.50
586.42	61329.06
586.58	61425.02
586.74	61240.12
586.90	61148.84
587.06	61090.32
587.22	61352.46
587.38	61303.31
587.54	61490.55
587.70	61418.00
587.86	61329.06
588.02	61403.95
588.18	61509.28
588.34	61410.98
