SpectraSuite Data File
++++++++++++++++++++++++++++++++++++
Date: Fri Oct 25 10:48:08 EDT 2013
User: price-jones
Dark Spectrum Present: No
Reference Spectrum Present: No
Number of Sampled Component Spectra: 1
Spectrometers: USB2+H05261
Integration Time (usec): 100000 (USB2+H05261)
Spectra Averaged: 1 (USB2+H05261)
Boxcar Smoothing: 0 (USB2+H05261)
Correct for Electrical Dark: No (USB2+H05261)
Strobe/Lamp Enabled: No (USB2+H05261)
Correct for Detector Non-linearity: No (USB2+H05261)
Correct for Stray Light: No (USB2+H05261)
Number of Pixels in Processed Spectrum: 2048
>>>>>Begin Processed Spectral Data<<<<<
365.73	95.96
365.92	95.96
366.12	95.96
366.32	18.72
366.52	51.49
366.72	30.43
366.91	84.26
367.11	11.70
367.31	16.38
367.51	56.17
367.70	60.85
367.90	46.81
368.10	42.13
368.30	39.79
368.49	42.13
368.69	63.19
368.89	0.00
369.09	65.54
369.28	49.15
369.48	74.90
369.68	56.17
369.87	86.60
370.07	81.92
370.27	84.26
370.47	217.67
370.66	313.63
370.86	442.36
371.06	376.83
371.25	470.45
371.45	362.78
371.65	585.13
371.84	463.43
372.04	416.62
372.24	477.47
372.44	519.60
372.63	456.40
372.83	571.09
373.03	526.62
373.22	498.53
373.42	524.28
373.62	463.43
373.81	592.16
374.01	554.71
374.21	561.73
374.40	528.96
374.60	594.50
374.79	554.71
374.99	624.92
375.19	592.16
375.38	507.90
375.58	608.54
375.78	578.11
375.97	575.77
376.17	631.94
376.37	587.47
376.56	627.26
376.76	510.24
376.95	608.54
377.15	678.76
377.35	566.41
377.54	608.54
377.74	596.84
377.93	643.65
378.13	695.14
378.33	669.39
378.52	571.09
378.72	643.65
378.91	671.73
379.11	613.22
379.31	641.31
379.50	657.69
379.70	608.54
379.89	739.61
380.09	643.65
380.28	638.97
380.48	603.86
380.68	653.01
380.87	685.78
381.07	678.76
381.26	657.69
381.46	664.71
381.65	692.80
381.85	713.86
382.04	653.01
382.24	667.05
382.43	741.95
382.63	648.33
382.83	723.23
383.02	683.44
383.22	739.61
383.41	669.39
383.61	622.58
383.80	741.95
384.00	732.59
384.19	730.25
384.39	744.29
384.58	725.57
384.78	720.88
384.97	699.82
385.17	760.67
385.36	765.36
385.56	755.99
385.75	767.70
385.95	751.31
386.14	753.65
386.34	697.48
386.53	751.31
386.72	777.06
386.92	788.76
387.11	807.48
387.31	849.61
387.50	798.12
387.70	774.72
387.89	760.67
388.09	814.51
388.28	880.04
388.48	802.80
388.67	868.34
388.86	887.06
389.06	840.25
389.25	873.02
389.45	884.72
389.64	910.47
389.84	828.55
390.03	849.61
390.22	903.45
390.42	828.55
390.61	915.15
390.81	873.02
391.00	887.06
391.19	968.98
391.39	947.92
391.58	952.60
391.78	938.55
391.97	961.96
392.16	898.77
392.36	1109.41
392.55	976.00
392.75	976.00
392.94	947.92
393.13	1025.15
393.33	931.53
393.52	1013.45
393.71	1008.77
393.91	973.66
394.10	968.98
394.29	1069.62
394.49	1013.45
394.68	1100.05
394.88	1102.39
395.07	1107.07
395.26	1093.03
395.46	1123.46
395.65	1132.82
395.84	1181.97
396.04	1163.25
396.23	1088.35
396.42	1057.92
396.62	1151.54
396.81	1043.88
397.00	1149.20
397.19	1177.29
397.39	1212.40
397.58	1217.08
397.77	1210.06
397.97	1205.38
398.16	1203.04
398.35	1277.93
398.55	1245.16
398.74	1200.69
398.93	1268.57
399.12	1343.47
399.32	1291.98
399.51	1387.94
399.70	1348.15
399.90	1448.79
400.09	1409.00
400.28	1315.38
400.47	1369.21
400.67	1441.77
400.86	1511.99
401.05	1444.11
401.24	1446.45
401.44	1455.81
401.63	1589.22
401.82	1514.33
402.01	1331.76
402.21	1530.71
402.40	1589.22
402.59	1533.05
402.78	1493.26
402.97	1373.89
403.17	1516.67
403.36	1479.22
403.55	1617.31
403.74	1603.27
403.93	1497.94
404.13	1643.06
404.32	1682.85
404.51	1640.72
404.70	1645.40
404.89	1619.65
405.09	1661.78
405.28	1701.57
405.47	1626.67
405.66	1713.27
405.85	1743.70
406.05	1703.91
406.24	1755.40
406.43	1720.29
406.62	1818.60
406.81	1785.83
407.00	1856.04
407.20	1685.19
407.39	1736.68
407.58	1856.04
407.77	1863.07
407.96	1865.41
408.15	1895.83
408.34	1966.05
408.54	1914.56
408.73	2019.88
408.92	1935.62
409.11	2008.18
409.30	1905.20
409.49	2026.90
409.68	2054.99
409.87	2050.31
410.07	2141.59
410.26	2040.95
410.45	2090.10
410.64	2076.06
410.83	2190.74
411.02	2157.97
411.21	2263.30
411.40	2239.89
411.59	2319.47
411.78	2331.17
411.98	2314.79
412.17	2303.09
412.36	2256.28
412.55	2399.05
412.74	2377.98
412.93	2452.88
413.12	2422.45
413.31	2410.75
413.50	2572.25
413.69	2464.58
413.88	2593.31
414.07	2567.57
414.26	2527.78
414.45	2602.68
414.64	2684.59
414.83	2796.94
415.02	2630.76
415.22	2661.19
415.41	2710.34
415.60	2757.15
415.79	2825.03
415.98	2841.41
416.17	2738.43
416.36	2801.62
416.55	2862.48
416.74	2815.66
416.93	2867.16
417.12	2967.80
417.31	2977.16
417.50	2904.60
417.69	3042.70
417.88	2885.88
418.07	3023.97
418.26	3087.17
418.45	2974.82
418.64	3152.70
418.83	3091.85
419.02	3148.02
419.21	3204.19
419.39	3108.23
419.58	3187.81
419.77	3089.51
419.96	3131.64
420.15	3314.20
420.34	3246.32
420.53	3187.81
420.72	3421.86
420.91	3435.91
421.10	3351.65
421.29	3492.08
421.48	3180.79
421.67	3382.07
421.86	3297.81
422.05	3382.07
422.24	3290.79
422.43	3318.88
422.61	3442.93
422.80	3576.34
422.99	3419.52
423.18	3447.61
423.37	3536.55
423.56	3508.46
423.75	3653.58
423.94	3353.99
424.13	3133.98
424.32	3382.07
424.50	3541.23
424.69	3599.74
424.88	3506.12
425.07	3368.03
425.26	3459.31
425.45	3361.01
425.64	3468.67
425.83	3611.45
426.01	3536.55
426.20	3454.63
426.39	3574.00
426.58	3478.04
426.77	3478.04
426.96	3496.76
427.15	3576.34
427.33	3527.19
427.52	3644.21
427.71	3602.08
427.90	3695.71
428.09	3660.60
428.28	3630.17
428.46	3702.73
428.65	3700.39
428.84	3871.25
429.03	3747.20
429.22	3604.42
429.40	3955.51
429.59	3808.05
429.78	3592.72
429.97	3550.59
430.16	3641.87
430.34	3805.71
430.53	3812.73
430.72	3826.78
430.91	3892.31
431.10	3845.50
431.28	3927.42
431.47	4023.38
431.66	4028.06
431.85	3922.74
432.03	4180.20
432.22	4095.94
432.41	4086.58
432.60	4210.62
432.79	4184.88
432.97	4315.95
433.16	4231.69
433.35	4250.41
433.54	4126.36
433.72	4154.45
433.91	4079.55
434.10	4184.88
434.28	4381.48
434.47	4156.79
434.66	4297.22
434.85	4376.80
435.03	4355.74
435.22	4461.06
435.41	4603.83
435.59	4524.26
435.78	4573.41
435.97	4416.59
436.16	4587.45
436.34	4393.19
436.53	4601.49
436.72	4636.60
436.90	4395.53
437.09	4720.86
437.28	4507.87
437.46	4601.49
437.65	4629.58
437.84	4652.98
438.02	4683.41
438.21	4765.33
438.40	4603.83
438.58	4786.40
438.77	4828.53
438.96	4751.29
439.14	4908.10
439.33	5053.22
439.52	5015.77
439.70	5053.22
439.89	4990.02
440.08	5104.71
440.26	4968.96
440.45	5074.28
440.63	5137.48
440.82	5231.10
441.01	5280.25
441.19	5324.72
441.38	5343.44
441.57	5359.83
441.75	5446.43
441.94	5521.32
442.12	5624.31
442.31	5598.56
442.50	5596.22
442.68	5483.88
442.87	5554.09
443.05	5523.66
443.24	5554.09
443.43	5738.99
443.61	5722.61
443.80	5647.71
443.98	5565.79
444.17	5399.62
444.35	5605.58
444.54	5741.33
444.73	5837.30
444.91	5797.51
445.10	5636.01
445.28	5853.68
445.47	5650.05
445.65	5792.83
445.84	5799.85
446.02	5905.17
446.21	5799.85
446.39	5818.57
446.58	5806.87
446.77	5909.85
446.95	5647.71
447.14	5820.91
447.32	5942.62
447.51	5818.57
447.69	5678.14
447.88	5776.44
448.06	5895.81
448.25	5914.53
448.43	5959.00
448.62	5806.87
448.80	5905.17
448.99	5975.39
449.17	5954.32
449.36	6069.01
449.54	6099.44
449.73	6258.59
449.91	6115.82
450.10	6066.67
450.28	6399.02
450.46	6195.40
450.65	6445.84
450.83	6270.30
451.02	6045.60
451.20	6307.74
451.39	6392.00
451.57	6473.92
451.76	6190.72
451.94	6441.15
452.13	6502.01
452.31	6452.86
452.49	6387.32
452.68	6370.94
452.86	6249.23
453.05	6637.76
453.23	6567.54
453.42	6408.39
453.60	6389.66
453.78	6642.44
453.97	6705.63
454.15	6445.84
454.34	6436.47
454.52	6633.08
454.70	6630.74
454.89	6586.27
455.07	6586.27
455.26	6689.25
455.44	6815.64
455.62	6925.65
455.81	6927.99
455.99	6897.56
456.17	7019.27
456.36	7082.46
456.54	7096.50
456.73	6972.46
456.91	7101.19
457.09	7213.53
457.28	7307.15
457.46	7082.46
457.64	7213.53
457.83	7110.55
458.01	7169.06
458.19	7236.94
458.38	7265.02
458.56	7087.14
458.74	7253.32
458.93	7403.11
459.11	7204.17
459.29	7325.88
459.48	7375.03
459.66	7281.41
459.84	7375.03
460.03	7531.84
460.21	7466.31
460.39	7515.46
460.57	7461.63
460.76	7407.80
460.94	7728.45
461.12	7817.39
461.31	7620.78
461.49	7716.75
461.67	7751.85
461.85	7847.82
462.04	7674.62
462.22	8070.17
462.40	8105.28
462.59	7817.39
462.77	7824.41
462.95	7974.21
463.13	7723.77
463.32	7922.71
463.50	8058.46
463.68	8210.60
463.86	8037.40
464.05	7899.31
464.23	7983.57
464.41	8166.13
464.59	7880.58
464.78	8067.83
464.96	8152.09
465.14	7995.27
465.32	8276.13
465.50	8182.51
465.69	8196.56
465.87	8081.87
466.05	8327.63
466.23	8184.85
466.41	8074.85
466.60	8264.43
466.78	8184.85
466.96	8248.05
467.14	8404.86
467.32	8290.18
467.51	8395.50
467.69	8100.59
467.87	8365.07
468.05	8573.38
468.23	8383.80
468.41	8372.10
468.60	8503.17
468.78	8376.78
468.96	8402.52
469.14	8592.11
469.32	8699.77
469.50	8395.50
469.69	8741.90
469.87	8734.88
470.05	8725.52
470.23	8769.99
470.41	8716.16
470.59	8624.87
470.77	8947.87
470.95	8861.27
471.14	9128.09
471.32	8772.33
471.50	9191.28
471.68	9109.36
471.86	9275.54
472.04	9067.24
472.22	9371.50
472.40	9114.05
472.58	9380.87
472.77	9408.95
472.95	9371.50
473.13	9825.57
473.31	9425.34
473.49	9537.68
473.67	9619.60
473.85	9589.17
474.03	9788.12
474.21	9921.53
474.39	9706.20
474.57	9834.93
474.75	9860.68
474.93	9984.73
475.12	9947.28
475.30	10235.16
475.48	10125.16
475.66	10244.52
475.84	9958.98
476.02	10319.42
476.20	10286.65
476.38	10436.45
476.56	10614.33
476.74	10544.11
476.92	10413.04
477.10	10487.94
477.28	10836.68
477.46	10626.03
477.64	10768.80
477.82	10883.49
478.00	11255.64
478.18	11475.65
478.36	11262.66
478.54	11363.30
478.72	11363.30
478.90	11400.75
479.08	11808.00
479.26	11632.46
479.44	11686.29
479.62	11815.02
479.80	11962.48
479.98	11969.50
480.16	12358.03
480.34	12128.66
480.52	12201.21
480.70	12278.45
480.88	12177.81
481.06	12486.76
481.24	12297.17
481.41	12566.34
481.59	13184.24
481.77	12940.82
481.95	12755.92
482.13	12961.89
482.31	12999.34
482.49	13301.26
482.67	13327.01
482.85	13319.99
483.03	13764.69
483.21	13542.34
483.39	13696.82
483.57	13659.37
483.74	14139.18
483.92	14033.85
484.10	13884.06
484.28	14317.06
484.46	14490.26
484.64	14602.60
484.82	14661.12
485.00	14537.07
485.18	14934.96
485.35	14956.02
485.53	14806.23
485.71	14906.87
485.89	15272.00
486.07	15122.20
486.25	15091.77
486.43	15304.76
486.61	15789.25
486.78	15571.58
486.96	15662.86
487.14	16100.55
487.32	16163.74
487.50	16280.77
487.68	16170.76
487.85	16622.48
488.03	16545.25
488.21	17043.78
488.39	16783.98
488.57	16968.88
488.75	17331.67
488.92	17408.90
489.10	17451.03
489.28	17591.47
489.46	17834.88
489.64	17827.86
489.81	18092.34
489.99	18300.65
490.17	18228.09
490.35	18455.12
490.53	18211.71
490.70	18558.11
490.88	18251.50
491.06	18899.83
491.24	18719.60
491.41	18696.20
491.59	18724.29
491.77	19005.15
491.95	19367.93
492.13	19513.05
492.30	19929.66
492.48	19620.71
492.66	19887.53
492.84	19782.21
493.01	20112.22
493.19	19845.40
493.37	20126.27
493.54	20123.93
493.72	20549.90
493.90	20404.79
494.08	20819.07
494.25	21022.69
494.43	20765.23
494.61	21238.02
494.79	21198.23
494.96	21120.99
495.14	21123.33
495.32	21792.73
495.49	21642.93
495.67	21713.15
495.85	21853.58
496.02	21900.39
496.20	22419.99
496.38	22031.46
496.55	22583.83
496.73	22668.09
496.91	22279.56
497.09	22473.82
497.26	22663.41
497.44	22562.76
497.62	23026.19
497.79	22951.29
497.97	22869.37
498.14	23187.69
498.32	23398.34
498.50	23388.97
498.67	23754.10
498.85	23599.62
499.03	23997.51
499.20	23545.79
499.38	24020.92
499.56	23978.79
499.73	24016.24
499.91	24093.47
500.08	24503.07
500.26	24643.50
500.44	24540.52
500.61	24472.64
500.79	24432.85
500.97	24566.26
501.14	24863.51
501.32	24982.88
501.49	24896.28
501.67	25025.01
501.84	25303.53
502.02	25074.16
502.20	25429.92
502.37	25703.76
502.55	25186.50
502.72	25310.55
502.90	25539.93
503.07	25472.05
503.25	25659.29
503.43	25560.99
503.60	25930.80
503.78	26038.46
503.95	26092.29
504.13	26082.93
504.30	26316.98
504.48	26237.41
504.65	26485.50
504.83	26630.62
505.01	26710.19
505.18	26417.63
505.36	26998.08
505.53	26899.78
505.71	26859.99
505.88	26974.67
506.06	26913.82
506.23	27021.48
506.41	26768.71
506.58	27424.06
506.76	27501.29
506.93	27707.26
507.11	27784.50
507.28	27878.12
507.46	27576.19
507.63	27704.92
507.81	27615.98
507.98	27798.54
508.16	27920.25
508.33	28004.51
508.50	28173.03
508.68	28474.96
508.85	28327.50
509.03	28393.04
509.20	28634.11
509.38	28395.38
509.55	28694.97
509.73	28589.64
509.90	29074.13
510.08	28748.80
510.25	29193.50
510.42	29125.63
510.60	29476.71
510.77	29406.49
510.95	29701.40
511.12	29074.13
511.30	29567.99
511.47	29902.68
511.64	29825.45
511.82	29642.88
511.99	29935.45
512.17	29383.09
512.34	29811.40
512.51	30075.88
512.69	30305.26
512.86	30323.98
513.04	30553.35
513.21	30122.69
513.38	30333.34
513.56	30691.44
513.73	30349.73
513.90	30419.94
514.08	30623.57
514.25	30794.43
514.43	30581.44
514.60	31229.77
514.77	30764.00
514.95	30944.22
515.12	31033.16
515.29	30497.18
515.47	31138.49
515.64	31557.44
515.81	31330.41
515.99	31330.41
516.16	31276.58
516.33	31611.28
516.51	31747.03
516.68	31597.23
516.85	31307.01
517.03	31594.89
517.20	31637.02
517.37	31814.90
517.54	31606.59
517.72	32123.85
517.89	31690.85
518.06	31864.05
518.24	32105.13
518.41	31812.56
518.58	32088.74
518.75	32243.22
518.93	32381.31
519.10	32437.48
519.27	32432.80
519.45	32463.23
519.62	32933.68
519.79	32975.81
519.96	33085.81
520.14	32952.40
520.31	32961.76
520.48	32856.44
520.65	33312.84
520.83	33039.00
521.00	33081.13
521.17	33340.93
521.34	33567.96
521.52	33525.83
521.69	34031.39
521.86	33598.39
522.03	34211.61
522.20	33951.81
522.38	34047.77
522.55	33940.11
522.72	34113.31
522.89	33820.74
523.07	33979.90
523.24	33708.40
523.41	34057.14
523.58	33961.17
523.75	34646.95
523.92	34384.81
524.10	34742.91
524.27	34838.87
524.44	34813.13
524.61	34988.67
524.78	35030.80
524.96	34698.44
525.13	35204.00
525.30	35302.30
525.47	35487.20
525.64	35381.88
525.81	35112.72
525.98	35089.31
526.16	35112.72
526.33	35459.12
526.50	34939.52
526.67	35199.32
526.84	35138.46
527.01	35314.00
527.18	35332.73
527.36	35379.54
527.53	35292.94
527.70	36531.08
527.87	35866.37
528.04	35845.30
528.21	36018.50
528.38	35924.88
528.55	36245.54
528.72	35976.37
528.89	36257.24
529.07	36343.84
529.24	36294.69
529.41	36297.03
529.58	36203.41
529.75	36500.65
529.92	36172.98
530.09	36418.74
530.26	36184.68
530.43	36584.91
530.60	36341.50
530.77	36582.57
530.94	36594.28
531.11	37085.79
531.28	36928.97
531.46	36545.12
531.63	36933.65
531.80	37104.51
531.97	37074.09
532.14	37099.83
532.31	36809.61
532.48	37305.80
532.65	37413.46
532.82	37165.37
532.99	37715.39
533.16	37345.59
533.33	37656.88
533.50	37701.35
533.67	37804.33
533.84	37263.67
534.01	37420.48
534.18	37572.62
534.35	37837.10
534.52	37455.59
534.69	37961.15
534.86	38080.52
535.03	37581.98
535.20	37970.51
535.37	38485.43
535.54	38293.50
535.71	37785.61
535.88	38117.96
536.05	37888.59
536.22	37820.72
536.38	38110.94
536.55	38380.10
536.72	38108.60
536.89	37956.47
537.06	38164.78
537.23	38497.13
537.40	38728.84
537.57	38359.04
537.74	38557.99
537.91	38770.97
538.08	38639.90
538.25	38822.47
538.42	38717.14
538.59	39264.83
538.75	38424.57
538.92	38770.97
539.09	39187.59
539.26	39126.74
539.43	39115.03
539.60	38768.63
539.77	39180.57
539.94	38986.30
540.11	39164.18
540.28	39615.91
540.44	39026.09
540.61	39049.50
540.78	39019.07
540.95	39093.97
541.12	39428.66
541.29	38939.49
541.46	39005.03
541.62	39426.32
541.79	39587.82
541.96	39395.90
542.13	39426.32
542.30	39751.66
542.47	39761.02
542.63	39938.90
542.80	39683.78
542.97	40629.36
543.14	40191.68
543.31	39625.27
543.48	40311.05
543.64	40765.11
543.81	40198.70
543.98	40109.76
544.15	40245.51
544.32	40648.08
544.48	40842.35
544.65	40821.28
544.82	40439.78
544.99	40472.54
545.16	40879.80
545.32	40629.36
545.49	40928.95
545.66	40825.96
545.83	41153.64
546.00	40870.43
546.16	40847.03
546.33	40926.61
546.50	40292.32
546.67	40432.75
546.83	40591.91
547.00	40809.58
547.17	40554.46
547.34	40924.27
547.50	41064.70
547.67	40954.69
547.84	41366.63
548.00	41476.63
548.17	41301.09
548.34	41336.20
548.51	41556.21
548.67	42024.32
548.84	41682.60
549.01	41214.49
549.18	41467.27
549.34	41535.15
549.51	41659.20
549.68	41811.33
549.84	41710.69
550.01	42157.73
550.18	41221.52
550.34	41691.96
550.51	41701.32
550.68	41483.66
550.84	41375.99
551.01	42078.15
551.18	41469.61
551.34	41694.30
551.51	42260.71
551.68	42300.50
551.84	42204.54
552.01	41855.80
552.18	42291.14
552.34	42029.00
552.51	42387.10
552.68	41909.63
552.84	42134.32
553.01	42747.54
553.18	42225.60
553.34	42176.45
553.51	41998.57
553.67	42202.20
553.84	42366.04
554.01	42787.33
554.17	42728.82
554.34	42572.00
554.51	42225.60
554.67	42450.30
554.84	42209.22
555.00	42209.22
555.17	42349.65
555.33	42330.93
555.50	42536.90
555.67	42410.51
555.83	42651.58
556.00	43208.63
556.16	43220.33
556.33	42651.58
556.50	42979.26
556.66	43100.97
556.83	42848.19
556.99	42738.18
557.16	42941.81
557.32	42824.78
557.49	43033.09
557.65	42614.13
557.82	42902.02
557.98	43063.52
558.15	43086.92
558.32	42951.17
558.48	43283.53
558.65	42946.49
558.81	43374.81
558.98	42878.61
559.14	43498.86
559.31	42878.61
559.47	43512.90
559.64	43379.49
559.80	43529.28
559.97	43353.74
560.13	43257.78
560.30	43435.66
560.46	43339.70
560.63	43281.19
560.79	43250.76
560.96	43704.82
561.12	43646.31
561.29	43021.39
561.45	43526.94
561.61	43426.30
561.78	43552.69
561.94	43501.20
562.11	43611.20
562.27	43143.09
562.44	43082.24
562.60	43304.59
562.77	43730.57
562.93	43686.10
563.10	43618.22
563.26	43236.72
563.42	43433.32
563.59	43438.00
563.75	43847.60
563.92	43915.47
564.08	44020.80
564.24	43875.68
564.41	43751.63
564.57	43686.10
564.74	43894.41
564.90	43690.78
565.07	43620.56
565.23	43758.66
565.39	44081.65
565.56	43966.96
565.72	43812.49
565.88	44051.22
566.05	43569.07
566.21	43819.51
566.38	43845.26
566.54	44168.25
566.70	43798.44
566.87	44304.00
567.03	44037.18
567.19	44266.55
567.36	44161.23
567.52	43709.50
567.68	44095.69
567.85	44037.18
568.01	43814.83
568.17	44116.76
568.34	44123.78
568.50	44067.61
568.66	43812.49
568.83	43768.02
568.99	43585.46
569.15	44203.36
569.32	43981.01
569.48	44065.27
569.64	44114.42
569.81	44025.48
569.97	43730.57
570.13	43969.30
570.30	43803.13
570.46	43920.15
570.62	43543.33
570.78	43746.95
570.95	44236.12
571.11	44491.24
571.27	44046.54
571.43	44163.57
571.60	44444.43
571.76	44076.97
571.92	43875.68
572.09	44383.58
572.25	44004.41
572.41	44154.21
572.57	44275.91
572.74	44514.65
572.90	44631.68
573.06	44289.96
573.22	44390.60
573.38	44453.79
573.55	43936.54
573.71	44224.42
573.87	44105.06
574.03	43798.44
574.20	44002.07
574.36	44402.30
574.52	44137.82
574.68	44282.94
574.84	44442.09
575.01	44112.08
575.17	44650.40
575.33	44240.81
575.49	44474.86
575.65	44296.98
575.82	44430.39
575.98	44577.84
576.14	44844.66
576.30	44275.91
576.46	44182.29
576.62	44568.48
576.79	44385.92
576.95	43985.69
577.11	44402.30
577.27	44191.65
577.43	44521.67
577.59	44444.43
577.75	43981.01
577.92	44100.37
578.08	44184.63
578.24	43899.09
578.40	44189.31
578.56	44306.34
578.72	44488.90
578.88	44769.77
579.04	44619.97
579.21	44264.21
579.37	44175.27
579.53	44250.17
579.69	44336.77
579.85	44533.37
580.01	44360.17
580.17	45015.52
580.33	44484.22
580.49	44432.73
580.65	44697.21
580.82	44591.89
580.98	44264.21
581.14	44072.29
581.30	44832.96
581.46	44325.07
581.62	44741.68
581.78	44636.36
581.94	44830.62
582.10	44538.05
582.26	44603.59
582.42	44669.12
582.58	44512.31
582.74	44467.84
582.90	44645.72
583.06	44664.44
583.22	44650.40
583.38	44547.42
583.54	44664.44
583.70	44350.81
583.86	44753.38
584.02	43983.35
584.18	44521.67
584.34	44540.39
584.50	44741.68
584.66	44435.07
584.82	44334.43
584.98	44683.17
585.14	44608.27
585.30	44645.72
585.46	44818.92
585.62	44488.90
585.78	44418.69
585.94	44245.49
586.10	44619.97
586.26	44236.12
586.42	44304.00
586.58	44397.62
586.74	45013.18
586.90	44474.86
587.06	44060.58
587.22	44596.57
587.38	44219.74
587.54	44893.82
587.70	45102.12
587.86	44907.86
588.02	44818.92
588.18	44563.80
588.34	44282.94
588.49	44392.94
588.65	44444.43
588.81	44144.84
588.97	44425.71
589.13	44444.43
589.29	44816.58
589.45	44507.63
589.61	44662.10
589.77	44575.50
589.93	44697.21
590.08	44645.72
590.24	44713.59
590.40	44882.11
