SpectraSuite Data File
++++++++++++++++++++++++++++++++++++
Date: Fri Oct 25 11:26:25 EDT 2013
User: price-jones
Dark Spectrum Present: No
Reference Spectrum Present: No
Number of Sampled Component Spectra: 1
Spectrometers: USB2+H05261
Integration Time (usec): 100000 (USB2+H05261)
Spectra Averaged: 1 (USB2+H05261)
Boxcar Smoothing: 0 (USB2+H05261)
Correct for Electrical Dark: No (USB2+H05261)
Strobe/Lamp Enabled: No (USB2+H05261)
Correct for Detector Non-linearity: No (USB2+H05261)
Correct for Stray Light: No (USB2+H05261)
Number of Pixels in Processed Spectrum: 2048
>>>>>Begin Processed Spectral Data<<<<<
365.73	241.08
365.92	241.08
366.12	241.08
366.32	149.79
366.52	140.43
366.72	163.84
366.91	65.54
367.11	156.82
367.31	140.43
367.51	119.37
367.70	142.77
367.90	124.05
368.10	142.77
368.30	133.41
368.49	98.30
368.69	156.82
368.89	248.10
369.09	114.69
369.28	182.56
369.48	170.86
369.68	201.29
369.87	159.16
370.07	243.42
370.27	273.84
370.47	369.80
370.66	571.09
370.86	603.86
371.06	561.73
371.25	692.80
371.45	695.14
371.65	702.16
371.84	690.46
372.04	739.61
372.24	697.48
372.44	755.99
372.63	744.29
372.83	784.08
373.03	821.53
373.22	765.36
373.42	800.46
373.62	851.96
373.81	856.64
374.01	863.66
374.21	833.23
374.40	833.23
374.60	781.74
374.79	828.55
374.99	823.87
375.19	840.25
375.38	770.04
375.58	912.81
375.78	884.72
375.97	861.32
376.17	898.77
376.37	875.36
376.56	898.77
376.76	875.36
376.95	870.68
377.15	851.96
377.35	896.43
377.54	908.13
377.74	931.53
377.93	802.80
378.13	877.70
378.33	957.28
378.52	1001.75
378.72	936.21
378.91	978.34
379.11	945.58
379.31	947.92
379.50	950.26
379.70	1018.13
379.89	1062.60
380.09	968.98
380.28	999.41
380.48	912.81
380.68	978.34
380.87	1050.90
381.07	992.39
381.26	1067.28
381.46	964.30
381.65	1015.79
381.85	1041.54
382.04	1086.01
382.24	1055.58
382.43	1114.10
382.63	1107.07
382.83	1090.69
383.02	1067.28
383.22	1090.69
383.41	1130.48
383.61	1032.18
383.80	1135.16
384.00	1104.73
384.19	1144.52
384.39	1130.48
384.58	1160.91
384.78	1158.57
384.97	1249.85
385.17	1233.46
385.36	1177.29
385.56	1245.16
385.75	1224.10
385.95	1203.04
386.14	1210.06
386.34	1177.29
386.53	1210.06
386.72	1221.76
386.92	1240.48
387.11	1259.21
387.31	1188.99
387.50	1160.91
387.70	1219.42
387.89	1301.34
388.09	1287.29
388.28	1245.16
388.48	1219.42
388.67	1315.38
388.86	1277.93
389.06	1287.29
389.25	1390.28
389.45	1282.61
389.64	1359.85
389.84	1420.71
390.03	1387.94
390.22	1472.20
390.42	1362.19
390.61	1284.95
390.81	1345.81
391.00	1411.34
391.19	1432.41
391.39	1350.49
391.58	1448.79
391.78	1441.77
391.97	1404.32
392.16	1451.13
392.36	1533.05
392.55	1540.07
392.75	1441.77
392.94	1565.82
393.13	1427.73
393.33	1533.05
393.52	1549.43
393.71	1530.71
393.91	1661.78
394.10	1626.67
394.29	1629.01
394.49	1561.14
394.68	1565.82
394.88	1584.54
395.07	1556.46
395.26	1605.61
395.46	1654.76
395.65	1645.40
395.84	1727.32
396.04	1877.11
396.23	1764.76
396.42	1830.30
396.62	1802.21
396.81	1806.89
397.00	1694.55
397.19	1713.27
397.39	1722.63
397.58	1746.04
397.77	1839.66
397.97	1834.98
398.16	1858.39
398.35	1865.41
398.55	1863.07
398.74	1888.81
398.93	1907.54
399.12	1849.02
399.32	1949.67
399.51	1935.62
399.70	1973.07
399.90	1907.54
400.09	2003.50
400.28	2080.74
400.47	2066.69
400.67	2026.90
400.86	2106.48
401.05	2033.93
401.24	2125.21
401.44	2045.63
401.63	2211.81
401.82	2169.68
402.01	2202.44
402.21	2160.31
402.40	2204.78
402.59	2160.31
402.78	2101.80
402.97	2218.83
403.17	2244.57
403.36	2216.49
403.55	2347.56
403.74	2375.64
403.93	2380.32
404.13	2312.45
404.32	2242.23
404.51	2342.88
404.70	2443.52
404.89	2338.20
405.09	2464.58
405.28	2466.92
405.47	2555.86
405.66	2349.90
405.85	2548.84
406.05	2403.73
406.24	2588.63
406.43	2593.31
406.62	2569.91
406.81	2771.19
407.00	2555.86
407.20	2469.27
407.39	2567.57
407.58	2729.06
407.77	2764.17
407.96	2759.49
408.15	2733.75
408.34	2635.44
408.54	2752.47
408.73	2782.90
408.92	2834.39
409.11	2862.48
409.30	2836.73
409.49	2892.90
409.68	2846.09
409.87	2965.46
410.07	2906.95
410.26	3023.97
410.45	2946.73
410.64	2925.67
410.83	3101.21
411.02	2979.50
411.21	3143.34
411.40	3082.49
411.59	3169.09
411.78	3229.94
411.98	3164.40
412.17	3243.98
412.36	3302.50
412.55	3276.75
412.74	3316.54
412.93	3372.71
413.12	3506.12
413.31	3548.25
413.50	3372.71
413.69	3403.14
413.88	3623.15
414.07	3644.21
414.26	3569.32
414.45	3609.11
414.64	3716.77
414.83	3723.79
415.02	3658.26
415.22	3791.67
415.41	3758.90
415.60	3843.16
415.79	3796.35
415.98	3978.91
416.17	4060.83
416.36	3955.51
416.55	3913.38
416.74	4107.64
416.93	4177.86
417.12	4229.35
417.31	4241.05
417.50	4098.28
417.69	4189.56
417.88	4285.52
418.07	4250.41
418.26	4234.03
418.45	4255.09
418.64	4423.61
418.83	4344.03
419.02	4334.67
419.21	4552.34
419.39	4519.57
419.58	4454.04
419.77	4402.55
419.96	4601.49
420.15	4496.17
420.34	4674.05
420.53	4601.49
420.72	4681.07
420.91	4706.82
421.10	4718.52
421.29	4791.08
421.48	4753.63
421.67	4800.44
421.86	4812.14
422.05	4758.31
422.24	4631.92
422.43	4788.74
422.61	4917.47
422.80	4875.34
422.99	4987.68
423.18	5022.79
423.37	4964.28
423.56	4772.35
423.75	4908.10
423.94	4847.25
424.13	4688.09
424.32	4648.30
424.50	4880.02
424.69	5100.03
424.88	5088.32
425.07	4950.23
425.26	4755.97
425.45	4823.84
425.64	4945.55
425.83	4971.30
426.01	5053.22
426.20	5062.58
426.39	4997.04
426.58	5018.11
426.77	4959.60
426.96	5167.90
427.15	5107.05
427.33	5128.11
427.52	5132.79
427.71	5071.94
427.90	5163.22
428.09	5366.85
428.28	5350.46
428.46	5507.28
428.65	5254.50
428.84	5542.39
429.03	5596.22
429.22	5301.31
429.40	5526.00
429.59	5465.15
429.78	5296.63
429.97	5287.27
430.16	5376.21
430.34	5521.32
430.53	5650.05
430.72	5577.50
430.91	5582.18
431.10	5607.92
431.28	5727.29
431.47	5692.18
431.66	5729.63
431.85	5729.63
432.03	5942.62
432.22	5977.73
432.41	5851.34
432.60	5944.96
432.79	5977.73
432.97	5767.08
433.16	5961.34
433.35	5975.39
433.54	6106.46
433.72	6169.65
433.91	6026.88
434.10	6160.29
434.28	6019.86
434.47	6314.77
434.66	6251.57
434.85	6211.78
435.03	6246.89
435.22	6141.57
435.41	6377.96
435.59	6485.62
435.78	6427.11
435.97	6469.24
436.16	6553.50
436.34	6476.26
436.53	6347.53
436.72	6682.23
436.90	6363.92
437.09	6555.84
437.28	6459.88
437.46	6614.35
437.65	6499.67
437.84	6546.48
438.02	6729.04
438.21	6775.85
438.40	6532.44
438.58	6796.92
438.77	6836.70
438.96	6909.26
439.14	7201.83
439.33	7021.61
439.52	7089.48
439.70	7157.36
439.89	7377.37
440.08	7246.30
440.26	7424.18
440.45	7569.29
440.63	7541.21
440.82	7620.78
441.01	7288.43
441.19	7513.12
441.38	7737.81
441.57	7768.24
441.75	7641.85
441.94	7889.95
442.12	7985.91
442.31	7955.48
442.50	7932.08
442.68	7859.52
442.87	7882.92
443.05	8013.99
443.24	8236.35
443.43	8119.32
443.61	8074.85
443.80	8517.21
443.98	7950.80
444.17	8028.04
444.35	8231.66
444.54	8287.84
444.73	8198.90
444.91	8238.69
445.10	8486.78
445.28	8355.71
445.47	8280.82
445.65	8362.73
445.84	8376.78
446.02	8409.54
446.21	8442.31
446.39	8344.01
446.58	8484.44
446.77	8585.08
446.95	8278.47
447.14	8329.97
447.32	8519.55
447.51	8681.05
447.69	8353.37
447.88	8620.19
448.06	8517.21
448.25	8477.42
448.43	8428.27
448.62	8484.44
448.80	8535.93
448.99	8552.32
449.17	8748.92
449.36	8610.83
449.54	8727.86
449.73	8816.80
449.91	8901.06
450.10	9167.88
450.28	9069.58
450.46	9149.15
450.65	9008.72
450.83	9062.55
451.02	8912.76
451.20	9116.39
451.39	9046.17
451.57	9071.92
451.76	9137.45
451.94	9228.73
452.13	9385.55
452.31	9254.48
452.49	9233.41
452.68	9373.85
452.86	9296.61
453.05	9504.92
453.23	9551.73
453.42	9280.22
453.60	9261.50
453.78	9572.79
453.97	9338.74
454.15	9486.19
454.34	9312.99
454.52	9476.83
454.70	9476.83
454.89	9797.48
455.07	9645.35
455.26	9703.86
455.44	9968.34
455.62	9753.01
455.81	9907.49
455.99	9781.10
456.17	10022.17
456.36	9935.57
456.54	10298.36
456.73	10076.01
456.91	10455.17
457.09	10417.72
457.28	10413.04
457.46	10303.04
457.64	10441.13
457.83	10239.84
458.01	10424.75
458.19	10647.10
458.38	10356.87
458.56	10539.43
458.74	10665.82
458.93	10750.08
459.11	10665.82
459.29	10579.22
459.48	10745.40
459.66	10724.33
459.84	10843.70
460.03	10963.07
460.21	10862.43
460.39	10881.15
460.57	10895.19
460.76	11112.86
460.94	11012.22
461.12	11077.76
461.31	10951.37
461.49	11328.19
461.67	11169.04
461.85	11485.01
462.04	11311.81
462.22	11737.79
462.40	11438.20
462.59	11543.52
462.77	11653.53
462.95	11494.37
463.13	11604.38
463.32	11321.17
463.50	11625.44
463.68	11573.95
463.86	11852.47
464.05	11515.44
464.23	11611.40
464.41	11749.49
464.59	11592.67
464.78	12074.82
464.96	12044.40
465.14	11981.20
465.32	11887.58
465.50	12109.93
465.69	12278.45
465.87	12065.46
466.05	12100.57
466.23	12009.29
466.41	12098.23
466.60	12278.45
466.78	12023.33
466.96	12341.64
467.14	12161.42
467.32	12329.94
467.51	12400.16
467.69	12023.33
467.87	12442.29
468.05	12500.80
468.23	12273.77
468.41	12435.27
468.60	12744.22
468.78	12711.45
468.96	12624.85
469.14	12762.94
469.32	13146.79
469.50	12493.78
469.69	13097.64
469.87	12982.95
470.05	13055.51
470.23	13015.72
470.41	13095.30
470.59	13231.05
470.77	13036.78
470.95	13186.58
471.14	13301.26
471.32	13217.01
471.50	13322.33
471.68	13671.07
471.86	13532.98
472.04	13942.57
472.22	14026.83
472.40	13561.06
472.58	13687.45
472.77	14047.90
472.95	14073.64
473.13	14471.53
473.31	14155.56
473.49	14050.24
473.67	13848.95
473.85	14342.80
474.03	14508.98
474.21	14464.51
474.39	14778.14
474.57	14635.37
474.75	14773.46
474.93	15089.43
475.12	14944.32
475.30	15103.48
475.48	15140.93
475.66	15213.48
475.84	15131.56
476.02	15103.48
476.20	15211.14
476.38	15637.12
476.56	15978.84
476.74	15712.02
476.92	15857.13
477.10	15768.19
477.28	16133.31
477.46	16116.93
477.64	16266.72
477.82	16641.21
478.00	16475.03
478.18	16805.05
478.36	16758.24
478.54	16854.20
478.72	16805.05
478.90	17277.83
479.08	17436.99
479.26	17731.90
479.44	17364.43
479.62	17570.40
479.80	18036.17
479.98	18200.01
480.16	18565.13
480.34	18265.54
480.52	18363.84
480.70	18508.96
480.88	18441.08
481.06	18679.82
481.24	18668.11
481.41	18890.46
481.59	19190.05
481.77	19499.00
481.95	19548.15
482.13	19735.40
482.31	19449.85
482.49	19920.30
482.67	20329.89
482.85	20140.31
483.03	20671.61
483.21	20657.57
483.39	20849.49
483.57	20795.66
483.74	21238.02
483.92	21120.99
484.10	21090.57
484.28	21680.38
484.46	21848.90
484.64	22258.49
484.82	21933.16
485.00	21972.95
485.18	22707.88
485.35	22682.13
485.53	22651.70
485.71	23014.49
485.89	23648.77
486.07	23199.39
486.25	23211.09
486.43	23550.47
486.61	23648.77
486.78	23983.47
486.96	24161.35
487.14	24519.45
487.32	24538.18
487.50	24694.99
487.68	24950.11
487.85	25001.60
488.03	25359.70
488.21	25294.17
488.39	25958.88
488.57	25757.60
488.75	26153.15
488.92	26157.83
489.10	26604.87
489.28	26520.61
489.46	26799.13
489.64	26672.74
489.81	27487.25
489.99	27606.62
490.17	27653.43
490.35	28149.62
490.53	28409.42
490.70	27828.97
490.88	28449.21
491.06	28175.37
491.24	28493.68
491.41	28776.89
491.59	28503.04
491.77	29441.60
491.95	29214.57
492.13	29401.81
492.30	29638.20
492.48	29771.61
492.66	29816.08
492.84	30029.07
493.01	30525.27
493.19	30497.18
493.37	30686.76
493.54	30953.58
493.72	31531.70
493.90	31276.58
494.08	31344.45
494.25	31630.00
494.43	31615.96
494.61	32275.99
494.79	32617.71
494.96	32395.35
495.14	32636.43
495.32	32940.70
495.49	33013.26
495.67	33221.56
495.85	33748.18
496.02	33579.67
496.20	33989.26
496.38	33701.37
496.55	34169.48
496.73	34845.90
496.91	34338.00
497.09	34691.42
497.26	34824.83
497.44	34724.19
497.62	35306.98
497.79	35920.20
497.97	35234.42
498.14	35793.81
498.32	36084.04
498.50	36133.19
498.67	36360.22
498.85	36009.14
499.03	36762.79
499.20	36360.22
499.38	36376.61
499.56	36737.05
499.73	36973.44
499.91	37357.29
500.08	37549.21
500.26	37181.75
500.44	37095.15
500.61	37230.90
500.79	37104.51
500.97	38075.84
501.14	38136.69
501.32	38352.02
501.49	38487.77
501.67	38553.30
501.84	38838.85
502.02	39002.69
502.20	39037.80
502.37	39112.69
502.55	39063.54
502.72	39395.90
502.90	39051.84
503.07	39192.27
503.25	39990.39
503.43	39585.48
503.60	39737.62
503.78	39732.93
503.95	40074.65
504.13	39995.07
504.30	40332.11
504.48	39739.96
504.65	40961.72
504.83	40760.43
505.01	41457.91
505.18	40896.18
505.36	41256.62
505.53	41373.65
505.71	41397.06
505.88	41806.65
506.06	40975.76
506.23	41443.87
506.41	41764.52
506.58	41853.46
506.76	41778.56
506.93	41998.57
507.11	42249.01
507.28	42333.27
507.46	42548.60
507.63	42373.06
507.81	42724.14
507.98	42674.99
508.16	43217.99
508.33	43299.91
508.50	43222.67
508.68	43269.48
508.85	43543.33
509.03	43494.18
509.20	43840.57
509.38	44383.58
509.55	43995.05
509.73	44603.59
509.90	44339.11
510.08	44311.02
510.25	44816.58
510.42	44811.90
510.60	45195.74
510.77	44779.13
510.95	44919.56
511.12	44783.81
511.30	44985.10
511.47	45495.33
511.64	45067.02
511.82	45846.41
511.99	45516.40
512.17	45656.83
512.34	45570.23
512.51	46085.15
512.69	45916.63
512.86	45698.96
513.04	46330.90
513.21	46340.27
513.38	46742.84
513.56	46897.31
513.73	46497.08
513.90	47023.70
514.08	46604.75
514.25	46869.23
514.43	47082.22
514.60	47056.47
514.77	47147.75
514.95	47629.90
515.12	47058.81
515.29	47709.48
515.47	47807.78
515.64	47707.14
515.81	47655.65
515.99	47831.19
516.16	48133.12
516.33	48126.10
516.51	48729.95
516.68	48191.63
516.85	48105.03
517.03	48329.72
517.20	48547.39
517.37	48584.84
517.54	48432.71
517.72	49298.70
517.89	48776.76
518.06	49186.36
518.24	49015.50
518.41	49235.51
518.58	49134.87
518.75	49097.42
518.93	49074.01
519.10	49109.12
519.27	49820.64
519.45	50003.20
519.62	49916.61
519.79	49937.67
519.96	49815.96
520.14	49839.37
520.31	49965.76
520.48	50178.75
520.65	50040.65
520.83	50974.53
521.00	50787.28
521.17	50478.33
521.34	50232.58
521.52	50766.22
521.69	50459.61
521.86	50714.73
522.03	50829.41
522.20	50927.72
522.38	51466.04
522.55	50813.03
522.72	51356.03
522.89	51260.07
523.07	51531.57
523.24	51407.53
523.41	51447.32
523.58	51482.42
523.75	51667.33
523.92	51426.25
524.10	51838.18
524.27	51803.08
524.44	51903.72
524.61	51906.06
524.78	51664.99
524.96	51915.42
525.13	51772.65
525.30	52083.94
525.47	52463.11
525.64	52254.80
525.81	52582.48
525.98	52545.03
526.16	52498.22
526.33	52512.26
526.50	52898.45
526.67	52266.50
526.84	52961.64
527.01	52486.51
527.18	52580.13
527.36	52650.35
527.53	53010.79
527.70	53422.73
527.87	53272.93
528.04	53052.92
528.21	53291.66
528.38	53111.44
528.55	53195.70
528.72	52903.13
528.89	53399.32
529.07	53092.71
529.24	53207.40
529.41	53258.89
529.58	53492.94
529.75	53240.17
529.92	53560.82
530.09	53745.72
530.26	53832.32
530.43	53701.25
530.60	53785.51
530.77	53876.79
530.94	54040.63
531.11	54031.27
531.28	54099.14
531.46	53935.30
531.63	54262.98
531.80	53982.12
531.97	54167.02
532.14	54244.26
532.31	54344.90
532.48	54155.32
532.65	54475.97
532.82	54520.44
532.99	54658.53
533.16	54461.93
533.33	54452.56
533.50	54707.68
533.67	54670.23
533.84	54438.52
534.01	54663.21
534.18	54752.15
534.35	54979.18
534.52	54869.18
534.69	54908.97
534.86	54930.03
535.03	54841.09
535.20	55044.72
535.37	55203.88
535.54	55103.23
535.71	54911.31
535.88	55215.58
536.05	55224.94
536.22	55482.40
536.38	55313.88
536.55	55512.83
536.72	55484.74
536.89	55470.70
537.06	55393.46
537.23	55557.30
537.40	55309.20
537.57	55732.84
537.74	55618.15
537.91	55835.82
538.08	55711.77
538.25	55674.32
538.42	55777.31
538.59	56149.45
538.75	55957.53
538.92	56039.45
539.09	55910.72
539.26	56168.18
539.43	55877.95
539.60	56060.51
539.77	56247.75
539.94	56224.35
540.11	56292.22
540.28	56392.87
540.44	56254.78
540.61	56278.18
540.78	56430.32
540.95	56287.54
541.12	56212.65
541.29	56362.44
541.46	56624.58
541.62	56498.19
541.79	56402.23
541.96	56140.09
542.13	56406.91
542.30	56685.43
542.47	56800.12
542.63	56947.57
542.80	56872.68
542.97	56999.07
543.14	56898.42
543.31	56978.00
543.48	56973.32
543.64	57462.49
543.81	57237.80
543.98	57099.71
544.15	57092.69
544.32	57354.83
544.48	57457.81
544.65	57228.44
544.82	57226.10
544.99	57111.41
545.16	57528.03
545.32	57282.27
545.49	57495.26
545.66	57509.30
545.83	57317.38
546.00	57542.07
546.16	57766.76
546.33	57506.96
546.50	57396.96
546.67	57464.83
546.83	57303.34
547.00	57530.37
547.17	57392.28
547.34	57811.23
547.50	57619.31
547.67	58019.54
547.84	58031.24
548.00	57869.75
548.17	58024.22
548.34	57642.71
548.51	58291.04
548.67	58131.89
548.84	57846.34
549.01	57916.56
549.18	58099.12
549.34	58014.86
549.51	58185.72
549.68	58089.76
549.84	58195.08
550.01	58279.34
550.18	58047.63
550.34	58281.68
550.51	58258.27
550.68	58127.20
550.84	57968.05
551.01	58382.32
551.18	58354.24
551.34	58382.32
551.51	58410.41
551.68	58637.44
551.84	58340.19
552.01	58300.40
552.18	58440.84
552.34	58319.13
552.51	58684.25
552.68	58431.47
552.84	58340.19
553.01	58913.62
553.18	58752.13
553.34	58649.14
553.51	58649.14
553.67	58702.98
553.84	59065.76
554.01	59021.29
554.17	58822.34
554.34	58829.37
554.51	59178.10
554.67	58967.46
554.84	58960.44
555.00	58871.49
555.17	59049.38
555.33	59025.97
555.50	58672.55
555.67	58777.87
555.83	58658.51
556.00	59103.21
556.16	59262.36
556.33	59121.93
556.50	59227.26
556.66	59351.30
556.83	59164.06
556.99	59229.60
557.16	59487.06
557.32	59262.36
557.49	59400.46
557.65	59145.34
557.82	59360.67
557.98	59236.62
558.15	59199.17
558.32	59358.33
558.48	59138.32
558.65	59358.33
558.81	59419.18
558.98	59311.52
559.14	59559.61
559.31	59456.63
559.47	59395.77
559.64	59573.66
559.80	59421.52
559.97	59580.68
560.13	59526.84
560.30	59332.58
560.46	59788.98
560.63	59559.61
560.79	59524.50
560.96	59868.56
561.12	59866.22
561.29	59751.54
561.45	59597.06
561.61	59758.56
561.78	59662.60
561.94	59695.36
562.11	59749.20
562.27	59955.16
562.44	59746.86
562.60	59824.09
562.77	59861.54
562.93	59716.43
563.10	59880.27
563.26	59767.92
563.42	59950.48
563.59	59990.27
563.75	59819.41
563.92	59728.13
564.08	59756.22
564.24	59980.91
564.41	59959.84
564.57	60006.65
564.74	59924.74
564.90	59786.64
565.07	60023.04
565.23	59711.75
565.39	60037.08
565.56	60175.17
565.72	59983.25
565.88	60168.15
566.05	59859.20
566.21	60210.28
566.38	60322.63
566.54	59983.25
566.70	60301.56
566.87	60210.28
567.03	60182.19
567.19	60189.22
567.36	60259.43
567.52	60233.69
567.68	60374.12
567.85	60219.64
568.01	60327.31
568.17	60378.80
568.34	60505.19
568.50	60271.14
568.66	60090.91
568.83	60245.39
568.99	60154.11
569.15	60289.86
569.32	60357.74
569.48	60287.52
569.64	60285.18
569.81	60294.54
569.97	60095.60
570.13	60381.14
570.30	60217.30
570.46	60226.66
570.62	60275.82
570.78	60355.39
570.95	60313.26
571.11	60622.22
571.27	60266.45
571.43	60273.48
571.60	60626.90
571.76	60463.06
571.92	60617.53
572.09	60610.51
572.25	60395.18
572.41	60470.08
572.57	60470.08
572.74	60645.62
572.90	60444.33
573.06	60526.25
573.22	60509.87
573.38	60441.99
573.55	60659.66
573.71	60783.71
573.87	60615.19
574.03	60481.78
574.20	60601.15
574.36	60629.24
574.52	60516.89
574.68	60612.85
574.84	60764.99
575.01	60697.11
575.17	60509.87
575.33	60563.70
575.49	60453.70
575.65	60701.79
575.82	60753.29
575.98	60713.50
576.14	60736.90
576.30	60786.05
576.46	60598.81
576.62	60662.00
576.79	60416.25
576.95	60575.40
577.11	60734.56
577.27	60591.79
577.43	60722.86
577.59	60711.16
577.75	60629.24
577.92	60446.68
578.08	60788.39
578.24	60605.83
578.40	60652.64
578.56	60676.05
578.72	60580.09
578.88	60832.86
579.04	60828.18
579.21	60507.53
579.37	61024.79
579.53	60882.02
579.69	60467.74
579.85	60725.20
580.01	60577.75
580.17	60605.83
580.33	60797.76
580.49	60924.14
580.65	60739.24
580.82	60940.53
580.98	60603.49
581.14	60753.29
581.30	60919.46
581.46	60559.02
581.62	60795.42
581.78	60680.73
581.94	60779.03
582.10	60699.45
582.26	60874.99
582.42	60762.65
582.58	60764.99
582.74	60945.21
582.90	60912.44
583.06	60865.63
583.22	60692.43
583.38	60837.54
583.54	60973.30
583.70	60977.98
583.86	60914.78
584.02	60669.03
584.18	60938.19
584.34	60718.18
584.50	60790.73
584.66	60786.05
584.82	60879.67
584.98	61069.26
585.14	60870.31
585.30	60816.48
585.46	60954.57
585.62	60753.29
585.78	61090.32
585.94	60748.60
586.10	60884.36
586.26	60935.85
586.42	60694.77
586.58	61134.79
586.74	60933.51
586.90	60900.74
587.06	60947.55
587.22	60999.04
587.38	61008.40
587.54	61179.26
587.70	61064.58
587.86	61027.13
588.02	61013.08
588.18	61116.07
588.34	61041.17
588.49	60924.14
