SpectraSuite Data File
++++++++++++++++++++++++++++++++++++
Date: Fri Oct 25 10:44:25 EDT 2013
User: price-jones
Dark Spectrum Present: No
Reference Spectrum Present: No
Number of Sampled Component Spectra: 1
Spectrometers: USB2+H05261
Integration Time (usec): 100000 (USB2+H05261)
Spectra Averaged: 1 (USB2+H05261)
Boxcar Smoothing: 0 (USB2+H05261)
Correct for Electrical Dark: No (USB2+H05261)
Strobe/Lamp Enabled: No (USB2+H05261)
Correct for Detector Non-linearity: No (USB2+H05261)
Correct for Stray Light: No (USB2+H05261)
Number of Pixels in Processed Spectrum: 2048
>>>>>Begin Processed Spectral Data<<<<<
365.73	81.92
365.92	81.92
366.12	81.92
366.32	58.51
366.52	0.00
366.72	0.00
366.91	30.43
367.11	72.56
367.31	23.41
367.51	93.62
367.70	23.41
367.90	35.11
368.10	70.22
368.30	58.51
368.49	51.49
368.69	7.02
368.89	4.68
369.09	30.43
369.28	35.11
369.48	121.71
369.68	86.60
369.87	74.90
370.07	7.02
370.27	98.30
370.47	201.29
370.66	383.85
370.86	461.09
371.06	456.40
371.25	505.56
371.45	484.49
371.65	449.38
371.84	482.15
372.04	451.72
372.24	517.26
372.44	484.49
372.63	531.30
372.83	526.62
373.03	552.37
373.22	540.66
373.42	526.62
373.62	533.64
373.81	519.60
374.01	631.94
374.21	566.41
374.40	533.64
374.60	552.37
374.79	578.11
374.99	526.62
375.19	653.01
375.38	634.29
375.58	547.69
375.78	608.54
375.97	704.50
376.17	671.73
376.37	582.79
376.56	580.45
376.76	629.60
376.95	550.03
377.15	660.03
377.35	606.20
377.54	617.90
377.74	730.25
377.93	681.10
378.13	594.50
378.33	641.31
378.52	648.33
378.72	662.37
378.91	664.71
379.11	643.65
379.31	641.31
379.50	627.26
379.70	662.37
379.89	683.44
380.09	695.14
380.28	720.88
380.48	709.18
380.68	697.48
380.87	596.84
381.07	716.20
381.26	746.63
381.46	706.84
381.65	751.31
381.85	791.10
382.04	716.20
382.24	667.05
382.43	702.16
382.63	760.67
382.83	690.46
383.02	758.33
383.22	800.46
383.41	692.80
383.61	697.48
383.80	781.74
384.00	770.04
384.19	751.31
384.39	844.93
384.58	805.14
384.78	826.21
384.97	788.76
385.17	854.30
385.36	887.06
385.56	851.96
385.75	814.51
385.95	919.83
386.14	884.72
386.34	905.79
386.53	880.04
386.72	912.81
386.92	922.17
387.11	896.43
387.31	847.27
387.50	901.11
387.70	889.40
387.89	873.02
388.09	936.21
388.28	910.47
388.48	917.49
388.67	936.21
388.86	947.92
389.06	1039.20
389.25	983.02
389.45	1013.45
389.64	1018.13
389.84	968.98
390.03	1041.54
390.22	1093.03
390.42	1029.84
390.61	983.02
390.81	961.96
391.00	1048.56
391.19	1069.62
391.39	978.34
391.58	1069.62
391.78	1029.84
391.97	1142.18
392.16	1039.20
392.36	1210.06
392.55	1041.54
392.75	987.71
392.94	1041.54
393.13	947.92
393.33	966.64
393.52	1128.14
393.71	1193.67
393.91	1095.37
394.10	1149.20
394.29	1203.04
394.49	1200.69
394.68	1245.16
394.88	1320.06
395.07	1212.40
395.26	1261.55
395.46	1313.04
395.65	1357.51
395.84	1329.42
396.04	1287.29
396.23	1198.35
396.42	1224.10
396.62	1188.99
396.81	1198.35
397.00	1245.16
397.19	1334.11
397.39	1423.05
397.58	1497.94
397.77	1369.21
397.97	1497.94
398.16	1390.28
398.35	1490.92
398.55	1462.83
398.74	1535.39
398.93	1638.38
399.12	1605.61
399.32	1579.86
399.51	1535.39
399.70	1638.38
399.90	1661.78
400.09	1673.48
400.28	1624.33
400.47	1710.93
400.67	1659.44
400.86	1743.70
401.05	1633.69
401.24	1790.51
401.44	1710.93
401.63	1710.93
401.82	1717.95
402.01	1795.19
402.21	1692.21
402.40	1769.44
402.59	1860.73
402.78	1872.43
402.97	1860.73
403.17	1844.34
403.36	1823.28
403.55	1851.36
403.74	1926.26
403.93	1884.13
404.13	1886.47
404.32	2003.50
404.51	1886.47
404.70	1907.54
404.89	2012.86
405.09	1980.09
405.28	2012.86
405.47	2022.22
405.66	2165.00
405.85	1984.77
406.05	2017.54
406.24	2026.90
406.43	2087.76
406.62	2101.80
406.81	2265.64
407.00	2127.55
407.20	2066.69
407.39	2256.28
407.58	2221.17
407.77	2258.62
407.96	2270.32
408.15	2363.94
408.34	2387.35
408.54	2366.28
408.73	2333.51
408.92	2455.22
409.11	2399.05
409.30	2408.41
409.49	2218.83
409.68	2321.81
409.87	2415.43
410.07	2352.24
410.26	2385.01
410.45	2583.95
410.64	2504.37
410.83	2548.84
411.02	2677.57
411.21	2619.06
411.40	2595.65
411.59	2759.49
411.78	2654.17
411.98	2693.96
412.17	2684.59
412.36	2832.05
412.55	2778.22
412.74	2867.16
412.93	2888.22
413.12	2916.31
413.31	2951.42
413.50	2995.89
413.69	3035.67
413.88	3021.63
414.07	3033.33
414.26	3047.38
414.45	2972.48
414.64	3063.76
414.83	3150.36
415.02	3187.81
415.22	3110.57
415.41	3295.47
415.60	3206.53
415.79	3288.45
415.98	3377.39
416.17	3272.07
416.36	3342.28
416.55	3496.76
416.74	3503.78
416.93	3356.33
417.12	3400.80
417.31	3517.83
417.50	3597.40
417.69	3396.12
417.88	3592.72
418.07	3646.55
418.26	3616.13
418.45	3585.70
418.64	3730.81
418.83	3747.20
419.02	3747.20
419.21	3700.39
419.39	3630.17
419.58	3702.73
419.77	3681.66
419.96	3705.07
420.15	3791.67
420.34	3817.41
420.53	3796.35
420.72	3974.23
420.91	4016.36
421.10	4063.17
421.29	4046.79
421.48	3875.93
421.67	3939.12
421.86	4025.72
422.05	3904.01
422.24	3721.45
422.43	3843.16
422.61	3922.74
422.80	4145.09
422.99	4119.34
423.18	4049.13
423.37	4107.64
423.56	4016.36
423.75	4161.47
423.94	4039.76
424.13	3737.84
424.32	3920.40
424.50	4016.36
424.69	4049.13
424.88	4234.03
425.07	4060.83
425.26	3981.25
425.45	4016.36
425.64	3999.98
425.83	3985.93
426.01	4114.66
426.20	4145.09
426.39	4201.26
426.58	4098.28
426.77	4074.87
426.96	4037.42
427.15	4142.75
427.33	4088.92
427.52	4161.47
427.71	4210.62
427.90	4318.29
428.09	4184.88
428.28	4198.92
428.46	4381.48
428.65	4229.35
428.84	4468.08
429.03	4451.70
429.22	4187.22
429.40	4269.14
429.59	4351.06
429.78	4140.41
429.97	4004.66
430.16	4166.15
430.34	4266.80
430.53	4332.33
430.72	4315.95
430.91	4320.63
431.10	4542.98
431.28	4599.15
431.47	4795.76
431.66	4823.84
431.85	4720.86
432.03	4629.58
432.22	4608.51
432.41	4589.79
432.60	4835.55
432.79	4861.29
432.97	4901.08
433.16	4929.17
433.35	4643.62
433.54	4781.71
433.72	4760.65
433.91	4844.91
434.10	4856.61
434.28	5008.75
434.47	5006.41
434.66	5064.92
434.85	5013.43
435.03	5064.92
435.22	5008.75
435.41	5359.83
435.59	5217.05
435.78	5247.48
435.97	5240.46
436.16	5406.64
436.34	5200.67
436.53	5231.10
436.72	5364.51
436.90	5373.87
437.09	5322.38
437.28	5217.05
437.46	5231.10
437.65	5355.15
437.84	5380.89
438.02	5228.76
438.21	5352.81
438.40	5242.80
438.58	5526.00
438.77	5476.85
438.96	5523.66
439.14	5600.90
439.33	5926.24
439.52	5940.28
439.70	5935.60
439.89	5860.70
440.08	5652.39
440.26	5860.70
440.45	5788.14
440.63	6104.12
440.82	6141.57
441.01	6038.58
441.19	6202.42
441.38	6305.40
441.57	6305.40
441.75	6289.02
441.94	6321.79
442.12	6480.94
442.31	6604.99
442.50	6574.56
442.68	6602.65
442.87	6457.54
443.05	6736.06
443.24	6586.27
443.43	6757.13
443.61	6600.31
443.80	6834.36
443.98	6764.15
444.17	6424.77
444.35	6815.64
444.54	6892.88
444.73	6899.90
444.91	6747.76
445.10	6640.10
445.28	6602.65
445.47	6537.12
445.65	6607.33
445.84	6693.93
446.02	6923.30
446.21	6799.26
446.39	6698.61
446.58	6925.65
446.77	6731.38
446.95	6740.74
447.14	6930.33
447.32	6991.18
447.51	6808.62
447.69	6817.98
447.88	6855.43
448.06	7007.56
448.25	7054.37
448.43	7227.57
448.62	6766.49
448.80	6974.80
448.99	6918.62
449.17	7112.89
449.36	7068.42
449.54	7126.93
449.73	7246.30
449.91	7133.95
450.10	7344.60
450.28	7632.49
450.46	7604.40
450.65	7428.86
450.83	7569.29
451.02	7461.63
451.20	7588.02
451.39	7428.86
451.57	7501.42
451.76	7456.95
451.94	7330.56
452.13	7613.76
452.31	7630.15
452.49	7239.28
452.68	7529.50
452.86	7382.05
453.05	7501.42
453.23	7496.74
453.42	7447.58
453.60	7534.18
453.78	7730.79
453.97	7620.78
454.15	7658.23
454.34	7513.12
454.52	7700.36
454.70	7653.55
454.89	7599.72
455.07	7761.22
455.26	7871.22
455.44	7899.31
455.62	7911.01
455.81	7983.57
455.99	8042.08
456.17	8161.45
456.36	8219.96
456.54	8341.67
456.73	8161.45
456.91	8404.86
457.09	8112.30
457.28	8575.72
457.46	8404.86
457.64	8421.25
457.83	8414.23
458.01	8100.59
458.19	8589.77
458.38	8500.83
458.56	8535.93
458.74	8482.10
458.93	8425.93
459.11	8505.51
459.29	8688.07
459.48	8461.04
459.66	8580.40
459.84	8863.61
460.03	8891.70
460.21	8755.94
460.39	8872.97
460.57	8734.88
460.76	9097.66
460.94	8938.51
461.12	8975.95
461.31	8819.14
461.49	8908.08
461.67	8765.31
461.85	9008.72
462.04	8926.80
462.22	9202.99
462.40	9205.33
462.59	9263.84
462.77	9273.20
462.95	9163.20
463.13	9095.32
463.32	9280.22
463.50	9231.07
463.68	9343.42
463.86	9210.01
464.05	9217.03
464.23	9111.71
464.41	9474.49
464.59	9111.71
464.78	9533.00
464.96	9282.56
465.14	9191.28
465.32	9507.26
465.50	9661.73
465.69	9561.09
465.87	9638.33
466.05	9591.52
466.23	9586.83
466.41	9437.04
466.60	9577.47
466.78	9432.36
466.96	9521.30
467.14	9570.45
467.32	9469.81
467.51	9802.16
467.69	9455.76
467.87	9692.16
468.05	9771.74
468.23	9722.59
468.41	9753.01
468.60	9860.68
468.78	9991.75
468.96	9905.15
469.14	10010.47
469.32	10090.05
469.50	9884.08
469.69	10153.24
469.87	10040.90
470.05	10186.01
470.23	10223.46
470.41	9977.70
470.59	10008.13
470.77	10118.14
470.95	10380.28
471.14	10401.34
471.32	10193.03
471.50	10366.23
471.68	10560.50
471.86	10558.16
472.04	10677.52
472.22	10998.18
472.40	10677.52
472.58	10707.95
472.77	10604.97
472.95	10942.00
473.13	11197.12
473.31	10927.96
473.49	11166.70
473.67	11035.63
473.85	11026.26
474.03	11222.87
474.21	11274.36
474.39	11433.52
474.57	11358.62
474.75	11463.94
474.93	11449.90
475.12	11433.52
475.30	11492.03
475.48	11468.62
475.66	11637.14
475.84	11679.27
476.02	11623.10
476.20	11655.87
476.38	11894.60
476.56	12180.15
476.74	12100.57
476.92	12037.38
477.10	12217.60
477.28	12559.31
477.46	12414.20
477.64	12601.44
477.82	13008.70
478.00	12805.07
478.18	12774.64
478.36	13050.83
478.54	12870.61
478.72	13158.49
478.90	13322.33
479.08	13504.89
479.26	13130.41
479.44	13350.42
479.62	13628.94
479.80	13635.96
479.98	13919.17
480.16	14085.34
480.34	13963.64
480.52	14373.23
480.70	14281.95
480.88	14104.07
481.06	14431.74
481.24	14335.78
481.41	14635.37
481.59	14689.20
481.77	14841.34
481.95	14831.97
482.13	14885.81
482.31	14888.15
482.49	15611.37
482.67	15279.02
482.85	15496.69
483.03	15763.51
483.21	15470.94
483.39	15838.41
483.57	15983.52
483.74	16006.92
483.92	16051.39
484.10	15950.75
484.28	16332.26
484.46	16762.92
484.64	17071.87
484.82	16568.65
485.00	16676.32
485.18	16910.37
485.35	16943.14
485.53	16659.93
485.71	16486.73
485.89	16870.58
486.07	16961.86
486.25	17303.58
486.43	17322.30
486.61	17635.94
486.78	17549.34
486.96	17926.16
487.14	18005.74
487.32	18045.53
487.50	18408.31
487.68	18532.36
487.85	18890.46
488.03	18988.77
488.21	19110.47
488.39	19042.60
488.57	19283.67
488.75	19426.45
488.92	19559.86
489.10	19896.89
489.28	19915.62
489.46	20135.63
489.64	20203.50
489.81	20575.65
489.99	20573.31
490.17	20905.66
490.35	21032.05
490.53	20966.52
490.70	21071.84
490.88	21078.86
491.06	21441.65
491.24	21109.29
491.41	21551.65
491.59	21495.48
491.77	21116.31
491.95	21661.66
492.13	21720.17
492.30	22085.30
492.48	22539.36
492.66	22122.74
492.84	22373.18
493.01	22207.00
493.19	22567.45
493.37	22590.85
493.54	22995.76
493.72	22951.29
493.90	23388.97
494.08	23653.45
494.25	23604.30
494.43	23922.62
494.61	24067.73
494.79	24114.54
494.96	23726.01
495.14	24006.87
495.32	24386.04
495.49	24687.97
495.67	24226.89
495.85	24767.55
496.02	24966.49
496.20	25036.71
496.38	25043.73
496.55	25357.36
496.73	25481.41
496.91	25383.11
497.09	25792.70
497.26	25909.73
497.44	25757.60
497.62	25893.35
497.79	26235.06
497.97	25645.25
498.14	26260.81
498.32	26419.97
498.50	26565.08
498.67	27119.79
498.85	27047.23
499.03	27108.08
499.20	27190.00
499.38	26993.40
499.56	27192.34
499.73	27302.35
499.91	27124.47
500.08	27410.01
500.26	26874.03
500.44	27295.33
500.61	27229.79
500.79	27405.33
500.97	27604.28
501.14	28112.17
501.32	27817.27
501.49	27843.01
501.67	28041.96
501.84	28067.70
502.02	28240.90
502.20	28180.05
502.37	28510.07
502.55	28486.66
502.72	28538.15
502.90	28966.47
503.07	28542.83
503.25	28748.80
503.43	28687.95
503.60	28868.17
503.78	29130.31
503.95	29198.18
504.13	29291.80
504.30	29394.79
504.48	29481.39
504.65	29743.53
504.83	29912.05
505.01	29778.64
505.18	29783.32
505.36	30199.93
505.53	30022.05
505.71	30148.44
505.88	30710.17
506.06	30143.76
506.23	30169.51
506.41	30260.79
506.58	30817.83
506.76	30167.16
506.93	30958.27
507.11	30616.55
507.28	30862.30
507.46	30555.69
507.63	30761.66
507.81	30941.88
507.98	30878.69
508.16	31058.91
508.33	31435.74
508.50	31274.24
508.68	31527.02
508.85	31613.62
509.03	32079.38
509.20	31667.45
509.38	31819.58
509.55	32215.13
509.73	31913.20
509.90	32079.38
510.08	32203.43
510.25	32154.28
510.42	32339.18
510.60	32554.51
510.77	32753.46
510.95	32685.58
511.12	32275.99
511.30	32854.10
511.47	33282.42
511.64	32774.52
511.82	33357.32
511.99	32870.48
512.17	33221.56
512.34	33233.27
512.51	33582.01
512.69	33736.48
512.86	33296.46
513.04	33923.72
513.21	33619.46
513.38	33420.51
513.56	33605.41
513.73	33600.73
513.90	34043.09
514.08	33811.38
514.25	33699.03
514.43	34230.33
514.60	34314.59
514.77	34045.43
514.95	34281.83
515.12	34630.57
515.29	34394.17
515.47	34969.94
515.64	34618.86
515.81	34703.12
515.99	34148.42
516.16	34689.08
516.33	33907.34
516.51	34235.02
516.68	33628.82
516.85	34038.41
517.03	34415.24
517.20	34216.29
517.37	35009.73
517.54	35218.04
517.72	35175.91
517.89	34658.65
518.06	34883.34
518.24	34480.77
518.41	34934.84
518.58	35328.05
518.75	34979.31
518.93	35765.73
519.10	35597.21
519.27	35833.60
519.45	35679.13
519.62	36163.62
519.79	35976.37
519.96	36224.47
520.14	36535.76
520.31	35971.69
520.48	36517.04
520.65	36442.14
520.83	36701.94
521.00	36903.23
521.17	36378.95
521.34	36641.09
521.52	37031.96
521.69	37165.37
521.86	37699.01
522.03	37184.09
522.20	36830.67
522.38	37130.26
522.55	37495.38
522.72	37013.23
522.89	37233.24
523.07	37343.25
523.24	37537.51
523.41	37572.62
523.58	37720.07
523.75	38141.37
523.92	38171.80
524.10	38124.99
524.27	38052.43
524.44	38117.96
524.61	38029.02
524.78	38408.19
524.96	38319.25
525.13	38604.80
525.30	38586.07
525.47	38988.64
525.64	38279.46
525.81	38382.45
525.98	38265.42
526.16	38387.13
526.33	38005.62
526.50	38384.79
526.67	37787.95
526.84	38192.86
527.01	37972.85
527.18	38581.39
527.36	39108.01
527.53	39171.21
527.70	39182.91
527.87	39501.22
528.04	39194.61
528.21	39578.46
528.38	39222.70
528.55	39969.33
528.72	39758.68
528.89	39964.65
529.07	39828.90
529.24	39608.89
529.41	39835.92
529.58	39854.64
529.75	39707.19
529.92	39934.22
530.09	39875.71
530.26	39894.43
530.43	40222.11
530.60	39842.94
530.77	39938.90
530.94	40194.02
531.11	40470.20
531.28	40102.74
531.46	40540.42
531.63	40474.88
531.80	40528.72
531.97	40535.74
532.14	40570.85
532.31	40030.18
532.48	39995.07
532.65	40432.75
532.82	40538.08
532.99	40360.20
533.16	40835.33
533.33	40786.18
533.50	41001.50
533.67	41081.08
533.84	40629.36
534.01	41130.23
534.18	41034.27
534.35	41333.86
534.52	40957.03
534.69	41333.86
534.86	41537.49
535.03	41097.47
535.20	41769.20
535.37	42026.66
535.54	42082.83
535.71	41778.56
535.88	41865.16
536.05	41521.10
536.22	42005.59
536.38	41792.61
536.55	41507.06
536.72	41535.15
536.89	41392.37
537.06	41474.29
537.23	41764.52
537.40	41867.50
537.57	42171.77
537.74	42574.34
537.91	41930.70
538.08	41698.98
538.25	42129.64
538.42	41764.52
538.59	42433.91
538.75	41553.87
538.92	42738.18
539.09	42141.35
539.26	42405.83
539.43	42471.36
539.60	41680.26
539.77	42295.82
539.94	42225.60
540.11	42164.75
540.28	41979.85
540.44	42302.84
540.61	42218.58
540.78	42302.84
540.95	41963.46
541.12	42213.90
541.29	42602.43
541.46	42756.91
541.62	43054.15
541.79	42925.42
541.96	42316.89
542.13	42834.14
542.30	42707.76
542.47	43026.07
542.63	42937.13
542.80	42887.98
542.97	43592.48
543.14	43756.32
543.31	43480.13
543.48	43650.99
543.64	44442.09
543.81	43627.59
543.98	43707.16
544.15	43868.66
544.32	43452.05
544.48	44081.65
544.65	43351.40
544.82	43737.59
544.99	43782.06
545.16	43732.91
545.32	43924.83
545.49	44406.98
545.66	44491.24
545.83	44088.67
546.00	44268.89
546.16	44378.90
546.33	44311.02
546.50	43526.94
546.67	43938.88
546.83	43569.07
547.00	43976.33
547.17	44100.37
547.34	44093.35
547.50	44278.25
547.67	44531.03
547.84	44236.12
548.00	44353.15
548.17	44790.83
548.34	44509.97
548.51	44638.70
548.67	44591.89
548.84	44718.28
549.01	44940.63
549.18	44507.63
549.34	44488.90
549.51	44514.65
549.68	44868.07
549.84	45305.75
550.01	44767.43
550.18	44797.85
550.34	44587.21
550.51	44821.26
550.68	45052.97
550.84	44505.29
551.01	45345.54
551.18	45078.72
551.34	44847.00
551.51	45074.04
551.68	45385.33
551.84	45193.40
552.01	45027.23
552.18	45125.53
552.34	45048.29
552.51	45172.34
552.68	45013.18
552.84	45357.24
553.01	45708.32
553.18	45280.00
553.34	45085.74
553.51	45497.67
553.67	45397.03
553.84	45490.65
554.01	45865.14
554.17	45750.45
554.34	45811.31
554.51	45670.87
554.67	45888.54
554.84	45624.06
555.00	45301.07
555.17	45790.24
555.33	45048.29
555.50	45705.98
555.67	45652.15
555.83	45708.32
556.00	45696.62
556.16	45996.21
556.33	45525.76
556.50	45186.38
556.66	45717.68
556.83	45624.06
556.99	45881.52
557.16	45979.82
557.32	46014.93
557.49	46064.08
557.65	46043.02
557.82	46071.10
557.98	45907.27
558.15	45986.85
558.32	45942.38
558.48	45846.41
558.65	45916.63
558.81	45975.14
558.98	45808.96
559.14	46110.89
559.31	46066.42
559.47	46316.86
559.64	46333.24
559.80	46347.29
559.97	45886.20
560.13	45989.19
560.30	46134.30
560.46	46483.04
560.63	46351.97
560.79	46227.92
560.96	46478.36
561.12	46424.53
561.29	46195.15
561.45	46333.24
561.61	46354.31
561.78	46204.52
561.94	46017.27
562.11	46356.65
562.27	46160.05
562.44	46302.82
562.60	46583.68
562.77	46167.07
562.93	46492.40
563.10	46761.56
563.26	45951.74
563.42	46494.74
563.59	46511.13
563.75	46534.53
563.92	46511.13
564.08	46532.19
564.24	46686.67
564.41	46656.24
564.57	46415.16
564.74	46358.99
564.90	46436.23
565.07	46642.20
565.23	46492.40
565.39	46597.73
565.56	46494.74
565.72	46307.50
565.88	46653.90
566.05	46525.17
566.21	46398.78
566.38	46258.35
566.54	46438.57
566.70	46848.16
566.87	46429.21
567.03	47110.30
567.19	47098.60
567.36	46628.15
567.52	46721.77
567.68	46728.80
567.85	46562.62
568.01	46504.10
568.17	46588.36
568.34	46703.05
568.50	46586.02
568.66	46611.77
568.83	46492.40
568.99	46447.93
569.15	46625.81
569.32	46281.75
569.48	46204.52
569.64	46796.67
569.81	46799.01
569.97	46693.69
570.13	46590.70
570.30	46550.91
570.46	46323.88
570.62	46607.09
570.78	46351.97
570.95	46316.86
571.11	46466.66
571.27	46506.44
571.43	46546.23
571.60	46590.70
571.76	46696.03
571.92	46817.74
572.09	47035.41
572.25	46822.42
572.41	46799.01
572.57	47232.01
572.74	47065.83
572.90	46791.99
573.06	46586.02
573.22	46635.17
573.38	46731.14
573.55	46693.69
573.71	47276.48
573.87	47072.85
574.03	46813.05
574.20	46415.16
574.36	46459.63
574.52	46768.58
574.68	46925.40
574.84	46918.38
575.01	47215.63
575.17	46494.74
575.33	46429.21
575.49	46433.89
575.65	46810.71
575.82	47372.44
575.98	46967.53
576.14	47217.97
576.30	46761.56
576.46	46546.23
576.62	46506.44
576.79	46571.98
576.95	46681.98
577.11	46660.92
577.27	46951.15
577.43	46803.69
577.59	46909.02
577.75	46721.77
577.92	46876.25
578.08	46522.83
578.24	46635.17
578.40	46391.76
578.56	46878.59
578.72	46689.01
578.88	47206.26
579.04	46927.74
579.21	47100.94
579.37	46946.47
579.53	46817.74
579.69	46691.35
579.85	46806.03
580.01	46696.03
580.17	47171.16
580.33	47079.88
580.49	47004.98
580.65	46742.84
580.82	47236.69
580.98	46834.12
581.14	46911.36
581.30	47192.22
581.46	47035.41
581.62	47173.50
581.78	47107.96
581.94	47004.98
582.10	46885.61
582.26	47072.85
582.42	47173.50
582.58	46972.21
582.74	47016.68
582.90	47271.80
583.06	47194.56
583.22	47044.77
583.38	47107.96
583.54	47381.80
583.70	47224.99
583.86	46822.42
584.02	46717.09
584.18	46822.42
584.34	46993.28
584.50	46909.02
584.66	46859.87
584.82	46728.80
584.98	46990.94
585.14	46976.89
585.30	46829.44
585.46	47203.92
585.62	46583.68
585.78	46401.12
585.94	46490.06
586.10	46887.95
586.26	46806.03
586.42	46990.94
586.58	47023.70
586.74	46967.53
586.90	46927.74
587.06	46831.78
587.22	46735.82
587.38	46590.70
587.54	46988.60
587.70	47217.97
587.86	46780.29
588.02	47044.77
588.18	47229.67
588.34	46848.16
588.49	46218.56
588.65	46529.85
588.81	46246.65
588.97	46321.54
589.13	45904.93
589.29	46550.91
589.45	46508.79
589.61	46705.39
589.77	46724.11
589.93	46831.78
