SpectraSuite Data File
++++++++++++++++++++++++++++++++++++
Date: Fri Oct 25 10:43:38 EDT 2013
User: price-jones
Dark Spectrum Present: No
Reference Spectrum Present: No
Number of Sampled Component Spectra: 1
Spectrometers: USB2+H05261
Integration Time (usec): 100000 (USB2+H05261)
Spectra Averaged: 1 (USB2+H05261)
Boxcar Smoothing: 0 (USB2+H05261)
Correct for Electrical Dark: No (USB2+H05261)
Strobe/Lamp Enabled: No (USB2+H05261)
Correct for Detector Non-linearity: No (USB2+H05261)
Correct for Stray Light: No (USB2+H05261)
Number of Pixels in Processed Spectrum: 2048
>>>>>Begin Processed Spectral Data<<<<<
365.73	145.11
365.92	145.11
366.12	145.11
366.32	140.43
366.52	49.15
366.72	35.11
366.91	0.00
367.11	23.41
367.31	7.02
367.51	49.15
367.70	39.79
367.90	9.36
368.10	11.70
368.30	0.00
368.49	7.02
368.69	81.92
368.89	0.00
369.09	9.36
369.28	126.39
369.48	7.02
369.68	110.01
369.87	79.58
370.07	126.39
370.27	100.64
370.47	196.60
370.66	404.91
370.86	468.11
371.06	465.77
371.25	521.94
371.45	402.57
371.65	430.66
371.84	367.46
372.04	428.32
372.24	491.51
372.44	510.24
372.63	440.02
372.83	496.19
373.03	486.83
373.22	456.40
373.42	468.11
373.62	531.30
373.81	517.26
374.01	610.88
374.21	561.73
374.40	571.09
374.60	582.79
374.79	561.73
374.99	594.50
375.19	610.88
375.38	517.26
375.58	683.44
375.78	596.84
375.97	557.05
376.17	627.26
376.37	596.84
376.56	594.50
376.76	655.35
376.95	608.54
377.15	629.60
377.35	662.37
377.54	669.39
377.74	634.29
377.93	641.31
378.13	641.31
378.33	685.78
378.52	662.37
378.72	678.76
378.91	692.80
379.11	772.38
379.31	653.01
379.50	622.58
379.70	634.29
379.89	711.52
380.09	634.29
380.28	737.27
380.48	699.82
380.68	704.50
380.87	674.07
381.07	613.22
381.26	615.56
381.46	636.63
381.65	678.76
381.85	692.80
382.04	641.31
382.24	669.39
382.43	732.59
382.63	655.35
382.83	690.46
383.02	692.80
383.22	727.91
383.41	706.84
383.61	849.61
383.80	755.99
384.00	821.53
384.19	772.38
384.39	795.78
384.58	777.06
384.78	770.04
384.97	788.76
385.17	767.70
385.36	781.74
385.56	835.57
385.75	816.85
385.95	753.65
386.14	840.25
386.34	844.93
386.53	898.77
386.72	819.19
386.92	894.08
387.11	847.27
387.31	823.87
387.50	875.36
387.70	791.10
387.89	856.64
388.09	870.68
388.28	863.66
388.48	842.59
388.67	903.45
388.86	912.81
389.06	943.24
389.25	983.02
389.45	1008.77
389.64	966.64
389.84	903.45
390.03	959.62
390.22	1032.18
390.42	1034.52
390.61	1006.43
390.81	1046.22
391.00	992.39
391.19	990.05
391.39	990.05
391.58	1090.69
391.78	1029.84
391.97	1163.25
392.16	1062.60
392.36	1062.60
392.55	978.34
392.75	966.64
392.94	954.94
393.13	973.66
393.33	1095.37
393.52	1064.94
393.71	1135.16
393.91	1196.01
394.10	1144.52
394.29	1111.75
394.49	1198.35
394.68	1256.87
394.88	1231.12
395.07	1273.25
395.26	1193.67
395.46	1296.66
395.65	1291.98
395.84	1205.38
396.04	1231.12
396.23	1207.72
396.42	1128.14
396.62	1125.80
396.81	1231.12
397.00	1242.82
397.19	1233.46
397.39	1343.47
397.58	1401.98
397.77	1348.15
397.97	1465.18
398.16	1341.13
398.35	1462.83
398.55	1425.39
398.74	1476.88
398.93	1465.18
399.12	1535.39
399.32	1460.49
399.51	1556.46
399.70	1556.46
399.90	1526.03
400.09	1558.80
400.28	1629.01
400.47	1582.20
400.67	1720.29
400.86	1636.03
401.05	1610.29
401.24	1753.06
401.44	1640.72
401.63	1774.13
401.82	1797.53
402.01	1790.51
402.21	1659.44
402.40	1783.49
402.59	1778.81
402.78	1839.66
402.97	1795.19
403.17	1792.85
403.36	1872.43
403.55	1846.68
403.74	1942.64
403.93	1954.35
404.13	1954.35
404.32	1954.35
404.51	1909.88
404.70	1966.05
404.89	1919.24
405.09	2094.78
405.28	1984.77
405.47	1989.46
405.66	1968.39
405.85	1959.03
406.05	2057.33
406.24	2031.58
406.43	2010.52
406.62	2059.67
406.81	2148.61
407.00	2160.31
407.20	2057.33
407.39	2083.08
407.58	2155.63
407.77	2087.76
407.96	2232.87
408.15	2356.92
408.34	2396.71
408.54	2310.11
408.73	2509.05
408.92	2265.64
409.11	2368.62
409.30	2382.67
409.49	2326.49
409.68	2328.83
409.87	2282.02
410.07	2324.15
410.26	2361.60
410.45	2368.62
410.64	2363.94
410.83	2583.95
411.02	2483.31
411.21	2684.59
411.40	2616.72
411.59	2569.91
411.78	2668.21
411.98	2696.30
412.17	2651.83
412.36	2623.74
412.55	2733.75
412.74	2813.32
412.93	2738.43
413.12	2757.15
413.31	2818.00
413.50	2878.86
413.69	2911.63
413.88	2998.23
414.07	2956.10
414.26	2874.18
414.45	2979.50
414.64	2972.48
414.83	3136.32
415.02	3054.40
415.22	3061.42
415.41	3103.55
415.60	3290.79
415.79	3143.34
415.98	3330.58
416.17	3307.18
416.36	3248.66
416.55	3295.47
416.74	3290.79
416.93	3325.90
417.12	3346.97
417.31	3499.10
417.50	3461.65
417.69	3410.16
417.88	3421.86
418.07	3414.84
418.26	3391.44
418.45	3581.02
418.64	3728.47
418.83	3538.89
419.02	3672.30
419.21	3707.41
419.39	3719.11
419.58	3618.47
419.77	3618.47
419.96	3613.79
420.15	3782.31
420.34	3632.51
420.53	3908.69
420.72	3801.03
420.91	3861.88
421.10	3889.97
421.29	3943.80
421.48	3765.92
421.67	3922.74
421.86	3894.65
422.05	3882.95
422.24	3719.11
422.43	3726.13
422.61	3875.93
422.80	3948.48
422.99	4037.42
423.18	4028.06
423.37	4133.39
423.56	3962.53
423.75	4081.89
423.94	3971.89
424.13	3716.77
424.32	3829.12
424.50	4007.00
424.69	4175.52
424.88	3983.59
425.07	4016.36
425.26	3927.42
425.45	4030.40
425.64	3997.64
425.83	4100.62
426.01	4093.60
426.20	3974.23
426.39	4088.92
426.58	3915.72
426.77	3934.44
426.96	3840.82
427.15	3892.31
427.33	4191.90
427.52	4196.58
427.71	4098.28
427.90	4156.79
428.09	4124.02
428.28	4063.17
428.46	4280.84
428.65	4154.45
428.84	4362.76
429.03	4313.61
429.22	4196.58
429.40	4131.05
429.59	4229.35
429.78	3911.04
429.97	3962.53
430.16	3983.59
430.34	4021.04
430.53	4278.50
430.72	4266.80
430.91	4372.12
431.10	4266.80
431.28	4561.70
431.47	4561.70
431.66	4767.67
431.85	4547.66
432.03	4585.11
432.22	4662.35
432.41	4655.33
432.60	4566.39
432.79	4720.86
432.97	4863.63
433.16	4858.95
433.35	4751.29
433.54	4690.43
433.72	4753.63
433.91	4732.56
434.10	4917.47
434.28	4641.28
434.47	4819.16
434.66	4922.15
434.85	5128.11
435.03	4926.83
435.22	5034.49
435.41	5085.98
435.59	5125.77
435.78	5165.56
435.97	5090.67
436.16	5235.78
436.34	5055.56
436.53	5001.72
436.72	5254.50
436.90	5081.30
437.09	5327.06
437.28	5055.56
437.46	5240.46
437.65	5315.36
437.84	5359.83
438.02	5240.46
438.21	5207.69
438.40	5151.52
438.58	5406.64
438.77	5455.79
438.96	5373.87
439.14	5605.58
439.33	5584.52
439.52	5605.58
439.70	5598.56
439.89	5769.42
440.08	5961.34
440.26	5781.12
440.45	5755.38
440.63	6015.18
440.82	5973.05
441.01	6061.99
441.19	6061.99
441.38	6200.08
441.57	6174.33
441.75	6218.80
441.94	6406.05
442.12	6368.60
442.31	6534.78
442.50	6478.60
442.68	6296.04
442.87	6305.40
443.05	6249.23
443.24	6574.56
443.43	6424.77
443.61	6663.51
443.80	6726.70
443.98	6436.47
444.17	6473.92
444.35	6403.71
444.54	6703.29
444.73	6544.14
444.91	6443.49
445.10	6572.22
445.28	6497.33
445.47	6345.19
445.65	6553.50
445.84	6630.74
446.02	6595.63
446.21	6497.33
446.39	6665.85
446.58	6796.92
446.77	6773.51
446.95	6626.06
447.14	6820.32
447.32	6932.67
447.51	6972.46
447.69	6520.73
447.88	6670.53
448.06	6775.85
448.25	6668.19
448.43	6993.52
448.62	6829.68
448.80	6803.94
448.99	6927.99
449.17	6998.20
449.36	6906.92
449.54	6869.47
449.73	7185.44
449.91	7204.17
450.10	7124.59
450.28	7419.50
450.46	7346.94
450.65	7396.09
450.83	7428.86
451.02	7353.96
451.20	7225.23
451.39	7185.44
451.57	7297.79
451.76	7260.34
451.94	7365.67
452.13	7375.03
452.31	7297.79
452.49	7145.66
452.68	7311.83
452.86	7124.59
453.05	7283.75
453.23	7377.37
453.42	7456.95
453.60	7492.05
453.78	7566.95
453.97	7508.44
454.15	7393.75
454.34	7368.01
454.52	7648.87
454.70	7616.10
454.89	7442.90
455.07	7494.40
455.26	7768.24
455.44	7922.71
455.62	7644.19
455.81	7585.68
455.99	7943.78
456.17	7826.75
456.36	7995.27
456.54	8035.06
456.73	8039.74
456.91	8334.65
457.09	8250.39
457.28	8381.46
457.46	8234.00
457.64	8292.52
457.83	8383.80
458.01	8229.32
458.19	8278.47
458.38	8231.66
458.56	8259.75
458.74	8463.38
458.93	8208.26
459.11	8273.79
459.29	8461.04
459.48	8388.48
459.66	8278.47
459.84	8461.04
460.03	8606.15
460.21	8463.38
460.39	8631.90
460.57	8610.83
460.76	8681.05
460.94	8542.96
461.12	8678.71
461.31	8798.07
461.49	8674.03
461.67	8519.55
461.85	9156.18
462.04	8961.91
462.22	9144.47
462.40	9153.84
462.59	8964.25
462.77	8954.89
462.95	9025.11
463.13	9100.00
463.32	8800.41
463.50	9210.01
463.68	8992.34
463.86	9062.55
464.05	9020.42
464.23	8725.52
464.41	9107.02
464.59	9090.64
464.78	9467.47
464.96	9305.97
465.14	9165.54
465.32	9474.49
465.50	9432.36
465.69	9305.97
465.87	9137.45
466.05	9181.92
466.23	9352.78
466.41	9029.79
466.60	9474.49
466.78	9179.58
466.96	9329.38
467.14	9294.27
467.32	9404.27
467.51	9605.56
467.69	9376.19
467.87	9462.79
468.05	9507.26
468.23	9472.15
468.41	9514.28
468.60	9528.32
468.78	9743.65
468.96	9682.80
469.14	9776.42
469.32	10085.37
469.50	9530.66
469.69	9682.80
469.87	9799.82
470.05	9837.27
470.23	9923.87
470.41	9771.74
470.59	9987.07
470.77	9977.70
470.95	10092.39
471.14	10174.31
471.32	9987.07
471.50	10420.06
471.68	10448.15
471.86	10286.65
472.04	10452.83
472.22	10654.12
472.40	10396.66
472.58	10415.38
472.77	10434.11
472.95	10721.99
473.13	11056.69
473.31	10768.80
473.49	10743.06
473.67	10640.08
473.85	10733.70
474.03	10944.34
474.21	11164.36
474.39	11108.18
474.57	11215.85
474.75	11356.28
474.93	11257.98
475.12	11269.68
475.30	11239.25
475.48	11225.21
475.66	11382.03
475.84	11344.58
476.02	11468.62
476.20	11665.23
476.38	11672.25
476.56	12334.62
476.74	11845.45
476.92	11868.86
477.10	11906.31
477.28	12248.02
477.46	12222.28
477.64	12493.78
477.82	12592.08
478.00	12748.90
478.18	12575.70
478.36	12622.51
478.54	12734.85
478.72	13041.46
478.90	12966.57
479.08	13294.24
479.26	13434.68
479.44	13577.45
479.62	13343.39
479.80	13369.14
479.98	13572.77
480.16	13589.15
480.34	13355.10
480.52	13905.12
480.70	13926.19
480.88	13486.17
481.06	14052.58
481.24	14504.30
481.41	14546.43
481.59	14523.02
481.77	14668.14
481.95	14422.38
482.13	14696.22
482.31	14686.86
482.49	15002.83
482.67	14916.23
482.85	15089.43
483.03	15264.97
483.21	15176.03
483.39	15522.43
483.57	15330.51
483.74	15726.06
483.92	15620.74
484.10	15517.75
484.28	15922.66
484.46	16105.23
484.64	16327.58
484.82	16224.59
485.00	16168.42
485.18	16163.74
485.35	16301.83
485.53	16100.55
485.71	16255.02
485.89	16905.69
486.07	16723.13
486.25	16950.16
486.43	16851.86
486.61	17156.13
486.78	17312.94
486.96	17479.12
487.14	17558.70
487.32	17804.46
487.50	18141.49
487.68	18384.91
487.85	18424.70
488.03	18609.60
488.21	18787.48
488.39	18511.30
488.57	18604.92
488.75	18724.29
488.92	19054.30
489.10	19491.98
489.28	19632.41
489.46	19630.07
489.64	19737.74
489.81	20339.26
489.99	20266.70
490.17	20198.82
490.35	20545.22
490.53	20816.72
490.70	20585.01
490.88	20732.47
491.06	20893.96
491.24	20973.54
491.41	20793.32
491.59	21186.53
491.77	20582.67
491.95	21411.22
492.13	21193.55
492.30	21757.62
492.48	21661.66
492.66	22251.47
492.84	22010.40
493.01	22031.46
493.19	22574.47
493.37	22506.59
493.54	22637.66
493.72	22750.01
493.90	22850.65
494.08	23225.14
494.25	23611.32
494.43	23241.52
494.61	23597.28
494.79	23482.59
494.96	23721.33
495.14	23522.38
495.32	24084.11
495.49	23960.06
495.67	23875.80
495.85	24486.68
496.02	24350.93
496.20	24706.70
496.38	24439.87
496.55	24936.07
496.73	25027.35
496.91	24833.08
497.09	25235.66
497.26	25383.11
497.44	25102.25
497.62	25394.81
497.79	25223.95
497.97	25015.65
498.14	25734.19
498.32	25975.27
498.50	25783.34
498.67	26307.62
498.85	26270.17
499.03	26724.24
499.20	26534.65
499.38	26242.09
499.56	26588.49
499.73	26562.74
499.91	26764.03
500.08	26923.18
500.26	26644.66
500.44	26801.47
500.61	26707.85
500.79	26808.50
500.97	26836.58
501.14	27431.08
501.32	27271.92
501.49	27358.52
501.67	27215.75
501.84	27676.83
502.02	27325.75
502.20	27899.19
502.37	28034.94
502.55	27864.08
502.72	28140.26
502.90	28147.28
503.07	28259.63
503.25	28268.99
503.43	28016.21
503.60	28528.79
503.78	28500.70
503.95	28446.87
504.13	29060.09
504.30	28840.08
504.48	29010.94
504.65	29450.96
504.83	29366.70
505.01	29237.97
505.18	29350.32
505.36	29596.07
505.53	29795.02
505.71	29851.19
505.88	29717.78
506.06	29537.56
506.23	29802.04
506.41	29715.44
506.58	30087.59
506.76	29954.18
506.93	30167.16
507.11	30356.75
507.28	30300.58
507.46	30300.58
507.63	30164.82
507.81	30218.66
507.98	30260.79
508.16	30850.60
508.33	30834.22
508.50	30829.54
508.68	30976.99
508.85	31419.35
509.03	30981.67
509.20	31161.89
509.38	31672.13
509.55	31606.59
509.73	31601.91
509.90	31449.78
510.08	31627.66
510.25	31496.59
510.42	31824.26
510.60	32360.25
510.77	31941.29
510.95	32552.17
511.12	32079.38
511.30	32521.74
511.47	32755.80
511.64	32683.24
511.82	32608.34
511.99	32430.46
512.17	32708.99
512.34	32650.47
512.51	32914.95
512.69	32678.56
512.86	32690.26
513.04	33081.13
513.21	32999.21
513.38	32744.09
513.56	33071.77
513.73	32811.97
513.90	33156.03
514.08	33324.55
514.25	33429.87
514.43	33539.88
514.60	33329.23
514.77	33909.68
514.95	33813.72
515.12	33577.33
515.29	34071.18
515.47	34101.61
515.64	34220.97
515.81	34183.52
515.99	34185.86
516.16	34312.25
516.33	34043.09
516.51	33778.61
516.68	33649.88
516.85	33027.30
517.03	33806.70
517.20	34293.53
517.37	34569.71
517.54	34876.32
517.72	34473.75
517.89	34031.39
518.06	34492.47
518.24	34295.87
518.41	34293.53
518.58	34892.71
518.75	34759.30
518.93	34902.07
519.10	35208.68
519.27	35318.68
519.45	35335.07
519.62	35866.37
519.79	35222.72
519.96	35583.16
520.14	35880.41
520.31	35510.61
520.48	35576.14
520.65	35351.45
520.83	36191.70
521.00	36065.31
521.17	36362.56
521.34	35924.88
521.52	35875.73
521.69	36449.16
521.86	36676.19
522.03	36577.89
522.20	36432.78
522.38	36325.11
522.55	36919.61
522.72	36065.31
522.89	36641.09
523.07	36559.17
523.24	36783.86
523.41	37273.03
523.58	36732.37
523.75	37434.53
523.92	37764.54
524.10	37818.38
524.27	38019.66
524.44	37048.34
524.61	37727.10
524.78	37163.03
524.96	37799.65
525.13	37977.53
525.30	37816.04
525.47	38129.67
525.64	37937.74
525.81	37551.56
525.98	37584.32
526.16	37490.70
526.33	37759.86
526.50	37879.23
526.67	37827.74
526.84	37553.90
527.01	37418.14
527.18	37982.21
527.36	38611.82
527.53	38532.24
527.70	39124.40
527.87	38492.45
528.04	38263.08
528.21	38749.91
528.38	38574.37
528.55	39133.76
528.72	38948.85
528.89	38813.10
529.07	39103.33
529.24	38824.81
529.41	39002.69
529.58	39086.95
529.75	38789.70
529.92	39597.18
530.09	39353.77
530.26	39400.58
530.43	39651.02
530.60	39232.06
530.77	39370.15
530.94	39702.51
531.11	39643.99
531.28	39711.87
531.46	39634.63
531.63	39613.57
531.80	39807.83
531.97	39899.11
532.14	39555.05
532.31	39487.18
532.48	39620.59
532.65	39592.50
532.82	40016.14
532.99	40278.28
533.16	39955.29
533.33	40313.39
533.50	40032.52
533.67	40493.61
533.84	40032.52
534.01	40055.93
534.18	40051.25
534.35	40779.15
534.52	40367.22
534.69	40704.26
534.86	40868.09
535.03	40500.63
535.20	41228.54
535.37	40811.92
535.54	41008.53
535.71	41258.96
535.88	41074.06
536.05	40765.11
536.22	41139.60
536.38	41478.97
536.55	40591.91
536.72	40577.87
536.89	40383.60
537.06	40676.17
537.23	41102.15
537.40	41319.82
537.57	41127.89
537.74	41394.71
537.91	41998.57
538.08	41235.56
538.25	41202.79
538.42	41083.42
538.59	41469.61
538.75	41364.29
538.92	41654.51
539.09	41429.82
539.26	41813.67
539.43	41530.47
539.60	41900.27
539.77	41427.48
539.94	41493.02
540.11	41743.45
540.28	41975.17
540.44	41244.92
540.61	41830.05
540.78	41127.89
540.95	41619.41
541.12	41706.01
541.29	41773.88
541.46	42148.37
541.62	42342.63
541.79	42649.24
541.96	41635.79
542.13	41944.74
542.30	42529.87
542.47	42220.92
542.63	42473.70
542.80	42139.00
542.97	42775.63
543.14	42981.60
543.31	42941.81
543.48	42930.11
543.64	43175.86
543.81	43150.12
543.98	42953.51
544.15	42766.27
544.32	43182.88
544.48	43688.44
544.65	42990.96
544.82	43438.00
544.99	42890.32
545.16	43372.47
545.32	43037.77
545.49	43117.35
545.66	43768.02
545.83	43494.18
546.00	43711.84
546.16	43522.26
546.33	43562.05
546.50	43159.48
546.67	43489.49
546.83	43372.47
547.00	43725.89
547.17	43501.20
547.34	42906.70
547.50	43594.82
547.67	43988.03
547.84	43943.56
548.00	44243.15
548.17	44713.59
548.34	44163.57
548.51	44388.26
548.67	44357.83
548.84	44362.51
549.01	44105.06
549.18	43885.04
549.34	43753.97
549.51	43931.86
549.68	44259.53
549.84	44065.27
550.01	44011.43
550.18	43896.75
550.34	44318.04
550.51	44306.34
550.68	44240.81
550.84	43728.23
551.01	44404.64
551.18	44343.79
551.34	44261.87
551.51	44472.52
551.68	44964.03
551.84	44488.90
552.01	44385.92
552.18	44692.53
552.34	43997.39
552.51	44472.52
552.68	44322.72
552.84	44708.91
553.01	44767.43
553.18	44781.47
553.34	44748.70
553.51	44591.89
553.67	44701.89
553.84	44816.58
554.01	45057.65
554.17	45001.48
554.34	45244.90
554.51	45006.16
554.67	45085.74
554.84	45120.85
555.00	44865.73
555.17	44542.74
555.33	45160.64
555.50	44863.39
555.67	44971.05
555.83	44931.26
556.00	45155.96
556.16	45167.66
556.33	44985.10
556.50	45230.85
556.66	45174.68
556.83	44552.10
556.99	45422.78
557.16	45249.58
557.32	44985.10
557.49	45109.14
557.65	45106.80
557.82	44837.64
557.98	45312.77
558.15	44989.78
558.32	45261.28
558.48	44910.20
558.65	45174.68
558.81	45310.43
558.98	44938.29
559.14	44938.29
559.31	45244.90
559.47	45514.06
559.64	45177.02
559.80	45640.45
559.97	45546.82
560.13	45411.07
560.30	45387.67
560.46	45481.29
560.63	45834.71
560.79	45729.39
560.96	45965.78
561.12	45422.78
561.29	45523.42
561.45	45514.06
561.61	45530.44
561.78	45638.11
561.94	45401.71
562.11	45148.93
562.27	45514.06
562.44	45174.68
562.60	46012.59
562.77	45516.40
562.93	45858.12
563.10	45958.76
563.26	45563.21
563.42	46052.38
563.59	45418.10
563.75	45511.72
563.92	46026.63
564.08	45904.93
564.24	46171.75
564.41	45684.92
564.57	45773.86
564.74	46017.27
564.90	45862.80
565.07	45951.74
565.23	45923.65
565.39	45895.56
565.56	45474.27
565.72	45418.10
565.88	45738.75
566.05	45663.85
566.21	45808.96
566.38	45759.81
566.54	45780.88
566.70	46279.41
566.87	46057.06
567.03	45600.66
567.19	46059.40
567.36	46480.70
567.52	45848.75
567.68	46209.20
567.85	45713.00
568.01	46424.53
568.17	45834.71
568.34	46148.34
568.50	45787.90
568.66	45890.88
568.83	45811.31
568.99	45687.26
569.15	45911.95
569.32	45783.22
569.48	46129.62
569.64	45998.55
569.81	46141.32
569.97	45626.40
570.13	46199.83
570.30	45778.54
570.46	45790.24
570.62	45329.16
570.78	45659.17
570.95	45677.90
571.11	45750.45
571.27	45738.75
571.43	46014.93
571.60	45897.91
571.76	45656.83
571.92	45865.14
572.09	45837.05
572.25	46307.50
572.41	46033.66
572.57	46433.89
572.74	46728.80
572.90	46581.34
573.06	46389.42
573.22	46389.42
573.38	45900.25
573.55	46017.27
573.71	46281.75
573.87	46188.13
574.03	46204.52
574.20	46752.20
574.36	46403.46
574.52	46122.60
574.68	46031.32
574.84	46295.80
575.01	46113.23
575.17	46202.18
575.33	46092.17
575.49	46059.40
575.65	46335.59
575.82	46307.50
575.98	45982.16
576.14	46284.09
576.30	46344.95
576.46	46248.99
576.62	46021.95
576.79	46459.63
576.95	45954.08
577.11	46216.22
577.27	46146.00
577.43	46068.76
577.59	46253.67
577.75	46040.68
577.92	45862.80
578.08	45886.20
578.24	45874.50
578.40	46211.54
578.56	46220.90
578.72	46253.67
578.88	46227.92
579.04	46628.15
579.21	46330.90
579.37	46089.83
579.53	46211.54
579.69	45970.46
579.85	46204.52
580.01	46391.76
580.17	46251.33
580.33	46185.79
580.49	46469.00
580.65	46110.89
580.82	45804.28
580.98	45954.08
581.14	46117.92
581.30	46686.67
581.46	46106.21
581.62	46511.13
581.78	46234.94
581.94	46134.30
582.10	46026.63
582.26	46305.16
582.42	46873.91
582.58	45963.44
582.74	46195.15
582.90	46616.45
583.06	46569.64
583.22	46693.69
583.38	47012.00
583.54	46478.36
583.70	46319.20
583.86	46094.51
584.02	45942.38
584.18	46246.65
584.34	45918.97
584.50	46394.10
584.66	45947.06
584.82	46216.22
584.98	46679.64
585.14	46368.35
585.30	46124.94
585.46	46328.56
585.62	46047.70
585.78	46405.80
585.94	46138.98
586.10	46040.68
586.26	46078.13
586.42	46349.63
586.58	46815.40
586.74	46148.34
586.90	46078.13
587.06	46373.03
587.22	46394.10
587.38	46050.04
587.54	46623.47
587.70	46155.36
587.86	46401.12
588.02	45940.04
588.18	46424.53
588.34	46148.34
588.49	45741.09
588.65	45778.54
588.81	45778.54
588.97	46174.09
589.13	45715.34
589.29	45827.69
589.45	46335.59
589.61	46300.48
589.77	46204.52
589.93	46443.25
590.08	46256.01
