SpectraSuite Data File
++++++++++++++++++++++++++++++++++++
Date: Fri Oct 25 11:22:39 EDT 2013
User: price-jones
Dark Spectrum Present: No
Reference Spectrum Present: No
Number of Sampled Component Spectra: 1
Spectrometers: USB2+H05261
Integration Time (usec): 100000 (USB2+H05261)
Spectra Averaged: 1 (USB2+H05261)
Boxcar Smoothing: 0 (USB2+H05261)
Correct for Electrical Dark: No (USB2+H05261)
Strobe/Lamp Enabled: No (USB2+H05261)
Correct for Detector Non-linearity: No (USB2+H05261)
Correct for Stray Light: No (USB2+H05261)
Number of Pixels in Processed Spectrum: 2048
>>>>>Begin Processed Spectral Data<<<<<
365.73	198.95
365.92	198.95
366.12	198.95
366.32	112.35
366.52	128.73
366.72	74.90
366.91	203.63
367.11	166.18
367.31	98.30
367.51	177.88
367.70	100.64
367.90	154.48
368.10	149.79
368.30	135.75
368.49	138.09
368.69	131.07
368.89	105.32
369.09	161.50
369.28	163.84
369.48	194.26
369.68	212.99
369.87	131.07
370.07	203.63
370.27	203.63
370.47	299.59
370.66	629.60
370.86	510.24
371.06	643.65
371.25	676.41
371.45	683.44
371.65	667.05
371.84	678.76
372.04	655.35
372.24	662.37
372.44	587.47
372.63	683.44
372.83	758.33
373.03	741.95
373.22	770.04
373.42	828.55
373.62	746.63
373.81	784.08
374.01	772.38
374.21	816.85
374.40	746.63
374.60	800.46
374.79	816.85
374.99	805.14
375.19	863.66
375.38	788.76
375.58	858.98
375.78	861.32
375.97	823.87
376.17	894.08
376.37	812.17
376.56	912.81
376.76	866.00
376.95	814.51
377.15	866.00
377.35	828.55
377.54	851.96
377.74	950.26
377.93	851.96
378.13	908.13
378.33	1008.77
378.52	997.07
378.72	889.40
378.91	943.24
379.11	978.34
379.31	945.58
379.50	936.21
379.70	919.83
379.89	910.47
380.09	976.00
380.28	908.13
380.48	1078.99
380.68	954.94
380.87	980.68
381.07	940.90
381.26	1088.35
381.46	983.02
381.65	1050.90
381.85	968.98
382.04	1008.77
382.24	1128.14
382.43	1057.92
382.63	1088.35
382.83	1055.58
383.02	1146.86
383.22	1151.54
383.41	1100.05
383.61	1100.05
383.80	1205.38
384.00	1128.14
384.19	1100.05
384.39	1128.14
384.58	1130.48
384.78	1179.63
384.97	1212.40
385.17	1158.57
385.36	952.60
385.56	1210.06
385.75	1135.16
385.95	1174.95
386.14	1212.40
386.34	1181.97
386.53	1217.08
386.72	1196.01
386.92	1186.65
387.11	1231.12
387.31	1287.29
387.50	1256.87
387.70	1301.34
387.89	1324.74
388.09	1287.29
388.28	1301.34
388.48	1352.83
388.67	1284.95
388.86	1289.64
389.06	1350.49
389.25	1390.28
389.45	1495.60
389.64	1355.17
389.84	1338.79
390.03	1341.13
390.22	1458.15
390.42	1399.64
390.61	1411.34
390.81	1409.00
391.00	1343.47
391.19	1380.92
391.39	1336.45
391.58	1420.71
391.78	1380.92
391.97	1497.94
392.16	1413.68
392.36	1430.07
392.55	1486.24
392.75	1579.86
392.94	1533.05
393.13	1528.37
393.33	1474.54
393.52	1493.26
393.71	1514.33
393.91	1603.27
394.10	1589.22
394.29	1535.39
394.49	1561.14
394.68	1575.18
394.88	1673.48
395.07	1584.54
395.26	1675.82
395.46	1563.48
395.65	1720.29
395.84	1647.74
396.04	1877.11
396.23	1724.97
396.42	1746.04
396.62	1764.76
396.81	1846.68
397.00	1699.23
397.19	1795.19
397.39	1795.19
397.58	1839.66
397.77	1799.87
397.97	1816.26
398.16	1788.17
398.35	1926.26
398.55	1781.15
398.74	1881.79
398.93	1954.35
399.12	1933.28
399.32	1827.96
399.51	1961.37
399.70	2005.84
399.90	2017.54
400.09	1980.09
400.28	2045.63
400.47	1994.14
400.67	2022.22
400.86	2010.52
401.05	2015.20
401.24	2073.71
401.44	2101.80
401.63	2127.55
401.82	2085.42
402.01	2179.04
402.21	2003.50
402.40	2195.42
402.59	2289.04
402.78	2319.47
402.97	2225.85
403.17	2284.36
403.36	2319.47
403.55	2380.32
403.74	2275.00
403.93	2457.56
404.13	2354.58
404.32	2293.72
404.51	2417.77
404.70	2375.64
404.89	2333.51
405.09	2483.31
405.28	2544.16
405.47	2499.69
405.66	2452.88
405.85	2495.01
406.05	2457.56
406.24	2476.29
406.43	2509.05
406.62	2595.65
406.81	2644.81
407.00	2593.31
407.20	2583.95
407.39	2546.50
407.58	2747.79
407.77	2719.70
407.96	2747.79
408.15	2703.32
408.34	2750.13
408.54	2773.53
408.73	2752.47
408.92	2862.48
409.11	2942.05
409.30	2890.56
409.49	2876.52
409.68	2981.84
409.87	2972.48
410.07	2911.63
410.26	3089.51
410.45	3094.19
410.64	3073.12
410.83	3171.43
411.02	3110.57
411.21	3096.53
411.40	3096.53
411.59	3094.19
411.78	3089.51
411.98	3201.85
412.17	3180.79
412.36	3302.50
412.55	3417.18
412.74	3442.93
412.93	3466.33
413.12	3349.31
413.31	3588.04
413.50	3468.67
413.69	3487.40
413.88	3730.81
414.07	3578.68
414.26	3639.53
414.45	3719.11
414.64	3676.98
414.83	3630.17
415.02	3805.71
415.22	3765.92
415.41	3779.97
415.60	3878.27
415.79	3882.95
415.98	4084.23
416.17	4028.06
416.36	3803.37
416.55	3957.85
416.74	4004.66
416.93	4028.06
417.12	4217.65
417.31	4248.07
417.50	4196.58
417.69	4322.97
417.88	4353.40
418.07	4337.01
418.26	4374.46
418.45	4297.22
418.64	4535.96
418.83	4407.23
419.02	4428.29
419.21	4559.36
419.39	4507.87
419.58	4557.02
419.77	4444.68
419.96	4610.86
420.15	4718.52
420.34	4676.39
420.53	4777.03
420.72	4774.69
420.91	4779.37
421.10	4814.48
421.29	4851.93
421.48	4854.27
421.67	4652.98
421.86	4774.69
422.05	4800.44
422.24	4702.14
422.43	4964.28
422.61	4978.32
422.80	5053.22
422.99	4959.60
423.18	5078.96
423.37	5188.97
423.56	4891.72
423.75	4915.12
423.94	4833.21
424.13	4589.79
424.32	4720.86
424.50	5046.20
424.69	5057.90
424.88	5064.92
425.07	5022.79
425.26	4968.96
425.45	5053.22
425.64	5074.28
425.83	4997.04
426.01	5085.98
426.20	5107.05
426.39	5104.71
426.58	5006.41
426.77	5114.07
426.96	5167.90
427.15	5074.28
427.33	5327.06
427.52	5313.02
427.71	5296.63
427.90	5224.08
428.09	5352.81
428.28	5345.78
428.46	5294.29
428.65	5392.59
428.84	5558.77
429.03	5481.53
429.22	5303.65
429.40	5486.22
429.59	5425.36
429.78	5378.55
429.97	5305.99
430.16	5617.29
430.34	5680.48
430.53	5706.23
430.72	5633.67
430.91	5769.42
431.10	5598.56
431.28	5738.99
431.47	5703.89
431.66	5839.64
431.85	5907.51
432.03	5956.66
432.22	6069.01
432.41	5863.04
432.60	5947.30
432.79	5865.38
432.97	5944.96
433.16	6057.31
433.35	5963.68
433.54	6228.17
433.72	6216.46
433.91	6160.29
434.10	6270.30
434.28	6125.18
434.47	6279.66
434.66	6293.70
434.85	6408.39
435.03	6424.77
435.22	6204.76
435.41	6462.22
435.59	6457.54
435.78	6487.96
435.97	6565.20
436.16	6389.66
436.34	6513.71
436.53	6525.41
436.72	6705.63
436.90	6525.41
437.09	6457.54
437.28	6509.03
437.46	6719.68
437.65	6745.42
437.84	6834.36
438.02	6761.81
438.21	6761.81
438.40	6698.61
438.58	7084.80
438.77	7047.35
438.96	6944.37
439.14	7267.36
439.33	7143.32
439.52	7269.70
439.70	7239.28
439.89	7307.15
440.08	7227.57
440.26	7396.09
440.45	7414.82
440.63	7475.67
440.82	7578.65
441.01	7428.86
441.19	7632.49
441.38	7616.10
441.57	7819.73
441.75	7784.62
441.94	7950.80
442.12	7997.61
442.31	8116.98
442.50	8107.62
442.68	8084.21
442.87	8102.93
443.05	8049.10
443.24	8320.60
443.43	8414.23
443.61	8100.59
443.80	8606.15
443.98	8109.96
444.17	8093.57
444.35	8299.54
444.54	8383.80
444.73	8381.46
444.91	8456.36
445.10	8531.25
445.28	8482.10
445.47	8224.64
445.65	8411.89
445.84	8325.29
446.02	8610.83
446.21	8592.11
446.39	8517.21
446.58	8514.87
446.77	8627.21
446.95	8346.35
447.14	8439.97
447.32	8734.88
447.51	8645.94
447.69	8505.51
447.88	8655.30
448.06	8709.13
448.25	8484.44
448.43	8751.26
448.62	8779.35
448.80	8582.74
448.99	8624.87
449.17	8851.91
449.36	8650.62
449.54	8875.31
449.73	8982.98
449.91	9202.99
450.10	9142.13
450.28	9048.51
450.46	9191.28
450.65	9284.91
450.83	9254.48
451.02	9179.58
451.20	9142.13
451.39	9291.93
451.57	9198.31
451.76	9270.86
451.94	9327.03
452.13	9334.06
452.31	9301.29
452.49	9114.05
452.68	9387.89
452.86	9476.83
453.05	9509.60
453.23	9345.76
453.42	9259.16
453.60	9394.91
453.78	9558.75
453.97	9483.85
454.15	9678.12
454.34	9591.52
454.52	9727.27
454.70	9806.84
454.89	9755.35
455.07	9848.97
455.26	9692.16
455.44	10139.20
455.62	10083.03
455.81	9963.66
455.99	10094.73
456.17	9942.60
456.36	10160.27
456.54	10260.91
456.73	10401.34
456.91	10464.54
457.09	10429.43
457.28	10602.63
457.46	10457.51
457.64	10588.58
457.83	10483.26
458.01	10619.01
458.19	10815.62
458.38	10640.08
458.56	10780.51
458.74	10637.73
458.93	10890.51
459.11	10817.96
459.29	10918.60
459.48	10876.47
459.66	11012.22
459.84	11208.83
460.03	11124.57
460.21	10883.49
460.39	11084.78
460.57	11089.46
460.76	10911.58
460.94	11243.93
461.12	11257.98
461.31	11257.98
461.49	11234.57
461.67	11463.94
461.85	11779.92
462.04	11534.16
462.22	11976.52
462.40	11698.00
462.59	11461.60
462.77	11592.67
462.95	11885.24
463.13	11641.82
463.32	11707.36
463.50	11803.32
463.68	11887.58
463.86	11648.85
464.05	11857.15
464.23	11613.74
464.41	12236.32
464.59	11971.84
464.78	12243.34
464.96	11992.90
465.14	11920.35
465.32	12093.55
465.50	12266.75
465.69	12418.88
465.87	12273.77
466.05	11953.12
466.23	12304.20
466.41	12255.04
466.60	12603.78
466.78	12292.49
466.96	12367.39
467.14	12304.20
467.32	12388.46
467.51	12802.73
467.69	12393.14
467.87	12559.31
468.05	12620.17
468.23	12435.27
468.41	12580.38
468.60	12786.35
468.78	12765.28
468.96	12891.67
469.14	12980.61
469.32	13109.34
469.50	12765.28
469.69	13174.88
469.87	13317.65
470.05	13149.13
470.23	13259.13
470.41	13146.79
470.59	13425.31
470.77	13104.66
470.95	13123.38
471.14	13523.62
471.32	13193.60
471.50	13837.25
471.68	13851.29
471.86	13853.63
472.04	14075.98
472.22	13991.72
472.40	13727.24
472.58	14005.77
472.77	14209.39
472.95	14391.95
473.13	14862.40
473.31	14064.28
473.49	14235.14
473.67	14347.48
473.85	14066.62
474.03	14686.86
474.21	14836.66
474.39	14785.16
474.57	15019.22
474.75	14995.81
474.93	14993.47
475.12	14855.38
475.30	15232.21
475.48	14923.26
475.66	15344.55
475.84	15356.25
476.02	15470.94
476.20	15377.32
476.38	15646.48
476.56	16194.17
476.74	15840.75
476.92	16168.42
477.10	16011.60
477.28	16428.22
477.46	16479.71
477.64	16479.71
477.82	16837.81
478.00	17128.04
478.18	16617.80
478.36	16854.20
478.54	17584.44
478.72	17207.62
478.90	17818.50
479.08	17565.72
479.26	18071.28
479.44	17790.41
479.62	18141.49
479.80	18104.04
479.98	18380.23
480.16	18654.07
480.34	18391.93
480.52	18513.64
480.70	18867.06
480.88	18466.83
481.06	18665.77
481.24	18895.14
481.41	19115.16
481.59	19552.84
481.77	19477.94
481.95	19674.54
482.13	20025.62
482.31	19737.74
482.49	20594.37
482.67	20460.96
482.85	20521.82
483.03	20716.08
483.21	20870.56
483.39	20982.90
483.57	21067.16
483.74	21223.98
483.92	21420.58
484.10	21348.03
484.28	21991.67
484.46	22317.01
484.64	22527.66
484.82	21865.28
485.00	22878.74
485.18	22508.93
485.35	23065.98
485.53	23037.89
485.71	22988.74
485.89	23660.48
486.07	23564.51
486.25	23608.98
486.43	23484.94
486.61	24100.50
486.78	24147.31
486.96	24680.95
487.14	24519.45
487.32	24868.19
487.50	25090.54
487.68	25383.11
487.85	25479.07
488.03	25734.19
488.21	25846.54
488.39	25834.83
488.57	26197.62
488.75	26448.05
488.92	26707.85
489.10	26705.51
489.28	26920.84
489.46	27428.74
489.64	27253.20
489.81	27953.02
489.99	28044.30
490.17	28306.44
490.35	28343.89
490.53	28563.90
490.70	28730.08
490.88	28381.34
491.06	29069.45
491.24	29041.37
491.41	29390.11
491.59	29741.19
491.77	29214.57
491.95	29820.77
492.13	29979.92
492.30	30089.93
492.48	30260.79
492.66	30110.99
492.84	30597.82
493.01	31009.76
493.19	30909.11
493.37	31311.69
493.54	31154.87
493.72	31880.44
493.90	31852.35
494.08	31821.92
494.25	32144.92
494.43	31992.78
494.61	32652.81
494.79	32704.31
494.96	32886.87
495.14	33251.99
495.32	33560.94
495.49	33378.38
495.67	33284.76
495.85	34080.54
496.02	34122.67
496.20	34209.27
496.38	34525.24
496.55	34176.50
496.73	35187.61
496.91	34639.93
497.09	34909.09
497.26	35314.00
497.44	35283.58
497.62	35728.28
497.79	36313.41
497.97	35438.05
498.14	36847.05
498.32	36278.30
498.50	36411.71
498.67	37170.05
498.85	36648.11
499.03	37034.30
499.20	36982.80
499.38	36896.20
499.56	37471.98
499.73	37514.11
499.91	37694.33
500.08	38258.40
500.26	37670.92
500.44	38122.65
500.61	37926.04
500.79	38345.00
500.97	38518.20
501.14	38888.00
501.32	38689.06
501.49	38785.02
501.67	38883.32
501.84	39433.35
502.02	39672.08
502.20	39459.09
502.37	39665.06
502.55	39665.06
502.72	39683.78
502.90	39697.83
503.07	39878.05
503.25	40275.94
503.43	40252.53
503.60	40343.81
503.78	40446.80
503.95	40442.12
504.13	40498.29
504.30	40821.28
504.48	40645.74
504.65	40818.94
504.83	41202.79
505.01	41607.70
505.18	41401.74
505.36	42220.92
505.53	41581.96
505.71	41654.51
505.88	42024.32
506.06	41691.96
506.23	42227.95
506.41	41993.89
506.58	42185.82
506.76	42721.80
506.93	42817.76
507.11	42569.66
507.28	43016.71
507.46	43208.63
507.63	43297.57
507.81	43360.76
507.98	42923.08
508.16	43482.47
508.33	43966.96
508.50	43777.38
508.68	44282.94
508.85	44299.32
509.03	44081.65
509.20	44495.92
509.38	44727.64
509.55	44987.44
509.73	44921.90
509.90	44966.37
510.08	44755.72
510.25	44832.96
510.42	45024.89
510.60	45336.18
510.77	45574.91
510.95	45649.81
511.12	45385.33
511.30	45507.04
511.47	45949.40
511.64	45614.70
511.82	46050.04
511.99	46110.89
512.17	46279.41
512.34	46492.40
512.51	46429.21
512.69	46543.89
512.86	46567.30
513.04	46993.28
513.21	47402.87
513.38	47269.46
513.56	47433.30
513.73	47295.21
513.90	47117.32
514.08	47152.43
514.25	47459.04
514.43	47398.19
514.60	48009.07
514.77	47831.19
514.95	47856.93
515.12	48090.99
515.29	47749.27
515.47	48411.64
515.64	48341.42
515.81	48392.92
515.99	48547.39
516.16	49144.23
516.33	48580.16
516.51	48825.92
516.68	48783.79
516.85	48996.77
517.03	49268.28
517.20	49045.93
517.37	49303.38
517.54	49181.68
517.72	49029.54
517.89	49125.50
518.06	49544.46
518.24	49375.94
518.41	49530.42
518.58	49820.64
518.75	49780.85
518.93	50148.32
519.10	49680.21
519.27	50461.95
519.45	50265.34
519.62	50387.05
519.79	50342.58
519.96	50167.04
520.14	50576.64
520.31	50454.93
520.48	50995.59
520.65	50738.13
520.83	50756.86
521.00	51121.98
521.17	50693.66
521.34	50908.99
521.52	50948.78
521.69	51138.36
521.86	51554.98
522.03	51501.15
522.20	51700.09
522.38	51852.23
522.55	51711.80
522.72	51437.95
522.89	51585.41
523.07	51634.56
523.24	51442.63
523.41	51861.59
523.58	51573.70
523.75	51934.15
523.92	52018.41
524.10	52184.58
524.27	52317.99
524.44	52449.06
524.61	52273.52
524.78	52453.75
524.96	52512.26
525.13	52360.12
525.30	52477.15
525.47	52870.36
525.64	52846.96
525.81	52729.93
525.98	53130.16
526.16	52926.53
526.33	52758.02
526.50	53329.11
526.67	52732.27
526.84	52996.75
527.01	53301.02
527.18	53338.47
527.36	53502.31
527.53	53415.71
527.70	53078.67
527.87	53757.42
528.04	53343.15
528.21	53787.85
528.38	53670.82
528.55	53879.13
528.72	53677.85
528.89	53729.34
529.07	53455.50
529.24	53502.31
529.41	54071.06
529.58	53970.41
529.75	53902.54
529.92	53914.24
530.09	54422.14
530.26	54300.43
530.43	54150.63
530.60	54026.59
530.77	53900.20
530.94	54349.58
531.11	54106.16
531.28	54497.03
531.46	54686.62
531.63	54569.59
531.80	54679.60
531.97	54604.70
532.14	54801.30
532.31	54904.29
532.48	54883.22
532.65	54988.55
532.82	54761.51
532.99	54951.10
533.16	54876.20
533.33	55025.99
533.50	55206.22
533.67	55054.08
533.84	54770.88
534.01	55231.96
534.18	55224.94
534.35	55473.04
534.52	55316.22
534.69	55451.97
534.86	55576.02
535.03	55241.32
535.20	55423.89
535.37	55519.85
535.54	55536.23
535.71	55526.87
535.88	55601.77
536.05	55835.82
536.22	55711.77
536.38	55964.55
536.55	55784.33
536.72	55880.29
536.89	55704.75
537.06	55821.78
537.23	55952.85
537.40	55725.81
537.57	55800.71
537.74	56119.02
537.91	56079.24
538.08	56090.94
538.25	55945.83
538.42	56179.88
538.59	56303.93
538.75	56002.00
538.92	56212.65
539.09	56168.18
539.26	56355.42
539.43	56203.28
539.60	56334.35
539.77	56278.18
539.94	56666.71
540.11	56484.15
540.28	56657.35
540.44	56750.97
540.61	56547.34
540.78	56708.84
540.95	56626.92
541.12	56416.27
541.29	56743.95
541.46	56678.41
541.62	56797.78
541.79	56818.84
541.96	56961.62
542.13	56809.48
542.30	57050.56
542.47	57050.56
542.63	57003.75
542.80	57050.56
542.97	57263.55
543.14	57301.00
543.31	57256.53
543.48	57495.26
543.64	57719.95
543.81	57516.32
543.98	57600.58
544.15	57446.11
544.32	57797.19
544.48	57726.97
544.65	57792.51
544.82	57572.50
544.99	57581.86
545.16	57743.36
545.32	57605.26
545.49	57640.37
545.66	57921.24
545.83	57930.60
546.00	58106.14
546.16	57797.19
546.33	57712.93
546.50	57935.28
546.67	57820.59
546.83	57682.50
547.00	57886.13
547.17	57958.69
547.34	57939.96
547.50	58115.50
547.67	58415.09
547.84	58143.59
548.00	58314.45
548.17	58401.05
548.34	58260.62
548.51	58653.82
548.67	58454.88
548.84	58405.73
549.01	58354.24
549.18	58354.24
549.34	58274.66
549.51	58464.24
549.68	58429.13
549.84	58702.98
550.01	58585.95
550.18	58478.28
550.34	58665.53
550.51	58953.41
550.68	58742.77
550.84	58548.50
551.01	58731.06
551.18	58824.68
551.34	58812.98
551.51	58805.96
551.68	58899.58
551.84	58805.96
552.01	58688.93
552.18	58939.37
552.34	58941.71
552.51	58927.67
552.68	58817.66
552.84	58958.09
553.01	59203.85
553.18	59131.29
553.34	58925.33
553.51	58754.47
553.67	59112.57
553.84	59269.39
554.01	59093.85
554.17	59124.27
554.34	59341.94
554.51	59309.18
554.67	59173.42
554.84	59344.28
555.00	59283.43
555.17	59267.05
555.33	59372.37
555.50	59231.94
555.67	59157.04
555.83	59238.96
556.00	59370.03
556.16	59716.43
556.33	59465.99
556.50	59367.69
556.66	59400.46
556.83	59224.92
556.99	59573.66
557.16	59594.72
557.32	59746.86
557.49	59875.58
557.65	59655.57
557.82	59421.52
557.98	59779.62
558.15	59714.09
558.32	59793.67
558.48	59367.69
558.65	59664.94
558.81	59655.57
558.98	59817.07
559.14	59910.69
559.31	59908.35
559.47	59880.27
559.64	60025.38
559.80	59807.71
559.97	59938.78
560.13	59877.93
560.30	59793.67
560.46	60037.08
560.63	59999.63
560.79	59980.91
560.96	60041.76
561.12	60116.66
561.29	59962.18
561.45	60090.91
561.61	60016.02
561.78	60011.34
561.94	60039.42
562.11	60013.68
562.27	60069.85
562.44	60250.07
562.60	60280.50
562.77	60104.96
562.93	59779.62
563.10	60317.95
563.26	60240.71
563.42	60416.25
563.59	60133.04
563.75	60023.04
563.92	60317.95
564.08	60046.44
564.24	60486.46
564.41	60280.50
564.57	60065.17
564.74	60458.38
564.90	60481.78
565.07	60320.29
565.23	60481.78
565.39	60500.51
565.56	60383.48
565.72	60329.65
565.88	60280.50
566.05	60217.30
566.21	60392.84
566.38	60453.70
566.54	60395.18
566.70	60598.81
566.87	60629.24
567.03	60324.97
567.19	60685.41
567.36	60652.64
567.52	60463.06
567.68	60573.06
567.85	60512.21
568.01	60662.00
568.17	60331.99
568.34	60615.19
568.50	60530.93
568.66	60664.35
568.83	60500.51
568.99	60514.55
569.15	60727.54
569.32	60582.43
569.48	60650.30
569.64	60823.50
569.81	60505.19
569.97	60764.99
570.13	60631.58
570.30	60622.22
570.46	60687.75
570.62	60793.07
570.78	60807.12
570.95	60589.45
571.11	60643.28
571.27	60704.13
571.43	60975.64
571.60	60804.78
571.76	60905.42
571.92	60844.57
572.09	60762.65
572.25	60884.36
572.41	60874.99
572.57	60736.90
572.74	60907.76
572.90	60912.44
573.06	60999.04
573.22	60715.84
573.38	60874.99
573.55	60853.93
573.71	60903.08
573.87	60683.07
574.03	60870.31
574.20	60795.42
574.36	61006.06
574.52	60910.10
574.68	60994.36
574.84	61010.74
575.01	60872.65
575.17	61029.47
575.33	60914.78
575.49	60889.04
575.65	60823.50
575.82	61010.74
575.98	60931.17
576.14	61057.56
576.30	60982.66
576.46	60949.89
576.62	60874.99
576.79	61059.90
576.95	60860.95
577.11	60952.23
577.27	61052.87
577.43	60940.53
577.59	60760.31
577.75	60917.12
577.92	60952.23
578.08	60912.44
578.24	61099.68
578.40	61282.25
578.56	61020.11
578.72	60968.61
578.88	61226.07
579.04	61113.73
579.21	61024.79
579.37	61265.86
579.53	61455.45
579.69	60905.42
579.85	61104.37
580.01	61179.26
580.17	60959.25
580.33	61216.71
580.49	61305.65
580.65	61052.87
580.82	60940.53
580.98	60893.72
581.14	61066.92
581.30	61284.59
581.46	61148.84
581.62	61008.40
581.78	61078.62
581.94	61162.88
582.10	61197.99
582.26	61031.81
582.42	61167.56
582.58	61158.20
582.74	61062.24
582.90	61013.08
583.06	61041.17
583.22	60980.32
583.38	61197.99
583.54	61237.78
583.70	61277.57
583.86	61413.32
584.02	61111.39
584.18	61265.86
584.34	61249.48
584.50	61123.09
584.66	61247.14
584.82	61066.92
584.98	61263.52
585.14	61050.53
585.30	61179.26
585.46	61240.12
585.62	61116.07
585.78	61373.53
585.94	61095.00
586.10	61387.57
586.26	61202.67
586.42	61205.01
586.58	61485.87
586.74	61357.14
586.90	61190.97
587.06	61092.66
587.22	61396.93
587.38	61373.53
587.54	61319.70
587.70	61432.04
587.86	61240.12
588.02	61212.03
588.18	61492.89
588.34	61251.82
588.49	61132.45
