SpectraSuite Data File
++++++++++++++++++++++++++++++++++++
Date: Fri Oct 25 11:34:18 EDT 2013
User: price-jones
Dark Spectrum Present: No
Reference Spectrum Present: No
Number of Sampled Component Spectra: 1
Spectrometers: USB2+H05261
Integration Time (usec): 100000 (USB2+H05261)
Spectra Averaged: 1 (USB2+H05261)
Boxcar Smoothing: 0 (USB2+H05261)
Correct for Electrical Dark: No (USB2+H05261)
Strobe/Lamp Enabled: No (USB2+H05261)
Correct for Detector Non-linearity: No (USB2+H05261)
Correct for Stray Light: No (USB2+H05261)
Number of Pixels in Processed Spectrum: 2048
>>>>>Begin Processed Spectral Data<<<<<
365.73	304.27
365.92	304.27
366.12	304.27
366.32	227.03
366.52	201.29
366.72	133.41
366.91	177.88
367.11	187.24
367.31	250.44
367.51	201.29
367.70	236.39
367.90	259.80
368.10	212.99
368.30	269.16
368.49	138.09
368.69	140.43
368.89	210.65
369.09	187.24
369.28	194.26
369.48	182.56
369.68	229.37
369.87	248.10
370.07	264.48
370.27	393.21
370.47	372.15
370.66	395.55
370.86	493.85
371.06	503.22
371.25	547.69
371.45	500.87
371.65	580.45
371.84	550.03
372.04	543.00
372.24	557.05
372.44	540.66
372.63	585.13
372.83	521.94
373.03	547.69
373.22	550.03
373.42	627.26
373.62	662.37
373.81	599.18
374.01	645.99
374.21	660.03
374.40	655.35
374.60	664.71
374.79	634.29
374.99	683.44
375.19	634.29
375.38	650.67
375.58	596.84
375.78	690.46
375.97	723.23
376.17	699.82
376.37	734.93
376.56	709.18
376.76	641.31
376.95	634.29
377.15	638.97
377.35	725.57
377.54	702.16
377.74	713.86
377.93	730.25
378.13	720.88
378.33	748.97
378.52	690.46
378.72	681.10
378.91	634.29
379.11	699.82
379.31	660.03
379.50	718.54
379.70	744.29
379.89	720.88
380.09	748.97
380.28	667.05
380.48	727.91
380.68	690.46
380.87	720.88
381.07	772.38
381.26	758.33
381.46	770.04
381.65	748.97
381.85	753.65
382.04	739.61
382.24	844.93
382.43	741.95
382.63	765.36
382.83	849.61
383.02	833.23
383.22	917.49
383.41	809.83
383.61	772.38
383.80	884.72
384.00	823.87
384.19	807.48
384.39	791.10
384.58	889.40
384.78	858.98
384.97	751.31
385.17	784.08
385.36	840.25
385.56	809.83
385.75	828.55
385.95	875.36
386.14	805.14
386.34	887.06
386.53	870.68
386.72	819.19
386.92	901.11
387.11	894.08
387.31	847.27
387.50	844.93
387.70	912.81
387.89	837.91
388.09	870.68
388.28	866.00
388.48	880.04
388.67	880.04
388.86	929.19
389.06	947.92
389.25	891.74
389.45	919.83
389.64	816.85
389.84	887.06
390.03	968.98
390.22	910.47
390.42	966.64
390.61	875.36
390.81	910.47
391.00	961.96
391.19	1043.88
391.39	971.32
391.58	997.07
391.78	1074.31
391.97	985.37
392.16	1027.50
392.36	983.02
392.55	1022.81
392.75	978.34
392.94	973.66
393.13	1123.46
393.33	985.37
393.52	1032.18
393.71	1004.09
393.91	997.07
394.10	1062.60
394.29	1015.79
394.49	1090.69
394.68	1163.25
394.88	1107.07
395.07	1177.29
395.26	1146.86
395.46	1027.50
395.65	1107.07
395.84	1125.80
396.04	1210.06
396.23	1151.54
396.42	1095.37
396.62	1158.57
396.81	1207.72
397.00	1179.63
397.19	1081.33
397.39	1238.14
397.58	1114.10
397.77	1167.93
397.97	1238.14
398.16	1268.57
398.35	1266.23
398.55	1196.01
398.74	1327.08
398.93	1364.53
399.12	1270.91
399.32	1247.51
399.51	1247.51
399.70	1315.38
399.90	1306.02
400.09	1320.06
400.28	1416.02
400.47	1355.17
400.67	1341.13
400.86	1399.64
401.05	1397.30
401.24	1390.28
401.44	1385.60
401.63	1479.22
401.82	1441.77
402.01	1430.07
402.21	1401.98
402.40	1439.43
402.59	1549.43
402.78	1434.75
402.97	1479.22
403.17	1488.58
403.36	1493.26
403.55	1519.01
403.74	1469.86
403.93	1551.78
404.13	1593.90
404.32	1645.40
404.51	1603.27
404.70	1626.67
404.89	1535.39
405.09	1586.88
405.28	1652.42
405.47	1479.22
405.66	1652.42
405.85	1661.78
406.05	1598.59
406.24	1689.87
406.43	1809.23
406.62	1739.02
406.81	1830.30
407.00	1706.25
407.20	1666.46
407.39	1750.72
407.58	1823.28
407.77	1809.23
407.96	1879.45
408.15	1879.45
408.34	1863.07
408.54	1902.86
408.73	1858.39
408.92	1872.43
409.11	1998.82
409.30	2019.88
409.49	1942.64
409.68	1893.49
409.87	1919.24
410.07	1987.11
410.26	2001.16
410.45	2059.67
410.64	2026.90
410.83	1987.11
411.02	2052.65
411.21	2204.78
411.40	2087.76
411.59	2097.12
411.78	2113.50
411.98	2083.08
412.17	2221.17
412.36	2289.04
412.55	2373.30
412.74	2235.21
412.93	2275.00
413.12	2193.08
413.31	2473.95
413.50	2354.58
413.69	2345.22
413.88	2420.11
414.07	2345.22
414.26	2401.39
414.45	2363.94
414.64	2450.54
414.83	2441.18
415.02	2462.24
415.22	2626.08
415.41	2544.16
415.60	2621.40
415.79	2574.59
415.98	2663.53
416.17	2626.08
416.36	2551.18
416.55	2799.28
416.74	2722.04
416.93	2813.32
417.12	2818.00
417.31	2825.03
417.50	2899.92
417.69	2932.69
417.88	2815.66
418.07	2920.99
418.26	2864.82
418.45	2822.69
418.64	3143.34
418.83	2937.37
419.02	2904.60
419.21	3038.02
419.39	3012.27
419.58	3082.49
419.77	3054.40
419.96	3005.25
420.15	3117.59
420.34	3192.49
420.53	3197.17
420.72	3091.85
420.91	3138.66
421.10	3124.62
421.29	3103.55
421.48	3258.03
421.67	3307.18
421.86	3162.06
422.05	3183.13
422.24	3358.67
422.43	3398.46
422.61	3089.51
422.80	3220.58
422.99	3251.00
423.18	3229.94
423.37	3269.73
423.56	3311.86
423.75	3332.92
423.94	3183.13
424.13	3155.04
424.32	3290.79
424.50	3293.13
424.69	3487.40
424.88	3478.04
425.07	3358.67
425.26	3417.18
425.45	3368.03
425.64	3339.94
425.83	3482.72
426.01	3421.86
426.20	3454.63
426.39	3330.58
426.58	3274.41
426.77	3421.86
426.96	3447.61
427.15	3417.18
427.33	3485.06
427.52	3492.08
427.71	3517.83
427.90	3541.23
428.09	3536.55
428.28	3524.85
428.46	3707.41
428.65	3499.10
428.84	3698.05
429.03	3674.64
429.22	3611.45
429.40	3667.62
429.59	3819.75
429.78	3595.06
429.97	3501.44
430.16	3658.26
430.34	3772.94
430.53	3866.56
430.72	3808.05
430.91	3712.09
431.10	3672.30
431.28	3889.97
431.47	3686.34
431.66	3808.05
431.85	3889.97
432.03	3906.35
432.22	4121.68
432.41	3946.14
432.60	4058.49
432.79	4065.51
432.97	4007.00
433.16	3941.46
433.35	4065.51
433.54	4140.41
433.72	4187.22
433.91	4009.34
434.10	3983.59
434.28	4102.96
434.47	4095.94
434.66	4128.70
434.85	4229.35
435.03	4222.33
435.22	4241.05
435.41	4381.48
435.59	4327.65
435.78	4227.01
435.97	4454.04
436.16	4257.43
436.34	4229.35
436.53	4250.41
436.72	4468.08
436.90	4215.30
437.09	4458.72
437.28	4252.75
437.46	4444.68
437.65	4463.40
437.84	4493.83
438.02	4395.53
438.21	4573.41
438.40	4423.61
438.58	4580.43
438.77	4650.64
438.96	4603.83
439.14	4671.71
439.33	4683.41
439.52	4753.63
439.70	4823.84
439.89	4873.00
440.08	4875.34
440.26	4807.46
440.45	4856.61
440.63	4952.57
440.82	5149.18
441.01	4961.94
441.19	5025.13
441.38	5062.58
441.57	5116.41
441.75	5121.09
441.94	5310.68
442.12	5210.03
442.31	5212.37
442.50	5270.89
442.68	5242.80
442.87	5252.16
443.05	5357.49
443.24	5439.40
443.43	5334.08
443.61	5455.79
443.80	5411.32
443.98	5310.68
444.17	5109.39
444.35	5390.25
444.54	5533.03
444.73	5643.03
444.91	5455.79
445.10	5549.41
445.28	5504.94
445.47	5334.08
445.65	5497.92
445.84	5640.69
446.02	5511.96
446.21	5638.35
446.39	5493.24
446.58	5462.81
446.77	5535.37
446.95	5465.15
447.14	5748.36
447.32	5610.26
447.51	5636.01
447.69	5544.73
447.88	5673.46
448.06	5549.41
448.25	5720.27
448.43	5710.91
448.62	5636.01
448.80	5738.99
448.99	5816.23
449.17	5762.40
449.36	5699.20
449.54	5940.28
449.73	5888.79
449.91	5802.19
450.10	5940.28
450.28	6017.52
450.46	5968.37
450.65	6003.47
450.83	5914.53
451.02	6047.94
451.20	5919.21
451.39	5968.37
451.57	6012.84
451.76	6155.61
451.94	6134.54
452.13	6134.54
452.31	6190.72
452.49	5968.37
452.68	6272.64
452.86	6045.60
453.05	6059.65
453.23	6392.00
453.42	6242.21
453.60	6284.34
453.78	6305.40
453.97	6031.56
454.15	6157.95
454.34	6258.59
454.52	6462.22
454.70	6307.74
454.89	6377.96
455.07	6347.53
455.26	6396.68
455.44	6384.98
455.62	6483.28
455.81	6574.56
455.99	6539.46
456.17	6506.69
456.36	6546.48
456.54	6623.72
456.73	6733.72
456.91	6726.70
457.09	6640.10
457.28	6871.81
457.46	6644.78
457.64	7080.12
457.83	6745.42
458.01	6817.98
458.19	6867.13
458.38	6925.65
458.56	7052.03
458.74	6897.56
458.93	6862.45
459.11	6972.46
459.29	6981.82
459.48	7098.84
459.66	7126.93
459.84	7419.50
460.03	7215.87
460.21	7166.72
460.39	7145.66
460.57	7241.62
460.76	7283.75
460.94	7150.34
461.12	7370.35
461.31	7260.34
461.49	7124.59
461.67	7353.96
461.85	7531.84
462.04	7368.01
462.22	7875.90
462.40	7726.11
462.59	7456.95
462.77	7478.01
462.95	7578.65
463.13	7733.13
463.32	7655.89
463.50	7620.78
463.68	7646.53
463.86	7822.07
464.05	7728.45
464.23	7686.32
464.41	7784.62
464.59	7595.04
464.78	7899.31
464.96	7768.24
465.14	7723.77
465.32	7761.22
465.50	7850.16
465.69	7819.73
465.87	7751.85
466.05	7812.71
466.23	8021.02
466.41	7836.11
466.60	7985.91
466.78	7920.37
466.96	7906.33
467.14	7932.08
467.32	8053.78
467.51	8198.90
467.69	8100.59
467.87	7971.86
468.05	8105.28
468.23	8079.53
468.41	8030.38
468.60	8056.12
468.78	8278.47
468.96	8124.00
469.14	8245.71
469.32	8329.97
469.50	8266.77
469.69	8484.44
469.87	8472.74
470.05	8430.61
470.23	8608.49
470.41	8634.24
470.59	8589.77
470.77	8435.29
470.95	8533.59
471.14	8650.62
471.32	8500.83
471.50	8716.16
471.68	8879.99
471.86	8786.37
472.04	9008.72
472.22	9123.41
472.40	8835.52
472.58	8816.80
472.77	8971.27
472.95	9088.30
473.13	9217.03
473.31	9081.28
473.49	8985.32
473.67	9149.15
473.85	9249.80
474.03	9308.31
474.21	9631.30
474.39	9336.40
474.57	9312.99
474.75	9556.41
474.93	9694.50
475.12	9575.13
475.30	9626.62
475.48	9652.37
475.66	9717.90
475.84	9783.44
476.02	9745.99
476.20	9867.70
476.38	10094.73
476.56	10501.98
476.74	10235.16
476.92	10061.96
477.10	10305.38
477.28	10459.85
477.46	10284.31
477.64	10443.47
477.82	10590.92
478.00	10839.02
478.18	10726.68
478.36	10937.32
478.54	11012.22
478.72	11084.78
478.90	10932.64
479.08	11321.17
479.26	11452.24
479.44	11335.21
479.62	11419.47
479.80	11803.32
479.98	11573.95
480.16	11800.98
480.34	11829.07
480.52	11707.36
480.70	11836.09
480.88	11882.90
481.06	12006.95
481.24	12346.33
481.41	12409.52
481.59	12257.39
481.77	12486.76
481.95	12664.64
482.13	12582.72
482.31	12718.47
482.49	12886.99
482.67	13050.83
482.85	13242.75
483.03	13261.48
483.21	13186.58
483.39	13240.41
483.57	13303.60
483.74	13502.55
483.92	13540.00
484.10	13298.92
484.28	13820.86
484.46	14047.90
484.64	14258.54
484.82	13874.70
485.00	14480.89
485.18	14555.79
485.35	14867.08
485.53	14431.74
485.71	14609.62
485.89	14923.26
486.07	14918.57
486.25	14972.41
486.43	15112.84
486.61	15257.95
486.78	15447.54
486.96	15199.44
487.14	15578.61
487.32	15943.73
487.50	15620.74
487.68	16299.49
487.85	16173.10
488.03	16046.71
488.21	16449.28
488.39	16493.76
488.57	16699.72
488.75	16655.25
488.92	16748.87
489.10	17025.06
489.28	17146.76
489.46	17254.43
489.64	17151.45
489.81	17535.29
489.99	17572.74
490.17	17811.48
490.35	17954.25
490.53	18127.45
490.70	18071.28
490.88	18164.90
491.06	18452.78
491.24	18253.84
491.41	18642.37
491.59	18918.55
491.77	18574.49
491.95	18651.73
492.13	19023.87
492.30	19094.09
492.48	19295.38
492.66	19360.91
492.84	19023.87
493.01	19445.17
493.19	19332.82
493.37	19868.81
493.54	19686.25
493.72	20095.84
493.90	19866.47
494.08	20180.10
494.25	20388.41
494.43	20365.00
494.61	20538.20
494.79	20713.74
494.96	20519.48
495.14	20915.03
495.32	20982.90
495.49	20999.29
495.67	21111.63
495.85	21443.99
496.02	21652.30
496.20	21593.78
496.38	21163.12
496.55	21879.33
496.73	22277.22
496.91	22132.11
497.09	22148.49
497.26	22218.71
497.44	21996.35
497.62	22408.29
497.79	22478.50
497.97	22473.82
498.14	23016.83
498.32	22757.03
498.50	23323.44
498.67	23419.40
498.85	22930.23
499.03	23461.53
499.20	23295.35
499.38	23477.91
499.56	23658.14
499.73	23934.32
499.91	23800.91
500.08	23941.34
500.26	23826.65
500.44	23889.85
500.61	24002.19
500.79	24074.75
500.97	24175.39
501.14	24411.79
501.32	24713.72
501.49	24400.08
501.67	24788.61
501.84	24627.12
502.02	24774.57
502.20	24826.06
502.37	24732.44
502.55	24603.71
502.72	24844.79
502.90	24996.92
503.07	25216.93
503.25	25589.08
503.43	25266.08
503.60	25764.62
503.78	25956.54
503.95	25841.85
504.13	25652.27
504.30	25895.69
504.48	25696.74
504.65	25790.36
504.83	26012.71
505.01	26354.43
505.18	26382.52
505.36	26647.00
505.53	26239.75
505.71	26452.73
505.88	26988.72
506.06	26293.58
506.23	26731.26
506.41	26757.00
506.58	26995.74
506.76	26698.49
506.93	27117.45
507.11	27077.66
507.28	27304.69
507.46	26625.93
507.63	27194.68
507.81	27112.77
507.98	27225.11
508.16	27585.55
508.33	27847.69
508.50	27728.33
508.68	27793.86
508.85	28315.80
509.03	27845.35
509.20	27953.02
509.38	28231.54
509.55	28472.62
509.73	28348.57
509.90	28552.20
510.08	28589.64
510.25	28601.35
510.42	28727.74
510.60	28938.38
510.77	28912.64
510.95	28994.56
511.12	28900.94
511.30	29097.54
511.47	29282.44
511.64	29090.52
511.82	29301.17
511.99	29553.94
512.17	29280.10
512.34	29539.90
512.51	29729.48
512.69	29558.63
512.86	29666.29
513.04	29628.84
513.21	30024.39
513.38	30225.68
513.56	30050.14
513.73	30033.75
513.90	30494.84
514.08	30235.04
514.25	30415.26
514.43	30558.03
514.60	30499.52
514.77	30298.23
514.95	30515.90
515.12	30286.53
515.29	30836.56
515.47	30845.92
515.64	31330.41
515.81	30883.37
515.99	30960.61
516.16	31498.93
516.33	31421.69
516.51	31009.76
516.68	31307.01
516.85	31316.37
517.03	31768.09
517.20	31548.08
517.37	31721.28
517.54	31754.05
517.72	31644.04
517.89	31690.85
518.06	31927.25
518.24	32140.24
518.41	31552.76
518.58	32088.74
518.75	31948.31
518.93	32229.18
519.10	32306.41
519.27	32676.22
519.45	32460.89
519.62	32615.37
519.79	32858.78
519.96	32493.66
520.14	32889.21
520.31	32982.83
520.48	32950.06
520.65	33184.12
520.83	33352.63
521.00	33582.01
521.17	33015.60
521.34	33163.05
521.52	33558.60
521.69	33291.78
521.86	33837.12
522.03	33724.78
522.20	33694.35
522.38	33876.91
522.55	33942.45
522.72	33806.70
522.89	33759.89
523.07	34256.08
523.24	34171.82
523.41	33865.21
523.58	33797.34
523.75	34312.25
523.92	34323.96
524.10	34745.25
524.27	34541.63
524.44	34672.70
524.61	34532.26
524.78	34731.21
524.96	34958.24
525.13	35037.82
525.30	35159.53
525.47	35400.60
525.64	34834.19
525.81	35477.84
525.98	35166.55
526.16	35061.22
526.33	34955.90
526.50	35622.95
526.67	35138.46
526.84	35381.88
527.01	34993.35
527.18	35688.49
527.36	35253.15
527.53	35833.60
527.70	36240.86
527.87	35658.06
528.04	35796.15
528.21	35903.82
528.38	35732.96
528.55	36233.83
528.72	35639.34
528.89	36158.94
529.07	36184.68
529.24	35587.85
529.41	36584.91
529.58	36561.51
529.75	36383.63
529.92	36182.34
530.09	36177.66
530.26	36575.55
530.43	36353.20
530.60	36395.33
530.77	36271.28
530.94	36989.83
531.11	36620.02
531.28	36734.71
531.46	36959.40
531.63	37186.43
531.80	36828.33
531.97	37148.98
532.14	37223.88
532.31	36907.91
532.48	37326.86
532.65	37436.87
532.82	37577.30
532.99	37205.16
533.16	37092.81
533.33	37823.06
533.50	37439.21
533.67	37326.86
533.84	37376.01
534.01	37682.62
534.18	37556.24
534.35	38202.22
534.52	38134.35
534.69	37771.57
534.86	38106.26
535.03	38127.33
535.20	37869.87
535.37	37893.27
535.54	38251.38
535.71	37937.74
535.88	38174.14
536.05	37904.98
536.22	38824.81
536.38	38548.62
536.55	38740.55
536.72	38717.14
536.89	38836.51
537.06	38464.36
537.23	38543.94
537.40	38775.66
537.57	38476.07
537.74	38604.80
537.91	39374.83
538.08	38841.19
538.25	38747.57
538.42	38897.36
538.59	39564.42
538.75	39299.94
538.92	39358.45
539.09	39014.39
539.26	39264.83
539.43	39337.38
539.60	39419.30
539.77	39515.26
539.94	39463.77
540.11	39463.77
540.28	39515.26
540.44	39318.66
540.61	39360.79
540.78	39194.61
540.95	39805.49
541.12	39601.86
541.29	39615.91
541.46	39555.05
541.62	39894.43
541.79	40397.65
541.96	39833.58
542.13	39487.18
542.30	39768.04
542.47	40364.88
542.63	40072.31
542.80	40095.72
542.97	40402.33
543.14	40308.71
543.31	40706.60
543.48	40414.03
543.64	41216.83
543.81	40739.36
543.98	40460.84
544.15	40856.39
544.32	40690.21
544.48	41490.68
544.65	40587.23
544.82	41148.96
544.99	40837.67
545.16	41090.44
545.32	40924.27
545.49	40950.01
545.66	41202.79
545.83	41055.34
546.00	41422.80
546.16	41167.68
546.33	41357.27
546.50	40957.03
546.67	41375.99
546.83	40903.20
547.00	41516.42
547.17	41251.94
547.34	41205.13
547.50	41752.82
547.67	41687.28
547.84	41619.41
548.00	41588.98
548.17	41900.27
548.34	41907.29
548.51	41937.72
548.67	41825.37
548.84	42010.28
549.01	41977.51
549.18	41799.63
549.34	42024.32
549.51	41713.03
549.68	42300.50
549.84	41734.09
550.01	42279.44
550.18	41954.10
550.34	42302.84
550.51	42436.25
550.68	42405.83
550.84	42160.07
551.01	42546.26
551.18	42202.20
551.34	41975.17
551.51	42337.95
551.68	42445.62
551.84	42621.16
552.01	42258.37
552.18	42773.29
552.34	42520.51
552.51	42550.94
552.68	42227.95
552.84	42607.11
553.01	42880.95
553.18	42747.54
553.34	42588.39
553.51	43093.94
553.67	43051.81
553.84	43173.52
554.01	42780.31
554.17	43173.52
554.34	43105.65
554.51	43299.91
554.67	43051.81
554.84	43421.62
555.00	43056.50
555.17	43131.39
555.33	43374.81
555.50	43044.79
555.67	43079.90
555.83	43384.17
556.00	43569.07
556.16	44252.51
556.33	43744.61
556.50	43335.02
556.66	43634.61
556.83	43604.18
556.99	43676.74
557.16	43714.19
557.32	44186.97
557.49	43665.03
557.65	43234.38
557.82	43388.85
557.98	43655.67
558.15	43660.35
558.32	43782.06
558.48	43676.74
558.65	43992.71
558.81	43875.68
558.98	43931.86
559.14	43931.86
559.31	43519.92
559.47	43838.23
559.64	44165.91
559.80	44102.71
559.97	44140.16
560.13	44172.93
560.30	44194.00
560.46	43999.73
560.63	44629.34
560.79	44734.66
560.96	44685.51
561.12	44617.63
561.29	44072.29
561.45	44699.55
561.61	44617.63
561.78	44409.32
561.94	44107.40
562.11	44442.09
562.27	44435.07
562.44	44858.71
562.60	44645.72
562.77	44795.51
562.93	44245.49
563.10	44940.63
563.26	44128.46
563.42	45282.34
563.59	44683.17
563.75	44411.67
563.92	44879.77
564.08	44430.39
564.24	44917.22
564.41	44353.15
564.57	44289.96
564.74	44781.47
564.90	44488.90
565.07	44186.97
565.23	44285.28
565.39	44488.90
565.56	45024.89
565.72	44919.56
565.88	44835.30
566.05	44680.83
566.21	44879.77
566.38	44617.63
566.54	44907.86
566.70	44996.80
566.87	44650.40
567.03	44704.23
567.19	45216.81
567.36	44839.98
567.52	45099.78
567.68	45141.91
567.85	45151.27
568.01	45244.90
568.17	44947.65
568.34	45301.07
568.50	44655.08
568.66	45188.72
568.83	45127.87
568.99	45160.64
569.15	45319.79
569.32	45111.49
569.48	45205.11
569.64	45331.50
569.81	45216.81
569.97	45048.29
570.13	45387.67
570.30	44875.09
570.46	45242.56
570.62	45385.33
570.78	45242.56
570.95	44985.10
571.11	45436.82
571.27	45233.19
571.43	45097.44
571.60	44982.76
571.76	45062.33
571.92	45593.64
572.09	45179.36
572.25	45003.82
572.41	45432.14
572.57	45553.85
572.74	45783.22
572.90	45345.54
573.06	45570.23
573.22	45532.78
573.38	45715.34
573.55	45949.40
573.71	45961.10
573.87	45577.25
574.03	45387.67
574.20	45837.05
574.36	45298.73
574.52	45446.18
574.68	45050.63
574.84	45787.90
575.01	45790.24
575.17	45696.62
575.33	45635.77
575.49	45579.59
575.65	45588.95
575.82	45813.65
575.98	45523.42
576.14	45975.14
576.30	45696.62
576.46	45507.04
576.62	45558.53
576.79	45612.36
576.95	45614.70
577.11	45392.35
577.27	45790.24
577.43	45361.92
577.59	45876.84
577.75	45165.32
577.92	45537.46
578.08	45586.61
578.24	45736.41
578.40	45780.88
578.56	45951.74
578.72	46124.94
578.88	45996.21
579.04	45741.09
579.21	46068.76
579.37	45982.16
579.53	45710.66
579.69	45471.93
579.85	46141.32
580.01	45858.12
580.17	45773.86
580.33	45762.15
580.49	45900.25
580.65	45792.58
580.82	45481.29
580.98	45375.97
581.14	45448.52
581.30	45705.98
581.46	45336.18
581.62	45553.85
581.78	45895.56
581.94	46286.43
582.10	45799.60
582.26	45844.07
582.42	45825.35
582.58	45993.87
582.74	46003.23
582.90	45963.44
583.06	45975.14
583.22	45923.65
583.38	46127.28
583.54	45867.48
583.70	45907.27
583.86	45841.73
584.02	45787.90
584.18	46305.16
584.34	46134.30
584.50	46096.85
584.66	46466.66
584.82	45570.23
584.98	46066.42
585.14	46047.70
585.30	45928.33
585.46	45869.82
585.62	45930.67
585.78	45942.38
585.94	45434.48
586.10	45759.81
586.26	45879.18
586.42	46209.20
586.58	46775.61
586.74	45588.95
586.90	46000.89
587.06	45605.34
587.22	46185.79
587.38	45710.66
587.54	45827.69
587.70	46525.17
587.86	46136.64
588.02	46124.94
588.18	46263.03
588.34	46141.32
588.49	46202.18
588.65	45996.21
588.81	46330.90
588.97	46532.19
589.13	45977.48
589.29	45972.80
589.45	46656.24
589.61	45944.72
589.77	46375.37
589.93	46230.26
590.08	46422.19
