SpectraSuite Data File
++++++++++++++++++++++++++++++++++++
Date: Fri Oct 25 10:44:24 EDT 2013
User: price-jones
Dark Spectrum Present: No
Reference Spectrum Present: No
Number of Sampled Component Spectra: 1
Spectrometers: USB2+H05261
Integration Time (usec): 100000 (USB2+H05261)
Spectra Averaged: 1 (USB2+H05261)
Boxcar Smoothing: 0 (USB2+H05261)
Correct for Electrical Dark: No (USB2+H05261)
Strobe/Lamp Enabled: No (USB2+H05261)
Correct for Detector Non-linearity: No (USB2+H05261)
Correct for Stray Light: No (USB2+H05261)
Number of Pixels in Processed Spectrum: 2048
>>>>>Begin Processed Spectral Data<<<<<
365.73	53.83
365.92	53.83
366.12	53.83
366.32	0.00
366.52	28.09
366.72	28.09
366.91	35.11
367.11	0.00
367.31	37.45
367.51	49.15
367.70	79.58
367.90	72.56
368.10	0.00
368.30	37.45
368.49	23.41
368.69	107.66
368.89	86.60
369.09	14.04
369.28	35.11
369.48	60.85
369.68	67.88
369.87	100.64
370.07	110.01
370.27	114.69
370.47	194.26
370.66	407.25
370.86	414.27
371.06	414.27
371.25	461.09
371.45	444.70
371.65	486.83
371.84	489.17
372.04	409.59
372.24	491.51
372.44	531.30
372.63	475.13
372.83	568.75
373.03	512.58
373.22	500.87
373.42	578.11
373.62	552.37
373.81	585.13
374.01	601.52
374.21	533.64
374.40	512.58
374.60	519.60
374.79	624.92
374.99	580.45
375.19	610.88
375.38	606.20
375.58	573.43
375.78	578.11
375.97	580.45
376.17	669.39
376.37	575.77
376.56	636.63
376.76	631.94
376.95	561.73
377.15	725.57
377.35	732.59
377.54	699.82
377.74	636.63
377.93	641.31
378.13	660.03
378.33	620.24
378.52	662.37
378.72	755.99
378.91	641.31
379.11	622.58
379.31	725.57
379.50	704.50
379.70	751.31
379.89	641.31
380.09	636.63
380.28	695.14
380.48	720.88
380.68	725.57
380.87	734.93
381.07	718.54
381.26	739.61
381.46	772.38
381.65	770.04
381.85	744.29
382.04	667.05
382.24	711.52
382.43	655.35
382.63	683.44
382.83	706.84
383.02	751.31
383.22	788.76
383.41	704.50
383.61	723.23
383.80	833.23
384.00	784.08
384.19	755.99
384.39	816.85
384.58	802.80
384.78	805.14
384.97	795.78
385.17	851.96
385.36	833.23
385.56	779.40
385.75	737.27
385.95	823.87
386.14	905.79
386.34	880.04
386.53	837.91
386.72	858.98
386.92	884.72
387.11	910.47
387.31	908.13
387.50	891.74
387.70	887.06
387.89	961.96
388.09	933.87
388.28	814.51
388.48	896.43
388.67	870.68
388.86	966.64
389.06	912.81
389.25	983.02
389.45	959.62
389.64	959.62
389.84	1039.20
390.03	1046.22
390.22	1067.28
390.42	1046.22
390.61	1020.47
390.81	1095.37
391.00	1083.67
391.19	1174.95
391.39	1188.99
391.58	1060.26
391.78	1083.67
391.97	1090.69
392.16	1029.84
392.36	1170.27
392.55	1081.33
392.75	1022.81
392.94	936.21
393.13	924.51
393.33	933.87
393.52	1086.01
393.71	1086.01
393.91	1069.62
394.10	1090.69
394.29	1291.98
394.49	1196.01
394.68	1287.29
394.88	1217.08
395.07	1329.42
395.26	1308.36
395.46	1198.35
395.65	1320.06
395.84	1322.40
396.04	1263.89
396.23	1284.95
396.42	1165.59
396.62	1235.80
396.81	1188.99
397.00	1217.08
397.19	1254.53
397.39	1268.57
397.58	1392.62
397.77	1409.00
397.97	1502.62
398.16	1465.18
398.35	1474.54
398.55	1572.84
398.74	1596.25
398.93	1493.26
399.12	1533.05
399.32	1537.73
399.51	1591.56
399.70	1596.25
399.90	1542.41
400.09	1631.35
400.28	1640.72
400.47	1643.06
400.67	1732.00
400.86	1703.91
401.05	1701.57
401.24	1664.12
401.44	1762.42
401.63	1832.64
401.82	1790.51
402.01	1774.13
402.21	1863.07
402.40	1783.49
402.59	1825.62
402.78	1844.34
402.97	1874.77
403.17	1811.57
403.36	1891.15
403.55	1844.34
403.74	1956.69
403.93	1914.56
404.13	1858.39
404.32	1928.60
404.51	1933.28
404.70	2017.54
404.89	1937.96
405.09	1994.14
405.28	2005.84
405.47	2040.95
405.66	2012.86
405.85	2136.91
406.05	2083.08
406.24	2104.14
406.43	2176.70
406.62	2200.10
406.81	2211.81
407.00	2101.80
407.20	2031.58
407.39	2115.84
407.58	2188.40
407.77	2195.42
407.96	2197.76
408.15	2338.20
408.34	2338.20
408.54	2277.34
408.73	2380.32
408.92	2413.09
409.11	2408.41
409.30	2310.11
409.49	2452.88
409.68	2249.25
409.87	2431.82
410.07	2352.24
410.26	2401.39
410.45	2429.48
410.64	2497.35
410.83	2530.12
411.02	2572.25
411.21	2644.81
411.40	2682.25
411.59	2677.57
411.78	2661.19
411.98	2607.36
412.17	2829.71
412.36	2750.13
412.55	2951.42
412.74	2799.28
412.93	2850.77
413.12	2768.85
413.31	3000.57
413.50	2899.92
413.69	3007.59
413.88	3066.10
414.07	2874.18
414.26	2946.73
414.45	3152.70
414.64	3000.57
414.83	3009.93
415.02	3084.83
415.22	3215.90
415.41	3325.90
415.60	3155.04
415.79	3342.28
415.98	3309.52
416.17	3279.09
416.36	3400.80
416.55	3314.20
416.74	3433.57
416.93	3260.37
417.12	3349.31
417.31	3421.86
417.50	3445.27
417.69	3590.38
417.88	3634.85
418.07	3538.89
418.26	3543.57
418.45	3557.61
418.64	3714.43
418.83	3733.15
419.02	3723.79
419.21	3702.73
419.39	3768.26
419.58	3667.62
419.77	3543.57
419.96	3733.15
420.15	3829.12
420.34	3786.99
420.53	3932.10
420.72	3948.48
420.91	3997.64
421.10	3810.39
421.29	3950.82
421.48	4028.06
421.67	3896.99
421.86	3967.21
422.05	3864.22
422.24	3904.01
422.43	3873.59
422.61	3922.74
422.80	3985.93
422.99	4011.68
423.18	4077.21
423.37	4131.05
423.56	4112.32
423.75	3997.64
423.94	3985.93
424.13	3765.92
424.32	4004.66
424.50	4128.70
424.69	4145.09
424.88	4140.41
425.07	4037.42
425.26	3922.74
425.45	3908.69
425.64	3946.14
425.83	4011.68
426.01	4161.47
426.20	4138.07
426.39	4074.87
426.58	4056.15
426.77	4035.08
426.96	4159.13
427.15	4119.34
427.33	4131.05
427.52	4187.22
427.71	4266.80
427.90	4161.47
428.09	4262.12
428.28	4238.71
428.46	4257.43
428.65	4290.20
428.84	4409.57
429.03	4301.90
429.22	4219.99
429.40	4411.91
429.59	4205.94
429.78	4088.92
429.97	4023.38
430.16	4126.36
430.34	4156.79
430.53	4290.20
430.72	4285.52
430.91	4404.89
431.10	4517.23
431.28	4578.09
431.47	4723.20
431.66	4800.44
431.85	4648.30
432.03	4777.03
432.22	4863.63
432.41	4519.57
432.60	4739.58
432.79	4873.00
432.97	4973.64
433.16	4961.94
433.35	4821.50
433.54	4751.29
433.72	4727.88
433.91	4858.95
434.10	4877.68
434.28	4945.55
434.47	4997.04
434.66	5109.39
434.85	5029.81
435.03	4926.83
435.22	5018.11
435.41	5226.42
435.59	5345.78
435.78	5280.25
435.97	5366.85
436.16	5256.84
436.34	5305.99
436.53	5233.44
436.72	5540.05
436.90	5085.98
437.09	5462.81
437.28	5210.03
437.46	5455.79
437.65	5245.14
437.84	5287.27
438.02	5313.02
438.21	5228.76
438.40	5315.36
438.58	5542.39
438.77	5500.26
438.96	5413.66
439.14	5776.44
439.33	5785.80
439.52	5879.43
439.70	5760.06
439.89	5664.10
440.08	6015.18
440.26	6017.52
440.45	5935.60
440.63	5937.94
440.82	6094.76
441.01	6073.69
441.19	6106.46
441.38	6211.78
441.57	6216.46
441.75	6326.47
441.94	6469.24
442.12	6499.67
442.31	6349.87
442.50	6494.99
442.68	6516.05
442.87	6478.60
443.05	6581.59
443.24	6693.93
443.43	6537.12
443.61	6668.19
443.80	7016.93
443.98	6588.61
444.17	6303.06
444.35	6656.48
444.54	6775.85
444.73	6698.61
444.91	6796.92
445.10	6656.48
445.28	6614.35
445.47	6621.38
445.65	6640.10
445.84	6637.76
446.02	6736.06
446.21	6595.63
446.39	6635.42
446.58	6841.39
446.77	6829.68
446.95	6677.55
447.14	7000.54
447.32	6937.35
447.51	6874.15
447.69	6773.51
447.88	6977.14
448.06	6965.43
448.25	6815.64
448.43	6972.46
448.62	7005.22
448.80	7037.99
448.99	6939.69
449.17	7229.91
449.36	7026.29
449.54	7026.29
449.73	7056.72
449.91	7431.20
450.10	7424.18
450.28	7482.69
450.46	7424.18
450.65	7470.99
450.83	7492.05
451.02	7309.49
451.20	7419.50
451.39	7522.48
451.57	7520.14
451.76	7524.82
451.94	7368.01
452.13	7508.44
452.31	7283.75
452.49	7344.60
452.68	7410.14
452.86	7562.27
453.05	7585.68
453.23	7667.60
453.42	7590.36
453.60	7538.87
453.78	7686.32
453.97	7566.95
454.15	7695.68
454.34	7733.13
454.52	7772.92
454.70	7660.57
454.89	7976.55
455.07	7822.07
455.26	7632.49
455.44	8030.38
455.62	8039.74
455.81	7906.33
455.99	7946.12
456.17	8119.32
456.36	8030.38
456.54	8229.32
456.73	8170.81
456.91	8273.79
457.09	8348.69
457.28	8484.44
457.46	8388.48
457.64	8390.82
457.83	8376.78
458.01	8131.02
458.19	8425.93
458.38	8269.11
458.56	8332.31
458.74	8400.18
458.93	8346.35
459.11	8524.23
459.29	8437.63
459.48	8650.62
459.66	8287.84
459.84	8599.13
460.03	8709.13
460.21	8753.60
460.39	8739.56
460.57	8557.00
460.76	8568.70
460.94	9179.58
461.12	8985.32
461.31	8791.05
461.49	8704.45
461.67	9048.51
461.85	9060.21
462.04	9039.15
462.22	9399.59
462.40	9202.99
462.59	9188.94
462.77	9514.28
462.95	9420.66
463.13	9092.98
463.32	9331.72
463.50	9273.20
463.68	9170.22
463.86	9327.03
464.05	9118.73
464.23	9240.44
464.41	9324.69
464.59	9345.76
464.78	9376.19
464.96	9441.72
465.14	9268.52
465.32	9483.85
465.50	9542.36
465.69	9514.28
465.87	9455.76
466.05	9373.85
466.23	9423.00
466.41	9439.38
466.60	9685.14
466.78	9533.00
466.96	9643.01
467.14	9448.74
467.32	9652.37
467.51	9813.87
467.69	9444.06
467.87	9706.20
468.05	9753.01
468.23	9699.18
468.41	9806.84
468.60	9675.77
468.78	9657.05
468.96	9736.63
469.14	9884.08
469.32	10277.29
469.50	9757.69
469.69	9930.89
469.87	10071.33
470.05	9987.07
470.23	10256.23
470.41	10080.69
470.59	10143.88
470.77	10171.97
470.95	10296.02
471.14	10368.57
471.32	10186.01
471.50	10647.10
471.68	10464.54
471.86	10712.63
472.04	10693.91
472.22	10993.50
472.40	10464.54
472.58	10712.63
472.77	10902.22
472.95	10984.13
473.13	11382.03
473.31	10651.78
473.49	10808.59
473.67	10890.51
473.85	10970.09
474.03	11187.76
474.21	11360.96
474.39	11403.09
474.57	11265.00
474.75	11665.23
474.93	11414.79
475.12	11279.04
475.30	11496.71
475.48	11541.18
475.66	11730.76
475.84	11892.26
476.02	11817.36
476.20	11782.26
476.38	11915.67
476.56	12147.38
476.74	11908.65
476.92	11967.16
477.10	12360.37
477.28	12580.38
477.46	12430.59
477.64	12840.18
477.82	12334.62
478.00	12987.63
478.18	12898.69
478.36	12954.87
478.54	12723.15
478.72	13151.47
478.90	13179.56
479.08	13542.34
479.26	13338.71
479.44	13563.40
479.62	13540.00
479.80	13689.79
479.98	13680.43
480.16	13975.34
480.34	14115.77
480.52	14221.10
480.70	14038.53
480.88	14085.34
481.06	14183.65
481.24	14216.41
481.41	14445.79
481.59	14956.02
481.77	14431.74
481.95	14902.19
482.13	15133.90
482.31	14806.23
482.49	15021.56
482.67	15166.67
482.85	15208.80
483.03	15803.30
483.21	15796.28
483.39	15602.01
483.57	15695.63
483.74	15950.75
483.92	15861.81
484.10	16264.38
484.28	16236.30
484.46	16322.90
484.64	16678.66
484.82	16678.66
485.00	16514.82
485.18	16795.68
485.35	16950.16
485.53	16601.42
485.71	16486.73
485.89	16734.83
486.07	16739.51
486.25	17184.21
486.43	17125.70
486.61	17256.77
486.78	17720.20
486.96	17965.95
487.14	18359.16
487.32	18155.54
487.50	18408.31
487.68	18389.59
487.85	18981.74
488.03	19028.56
488.21	19290.70
488.39	18843.65
488.57	19136.22
488.75	19592.62
488.92	19218.14
489.10	19688.59
489.28	19967.11
489.46	20287.76
489.64	20161.37
489.81	20472.67
489.99	20247.97
490.17	20781.62
490.35	21025.03
490.53	20767.57
490.70	21008.65
490.88	21209.93
491.06	21553.99
491.24	21308.24
491.41	21151.42
491.59	21268.45
491.77	21394.84
491.95	21493.14
492.13	21961.25
492.30	22164.87
492.48	22150.83
492.66	22225.73
492.84	22422.33
493.01	22728.94
493.19	22319.35
493.37	22499.57
493.54	22965.34
493.72	23393.65
493.90	23058.96
494.08	23477.91
494.25	23934.32
494.43	23648.77
494.61	23843.04
494.79	24383.70
494.96	23953.04
495.14	24271.36
495.32	24037.30
495.49	24418.81
495.67	24877.55
495.85	24872.87
496.02	24870.53
496.20	24933.73
496.38	25032.03
496.55	25130.33
496.73	25809.09
496.91	25312.89
497.09	25596.10
497.26	25757.60
497.44	25640.57
497.62	25883.98
497.79	25951.86
497.97	25675.68
498.14	26001.01
498.32	26089.95
498.50	26373.16
498.67	27007.44
498.85	26445.71
499.03	26684.45
499.20	26485.50
499.38	26857.65
499.56	27019.14
499.73	27023.83
499.91	27005.10
500.08	27253.20
500.26	27110.43
500.44	27611.30
500.61	27271.92
500.79	27159.58
500.97	27353.84
501.14	27941.32
501.32	27718.96
501.49	27721.30
501.67	27915.57
501.84	27878.12
502.02	28327.50
502.20	28219.84
502.37	28655.18
502.55	28294.74
502.72	28875.19
502.90	28996.90
503.07	28577.94
503.25	28819.02
503.43	28811.99
503.60	28533.47
503.78	28828.38
503.95	29013.28
504.13	29401.81
504.30	29343.30
504.48	29551.60
504.65	29497.77
504.83	29916.73
505.01	29919.07
505.18	29937.79
505.36	30370.79
505.53	30150.78
505.71	30176.53
505.88	30520.59
506.06	30221.00
506.23	30398.88
506.41	30457.39
506.58	30455.05
506.76	30483.14
506.93	30892.73
507.11	30775.70
507.28	30394.20
507.46	31197.00
507.63	30661.02
507.81	30834.22
507.98	31051.89
508.16	31061.25
508.33	31550.42
508.50	31505.95
508.68	31702.56
508.85	31896.82
509.03	31782.13
509.20	31899.16
509.38	31938.95
509.55	31929.59
509.73	31927.25
509.90	32006.83
510.08	31878.10
510.25	31880.44
510.42	32402.38
510.60	32521.74
510.77	32767.50
510.95	32535.79
511.12	32800.27
511.30	32982.83
511.47	32980.49
511.64	32996.87
511.82	33113.90
511.99	33017.94
512.17	33329.23
512.34	33024.96
512.51	33532.86
512.69	33750.52
512.86	33488.38
513.04	33846.49
513.21	33738.82
513.38	33715.42
513.56	33518.81
513.73	33432.21
513.90	33443.91
514.08	33628.82
514.25	33799.68
514.43	33228.59
514.60	34122.67
514.77	34148.42
514.95	34302.89
515.12	34349.70
515.29	34771.00
515.47	34712.49
515.64	35211.02
515.81	34841.21
515.99	34171.82
516.16	34658.65
516.33	34286.51
516.51	34733.55
516.68	33900.32
516.85	34246.72
517.03	34223.31
517.20	34913.77
517.37	34888.03
517.54	35091.65
517.72	35021.44
517.89	34747.59
518.06	34396.51
518.24	34775.68
518.41	35063.57
518.58	35030.80
518.75	35466.14
518.93	35519.97
519.10	35215.70
519.27	35627.63
519.45	35917.86
519.62	36624.70
519.79	35667.42
519.96	36236.17
520.14	36505.34
520.31	35976.37
520.48	36081.70
520.65	36327.45
520.83	36835.35
521.00	36847.05
521.17	36912.59
521.34	36966.42
521.52	36718.32
521.69	37102.17
521.86	37034.30
522.03	37013.23
522.20	36989.83
522.38	37184.09
522.55	37635.81
522.72	37024.93
522.89	37013.23
523.07	37268.35
523.24	37258.99
523.41	37930.72
523.58	37577.30
523.75	38150.73
523.92	38185.84
524.10	37991.58
524.27	38267.76
524.44	38328.61
524.61	38162.43
524.78	38176.48
524.96	38513.52
525.13	38328.61
525.30	38227.97
525.47	38550.96
525.64	38405.85
525.81	38169.46
525.98	38480.75
526.16	38440.96
526.33	38082.86
526.50	38312.23
526.67	37830.08
526.84	38199.88
527.01	38293.50
527.18	38667.99
527.36	38733.53
527.53	39049.50
527.70	39309.30
527.87	39332.70
528.04	39194.61
528.21	39498.88
528.38	38838.85
528.55	39557.39
528.72	39711.87
528.89	39803.15
529.07	39690.80
529.24	39313.98
529.41	40116.78
529.58	39997.41
529.75	39398.24
529.92	39913.16
530.09	39859.32
530.26	39618.25
530.43	40226.79
530.60	40245.51
530.77	39756.34
530.94	40051.25
531.11	40231.47
531.28	40294.66
531.46	39988.05
531.63	40807.24
531.80	40203.38
531.97	40414.03
532.14	39908.47
532.31	40435.10
532.48	40584.89
532.65	40451.48
532.82	40062.95
532.99	41127.89
533.16	40346.15
533.33	41102.15
533.50	41116.19
533.67	40657.45
533.84	40865.75
534.01	40912.56
534.18	41137.26
534.35	41233.22
534.52	41064.70
534.69	41242.58
534.86	41429.82
535.03	41448.55
535.20	41853.46
535.37	41633.45
535.54	41827.71
535.71	41628.77
535.88	41558.55
536.05	41600.68
536.22	41668.56
536.38	41626.43
536.55	41596.00
536.72	41378.33
536.89	41687.28
537.06	41979.85
537.23	42129.64
537.40	41918.99
537.57	41722.39
537.74	41457.91
537.91	41958.78
538.08	42026.66
538.25	41701.32
538.42	41729.41
538.59	42300.50
538.75	41975.17
538.92	42284.12
539.09	41954.10
539.26	42026.66
539.43	41921.34
539.60	41642.81
539.77	42354.33
539.94	42377.74
540.11	41986.87
540.28	42253.69
540.44	42284.12
540.61	42164.75
540.78	42309.86
540.95	42344.97
541.12	42267.73
541.29	42597.75
541.46	42572.00
541.62	42630.52
541.79	43126.71
541.96	42440.93
542.13	42576.69
542.30	42583.71
542.47	42782.65
542.63	43037.77
542.80	43402.89
542.97	43026.07
543.14	42986.28
543.31	43203.95
543.48	43555.03
543.64	44011.43
543.81	43271.82
543.98	43475.45
544.15	43599.50
544.32	43653.33
544.48	43952.92
544.65	43868.66
544.82	43517.58
544.99	43543.33
545.16	43543.33
545.32	43438.00
545.49	43885.04
545.66	44292.30
545.83	44355.49
546.00	44535.71
546.16	44083.99
546.33	44198.68
546.50	44037.18
546.67	43938.88
546.83	43435.66
547.00	43906.11
547.17	44072.29
547.34	44233.78
547.50	44395.28
547.67	44509.97
547.84	44233.78
548.00	44322.72
548.17	44886.79
548.34	44626.99
548.51	44907.86
548.67	44376.56
548.84	44870.41
549.01	44451.45
549.18	44580.18
549.34	44201.02
549.51	44378.90
549.68	44662.10
549.84	44570.82
550.01	44996.80
550.18	44327.41
550.34	45319.79
550.51	44683.17
550.68	44598.91
550.84	44552.10
551.01	44800.19
551.18	44893.82
551.34	44872.75
551.51	44954.67
551.68	45221.49
551.84	44933.60
552.01	44870.41
552.18	45247.24
552.34	44765.09
552.51	44832.96
552.68	45485.97
552.84	45492.99
553.01	45427.46
553.18	45333.84
553.34	45324.47
553.51	45240.21
553.67	45464.91
553.84	45535.12
554.01	45485.97
554.17	45874.50
554.34	45457.88
554.51	45469.59
554.67	45677.90
554.84	45673.21
555.00	45289.37
555.17	45258.94
555.33	45855.78
555.50	45610.02
555.67	45619.38
555.83	45090.42
556.00	45691.94
556.16	46410.48
556.33	45258.94
556.50	45373.63
556.66	45731.73
556.83	45464.91
556.99	45645.13
557.16	45790.24
557.32	45610.02
557.49	45883.86
557.65	45397.03
557.82	45848.75
557.98	46237.28
558.15	45750.45
558.32	46057.06
558.48	45727.05
558.65	46047.70
558.81	45729.39
558.98	45722.37
559.14	46213.88
559.31	45801.94
559.47	46248.99
559.64	46054.72
559.80	45867.48
559.97	46000.89
560.13	45855.78
560.30	45738.75
560.46	45982.16
560.63	46197.49
560.79	46363.67
560.96	46253.67
561.12	46026.63
561.29	46129.62
561.45	46398.78
561.61	46003.23
561.78	46064.08
561.94	46052.38
562.11	46337.93
562.27	46096.85
562.44	46511.13
562.60	46403.46
562.77	46628.15
562.93	46155.36
563.10	46562.62
563.26	46028.98
563.42	46396.44
563.59	46122.60
563.75	46113.23
563.92	46377.72
564.08	46590.70
564.24	46656.24
564.41	46225.58
564.57	46211.54
564.74	46546.23
564.90	46131.96
565.07	46410.48
565.23	46349.63
565.39	46146.00
565.56	46391.76
565.72	46080.47
565.88	46204.52
566.05	46246.65
566.21	46366.01
566.38	46527.51
566.54	46279.41
566.70	46590.70
566.87	46859.87
567.03	46684.33
567.19	47093.92
567.36	46700.71
567.52	46478.36
567.68	46471.34
567.85	46429.21
568.01	46913.70
568.17	46562.62
568.34	46279.41
568.50	46136.64
568.66	46705.39
568.83	46735.82
568.99	45839.39
569.15	46373.03
569.32	46583.68
569.48	46237.28
569.64	46621.13
569.81	46906.68
569.97	46490.06
570.13	46328.56
570.30	46546.23
570.46	46351.97
570.62	46045.36
570.78	46356.65
570.95	46522.83
571.11	46738.16
571.27	46347.29
571.43	46227.92
571.60	46401.12
571.76	46293.46
571.92	46953.49
572.09	46944.12
572.25	46740.50
572.41	47112.64
572.57	46997.96
572.74	47175.84
572.90	46653.90
573.06	46953.49
573.22	46630.49
573.38	46623.47
573.55	46328.56
573.71	46642.20
573.87	46752.20
574.03	46920.72
574.20	46520.49
574.36	47037.75
574.52	46801.35
574.68	46684.33
574.84	46756.88
575.01	47002.64
575.17	46452.61
575.33	46260.69
575.49	46457.29
575.65	46714.75
575.82	46829.44
575.98	46719.43
576.14	46773.27
576.30	46990.94
576.46	47068.17
576.62	46508.79
576.79	46548.57
576.95	46609.43
577.11	46583.68
577.27	46843.48
577.43	46927.74
577.59	46618.79
577.75	46632.83
577.92	46319.20
578.08	46649.22
578.24	46361.33
578.40	46726.46
578.56	46827.10
578.72	46637.51
578.88	47334.99
579.04	47040.09
579.21	46780.29
579.37	46939.44
579.53	46838.80
579.69	46564.96
579.85	46689.01
580.01	46997.96
580.17	46887.95
580.33	46658.58
580.49	47086.90
580.65	47107.96
580.82	46993.28
580.98	46724.11
581.14	46607.09
581.30	47196.90
581.46	47054.13
581.62	46939.44
581.78	46993.28
581.94	46916.04
582.10	46848.16
582.26	46902.00
582.42	47082.22
582.58	46850.50
582.74	46415.16
582.90	47056.47
583.06	47199.24
583.22	46845.82
583.38	47075.19
583.54	47096.26
583.70	47117.32
583.86	46904.34
584.02	46429.21
584.18	46899.65
584.34	46845.82
584.50	46990.94
584.66	47243.71
584.82	46600.07
584.98	47007.32
585.14	47068.17
585.30	46939.44
585.46	46539.21
585.62	46864.55
585.78	46590.70
585.94	46635.17
586.10	46696.03
586.26	47110.30
586.42	47215.63
586.58	46958.17
586.74	46522.83
586.90	46586.02
587.06	46712.41
587.22	47122.01
587.38	46618.79
587.54	46866.89
587.70	46902.00
587.86	46944.12
588.02	46651.56
588.18	46892.63
588.34	47107.96
588.49	46490.06
588.65	46185.79
588.81	46298.14
588.97	46667.94
589.13	46391.76
589.29	46532.19
589.45	46827.10
589.61	46756.88
589.77	47126.69
589.93	47084.56
