SpectraSuite Data File
++++++++++++++++++++++++++++++++++++
Date: Fri Oct 25 11:22:45 EDT 2013
User: price-jones
Dark Spectrum Present: No
Reference Spectrum Present: No
Number of Sampled Component Spectra: 1
Spectrometers: USB2+H05261
Integration Time (usec): 100000 (USB2+H05261)
Spectra Averaged: 1 (USB2+H05261)
Boxcar Smoothing: 0 (USB2+H05261)
Correct for Electrical Dark: No (USB2+H05261)
Strobe/Lamp Enabled: No (USB2+H05261)
Correct for Detector Non-linearity: No (USB2+H05261)
Correct for Stray Light: No (USB2+H05261)
Number of Pixels in Processed Spectrum: 2048
>>>>>Begin Processed Spectral Data<<<<<
365.73	215.33
365.92	215.33
366.12	215.33
366.32	112.35
366.52	161.50
366.72	117.03
366.91	70.22
367.11	124.05
367.31	147.45
367.51	156.82
367.70	95.96
367.90	124.05
368.10	138.09
368.30	95.96
368.49	145.11
368.69	166.18
368.89	161.50
369.09	79.58
369.28	117.03
369.48	100.64
369.68	147.45
369.87	159.16
370.07	212.99
370.27	241.08
370.47	404.91
370.66	608.54
370.86	624.92
371.06	617.90
371.25	678.76
371.45	624.92
371.65	624.92
371.84	674.07
372.04	713.86
372.24	711.52
372.44	753.65
372.63	734.93
372.83	744.29
373.03	760.67
373.22	711.52
373.42	856.64
373.62	812.17
373.81	795.78
374.01	875.36
374.21	784.08
374.40	830.89
374.60	798.12
374.79	837.91
374.99	863.66
375.19	779.40
375.38	819.19
375.58	800.46
375.78	828.55
375.97	826.21
376.17	945.58
376.37	854.30
376.56	851.96
376.76	931.53
376.95	882.38
377.15	861.32
377.35	919.83
377.54	884.72
377.74	891.74
377.93	964.30
378.13	887.06
378.33	924.51
378.52	905.79
378.72	858.98
378.91	887.06
379.11	894.08
379.31	936.21
379.50	851.96
379.70	936.21
379.89	978.34
380.09	924.51
380.28	1011.11
380.48	978.34
380.68	936.21
380.87	1088.35
381.07	1020.47
381.26	1034.52
381.46	1041.54
381.65	1097.71
381.85	1013.45
382.04	1146.86
382.24	1032.18
382.43	1043.88
382.63	1043.88
382.83	1055.58
383.02	1055.58
383.22	1121.12
383.41	1114.10
383.61	1053.24
383.80	1116.44
384.00	1090.69
384.19	1109.41
384.39	1090.69
384.58	1160.91
384.78	1254.53
384.97	1174.95
385.17	1184.31
385.36	1121.12
385.56	1074.31
385.75	1170.27
385.95	1249.85
386.14	1203.04
386.34	1186.65
386.53	1212.40
386.72	1153.88
386.92	1247.51
387.11	1174.95
387.31	1338.79
387.50	1196.01
387.70	1203.04
387.89	1268.57
388.09	1310.70
388.28	1256.87
388.48	1231.12
388.67	1275.59
388.86	1362.19
389.06	1359.85
389.25	1270.91
389.45	1317.72
389.64	1371.55
389.84	1376.24
390.03	1334.11
390.22	1348.15
390.42	1357.51
390.61	1341.13
390.81	1441.77
391.00	1394.96
391.19	1476.88
391.39	1469.86
391.58	1366.87
391.78	1483.90
391.97	1439.43
392.16	1453.47
392.36	1504.96
392.55	1514.33
392.75	1497.94
392.94	1575.18
393.13	1561.14
393.33	1497.94
393.52	1488.58
393.71	1586.88
393.91	1584.54
394.10	1568.16
394.29	1526.03
394.49	1528.37
394.68	1605.61
394.88	1650.08
395.07	1657.10
395.26	1699.23
395.46	1664.12
395.65	1729.66
395.84	1661.78
396.04	1708.59
396.23	1750.72
396.42	1710.93
396.62	1806.89
396.81	1809.23
397.00	1762.42
397.19	1827.96
397.39	1664.12
397.58	1870.09
397.77	1919.24
397.97	1830.30
398.16	1884.13
398.35	1900.52
398.55	1769.44
398.74	1860.73
398.93	1989.46
399.12	1900.52
399.32	2036.27
399.51	1834.98
399.70	1968.39
399.90	1914.56
400.09	1989.46
400.28	2080.74
400.47	2099.46
400.67	2143.93
400.86	2069.03
401.05	2087.76
401.24	2083.08
401.44	2005.84
401.63	2076.06
401.82	2104.14
402.01	2176.70
402.21	2291.38
402.40	2190.74
402.59	2146.27
402.78	2148.61
402.97	2237.55
403.17	2310.11
403.36	2331.17
403.55	2375.64
403.74	2321.81
403.93	2396.71
404.13	2396.71
404.32	2441.18
404.51	2399.05
404.70	2368.62
404.89	2431.82
405.09	2516.08
405.28	2546.50
405.47	2583.95
405.66	2511.39
405.85	2445.86
406.05	2520.76
406.24	2492.67
406.43	2478.63
406.62	2586.29
406.81	2539.48
407.00	2530.12
407.20	2534.80
407.39	2612.04
407.58	2923.33
407.77	2693.96
407.96	2857.79
408.15	2724.38
408.34	2750.13
408.54	2855.45
408.73	2750.13
408.92	2827.37
409.11	2885.88
409.30	2878.86
409.49	2846.09
409.68	2836.73
409.87	2970.14
410.07	3077.80
410.26	3033.33
410.45	2979.50
410.64	3138.66
410.83	3131.64
411.02	3101.21
411.21	3091.85
411.40	3236.96
411.59	3150.36
411.78	3265.05
411.98	3192.49
412.17	3309.52
412.36	3262.71
412.55	3267.39
412.74	3325.90
412.93	3487.40
413.12	3363.35
413.31	3552.93
413.50	3552.93
413.69	3557.61
413.88	3658.26
414.07	3531.87
414.26	3543.57
414.45	3616.13
414.64	3749.54
414.83	3681.66
415.02	3740.18
415.22	3850.18
415.41	3894.65
415.60	3742.52
415.79	3985.93
415.98	3906.35
416.17	3950.82
416.36	4009.34
416.55	4032.74
416.74	3999.98
416.93	4014.02
417.12	4086.58
417.31	4198.92
417.50	4170.83
417.69	4222.33
417.88	4219.99
418.07	4292.54
418.26	4287.86
418.45	4376.80
418.64	4475.10
418.83	4344.03
419.02	4437.66
419.21	4587.45
419.39	4592.13
419.58	4341.69
419.77	4381.48
419.96	4662.35
420.15	4648.30
420.34	4592.13
420.53	4674.05
420.72	4830.87
420.91	4699.80
421.10	4830.87
421.29	4727.88
421.48	4854.27
421.67	4713.84
421.86	4861.29
422.05	4753.63
422.24	4849.59
422.43	4929.17
422.61	5034.49
422.80	5057.90
422.99	4936.19
423.18	5153.86
423.37	5004.07
423.56	5060.24
423.75	5025.13
423.94	4784.06
424.13	4585.11
424.32	4685.75
424.50	5034.49
424.69	5296.63
424.88	5074.28
425.07	4912.78
425.26	4833.21
425.45	5004.07
425.64	5032.15
425.83	4938.53
426.01	5027.47
426.20	4957.25
426.39	5165.56
426.58	5097.69
426.77	5057.90
426.96	5186.63
427.15	5156.20
427.33	5287.27
427.52	5238.12
427.71	5198.33
427.90	5104.71
428.09	5277.91
428.28	5387.91
428.46	5313.02
428.65	5378.55
428.84	5675.80
429.03	5521.32
429.22	5284.93
429.40	5474.51
429.59	5593.88
429.78	5263.86
429.97	5298.97
430.16	5446.43
430.34	5551.75
430.53	5633.67
430.72	5820.91
430.91	5813.89
431.10	5717.93
431.28	5666.44
431.47	5760.06
431.66	5806.87
431.85	5963.68
432.03	5975.39
432.22	5689.84
432.41	5785.80
432.60	5841.98
432.79	5989.43
432.97	6017.52
433.16	6146.25
433.35	5919.21
433.54	6230.51
433.72	6162.63
433.91	6066.67
434.10	6291.36
434.28	6024.54
434.47	6282.00
434.66	6523.07
434.85	6607.33
435.03	6352.21
435.22	6497.33
435.41	6684.57
435.59	6464.56
435.78	6483.28
435.97	6359.24
436.16	6408.39
436.34	6473.92
436.53	6466.90
436.72	6679.89
436.90	6375.62
437.09	6719.68
437.28	6476.26
437.46	6715.00
437.65	6630.74
437.84	6822.66
438.02	6911.60
438.21	6878.83
438.40	6686.91
438.58	6906.92
438.77	6993.52
438.96	6902.24
439.14	7190.13
439.33	7358.64
439.52	7272.04
439.70	7229.91
439.89	7517.80
440.08	7426.52
440.26	7414.82
440.45	7447.58
440.63	7581.00
440.82	7651.21
441.01	7609.08
441.19	7634.83
441.38	7803.35
441.57	7894.63
441.75	7737.81
441.94	8042.08
442.12	7932.08
442.31	8074.85
442.50	8131.02
442.68	8196.56
442.87	8102.93
443.05	8149.75
443.24	8313.58
443.43	7997.61
443.61	8175.49
443.80	8493.80
443.98	8259.75
444.17	7871.22
444.35	8257.41
444.54	8468.06
444.73	8498.49
444.91	8381.46
445.10	8313.58
445.28	8554.66
445.47	8290.18
445.65	8372.10
445.84	8542.96
446.02	8571.04
446.21	8676.37
446.39	8552.32
446.58	8716.16
446.77	8627.21
446.95	8355.71
447.14	8503.17
447.32	8601.47
447.51	8491.46
447.69	8702.11
447.88	8641.26
448.06	8571.04
448.25	8573.38
448.43	8662.32
448.62	8510.19
448.80	8631.90
448.99	8945.53
449.17	8798.07
449.36	8711.47
449.54	8814.46
449.73	8966.59
449.91	8849.57
450.10	9025.11
450.28	9109.36
450.46	9095.32
450.65	9118.73
450.83	9064.89
451.02	8805.10
451.20	9371.50
451.39	9163.20
451.57	9191.28
451.76	8856.59
451.94	9029.79
452.13	9366.82
452.31	9441.72
452.49	9214.69
452.68	9357.46
452.86	9387.89
453.05	9359.80
453.23	9565.77
453.42	9284.91
453.60	9329.38
453.78	9673.43
453.97	9430.02
454.15	9525.98
454.34	9535.34
454.52	9809.19
454.70	9753.01
454.89	9736.63
455.07	9935.57
455.26	9853.66
455.44	10113.45
455.62	9928.55
455.81	9930.89
455.99	10015.15
456.17	10071.33
456.36	10321.76
456.54	10307.72
456.73	10284.31
456.91	10705.61
457.09	10389.64
457.28	10525.39
457.46	10340.49
457.64	10654.12
457.83	10679.86
458.01	10506.66
458.19	10656.46
458.38	10619.01
458.56	10712.63
458.74	10628.37
458.93	10558.16
459.11	10787.53
459.29	10934.98
459.48	10822.64
459.66	10771.15
459.84	10916.26
460.03	11075.42
460.21	10913.92
460.39	11061.37
460.57	10890.51
460.76	11164.36
460.94	11260.32
461.12	11206.48
461.31	11206.48
461.49	11339.90
461.67	11105.84
461.85	11407.77
462.04	11353.94
462.22	11925.03
462.40	11763.53
462.59	11466.28
462.77	11548.20
462.95	11655.87
463.13	11520.12
463.32	11843.11
463.50	11833.75
463.68	12032.69
463.86	11896.94
464.05	11700.34
464.23	11735.45
464.41	11896.94
464.59	11880.56
464.78	12224.62
464.96	12020.99
465.14	12004.61
465.32	12109.93
465.50	12126.32
465.69	12191.85
465.87	12212.92
466.05	12205.89
466.23	12336.96
466.41	12498.46
466.60	12582.72
466.78	12109.93
466.96	12425.90
467.14	12255.04
467.32	12564.00
467.51	12655.28
467.69	12238.66
467.87	12369.73
468.05	12404.84
468.23	12432.93
468.41	12578.04
468.60	12517.18
468.78	12865.92
468.96	12418.88
469.14	13064.87
469.32	12954.87
469.50	12627.19
469.69	13025.08
469.87	13280.20
470.05	13027.42
470.23	13057.85
470.41	13249.77
470.59	13275.52
470.77	13523.62
470.95	13163.17
471.14	13500.21
471.32	13167.85
471.50	13928.53
471.68	13628.94
471.86	13568.09
472.04	13752.99
472.22	14251.52
472.40	13818.52
472.58	13954.27
472.77	14178.97
472.95	14352.16
473.13	14637.71
473.31	14015.13
473.49	14143.86
473.67	14317.06
473.85	14445.79
474.03	14743.03
474.21	14462.17
474.39	14782.82
474.57	14806.23
474.75	15335.19
474.93	15056.67
475.12	15110.50
475.30	15358.60
475.48	15059.01
475.66	15374.98
475.84	15150.29
476.02	15487.32
476.20	15602.01
476.38	15538.82
476.56	15946.07
476.74	16035.01
476.92	16053.73
477.10	15999.90
477.28	15714.36
477.46	16210.55
477.64	16222.25
477.82	16650.57
478.00	17242.73
478.18	17008.67
478.36	17329.33
478.54	17149.11
478.72	17554.02
478.90	17411.25
479.08	17589.13
479.26	17687.43
479.44	17877.01
479.62	17905.10
479.80	17968.29
479.98	18263.20
480.16	18707.90
480.34	18223.41
480.52	18803.86
480.70	18637.69
480.88	18370.86
481.06	18848.33
481.24	18932.59
481.41	19356.23
481.59	19321.12
481.77	19484.96
481.95	19688.59
482.13	19632.41
482.31	19688.59
482.49	20350.96
482.67	19885.19
482.85	20465.64
483.03	20807.36
483.21	20596.71
483.39	20915.03
483.57	21064.82
483.74	21221.64
483.92	21429.94
484.10	21296.53
484.28	21628.89
484.46	21991.67
484.64	22277.22
484.82	21994.01
485.00	22382.54
485.18	23351.52
485.35	22934.91
485.53	23000.44
485.71	23091.73
485.89	23683.88
486.07	23639.41
486.25	23325.78
486.43	23517.70
486.61	24126.24
486.78	24341.57
486.96	24128.58
487.14	24737.12
487.32	24844.79
487.50	25350.34
487.68	25017.99
487.85	25605.46
488.03	25268.42
488.21	25834.83
488.39	26082.93
488.57	26333.37
488.75	26183.57
488.92	26794.45
489.10	26883.39
489.28	26848.29
489.46	27145.53
489.64	27391.29
489.81	27985.79
489.99	27386.61
490.17	27889.82
490.35	28189.41
490.53	28147.28
490.70	28566.24
490.88	28423.47
491.06	29095.20
491.24	29343.30
491.41	29223.93
491.59	29799.70
491.77	29436.92
491.95	29809.06
492.13	30218.66
492.30	29773.95
492.48	30284.19
492.66	30490.16
492.84	30579.10
493.01	30782.73
493.19	30850.60
493.37	31175.94
493.54	31232.11
493.72	31817.24
493.90	31784.48
494.08	32123.85
494.25	32175.34
494.43	32264.28
494.61	32505.36
494.79	32566.21
494.96	32411.74
495.14	32877.51
495.32	33376.04
495.49	33631.16
495.67	33261.35
495.85	34071.18
496.02	33928.41
496.20	33963.51
496.38	34349.70
496.55	33928.41
496.73	34806.11
496.91	34429.28
497.09	35367.84
497.26	35098.67
497.44	35386.56
497.62	35583.16
497.79	36154.26
497.97	35763.39
498.14	35840.62
498.32	36528.74
498.50	36458.52
498.67	36690.24
498.85	36912.59
499.03	36882.16
499.20	37158.34
499.38	37095.15
499.56	37390.06
499.73	37198.13
499.91	37521.13
500.08	37687.31
500.26	37509.43
500.44	38068.81
500.61	37982.21
500.79	38066.47
500.97	38092.22
501.14	38532.24
501.32	38862.26
501.49	38557.99
501.67	38787.36
501.84	39625.27
502.02	39229.72
502.20	39175.89
502.37	39166.52
502.55	39543.35
502.72	39519.95
502.90	39594.84
503.07	39597.18
503.25	40222.11
503.43	40289.98
503.60	40034.86
503.78	40390.62
503.95	40451.48
504.13	40535.74
504.30	40865.75
504.48	40502.97
504.65	40889.16
504.83	41516.42
505.01	41605.36
505.18	41581.96
505.36	41738.77
505.53	41495.36
505.71	42117.94
505.88	41790.27
506.06	42047.72
506.23	42188.16
506.41	42293.48
506.58	42628.18
506.76	42096.88
506.93	42742.86
507.11	42518.17
507.28	43182.88
507.46	43398.21
507.63	42792.01
507.81	43311.61
507.98	43152.46
508.16	43573.75
508.33	43948.24
508.50	43735.25
508.68	43709.50
508.85	44282.94
509.03	43948.24
509.20	44060.58
509.38	44842.32
509.55	44638.70
509.73	44758.06
509.90	44493.58
510.08	44832.96
510.25	44481.88
510.42	44797.85
510.60	45284.68
510.77	45382.99
510.95	45516.40
511.12	45109.14
511.30	45668.53
511.47	46043.02
511.64	45628.74
511.82	46302.82
511.99	45900.25
512.17	46134.30
512.34	46120.26
512.51	46548.57
512.69	46803.69
512.86	46122.60
513.04	47033.07
513.21	46843.48
513.38	47035.41
513.56	46869.23
513.73	47065.83
513.90	47599.47
514.08	47456.70
514.25	47812.46
514.43	48076.94
514.60	48006.73
514.77	47522.24
514.95	47924.81
515.12	47533.94
515.29	47899.06
515.47	48287.59
515.64	48423.34
515.81	48004.39
515.99	48561.44
516.16	48800.17
516.33	48727.61
516.51	49034.22
516.68	49195.72
516.85	48830.60
517.03	48736.98
517.20	49254.23
517.37	49200.40
517.54	49251.89
517.72	49312.75
517.89	49251.89
518.06	49619.36
518.24	49516.37
518.41	49514.03
518.58	49607.65
518.75	49670.85
518.93	49818.30
519.10	49925.97
519.27	50286.41
519.45	49940.01
519.62	50483.01
519.79	49961.08
519.96	50461.95
520.14	50377.69
520.31	50129.59
520.48	50574.30
520.65	50651.53
520.83	50848.14
521.00	51014.32
521.17	50939.42
521.34	50810.69
521.52	51096.24
521.69	50911.33
521.86	51152.41
522.03	51178.15
522.20	51564.34
522.38	51627.54
522.55	51592.43
522.72	51831.16
522.89	51510.51
523.07	51952.87
523.24	51786.69
523.41	51828.82
523.58	51725.84
523.75	52151.82
523.92	51887.34
524.10	51913.08
524.27	52271.18
524.44	52250.12
524.61	52364.81
524.78	52500.56
524.96	52006.70
525.13	52692.48
525.30	52530.98
525.47	52767.38
525.64	52512.26
525.81	52828.23
525.98	52760.36
526.16	52746.31
526.33	52823.55
526.50	53162.93
526.67	52765.04
526.84	53200.38
527.01	53169.95
527.18	53071.65
527.36	53455.50
527.53	52837.59
527.70	53399.32
527.87	53624.01
528.04	53366.55
528.21	53633.38
528.38	53574.86
528.55	53572.52
528.72	53675.51
528.89	53595.93
529.07	53811.26
529.24	53565.50
529.41	53954.03
529.58	53722.32
529.75	53801.89
529.92	53851.05
530.09	53900.20
530.26	54174.04
530.43	54410.43
530.60	54033.61
530.77	54094.46
530.94	54326.17
531.11	54185.74
531.28	54244.26
531.46	54506.40
531.63	54202.13
531.80	54314.47
531.97	54677.25
532.14	54471.29
532.31	54600.02
532.48	54944.08
532.65	54927.69
532.82	54660.87
532.99	55068.12
533.16	54948.76
533.33	55105.57
533.50	55084.51
533.67	55070.46
533.84	55044.72
534.01	55276.43
534.18	55103.23
534.35	55536.23
534.52	55096.21
534.69	55384.10
534.86	55517.51
535.03	55100.89
535.20	55421.55
535.37	55643.90
535.54	55370.05
535.71	55426.23
535.88	55753.90
536.05	55700.07
536.22	55777.31
536.38	55753.90
536.55	55632.19
536.72	55856.88
536.89	55594.74
537.06	55873.27
537.23	55955.19
537.40	55655.60
537.57	55969.23
537.74	56292.22
537.91	56210.31
538.08	56083.92
538.25	55807.73
538.42	55980.93
538.59	56198.60
538.75	56039.45
538.92	56137.75
539.09	56397.55
539.26	56362.44
539.43	56219.67
539.60	56516.92
539.77	56163.50
539.94	56757.99
540.11	56509.89
540.28	56582.45
540.44	56608.20
540.61	56470.11
540.78	56783.74
540.95	56547.34
541.12	56692.46
541.29	56605.86
541.46	56699.48
541.62	56687.78
541.79	56790.76
541.96	56472.45
542.13	56790.76
542.30	56743.95
542.47	56933.53
542.63	56837.57
542.80	57209.71
542.97	57312.70
543.14	57502.28
543.31	57361.85
543.48	57202.69
543.64	57717.61
543.81	57186.31
543.98	57382.91
544.15	57347.81
544.32	57633.35
544.48	57509.30
544.65	57567.82
544.82	57710.59
544.99	57471.85
545.16	57645.05
545.32	57415.68
545.49	57935.28
545.66	57841.66
545.83	57872.09
546.00	57883.79
546.16	57607.61
546.33	57628.67
546.50	57764.42
546.67	57904.85
546.83	57787.83
547.00	58061.67
547.17	57923.58
547.34	57862.72
547.50	58059.33
547.67	58206.78
547.84	58035.92
548.00	58302.74
548.17	58358.92
548.34	58349.56
548.51	58520.41
548.67	58368.28
548.84	58342.53
549.01	58178.70
549.18	58291.04
549.34	58372.96
549.51	58597.65
549.68	58379.98
549.84	58454.88
550.01	58698.30
550.18	58410.41
550.34	58525.10
550.51	58450.20
550.68	58471.26
550.84	58431.47
551.01	58698.30
551.18	58637.44
551.34	58733.40
551.51	58878.52
551.68	58749.79
551.84	58728.72
552.01	58571.91
552.18	58787.24
552.34	58721.70
552.51	58967.46
552.68	58749.79
552.84	58927.67
553.01	59330.24
553.18	59107.89
553.34	59086.82
553.51	58993.20
553.67	58871.49
553.84	58880.86
554.01	58988.52
554.17	59138.32
554.34	59157.04
554.51	59213.21
554.67	59206.19
554.84	59103.21
555.00	59159.38
555.17	59175.76
555.33	59213.21
555.50	59173.42
555.67	59098.53
555.83	59276.41
556.00	59227.26
556.16	59505.78
556.33	59426.20
556.50	59309.18
556.66	59629.83
556.83	59164.06
556.99	59683.66
557.16	59576.00
557.32	59547.91
557.49	59732.81
557.65	59561.95
557.82	59693.02
557.98	59388.75
558.15	59561.95
558.32	59767.92
558.48	59435.56
558.65	59494.08
558.81	59641.53
558.98	59674.30
559.14	59791.33
559.31	59831.11
559.47	59901.33
559.64	59838.14
559.80	59805.37
559.97	59950.48
560.13	59760.90
560.30	59929.42
560.46	59976.23
560.63	59840.48
560.79	59765.58
560.96	60135.38
561.12	59992.61
561.29	60048.78
561.45	59938.78
561.61	60037.08
561.78	60016.02
561.94	60062.83
562.11	60116.66
562.27	59920.05
562.44	60205.60
562.60	60109.64
562.77	60177.51
562.93	59873.24
563.10	60203.26
563.26	60107.30
563.42	60367.10
563.59	60142.41
563.75	60121.34
563.92	60168.15
564.08	59997.29
564.24	60327.31
564.41	60367.10
564.57	60172.83
564.74	60329.65
564.90	60168.15
565.07	60245.39
565.23	60399.86
565.39	60072.19
565.56	60292.20
565.72	60301.56
565.88	60292.20
566.05	60158.79
566.21	60287.52
566.38	60357.74
566.54	60383.48
566.70	60463.06
566.87	60451.36
567.03	60184.54
567.19	60488.80
567.36	60463.06
567.52	60273.48
567.68	60750.94
567.85	60547.32
568.01	60790.73
568.17	60544.98
568.34	60566.04
568.50	60427.95
568.66	60509.87
568.83	60659.66
568.99	60563.70
569.15	60535.62
569.32	60463.06
569.48	60360.08
569.64	60800.10
569.81	60727.54
569.97	60647.96
570.13	60423.27
570.30	60425.61
570.46	60589.45
570.62	60615.19
570.78	60704.13
570.95	60725.20
571.11	60711.16
571.27	60521.57
571.43	60732.22
571.60	60783.71
571.76	60797.76
571.92	60678.39
572.09	60666.69
572.25	60676.05
572.41	60514.55
572.57	60865.63
572.74	61062.24
572.90	60706.47
573.06	60760.31
573.22	60720.52
573.38	60807.12
573.55	60580.09
573.71	61069.26
573.87	60968.61
574.03	60645.62
574.20	60961.59
574.36	60713.50
574.52	60844.57
574.68	60818.82
574.84	61111.39
575.01	60938.19
575.17	60963.93
575.33	60793.07
575.49	60940.53
575.65	60781.37
575.82	61015.43
575.98	60947.55
576.14	61209.69
576.30	60935.85
576.46	60832.86
576.62	60762.65
576.79	60800.10
576.95	60804.78
577.11	60912.44
577.27	60928.83
577.43	60900.74
577.59	60776.69
577.75	60793.07
577.92	60713.50
578.08	61055.21
578.24	61050.53
578.40	61057.56
578.56	61141.81
578.72	61010.74
578.88	61155.86
579.04	61050.53
579.21	61139.47
579.37	61158.20
579.53	61174.58
579.69	61085.64
579.85	61181.60
580.01	60910.10
580.17	60860.95
580.33	61095.00
580.49	61059.90
580.65	60982.66
580.82	61174.58
580.98	60692.43
581.14	61085.64
581.30	61228.41
581.46	61095.00
581.62	61087.98
581.78	60867.97
581.94	61097.34
582.10	60807.12
582.26	60931.17
582.42	60814.14
582.58	61169.90
582.74	61165.22
582.90	60821.16
583.06	61190.97
583.22	61106.71
583.38	61188.63
583.54	61027.13
583.70	61303.31
583.86	61209.69
584.02	61041.17
584.18	61268.20
584.34	61064.58
584.50	61106.71
584.66	60910.10
584.82	61130.11
584.98	61247.14
585.14	61024.79
585.30	60940.53
585.46	60996.70
585.62	61174.58
585.78	61275.22
585.94	61160.54
586.10	60970.96
586.26	61148.84
586.42	61455.45
586.58	61226.07
586.74	61329.06
586.90	61106.71
587.06	61083.30
587.22	61221.39
587.38	61113.73
587.54	61338.42
587.70	61439.06
587.86	61041.17
588.02	61172.24
588.18	61212.03
588.34	61233.10
588.49	61293.95
