SpectraSuite Data File
++++++++++++++++++++++++++++++++++++
Date: Fri Oct 25 11:23:32 EDT 2013
User: price-jones
Dark Spectrum Present: No
Reference Spectrum Present: No
Number of Sampled Component Spectra: 1
Spectrometers: USB2+H05261
Integration Time (usec): 100000 (USB2+H05261)
Spectra Averaged: 1 (USB2+H05261)
Boxcar Smoothing: 0 (USB2+H05261)
Correct for Electrical Dark: No (USB2+H05261)
Strobe/Lamp Enabled: No (USB2+H05261)
Correct for Detector Non-linearity: No (USB2+H05261)
Correct for Stray Light: No (USB2+H05261)
Number of Pixels in Processed Spectrum: 2048
>>>>>Begin Processed Spectral Data<<<<<
365.73	203.63
365.92	203.63
366.12	203.63
366.32	182.56
366.52	65.54
366.72	135.75
366.91	77.24
367.11	124.05
367.31	102.98
367.51	70.22
367.70	117.03
367.90	112.35
368.10	126.39
368.30	166.18
368.49	126.39
368.69	117.03
368.89	159.16
369.09	131.07
369.28	156.82
369.48	231.71
369.68	180.22
369.87	205.97
370.07	182.56
370.27	266.82
370.47	320.65
370.66	575.77
370.86	622.58
371.06	634.29
371.25	723.23
371.45	702.16
371.65	725.57
371.84	631.94
372.04	648.33
372.24	653.01
372.44	667.05
372.63	739.61
372.83	690.46
373.03	655.35
373.22	674.07
373.42	660.03
373.62	772.38
373.81	732.59
374.01	861.32
374.21	814.51
374.40	837.91
374.60	837.91
374.79	821.53
374.99	816.85
375.19	840.25
375.38	861.32
375.58	889.40
375.78	847.27
375.97	791.10
376.17	880.04
376.37	866.00
376.56	779.40
376.76	858.98
376.95	788.76
377.15	898.77
377.35	926.85
377.54	887.06
377.74	870.68
377.93	894.08
378.13	873.02
378.33	961.96
378.52	891.74
378.72	987.71
378.91	926.85
379.11	999.41
379.31	898.77
379.50	964.30
379.70	938.55
379.89	990.05
380.09	954.94
380.28	1022.81
380.48	877.70
380.68	980.68
380.87	990.05
381.07	1022.81
381.26	1029.84
381.46	983.02
381.65	1039.20
381.85	1022.81
382.04	1025.15
382.24	1132.82
382.43	1039.20
382.63	1039.20
382.83	1107.07
383.02	1149.20
383.22	1100.05
383.41	1076.65
383.61	1029.84
383.80	1174.95
384.00	1111.75
384.19	1123.46
384.39	1165.59
384.58	1114.10
384.78	1078.99
384.97	1125.80
385.17	1158.57
385.36	1172.61
385.56	1128.14
385.75	1217.08
385.95	1146.86
386.14	1151.54
386.34	1174.95
386.53	1219.42
386.72	1156.22
386.92	1233.46
387.11	1254.53
387.31	1268.57
387.50	1284.95
387.70	1193.67
387.89	1306.02
388.09	1210.06
388.28	1252.19
388.48	1249.85
388.67	1270.91
388.86	1411.34
389.06	1366.87
389.25	1280.27
389.45	1310.70
389.64	1275.59
389.84	1317.72
390.03	1296.66
390.22	1418.36
390.42	1331.76
390.61	1341.13
390.81	1465.18
391.00	1446.45
391.19	1451.13
391.39	1455.81
391.58	1488.58
391.78	1434.75
391.97	1504.96
392.16	1446.45
392.36	1547.09
392.55	1563.48
392.75	1472.20
392.94	1561.14
393.13	1624.33
393.33	1554.12
393.52	1516.67
393.71	1514.33
393.91	1638.38
394.10	1561.14
394.29	1502.62
394.49	1614.97
394.68	1603.27
394.88	1591.56
395.07	1668.80
395.26	1530.71
395.46	1717.95
395.65	1661.78
395.84	1631.35
396.04	1757.74
396.23	1762.42
396.42	1675.82
396.62	1816.26
396.81	1762.42
397.00	1748.38
397.19	1872.43
397.39	1743.70
397.58	1879.45
397.77	1795.19
397.97	1797.53
398.16	1830.30
398.35	1919.24
398.55	1937.96
398.74	1898.17
398.93	1912.22
399.12	1874.77
399.32	1853.70
399.51	1923.92
399.70	1921.58
399.90	1947.33
400.09	2008.18
400.28	2083.08
400.47	1998.82
400.67	2106.48
400.86	2221.17
401.05	2115.84
401.24	2076.06
401.44	2146.27
401.63	2263.30
401.82	2062.01
402.01	2169.68
402.21	2143.93
402.40	2174.36
402.59	2118.18
402.78	2183.72
402.97	2188.40
403.17	2300.75
403.36	2408.41
403.55	2342.88
403.74	2310.11
403.93	2312.45
404.13	2326.49
404.32	2438.84
404.51	2422.45
404.70	2537.14
404.89	2270.32
405.09	2413.09
405.28	2408.41
405.47	2464.58
405.66	2459.90
405.85	2401.39
406.05	2532.46
406.24	2565.23
406.43	2602.68
406.62	2502.03
406.81	2595.65
407.00	2663.53
407.20	2630.76
407.39	2654.17
407.58	2703.32
407.77	2679.91
407.96	2708.00
408.15	2796.94
408.34	2703.32
408.54	2808.64
408.73	2733.75
408.92	2789.92
409.11	2853.11
409.30	2902.26
409.49	2885.88
409.68	2977.16
409.87	2942.05
410.07	2965.46
410.26	2913.97
410.45	2998.23
410.64	2878.86
410.83	3028.65
411.02	3173.77
411.21	3255.69
411.40	2993.55
411.59	3197.17
411.78	3126.96
411.98	3213.56
412.17	3241.64
412.36	3283.77
412.55	3419.52
412.74	3433.57
412.93	3515.48
413.12	3407.82
413.31	3660.60
413.50	3428.88
413.69	3403.14
413.88	3517.83
414.07	3576.34
414.26	3566.98
414.45	3698.05
414.64	3695.71
414.83	3798.69
415.02	3754.22
415.22	3887.63
415.41	3887.63
415.60	3967.21
415.79	3875.93
415.98	4007.00
416.17	4081.89
416.36	3894.65
416.55	4088.92
416.74	4063.17
416.93	4042.11
417.12	4191.90
417.31	4147.43
417.50	4161.47
417.69	4442.34
417.88	4416.59
418.07	4198.92
418.26	4407.23
418.45	4269.14
418.64	4465.74
418.83	4360.42
419.02	4458.72
419.21	4542.98
419.39	4634.26
419.58	4479.79
419.77	4456.38
419.96	4559.36
420.15	4514.89
420.34	4463.40
420.53	4650.64
420.72	4727.88
420.91	4603.83
421.10	4772.35
421.29	4737.24
421.48	4505.53
421.67	4828.53
421.86	4835.55
422.05	4950.23
422.24	4856.61
422.43	4931.51
422.61	4983.00
422.80	4952.57
422.99	4978.32
423.18	4889.38
423.37	4912.78
423.56	4910.44
423.75	4987.68
423.94	4765.33
424.13	4615.54
424.32	4926.83
424.50	5055.56
424.69	5004.07
424.88	5116.41
425.07	4924.49
425.26	4985.34
425.45	5013.43
425.64	4999.38
425.83	4924.49
426.01	5053.22
426.20	5069.60
426.39	5137.48
426.58	5200.67
426.77	5153.86
426.96	5090.67
427.15	5057.90
427.33	5062.58
427.52	5198.33
427.71	5205.35
427.90	5380.89
428.09	5303.65
428.28	5437.06
428.46	5308.34
428.65	5317.70
428.84	5516.64
429.03	5441.75
429.22	5294.29
429.40	5582.18
429.59	5523.66
429.78	5355.15
429.97	5320.04
430.16	5582.18
430.34	5666.44
430.53	5682.82
430.72	5605.58
430.91	5563.45
431.10	5764.74
431.28	5696.86
431.47	5687.50
431.66	5837.30
431.85	5767.08
432.03	5839.64
432.22	6045.60
432.41	5694.52
432.60	5881.77
432.79	5996.45
432.97	5966.03
433.16	6087.73
433.35	6047.94
433.54	5951.98
433.72	5994.11
433.91	6127.52
434.10	6029.22
434.28	6031.56
434.47	6092.41
434.66	6345.19
434.85	6246.89
435.03	6321.79
435.22	6293.70
435.41	6490.31
435.59	6319.45
435.78	6436.47
435.97	6410.73
436.16	6373.28
436.34	6333.49
436.53	6520.73
436.72	6700.95
436.90	6445.84
437.09	6764.15
437.28	6569.88
437.46	6670.53
437.65	6712.66
437.84	6883.52
438.02	6771.17
438.21	6642.44
438.40	6733.72
438.58	6913.94
438.77	7136.29
438.96	6920.96
439.14	7042.67
439.33	7148.00
439.52	6876.49
439.70	7126.93
439.89	7321.20
440.08	7426.52
440.26	7300.13
440.45	7197.15
440.63	7372.69
440.82	7616.10
441.01	7489.71
441.19	7564.61
441.38	7861.86
441.57	7934.42
441.75	7850.16
441.94	7957.82
442.12	8159.11
442.31	8341.67
442.50	7978.89
442.68	7889.95
442.87	7875.90
443.05	8166.13
443.24	8308.90
443.43	8191.88
443.61	8154.43
443.80	8449.33
443.98	8243.37
444.17	7786.96
444.35	8304.22
444.54	8329.97
444.73	8409.54
444.91	8266.77
445.10	8369.76
445.28	8400.18
445.47	8215.28
445.65	8402.52
445.84	8278.47
446.02	8353.37
446.21	8491.46
446.39	8362.73
446.58	8446.99
446.77	8603.81
446.95	8507.85
447.14	8496.14
447.32	8620.19
447.51	8411.89
447.69	8325.29
447.88	8557.00
448.06	8608.49
448.25	8531.25
448.43	8418.91
448.62	8472.74
448.80	8667.00
448.99	8664.66
449.17	8903.40
449.36	8713.81
449.54	8788.71
449.73	8980.64
449.91	8940.85
450.10	9207.67
450.28	8964.25
450.46	9036.81
450.65	8915.10
450.83	9224.05
451.02	9064.89
451.20	9039.15
451.39	9062.55
451.57	9153.84
451.76	9048.51
451.94	9303.63
452.13	9430.02
452.31	9465.13
452.49	9212.35
452.68	9408.95
452.86	9036.81
453.05	9282.56
453.23	9497.89
453.42	9612.58
453.60	9350.44
453.78	9504.92
453.97	9724.93
454.15	9451.08
454.34	9542.36
454.52	9668.75
454.70	9797.48
454.89	9631.30
455.07	9980.04
455.26	9916.85
455.44	9968.34
455.62	9940.26
455.81	9884.08
455.99	10029.20
456.17	10003.45
456.36	10139.20
456.54	10216.44
456.73	10202.40
456.91	10452.83
457.09	10441.13
457.28	10583.90
457.46	10298.36
457.64	10574.54
457.83	10518.37
458.01	10359.21
458.19	10691.57
458.38	10658.80
458.56	10640.08
458.74	10822.64
458.93	10759.44
459.11	10714.97
459.29	10567.52
459.48	10874.13
459.66	10834.34
459.84	10937.32
460.03	10918.60
460.21	11084.78
460.39	11089.46
460.57	10995.84
460.76	11080.10
460.94	11080.10
461.12	11250.96
461.31	11239.25
461.49	11297.77
461.67	11250.96
461.85	11590.33
462.04	11108.18
462.22	11749.49
462.40	11695.66
462.59	11431.18
462.77	11426.50
462.95	11646.51
463.13	11513.10
463.32	11597.35
463.50	11705.02
463.68	11826.73
463.86	11887.58
464.05	11611.40
464.23	11793.96
464.41	11903.96
464.59	11634.80
464.78	11885.24
464.96	12152.06
465.14	11899.28
465.32	11995.25
465.50	12063.12
465.69	12231.64
465.87	12166.10
466.05	12079.50
466.23	12121.63
466.41	12292.49
466.60	12477.40
466.78	12100.57
466.96	12386.12
467.14	12442.29
467.32	12374.41
467.51	12659.96
467.69	12133.34
467.87	12533.57
468.05	12456.33
468.23	12360.37
468.41	12395.48
468.60	12580.38
468.78	12863.58
468.96	12620.17
469.14	12631.87
469.32	13088.28
469.50	12573.36
469.69	13050.83
469.87	13067.21
470.05	13121.04
470.23	13165.51
470.41	12975.93
470.59	13114.02
470.77	13355.10
470.95	13420.63
471.14	13408.93
471.32	13132.75
471.50	13752.99
471.68	13495.53
471.86	13598.51
472.04	13802.14
472.22	14022.15
472.40	13696.82
472.58	14005.77
472.77	14214.07
472.95	14141.52
473.13	14691.54
473.31	14146.20
473.49	14162.58
473.67	13994.06
473.85	14253.86
474.03	14562.81
474.21	14684.52
474.39	15105.82
474.57	15133.90
474.75	14958.36
474.93	15033.26
475.12	14927.94
475.30	15037.94
475.48	15084.75
475.66	15183.06
475.84	15108.16
476.02	15587.97
476.20	15396.04
476.38	15653.50
476.56	16065.44
476.74	15955.43
476.92	16049.05
477.10	16098.20
477.28	16397.79
477.46	16304.17
477.64	16081.82
477.82	16435.24
478.00	17135.06
478.18	16821.43
478.36	16865.90
478.54	17062.51
478.72	17104.64
478.90	17460.40
479.08	17561.04
479.26	17888.71
479.44	17832.54
479.62	17848.93
479.80	18228.09
479.98	18466.83
480.16	18565.13
480.34	18408.31
480.52	18808.54
480.70	18948.98
480.88	18380.23
481.06	18637.69
481.24	18860.04
481.41	19267.29
481.59	19377.30
481.77	19648.80
481.95	19714.33
482.13	20046.69
482.31	19894.55
482.49	20500.75
482.67	20201.16
482.85	20549.90
483.03	20690.34
483.21	20713.74
483.39	21338.66
483.57	20765.23
483.74	21507.18
483.92	21502.50
484.10	21507.18
484.28	21556.33
484.46	22047.85
484.64	22012.74
484.82	21900.39
485.00	22527.66
485.18	22824.90
485.35	22778.09
485.53	22960.66
485.71	22972.36
485.89	23449.83
486.07	23644.09
486.25	23538.77
486.43	23821.97
486.61	24187.10
486.78	23686.22
486.96	24418.81
487.14	24418.81
487.32	24889.26
487.50	24889.26
487.68	25158.42
487.85	25357.36
488.03	25439.28
488.21	25645.25
488.39	25408.86
488.57	26319.32
488.75	26295.92
488.92	26562.74
489.10	26977.01
489.28	27077.66
489.46	27056.59
489.64	26965.31
489.81	27744.71
489.99	27740.03
490.17	27843.01
490.35	28095.79
490.53	28105.15
490.70	28514.75
490.88	28395.38
491.06	29069.45
491.24	28797.95
491.41	29226.27
491.59	29546.92
491.77	29448.62
491.95	29818.42
492.13	29670.97
492.30	30228.02
492.48	30206.95
492.66	30110.99
492.84	30843.58
493.01	30637.61
493.19	30740.60
493.37	31445.10
493.54	31316.37
493.72	31878.10
493.90	31887.46
494.08	32187.05
494.25	32245.56
494.43	31929.59
494.61	32063.00
494.79	32643.45
494.96	32428.12
495.14	32952.40
495.32	33036.66
495.49	33301.14
495.67	33420.51
495.85	33699.03
496.02	33790.31
496.20	33855.85
496.38	33488.38
496.55	34724.19
496.73	35096.33
496.91	34724.19
497.09	35360.81
497.26	35241.45
497.44	34845.90
497.62	35262.51
497.79	36081.70
497.97	35835.94
498.14	36493.63
498.32	36280.64
498.50	36095.74
498.67	36383.63
498.85	36659.81
499.03	36753.43
499.20	36931.31
499.38	37158.34
499.56	37298.78
499.73	37359.63
499.91	37486.02
500.08	37699.01
500.26	37858.17
500.44	37734.12
500.61	37844.12
500.79	38197.54
500.97	38178.82
501.14	38483.09
501.32	38501.81
501.49	38398.83
501.67	38937.15
501.84	39105.67
502.02	39063.54
502.20	39189.93
502.37	39629.95
502.55	39449.73
502.72	39309.30
502.90	39697.83
503.07	39885.07
503.25	40165.93
503.43	40098.06
503.60	40231.47
503.78	40357.86
503.95	40318.07
504.13	40830.65
504.30	41015.55
504.48	40547.44
504.65	40802.56
504.83	40814.26
505.01	41048.32
505.18	41364.29
505.36	41886.23
505.53	41216.83
505.71	41642.81
505.88	41666.22
506.06	41769.20
506.23	42019.64
506.41	41652.17
506.58	42263.05
506.76	42396.46
506.93	42462.00
507.11	42469.02
507.28	42735.84
507.46	42270.08
507.63	42997.98
507.81	43168.84
507.98	43124.37
508.16	43210.97
508.33	43737.59
508.50	43608.86
508.68	43821.85
508.85	43988.03
509.03	43798.44
509.20	44252.51
509.38	44322.72
509.55	44849.35
509.73	44451.45
509.90	45010.84
510.08	44933.60
510.25	44589.55
510.42	44872.75
510.60	44856.37
510.77	45502.35
510.95	45942.38
511.12	45244.90
511.30	45453.20
511.47	45930.67
511.64	45507.04
511.82	46089.83
511.99	45942.38
512.17	46120.26
512.34	46115.58
512.51	46855.18
512.69	46375.37
512.86	46590.70
513.04	46841.14
513.21	47044.77
513.38	47285.84
513.56	47309.25
513.73	46960.51
513.90	46955.83
514.08	46902.00
514.25	47332.65
514.43	48032.47
514.60	47442.66
514.77	47573.73
514.95	47845.23
515.12	48048.86
515.29	47934.17
515.47	48044.18
515.64	48418.66
515.81	48177.59
515.99	48308.66
516.16	48409.30
516.33	48425.68
516.51	48711.23
516.68	48446.75
516.85	48744.00
517.03	49272.96
517.20	49282.32
517.37	49134.87
517.54	48931.24
517.72	49052.95
517.89	49247.21
518.06	48767.40
518.24	49144.23
518.41	49691.91
518.58	49689.57
518.75	49492.97
518.93	49441.48
519.10	49446.16
519.27	49773.83
519.45	50321.52
519.62	50202.15
519.79	50059.38
519.96	49996.18
520.14	50265.34
520.31	50028.95
520.48	50380.03
520.65	50429.18
520.83	50836.44
521.00	50880.91
521.17	50632.81
521.34	50845.80
521.52	51124.32
521.69	50834.10
521.86	51166.45
522.03	51213.26
522.20	51290.50
522.38	51199.22
522.55	51400.50
522.72	51285.82
522.89	51227.31
523.07	52079.26
523.24	51674.35
523.41	51711.80
523.58	51636.90
523.75	52266.50
523.92	52011.38
524.10	51992.66
524.27	51842.87
524.44	52172.88
524.61	52163.52
524.78	51983.30
524.96	52697.16
525.13	52643.33
525.30	52219.69
525.47	52561.41
525.64	52545.03
525.81	52397.57
525.98	52905.47
526.16	52921.85
526.33	52706.52
526.50	53155.91
526.67	52891.43
526.84	52842.27
527.01	52844.62
527.18	52907.81
527.36	52758.02
527.53	53141.86
527.70	53160.59
527.87	53546.78
528.04	53303.36
528.21	53556.14
528.38	53265.91
528.55	53521.03
528.72	53471.88
528.89	53633.38
529.07	53408.68
529.24	53387.62
529.41	53792.53
529.58	53738.70
529.75	54035.95
529.92	53888.49
530.09	53881.47
530.26	54305.11
530.43	54199.79
530.60	53532.73
530.77	53734.02
530.94	54167.02
531.11	54122.55
531.28	54178.72
531.46	53951.69
531.63	54157.66
531.80	54197.44
531.97	54300.43
532.14	54759.17
532.31	54749.81
532.48	54880.88
532.65	54644.49
532.82	54417.46
532.99	54803.64
533.16	54789.60
533.33	54904.29
533.50	55040.04
533.67	54838.75
533.84	54850.45
534.01	55014.29
534.18	55063.44
534.35	55388.78
534.52	55171.11
534.69	55468.36
534.86	55421.55
535.03	55262.39
535.20	55508.14
535.37	55241.32
535.54	55306.86
535.71	55416.86
535.88	55346.65
536.05	55440.27
536.22	55618.15
536.38	55688.37
536.55	55959.87
536.72	55718.79
536.89	55688.37
537.06	55669.64
537.23	55737.52
537.40	55721.13
537.57	55927.10
537.74	56072.21
537.91	56039.45
538.08	56126.05
538.25	55976.25
538.42	56163.50
538.59	56245.41
538.75	56020.72
538.92	56133.07
539.09	56416.27
539.26	56313.29
539.43	56140.09
539.60	56320.31
539.77	56343.72
539.94	56500.53
540.11	56355.42
540.28	56456.06
540.44	56406.91
540.61	56488.83
540.78	56439.68
540.95	56444.36
541.12	56303.93
541.29	56500.53
541.46	56568.41
541.62	56772.03
541.79	56530.96
541.96	56439.68
542.13	56825.87
542.30	56779.06
542.47	57006.09
542.63	56832.89
542.80	57017.79
542.97	56954.60
543.14	57190.99
543.31	57202.69
543.48	57289.29
543.64	57544.41
543.81	57616.97
543.98	57537.39
544.15	57492.92
544.32	57523.35
544.48	57696.55
544.65	57663.78
544.82	57628.67
544.99	57441.43
545.16	57584.20
545.32	57499.94
545.49	57813.57
545.66	57956.35
545.83	57858.04
546.00	57771.44
546.16	57848.68
546.33	57523.35
546.50	57469.51
546.67	57776.12
546.83	57497.60
547.00	58019.54
547.17	58052.31
547.34	57944.64
547.50	57923.58
547.67	58115.50
547.84	58335.51
548.00	58120.18
548.17	58321.47
548.34	58155.29
548.51	58419.77
548.67	58064.01
548.84	58192.74
549.01	58038.26
549.18	58054.65
549.34	58185.72
549.51	58539.14
549.68	58539.14
549.84	58410.41
550.01	58295.72
550.18	58293.38
550.34	58466.58
550.51	58611.70
550.68	58637.44
550.84	58260.62
551.01	58571.91
551.18	58717.02
551.34	58866.81
551.51	58688.93
551.68	58592.97
551.84	58546.16
552.01	58712.34
552.18	58677.23
552.34	58693.61
552.51	58883.20
552.68	58672.55
552.84	58731.06
553.01	59185.13
553.18	59051.72
553.34	59075.12
553.51	58761.49
553.67	58883.20
553.84	58960.44
554.01	59093.85
554.17	59288.11
554.34	59231.94
554.51	59229.60
554.67	59253.00
554.84	58974.48
555.00	59082.14
555.17	59180.45
555.33	59236.62
555.50	59166.40
555.67	59103.21
555.83	59238.96
556.00	59194.49
556.16	59746.86
556.33	59269.39
556.50	59131.29
556.66	59480.03
556.83	59114.91
556.99	59585.36
557.16	59566.63
557.32	59568.97
557.49	59629.83
557.65	59463.65
557.82	59526.84
557.98	59414.50
558.15	59512.80
558.32	59636.85
558.48	59456.63
558.65	59526.84
558.81	59306.83
558.98	59646.21
559.14	59863.88
559.31	59854.52
559.47	59786.64
559.64	59896.65
559.80	59884.95
559.97	60004.31
560.13	59718.77
560.30	59838.14
560.46	59854.52
560.63	59983.25
560.79	59737.49
560.96	59978.57
561.12	59831.11
561.29	59941.12
561.45	60072.19
561.61	59906.01
561.78	60018.36
561.94	59952.82
562.11	59887.29
562.27	60184.54
562.44	60126.02
562.60	59945.80
562.77	60023.04
562.93	59915.37
563.10	60168.15
563.26	59971.55
563.42	60200.92
563.59	60257.09
563.75	59824.09
563.92	60156.45
564.08	60219.64
564.24	60491.15
564.41	60165.81
564.57	60126.02
564.74	60285.18
564.90	60313.26
565.07	60074.53
565.23	60121.34
565.39	60116.66
565.56	60247.73
565.72	60203.26
565.88	60376.46
566.05	60179.85
566.21	60097.94
566.38	60273.48
566.54	60587.11
566.70	60430.29
566.87	60427.95
567.03	60182.19
567.19	60498.17
567.36	60266.45
567.52	60317.95
567.68	60687.75
567.85	60395.18
568.01	60807.12
568.17	60355.39
568.34	60631.58
568.50	60406.89
568.66	60327.31
568.83	60460.72
568.99	60397.52
569.15	60479.44
569.32	60444.33
569.48	60369.44
569.64	60449.02
569.81	60554.34
569.97	60367.10
570.13	60561.36
570.30	60402.21
570.46	60528.59
570.62	60589.45
570.78	60697.11
570.95	60699.45
571.11	60636.26
571.27	60633.92
571.43	60645.62
571.60	60706.47
571.76	60601.15
571.92	60575.40
572.09	60589.45
572.25	60575.40
572.41	60676.05
572.57	60739.24
572.74	60938.19
572.90	60732.22
573.06	60603.49
573.22	60853.93
573.38	60832.86
573.55	60629.24
573.71	60933.51
573.87	60914.78
574.03	60654.98
574.20	60687.75
574.36	60818.82
574.52	60860.95
574.68	60825.84
574.84	60603.49
575.01	60858.61
575.17	60666.69
575.33	60856.27
575.49	60842.23
575.65	60776.69
575.82	60839.89
575.98	60872.65
576.14	61132.45
576.30	60952.23
576.46	60786.05
576.62	60769.67
576.79	60884.36
576.95	60727.54
577.11	60898.40
577.27	60931.17
577.43	60954.57
577.59	60818.82
577.75	60954.57
577.92	60769.67
578.08	60879.67
578.24	60961.59
578.40	60898.40
578.56	60982.66
578.72	61006.06
578.88	61043.51
579.04	61052.87
579.21	61120.75
579.37	61048.19
579.53	61212.03
579.69	60982.66
579.85	60970.96
580.01	60912.44
580.17	60945.21
580.33	60996.70
580.49	61003.72
580.65	60959.25
580.82	61006.06
580.98	61120.75
581.14	60924.14
581.30	61169.90
581.46	60793.07
581.62	60919.46
581.78	60973.30
581.94	61228.41
582.10	60905.42
582.26	60917.12
582.42	61022.45
582.58	60961.59
582.74	61027.13
582.90	61116.07
583.06	61001.38
583.22	60980.32
583.38	61055.21
583.54	61034.15
583.70	61169.90
583.86	61017.77
584.02	61097.34
584.18	61193.31
584.34	61174.58
584.50	60989.68
584.66	60935.85
584.82	60804.78
584.98	61069.26
585.14	60989.68
585.30	60816.48
585.46	61155.86
585.62	61190.97
585.78	61312.67
585.94	60947.55
586.10	61041.17
586.26	61071.60
586.42	61127.77
586.58	61312.67
586.74	61275.22
586.90	61144.16
587.06	61045.85
587.22	61326.72
587.38	61113.73
587.54	61343.10
587.70	61478.85
587.86	61343.10
588.02	61080.96
588.18	61190.97
588.34	60980.32
588.49	61027.13
