SpectraSuite Data File
++++++++++++++++++++++++++++++++++++
Date: Fri Oct 25 11:25:09 EDT 2013
User: price-jones
Dark Spectrum Present: No
Reference Spectrum Present: No
Number of Sampled Component Spectra: 1
Spectrometers: USB2+H05261
Integration Time (usec): 100000 (USB2+H05261)
Spectra Averaged: 1 (USB2+H05261)
Boxcar Smoothing: 0 (USB2+H05261)
Correct for Electrical Dark: No (USB2+H05261)
Strobe/Lamp Enabled: No (USB2+H05261)
Correct for Detector Non-linearity: No (USB2+H05261)
Correct for Stray Light: No (USB2+H05261)
Number of Pixels in Processed Spectrum: 2048
>>>>>Begin Processed Spectral Data<<<<<
365.73	198.95
365.92	198.95
366.12	198.95
366.32	149.79
366.52	152.13
366.72	91.28
366.91	117.03
367.11	149.79
367.31	161.50
367.51	95.96
367.70	95.96
367.90	145.11
368.10	119.37
368.30	149.79
368.49	95.96
368.69	161.50
368.89	182.56
369.09	182.56
369.28	161.50
369.48	196.60
369.68	208.31
369.87	262.14
370.07	236.39
370.27	231.71
370.47	334.70
370.66	634.29
370.86	575.77
371.06	606.20
371.25	692.80
371.45	608.54
371.65	678.76
371.84	596.84
372.04	716.20
372.24	685.78
372.44	744.29
372.63	718.54
372.83	685.78
373.03	688.12
373.22	767.70
373.42	737.27
373.62	770.04
373.81	777.06
374.01	854.30
374.21	741.95
374.40	772.38
374.60	772.38
374.79	830.89
374.99	781.74
375.19	821.53
375.38	814.51
375.58	908.13
375.78	891.74
375.97	887.06
376.17	889.40
376.37	861.32
376.56	866.00
376.76	863.66
376.95	866.00
377.15	851.96
377.35	844.93
377.54	950.26
377.74	938.55
377.93	931.53
378.13	844.93
378.33	947.92
378.52	959.62
378.72	945.58
378.91	1029.84
379.11	931.53
379.31	957.28
379.50	961.96
379.70	933.87
379.89	898.77
380.09	968.98
380.28	1046.22
380.48	999.41
380.68	1013.45
380.87	952.60
381.07	1018.13
381.26	1041.54
381.46	992.39
381.65	1057.92
381.85	1137.50
382.04	1048.56
382.24	1013.45
382.43	1029.84
382.63	1055.58
382.83	1069.62
383.02	1029.84
383.22	1135.16
383.41	1053.24
383.61	1069.62
383.80	1163.25
384.00	1053.24
384.19	1097.71
384.39	1198.35
384.58	1109.41
384.78	1123.46
384.97	1074.31
385.17	1104.73
385.36	1181.97
385.56	1153.88
385.75	1118.78
385.95	1245.16
386.14	1111.75
386.34	1242.82
386.53	1252.19
386.72	1235.80
386.92	1254.53
387.11	1231.12
387.31	1263.89
387.50	1252.19
387.70	1144.52
387.89	1294.32
388.09	1170.27
388.28	1235.80
388.48	1261.55
388.67	1261.55
388.86	1287.29
389.06	1289.64
389.25	1289.64
389.45	1373.89
389.64	1394.96
389.84	1235.80
390.03	1404.32
390.22	1432.41
390.42	1378.58
390.61	1315.38
390.81	1406.66
391.00	1481.56
391.19	1444.11
391.39	1320.06
391.58	1357.51
391.78	1504.96
391.97	1467.52
392.16	1376.24
392.36	1502.62
392.55	1537.73
392.75	1568.16
392.94	1502.62
393.13	1514.33
393.33	1465.18
393.52	1612.63
393.71	1579.86
393.91	1589.22
394.10	1570.50
394.29	1568.16
394.49	1535.39
394.68	1675.82
394.88	1614.97
395.07	1657.10
395.26	1617.31
395.46	1652.42
395.65	1687.53
395.84	1764.76
396.04	1830.30
396.23	1659.44
396.42	1769.44
396.62	1860.73
396.81	1846.68
397.00	1853.70
397.19	1832.64
397.39	1832.64
397.58	1865.41
397.77	1907.54
397.97	1832.64
398.16	1886.47
398.35	1860.73
398.55	1973.07
398.74	1947.33
398.93	1959.03
399.12	1856.04
399.32	1975.41
399.51	2017.54
399.70	1923.92
399.90	1954.35
400.09	2083.08
400.28	2062.01
400.47	2052.65
400.67	2122.87
400.86	2073.71
401.05	2038.61
401.24	1987.11
401.44	2214.15
401.63	2139.25
401.82	2085.42
402.01	2062.01
402.21	2069.03
402.40	2172.02
402.59	2235.21
402.78	2249.25
402.97	2200.10
403.17	2289.04
403.36	2251.60
403.55	2263.30
403.74	2298.41
403.93	2275.00
404.13	2396.71
404.32	2289.04
404.51	2366.28
404.70	2434.16
404.89	2263.30
405.09	2516.08
405.28	2448.20
405.47	2502.03
405.66	2476.29
405.85	2558.21
406.05	2588.63
406.24	2438.84
406.43	2485.65
406.62	2675.23
406.81	2719.70
407.00	2586.29
407.20	2593.31
407.39	2663.53
407.58	2712.68
407.77	2787.58
407.96	2750.13
408.15	2686.94
408.34	2771.19
408.54	2743.11
408.73	2864.82
408.92	2808.64
409.11	2827.37
409.30	2841.41
409.49	2892.90
409.68	2878.86
409.87	2974.82
410.07	2942.05
410.26	2937.37
410.45	2979.50
410.64	2939.71
410.83	2988.86
411.02	3129.30
411.21	3166.74
411.40	3173.77
411.59	3204.19
411.78	3169.09
411.98	3222.92
412.17	3279.09
412.36	3248.66
412.55	3290.79
412.74	3307.18
412.93	3232.28
413.12	3258.03
413.31	3356.33
413.50	3400.80
413.69	3538.89
413.88	3555.27
414.07	3576.34
414.26	3756.56
414.45	3590.38
414.64	3653.58
414.83	3786.99
415.02	3702.73
415.22	3660.60
415.41	3997.64
415.60	3873.59
415.79	3803.37
415.98	3899.33
416.17	4084.23
416.36	3915.72
416.55	3955.51
416.74	3978.91
416.93	3969.55
417.12	3969.55
417.31	4037.42
417.50	4098.28
417.69	4287.86
417.88	4248.07
418.07	4039.76
418.26	4231.69
418.45	4313.61
418.64	4376.80
418.83	4341.69
419.02	4304.25
419.21	4547.66
419.39	4531.28
419.58	4381.48
419.77	4372.12
419.96	4409.57
420.15	4444.68
420.34	4423.61
420.53	4545.32
420.72	4662.35
420.91	4704.48
421.10	4629.58
421.29	4908.10
421.48	4652.98
421.67	4723.20
421.86	4868.31
422.05	4840.23
422.24	4826.18
422.43	4795.76
422.61	4688.09
422.80	4940.87
422.99	4835.55
423.18	4910.44
423.37	4990.02
423.56	4821.50
423.75	4858.95
423.94	4805.12
424.13	4580.43
424.32	4638.94
424.50	4978.32
424.69	5057.90
424.88	5043.85
425.07	4894.06
425.26	4856.61
425.45	4889.38
425.64	5020.45
425.83	4880.02
426.01	4905.76
426.20	4950.23
426.39	5013.43
426.58	4971.30
426.77	5032.15
426.96	5001.72
427.15	5100.03
427.33	5317.70
427.52	5203.01
427.71	5362.17
427.90	5165.56
428.09	5252.16
428.28	5348.12
428.46	5327.06
428.65	5284.93
428.84	5420.68
429.03	5514.30
429.22	5235.78
429.40	5385.57
429.59	5561.11
429.78	5277.91
429.97	5315.36
430.16	5437.06
430.34	5479.19
430.53	5778.78
430.72	5633.67
430.91	5586.86
431.10	5591.54
431.28	5748.36
431.47	5893.47
431.66	5881.77
431.85	5827.93
432.03	5841.98
432.22	5884.11
432.41	5692.18
432.60	5717.93
432.79	5954.32
432.97	5762.40
433.16	6076.03
433.35	5963.68
433.54	6090.07
433.72	6148.59
433.91	6083.05
434.10	6218.80
434.28	6026.88
434.47	6115.82
434.66	6066.67
434.85	6239.87
435.03	6221.14
435.22	6211.78
435.41	6464.56
435.59	6216.46
435.78	6352.21
435.97	6436.47
436.16	6216.46
436.34	6317.11
436.53	6403.71
436.72	6745.42
436.90	6476.26
437.09	6478.60
437.28	6429.45
437.46	6448.18
437.65	6504.35
437.84	6569.88
438.02	6483.28
438.21	6616.69
438.40	6689.25
438.58	6897.56
438.77	7112.89
438.96	6761.81
439.14	7012.24
439.33	7117.57
439.52	7169.06
439.70	7208.85
439.89	7213.53
440.08	7414.82
440.26	7342.26
440.45	7290.77
440.63	7293.11
440.82	7396.09
441.01	7468.65
441.19	7293.11
441.38	7667.60
441.57	7683.98
441.75	7700.36
441.94	7810.37
442.12	7878.24
442.31	8107.62
442.50	7981.23
442.68	7946.12
442.87	7840.79
443.05	8035.06
443.24	8187.19
443.43	8011.65
443.61	8109.96
443.80	8332.31
443.98	7997.61
444.17	7644.19
444.35	8105.28
444.54	8238.69
444.73	8238.69
444.91	8299.54
445.10	8166.13
445.28	8226.98
445.47	8416.57
445.65	8365.07
445.84	8294.86
446.02	8386.14
446.21	8374.44
446.39	8189.53
446.58	8379.12
446.77	8624.87
446.95	8400.18
447.14	8510.19
447.32	8503.17
447.51	8255.07
447.69	8446.99
447.88	8299.54
448.06	8580.40
448.25	8463.38
448.43	8521.89
448.62	8444.65
448.80	8458.70
448.99	8580.40
449.17	8758.28
449.36	8741.90
449.54	8697.43
449.73	8884.67
449.91	8898.72
450.10	8844.88
450.28	8863.61
450.46	9085.96
450.65	8807.44
450.83	9050.85
451.02	8931.48
451.20	9046.17
451.39	9167.88
451.57	9039.15
451.76	8952.55
451.94	9135.11
452.13	9135.11
452.31	9296.61
452.49	9259.16
452.68	9336.40
452.86	9254.48
453.05	9394.91
453.23	9289.59
453.42	9268.52
453.60	9275.54
453.78	9483.85
453.97	9582.15
454.15	9322.35
454.34	9533.00
454.52	9516.62
454.70	9493.21
454.89	9572.79
455.07	9624.28
455.26	9600.88
455.44	9874.72
455.62	9809.19
455.81	9745.99
455.99	10057.28
456.17	10146.22
456.36	10015.15
456.54	9956.64
456.73	10085.37
456.91	10317.08
457.09	10169.63
457.28	10380.28
457.46	10281.97
457.64	10476.24
457.83	10413.04
458.01	10335.81
458.19	10731.36
458.38	10441.13
458.56	10586.24
458.74	10588.58
458.93	10478.58
459.11	10628.37
459.29	10689.23
459.48	10721.99
459.66	10665.82
459.84	10824.98
460.03	11052.01
460.21	11009.88
460.39	10946.69
460.57	10988.82
460.76	11117.54
460.94	11009.88
461.12	11229.89
461.31	11171.38
461.49	11208.83
461.67	10977.11
461.85	11358.62
462.04	11040.31
462.22	11749.49
462.40	11468.62
462.59	11487.35
462.77	11225.21
462.95	11438.20
463.13	11468.62
463.32	11623.10
463.50	11566.93
463.68	11810.34
463.86	11854.81
464.05	11454.58
464.23	11669.91
464.41	11829.07
464.59	11632.46
464.78	12245.68
464.96	11782.26
465.14	11782.26
465.32	11833.75
465.50	11887.58
465.69	11995.25
465.87	12056.10
466.05	12114.61
466.23	12175.47
466.41	12226.96
466.60	12388.46
466.78	12159.08
466.96	11899.28
467.14	11946.09
467.32	12334.62
467.51	12545.27
467.69	12051.42
467.87	12299.52
468.05	12582.72
468.23	12315.90
468.41	12250.36
468.60	12547.61
468.78	12589.74
468.96	12793.37
469.14	12716.13
469.32	12992.31
469.50	12685.70
469.69	12823.80
469.87	12884.65
470.05	12961.89
470.23	13170.19
470.41	13097.64
470.59	13151.47
470.77	13186.58
470.95	13275.52
471.14	13366.80
471.32	12968.91
471.50	13343.39
471.68	13266.16
471.86	13446.38
472.04	13600.85
472.22	13783.41
472.40	13556.38
472.58	13745.97
472.77	13804.48
472.95	14033.85
473.13	14555.79
473.31	13970.66
473.49	13987.04
473.67	14061.94
473.85	14359.19
474.03	14733.67
474.21	14380.25
474.39	14394.29
474.57	14544.09
474.75	15178.37
474.93	14829.63
475.12	14658.78
475.30	15288.38
475.48	14782.82
475.66	15279.02
475.84	14841.34
476.02	15171.35
476.20	15232.21
476.38	15700.31
476.56	15681.59
476.74	15805.64
476.92	15536.48
477.10	15681.59
477.28	15932.03
477.46	16035.01
477.64	16091.18
477.82	16285.45
478.00	16886.97
478.18	16437.58
478.36	16863.56
478.54	17081.23
478.72	17151.45
478.90	17277.83
479.08	17605.51
479.26	17369.12
479.44	17598.49
479.62	17624.23
479.80	17994.04
479.98	18101.70
480.16	18487.89
480.34	17961.27
480.52	18221.07
480.70	18670.45
480.88	18342.78
481.06	18621.30
481.24	18747.69
481.41	18780.46
481.59	18967.70
481.77	19253.25
481.95	19250.91
482.13	19611.35
482.31	19601.99
482.49	20030.30
482.67	20049.03
482.85	20034.99
483.03	20556.93
483.21	20746.51
483.39	20842.47
483.57	20774.60
483.74	20751.19
483.92	21415.90
484.10	20940.77
484.28	21891.03
484.46	21958.91
484.64	22080.61
484.82	21745.92
485.00	22298.28
485.18	22455.10
485.35	22759.37
485.53	22785.12
485.71	22691.49
485.89	23225.14
486.07	22881.08
486.25	23374.93
486.43	23140.88
486.61	23758.78
486.78	23810.27
486.96	24114.54
487.14	24629.46
487.32	24315.83
487.50	24779.25
487.68	25027.35
487.85	24933.73
488.03	25261.40
488.21	25591.42
488.39	25720.15
488.57	26031.44
488.75	25855.90
488.92	26513.59
489.10	26632.96
489.28	26508.91
489.46	26876.37
489.64	26834.24
489.81	27559.81
489.99	27281.28
490.17	27576.19
490.35	28018.55
490.53	28072.39
490.70	28226.86
490.88	28318.14
491.06	28453.89
491.24	28631.77
491.41	28741.78
491.59	29092.86
491.77	29109.24
491.95	29507.13
492.13	29872.26
492.30	29668.63
492.48	29944.81
492.66	30008.01
492.84	30036.09
493.01	30412.92
493.19	30333.34
493.37	30340.36
493.54	30504.20
493.72	30995.71
493.90	31370.20
494.08	31475.52
494.25	31707.24
494.43	31639.36
494.61	31725.96
494.79	32313.44
494.96	32294.71
495.14	32428.12
495.32	32940.70
495.49	32978.15
495.67	32849.42
495.85	33411.15
496.02	33642.86
496.20	33993.94
496.38	33851.17
496.55	33874.57
496.73	34609.50
496.91	34026.71
497.09	34572.05
497.26	35070.59
497.44	34792.06
497.62	35133.78
497.79	35264.85
497.97	35477.84
498.14	35683.81
498.32	35744.66
498.50	35995.10
498.67	36233.83
498.85	36154.26
499.03	36385.97
499.20	36266.60
499.38	36746.41
499.56	36804.92
499.73	36933.65
499.91	37106.85
500.08	37591.34
500.26	37205.16
500.44	37209.84
500.61	37600.71
500.79	37378.36
500.97	37778.59
501.14	38007.96
501.32	38363.72
501.49	38691.40
501.67	38314.57
501.84	38948.85
502.02	38745.23
502.20	38939.49
502.37	38960.56
502.55	38897.36
502.72	39021.41
502.90	39683.78
503.07	39557.39
503.25	39349.09
503.43	40009.12
503.60	39782.09
503.78	39768.04
503.95	39887.41
504.13	40205.72
504.30	40261.90
504.48	40329.77
504.65	40374.24
504.83	40886.82
505.01	40982.78
505.18	40935.97
505.36	41493.02
505.53	40989.80
505.71	41198.11
505.88	41219.17
506.06	41319.82
506.23	41827.71
506.41	41542.17
506.58	41556.21
506.76	41804.31
506.93	42234.97
507.11	41949.42
507.28	42153.05
507.46	42490.09
507.63	42927.77
507.81	43096.28
507.98	42548.60
508.16	42480.72
508.33	42836.48
508.50	43061.18
508.68	43044.79
508.85	43777.38
509.03	43498.86
509.20	43878.02
509.38	43945.90
509.55	43988.03
509.73	44236.12
509.90	44058.24
510.08	44201.02
510.25	44404.64
510.42	43821.85
510.60	44678.49
510.77	44531.03
510.95	45256.60
511.12	44746.36
511.30	44729.98
511.47	45020.20
511.64	45282.34
511.82	45319.79
511.99	45450.86
512.17	45691.94
512.34	45666.19
512.51	46274.73
512.69	46050.04
512.86	45785.56
513.04	46405.80
513.21	46234.94
513.38	46862.21
513.56	46600.07
513.73	46649.22
513.90	46820.08
514.08	46387.08
514.25	47079.88
514.43	47129.03
514.60	47012.00
514.77	46674.96
514.95	47526.92
515.12	47339.68
515.29	47489.47
515.47	47327.97
515.64	48004.39
515.81	47517.56
515.99	48156.52
516.16	47999.71
516.33	47899.06
516.51	48397.60
516.68	48355.47
516.85	48308.66
517.03	48177.59
517.20	48832.94
517.37	48313.34
517.54	48268.87
517.72	48870.39
517.89	48491.22
518.06	48804.85
518.24	49055.29
518.41	49015.50
518.58	49165.29
518.75	48666.76
518.93	49319.77
519.10	49097.42
519.27	49532.76
519.45	49413.39
519.62	49593.61
519.79	49799.58
519.96	49673.19
520.14	49963.42
520.31	49916.61
520.48	50141.30
520.65	50571.96
520.83	50412.80
521.00	50337.90
521.17	50330.88
521.34	50394.07
521.52	50653.87
521.69	50649.19
521.86	50773.24
522.03	50817.71
522.20	50831.75
522.38	51035.38
522.55	51257.73
522.72	51154.75
522.89	51082.19
523.07	51416.89
523.24	51419.23
523.41	51564.34
523.58	51241.35
523.75	51786.69
523.92	51482.42
524.10	51531.57
524.27	51779.67
524.44	51910.74
524.61	51962.23
524.78	51774.99
524.96	52200.97
525.13	52023.09
525.30	52163.52
525.47	52074.58
525.64	52226.71
525.81	52566.09
525.98	52561.41
526.16	52341.40
526.33	52446.72
526.50	52617.58
526.67	52491.19
526.84	52673.76
527.01	52406.94
527.18	52493.54
527.36	52561.41
527.53	52760.36
527.70	53057.60
527.87	53359.53
528.04	52903.13
528.21	53123.14
528.38	53045.90
528.55	53434.43
528.72	53249.53
528.89	53385.28
529.07	53010.79
529.24	53125.48
529.41	53289.32
529.58	53647.42
529.75	53525.71
529.92	53422.73
530.09	53516.35
530.26	53591.25
530.43	53881.47
530.60	53628.69
530.77	53532.73
530.94	53680.19
531.11	53792.53
531.28	53874.45
531.46	53879.13
531.63	54141.27
531.80	54171.70
531.97	54131.91
532.14	54106.16
532.31	54195.10
532.48	54440.86
532.65	54480.65
532.82	54326.17
532.99	54387.03
533.16	54518.10
533.33	54665.55
533.50	54628.10
533.67	54445.54
533.84	54349.58
534.01	54405.75
534.18	54972.16
534.35	55061.10
534.52	54918.33
534.69	54927.69
534.86	54981.52
535.03	54813.01
535.20	54904.29
535.37	55028.34
535.54	55152.38
535.71	54791.94
535.88	55189.83
536.05	55327.92
536.22	55325.58
536.38	55288.13
536.55	55363.03
536.72	55400.48
536.89	55540.91
537.06	55423.89
537.23	55632.19
537.40	55604.11
537.57	55311.54
537.74	55435.59
537.91	55569.00
538.08	55957.53
538.25	55561.98
538.42	55798.37
538.59	55952.85
538.75	55718.79
538.92	55971.57
539.09	56123.71
539.26	55763.26
539.43	55753.90
539.60	55955.19
539.77	55861.57
539.94	56383.51
540.11	56280.52
540.28	55887.31
540.44	56126.05
540.61	56072.21
540.78	56093.28
540.95	56245.41
541.12	56395.21
541.29	56039.45
541.46	56376.48
541.62	56399.89
541.79	56484.15
541.96	56093.28
542.13	56252.44
542.30	56371.80
542.47	56580.11
542.63	56413.93
542.80	56772.03
542.97	56935.87
543.14	57111.41
543.31	56875.02
543.48	57223.76
543.64	57022.47
543.81	57350.15
543.98	57212.06
544.15	57282.27
544.32	57277.59
544.48	57097.37
544.65	57298.65
544.82	57078.64
544.99	57109.07
545.16	57048.22
545.32	57120.77
545.49	57439.09
545.66	57698.89
545.83	57392.28
546.00	57600.58
546.16	57408.66
546.33	57291.63
546.50	57099.71
546.67	57525.69
546.83	57425.04
547.00	57513.98
547.17	57684.84
547.34	57471.85
547.50	57750.38
547.67	57813.57
547.84	57773.78
548.00	57769.10
548.17	58110.82
548.34	57790.17
548.51	58211.46
548.67	58028.90
548.84	57839.32
549.01	57818.25
549.18	58019.54
549.34	58171.67
549.51	58064.01
549.68	58096.78
549.84	58230.19
550.01	58394.03
550.18	57918.90
550.34	58134.23
550.51	58295.72
550.68	58157.63
550.84	58038.26
551.01	58522.76
551.18	58164.65
551.34	58349.56
551.51	58518.07
551.68	58356.58
551.84	58262.96
552.01	58176.36
552.18	58527.44
552.34	58174.02
552.51	58831.71
552.68	58567.23
552.84	58440.84
553.01	58810.64
553.18	58546.16
553.34	58695.95
553.51	58356.58
553.67	58742.77
553.84	58815.32
554.01	58983.84
554.17	58906.60
554.34	58918.31
554.51	58770.85
554.67	58812.98
554.84	58841.07
555.00	58761.49
555.17	58635.10
555.33	58974.48
555.50	58852.77
555.67	58864.47
555.83	58897.24
556.00	58974.48
556.16	59363.01
556.33	59150.02
556.50	58986.18
556.66	59070.44
556.83	58932.35
556.99	59288.11
557.16	59288.11
557.32	59222.58
557.49	59332.58
557.65	59295.13
557.82	59320.88
557.98	59128.95
558.15	59327.90
558.32	59344.28
558.48	59201.51
558.65	59231.94
558.81	59412.16
558.98	59416.84
559.14	59327.90
559.31	59517.48
559.47	59440.24
559.64	59550.25
559.80	59608.76
559.97	59456.63
560.13	59330.24
560.30	59611.10
560.46	59650.89
560.63	59810.05
560.79	59524.50
560.96	59730.47
561.12	59723.45
561.29	59868.56
561.45	59859.20
561.61	59547.91
561.78	59714.09
561.94	59554.93
562.11	59690.68
562.27	59735.15
562.44	59702.38
562.60	59936.44
562.77	59671.96
562.93	59601.74
563.10	60013.68
563.26	59732.81
563.42	59962.18
563.59	59901.33
563.75	59819.41
563.92	59873.24
564.08	59737.49
564.24	60025.38
564.41	59774.94
564.57	60231.35
564.74	59920.05
564.90	59779.62
565.07	60107.30
565.23	59978.57
565.39	59950.48
565.56	59941.12
565.72	59964.52
565.88	60137.72
566.05	59906.01
566.21	60032.40
566.38	59894.31
566.54	60016.02
566.70	60322.63
566.87	60203.26
567.03	60023.04
567.19	60301.56
567.36	60348.37
567.52	60114.32
567.68	60329.65
567.85	60158.79
568.01	60453.70
568.17	60123.68
568.34	60193.90
568.50	59994.95
568.66	60367.10
568.83	60069.85
568.99	59936.44
569.15	60243.05
569.32	60250.07
569.48	60236.03
569.64	60397.52
569.81	60156.45
569.97	60329.65
570.13	60362.42
570.30	60217.30
570.46	60247.73
570.62	60261.77
570.78	60383.48
570.95	60313.26
571.11	60409.23
571.27	60224.32
571.43	60376.46
571.60	60514.55
571.76	60317.95
571.92	60411.57
572.09	60383.48
572.25	60399.86
572.41	60257.09
572.57	60420.93
572.74	60514.55
572.90	60292.20
573.06	60168.15
573.22	60608.17
573.38	60512.21
573.55	60449.02
573.71	60591.79
573.87	60495.83
574.03	60369.44
574.20	60554.34
574.36	60488.80
574.52	60491.15
574.68	60509.87
574.84	60561.36
575.01	60638.60
575.17	60603.49
575.33	60444.33
575.49	60355.39
575.65	60575.40
575.82	60671.37
575.98	60477.10
576.14	60800.10
576.30	60591.79
576.46	60472.42
576.62	60402.21
576.79	60699.45
576.95	60463.06
577.11	60657.32
577.27	60793.07
577.43	60762.65
577.59	60638.60
577.75	60512.21
577.92	60453.70
578.08	60566.04
578.24	60821.16
578.40	60874.99
578.56	60889.04
578.72	60680.73
578.88	60589.45
579.04	60889.04
579.21	60622.22
579.37	60917.12
579.53	60774.35
579.69	60348.37
579.85	60477.10
580.01	60615.19
580.17	60573.06
580.33	60790.73
580.49	60559.02
580.65	61008.40
580.82	60580.09
580.98	60678.39
581.14	60732.22
581.30	60720.52
581.46	60844.57
581.62	60720.52
581.78	60540.30
581.94	60666.69
582.10	60739.24
582.26	60755.63
582.42	60664.35
582.58	60783.71
582.74	60697.11
582.90	60746.26
583.06	60729.88
583.22	60530.93
583.38	60584.77
583.54	60722.86
583.70	60982.66
583.86	60706.47
584.02	60666.69
584.18	60837.54
584.34	60608.17
584.50	60769.67
584.66	60645.62
584.82	60708.82
584.98	60970.96
585.14	60872.65
585.30	60566.04
585.46	61052.87
585.62	60835.20
585.78	60835.20
585.94	60722.86
586.10	60889.04
586.26	61076.28
586.42	60896.06
586.58	60992.02
586.74	60973.30
586.90	60823.50
587.06	60729.88
587.22	60921.80
587.38	60858.61
587.54	60945.21
587.70	61092.66
587.86	60931.17
588.02	60795.42
588.18	61146.50
588.34	60891.38
588.49	61015.43
