SpectraSuite Data File
++++++++++++++++++++++++++++++++++++
Date: Fri Oct 25 10:44:37 EDT 2013
User: price-jones
Dark Spectrum Present: No
Reference Spectrum Present: No
Number of Sampled Component Spectra: 1
Spectrometers: USB2+H05261
Integration Time (usec): 100000 (USB2+H05261)
Spectra Averaged: 1 (USB2+H05261)
Boxcar Smoothing: 0 (USB2+H05261)
Correct for Electrical Dark: No (USB2+H05261)
Strobe/Lamp Enabled: No (USB2+H05261)
Correct for Detector Non-linearity: No (USB2+H05261)
Correct for Stray Light: No (USB2+H05261)
Number of Pixels in Processed Spectrum: 2048
>>>>>Begin Processed Spectral Data<<<<<
365.73	173.20
365.92	173.20
366.12	173.20
366.32	93.62
366.52	53.83
366.72	7.02
366.91	49.15
367.11	4.68
367.31	0.00
367.51	4.68
367.70	30.43
367.90	63.19
368.10	0.00
368.30	35.11
368.49	0.00
368.69	44.47
368.89	67.88
369.09	30.43
369.28	86.60
369.48	49.15
369.68	49.15
369.87	67.88
370.07	44.47
370.27	88.94
370.47	142.77
370.66	322.99
370.86	383.85
371.06	451.72
371.25	468.11
371.45	393.21
371.65	468.11
371.84	430.66
372.04	421.30
372.24	458.74
372.44	482.15
372.63	503.22
372.83	498.53
373.03	524.28
373.22	437.68
373.42	505.56
373.62	526.62
373.81	531.30
374.01	524.28
374.21	496.19
374.40	456.40
374.60	564.07
374.79	512.58
374.99	578.11
375.19	498.53
375.38	512.58
375.58	540.66
375.78	596.84
375.97	564.07
376.17	535.98
376.37	571.09
376.56	559.39
376.76	603.86
376.95	517.26
377.15	608.54
377.35	547.69
377.54	645.99
377.74	564.07
377.93	613.22
378.13	517.26
378.33	657.69
378.52	566.41
378.72	608.54
378.91	538.32
379.11	615.56
379.31	587.47
379.50	528.96
379.70	653.01
379.89	648.33
380.09	573.43
380.28	629.60
380.48	624.92
380.68	585.13
380.87	617.90
381.07	723.23
381.26	641.31
381.46	568.75
381.65	587.47
381.85	702.16
382.04	713.86
382.24	671.73
382.43	610.88
382.63	660.03
382.83	638.97
383.02	671.73
383.22	723.23
383.41	706.84
383.61	690.46
383.80	683.44
384.00	739.61
384.19	739.61
384.39	739.61
384.58	732.59
384.78	767.70
384.97	741.95
385.17	716.20
385.36	725.57
385.56	716.20
385.75	699.82
385.95	695.14
386.14	866.00
386.34	847.27
386.53	758.33
386.72	760.67
386.92	744.29
387.11	814.51
387.31	802.80
387.50	812.17
387.70	734.93
387.89	889.40
388.09	826.21
388.28	805.14
388.48	765.36
388.67	833.23
388.86	830.89
389.06	891.74
389.25	875.36
389.45	959.62
389.64	882.38
389.84	926.85
390.03	882.38
390.22	959.62
390.42	898.77
390.61	863.66
390.81	931.53
391.00	924.51
391.19	980.68
391.39	957.28
391.58	943.24
391.78	945.58
391.97	910.47
392.16	933.87
392.36	1015.79
392.55	1088.35
392.75	999.41
392.94	945.58
393.13	1006.43
393.33	945.58
393.52	999.41
393.71	1027.50
393.91	992.39
394.10	980.68
394.29	1008.77
394.49	1093.03
394.68	1100.05
394.88	1132.82
395.07	1123.46
395.26	1083.67
395.46	1104.73
395.65	1102.39
395.84	1060.26
396.04	1142.18
396.23	1095.37
396.42	1013.45
396.62	1170.27
396.81	1071.97
397.00	1121.12
397.19	1174.95
397.39	1179.63
397.58	1214.74
397.77	1172.61
397.97	1317.72
398.16	1254.53
398.35	1289.64
398.55	1261.55
398.74	1345.81
398.93	1345.81
399.12	1214.74
399.32	1299.00
399.51	1240.48
399.70	1467.52
399.90	1317.72
400.09	1425.39
400.28	1446.45
400.47	1401.98
400.67	1420.71
400.86	1516.67
401.05	1432.41
401.24	1427.73
401.44	1540.07
401.63	1481.56
401.82	1507.30
402.01	1465.18
402.21	1453.47
402.40	1497.94
402.59	1568.16
402.78	1504.96
402.97	1497.94
403.17	1493.26
403.36	1526.03
403.55	1593.90
403.74	1591.56
403.93	1643.06
404.13	1673.48
404.32	1624.33
404.51	1605.61
404.70	1696.89
404.89	1640.72
405.09	1682.85
405.28	1748.38
405.47	1750.72
405.66	1884.13
405.85	1764.76
406.05	1785.83
406.24	1783.49
406.43	1753.06
406.62	1895.83
406.81	1916.90
407.00	1870.09
407.20	1837.32
407.39	1909.88
407.58	1741.36
407.77	1987.11
407.96	1914.56
408.15	1944.99
408.34	1893.49
408.54	1944.99
408.73	2005.84
408.92	2012.86
409.11	1987.11
409.30	2092.44
409.49	1994.14
409.68	1973.07
409.87	2054.99
410.07	2150.95
410.26	2101.80
410.45	2078.40
410.64	2181.38
410.83	2165.00
411.02	2256.28
411.21	2340.54
411.40	2256.28
411.59	2291.38
411.78	2354.58
411.98	2354.58
412.17	2328.83
412.36	2377.98
412.55	2415.43
412.74	2443.52
412.93	2307.77
413.12	2452.88
413.31	2607.36
413.50	2434.16
413.69	2504.37
413.88	2574.59
414.07	2530.12
414.26	2605.02
414.45	2729.06
414.64	2768.85
414.83	2597.99
415.02	2743.11
415.22	2757.15
415.41	2722.04
415.60	2698.64
415.79	2850.77
415.98	2855.45
416.17	2883.54
416.36	2895.24
416.55	2871.84
416.74	2913.97
416.93	2850.77
417.12	2949.08
417.31	3019.29
417.50	3094.19
417.69	3108.23
417.88	3026.31
418.07	3117.59
418.26	3126.96
418.45	3061.42
418.64	3211.22
418.83	3286.11
419.02	3143.34
419.21	3157.38
419.39	3171.43
419.58	3047.38
419.77	3248.66
419.96	3255.69
420.15	3386.76
420.34	3246.32
420.53	3356.33
420.72	3421.86
420.91	3332.92
421.10	3438.25
421.29	3510.80
421.48	3260.37
421.67	3489.74
421.86	3468.67
422.05	3414.84
422.24	3337.60
422.43	3496.76
422.61	3410.16
422.80	3363.35
422.99	3496.76
423.18	3550.59
423.37	3559.95
423.56	3529.53
423.75	3538.89
423.94	3466.33
424.13	3269.73
424.32	3438.25
424.50	3632.51
424.69	3576.34
424.88	3559.95
425.07	3379.73
425.26	3501.44
425.45	3536.55
425.64	3482.72
425.83	3564.64
426.01	3557.61
426.20	3644.21
426.39	3691.02
426.58	3578.68
426.77	3548.25
426.96	3447.61
427.15	3566.98
427.33	3754.22
427.52	3646.55
427.71	3550.59
427.90	3695.71
428.09	3740.18
428.28	3815.07
428.46	3829.12
428.65	3885.29
428.84	3859.54
429.03	3880.61
429.22	3730.81
429.40	3808.05
429.59	3801.03
429.78	3632.51
429.97	3646.55
430.16	3726.13
430.34	3737.84
430.53	3847.84
430.72	3932.10
430.91	3885.29
431.10	3983.59
431.28	4147.43
431.47	4081.89
431.66	4241.05
431.85	4088.92
432.03	4203.60
432.22	4196.58
432.41	4236.37
432.60	4042.11
432.79	4196.58
432.97	4327.65
433.16	4140.41
433.35	4252.75
433.54	4425.95
433.72	4273.82
433.91	4304.25
434.10	4365.10
434.28	4285.52
434.47	4353.40
434.66	4278.50
434.85	4479.79
435.03	4582.77
435.22	4451.70
435.41	4650.64
435.59	4484.47
435.78	4505.53
435.97	4477.44
436.16	4533.62
436.34	4519.57
436.53	4542.98
436.72	4578.09
436.90	4634.26
437.09	4627.24
437.28	4671.71
437.46	4648.30
437.65	4559.36
437.84	4671.71
438.02	4669.37
438.21	4634.26
438.40	4524.26
438.58	4821.50
438.77	4844.91
438.96	4945.55
439.14	5142.16
439.33	4898.74
439.52	5020.45
439.70	4856.61
439.89	5097.69
440.08	5142.16
440.26	5142.16
440.45	5109.39
440.63	5355.15
440.82	5497.92
441.01	5392.59
441.19	5247.48
441.38	5425.36
441.57	5570.48
441.75	5455.79
441.94	5626.65
442.12	5511.96
442.31	5605.58
442.50	5558.77
442.68	5626.65
442.87	5771.76
443.05	5741.33
443.24	5680.48
443.43	5825.59
443.61	5914.53
443.80	5956.66
443.98	5722.61
444.17	5671.12
444.35	5830.27
444.54	5905.17
444.73	5802.19
444.91	5949.64
445.10	5949.64
445.28	5856.02
445.47	5654.73
445.65	5706.23
445.84	5919.21
446.02	5935.60
446.21	5898.15
446.39	5830.27
446.58	5987.09
446.77	5959.00
446.95	5996.45
447.14	5895.81
447.32	5909.85
447.51	5919.21
447.69	5884.11
447.88	5954.32
448.06	5907.51
448.25	5790.49
448.43	6061.99
448.62	6010.50
448.80	5998.79
448.99	6043.26
449.17	6160.29
449.36	5949.64
449.54	6270.30
449.73	6370.94
449.91	6314.77
450.10	6244.55
450.28	6457.54
450.46	6502.01
450.65	6274.98
450.83	6614.35
451.02	6551.16
451.20	6602.65
451.39	6609.67
451.57	6401.37
451.76	6431.79
451.94	6427.11
452.13	6588.61
452.31	6518.39
452.49	6427.11
452.68	6340.51
452.86	6541.80
453.05	6649.46
453.23	6572.22
453.42	6494.99
453.60	6548.82
453.78	6649.46
453.97	6532.44
454.15	6705.63
454.34	6588.61
454.52	6759.47
454.70	6771.17
454.89	6715.00
455.07	6750.10
455.26	6890.54
455.44	6960.75
455.62	6822.66
455.81	6867.13
455.99	6956.07
456.17	6979.48
456.36	6932.67
456.54	7157.36
456.73	7283.75
456.91	7304.81
457.09	7644.19
457.28	7515.46
457.46	7162.04
457.64	7494.40
457.83	7194.81
458.01	7353.96
458.19	7461.63
458.38	7330.56
458.56	7506.10
458.74	7293.11
458.93	7485.03
459.11	7494.40
459.29	7564.61
459.48	7302.47
459.66	7496.74
459.84	7576.31
460.03	7672.28
460.21	7735.47
460.39	7686.32
460.57	7735.47
460.76	7845.48
460.94	7719.09
461.12	7721.43
461.31	7850.16
461.49	7751.85
461.67	7672.28
461.85	7822.07
462.04	7791.64
462.22	8128.68
462.40	8177.83
462.59	7878.24
462.77	7885.26
462.95	8065.49
463.13	7955.48
463.32	7892.29
463.50	8102.93
463.68	8203.58
463.86	8037.40
464.05	8088.89
464.23	8205.92
464.41	8224.64
464.59	8091.23
464.78	8402.52
464.96	8124.00
465.14	8276.13
465.32	8163.79
465.50	8404.86
465.69	8430.61
465.87	8411.89
466.05	8393.16
466.23	8315.92
466.41	8470.40
466.60	8388.48
466.78	8315.92
466.96	8681.05
467.14	8449.33
467.32	8344.01
467.51	8554.66
467.69	8329.97
467.87	8496.14
468.05	8631.90
468.23	8622.53
468.41	8402.52
468.60	8711.47
468.78	8837.86
468.96	8589.77
469.14	8772.33
469.32	8844.88
469.50	8535.93
469.69	8746.58
469.87	9029.79
470.05	9057.87
470.23	8739.56
470.41	8994.68
470.59	9139.79
470.77	8992.34
470.95	8940.85
471.14	9083.62
471.32	9125.75
471.50	9245.12
471.68	9355.12
471.86	9355.12
472.04	9425.34
472.22	9619.60
472.40	9282.56
472.58	9390.23
472.77	9621.94
472.95	9607.90
473.13	9722.59
473.31	9493.21
473.49	9399.59
473.67	9535.34
473.85	9657.05
474.03	10078.35
474.21	9795.14
474.39	10036.22
474.57	10057.28
474.75	10104.09
474.93	10026.86
475.12	10076.01
475.30	10211.76
475.48	9984.73
475.66	10293.68
475.84	10197.71
476.02	10504.32
476.20	10401.34
476.38	10740.72
476.56	10721.99
476.74	10738.38
476.92	10824.98
477.10	10953.71
477.28	10946.69
477.46	10986.47
477.64	11159.67
477.82	11353.94
478.00	11456.92
478.18	11339.90
478.36	11274.36
478.54	11403.09
478.72	11442.88
478.90	11667.57
479.08	11719.06
479.26	11730.76
479.44	11983.54
479.62	12140.36
479.80	11992.90
479.98	12397.82
480.16	12423.56
480.34	12002.27
480.52	12407.18
480.70	12610.81
480.88	12262.07
481.06	12463.35
481.24	12552.29
481.41	12760.60
481.59	12950.18
481.77	13191.26
481.95	13050.83
482.13	13036.78
482.31	13378.50
482.49	13481.49
482.67	13390.20
482.85	13682.77
483.03	13980.02
483.21	13848.95
483.39	14005.77
483.57	13970.66
483.74	14033.85
483.92	14394.29
484.10	13996.40
484.28	14232.80
484.46	14609.62
484.64	14871.76
484.82	14553.45
485.00	14941.98
485.18	15288.38
485.35	15321.15
485.53	14850.70
485.71	15037.94
485.89	15227.53
486.07	15243.91
486.25	15475.62
486.43	15768.19
486.61	15611.37
486.78	15620.74
486.96	15782.23
487.14	16198.85
487.32	16435.24
487.50	16468.01
487.68	16664.61
487.85	16833.13
488.03	16891.65
488.21	16926.75
488.39	17053.14
488.57	17392.52
488.75	17240.39
488.92	17577.42
489.10	17795.09
489.28	17649.98
489.46	18057.23
489.64	17848.93
489.81	18345.12
489.99	18260.86
490.17	18310.01
490.35	18658.75
490.53	18686.84
490.70	18874.08
490.88	18429.38
491.06	19147.92
491.24	19145.58
491.41	18735.99
491.59	19154.94
491.77	19412.40
491.95	19580.92
492.13	19424.11
492.30	19796.25
492.48	20063.07
492.66	19953.07
492.84	20060.73
493.01	20112.22
493.19	19955.41
493.37	20425.86
493.54	20524.16
493.72	20683.31
493.90	20783.96
494.08	20884.60
494.25	21649.96
494.43	21289.51
494.61	21383.13
494.79	21500.16
494.96	21371.43
495.14	21518.89
495.32	21727.19
495.49	21977.63
495.67	21799.75
495.85	22003.38
496.02	22436.38
496.20	22080.61
496.38	22256.15
496.55	22272.54
496.73	23096.41
496.91	22473.82
497.09	22925.55
497.26	22623.62
497.44	22850.65
497.62	22799.16
497.79	23386.63
497.97	23285.99
498.14	23449.83
498.32	23733.03
498.50	23775.16
498.67	23957.72
498.85	23924.96
499.03	23782.18
499.20	23819.63
499.38	24379.02
499.56	24362.64
499.73	24409.45
499.91	24205.82
500.08	24678.61
500.26	24254.97
500.44	24439.87
500.61	24615.41
500.79	24795.64
500.97	25039.05
501.14	25053.09
501.32	25219.27
501.49	25130.33
501.67	25322.26
501.84	25694.40
502.02	25406.52
502.20	25376.09
502.37	25481.41
502.55	25563.33
502.72	25921.43
502.90	25795.04
503.07	25853.56
503.25	26249.11
503.43	25476.73
503.60	26024.42
503.78	26101.65
503.95	26150.81
504.13	26260.81
504.30	26714.87
504.48	26506.57
504.65	26890.41
504.83	26527.63
505.01	27044.89
505.18	26642.32
505.36	27407.67
505.53	27133.83
505.71	27407.67
505.88	27487.25
506.06	27042.55
506.23	27140.85
506.41	27314.05
506.58	27285.97
506.76	27737.69
506.93	28086.43
507.11	27812.59
507.28	27779.82
507.46	27744.71
507.63	28240.90
507.81	28231.54
507.98	27880.46
508.16	28243.24
508.33	28451.55
508.50	28531.13
508.68	28512.41
508.85	28772.21
509.03	28760.50
509.20	28678.58
509.38	28924.34
509.55	28833.06
509.73	29174.78
509.90	29195.84
510.08	28847.10
510.25	29371.38
510.42	29305.85
510.60	29687.36
510.77	29146.69
510.95	29930.77
511.12	29898.00
511.30	29919.07
511.47	29806.72
511.64	30263.13
511.82	30548.67
511.99	29844.17
512.17	30019.71
512.34	30029.07
512.51	30270.15
512.69	30899.75
512.86	30419.94
513.04	30555.69
513.21	30347.39
513.38	30581.44
513.56	30871.67
513.73	30433.99
513.90	31026.14
514.08	30824.86
514.25	30960.61
514.43	30775.70
514.60	30932.52
514.77	31115.08
514.95	31328.07
515.12	31255.51
515.29	31290.62
515.47	31765.75
515.64	31906.18
515.81	31255.51
515.99	31924.91
516.16	31442.76
516.33	31807.88
516.51	31665.11
516.68	31637.02
516.85	31122.10
517.03	31613.62
517.20	31814.90
517.37	32421.10
517.54	32233.86
517.72	31798.52
517.89	31765.75
518.06	31892.14
518.24	32060.66
518.41	32182.37
518.58	32528.77
518.75	32369.61
518.93	32442.17
519.10	32491.32
519.27	32720.69
519.45	32718.35
519.62	32966.45
519.79	32594.30
519.96	33069.43
520.14	33371.36
520.31	32811.97
520.48	33362.00
520.65	33125.60
520.83	33266.03
521.00	33432.21
521.17	33584.35
521.34	33546.90
521.52	34007.98
521.69	33825.42
521.86	34178.84
522.03	34110.97
522.20	33841.81
522.38	33764.57
522.55	34363.75
522.72	34015.01
522.89	34185.86
523.07	34508.86
523.24	34148.42
523.41	34293.53
523.58	34574.39
523.75	34693.76
523.92	34850.58
524.10	34637.59
524.27	35026.12
524.44	34909.09
524.61	35005.05
524.78	35182.93
524.96	35065.91
525.13	35353.79
525.30	35545.72
525.47	35615.93
525.64	35000.37
525.81	35431.03
525.98	35096.33
526.16	35220.38
526.33	35175.91
526.50	35405.28
526.67	35061.22
526.84	35222.72
527.01	35117.40
527.18	35711.89
527.36	35414.65
527.53	35866.37
527.70	36034.89
527.87	36271.28
528.04	35983.40
528.21	36041.91
528.38	36163.62
528.55	36353.20
528.72	36608.32
528.89	36687.90
529.07	36313.41
529.24	36238.51
529.41	36517.04
529.58	36584.91
529.75	36236.17
529.92	36943.02
530.09	36631.72
530.26	36718.32
530.43	36830.67
530.60	36734.71
530.77	36755.77
530.94	37102.17
531.11	37153.66
531.28	37263.67
531.46	37017.91
531.63	37263.67
531.80	37551.56
531.97	37022.59
532.14	37212.18
532.31	37116.22
532.48	36605.98
532.65	37371.33
532.82	36943.02
532.99	37790.29
533.16	37432.19
533.33	37479.00
533.50	37813.70
533.67	37551.56
533.84	37734.12
534.01	37600.71
534.18	37556.24
534.35	38089.88
534.52	38146.05
534.69	38307.55
534.86	38157.75
535.03	37881.57
535.20	38286.48
535.37	38389.47
535.54	38518.20
535.71	38010.30
535.88	38239.67
536.05	38410.53
536.22	38763.95
536.38	38349.68
536.55	38234.99
536.72	38462.02
536.89	38436.28
537.06	38401.17
537.23	38782.68
537.40	38595.43
537.57	38569.69
537.74	39267.17
537.91	38880.98
538.08	38906.73
538.25	39051.84
538.42	39185.25
538.59	39374.83
538.75	38803.74
538.92	38927.79
539.09	38698.42
539.26	39295.25
539.43	39002.69
539.60	39339.72
539.77	39021.41
539.94	38803.74
540.11	39150.14
540.28	39152.48
540.44	39239.08
540.61	39445.05
540.78	39281.21
540.95	39431.01
541.12	39093.97
541.29	39054.18
541.46	39014.39
541.62	39377.17
541.79	39674.42
541.96	39475.48
542.13	39578.46
542.30	39543.35
542.47	39515.26
542.63	39779.74
542.80	40065.29
542.97	40069.97
543.14	40622.34
543.31	40456.16
543.48	40428.07
543.64	40699.58
543.81	40589.57
543.98	40643.40
544.15	40591.91
544.32	41045.97
544.48	40769.79
544.65	40917.25
544.82	40608.29
544.99	40680.85
545.16	40898.52
545.32	40802.56
545.49	40861.07
545.66	41153.64
545.83	41036.61
546.00	41366.63
546.16	40980.44
546.33	41029.59
546.50	40399.99
546.67	41523.44
546.83	40741.71
547.00	40973.42
547.17	40980.44
547.34	41120.87
547.50	41074.06
547.67	41404.08
547.84	41184.07
548.00	41291.73
548.17	41439.18
548.34	41523.44
548.51	41378.33
548.67	42012.62
548.84	41935.38
549.01	41322.16
549.18	41237.90
549.34	41717.71
549.51	41703.67
549.68	41727.07
549.84	41865.16
550.01	41806.65
550.18	41757.50
550.34	42033.68
550.51	41738.77
550.68	41703.67
550.84	41574.94
551.01	42131.98
551.18	41738.77
551.34	41694.30
551.51	42113.26
551.68	42096.88
551.84	42192.84
552.01	41853.46
552.18	41970.49
552.34	41766.86
552.51	42333.27
552.68	42401.14
552.84	42396.46
553.01	42124.96
553.18	42267.73
553.34	42469.02
553.51	42073.47
553.67	42087.51
553.84	42759.25
554.01	42391.78
554.17	42630.52
554.34	42354.33
554.51	42607.11
554.67	42784.99
554.84	42536.90
555.00	42649.24
555.17	42546.26
555.33	42721.80
555.50	42291.14
555.67	42387.10
555.83	42625.84
556.00	42773.29
556.16	43229.69
556.33	42859.89
556.50	42387.10
556.66	42508.81
556.83	42045.38
556.99	42923.08
557.16	43166.50
557.32	43154.80
557.49	43229.69
557.65	42810.74
557.82	42810.74
557.98	43117.35
558.15	42803.72
558.32	43068.20
558.48	42761.59
558.65	42726.48
558.81	42862.23
558.98	42864.57
559.14	43222.67
559.31	43058.84
559.47	43199.27
559.64	43669.72
559.80	43526.94
559.97	43217.99
560.13	43143.09
560.30	43180.54
560.46	43058.84
560.63	43508.22
560.79	43372.47
560.96	43842.92
561.12	43690.78
561.29	43564.39
561.45	43639.29
561.61	42859.89
561.78	43302.25
561.94	43791.42
562.11	43648.65
562.27	43098.62
562.44	43503.54
562.60	43749.29
562.77	43559.71
562.93	43461.41
563.10	43622.90
563.26	43161.82
563.42	43463.75
563.59	43768.02
563.75	43681.42
563.92	43669.72
564.08	43620.56
564.24	43454.39
564.41	43800.79
564.57	43957.60
564.74	43906.11
564.90	43578.43
565.07	43807.81
565.23	44154.21
565.39	43868.66
565.56	43761.00
565.72	43349.06
565.88	44058.24
566.05	43768.02
566.21	43641.63
566.38	43592.48
566.54	44020.80
566.70	44416.35
566.87	43934.20
567.03	43959.94
567.19	44587.21
567.36	44261.87
567.52	43629.93
567.68	43805.47
567.85	43749.29
568.01	43985.69
568.17	43908.45
568.34	43728.23
568.50	43791.42
568.66	43739.93
568.83	43922.49
568.99	43498.86
569.15	43885.04
569.32	43962.28
569.48	44034.84
569.64	44395.28
569.81	44083.99
569.97	44058.24
570.13	44163.57
570.30	43889.73
570.46	44109.74
570.62	43524.60
570.78	44037.18
570.95	43913.13
571.11	44079.31
571.27	43763.34
571.43	44186.97
571.60	44065.27
571.76	43929.51
571.92	44119.10
572.09	43957.60
572.25	44055.90
572.41	43943.56
572.57	44119.10
572.74	44624.65
572.90	43959.94
573.06	44247.83
573.22	44135.48
573.38	44165.91
573.55	44299.32
573.71	44676.15
573.87	44243.15
574.03	43955.26
574.20	44196.34
574.36	44086.33
574.52	44315.70
574.68	44116.76
574.84	44175.27
575.01	44149.53
575.17	43880.36
575.33	43973.98
575.49	44121.44
575.65	44519.33
575.82	44147.18
575.98	44280.60
576.14	44486.56
576.30	44414.01
576.46	44254.85
576.62	44177.61
576.79	44055.90
576.95	43428.64
577.11	44271.23
577.27	43889.73
577.43	44224.42
577.59	44353.15
577.75	44205.70
577.92	43831.21
578.08	44004.41
578.24	44053.56
578.40	44128.46
578.56	44081.65
578.72	44151.87
578.88	44898.50
579.04	44987.44
579.21	44378.90
579.37	44414.01
579.53	44701.89
579.69	44212.72
579.85	44247.83
580.01	44313.36
580.17	44231.44
580.33	44275.91
580.49	44664.44
580.65	44299.32
580.82	44212.72
580.98	43992.71
581.14	44275.91
581.30	44575.50
581.46	44041.86
581.62	44315.70
581.78	44694.87
581.94	45078.72
582.10	44341.45
582.26	44315.70
582.42	44299.32
582.58	44390.60
582.74	44275.91
582.90	44500.61
583.06	44650.40
583.22	44645.72
583.38	44624.65
583.54	44971.05
583.70	44294.64
583.86	44439.75
584.02	44198.68
584.18	44392.94
584.34	44392.94
584.50	44411.67
584.66	44299.32
584.82	44086.33
584.98	44835.30
585.14	44746.36
585.30	44416.35
585.46	44486.56
585.62	44261.87
585.78	44231.44
585.94	44296.98
586.10	43915.47
586.26	44568.48
586.42	44648.06
586.58	44645.72
586.74	44687.85
586.90	44502.95
587.06	44151.87
587.22	44636.36
587.38	44168.25
587.54	44713.59
587.70	44624.65
587.86	44800.19
588.02	44570.82
588.18	44863.39
588.34	44182.29
588.49	44273.57
588.65	44191.65
588.81	44170.59
588.97	44704.23
589.13	44505.29
589.29	44629.34
589.45	44437.41
589.61	44556.78
589.77	44673.81
589.93	44856.37
590.08	45031.91
590.24	45041.27
590.40	44933.60
