SpectraSuite Data File
++++++++++++++++++++++++++++++++++++
Date: Fri Oct 25 11:26:35 EDT 2013
User: price-jones
Dark Spectrum Present: No
Reference Spectrum Present: No
Number of Sampled Component Spectra: 1
Spectrometers: USB2+H05261
Integration Time (usec): 100000 (USB2+H05261)
Spectra Averaged: 1 (USB2+H05261)
Boxcar Smoothing: 0 (USB2+H05261)
Correct for Electrical Dark: No (USB2+H05261)
Strobe/Lamp Enabled: No (USB2+H05261)
Correct for Detector Non-linearity: No (USB2+H05261)
Correct for Stray Light: No (USB2+H05261)
Number of Pixels in Processed Spectrum: 2048
>>>>>Begin Processed Spectral Data<<<<<
365.73	222.35
365.92	222.35
366.12	222.35
366.32	170.86
366.52	140.43
366.72	170.86
366.91	102.98
367.11	117.03
367.31	140.43
367.51	60.85
367.70	63.19
367.90	91.28
368.10	126.39
368.30	163.84
368.49	128.73
368.69	175.54
368.89	205.97
369.09	133.41
369.28	201.29
369.48	154.48
369.68	161.50
369.87	262.14
370.07	234.05
370.27	196.60
370.47	311.29
370.66	587.47
370.86	657.69
371.06	692.80
371.25	802.80
371.45	662.37
371.65	676.41
371.84	662.37
372.04	688.12
372.24	713.86
372.44	748.97
372.63	772.38
372.83	634.29
373.03	765.36
373.22	807.48
373.42	727.91
373.62	746.63
373.81	734.93
374.01	870.68
374.21	814.51
374.40	744.29
374.60	875.36
374.79	877.70
374.99	898.77
375.19	779.40
375.38	816.85
375.58	866.00
375.78	912.81
375.97	947.92
376.17	875.36
376.37	844.93
376.56	894.08
376.76	844.93
376.95	830.89
377.15	844.93
377.35	805.14
377.54	882.38
377.74	950.26
377.93	903.45
378.13	1041.54
378.33	952.60
378.52	929.19
378.72	978.34
378.91	985.37
379.11	936.21
379.31	924.51
379.50	929.19
379.70	903.45
379.89	1011.11
380.09	976.00
380.28	987.71
380.48	957.28
380.68	954.94
380.87	990.05
381.07	978.34
381.26	1135.16
381.46	1107.07
381.65	1055.58
381.85	1071.97
382.04	1006.43
382.24	1057.92
382.43	1018.13
382.63	1076.65
382.83	1118.78
383.02	1153.88
383.22	1158.57
383.41	1107.07
383.61	1121.12
383.80	1167.93
384.00	1240.48
384.19	1245.16
384.39	1158.57
384.58	1160.91
384.78	1165.59
384.97	1191.33
385.17	1116.44
385.36	1116.44
385.56	1203.04
385.75	1090.69
385.95	1188.99
386.14	1282.61
386.34	1181.97
386.53	1240.48
386.72	1184.31
386.92	1287.29
387.11	1242.82
387.31	1172.61
387.50	1172.61
387.70	1254.53
387.89	1263.89
388.09	1320.06
388.28	1275.59
388.48	1226.44
388.67	1303.68
388.86	1322.40
389.06	1345.81
389.25	1287.29
389.45	1441.77
389.64	1397.30
389.84	1392.62
390.03	1406.66
390.22	1432.41
390.42	1406.66
390.61	1369.21
390.81	1334.11
391.00	1399.64
391.19	1479.22
391.39	1411.34
391.58	1479.22
391.78	1397.30
391.97	1401.98
392.16	1448.79
392.36	1572.84
392.55	1530.71
392.75	1586.88
392.94	1533.05
393.13	1507.30
393.33	1507.30
393.52	1551.78
393.71	1600.93
393.91	1540.07
394.10	1603.27
394.29	1558.80
394.49	1589.22
394.68	1617.31
394.88	1554.12
395.07	1668.80
395.26	1652.42
395.46	1727.32
395.65	1708.59
395.84	1746.04
396.04	1802.21
396.23	1764.76
396.42	1764.76
396.62	1818.60
396.81	1820.94
397.00	1816.26
397.19	1785.83
397.39	1820.94
397.58	1909.88
397.77	1884.13
397.97	1893.49
398.16	1842.00
398.35	1879.45
398.55	1849.02
398.74	1905.20
398.93	1935.62
399.12	1966.05
399.32	1797.53
399.51	1991.80
399.70	2099.46
399.90	1898.17
400.09	2071.37
400.28	2062.01
400.47	2017.54
400.67	2092.44
400.86	2066.69
401.05	2076.06
401.24	2045.63
401.44	2069.03
401.63	2129.89
401.82	2155.63
402.01	2244.57
402.21	2045.63
402.40	2221.17
402.59	2275.00
402.78	2272.66
402.97	2260.96
403.17	2275.00
403.36	2251.60
403.55	2298.41
403.74	2345.22
403.93	2359.26
404.13	2464.58
404.32	2385.01
404.51	2401.39
404.70	2471.61
404.89	2424.80
405.09	2567.57
405.28	2464.58
405.47	2410.75
405.66	2516.08
405.85	2530.12
406.05	2422.45
406.24	2597.99
406.43	2480.97
406.62	2621.40
406.81	2813.32
407.00	2644.81
407.20	2614.38
407.39	2504.37
407.58	2717.36
407.77	2850.77
407.96	2719.70
408.15	2820.35
408.34	2822.69
408.54	2888.22
408.73	2799.28
408.92	2818.00
409.11	2895.24
409.30	2850.77
409.49	2906.95
409.68	2888.22
409.87	2857.79
410.07	2963.12
410.26	3091.85
410.45	3005.25
410.64	3087.17
410.83	3042.70
411.02	3131.64
411.21	3108.23
411.40	3171.43
411.59	3197.17
411.78	3241.64
411.98	3290.79
412.17	3316.54
412.36	3304.84
412.55	3321.22
412.74	3337.60
412.93	3349.31
413.12	3356.33
413.31	3609.11
413.50	3541.23
413.69	3557.61
413.88	3616.13
414.07	3632.51
414.26	3599.74
414.45	3623.15
414.64	3702.73
414.83	3693.37
415.02	3838.48
415.22	3857.20
415.41	3850.18
415.60	3887.63
415.79	3887.63
415.98	4234.03
416.17	3990.61
416.36	3969.55
416.55	4035.08
416.74	3997.64
416.93	3976.57
417.12	4142.75
417.31	4266.80
417.50	4156.79
417.69	4168.49
417.88	4475.10
418.07	4358.08
418.26	4257.43
418.45	4393.19
418.64	4341.69
418.83	4545.32
419.02	4404.89
419.21	4561.70
419.39	4582.77
419.58	4521.92
419.77	4447.02
419.96	4690.43
420.15	4671.71
420.34	4526.60
420.53	4617.88
420.72	4713.84
420.91	4669.37
421.10	4716.18
421.29	4753.63
421.48	4751.29
421.67	4753.63
421.86	4896.40
422.05	4915.12
422.24	4875.34
422.43	4971.30
422.61	5034.49
422.80	5076.62
422.99	5048.54
423.18	4973.64
423.37	5022.79
423.56	4978.32
423.75	5053.22
423.94	4936.19
424.13	4660.01
424.32	4688.09
424.50	4870.65
424.69	5188.97
424.88	5095.35
425.07	5062.58
425.26	5093.01
425.45	5004.07
425.64	5041.51
425.83	4919.81
426.01	5146.84
426.20	5170.24
426.39	5067.26
426.58	4961.94
426.77	5039.17
426.96	5118.75
427.15	5139.82
427.33	5151.52
427.52	5219.39
427.71	5322.38
427.90	5193.65
428.09	5308.34
428.28	5460.47
428.46	5249.82
428.65	5287.27
428.84	5355.15
429.03	5568.13
429.22	5254.50
429.40	5591.54
429.59	5488.56
429.78	5270.89
429.97	5296.63
430.16	5528.35
430.34	5643.03
430.53	5736.65
430.72	5640.69
430.91	5591.54
431.10	5830.27
431.28	5776.44
431.47	5774.10
431.66	5863.04
431.85	5825.59
432.03	5987.09
432.22	5879.43
432.41	5905.17
432.60	6022.20
432.79	6026.88
432.97	5956.66
433.16	6019.86
433.35	5944.96
433.54	6071.35
433.72	6171.99
433.91	6017.52
434.10	6155.61
434.28	6148.59
434.47	6228.17
434.66	6221.14
434.85	6244.55
435.03	6457.54
435.22	6174.33
435.41	6485.62
435.59	6452.86
435.78	6382.64
435.97	6476.26
436.16	6310.08
436.34	6300.72
436.53	6328.81
436.72	6621.38
436.90	6583.93
437.09	6541.80
437.28	6380.30
437.46	6707.98
437.65	6579.25
437.84	6883.52
438.02	6843.73
438.21	6789.89
438.40	6637.76
438.58	7063.74
438.77	7047.35
438.96	6972.46
439.14	7162.04
439.33	7005.22
439.52	7318.86
439.70	7155.02
439.89	7398.43
440.08	7377.37
440.26	7171.40
440.45	7398.43
440.63	7396.09
440.82	7756.54
441.01	7527.16
441.19	7676.96
441.38	7779.94
441.57	7770.58
441.75	8098.25
441.94	7903.99
442.12	7978.89
442.31	7941.44
442.50	8070.17
442.68	7896.97
442.87	8100.59
443.05	8257.41
443.24	8201.24
443.43	8149.75
443.61	8276.13
443.80	8355.71
443.98	8049.10
444.17	7915.69
444.35	8414.23
444.54	8449.33
444.73	8376.78
444.91	8493.80
445.10	8472.74
445.28	8404.86
445.47	8299.54
445.65	8418.91
445.84	8355.71
446.02	8526.57
446.21	8517.21
446.39	8622.53
446.58	8690.41
446.77	8716.16
446.95	8287.84
447.14	8528.91
447.32	8709.13
447.51	8678.71
447.69	8320.60
447.88	8456.36
448.06	8599.13
448.25	8329.97
448.43	8737.22
448.62	8580.40
448.80	8578.06
448.99	8629.56
449.17	8732.54
449.36	8564.02
449.54	8828.50
449.73	8964.25
449.91	9057.87
450.10	9006.38
450.28	9107.02
450.46	9312.99
450.65	8999.36
450.83	9247.46
451.02	9074.26
451.20	9167.88
451.39	9039.15
451.57	9067.24
451.76	9090.64
451.94	9228.73
452.13	9214.69
452.31	9439.38
452.49	9069.58
452.68	9411.29
452.86	9334.06
453.05	9383.21
453.23	9394.91
453.42	9392.57
453.60	9605.56
453.78	9610.24
453.97	9441.72
454.15	9544.70
454.34	9628.96
454.52	9755.35
454.70	9628.96
454.89	9682.80
455.07	9970.68
455.26	9837.27
455.44	10003.45
455.62	10050.26
455.81	9947.28
455.99	10090.05
456.17	10005.79
456.36	9923.87
456.54	10420.06
456.73	10204.74
456.91	10401.34
457.09	10693.91
457.28	10504.32
457.46	10487.94
457.64	10546.45
457.83	10352.19
458.01	10541.77
458.19	10780.51
458.38	10445.81
458.56	10719.65
458.74	10675.18
458.93	10619.01
459.11	10986.47
459.29	10808.59
459.48	10813.28
459.66	10773.49
459.84	10848.38
460.03	10991.16
460.21	10979.45
460.39	10916.26
460.57	11066.05
460.76	11232.23
460.94	11344.58
461.12	11211.17
461.31	11386.71
461.49	11346.92
461.67	11302.45
461.85	11573.95
462.04	11288.40
462.22	11445.22
462.40	11447.56
462.59	11747.15
462.77	11576.29
462.95	11517.78
463.13	11714.38
463.32	11637.14
463.50	11868.86
463.68	11803.32
463.86	11936.73
464.05	11887.58
464.23	11616.08
464.41	11932.05
464.59	11934.39
464.78	11922.69
464.96	12135.68
465.14	12084.19
465.32	12077.16
465.50	12421.22
465.69	12077.16
465.87	12187.17
466.05	12578.04
466.23	12175.47
466.41	12341.64
466.60	12453.99
466.78	12159.08
466.96	12262.07
467.14	12212.92
467.32	12486.76
467.51	12587.40
467.69	12140.36
467.87	12812.09
468.05	12578.04
468.23	12397.82
468.41	12636.55
468.60	12798.05
468.78	12727.83
468.96	12669.32
469.14	12903.37
469.32	12908.05
469.50	12730.17
469.69	12973.59
469.87	13170.19
470.05	13238.07
470.23	13289.56
470.41	13284.88
470.59	13429.99
470.77	13380.84
470.95	13495.53
471.14	13638.30
471.32	13202.96
471.50	13575.11
471.68	13341.05
471.86	13696.82
472.04	13846.61
472.22	14101.73
472.40	13469.78
472.58	14115.77
472.77	13973.00
472.95	14239.82
473.13	14663.46
473.31	14209.39
473.49	14176.62
473.67	14242.16
473.85	14380.25
474.03	14890.49
474.21	14766.44
474.39	14881.13
474.57	14691.54
474.75	14991.13
474.93	15047.30
475.12	15098.80
475.30	15154.97
475.48	15047.30
475.66	15180.71
475.84	15382.00
476.02	15384.34
476.20	15564.56
476.38	15815.00
476.56	15777.55
476.74	16130.97
476.92	16070.12
477.10	15988.20
477.28	16301.83
477.46	15967.13
477.64	16458.65
477.82	16484.39
478.00	17032.08
478.18	16854.20
478.36	16589.72
478.54	16973.56
478.72	17308.26
478.90	17319.96
479.08	17511.89
479.26	18008.08
479.44	17394.86
479.62	17963.61
479.80	18169.58
479.98	18361.50
480.16	18352.14
480.34	18293.63
480.52	18551.09
480.70	18670.45
480.88	18551.09
481.06	19087.07
481.24	18841.31
481.41	19007.49
481.59	19473.26
481.77	19646.46
481.95	19506.02
482.13	19674.54
482.31	19822.00
482.49	20329.89
482.67	20194.14
482.85	20524.16
483.03	20819.07
483.21	20896.30
483.39	21025.03
483.57	20910.35
483.74	21165.46
483.92	21383.13
484.10	21446.33
484.28	21781.03
484.46	21942.52
484.64	22134.45
484.82	22127.42
485.00	22494.89
485.18	22752.35
485.35	23089.38
485.53	23065.98
485.71	23190.03
485.89	23679.20
486.07	23115.13
486.25	23482.59
486.43	23744.73
486.61	23840.70
486.78	23929.64
486.96	24144.97
487.14	24936.07
487.32	24716.06
487.50	24926.71
487.68	25322.26
487.85	25294.17
488.03	25640.57
488.21	26153.15
488.39	25488.43
488.57	26045.48
488.75	26047.82
488.92	26415.29
489.10	26597.85
489.28	27070.64
489.46	27583.21
489.64	26789.77
489.81	27943.66
489.99	27812.59
490.17	28339.21
490.35	28056.00
490.53	28687.95
490.70	28687.95
490.88	28346.23
491.06	28837.74
491.24	29296.49
491.41	29373.72
491.59	29289.46
491.77	29390.11
491.95	29472.03
492.13	29869.92
492.30	29914.39
492.48	30164.82
492.66	30216.32
492.84	30363.77
493.01	30958.27
493.19	30869.33
493.37	31058.91
493.54	31330.41
493.72	31442.76
493.90	31908.52
494.08	31988.10
494.25	32165.98
494.43	32079.38
494.61	32285.35
494.79	32802.61
494.96	32947.72
495.14	33022.62
495.32	33027.30
495.49	33127.94
495.67	33584.35
495.85	33132.62
496.02	33762.23
496.20	34380.13
496.38	34251.40
496.55	34068.84
496.73	35276.55
496.91	35220.38
497.09	35068.25
497.26	35002.71
497.44	35220.38
497.62	35489.54
497.79	35739.98
497.97	35585.50
498.14	36329.80
498.32	36343.84
498.50	36418.74
498.67	36697.26
498.85	36671.51
499.03	36821.31
499.20	36966.42
499.38	36868.12
499.56	37195.79
499.73	36917.27
499.91	37677.94
500.08	37675.60
500.26	37354.95
500.44	37570.28
500.61	37869.87
500.79	37919.02
500.97	37914.34
501.14	39161.84
501.32	38693.74
501.49	38726.50
501.67	38838.85
501.84	39115.03
502.02	38731.18
502.20	39456.75
502.37	39606.55
502.55	39108.01
502.72	39519.95
502.90	39791.45
503.07	39512.92
503.25	39803.15
503.43	39810.17
503.60	39899.11
503.78	40594.25
503.95	40430.41
504.13	40428.07
504.30	40814.26
504.48	40313.39
504.65	40999.16
504.83	41439.18
505.01	41460.25
505.18	41202.79
505.36	41942.40
505.53	41450.89
505.71	41605.36
505.88	41668.56
506.06	41500.04
506.23	41867.50
506.41	41940.06
506.58	42038.36
506.76	42246.67
506.93	42707.76
507.11	42630.52
507.28	42691.37
507.46	43161.82
507.63	43124.37
507.81	43557.37
507.98	42939.47
508.16	43482.47
508.33	43639.29
508.50	43367.79
508.68	43824.19
508.85	44027.82
509.03	44114.42
509.20	44109.74
509.38	44563.80
509.55	44811.90
509.73	44694.87
509.90	44959.35
510.08	44994.46
510.25	44964.03
510.42	44835.30
510.60	44978.07
510.77	45495.33
510.95	46031.32
511.12	45097.44
511.30	45448.52
511.47	45703.64
511.64	45895.56
511.82	46050.04
511.99	45844.07
512.17	46326.22
512.34	45879.18
512.51	45958.76
512.69	46600.07
512.86	46239.62
513.04	46689.01
513.21	46836.46
513.38	46892.63
513.56	47145.41
513.73	46902.00
513.90	47016.68
514.08	46735.82
514.25	47215.63
514.43	47330.31
514.60	47608.84
514.77	47384.15
514.95	47718.84
515.12	48046.52
515.29	47608.84
515.47	48208.01
515.64	47906.08
515.81	47852.25
515.99	48168.22
516.16	48334.40
516.33	49027.20
516.51	48456.11
516.68	48755.70
516.85	48631.65
517.03	49041.24
517.20	48926.56
517.37	48797.83
517.54	48938.26
517.72	48631.65
517.89	49153.59
518.06	49308.07
518.24	49251.89
518.41	49329.13
518.58	49418.07
518.75	49656.81
518.93	49783.19
519.10	49712.98
519.27	49705.96
519.45	49808.94
519.62	50115.55
519.79	49839.37
519.96	50052.36
520.14	50263.00
520.31	50136.62
520.48	50424.50
520.65	50232.58
520.83	50703.03
521.00	50382.37
521.17	50454.93
521.34	50724.09
521.52	51007.29
521.69	51236.67
521.86	50997.93
522.03	51353.69
522.20	51264.75
522.38	51543.28
522.55	51327.95
522.72	51079.85
522.89	51337.31
523.07	51716.48
523.24	52004.36
523.41	51683.71
523.58	51569.02
523.75	52013.73
523.92	51683.71
524.10	52072.24
524.27	52172.88
524.44	52093.30
524.61	52439.70
524.78	52343.74
524.96	52360.12
525.13	52477.15
525.30	52512.26
525.47	52521.62
525.64	52598.86
525.81	52577.79
525.98	52821.21
526.16	52533.32
526.33	52715.89
526.50	53326.77
526.67	52971.00
526.84	53038.88
527.01	52912.49
527.18	53092.71
527.36	52774.40
527.53	53216.76
527.70	53221.44
527.87	53558.48
528.04	53471.88
528.21	53216.76
528.38	53343.15
528.55	53605.29
528.72	53324.43
528.89	53724.66
529.07	53375.92
529.24	53219.10
529.41	53722.32
529.58	53750.40
529.75	53921.26
529.92	54021.90
530.09	53839.34
530.26	54005.52
530.43	54000.84
530.60	53741.04
530.77	53801.89
530.94	54122.55
531.11	54321.49
531.28	54169.36
531.46	54450.22
531.63	54370.64
531.80	54490.01
531.97	54223.19
532.14	54422.14
532.31	54600.02
532.48	54564.91
532.65	54637.47
532.82	54679.60
532.99	54721.72
533.16	54712.36
533.33	54953.44
533.50	54876.20
533.67	54768.54
533.84	54969.82
534.01	54829.39
534.18	55009.61
534.35	55231.96
534.52	54831.73
534.69	55185.15
534.86	55337.29
535.03	55089.19
535.20	55236.64
535.37	55620.49
535.54	55597.09
535.71	55363.03
535.88	55178.13
536.05	55583.04
536.22	55571.34
536.38	55847.52
536.55	55711.77
536.72	55702.41
536.89	55767.94
537.06	55641.56
537.23	55852.20
537.40	55707.09
537.57	55936.46
537.74	55641.56
537.91	56245.41
538.08	56090.94
538.25	55622.83
538.42	56088.60
538.59	56292.22
538.75	56133.07
538.92	56198.60
539.09	56285.20
539.26	56207.97
539.43	56170.52
539.60	56467.76
539.77	56385.85
539.94	56549.68
540.11	56472.45
540.28	56542.66
540.44	56657.35
540.61	56486.49
540.78	56472.45
540.95	56601.18
541.12	56547.34
541.29	56629.26
541.46	56762.67
541.62	56566.07
541.79	56610.54
541.96	56320.31
542.13	56776.72
542.30	56685.43
542.47	56947.57
542.63	56996.73
542.80	57155.88
542.97	56945.23
543.14	57226.10
543.31	57340.78
543.48	57315.04
543.64	57336.10
543.81	57492.92
543.98	57247.16
544.15	57373.55
544.32	57326.74
544.48	57710.59
544.65	57415.68
544.82	57551.43
544.99	57303.34
545.16	57513.98
545.32	57509.30
545.49	57785.49
545.66	57846.34
545.83	57701.23
546.00	57867.40
546.16	57619.31
546.33	57504.62
546.50	57542.07
546.67	57883.79
546.83	57623.99
547.00	58035.92
547.17	57687.18
547.34	57752.72
547.50	58085.07
547.67	58255.93
547.84	58267.64
548.00	58377.64
548.17	58307.43
548.34	58169.33
548.51	58522.76
548.67	58602.33
548.84	58286.36
549.01	57977.41
549.18	58293.38
549.34	58431.47
549.51	58333.17
549.68	58639.78
549.84	58632.76
550.01	58431.47
550.18	58300.40
550.34	58487.65
550.51	58749.79
550.68	58396.37
550.84	58267.64
551.01	58733.40
551.18	58536.80
551.34	58534.46
551.51	58630.42
551.68	58803.62
551.84	58532.12
552.01	58688.93
552.18	58438.50
552.34	58550.84
552.51	58712.34
552.68	58649.14
552.84	58808.30
553.01	59058.74
553.18	58745.11
553.34	58922.99
553.51	58583.61
553.67	58805.96
553.84	59150.02
554.01	58995.54
554.17	58927.67
554.34	59068.10
554.51	58770.85
554.67	58955.75
554.84	59021.29
555.00	59086.82
555.17	58848.09
555.33	58925.33
555.50	59075.12
555.67	59002.56
555.83	58995.54
556.00	59166.40
556.16	59428.54
556.33	59395.77
556.50	59194.49
556.66	59253.00
556.83	59264.70
556.99	59409.82
557.16	59587.70
557.32	59583.02
557.49	59590.04
557.65	59529.19
557.82	59503.44
557.98	59278.75
558.15	59669.62
558.32	59697.70
558.48	59405.14
558.65	59377.05
558.81	59629.83
558.98	59559.61
559.14	59786.64
559.31	59559.61
559.47	59744.51
559.64	59920.05
559.80	59938.78
559.97	59859.20
560.13	59419.18
560.30	59601.74
560.46	59875.58
560.63	59686.00
560.79	59920.05
560.96	59863.88
561.12	59936.44
561.29	59859.20
561.45	59875.58
561.61	59884.95
561.78	59704.73
561.94	59742.17
562.11	60107.30
562.27	59976.23
562.44	59908.35
562.60	60083.89
562.77	60163.47
562.93	60023.04
563.10	60025.38
563.26	60119.00
563.42	60074.53
563.59	60069.85
563.75	59948.14
563.92	60261.77
564.08	59859.20
564.24	60388.16
564.41	60205.60
564.57	60205.60
564.74	60104.96
564.90	60165.81
565.07	60175.17
565.23	60156.45
565.39	60168.15
565.56	60243.05
565.72	60170.49
565.88	60186.88
566.05	60261.77
566.21	60287.52
566.38	60322.63
566.54	60205.60
566.70	60341.35
566.87	60697.11
567.03	60151.77
567.19	60662.00
567.36	60154.11
567.52	60353.05
567.68	60701.79
567.85	60273.48
568.01	60530.93
568.17	60331.99
568.34	60603.49
568.50	60463.06
568.66	60463.06
568.83	60640.94
568.99	60350.71
569.15	60481.78
569.32	60369.44
569.48	60474.76
569.64	60640.94
569.81	60493.49
569.97	60430.29
570.13	60519.23
570.30	60444.33
570.46	60676.05
570.62	60542.64
570.78	60573.06
570.95	60371.78
571.11	60495.83
571.27	60652.64
571.43	60636.26
571.60	60781.37
571.76	60622.22
571.92	60650.30
572.09	60664.35
572.25	60743.92
572.41	60647.96
572.57	60659.66
572.74	60884.36
572.90	60596.47
573.06	60631.58
573.22	60846.91
573.38	60816.48
573.55	60704.13
573.71	61022.45
573.87	60814.14
574.03	60582.43
574.20	60715.84
574.36	60605.83
574.52	60884.36
574.68	60788.39
574.84	60914.78
575.01	60966.27
575.17	60837.54
575.33	60893.72
575.49	60605.83
575.65	60802.44
575.82	61034.15
575.98	60935.85
576.14	60992.02
576.30	61095.00
576.46	60605.83
576.62	60767.33
576.79	60769.67
576.95	60701.79
577.11	60741.58
577.27	60832.86
577.43	60877.33
577.59	60673.71
577.75	60835.20
577.92	60718.18
578.08	60849.25
578.24	60846.91
578.40	61015.43
578.56	60837.54
578.72	60891.38
578.88	61197.99
579.04	61139.47
579.21	60966.27
579.37	61228.41
579.53	61059.90
579.69	60711.16
579.85	60631.58
580.01	60825.84
580.17	60790.73
580.33	61087.98
580.49	60767.33
580.65	60989.68
580.82	61066.92
580.98	61010.74
581.14	61006.06
581.30	61202.67
581.46	61031.81
581.62	61057.56
581.78	60973.30
581.94	60954.57
582.10	60889.04
582.26	60924.14
582.42	61146.50
582.58	61064.58
582.74	60900.74
582.90	60837.54
583.06	61006.06
583.22	60851.59
583.38	60821.16
583.54	61029.47
583.70	61102.03
583.86	61174.58
584.02	61013.08
584.18	61186.28
584.34	61174.58
584.50	60987.34
584.66	60882.02
584.82	60795.42
584.98	61286.93
585.14	61092.66
585.30	61221.39
585.46	61155.86
585.62	61052.87
585.78	61193.31
585.94	60924.14
586.10	61045.85
586.26	61155.86
586.42	61043.51
586.58	61216.71
586.74	61095.00
586.90	61104.37
587.06	61116.07
587.22	61116.07
587.38	61254.16
587.54	61275.22
587.70	61097.34
587.86	61134.79
588.02	61141.81
588.18	61249.48
588.34	61109.05
588.49	60959.25
