SpectraSuite Data File
++++++++++++++++++++++++++++++++++++
Date: Fri Oct 25 11:33:53 EDT 2013
User: price-jones
Dark Spectrum Present: No
Reference Spectrum Present: No
Number of Sampled Component Spectra: 1
Spectrometers: USB2+H05261
Integration Time (usec): 100000 (USB2+H05261)
Spectra Averaged: 1 (USB2+H05261)
Boxcar Smoothing: 0 (USB2+H05261)
Correct for Electrical Dark: No (USB2+H05261)
Strobe/Lamp Enabled: No (USB2+H05261)
Correct for Detector Non-linearity: No (USB2+H05261)
Correct for Stray Light: No (USB2+H05261)
Number of Pixels in Processed Spectrum: 2048
>>>>>Begin Processed Spectral Data<<<<<
365.73	283.20
365.92	283.20
366.12	283.20
366.32	166.18
366.52	205.97
366.72	208.31
366.91	238.73
367.11	121.71
367.31	147.45
367.51	177.88
367.70	241.08
367.90	231.71
368.10	175.54
368.30	161.50
368.49	159.16
368.69	156.82
368.89	187.24
369.09	182.56
369.28	205.97
369.48	159.16
369.68	217.67
369.87	271.50
370.07	290.23
370.27	318.31
370.47	351.08
370.66	540.66
370.86	507.90
371.06	622.58
371.25	538.32
371.45	519.60
371.65	606.20
371.84	561.73
372.04	610.88
372.24	543.00
372.44	493.85
372.63	582.79
372.83	617.90
373.03	575.77
373.22	573.43
373.42	617.90
373.62	622.58
373.81	603.86
374.01	641.31
374.21	624.92
374.40	596.84
374.60	688.12
374.79	631.94
374.99	695.14
375.19	657.69
375.38	678.76
375.58	603.86
375.78	641.31
375.97	702.16
376.17	734.93
376.37	648.33
376.56	648.33
376.76	671.73
376.95	671.73
377.15	727.91
377.35	741.95
377.54	671.73
377.74	711.52
377.93	716.20
378.13	643.65
378.33	671.73
378.52	641.31
378.72	706.84
378.91	699.82
379.11	699.82
379.31	669.39
379.50	638.97
379.70	791.10
379.89	751.31
380.09	671.73
380.28	690.46
380.48	795.78
380.68	650.67
380.87	706.84
381.07	751.31
381.26	800.46
381.46	802.80
381.65	770.04
381.85	704.50
382.04	741.95
382.24	695.14
382.43	788.76
382.63	755.99
382.83	765.36
383.02	786.42
383.22	791.10
383.41	767.70
383.61	772.38
383.80	812.17
384.00	765.36
384.19	786.42
384.39	849.61
384.58	884.72
384.78	779.40
384.97	805.14
385.17	889.40
385.36	748.97
385.56	823.87
385.75	770.04
385.95	840.25
386.14	870.68
386.34	833.23
386.53	896.43
386.72	1006.43
386.92	873.02
387.11	903.45
387.31	849.61
387.50	870.68
387.70	868.34
387.89	896.43
388.09	931.53
388.28	968.98
388.48	873.02
388.67	992.39
388.86	936.21
389.06	894.08
389.25	912.81
389.45	901.11
389.64	957.28
389.84	976.00
390.03	964.30
390.22	971.32
390.42	983.02
390.61	943.24
390.81	1036.86
391.00	950.26
391.19	987.71
391.39	931.53
391.58	1069.62
391.78	1043.88
391.97	985.37
392.16	1069.62
392.36	1097.71
392.55	1050.90
392.75	1067.28
392.94	1083.67
393.13	1083.67
393.33	1069.62
393.52	1013.45
393.71	1123.46
393.91	1104.73
394.10	1188.99
394.29	1165.59
394.49	1132.82
394.68	1165.59
394.88	1100.05
395.07	1022.81
395.26	1142.18
395.46	1128.14
395.65	1146.86
395.84	1181.97
396.04	1198.35
396.23	1181.97
396.42	1249.85
396.62	1093.03
396.81	1247.51
397.00	1156.22
397.19	1254.53
397.39	1282.61
397.58	1357.51
397.77	1273.25
397.97	1275.59
398.16	1320.06
398.35	1282.61
398.55	1256.87
398.74	1270.91
398.93	1427.73
399.12	1289.64
399.32	1299.00
399.51	1277.93
399.70	1423.05
399.90	1352.83
400.09	1383.26
400.28	1444.11
400.47	1416.02
400.67	1394.96
400.86	1350.49
401.05	1409.00
401.24	1341.13
401.44	1446.45
401.63	1469.86
401.82	1434.75
402.01	1425.39
402.21	1387.94
402.40	1502.62
402.59	1528.37
402.78	1497.94
402.97	1514.33
403.17	1472.20
403.36	1537.73
403.55	1589.22
403.74	1558.80
403.93	1577.52
404.13	1565.82
404.32	1570.50
404.51	1582.20
404.70	1607.95
404.89	1570.50
405.09	1661.78
405.28	1724.97
405.47	1671.14
405.66	1664.12
405.85	1682.85
406.05	1614.97
406.24	1788.17
406.43	1748.38
406.62	1755.40
406.81	1767.10
407.00	1666.46
407.20	1724.97
407.39	1692.21
407.58	1816.26
407.77	1783.49
407.96	1863.07
408.15	1944.99
408.34	1888.81
408.54	1916.90
408.73	1926.26
408.92	1914.56
409.11	1933.28
409.30	1858.39
409.49	1966.05
409.68	1937.96
409.87	2010.52
410.07	2071.37
410.26	1989.46
410.45	2076.06
410.64	2043.29
410.83	2085.42
411.02	2165.00
411.21	2176.70
411.40	2127.55
411.59	2167.34
411.78	2069.03
411.98	2246.91
412.17	2282.02
412.36	2232.87
412.55	2310.11
412.74	2368.62
412.93	2385.01
413.12	2253.94
413.31	2438.84
413.50	2373.30
413.69	2478.63
413.88	2370.96
414.07	2366.28
414.26	2450.54
414.45	2509.05
414.64	2597.99
414.83	2513.74
415.02	2569.91
415.22	2619.06
415.41	2628.42
415.60	2801.62
415.79	2682.25
415.98	2771.19
416.17	2665.87
416.36	2738.43
416.55	2750.13
416.74	2768.85
416.93	2740.77
417.12	2792.26
417.31	2843.75
417.50	2890.56
417.69	2923.33
417.88	2890.56
418.07	2944.39
418.26	3124.62
418.45	2977.16
418.64	3101.21
418.83	2977.16
419.02	3131.64
419.21	3056.74
419.39	3009.93
419.58	3087.17
419.77	3042.70
419.96	3117.59
420.15	3115.25
420.34	3040.36
420.53	3194.83
420.72	3236.96
420.91	3211.22
421.10	3159.72
421.29	3286.11
421.48	3192.49
421.67	3173.77
421.86	3302.50
422.05	3389.10
422.24	3325.90
422.43	3368.03
422.61	3372.71
422.80	3276.75
422.99	3335.26
423.18	3290.79
423.37	3393.78
423.56	3400.80
423.75	3351.65
423.94	3248.66
424.13	3300.16
424.32	3403.14
424.50	3428.88
424.69	3522.51
424.88	3466.33
425.07	3480.38
425.26	3370.37
425.45	3506.12
425.64	3318.88
425.83	3379.73
426.01	3351.65
426.20	3489.74
426.39	3426.54
426.58	3353.99
426.77	3499.10
426.96	3527.19
427.15	3674.64
427.33	3599.74
427.52	3475.70
427.71	3634.85
427.90	3435.91
428.09	3744.86
428.28	3646.55
428.46	3698.05
428.65	3581.02
428.84	3761.24
429.03	3861.88
429.22	3674.64
429.40	3747.20
429.59	3831.46
429.78	3543.57
429.97	3515.48
430.16	3733.15
430.34	3819.75
430.53	3868.91
430.72	3815.07
430.91	3861.88
431.10	3756.56
431.28	3878.27
431.47	3927.42
431.66	3967.21
431.85	4095.94
432.03	3932.10
432.22	4093.60
432.41	4114.66
432.60	4030.40
432.79	4133.39
432.97	4149.77
433.16	4161.47
433.35	4086.58
433.54	4060.83
433.72	4081.89
433.91	4149.77
434.10	4159.13
434.28	4138.07
434.47	4306.59
434.66	4241.05
434.85	4353.40
435.03	4351.06
435.22	4269.14
435.41	4355.74
435.59	4329.99
435.78	4278.50
435.97	4390.84
436.16	4351.06
436.34	4428.29
436.53	4493.83
436.72	4542.98
436.90	4561.70
437.09	4533.62
437.28	4435.32
437.46	4491.49
437.65	4535.96
437.84	4435.32
438.02	4650.64
438.21	4571.07
438.40	4500.85
438.58	4821.50
438.77	4636.60
438.96	4755.97
439.14	4791.08
439.33	4873.00
439.52	4929.17
439.70	4905.76
439.89	5104.71
440.08	4936.19
440.26	5041.51
440.45	5055.56
440.63	5013.43
440.82	5081.30
441.01	5097.69
441.19	5151.52
441.38	5158.54
441.57	5313.02
441.75	5270.89
441.94	5327.06
442.12	5416.00
442.31	5661.76
442.50	5441.75
442.68	5303.65
442.87	5500.26
443.05	5636.01
443.24	5369.19
443.43	5565.79
443.61	5678.14
443.80	5760.06
443.98	5425.36
444.17	5301.31
444.35	5659.42
444.54	5811.55
444.73	5572.82
444.91	5762.40
445.10	5675.80
445.28	5713.25
445.47	5654.73
445.65	5645.37
445.84	5729.63
446.02	5659.42
446.21	5636.01
446.39	5638.35
446.58	5741.33
446.77	5816.23
446.95	5432.38
447.14	5729.63
447.32	5743.67
447.51	5668.78
447.69	5727.29
447.88	5734.31
448.06	5701.54
448.25	5909.85
448.43	5678.14
448.62	5905.17
448.80	5853.68
448.99	5717.93
449.17	5909.85
449.36	5778.78
449.54	5951.98
449.73	6029.22
449.91	6054.97
450.10	6272.64
450.28	6218.80
450.46	6118.16
450.65	6061.99
450.83	6111.14
451.02	6195.40
451.20	6370.94
451.39	6085.39
451.57	6232.85
451.76	6148.59
451.94	6108.80
452.13	6335.83
452.31	6232.85
452.49	6127.52
452.68	6207.10
452.86	6263.27
453.05	6216.46
453.23	6324.13
453.42	6349.87
453.60	6183.70
453.78	6333.49
453.97	6434.13
454.15	6406.05
454.34	6347.53
454.52	6459.88
454.70	6544.14
454.89	6516.05
455.07	6607.33
455.26	6527.75
455.44	6588.61
455.62	6628.40
455.81	6726.70
455.99	6768.83
456.17	6820.32
456.36	6832.02
456.54	6782.87
456.73	6920.96
456.91	7054.37
457.09	6972.46
457.28	7082.46
457.46	6799.26
457.64	6953.73
457.83	7028.63
458.01	7028.63
458.19	7052.03
458.38	6932.67
458.56	7049.69
458.74	7314.17
458.93	7045.01
459.11	7033.31
459.29	7164.38
459.48	7269.70
459.66	7255.66
459.84	7265.02
460.03	7349.28
460.21	7426.52
460.39	7311.83
460.57	7384.39
460.76	7398.43
460.94	7463.97
461.12	7480.35
461.31	7353.96
461.49	7562.27
461.67	7487.37
461.85	7496.74
462.04	7489.71
462.22	7992.93
462.40	7742.49
462.59	7765.90
462.77	7763.56
462.95	7782.28
463.13	7873.56
463.32	7679.30
463.50	7723.77
463.68	7854.84
463.86	7918.03
464.05	7653.55
464.23	7936.76
464.41	7885.26
464.59	7833.77
464.78	8030.38
464.96	7861.86
465.14	7918.03
465.32	8060.80
465.50	8030.38
465.69	8149.75
465.87	8079.53
466.05	8074.85
466.23	8217.62
466.41	8231.66
466.60	8444.65
466.78	7960.16
466.96	8058.46
467.14	8210.60
467.32	8259.75
467.51	8463.38
467.69	8044.42
467.87	8329.97
468.05	8456.36
468.23	8196.56
468.41	8416.57
468.60	8512.53
468.78	8262.09
468.96	8250.39
469.14	8575.72
469.32	8617.85
469.50	8388.48
469.69	8634.24
469.87	8730.20
470.05	8854.25
470.23	8671.68
470.41	8737.22
470.59	8868.29
470.77	8751.26
470.95	8524.23
471.14	9076.60
471.32	8959.57
471.50	8830.84
471.68	9165.54
471.86	9090.64
472.04	9085.96
472.22	9191.28
472.40	9181.92
472.58	9149.15
472.77	9406.61
472.95	9282.56
473.13	9483.85
473.31	9385.55
473.49	9406.61
473.67	9308.31
473.85	9469.81
474.03	9654.71
474.21	9713.22
474.39	9888.76
474.57	9767.06
474.75	10001.11
474.93	9771.74
475.12	9867.70
475.30	9909.83
475.48	10068.98
475.66	10164.95
475.84	10120.48
476.02	10263.25
476.20	10244.52
476.38	10363.89
476.56	10480.92
476.74	10651.78
476.92	10352.19
477.10	10345.17
477.28	10490.28
477.46	10494.96
477.64	10869.45
477.82	10853.06
478.00	11103.50
478.18	11138.61
478.36	10981.79
478.54	11433.52
478.72	11122.23
478.90	11293.08
479.08	11452.24
479.26	11585.65
479.44	11470.97
479.62	11658.21
479.80	11838.43
479.98	11997.59
480.16	12152.06
480.34	12098.23
480.52	12187.17
480.70	12332.28
480.88	12037.38
481.06	12257.39
481.24	12339.30
481.41	12472.71
481.59	12751.24
481.77	12774.64
481.95	12952.52
482.13	13170.19
482.31	12868.27
482.49	13362.12
482.67	13420.63
482.85	13469.78
483.03	13605.53
483.21	13785.76
483.39	13516.59
483.57	13561.06
483.74	13682.77
483.92	14270.25
484.10	13980.02
484.28	14143.86
484.46	14518.34
484.64	14370.89
484.82	14228.12
485.00	14494.94
485.18	14710.27
485.35	15077.73
485.53	15014.54
485.71	14974.75
485.89	15433.49
486.07	15325.83
486.25	15353.91
486.43	15367.96
486.61	15538.82
486.78	15864.15
486.96	15693.29
487.14	16231.62
487.32	16383.75
487.50	16128.63
487.68	16496.10
487.85	16404.81
488.03	16716.11
488.21	17039.10
488.39	16851.86
488.57	17011.01
488.75	16889.31
488.92	17444.01
489.10	17415.93
489.28	17394.86
489.46	17750.62
489.64	17703.81
489.81	18132.13
489.99	18075.96
490.17	18228.09
490.35	18368.52
490.53	18272.56
490.70	18785.14
490.88	18487.89
491.06	18941.96
491.24	18878.76
491.41	18871.74
491.59	19070.68
491.77	19274.31
491.95	19304.74
492.13	19789.23
492.30	19580.92
492.48	19756.46
492.66	19580.92
492.84	19726.04
493.01	19976.47
493.19	20142.65
493.37	20065.41
493.54	20416.49
493.72	20379.04
493.90	20526.50
494.08	20624.80
494.25	20917.37
494.43	20727.78
494.61	20978.22
494.79	21348.03
494.96	21186.53
495.14	21451.01
495.32	21649.96
495.49	21544.63
495.67	21813.79
495.85	21795.07
496.02	22232.75
496.20	22450.42
496.38	22012.74
496.55	22368.50
496.73	22813.20
496.91	22684.47
497.09	22925.55
497.26	23044.91
497.44	22806.18
497.62	23073.00
497.79	23236.84
497.97	23260.24
498.14	23613.66
498.32	23419.40
498.50	23466.21
498.67	23676.86
498.85	23641.75
499.03	24098.16
499.20	24034.96
499.38	23852.40
499.56	23922.62
499.73	24100.50
499.91	24507.75
500.08	24596.69
500.26	24238.59
500.44	24484.34
500.61	24776.91
500.79	24706.70
500.97	24863.51
501.14	25640.57
501.32	25198.21
501.49	25233.32
501.67	25118.63
501.84	25605.46
502.02	25633.55
502.20	25654.61
502.37	25324.60
502.55	25825.47
502.72	25392.47
502.90	25734.19
503.07	25549.29
503.25	25879.30
503.43	25544.61
503.60	26309.96
503.78	26118.04
503.95	26085.27
504.13	26490.18
504.30	26878.71
504.48	26710.19
504.65	26824.88
504.83	26714.87
505.01	27164.26
505.18	26972.33
505.36	27061.27
505.53	27332.78
505.71	27145.53
505.88	27452.14
506.06	27117.45
506.23	27667.47
506.41	27358.52
506.58	27660.45
506.76	27915.57
506.93	28107.49
507.11	27864.08
507.28	28203.46
507.46	27861.74
507.63	28322.82
507.81	28315.80
507.98	28189.41
508.16	28128.56
508.33	28439.85
508.50	28498.36
508.68	28900.94
508.85	28861.15
509.03	29024.98
509.20	28840.08
509.38	29338.62
509.55	29003.92
509.73	28989.88
509.90	29312.87
510.08	29287.12
510.25	29647.57
510.42	29247.33
510.60	29582.03
510.77	29937.79
510.95	30195.25
511.12	29869.92
511.30	30417.60
511.47	29792.68
511.64	29958.86
511.82	30295.89
511.99	29818.42
512.17	30218.66
512.34	30209.29
512.51	30719.53
512.69	30686.76
512.86	30593.14
513.04	30684.42
513.21	31019.12
513.38	31040.18
513.56	30815.49
513.73	30766.34
513.90	31040.18
514.08	30995.71
514.25	31028.48
514.43	31428.71
514.60	31452.12
514.77	31438.08
514.95	31112.74
515.12	31676.81
515.29	31630.00
515.47	32016.19
515.64	32088.74
515.81	31819.58
515.99	32252.58
516.16	32348.54
516.33	32091.09
516.51	32531.11
516.68	32133.21
516.85	32402.38
517.03	32393.01
517.20	32765.16
517.37	32290.03
517.54	32453.87
517.72	32306.41
517.89	33050.70
518.06	33043.68
518.24	33350.29
518.41	32910.27
518.58	32999.21
518.75	32921.98
518.93	33085.81
519.10	33085.81
519.27	33556.26
519.45	33560.94
519.62	33500.09
519.79	33647.54
519.96	33340.93
520.14	33989.26
520.31	34054.79
520.48	33790.31
520.65	33706.05
520.83	34277.15
521.00	34349.70
521.17	33998.62
521.34	34405.88
521.52	34377.79
521.69	34293.53
521.86	34494.82
522.03	34543.97
522.20	34719.51
522.38	34962.92
522.55	34639.93
522.72	34824.83
522.89	34937.18
523.07	35400.60
523.24	35115.06
523.41	35314.00
523.58	34761.64
523.75	35206.34
523.92	35101.01
524.10	35372.52
524.27	35374.86
524.44	35634.66
524.61	35674.45
524.78	35978.72
524.96	35543.38
525.13	35913.18
525.30	35880.41
525.47	35871.05
525.64	35824.24
525.81	36006.80
525.98	36271.28
526.16	36458.52
526.33	35873.39
526.50	36385.97
526.67	36201.07
526.84	36367.24
527.01	36449.16
527.18	36549.81
527.36	36610.66
527.53	36671.51
527.70	36697.26
527.87	36566.19
528.04	36781.52
528.21	37010.89
528.38	36732.37
528.55	37202.82
528.72	37116.22
528.89	36886.84
529.07	37125.58
529.24	37095.15
529.41	37469.64
529.58	37347.93
529.75	37006.21
529.92	36928.97
530.09	37462.61
530.26	37221.54
530.43	37818.38
530.60	37209.84
530.77	37703.69
530.94	37638.15
531.11	37518.79
531.28	37666.24
531.46	37904.98
531.63	38169.46
531.80	37773.91
531.97	38178.82
532.14	38068.81
532.31	38160.09
532.48	38583.73
532.65	38569.69
532.82	38410.53
532.99	38199.88
533.16	38335.63
533.33	38628.20
533.50	38745.23
533.67	38518.20
533.84	38162.43
534.01	38897.36
534.18	38291.16
534.35	38967.58
534.52	38906.73
534.69	38890.34
534.86	39332.70
535.03	39100.99
535.20	39072.90
535.37	39154.82
535.54	39555.05
535.71	39299.94
535.88	39814.85
536.05	39873.37
536.22	39517.60
536.38	39330.36
536.55	39438.03
536.72	39709.53
536.89	39309.30
537.06	39292.91
537.23	39878.05
537.40	39667.40
537.57	39543.35
537.74	39746.98
537.91	39969.33
538.08	40053.59
538.25	39559.73
538.42	40069.97
538.59	40252.53
538.75	40273.60
538.92	40767.45
539.09	41055.34
539.26	40320.41
539.43	39833.58
539.60	40580.21
539.77	40627.02
539.94	40989.80
540.11	40634.04
540.28	40830.65
540.44	40549.78
540.61	40608.29
540.78	40437.44
540.95	40713.62
541.12	40673.83
541.29	40210.40
541.46	40620.00
541.62	40561.48
541.79	41099.81
541.96	40666.81
542.13	40671.49
542.30	40692.55
542.47	41443.87
542.63	40926.61
542.80	41656.85
542.97	41696.64
543.14	41556.21
543.31	41109.17
543.48	41598.34
543.64	42258.37
543.81	42110.92
543.98	41682.60
544.15	41839.42
544.32	42223.26
544.48	42361.36
544.65	41698.98
544.82	42373.06
544.99	41970.49
545.16	41722.39
545.32	41909.63
545.49	42436.25
545.66	42487.74
545.83	41972.83
546.00	42314.55
546.16	42298.16
546.33	42436.25
546.50	41965.81
546.67	43070.54
546.83	42127.30
547.00	42665.63
547.17	42452.64
547.34	42160.07
547.50	42946.49
547.67	42892.66
547.84	42895.00
548.00	43058.84
548.17	43049.47
548.34	43269.48
548.51	42895.00
548.67	42948.83
548.84	42974.58
549.01	42567.32
549.18	43206.29
549.34	43002.66
549.51	43243.74
549.68	43496.52
549.84	43292.89
550.01	43555.03
550.18	43236.72
550.34	43225.01
550.51	43423.96
550.68	43068.20
550.84	43208.63
551.01	43540.99
551.18	43217.99
551.34	43672.06
551.51	43536.30
551.68	43777.38
551.84	43416.94
552.01	43501.20
552.18	43999.73
552.34	43896.75
552.51	43871.00
552.68	44004.41
552.84	43793.76
553.01	44259.53
553.18	43838.23
553.34	44006.75
553.51	44196.34
553.67	44196.34
553.84	43997.39
554.01	44217.40
554.17	43744.61
554.34	44261.87
554.51	44259.53
554.67	44554.44
554.84	44521.67
555.00	44521.67
555.17	44327.41
555.33	44549.76
555.50	44299.32
555.67	44374.22
555.83	44762.75
556.00	44608.27
556.16	44655.08
556.33	44718.28
556.50	44659.76
556.66	44432.73
556.83	44385.92
556.99	44907.86
557.16	44701.89
557.32	44949.99
557.49	45272.98
557.65	44800.19
557.82	44837.64
557.98	44559.12
558.15	44989.78
558.32	45198.09
558.48	44966.37
558.65	45102.12
558.81	45247.24
558.98	44790.83
559.14	44811.90
559.31	44975.73
559.47	45090.42
559.64	45167.66
559.80	45200.43
559.97	45137.23
560.13	45116.17
560.30	45439.16
560.46	45858.12
560.63	45560.87
560.79	45574.91
560.96	45352.56
561.12	45413.41
561.29	45492.99
561.45	45675.55
561.61	45329.16
561.78	45172.34
561.94	45296.39
562.11	45184.04
562.27	45474.27
562.44	45738.75
562.60	45600.66
562.77	45509.38
562.93	45745.77
563.10	46050.04
563.26	45125.53
563.42	46202.18
563.59	45769.18
563.75	45539.80
563.92	45839.39
564.08	45663.85
564.24	45724.71
564.41	45663.85
564.57	46136.64
564.74	45694.28
564.90	45581.93
565.07	45911.95
565.23	46050.04
565.39	46129.62
565.56	46134.30
565.72	45832.37
565.88	45890.88
566.05	46366.01
566.21	45855.78
566.38	46141.32
566.54	46253.67
566.70	45986.85
566.87	46305.16
567.03	45731.73
567.19	46279.41
567.36	46396.44
567.52	46337.93
567.68	46522.83
567.85	46543.89
568.01	46569.64
568.17	46183.45
568.34	46541.55
568.50	46038.34
568.66	45968.12
568.83	46213.88
568.99	46230.26
569.15	46548.57
569.32	46483.04
569.48	45818.33
569.64	46600.07
569.81	46356.65
569.97	46459.63
570.13	46457.29
570.30	46302.82
570.46	46380.06
570.62	46424.53
570.78	45661.51
570.95	46272.39
571.11	46663.26
571.27	46204.52
571.43	46309.84
571.60	46274.73
571.76	46550.91
571.92	45914.29
572.09	46293.46
572.25	46569.64
572.41	46286.43
572.57	46466.66
572.74	47012.00
572.90	46646.88
573.06	46546.23
573.22	46520.49
573.38	46555.60
573.55	46581.34
573.71	47164.14
573.87	46878.59
574.03	46487.72
574.20	46782.63
574.36	46623.47
574.52	46803.69
574.68	46834.12
574.84	47114.98
575.01	46731.14
575.17	46749.86
575.33	46536.87
575.49	46883.27
575.65	47114.98
575.82	46747.52
575.98	46499.42
576.14	46976.89
576.30	46939.44
576.46	47103.28
576.62	46686.67
576.79	46873.91
576.95	46344.95
577.11	46897.31
577.27	46597.73
577.43	46976.89
577.59	47040.09
577.75	46401.12
577.92	46583.68
578.08	47353.72
578.24	46869.23
578.40	47040.09
578.56	46705.39
578.72	46983.91
578.88	47292.86
579.04	47033.07
579.21	46649.22
579.37	47136.05
579.53	47119.66
579.69	46899.65
579.85	47269.46
580.01	47004.98
580.17	46478.36
580.33	46782.63
580.49	47037.75
580.65	46670.28
580.82	47213.29
580.98	46932.42
581.14	46438.57
581.30	47098.60
581.46	47241.37
581.62	46822.42
581.78	47007.32
581.94	47016.68
582.10	46813.05
582.26	47192.22
582.42	47026.04
582.58	47126.69
582.74	47098.60
582.90	46941.78
583.06	47002.64
583.22	47297.55
583.38	47044.77
583.54	46756.88
583.70	47117.32
583.86	47234.35
584.02	46859.87
584.18	47281.16
584.34	47466.06
584.50	47311.59
584.66	47065.83
584.82	47342.02
584.98	47683.73
585.14	47395.85
585.30	46810.71
585.46	46965.19
585.62	47154.77
585.78	47517.56
585.94	46731.14
586.10	47220.31
586.26	46866.89
586.42	47110.30
586.58	47178.18
586.74	47416.91
586.90	47056.47
587.06	47365.42
587.22	47540.96
587.38	46878.59
587.54	47650.97
587.70	47730.54
587.86	47304.57
588.02	47030.72
588.18	47040.09
588.34	47199.24
588.49	47384.15
588.65	47379.46
588.81	47386.49
588.97	47426.28
589.13	47023.70
589.29	46927.74
589.45	47585.43
589.61	47435.64
589.77	47323.29
589.93	47278.82
590.08	47360.74
