SpectraSuite Data File
++++++++++++++++++++++++++++++++++++
Date: Fri Oct 25 11:26:16 EDT 2013
User: price-jones
Dark Spectrum Present: No
Reference Spectrum Present: No
Number of Sampled Component Spectra: 1
Spectrometers: USB2+H05261
Integration Time (usec): 100000 (USB2+H05261)
Spectra Averaged: 1 (USB2+H05261)
Boxcar Smoothing: 0 (USB2+H05261)
Correct for Electrical Dark: No (USB2+H05261)
Strobe/Lamp Enabled: No (USB2+H05261)
Correct for Detector Non-linearity: No (USB2+H05261)
Correct for Stray Light: No (USB2+H05261)
Number of Pixels in Processed Spectrum: 2048
>>>>>Begin Processed Spectral Data<<<<<
365.73	220.01
365.92	220.01
366.12	220.01
366.32	149.79
366.52	149.79
366.72	212.99
366.91	147.45
367.11	135.75
367.31	86.60
367.51	133.41
367.70	210.65
367.90	177.88
368.10	147.45
368.30	79.58
368.49	170.86
368.69	142.77
368.89	110.01
369.09	126.39
369.28	168.52
369.48	177.88
369.68	208.31
369.87	241.08
370.07	229.37
370.27	262.14
370.47	358.10
370.66	617.90
370.86	601.52
371.06	596.84
371.25	587.47
371.45	622.58
371.65	702.16
371.84	650.67
372.04	678.76
372.24	678.76
372.44	755.99
372.63	807.48
372.83	781.74
373.03	807.48
373.22	763.01
373.42	763.01
373.62	802.80
373.81	748.97
374.01	809.83
374.21	814.51
374.40	870.68
374.60	805.14
374.79	807.48
374.99	854.30
375.19	837.91
375.38	791.10
375.58	784.08
375.78	866.00
375.97	840.25
376.17	905.79
376.37	866.00
376.56	877.70
376.76	880.04
376.95	959.62
377.15	882.38
377.35	990.05
377.54	915.15
377.74	873.02
377.93	917.49
378.13	940.90
378.33	910.47
378.52	926.85
378.72	873.02
378.91	912.81
379.11	922.17
379.31	868.34
379.50	992.39
379.70	1060.26
379.89	992.39
380.09	976.00
380.28	983.02
380.48	945.58
380.68	954.94
380.87	1006.43
381.07	978.34
381.26	1125.80
381.46	1022.81
381.65	1060.26
381.85	1025.15
382.04	1111.75
382.24	1109.41
382.43	1004.09
382.63	1029.84
382.83	1046.22
383.02	1118.78
383.22	1142.18
383.41	1088.35
383.61	1100.05
383.80	1146.86
384.00	1149.20
384.19	1149.20
384.39	1174.95
384.58	1191.33
384.78	1137.50
384.97	1191.33
385.17	1151.54
385.36	1205.38
385.56	1132.82
385.75	1128.14
385.95	1137.50
386.14	1167.93
386.34	1212.40
386.53	1228.78
386.72	1191.33
386.92	1238.14
387.11	1217.08
387.31	1181.97
387.50	1282.61
387.70	1238.14
387.89	1291.98
388.09	1259.21
388.28	1294.32
388.48	1355.17
388.67	1226.44
388.86	1378.58
389.06	1338.79
389.25	1303.68
389.45	1362.19
389.64	1275.59
389.84	1345.81
390.03	1380.92
390.22	1336.45
390.42	1373.89
390.61	1420.71
390.81	1425.39
391.00	1439.43
391.19	1394.96
391.39	1483.90
391.58	1373.89
391.78	1474.54
391.97	1448.79
392.16	1397.30
392.36	1533.05
392.55	1575.18
392.75	1455.81
392.94	1549.43
393.13	1507.30
393.33	1533.05
393.52	1572.84
393.71	1610.29
393.91	1678.16
394.10	1493.26
394.29	1568.16
394.49	1629.01
394.68	1586.88
394.88	1584.54
395.07	1722.63
395.26	1675.82
395.46	1706.25
395.65	1736.68
395.84	1682.85
396.04	1715.61
396.23	1717.95
396.42	1739.02
396.62	1685.19
396.81	1802.21
397.00	1724.97
397.19	1799.87
397.39	1788.17
397.58	1902.86
397.77	1830.30
397.97	1851.36
398.16	1867.75
398.35	1930.94
398.55	1891.15
398.74	1952.01
398.93	1940.30
399.12	1827.96
399.32	1928.60
399.51	1914.56
399.70	2010.52
399.90	2012.86
400.09	2062.01
400.28	2017.54
400.47	2003.50
400.67	2092.44
400.86	2069.03
401.05	2057.33
401.24	2029.24
401.44	2038.61
401.63	2193.08
401.82	2066.69
402.01	2059.67
402.21	2134.57
402.40	2244.57
402.59	2167.34
402.78	2216.49
402.97	2251.60
403.17	2246.91
403.36	2179.04
403.55	2260.96
403.74	2387.35
403.93	2396.71
404.13	2326.49
404.32	2354.58
404.51	2410.75
404.70	2408.41
404.89	2338.20
405.09	2359.26
405.28	2431.82
405.47	2441.18
405.66	2609.70
405.85	2513.74
406.05	2363.94
406.24	2478.63
406.43	2621.40
406.62	2490.33
406.81	2616.72
407.00	2602.68
407.20	2548.84
407.39	2656.51
407.58	2677.57
407.77	2778.22
407.96	2771.19
408.15	2799.28
408.34	2792.26
408.54	2885.88
408.73	2764.17
408.92	2757.15
409.11	2757.15
409.30	2860.13
409.49	2780.56
409.68	3019.29
409.87	2874.18
410.07	2944.39
410.26	3030.99
410.45	3000.57
410.64	3110.57
410.83	3068.44
411.02	3054.40
411.21	3155.04
411.40	3021.63
411.59	3183.13
411.78	3098.87
411.98	3300.16
412.17	3187.81
412.36	3246.32
412.55	3384.41
412.74	3335.26
412.93	3382.07
413.12	3368.03
413.31	3529.53
413.50	3438.25
413.69	3501.44
413.88	3611.45
414.07	3473.36
414.26	3599.74
414.45	3590.38
414.64	3634.85
414.83	3648.90
415.02	3625.49
415.22	3798.69
415.41	3838.48
415.60	3747.20
415.79	3901.67
415.98	3899.33
416.17	3974.23
416.36	3957.85
416.55	3953.16
416.74	4098.28
416.93	4037.42
417.12	4145.09
417.31	4102.96
417.50	4177.86
417.69	4315.95
417.88	4262.12
418.07	4418.93
418.26	4297.22
418.45	4442.34
418.64	4470.42
418.83	4510.21
419.02	4374.46
419.21	4379.14
419.39	4470.42
419.58	4521.92
419.77	4535.96
419.96	4550.00
420.15	4603.83
420.34	4447.02
420.53	4468.08
420.72	4795.76
420.91	4554.68
421.10	4889.38
421.29	4748.95
421.48	4669.37
421.67	4772.35
421.86	4786.40
422.05	4805.12
422.24	4739.58
422.43	4901.08
422.61	5001.72
422.80	4903.42
422.99	4894.06
423.18	4835.55
423.37	5069.60
423.56	4812.14
423.75	4823.84
423.94	4774.69
424.13	4571.07
424.32	4868.31
424.50	4898.74
424.69	5083.64
424.88	5053.22
425.07	4894.06
425.26	4877.68
425.45	4931.51
425.64	4835.55
425.83	4980.66
426.01	4926.83
426.20	4929.17
426.39	5039.17
426.58	5160.88
426.77	4952.57
426.96	5224.08
427.15	4922.15
427.33	5233.44
427.52	5067.26
427.71	5256.84
427.90	5294.29
428.09	5378.55
428.28	5387.91
428.46	5380.89
428.65	5308.34
428.84	5476.85
429.03	5474.51
429.22	5359.83
429.40	5427.70
429.59	5418.34
429.78	5352.81
429.97	5313.02
430.16	5373.87
430.34	5605.58
430.53	5657.07
430.72	5523.66
430.91	5675.80
431.10	5544.73
431.28	5678.14
431.47	5839.64
431.66	5865.38
431.85	5750.70
432.03	5996.45
432.22	5874.74
432.41	6001.13
432.60	5870.06
432.79	5771.76
432.97	6071.35
433.16	6167.31
433.35	5849.00
433.54	5966.03
433.72	6019.86
433.91	6122.84
434.10	6139.23
434.28	6001.13
434.47	6015.18
434.66	6162.63
434.85	6132.20
435.03	6354.55
435.22	6179.01
435.41	6445.84
435.59	6314.77
435.78	6347.53
435.97	6291.36
436.16	6555.84
436.34	6349.87
436.53	6574.56
436.72	6691.59
436.90	6361.58
437.09	6764.15
437.28	6509.03
437.46	6548.82
437.65	6658.82
437.84	6614.35
438.02	6633.08
438.21	6773.51
438.40	6703.29
438.58	6888.20
438.77	6916.28
438.96	7026.29
439.14	7019.27
439.33	7012.24
439.52	7323.54
439.70	7274.38
439.89	7351.62
440.08	7290.77
440.26	7197.15
440.45	7515.46
440.63	7524.82
440.82	7681.64
441.01	7552.91
441.19	7688.66
441.38	7716.75
441.57	7681.64
441.75	7599.72
441.94	7995.27
442.12	7833.77
442.31	8046.76
442.50	8006.97
442.68	7840.79
442.87	7997.61
443.05	8154.43
443.24	8074.85
443.43	8105.28
443.61	8348.69
443.80	8561.68
443.98	8004.63
444.17	7990.59
444.35	8135.70
444.54	8276.13
444.73	8404.86
444.91	8177.83
445.10	8196.56
445.28	8273.79
445.47	8021.02
445.65	8348.69
445.84	8430.61
446.02	8571.04
446.21	8425.93
446.39	8327.63
446.58	8547.64
446.77	8568.70
446.95	8252.73
447.14	8402.52
447.32	8400.18
447.51	8601.47
447.69	8519.55
447.88	8500.83
448.06	8498.49
448.25	8479.76
448.43	8655.30
448.62	8592.11
448.80	8489.12
448.99	8578.06
449.17	8777.01
449.36	8510.19
449.54	8889.35
449.73	8699.77
449.91	8968.93
450.10	9043.83
450.28	9100.00
450.46	9036.81
450.65	9146.81
450.83	8912.76
451.02	8978.30
451.20	9188.94
451.39	9111.71
451.57	9153.84
451.76	9177.24
451.94	9268.52
452.13	9437.04
452.31	9172.56
452.49	9261.50
452.68	9240.44
452.86	9217.03
453.05	9350.44
453.23	9305.97
453.42	9291.93
453.60	9275.54
453.78	9387.89
453.97	9476.83
454.15	9626.62
454.34	9455.76
454.52	9664.07
454.70	9661.73
454.89	9661.73
455.07	9783.44
455.26	9823.23
455.44	9877.06
455.62	10005.79
455.81	9788.12
455.99	10012.81
456.17	10045.58
456.36	10029.20
456.54	10038.56
456.73	10076.01
456.91	10331.12
457.09	10033.88
457.28	10349.85
457.46	10246.87
457.64	10464.54
457.83	10408.36
458.01	10494.96
458.19	10771.15
458.38	10595.61
458.56	10803.91
458.74	10424.75
458.93	10661.14
459.11	10768.80
459.29	10684.55
459.48	10951.37
459.66	10775.83
459.84	10785.19
460.03	10904.56
460.21	10932.64
460.39	10738.38
460.57	10855.40
460.76	11211.17
460.94	11171.38
461.12	11288.40
461.31	11243.93
461.49	10860.09
461.67	11241.59
461.85	11489.69
462.04	11213.51
462.22	11728.42
462.40	11379.68
462.59	11417.13
462.77	11545.86
462.95	11463.94
463.13	11686.29
463.32	11698.00
463.50	11875.88
463.68	11843.11
463.86	12016.31
464.05	11538.84
464.23	11761.19
464.41	11859.49
464.59	11627.78
464.78	12147.38
464.96	11892.26
465.14	11721.40
465.32	12032.69
465.50	12074.82
465.69	12201.21
465.87	12046.74
466.05	12329.94
466.23	12119.29
466.41	12299.52
466.60	12248.02
466.78	12283.13
466.96	12011.63
467.14	12166.10
467.32	12381.43
467.51	12439.95
467.69	12002.27
467.87	12280.79
468.05	12786.35
468.23	12168.45
468.41	12402.50
468.60	12578.04
468.78	12587.40
468.96	12606.13
469.14	12697.41
469.32	12718.47
469.50	12683.36
469.69	12894.01
469.87	12943.16
470.05	13118.70
470.23	13130.41
470.41	13179.56
470.59	13219.35
470.77	13006.36
470.95	13109.34
471.14	13507.23
471.32	13018.06
471.50	13558.72
471.68	13561.06
471.86	13605.53
472.04	13525.96
472.22	14085.34
472.40	13853.63
472.58	13657.03
472.77	14120.45
472.95	14122.79
473.13	14647.07
473.31	13900.44
473.49	13963.64
473.67	13970.66
473.85	14466.85
474.03	14668.14
474.21	14354.51
474.39	14745.38
474.57	14810.91
474.75	14717.29
474.93	14920.92
475.12	14885.81
475.30	15007.52
475.48	14963.04
475.66	15133.90
475.84	15150.29
476.02	15374.98
476.20	15187.74
476.38	15782.23
476.56	16201.19
476.74	15679.25
476.92	15882.88
477.10	15604.35
477.28	16053.73
477.46	16308.85
477.64	16184.80
477.82	16566.31
478.00	16924.41
478.18	16676.32
478.36	16996.97
478.54	17156.13
478.72	16964.20
478.90	17238.05
479.08	17633.60
479.26	17488.48
479.44	17661.68
479.62	17970.63
479.80	18085.32
479.98	17998.72
480.16	18548.75
480.34	17930.84
480.52	18366.18
480.70	18721.95
480.88	18331.08
481.06	18600.24
481.24	18768.76
481.41	18951.32
481.59	19431.13
481.77	19466.24
481.95	19424.11
482.13	19559.86
482.31	19651.14
482.49	20264.36
482.67	20222.23
482.85	20112.22
483.03	20519.48
483.21	20840.13
483.39	20964.18
483.57	20929.07
483.74	21064.82
483.92	21195.89
484.10	20943.11
484.28	21872.31
484.46	21884.01
484.64	22230.41
484.82	21982.31
485.00	22195.30
485.18	22471.48
485.35	22738.30
485.53	22862.35
485.71	23040.23
485.89	23356.21
486.07	23171.30
486.25	23295.35
486.43	23765.80
486.61	23452.17
486.78	23639.41
486.96	24245.61
487.14	24283.06
487.32	24510.09
487.50	24966.49
487.68	24840.11
487.85	25132.67
488.03	25441.62
488.21	25619.50
488.39	25757.60
488.57	25837.17
488.75	26202.30
488.92	26366.13
489.10	26679.77
489.28	26637.64
489.46	26742.96
489.64	26885.73
489.81	27529.38
489.99	27693.22
490.17	27646.41
490.35	28018.55
490.53	28121.54
490.70	28470.28
490.88	28020.89
491.06	28914.98
491.24	28582.62
491.41	28922.00
491.59	29142.01
491.77	29291.80
491.95	29731.83
492.13	29769.27
492.30	29687.36
492.48	29919.07
492.66	29848.85
492.84	30373.13
493.01	30771.02
493.19	30771.02
493.37	30642.29
493.54	30845.92
493.72	31622.98
493.90	31606.59
494.08	31573.83
494.25	31725.96
494.43	31653.40
494.61	31814.90
494.79	32470.25
494.96	32723.03
495.14	32704.31
495.32	33163.05
495.49	33209.86
495.67	33273.06
495.85	33340.93
496.02	33645.20
496.20	34071.18
496.38	33928.41
496.55	34127.35
496.73	34354.38
496.91	34321.62
497.09	34951.22
497.26	34862.28
497.44	34761.64
497.62	35084.63
497.79	35524.65
497.97	35007.39
498.14	35887.43
498.32	35967.01
498.50	35983.40
498.67	36254.90
498.85	36392.99
499.03	37067.06
499.20	36730.03
499.38	36788.54
499.56	36463.21
499.73	36940.68
499.91	37186.43
500.08	37308.14
500.26	36982.80
500.44	37441.55
500.61	37652.20
500.79	37961.15
500.97	37897.95
501.14	38419.89
501.32	38457.34
501.49	38094.56
501.67	38440.96
501.84	39009.71
502.02	39023.75
502.20	39164.18
502.37	38930.13
502.55	39105.67
502.72	39290.57
502.90	39260.15
503.07	39136.10
503.25	39452.07
503.43	39393.56
503.60	40006.78
503.78	40243.17
503.95	40172.96
504.13	40231.47
504.30	41001.50
504.48	40287.64
504.65	40416.37
504.83	40722.98
505.01	41289.39
505.18	41043.63
505.36	41511.74
505.53	40711.28
505.71	41785.58
505.88	41813.67
506.06	41071.72
506.23	41867.50
506.41	41429.82
506.58	41965.81
506.76	42293.48
506.93	42534.56
507.11	42014.96
507.28	42265.39
507.46	42693.71
507.63	42614.13
507.81	42806.06
507.98	42354.33
508.16	43030.75
508.33	42810.74
508.50	43395.87
508.68	43620.56
508.85	43508.22
509.03	43515.24
509.20	43964.62
509.38	44196.34
509.55	43639.29
509.73	44278.25
509.90	44608.27
510.08	44404.64
510.25	44849.35
510.42	44442.09
510.60	44594.23
510.77	45146.59
510.95	45170.00
511.12	45071.70
511.30	44596.57
511.47	45067.02
511.64	45528.10
511.82	45666.19
511.99	45397.03
512.17	45858.12
512.34	45638.11
512.51	46316.86
512.69	46143.66
512.86	46227.92
513.04	46897.31
513.21	46293.46
513.38	46508.79
513.56	46782.63
513.73	46717.09
513.90	46719.43
514.08	46604.75
514.25	46953.49
514.43	46990.94
514.60	47056.47
514.77	47138.39
514.95	46876.25
515.12	47363.08
515.29	47412.23
515.47	47545.64
515.64	47838.21
515.81	47601.82
515.99	47833.53
516.16	48109.71
516.33	48250.14
516.51	48311.00
516.68	48402.28
516.85	48299.30
517.03	48865.70
517.20	48779.10
517.37	48825.92
517.54	48921.88
517.72	48493.56
517.89	48914.86
518.06	48968.69
518.24	48935.92
518.41	48907.83
518.58	48994.43
518.75	48765.06
518.93	49202.74
519.10	49305.73
519.27	49230.83
519.45	49535.10
519.62	49820.64
519.79	49797.24
519.96	49731.70
520.14	50082.78
520.31	49832.35
520.48	50347.26
520.65	50007.89
520.83	50653.87
521.00	50284.07
521.17	50316.84
521.34	50564.93
521.52	50827.07
521.69	50567.27
521.86	50759.20
522.03	51063.47
522.20	51061.13
522.38	51239.01
522.55	51189.86
522.72	51189.86
522.89	51304.54
523.07	51639.24
523.24	51358.38
523.41	51655.62
523.58	51068.15
523.75	51501.15
523.92	51695.41
524.10	51580.73
524.27	52144.80
524.44	51936.49
524.61	51845.21
524.78	51875.63
524.96	52121.39
525.13	52130.75
525.30	52530.98
525.47	52236.08
525.64	52322.68
525.81	52516.94
525.98	52568.43
526.16	52339.06
526.33	52348.42
526.50	52683.12
526.67	52706.52
526.84	52832.91
527.01	52877.38
527.18	52692.48
527.36	53158.25
527.53	53179.31
527.70	53228.46
527.87	52989.73
528.04	53008.45
528.21	52891.43
528.38	53085.69
528.55	53565.50
528.72	53275.27
528.89	53132.50
529.07	53167.61
529.24	53352.51
529.41	53647.42
529.58	53719.98
529.75	53371.24
529.92	53776.15
530.09	53488.26
530.26	53462.52
530.43	53727.00
530.60	53675.51
530.77	53904.88
530.94	54087.44
531.11	54024.25
531.28	53998.50
531.46	54127.23
531.63	54312.13
531.80	53776.15
531.97	54281.70
532.14	54405.75
532.31	54482.99
532.48	54274.68
532.65	54403.41
532.82	54284.04
532.99	54604.70
533.16	54515.76
533.33	54429.16
533.50	54883.22
533.67	54766.20
533.84	54710.02
534.01	54705.34
534.18	54681.94
534.35	55009.61
534.52	54817.69
534.69	54866.84
534.86	55295.16
535.03	55007.27
535.20	55128.98
535.37	55171.11
535.54	55398.14
535.71	54962.80
535.88	55278.77
536.05	55356.01
536.22	55477.72
536.38	55594.74
536.55	55447.29
536.72	55419.20
536.89	55033.02
537.06	55033.02
537.23	55526.87
537.40	55508.14
537.57	55386.44
537.74	55753.90
537.91	55760.92
538.08	55772.63
538.25	55482.40
538.42	55444.95
538.59	56116.68
538.75	55599.43
538.92	56140.09
539.09	56067.53
539.26	56236.05
539.43	56060.51
539.60	55920.08
539.77	56170.52
539.94	56369.46
540.11	56292.22
540.28	56477.13
540.44	56350.74
540.61	56282.86
540.78	56348.40
540.95	56435.00
541.12	56397.55
541.29	56303.93
541.46	56472.45
541.62	56383.51
541.79	56465.42
541.96	56294.56
542.13	56362.44
542.30	56559.05
542.47	56748.63
542.63	56746.29
542.80	56882.04
542.97	56865.66
543.14	56994.39
543.31	56954.60
543.48	57169.93
543.64	57315.04
543.81	57265.89
543.98	57109.07
544.15	57174.61
544.32	57453.13
544.48	57434.41
544.65	57387.60
544.82	57200.35
544.99	57352.49
545.16	57336.10
545.32	57357.17
545.49	57623.99
545.66	57638.03
545.83	57588.88
546.00	57717.61
546.16	57326.74
546.33	57312.70
546.50	57420.36
546.67	57726.97
546.83	57319.72
547.00	57577.18
547.17	57612.29
547.34	57776.12
547.50	57663.78
547.67	58164.65
547.84	57956.35
548.00	57970.39
548.17	58248.91
548.34	57771.44
548.51	58260.62
548.67	57972.73
548.84	57921.24
549.01	57900.17
549.18	58181.04
549.34	58246.57
549.51	58241.89
549.68	58454.88
549.84	58368.28
550.01	58319.13
550.18	58007.84
550.34	58410.41
550.51	58461.90
550.68	58178.70
550.84	58394.03
551.01	58316.79
551.18	58274.66
551.34	58356.58
551.51	58401.05
551.68	58642.12
551.84	58323.81
552.01	58377.64
552.18	58515.73
552.34	58234.87
552.51	58616.38
552.68	58560.20
552.84	58459.56
553.01	58656.17
553.18	58695.95
553.34	58749.79
553.51	58698.30
553.67	58534.46
553.84	58939.37
554.01	58801.28
554.17	58784.90
554.34	58997.88
554.51	58782.55
554.67	58920.65
554.84	58731.06
555.00	58707.66
555.17	58876.18
555.33	59068.10
555.50	58812.98
555.67	58780.21
555.83	58974.48
556.00	59037.67
556.16	59257.68
556.33	59283.43
556.50	58995.54
556.66	59189.81
556.83	59042.35
556.99	59365.35
557.16	59374.71
557.32	59409.82
557.49	59496.42
557.65	59147.68
557.82	59236.62
557.98	59470.67
558.15	59367.69
558.32	59311.52
558.48	59456.63
558.65	59365.35
558.81	59292.79
558.98	59278.75
559.14	59330.24
559.31	59561.95
559.47	59594.72
559.64	59688.34
559.80	59674.30
559.97	59700.04
560.13	59442.59
560.30	59716.43
560.46	59580.68
560.63	59608.76
560.79	59690.68
560.96	59683.66
561.12	59550.25
561.29	59725.79
561.45	59629.83
561.61	59667.28
561.78	59819.41
561.94	59807.71
562.11	59728.13
562.27	59800.69
562.44	59859.20
562.60	60018.36
562.77	59760.90
562.93	59697.70
563.10	59875.58
563.26	59629.83
563.42	59955.16
563.59	60011.34
563.75	59849.84
563.92	60083.89
564.08	59707.07
564.24	60062.83
564.41	59714.09
564.57	59945.80
564.74	59971.55
564.90	59793.67
565.07	59964.52
565.23	60013.68
565.39	60114.32
565.56	60140.07
565.72	59952.82
565.88	59896.65
566.05	60009.00
566.21	59959.84
566.38	59915.37
566.54	60034.74
566.70	60135.38
566.87	60119.00
567.03	59859.20
567.19	60135.38
567.36	60313.26
567.52	60231.35
567.68	60533.28
567.85	60111.98
568.01	60481.78
568.17	60322.63
568.34	60369.44
568.50	60175.17
568.66	60324.97
568.83	60360.08
568.99	60151.77
569.15	60481.78
569.32	60331.99
569.48	60336.67
569.64	60329.65
569.81	60257.09
569.97	60430.29
570.13	60420.93
570.30	60128.36
570.46	60334.33
570.62	60460.72
570.78	60561.36
570.95	60371.78
571.11	60580.09
571.27	60413.91
571.43	60385.82
571.60	60367.10
571.76	60406.89
571.92	60547.32
572.09	60587.11
572.25	60350.71
572.41	60313.26
572.57	60268.79
572.74	60767.33
572.90	60526.25
573.06	60430.29
573.22	60535.62
573.38	60430.29
573.55	60687.75
573.71	60734.56
573.87	60704.13
574.03	60395.18
574.20	60633.92
574.36	60306.24
574.52	60755.63
574.68	60687.75
574.84	60666.69
575.01	60575.40
575.17	60514.55
575.33	60528.59
575.49	60369.44
575.65	60652.64
575.82	60722.86
575.98	60624.56
576.14	60779.03
576.30	60741.58
576.46	60664.35
576.62	60547.32
576.79	60769.67
576.95	60647.96
577.11	60739.24
577.27	60802.44
577.43	60945.21
577.59	60589.45
577.75	60596.47
577.92	60353.05
578.08	60764.99
578.24	60671.37
578.40	60898.40
578.56	60734.56
578.72	60643.28
578.88	60975.64
579.04	61001.38
579.21	60718.18
579.37	60617.53
579.53	60947.55
579.69	60474.76
579.85	60603.49
580.01	60657.32
580.17	60519.23
580.33	60865.63
580.49	60781.37
580.65	60959.25
580.82	60626.90
580.98	60395.18
581.14	60650.30
581.30	60849.25
581.46	60669.03
581.62	60776.69
581.78	60673.71
581.94	60999.04
582.10	60720.52
582.26	60711.16
582.42	60963.93
582.58	60610.51
582.74	60715.84
582.90	60727.54
583.06	60867.97
583.22	60748.60
583.38	60645.62
583.54	60858.61
583.70	60720.52
583.86	60704.13
584.02	60624.56
584.18	60959.25
584.34	60907.76
584.50	60870.31
584.66	60970.96
584.82	60683.07
584.98	60921.80
585.14	60924.14
585.30	60811.80
585.46	60961.59
585.62	60631.58
585.78	61083.30
585.94	60612.85
586.10	61010.74
586.26	60701.79
586.42	60893.72
586.58	61310.33
586.74	60828.18
586.90	60856.27
587.06	60896.06
587.22	61073.94
587.38	60797.76
587.54	60977.98
587.70	60966.27
587.86	61132.45
588.02	60992.02
588.18	60912.44
588.34	60907.76
588.49	61015.43
