SpectraSuite Data File
++++++++++++++++++++++++++++++++++++
Date: Fri Oct 25 11:26:07 EDT 2013
User: price-jones
Dark Spectrum Present: No
Reference Spectrum Present: No
Number of Sampled Component Spectra: 1
Spectrometers: USB2+H05261
Integration Time (usec): 100000 (USB2+H05261)
Spectra Averaged: 1 (USB2+H05261)
Boxcar Smoothing: 0 (USB2+H05261)
Correct for Electrical Dark: No (USB2+H05261)
Strobe/Lamp Enabled: No (USB2+H05261)
Correct for Detector Non-linearity: No (USB2+H05261)
Correct for Stray Light: No (USB2+H05261)
Number of Pixels in Processed Spectrum: 2048
>>>>>Begin Processed Spectral Data<<<<<
365.73	227.03
365.92	227.03
366.12	227.03
366.32	110.01
366.52	145.11
366.72	194.26
366.91	149.79
367.11	154.48
367.31	67.88
367.51	163.84
367.70	152.13
367.90	184.90
368.10	156.82
368.30	159.16
368.49	114.69
368.69	135.75
368.89	168.52
369.09	166.18
369.28	231.71
369.48	135.75
369.68	112.35
369.87	133.41
370.07	187.24
370.27	198.95
370.47	287.89
370.66	582.79
370.86	620.24
371.06	627.26
371.25	678.76
371.45	685.78
371.65	702.16
371.84	685.78
372.04	725.57
372.24	774.72
372.44	753.65
372.63	720.88
372.83	725.57
373.03	741.95
373.22	774.72
373.42	770.04
373.62	798.12
373.81	786.42
374.01	809.83
374.21	837.91
374.40	779.40
374.60	873.02
374.79	826.21
374.99	833.23
375.19	777.06
375.38	795.78
375.58	767.70
375.78	887.06
375.97	896.43
376.17	917.49
376.37	926.85
376.56	842.59
376.76	919.83
376.95	919.83
377.15	851.96
377.35	877.70
377.54	887.06
377.74	901.11
377.93	912.81
378.13	884.72
378.33	973.66
378.52	908.13
378.72	940.90
378.91	1025.15
379.11	924.51
379.31	1020.47
379.50	936.21
379.70	938.55
379.89	983.02
380.09	992.39
380.28	1053.24
380.48	1039.20
380.68	985.37
380.87	884.72
381.07	1046.22
381.26	1046.22
381.46	1027.50
381.65	1015.79
381.85	1069.62
382.04	1050.90
382.24	1039.20
382.43	1039.20
382.63	1013.45
382.83	1034.52
383.02	1097.71
383.22	1100.05
383.41	1093.03
383.61	1086.01
383.80	1191.33
384.00	1104.73
384.19	1142.18
384.39	1149.20
384.58	1071.97
384.78	1177.29
384.97	1174.95
385.17	1158.57
385.36	1233.46
385.56	1165.59
385.75	1294.32
385.95	1226.44
386.14	1228.78
386.34	1153.88
386.53	1200.69
386.72	1158.57
386.92	1282.61
387.11	1301.34
387.31	1254.53
387.50	1172.61
387.70	1259.21
387.89	1184.31
388.09	1254.53
388.28	1308.36
388.48	1329.42
388.67	1324.74
388.86	1308.36
389.06	1306.02
389.25	1291.98
389.45	1320.06
389.64	1409.00
389.84	1385.60
390.03	1444.11
390.22	1476.88
390.42	1366.87
390.61	1467.52
390.81	1437.09
391.00	1444.11
391.19	1387.94
391.39	1376.24
391.58	1500.28
391.78	1451.13
391.97	1432.41
392.16	1533.05
392.36	1537.73
392.55	1481.56
392.75	1542.41
392.94	1544.75
393.13	1472.20
393.33	1563.48
393.52	1589.22
393.71	1652.42
393.91	1561.14
394.10	1533.05
394.29	1612.63
394.49	1556.46
394.68	1680.50
394.88	1551.78
395.07	1668.80
395.26	1696.89
395.46	1645.40
395.65	1739.02
395.84	1652.42
396.04	1760.08
396.23	1870.09
396.42	1781.15
396.62	1849.02
396.81	1820.94
397.00	1825.62
397.19	1797.53
397.39	1790.51
397.58	1832.64
397.77	1893.49
397.97	1975.41
398.16	1881.79
398.35	1858.39
398.55	1900.52
398.74	1961.37
398.93	1987.11
399.12	1926.26
399.32	1949.67
399.51	1963.71
399.70	1994.14
399.90	2036.27
400.09	2045.63
400.28	1975.41
400.47	2069.03
400.67	2073.71
400.86	1982.43
401.05	2101.80
401.24	2062.01
401.44	2127.55
401.63	2076.06
401.82	2157.97
402.01	2162.66
402.21	2186.06
402.40	2092.44
402.59	2209.47
402.78	2153.29
402.97	2284.36
403.17	2202.44
403.36	2277.34
403.55	2340.54
403.74	2305.43
403.93	2216.49
404.13	2380.32
404.32	2359.26
404.51	2373.30
404.70	2394.37
404.89	2317.13
405.09	2520.76
405.28	2459.90
405.47	2408.41
405.66	2497.35
405.85	2438.84
406.05	2523.10
406.24	2605.02
406.43	2633.10
406.62	2712.68
406.81	2708.00
407.00	2555.86
407.20	2546.50
407.39	2548.84
407.58	2717.36
407.77	2684.59
407.96	2825.03
408.15	2766.51
408.34	2785.24
408.54	2668.21
408.73	2771.19
408.92	2881.20
409.11	2787.58
409.30	3016.95
409.49	2939.71
409.68	2899.92
409.87	2904.60
410.07	2967.80
410.26	2970.14
410.45	3080.14
410.64	3033.33
410.83	3009.93
411.02	3098.87
411.21	3089.51
411.40	3131.64
411.59	3187.81
411.78	3178.45
411.98	3145.68
412.17	3281.43
412.36	3272.07
412.55	3225.26
412.74	3501.44
412.93	3384.41
413.12	3342.28
413.31	3485.06
413.50	3527.19
413.69	3529.53
413.88	3524.85
414.07	3597.40
414.26	3602.08
414.45	3627.83
414.64	3695.71
414.83	3721.45
415.02	3819.75
415.22	3922.74
415.41	4009.34
415.60	3875.93
415.79	4018.70
415.98	3990.61
416.17	4021.04
416.36	3988.27
416.55	4079.55
416.74	4126.36
416.93	4074.87
417.12	4037.42
417.31	4269.14
417.50	4208.28
417.69	4283.18
417.88	4329.99
418.07	4311.27
418.26	4306.59
418.45	4432.97
418.64	4421.27
418.83	4285.52
419.02	4465.74
419.21	4582.77
419.39	4624.90
419.58	4386.16
419.77	4477.44
419.96	4575.75
420.15	4554.68
420.34	4524.26
420.53	4594.47
420.72	4755.97
420.91	4723.20
421.10	4669.37
421.29	4901.08
421.48	4662.35
421.67	4753.63
421.86	4814.48
422.05	4751.29
422.24	4910.44
422.43	4938.53
422.61	5046.20
422.80	5018.11
422.99	4882.36
423.18	4905.76
423.37	4908.10
423.56	5121.09
423.75	4833.21
423.94	4774.69
424.13	4631.92
424.32	4664.69
424.50	4877.68
424.69	4966.62
424.88	5006.41
425.07	5006.41
425.26	4987.68
425.45	4807.46
425.64	5011.09
425.83	4940.87
426.01	5167.90
426.20	5050.88
426.39	5085.98
426.58	5093.01
426.77	4936.19
426.96	5163.22
427.15	5142.16
427.33	5233.44
427.52	5235.78
427.71	5324.72
427.90	5240.46
428.09	5303.65
428.28	5425.36
428.46	5242.80
428.65	5364.51
428.84	5488.56
429.03	5408.98
429.22	5305.99
429.40	5504.94
429.59	5493.24
429.78	5284.93
429.97	5275.57
430.16	5549.41
430.34	5600.90
430.53	5572.82
430.72	5731.97
430.91	5694.52
431.10	5612.60
431.28	5610.26
431.47	5769.42
431.66	5785.80
431.85	5771.76
432.03	5825.59
432.22	5984.75
432.41	5919.21
432.60	6054.97
432.79	6059.65
432.97	5987.09
433.16	6176.67
433.35	5944.96
433.54	5966.03
433.72	6211.78
433.91	6246.89
434.10	6059.65
434.28	6085.39
434.47	6122.84
434.66	6129.86
434.85	6267.95
435.03	6195.40
435.22	6331.15
435.41	6661.16
435.59	6305.40
435.78	6429.45
435.97	6441.15
436.16	6480.94
436.34	6413.07
436.53	6403.71
436.72	6604.99
436.90	6373.28
437.09	6438.81
437.28	6394.34
437.46	6511.37
437.65	6579.25
437.84	6684.57
438.02	6635.42
438.21	6747.76
438.40	6626.06
438.58	6843.73
438.77	7162.04
438.96	6932.67
439.14	7166.72
439.33	7157.36
439.52	7300.13
439.70	7225.23
439.89	7389.07
440.08	7358.64
440.26	7435.88
440.45	7290.77
440.63	7379.71
440.82	7562.27
441.01	7611.42
441.19	7707.38
441.38	7681.64
441.57	7569.29
441.75	7843.14
441.94	7894.63
442.12	7936.76
442.31	7969.52
442.50	8131.02
442.68	7941.44
442.87	8049.10
443.05	8313.58
443.24	8107.62
443.43	8124.00
443.61	8201.24
443.80	8201.24
443.98	8065.49
444.17	7896.97
444.35	8313.58
444.54	8318.26
444.73	8273.79
444.91	8351.03
445.10	8138.04
445.28	8259.75
445.47	8339.33
445.65	8435.29
445.84	8437.63
446.02	8313.58
446.21	8339.33
446.39	8486.78
446.58	8489.12
446.77	8489.12
446.95	8435.29
447.14	8287.84
447.32	8664.66
447.51	8479.76
447.69	8360.39
447.88	8365.07
448.06	8554.66
448.25	8493.80
448.43	8566.36
448.62	8627.21
448.80	8594.45
448.99	8510.19
449.17	8777.01
449.36	8631.90
449.54	8713.81
449.73	8966.59
449.91	8933.82
450.10	8901.06
450.28	9043.83
450.46	9029.79
450.65	8957.23
450.83	9032.13
451.02	9050.85
451.20	9231.07
451.39	9240.44
451.57	9132.77
451.76	9212.35
451.94	9282.56
452.13	9261.50
452.31	9320.01
452.49	9430.02
452.68	9263.84
452.86	9153.84
453.05	9479.17
453.23	9614.92
453.42	9619.60
453.60	9364.48
453.78	9556.41
453.97	9397.25
454.15	9378.53
454.34	9448.74
454.52	9804.50
454.70	9638.33
454.89	9802.16
455.07	9870.04
455.26	9816.21
455.44	10125.16
455.62	9734.29
455.81	9825.57
455.99	9767.06
456.17	9825.57
456.36	9970.68
456.54	10071.33
456.73	10312.40
456.91	10382.62
457.09	10300.70
457.28	10539.43
457.46	10345.17
457.64	10448.15
457.83	10445.81
458.01	10424.75
458.19	10752.42
458.38	10611.99
458.56	10736.04
458.74	10698.59
458.93	10630.71
459.11	10698.59
459.29	10885.83
459.48	10759.44
459.66	10640.08
459.84	11091.80
460.03	11096.48
460.21	11162.01
460.39	11262.66
460.57	11007.54
460.76	11115.20
460.94	11337.56
461.12	11393.73
461.31	11201.80
461.49	11337.56
461.67	11075.42
461.85	11475.65
462.04	11346.92
462.22	11810.34
462.40	11763.53
462.59	11400.75
462.77	11545.86
462.95	11613.74
463.13	11625.44
463.32	11805.66
463.50	11838.43
463.68	11714.38
463.86	11896.94
464.05	11489.69
464.23	11602.04
464.41	11808.00
464.59	11683.95
464.78	12168.45
464.96	11995.25
465.14	11946.09
465.32	11854.81
465.50	12058.44
465.69	12138.02
465.87	12084.19
466.05	12154.40
466.23	12182.49
466.41	12297.17
466.60	12446.97
466.78	12131.00
466.96	12088.87
467.14	12428.24
467.32	12374.41
467.51	12800.39
467.69	12159.08
467.87	12369.73
468.05	12437.61
468.23	12266.75
468.41	12407.18
468.60	12383.77
468.78	12526.55
468.96	12636.55
469.14	12695.07
469.32	12917.42
469.50	12615.49
469.69	12748.90
469.87	13039.12
470.05	13081.25
470.23	13029.76
470.41	13074.23
470.59	13259.13
470.77	13296.58
470.95	13427.65
471.14	13689.79
471.32	12966.57
471.50	13607.87
471.68	13350.42
471.86	13792.78
472.04	13699.16
472.22	14061.94
472.40	13668.73
472.58	13600.85
472.77	13968.32
472.95	14251.52
473.13	14572.18
473.31	13984.70
473.49	14167.26
473.67	14108.75
473.85	14331.10
474.03	14544.09
474.21	14986.45
474.39	14560.47
474.57	14600.26
474.75	15096.46
474.93	15049.64
475.12	14984.11
475.30	15412.43
475.48	14799.21
475.66	15150.29
475.84	15192.42
476.02	15461.58
476.20	15159.65
476.38	15700.31
476.56	15868.83
476.74	15826.70
476.92	15733.08
477.10	15992.88
477.28	16074.80
477.46	16098.20
477.64	16318.22
477.82	16585.04
478.00	16985.27
478.18	16912.71
478.36	17041.44
478.54	17158.47
478.72	16826.11
478.90	17502.53
479.08	17525.93
479.26	17790.41
479.44	17717.86
479.62	18012.76
479.80	18132.13
479.98	18036.17
480.16	18675.13
480.34	18314.69
480.52	18590.88
480.70	18511.30
480.88	18508.96
481.06	18586.19
481.24	18850.67
481.41	19103.45
481.59	19311.76
481.77	19407.72
481.95	19536.45
482.13	19557.52
482.31	19889.87
482.49	20322.87
482.67	20346.28
482.85	20517.14
483.03	20666.93
483.21	20453.94
483.39	20734.81
483.57	20870.56
483.74	21399.52
483.92	21359.73
484.10	21385.47
484.28	21521.23
484.46	21617.19
484.64	22452.76
484.82	21940.18
485.00	22246.79
485.18	22796.82
485.35	23143.22
485.53	22724.26
485.71	22738.30
485.89	23379.61
486.07	23384.29
486.25	23438.12
486.43	23234.50
486.61	23786.86
486.78	23894.53
486.96	24144.97
487.14	24512.43
487.32	24482.00
487.50	24889.26
487.68	24992.24
487.85	25340.98
488.03	25462.69
488.21	25930.80
488.39	25778.66
488.57	25993.99
488.75	25937.82
488.92	26384.86
489.10	26710.19
489.28	26735.94
489.46	27035.53
489.64	27101.06
489.81	27468.53
489.99	27938.97
490.17	27730.67
490.35	28187.07
490.53	28011.53
490.70	28563.90
490.88	28240.90
491.06	28648.16
491.24	28973.49
491.41	28907.96
491.59	29205.20
491.77	29413.51
491.95	29638.20
492.13	29764.59
492.30	30024.39
492.48	29886.30
492.66	30134.40
492.84	30181.21
493.01	30698.47
493.19	30562.72
493.37	30951.24
493.54	31229.77
493.72	31512.97
493.90	31325.73
494.08	31758.73
494.25	31732.98
494.43	32135.56
494.61	32484.30
494.79	32432.80
494.96	32278.33
495.14	32591.96
495.32	33298.80
495.49	33177.09
495.67	33170.07
495.85	33785.63
496.02	33944.79
496.20	34031.39
496.38	34288.85
496.55	33680.31
496.73	34771.00
496.91	34941.86
497.09	34939.52
497.26	34913.77
497.44	34834.19
497.62	35283.58
497.79	35782.11
497.97	35501.25
498.14	35395.92
498.32	36062.97
498.50	36507.68
498.67	36503.00
498.85	35997.44
499.03	36481.93
499.20	36212.77
499.38	37062.38
499.56	36732.37
499.73	36748.75
499.91	37130.26
500.08	37797.31
500.26	37448.57
500.44	37708.37
500.61	38099.24
500.79	37633.47
500.97	38031.36
501.14	38412.87
501.32	38897.36
501.49	38515.86
501.67	38656.29
501.84	38885.66
502.02	38960.56
502.20	38698.42
502.37	39309.30
502.55	38892.68
502.72	39405.26
502.90	39061.20
503.07	39578.46
503.25	39901.45
503.43	39360.79
503.60	40048.91
503.78	40004.44
503.95	40472.54
504.13	40280.62
504.30	40676.17
504.48	40126.14
504.65	40828.30
504.83	41144.28
505.01	41127.89
505.18	41361.95
505.36	41647.49
505.53	41319.82
505.71	41666.22
505.88	41944.74
506.06	41689.62
506.23	41724.73
506.41	41783.24
506.58	42099.22
506.76	42146.03
506.93	42326.25
507.11	42485.40
507.28	41914.31
507.46	42787.33
507.63	43068.20
507.81	43236.72
507.98	42993.30
508.16	43203.95
508.33	43400.55
508.50	43407.58
508.68	43744.61
508.85	43545.67
509.03	43866.32
509.20	44051.22
509.38	44212.72
509.55	44561.46
509.73	44378.90
509.90	44161.23
510.08	44542.74
510.25	44563.80
510.42	45036.59
510.60	45043.61
510.77	45464.91
510.95	45235.53
511.12	45111.49
511.30	45177.02
511.47	45509.38
511.64	45502.35
511.82	45682.58
511.99	45661.51
512.17	46028.98
512.34	46373.03
512.51	46232.60
512.69	46522.83
512.86	46344.95
513.04	46520.49
513.21	46541.55
513.38	46660.92
513.56	46834.12
513.73	46761.56
513.90	46838.80
514.08	46323.88
514.25	47107.96
514.43	47318.61
514.60	47423.93
514.77	47407.55
514.95	47393.51
515.12	47330.31
515.29	47330.31
515.47	48013.75
515.64	47791.40
515.81	47833.53
515.99	47929.49
516.16	48154.18
516.33	48156.52
516.51	48949.96
516.68	48566.12
516.85	48119.07
517.03	48816.55
517.20	48381.21
517.37	48755.70
517.54	48758.04
517.72	48493.56
517.89	49083.37
518.06	48985.07
518.24	49404.03
518.41	48818.89
518.58	49350.20
518.75	49469.56
518.93	49537.44
519.10	49401.69
519.27	49708.30
519.45	49511.69
519.62	49935.33
519.79	50047.68
519.96	50042.99
520.14	50031.29
520.31	50124.91
520.48	50314.50
520.65	49970.44
520.83	50569.61
521.00	50742.81
521.17	50791.97
521.34	50504.08
521.52	50712.39
521.69	50665.58
521.86	51103.26
522.03	50930.06
522.20	51257.73
522.38	51386.46
522.55	51679.03
522.72	51133.68
522.89	51498.81
523.07	51760.95
523.24	51407.53
523.41	51554.98
523.58	51559.66
523.75	51789.03
523.92	51728.18
524.10	51758.61
524.27	52027.77
524.44	52301.61
524.61	51880.31
524.78	51945.85
524.96	52142.45
525.13	52149.48
525.30	52636.31
525.47	52254.80
525.64	52310.97
525.81	52568.43
525.98	52580.13
526.16	52633.97
526.33	52662.05
526.50	52947.60
526.67	52800.15
526.84	52865.68
527.01	52882.06
527.18	52877.38
527.36	52722.91
527.53	53059.94
527.70	53675.51
527.87	53312.72
528.04	52928.87
528.21	53116.12
528.38	53092.71
528.55	53516.35
528.72	53436.77
528.89	53336.13
529.07	53305.70
529.24	53514.01
529.41	53970.41
529.58	53776.15
529.75	53670.82
529.92	53624.01
530.09	53792.53
530.26	54026.59
530.43	54047.65
530.60	53944.67
530.77	53743.38
530.94	54129.57
531.11	53881.47
531.28	54106.16
531.46	53975.09
531.63	54258.30
531.80	54211.49
531.97	54110.85
532.14	54487.67
532.31	54377.67
532.48	54534.48
532.65	54560.23
532.82	54354.26
532.99	54646.83
533.16	54480.65
533.33	54632.78
533.50	54939.39
533.67	54831.73
533.84	54527.46
534.01	55002.59
534.18	54820.03
534.35	55430.91
534.52	54813.01
534.69	55250.69
534.86	55482.40
535.03	55021.31
535.20	55112.59
535.37	55173.45
535.54	55332.60
535.71	55290.48
535.88	55435.59
536.05	55393.46
536.22	55461.33
536.38	55632.19
536.55	55625.17
536.72	55742.20
536.89	55353.67
537.06	55784.33
537.23	55756.24
537.40	55480.06
537.57	55646.24
537.74	55915.40
537.91	55910.72
538.08	55789.01
538.25	55784.33
538.42	55880.29
538.59	56479.47
538.75	55674.32
538.92	56116.68
539.09	56306.27
539.26	56072.21
539.43	55971.57
539.60	56233.71
539.77	56303.93
539.94	56404.57
540.11	56456.06
540.28	56446.70
540.44	56470.11
540.61	56463.08
540.78	56231.37
540.95	56273.50
541.12	56519.26
541.29	56222.01
541.46	56605.86
541.62	56666.71
541.79	56769.69
541.96	56430.32
542.13	56446.70
542.30	56640.96
542.47	56905.44
542.63	56860.97
542.80	56975.66
542.97	57237.80
543.14	56933.53
543.31	57130.14
543.48	57315.04
543.64	57401.64
543.81	57315.04
543.98	57326.74
544.15	57439.09
544.32	57509.30
544.48	57729.31
544.65	57396.96
544.82	57331.42
544.99	57176.95
545.16	57308.02
545.32	57331.42
545.49	57631.01
545.66	57930.60
545.83	57567.82
546.00	57652.08
546.16	57457.81
546.33	57616.97
546.50	57331.42
546.67	57506.96
546.83	57254.18
547.00	57623.99
547.17	57839.32
547.34	57631.01
547.50	57858.04
547.67	58213.80
547.84	57949.32
548.00	57932.94
548.17	58159.97
548.34	58136.57
548.51	58108.48
548.67	58361.26
548.84	57911.88
549.01	57977.41
549.18	58047.63
549.34	58169.33
549.51	58248.91
549.68	58333.17
549.84	58298.06
550.01	58396.37
550.18	58293.38
550.34	58436.16
550.51	58358.92
550.68	58286.36
550.84	58314.45
551.01	58429.13
551.18	58368.28
551.34	58761.49
551.51	58625.74
551.68	58639.78
551.84	58623.40
552.01	58497.01
552.18	58525.10
552.34	58504.03
552.51	58532.12
552.68	58288.70
552.84	58688.93
553.01	58852.77
553.18	58660.85
553.34	58958.09
553.51	58717.02
553.67	58829.37
553.84	59007.25
554.01	58974.48
554.17	58986.18
554.34	58960.44
554.51	59035.33
554.67	59035.33
554.84	58810.64
555.00	59096.19
555.17	59124.27
555.33	59157.04
555.50	59035.33
555.67	58930.01
555.83	58972.14
556.00	59175.76
556.16	59203.85
556.33	59339.60
556.50	59068.10
556.66	59358.33
556.83	59119.59
556.99	59402.80
557.16	59498.76
557.32	59253.00
557.49	59557.27
557.65	59491.74
557.82	59400.46
557.98	59210.87
558.15	59374.71
558.32	59412.16
558.48	59538.55
558.65	59576.00
558.81	59501.10
558.98	59372.37
559.14	59348.96
559.31	59615.79
559.47	59599.40
559.64	59707.07
559.80	59618.13
559.97	59796.01
560.13	59580.68
560.30	59725.79
560.46	59707.07
560.63	59751.54
560.79	59861.54
560.96	59758.56
561.12	59604.08
561.29	59866.22
561.45	59697.70
561.61	60023.04
561.78	59498.76
561.94	59934.10
562.11	59882.61
562.27	59852.18
562.44	59901.33
562.60	60067.51
562.77	59964.52
562.93	59711.75
563.10	60081.55
563.26	59870.90
563.42	60011.34
563.59	60044.10
563.75	59983.25
563.92	60229.01
564.08	60067.51
564.24	60191.56
564.41	60104.96
564.57	60133.04
564.74	60072.19
564.90	60376.46
565.07	60076.87
565.23	60149.43
565.39	59990.27
565.56	60067.51
565.72	60119.00
565.88	60191.56
566.05	60168.15
566.21	60032.40
566.38	60210.28
566.54	60224.32
566.70	60133.04
566.87	60427.95
567.03	60074.53
567.19	60329.65
567.36	60348.37
567.52	60191.56
567.68	60547.32
567.85	60409.23
568.01	60399.86
568.17	60502.85
568.34	60236.03
568.50	60355.39
568.66	60168.15
568.83	60495.83
568.99	60346.03
569.15	60367.10
569.32	60467.74
569.48	60444.33
569.64	60474.76
569.81	60306.24
569.97	60193.90
570.13	60418.59
570.30	60371.78
570.46	60402.21
570.62	60376.46
570.78	60598.81
570.95	60423.27
571.11	60612.85
571.27	60406.89
571.43	60505.19
571.60	60718.18
571.76	60528.59
571.92	60643.28
572.09	60488.80
572.25	60587.11
572.41	60683.07
572.57	60430.29
572.74	60800.10
572.90	60350.71
573.06	60509.87
573.22	60563.70
573.38	60626.90
573.55	60617.53
573.71	60748.60
573.87	60725.20
574.03	60392.84
574.20	60601.15
574.36	60575.40
574.52	60652.64
574.68	60631.58
574.84	60795.42
575.01	60568.38
575.17	60797.76
575.33	60573.06
575.49	60678.39
575.65	60563.70
575.82	60757.97
575.98	60762.65
576.14	60900.74
576.30	60846.91
576.46	60582.43
576.62	60678.39
576.79	60769.67
576.95	60753.29
577.11	60722.86
577.27	60860.95
577.43	60884.36
577.59	60762.65
577.75	60711.16
577.92	60638.60
578.08	60694.77
578.24	60767.33
578.40	60830.52
578.56	60844.57
578.72	60809.46
578.88	61038.83
579.04	60949.89
579.21	60877.33
579.37	61045.85
579.53	60882.02
579.69	60615.19
579.85	60683.07
580.01	60654.98
580.17	60757.97
580.33	60846.91
580.49	61038.83
580.65	60982.66
580.82	60685.41
580.98	60814.14
581.14	60659.66
581.30	61055.21
581.46	60928.83
581.62	60924.14
581.78	60687.75
581.94	60842.23
582.10	60786.05
582.26	60853.93
582.42	60935.85
582.58	61015.43
582.74	60706.47
582.90	60779.03
583.06	60926.49
583.22	60694.77
583.38	60992.02
583.54	60835.20
583.70	60961.59
583.86	60776.69
584.02	60963.93
584.18	60987.34
584.34	60975.64
584.50	60886.70
584.66	60867.97
584.82	60706.47
584.98	61062.24
585.14	60999.04
585.30	60814.14
585.46	60975.64
585.62	60999.04
585.78	60809.46
585.94	60893.72
586.10	61022.45
586.26	61071.60
586.42	61141.81
586.58	61020.11
586.74	61024.79
586.90	60851.59
587.06	60837.54
587.22	61024.79
587.38	61043.51
587.54	61214.37
587.70	61031.81
587.86	61066.92
588.02	61001.38
588.18	61410.98
588.34	60982.66
588.49	61113.73
