SpectraSuite Data File
++++++++++++++++++++++++++++++++++++
Date: Fri Oct 25 10:48:33 EDT 2013
User: price-jones
Dark Spectrum Present: No
Reference Spectrum Present: No
Number of Sampled Component Spectra: 1
Spectrometers: USB2+H05261
Integration Time (usec): 100000 (USB2+H05261)
Spectra Averaged: 1 (USB2+H05261)
Boxcar Smoothing: 0 (USB2+H05261)
Correct for Electrical Dark: No (USB2+H05261)
Strobe/Lamp Enabled: No (USB2+H05261)
Correct for Detector Non-linearity: No (USB2+H05261)
Correct for Stray Light: No (USB2+H05261)
Number of Pixels in Processed Spectrum: 2048
>>>>>Begin Processed Spectral Data<<<<<
365.73	152.13
365.92	152.13
366.12	152.13
366.32	51.49
366.52	35.11
366.72	16.38
366.91	79.58
367.11	58.51
367.31	84.26
367.51	72.56
367.70	98.30
367.90	93.62
368.10	30.43
368.30	117.03
368.49	25.75
368.69	110.01
368.89	128.73
369.09	63.19
369.28	39.79
369.48	142.77
369.68	105.32
369.87	84.26
370.07	166.18
370.27	147.45
370.47	227.03
370.66	421.30
370.86	475.13
371.06	393.21
371.25	540.66
371.45	454.06
371.65	475.13
371.84	454.06
372.04	395.55
372.24	533.64
372.44	505.56
372.63	589.82
372.83	592.16
373.03	547.69
373.22	535.98
373.42	554.71
373.62	589.82
373.81	655.35
374.01	589.82
374.21	653.01
374.40	531.30
374.60	606.20
374.79	575.77
374.99	575.77
375.19	606.20
375.38	629.60
375.58	594.50
375.78	603.86
375.97	608.54
376.17	638.97
376.37	578.11
376.56	643.65
376.76	634.29
376.95	655.35
377.15	664.71
377.35	713.86
377.54	702.16
377.74	711.52
377.93	690.46
378.13	599.18
378.33	732.59
378.52	683.44
378.72	678.76
378.91	730.25
379.11	720.88
379.31	657.69
379.50	655.35
379.70	704.50
379.89	720.88
380.09	692.80
380.28	706.84
380.48	676.41
380.68	711.52
380.87	781.74
381.07	695.14
381.26	763.01
381.46	786.42
381.65	772.38
381.85	770.04
382.04	706.84
382.24	699.82
382.43	753.65
382.63	667.05
382.83	800.46
383.02	774.72
383.22	823.87
383.41	772.38
383.61	793.44
383.80	858.98
384.00	870.68
384.19	835.57
384.39	770.04
384.58	898.77
384.78	861.32
384.97	798.12
385.17	833.23
385.36	800.46
385.56	884.72
385.75	866.00
385.95	835.57
386.14	910.47
386.34	915.15
386.53	870.68
386.72	894.08
386.92	926.85
387.11	847.27
387.31	868.34
387.50	877.70
387.70	798.12
387.89	840.25
388.09	990.05
388.28	1018.13
388.48	950.26
388.67	903.45
388.86	980.68
389.06	933.87
389.25	987.71
389.45	1048.56
389.64	1015.79
389.84	1090.69
390.03	1039.20
390.22	1015.79
390.42	1041.54
390.61	1121.12
390.81	1083.67
391.00	1088.35
391.19	1156.22
391.39	1048.56
391.58	1102.39
391.78	1149.20
391.97	1111.75
392.16	1086.01
392.36	1111.75
392.55	1069.62
392.75	1100.05
392.94	1086.01
393.13	1064.94
393.33	1043.88
393.52	1167.93
393.71	1146.86
393.91	1123.46
394.10	1259.21
394.29	1205.38
394.49	1221.76
394.68	1359.85
394.88	1299.00
395.07	1210.06
395.26	1308.36
395.46	1270.91
395.65	1193.67
395.84	1348.15
396.04	1320.06
396.23	1233.46
396.42	1158.57
396.62	1249.85
396.81	1301.34
397.00	1291.98
397.19	1385.60
397.39	1327.08
397.58	1357.51
397.77	1453.47
397.97	1409.00
398.16	1430.07
398.35	1535.39
398.55	1523.69
398.74	1568.16
398.93	1661.78
399.12	1605.61
399.32	1584.54
399.51	1446.45
399.70	1579.86
399.90	1643.06
400.09	1734.34
400.28	1715.61
400.47	1753.06
400.67	1696.89
400.86	1741.36
401.05	1809.23
401.24	1762.42
401.44	1818.60
401.63	1811.57
401.82	1776.47
402.01	1722.63
402.21	1809.23
402.40	1895.83
402.59	1790.51
402.78	1764.76
402.97	1785.83
403.17	1727.32
403.36	1830.30
403.55	1881.79
403.74	1947.33
403.93	1872.43
404.13	1977.75
404.32	1947.33
404.51	1987.11
404.70	2005.84
404.89	1930.94
405.09	2057.33
405.28	2155.63
405.47	2092.44
405.66	2017.54
405.85	2108.82
406.05	2003.50
406.24	2033.93
406.43	2045.63
406.62	2094.78
406.81	2202.44
407.00	2139.25
407.20	2080.74
407.39	2111.16
407.58	2174.36
407.77	2181.38
407.96	2303.09
408.15	2275.00
408.34	2340.54
408.54	2310.11
408.73	2319.47
408.92	2462.24
409.11	2303.09
409.30	2331.17
409.49	2331.17
409.68	2349.90
409.87	2366.28
410.07	2387.35
410.26	2464.58
410.45	2448.20
410.64	2539.48
410.83	2523.10
411.02	2668.21
411.21	2717.36
411.40	2649.49
411.59	2771.19
411.78	2663.53
411.98	2675.23
412.17	2768.85
412.36	2724.38
412.55	2808.64
412.74	2862.48
412.93	2885.88
413.12	2853.11
413.31	2794.60
413.50	2832.05
413.69	3082.49
413.88	3038.02
414.07	3101.21
414.26	2839.07
414.45	2981.84
414.64	2998.23
414.83	3023.97
415.02	3187.81
415.22	3197.17
415.41	3220.58
415.60	3183.13
415.79	3286.11
415.98	3255.69
416.17	3370.37
416.36	3433.57
416.55	3375.05
416.74	3335.26
416.93	3309.52
417.12	3445.27
417.31	3515.48
417.50	3552.93
417.69	3541.23
417.88	3522.51
418.07	3494.42
418.26	3501.44
418.45	3522.51
418.64	3641.87
418.83	3772.94
419.02	3700.39
419.21	3798.69
419.39	3772.94
419.58	3578.68
419.77	3686.34
419.96	3674.64
420.15	3723.79
420.34	3740.18
420.53	3836.14
420.72	3899.33
420.91	3911.04
421.10	3782.31
421.29	3913.38
421.48	3880.61
421.67	3843.16
421.86	3932.10
422.05	3843.16
422.24	3878.27
422.43	3969.55
422.61	4023.38
422.80	3978.91
422.99	3948.48
423.18	4126.36
423.37	4168.49
423.56	4093.60
423.75	3934.44
423.94	3836.14
424.13	3808.05
424.32	3822.09
424.50	4014.02
424.69	4093.60
424.88	4201.26
425.07	4072.53
425.26	3999.98
425.45	3929.76
425.64	4067.85
425.83	4014.02
426.01	4070.19
426.20	4142.75
426.39	4112.32
426.58	3943.80
426.77	4044.45
426.96	4065.51
427.15	4112.32
427.33	4198.92
427.52	4339.35
427.71	4292.54
427.90	4271.48
428.09	4229.35
428.28	4411.91
428.46	4329.99
428.65	4294.88
428.84	4360.42
429.03	4510.21
429.22	4196.58
429.40	4243.39
429.59	4208.28
429.78	4056.15
429.97	4128.70
430.16	4276.16
430.34	4348.72
430.53	4283.18
430.72	4322.97
430.91	4257.43
431.10	4409.57
431.28	4514.89
431.47	4751.29
431.66	4992.36
431.85	4596.81
432.03	4784.06
432.22	4788.74
432.41	4718.52
432.60	4821.50
432.79	4793.42
432.97	4746.61
433.16	4833.21
433.35	4622.56
433.54	4709.16
433.72	4734.90
433.91	4695.11
434.10	4805.12
434.28	4938.53
434.47	5057.90
434.66	5076.62
434.85	5118.75
435.03	5107.05
435.22	5144.50
435.41	5287.27
435.59	5191.31
435.78	5270.89
435.97	5366.85
436.16	5460.47
436.34	5273.23
436.53	5296.63
436.72	5350.46
436.90	5104.71
437.09	5441.75
437.28	5174.92
437.46	5210.03
437.65	5320.04
437.84	5406.64
438.02	5334.08
438.21	5404.30
438.40	5369.19
438.58	5502.60
438.77	5570.48
438.96	5584.52
439.14	5708.57
439.33	5741.33
439.52	5820.91
439.70	5650.05
439.89	5963.68
440.08	5872.40
440.26	5881.77
440.45	5905.17
440.63	6054.97
440.82	6087.73
441.01	6136.88
441.19	6169.65
441.38	6193.06
441.57	6174.33
441.75	6307.74
441.94	6602.65
442.12	6616.69
442.31	6441.15
442.50	6443.49
442.68	6579.25
442.87	6431.79
443.05	6623.72
443.24	6693.93
443.43	6590.95
443.61	6677.55
443.80	6621.38
443.98	6408.39
444.17	6415.41
444.35	6654.14
444.54	6836.70
444.73	6883.52
444.91	6583.93
445.10	6644.78
445.28	6616.69
445.47	6516.05
445.65	6612.01
445.84	6647.12
446.02	6722.02
446.21	6682.23
446.39	6754.79
446.58	6871.81
446.77	6796.92
446.95	6789.89
447.14	6871.81
447.32	7030.97
447.51	6883.52
447.69	6949.05
447.88	6612.01
448.06	6974.80
448.25	6960.75
448.43	7016.93
448.62	6787.55
448.80	6925.65
448.99	6963.09
449.17	7019.27
449.36	6897.56
449.54	7126.93
449.73	7396.09
449.91	7206.51
450.10	7239.28
450.28	7410.14
450.46	7445.24
450.65	7368.01
450.83	7370.35
451.02	7405.46
451.20	7489.71
451.39	7227.57
451.57	7194.81
451.76	7318.86
451.94	7363.33
452.13	7541.21
452.31	7466.31
452.49	7304.81
452.68	7339.92
452.86	7267.36
453.05	7494.40
453.23	7522.48
453.42	7459.29
453.60	7552.91
453.78	7733.13
453.97	7702.70
454.15	7403.11
454.34	7492.05
454.52	7644.19
454.70	7578.65
454.89	7691.00
455.07	7852.50
455.26	7791.64
455.44	8058.46
455.62	8044.42
455.81	7873.56
455.99	8100.59
456.17	8002.29
456.36	8116.98
456.54	8114.64
456.73	8081.87
456.91	8482.10
457.09	8461.04
457.28	8498.49
457.46	8257.41
457.64	8257.41
457.83	8341.67
458.01	8297.20
458.19	8355.71
458.38	8365.07
458.56	8416.57
458.74	8423.59
458.93	8397.84
459.11	8451.67
459.29	8374.44
459.48	8629.56
459.66	8435.29
459.84	8662.32
460.03	8917.44
460.21	8753.60
460.39	8882.33
460.57	8659.98
460.76	8879.99
460.94	8802.75
461.12	8840.20
461.31	8744.24
461.49	8837.86
461.67	8961.91
461.85	8978.30
462.04	9027.45
462.22	9441.72
462.40	9259.16
462.59	8975.95
462.77	8985.32
462.95	9338.74
463.13	9032.13
463.32	9287.25
463.50	9261.50
463.68	9345.76
463.86	9181.92
464.05	9114.05
464.23	9064.89
464.41	9277.88
464.59	9109.36
464.78	9380.87
464.96	9291.93
465.14	9284.91
465.32	9430.02
465.50	9451.08
465.69	9511.94
465.87	9584.49
466.05	9439.38
466.23	9441.72
466.41	9387.89
466.60	9486.19
466.78	9572.79
466.96	9376.19
467.14	9467.47
467.32	9500.23
467.51	9984.73
467.69	9453.42
467.87	9685.14
468.05	9790.46
468.23	9544.70
468.41	9671.09
468.60	9832.59
468.78	9895.78
468.96	9811.53
469.14	10008.13
469.32	10036.22
469.50	9755.35
469.69	9907.49
469.87	9956.64
470.05	10017.49
470.23	9989.41
470.41	10031.54
470.59	10061.96
470.77	10134.52
470.95	10244.52
471.14	10380.28
471.32	10438.79
471.50	10548.79
471.68	10640.08
471.86	10647.10
472.04	10567.52
472.22	10738.38
472.40	10473.90
472.58	10654.12
472.77	10700.93
472.95	10839.02
473.13	11344.58
473.31	10906.90
473.49	10846.04
473.67	10932.64
473.85	10960.73
474.03	11545.86
474.21	11358.62
474.39	11375.00
474.57	11339.90
474.75	11620.76
474.93	11489.69
475.12	11480.33
475.30	11707.36
475.48	11281.38
475.66	11587.99
475.84	11414.79
476.02	11882.90
476.20	11569.27
476.38	11812.68
476.56	12196.53
476.74	12343.99
476.92	12149.72
477.10	12006.95
477.28	12383.77
477.46	12294.83
477.64	12468.03
477.82	12884.65
478.00	12945.50
478.18	13060.19
478.36	12821.45
478.54	13027.42
478.72	13406.59
478.90	13385.52
479.08	13397.23
479.26	13642.98
479.44	13422.97
479.62	13628.94
479.80	13771.71
479.98	13809.16
480.16	14389.61
480.34	13930.87
480.52	13958.96
480.70	14108.75
480.88	14071.30
481.06	14253.86
481.24	14511.32
481.41	14626.01
481.59	14420.04
481.77	14771.12
481.95	14759.42
482.13	14911.55
482.31	14904.53
482.49	15300.08
482.67	15253.27
482.85	15236.89
483.03	15651.16
483.21	15627.76
483.39	15838.41
483.57	15829.04
483.74	15845.43
483.92	15953.09
484.10	15744.78
484.28	15927.35
484.46	16734.83
484.64	16875.26
484.82	16322.90
485.00	16624.83
485.18	17006.33
485.35	17027.40
485.53	16491.41
485.71	16599.08
485.89	16840.15
486.07	16599.08
486.25	17062.51
486.43	17298.90
486.61	17397.20
486.78	17500.19
486.96	17874.67
487.14	18331.08
487.32	18277.24
487.50	18338.10
487.68	18410.65
487.85	18656.41
488.03	18909.19
488.21	19281.33
488.39	18813.23
488.57	19405.38
488.75	19396.02
488.92	19571.56
489.10	19962.43
489.28	19819.66
489.46	20189.46
489.64	20149.67
489.81	20580.33
489.99	20751.19
490.17	21034.39
490.35	20912.69
490.53	21046.10
490.70	21067.16
490.88	21010.99
491.06	21509.52
491.24	21462.71
491.41	21312.92
491.59	21245.04
491.77	21186.53
491.95	21298.88
492.13	22050.19
492.30	22082.95
492.48	22436.38
492.66	22464.46
492.84	22574.47
493.01	22607.23
493.19	22691.49
493.37	22904.48
493.54	23073.00
493.72	23166.62
493.90	23349.18
494.08	23349.18
494.25	23908.57
494.43	24030.28
494.61	24250.29
494.79	23882.83
494.96	24496.05
495.14	24194.12
495.32	24156.67
495.49	24512.43
495.67	24386.04
495.85	24945.43
496.02	25064.80
496.20	25050.75
496.38	24985.22
496.55	25088.20
496.73	25668.66
496.91	25069.48
497.09	25560.99
497.26	25951.86
497.44	25956.54
497.62	25743.55
497.79	26012.71
497.97	25989.31
498.14	26312.30
498.32	26347.41
498.50	25977.61
498.67	26518.27
498.85	26621.25
499.03	26864.67
499.20	27117.45
499.38	27047.23
499.56	27246.18
499.73	27421.72
499.91	27346.82
500.08	27580.87
500.26	26967.65
500.44	27227.45
500.61	27508.32
500.79	27292.99
500.97	27475.55
501.14	27828.97
501.32	28063.02
501.49	27653.43
501.67	27791.52
501.84	28369.63
502.02	28130.90
502.20	28301.76
502.37	28840.08
502.55	28554.54
502.72	28819.02
502.90	28723.05
503.07	28519.43
503.25	29078.82
503.43	29062.43
503.60	28943.06
503.78	28910.30
503.95	28788.59
504.13	29291.80
504.30	29153.71
504.48	29315.21
504.65	29673.31
504.83	29640.54
505.01	29860.55
505.18	30143.76
505.36	30396.54
505.53	30087.59
505.71	30263.13
505.88	30782.73
506.06	29773.95
506.23	30684.42
506.41	30221.00
506.58	30555.69
506.76	30546.33
506.93	30789.75
507.11	30724.21
507.28	31042.53
507.46	30712.51
507.63	31063.59
507.81	30962.95
507.98	31236.79
508.16	31021.46
508.33	31555.10
508.50	30969.97
508.68	31363.18
508.85	31761.07
509.03	31763.41
509.20	31906.18
509.38	32163.64
509.55	32144.92
509.73	31786.82
509.90	31768.09
510.08	31688.51
510.25	32484.30
510.42	32189.39
510.60	32378.97
510.77	32524.08
510.95	33088.15
511.12	32575.58
511.30	33031.98
511.47	33362.00
511.64	32877.51
511.82	33251.99
511.99	33329.23
512.17	33331.57
512.34	33240.29
512.51	33448.60
512.69	33776.27
512.86	34029.05
513.04	33640.52
513.21	34003.30
513.38	33546.90
513.56	34005.64
513.73	33401.79
513.90	34122.67
514.08	33310.50
514.25	34026.71
514.43	34363.75
514.60	34277.15
514.77	34007.98
514.95	34562.69
515.12	34553.33
515.29	34401.19
515.47	35445.07
515.64	34923.13
515.81	34541.63
515.99	34635.25
516.16	34525.24
516.33	34213.95
516.51	34630.57
516.68	34244.38
516.85	33961.17
517.03	34749.93
517.20	35192.30
517.37	35215.70
517.54	35199.32
517.72	35292.94
517.89	34590.78
518.06	34852.92
518.24	35093.99
518.41	35098.67
518.58	35253.15
518.75	35395.92
518.93	36154.26
519.10	35337.41
519.27	36191.70
519.45	35754.02
519.62	35955.31
519.79	36287.67
519.96	36350.86
520.14	36182.34
520.31	36203.41
520.48	36437.46
520.65	36755.77
520.83	37034.30
521.00	36261.92
521.17	37090.47
521.34	37102.17
521.52	37193.45
521.69	36971.10
521.86	37429.85
522.03	37347.93
522.20	36938.33
522.38	37542.19
522.55	36978.12
522.72	37361.97
522.89	37322.18
523.07	37752.84
523.24	37359.63
523.41	37408.78
523.58	37516.45
523.75	38188.18
523.92	38356.70
524.10	38284.14
524.27	38445.64
524.44	38029.02
524.61	38562.67
524.78	38728.84
524.96	38452.66
525.13	38621.18
525.30	38756.93
525.47	38923.11
525.64	38546.28
525.81	38466.70
525.98	38572.03
526.16	38656.29
526.33	37956.47
526.50	38649.27
526.67	38550.96
526.84	38611.82
527.01	38417.55
527.18	39215.68
527.36	38780.34
527.53	39002.69
527.70	39402.92
527.87	39159.50
528.04	39426.32
528.21	39861.66
528.38	39658.04
528.55	39798.47
528.72	39941.24
528.89	39913.16
529.07	39838.26
529.24	39655.70
529.41	39700.17
529.58	39421.64
529.75	39573.78
529.92	39988.05
530.09	39955.29
530.26	40332.11
530.43	39913.16
530.60	40051.25
530.77	40608.29
530.94	40685.53
531.11	40437.44
531.28	40615.32
531.46	40662.13
531.63	40399.99
531.80	40304.02
531.97	40563.82
532.14	40306.37
532.31	40112.10
532.48	40219.77
532.65	40776.81
532.82	40622.34
532.99	40870.43
533.16	40788.52
533.33	40910.22
533.50	41619.41
533.67	40732.34
533.84	41095.13
534.01	41181.73
534.18	40945.33
534.35	41123.21
534.52	41202.79
534.69	41471.95
534.86	41509.40
535.03	41127.89
535.20	41682.60
535.37	41954.10
535.54	41654.51
535.71	41968.15
535.88	41659.20
536.05	41289.39
536.22	41715.37
536.38	41706.01
536.55	41682.60
536.72	41825.37
536.89	41537.49
537.06	41752.82
537.23	41965.81
537.40	41888.57
537.57	42106.24
537.74	42045.38
537.91	42447.96
538.08	41949.42
538.25	41937.72
538.42	42040.70
538.59	42667.97
538.75	41799.63
538.92	42274.76
539.09	42436.25
539.26	41883.89
539.43	42403.49
539.60	42782.65
539.77	42464.34
539.94	42717.12
540.11	42426.89
540.28	42452.64
540.44	42593.07
540.61	42157.73
540.78	42199.86
540.95	42389.44
541.12	42541.58
541.29	42593.07
541.46	42263.05
541.62	43107.99
541.79	43227.35
541.96	42848.19
542.13	43117.35
542.30	43131.39
542.47	42997.98
542.63	43386.51
542.80	43618.22
542.97	43463.75
543.14	44002.07
543.31	43339.70
543.48	43590.14
543.64	44165.91
543.81	43969.30
543.98	43641.63
544.15	43552.69
544.32	43632.27
544.48	44210.38
544.65	44156.55
544.82	44107.40
544.99	43452.05
545.16	43901.43
545.32	44285.28
545.49	44210.38
545.66	44449.11
545.83	44514.65
546.00	44617.63
546.16	44540.39
546.33	44072.29
546.50	44210.38
546.67	44121.44
546.83	43686.10
547.00	44299.32
547.17	44474.86
547.34	44322.72
547.50	44493.58
547.67	44343.79
547.84	44481.88
548.00	44917.22
548.17	44619.97
548.34	44734.66
548.51	44643.38
548.67	44875.09
548.84	44978.07
549.01	44671.46
549.18	44851.69
549.34	44767.43
549.51	45071.70
549.68	45059.99
549.84	45209.79
550.01	44650.40
550.18	45043.61
550.34	44971.05
550.51	44727.64
550.68	45134.89
550.84	44729.98
551.01	44947.65
551.18	45504.70
551.34	45155.96
551.51	45174.68
551.68	45457.88
551.84	45820.67
552.01	45212.13
552.18	45345.54
552.34	44837.64
552.51	45806.62
552.68	45471.93
552.84	45450.86
553.01	45614.70
553.18	45441.50
553.34	45546.82
553.51	45333.84
553.67	45394.69
553.84	46120.26
554.01	45619.38
554.17	45998.55
554.34	45769.18
554.51	45827.69
554.67	45879.18
554.84	45546.82
555.00	45825.35
555.17	45684.92
555.33	46021.95
555.50	45928.33
555.67	46138.98
555.83	45947.06
556.00	45628.74
556.16	46244.30
556.33	46012.59
556.50	46094.51
556.66	46050.04
556.83	45823.01
556.99	45914.29
557.16	45853.44
557.32	45869.82
557.49	46197.49
557.65	45909.61
557.82	46005.57
557.98	46010.25
558.15	46232.60
558.32	45972.80
558.48	45640.45
558.65	45820.67
558.81	45642.79
558.98	45947.06
559.14	46174.09
559.31	45984.51
559.47	46344.95
559.64	46583.68
559.80	46550.91
559.97	46328.56
560.13	45961.10
560.30	46464.32
560.46	46550.91
560.63	46593.04
560.79	46387.08
560.96	46745.18
561.12	46368.35
561.29	46916.04
561.45	46717.09
561.61	46614.11
561.78	46330.90
561.94	46274.73
562.11	46740.50
562.27	46288.77
562.44	46838.80
562.60	46960.51
562.77	46873.91
562.93	46745.18
563.10	46806.03
563.26	46483.04
563.42	46810.71
563.59	46412.82
563.75	47023.70
563.92	46932.42
564.08	46588.36
564.24	47021.36
564.41	46679.64
564.57	46586.02
564.74	46555.60
564.90	46625.81
565.07	47042.43
565.23	46656.24
565.39	46417.50
565.56	46550.91
565.72	46646.88
565.88	47009.66
566.05	46745.18
566.21	46848.16
566.38	46782.63
566.54	46871.57
566.70	47470.75
566.87	47255.42
567.03	47152.43
567.19	47351.38
567.36	46962.85
567.52	46806.03
567.68	46892.63
567.85	46611.77
568.01	46560.28
568.17	46712.41
568.34	46829.44
568.50	46883.27
568.66	46724.11
568.83	47021.36
568.99	47056.47
569.15	46719.43
569.32	46834.12
569.48	46452.61
569.64	47281.16
569.81	46920.72
569.97	46864.55
570.13	46827.10
570.30	46543.89
570.46	46689.01
570.62	46433.89
570.78	46337.93
570.95	46782.63
571.11	46974.55
571.27	47075.19
571.43	46916.04
571.60	47028.38
571.76	46806.03
571.92	47019.02
572.09	46862.21
572.25	47040.09
572.41	46845.82
572.57	47014.34
572.74	47400.53
572.90	46782.63
573.06	47739.91
573.22	47082.22
573.38	47246.05
573.55	46862.21
573.71	47145.41
573.87	46618.79
574.03	46703.05
574.20	47309.25
574.36	46894.97
574.52	47175.84
574.68	47161.79
574.84	46983.91
575.01	46253.67
575.17	46501.76
575.33	47063.49
575.49	47021.36
575.65	47051.79
575.82	47136.05
575.98	46862.21
576.14	46990.94
576.30	47344.36
576.46	47473.09
576.62	47154.77
576.79	47023.70
576.95	46543.89
577.11	46789.65
577.27	47248.39
577.43	47154.77
577.59	46997.96
577.75	47026.04
577.92	46501.76
578.08	46501.76
578.24	46906.68
578.40	47171.16
578.56	46710.07
578.72	46892.63
578.88	47545.64
579.04	47220.31
579.21	47070.51
579.37	47023.70
579.53	47246.05
579.69	46937.10
579.85	47379.46
580.01	47442.66
580.17	47143.07
580.33	47278.82
580.49	47271.80
580.65	47360.74
580.82	47440.32
580.98	47171.16
581.14	46894.97
581.30	47391.17
581.46	47452.02
581.62	47208.61
581.78	47178.18
581.94	47723.52
582.10	47501.17
582.26	47400.53
582.42	47281.16
582.58	47416.91
582.74	47187.54
582.90	47498.83
583.06	47772.67
583.22	47807.78
583.38	47007.32
583.54	47529.26
583.70	47363.08
583.86	47564.37
584.02	46710.07
584.18	47735.23
584.34	47044.77
584.50	47201.58
584.66	47014.34
584.82	47274.14
584.98	47356.06
585.14	47470.75
585.30	47290.52
585.46	47316.27
585.62	47040.09
585.78	47290.52
585.94	46873.91
586.10	47033.07
586.26	47473.09
586.42	47047.11
586.58	47105.62
586.74	47487.13
586.90	46841.14
587.06	47349.04
587.22	47491.81
587.38	47215.63
587.54	47496.49
587.70	47573.73
587.86	47051.79
588.02	47306.91
588.18	47332.65
588.34	47079.88
588.49	46595.38
588.65	46546.23
588.81	46679.64
588.97	46728.80
589.13	46806.03
589.29	46583.68
589.45	47405.21
589.61	47047.11
589.77	47332.65
