SpectraSuite Data File
++++++++++++++++++++++++++++++++++++
Date: Fri Oct 25 11:34:03 EDT 2013
User: price-jones
Dark Spectrum Present: No
Reference Spectrum Present: No
Number of Sampled Component Spectra: 1
Spectrometers: USB2+H05261
Integration Time (usec): 100000 (USB2+H05261)
Spectra Averaged: 1 (USB2+H05261)
Boxcar Smoothing: 0 (USB2+H05261)
Correct for Electrical Dark: No (USB2+H05261)
Strobe/Lamp Enabled: No (USB2+H05261)
Correct for Detector Non-linearity: No (USB2+H05261)
Correct for Stray Light: No (USB2+H05261)
Number of Pixels in Processed Spectrum: 2048
>>>>>Begin Processed Spectral Data<<<<<
365.73	325.33
365.92	325.33
366.12	325.33
366.32	224.69
366.52	189.58
366.72	227.03
366.91	145.11
367.11	201.29
367.31	147.45
367.51	152.13
367.70	161.50
367.90	142.77
368.10	182.56
368.30	182.56
368.49	191.92
368.69	236.39
368.89	182.56
369.09	201.29
369.28	163.84
369.48	217.67
369.68	222.35
369.87	236.39
370.07	208.31
370.27	266.82
370.47	367.46
370.66	482.15
370.86	496.19
371.06	482.15
371.25	528.96
371.45	594.50
371.65	531.30
371.84	526.62
372.04	566.41
372.24	557.05
372.44	617.90
372.63	550.03
372.83	627.26
373.03	545.34
373.22	545.34
373.42	664.71
373.62	655.35
373.81	603.86
374.01	650.67
374.21	662.37
374.40	688.12
374.60	603.86
374.79	641.31
374.99	603.86
375.19	650.67
375.38	606.20
375.58	624.92
375.78	688.12
375.97	669.39
376.17	755.99
376.37	681.10
376.56	671.73
376.76	657.69
376.95	709.18
377.15	634.29
377.35	669.39
377.54	699.82
377.74	643.65
377.93	636.63
378.13	681.10
378.33	739.61
378.52	713.86
378.72	697.48
378.91	734.93
379.11	697.48
379.31	751.31
379.50	636.63
379.70	720.88
379.89	653.01
380.09	758.33
380.28	730.25
380.48	690.46
380.68	695.14
380.87	676.41
381.07	732.59
381.26	816.85
381.46	800.46
381.65	655.35
381.85	718.54
382.04	779.40
382.24	737.27
382.43	760.67
382.63	746.63
382.83	805.14
383.02	774.72
383.22	826.21
383.41	795.78
383.61	851.96
383.80	837.91
384.00	800.46
384.19	767.70
384.39	882.38
384.58	873.02
384.78	777.06
384.97	819.19
385.17	830.89
385.36	772.38
385.56	844.93
385.75	781.74
385.95	777.06
386.14	868.34
386.34	875.36
386.53	821.53
386.72	837.91
386.92	943.24
387.11	842.59
387.31	908.13
387.50	856.64
387.70	826.21
387.89	821.53
388.09	877.70
388.28	858.98
388.48	936.21
388.67	985.37
388.86	1008.77
389.06	887.06
389.25	929.19
389.45	919.83
389.64	1008.77
389.84	968.98
390.03	889.40
390.22	983.02
390.42	971.32
390.61	947.92
390.81	947.92
391.00	952.60
391.19	940.90
391.39	954.94
391.58	961.96
391.78	959.62
391.97	1015.79
392.16	999.41
392.36	1018.13
392.55	1062.60
392.75	1114.10
392.94	983.02
393.13	1043.88
393.33	1025.15
393.52	1001.75
393.71	1142.18
393.91	1071.97
394.10	954.94
394.29	1123.46
394.49	1097.71
394.68	1132.82
394.88	1116.44
395.07	1156.22
395.26	1139.84
395.46	1186.65
395.65	1125.80
395.84	1205.38
396.04	1160.91
396.23	1095.37
396.42	1132.82
396.62	1203.04
396.81	1146.86
397.00	1139.84
397.19	1207.72
397.39	1095.37
397.58	1142.18
397.77	1284.95
397.97	1284.95
398.16	1254.53
398.35	1275.59
398.55	1263.89
398.74	1270.91
398.93	1364.53
399.12	1341.13
399.32	1228.78
399.51	1296.66
399.70	1453.47
399.90	1324.74
400.09	1352.83
400.28	1313.04
400.47	1320.06
400.67	1516.67
400.86	1359.85
401.05	1416.02
401.24	1432.41
401.44	1343.47
401.63	1425.39
401.82	1500.28
402.01	1385.60
402.21	1458.15
402.40	1462.83
402.59	1479.22
402.78	1486.24
402.97	1441.77
403.17	1423.05
403.36	1451.13
403.55	1533.05
403.74	1584.54
403.93	1575.18
404.13	1488.58
404.32	1502.62
404.51	1708.59
404.70	1563.48
404.89	1535.39
405.09	1577.52
405.28	1659.44
405.47	1675.82
405.66	1673.48
405.85	1717.95
406.05	1638.38
406.24	1708.59
406.43	1657.10
406.62	1797.53
406.81	1753.06
407.00	1673.48
407.20	1746.04
407.39	1783.49
407.58	1792.85
407.77	1783.49
407.96	1823.28
408.15	1888.81
408.34	1790.51
408.54	1820.94
408.73	1783.49
408.92	1944.99
409.11	1853.70
409.30	1977.75
409.49	2019.88
409.68	1820.94
409.87	1977.75
410.07	1970.73
410.26	1980.09
410.45	1987.11
410.64	2054.99
410.83	2054.99
411.02	2099.46
411.21	2129.89
411.40	2099.46
411.59	2242.23
411.78	2153.29
411.98	2127.55
412.17	2265.64
412.36	2225.85
412.55	2150.95
412.74	2413.09
412.93	2396.71
413.12	2186.06
413.31	2331.17
413.50	2270.32
413.69	2342.88
413.88	2464.58
414.07	2373.30
414.26	2450.54
414.45	2434.16
414.64	2597.99
414.83	2539.48
415.02	2633.10
415.22	2487.99
415.41	2663.53
415.60	2644.81
415.79	2553.52
415.98	2768.85
416.17	2693.96
416.36	2523.10
416.55	2724.38
416.74	2796.94
416.93	2593.31
417.12	2677.57
417.31	2775.88
417.50	2841.41
417.69	3030.99
417.88	2916.31
418.07	2874.18
418.26	2846.09
418.45	2965.46
418.64	2918.65
418.83	2995.89
419.02	2986.52
419.21	3119.93
419.39	2995.89
419.58	3068.44
419.77	3005.25
419.96	3110.57
420.15	3133.98
420.34	3073.12
420.53	3286.11
420.72	3243.98
420.91	3204.19
421.10	3243.98
421.29	3232.28
421.48	3190.15
421.67	3267.39
421.86	3201.85
422.05	3220.58
422.24	3178.45
422.43	3236.96
422.61	3400.80
422.80	3283.77
422.99	3260.37
423.18	3138.66
423.37	3431.23
423.56	3356.33
423.75	3208.87
423.94	3211.22
424.13	3077.80
424.32	3363.35
424.50	3386.76
424.69	3487.40
424.88	3370.37
425.07	3403.14
425.26	3344.63
425.45	3384.41
425.64	3171.43
425.83	3365.69
426.01	3403.14
426.20	3389.10
426.39	3496.76
426.58	3328.24
426.77	3515.48
426.96	3379.73
427.15	3557.61
427.33	3529.53
427.52	3438.25
427.71	3475.70
427.90	3583.36
428.09	3597.40
428.28	3569.32
428.46	3576.34
428.65	3695.71
428.84	3777.62
429.03	3789.33
429.22	3496.76
429.40	3620.81
429.59	3754.22
429.78	3524.85
429.97	3669.96
430.16	3798.69
430.34	3810.39
430.53	3850.18
430.72	3826.78
430.91	3901.67
431.10	3880.61
431.28	3815.07
431.47	3838.48
431.66	3969.55
431.85	3824.44
432.03	3810.39
432.22	4009.34
432.41	3964.87
432.60	4107.64
432.79	4119.34
432.97	3915.72
433.16	3978.91
433.35	3936.78
433.54	4044.45
433.72	4081.89
433.91	4032.74
434.10	4159.13
434.28	4091.26
434.47	4131.05
434.66	4152.11
434.85	4255.09
435.03	4109.98
435.22	4273.82
435.41	4177.86
435.59	4346.37
435.78	4360.42
435.97	4362.76
436.16	4353.40
436.34	4327.65
436.53	4397.87
436.72	4629.58
436.90	4437.66
437.09	4526.60
437.28	4255.09
437.46	4414.25
437.65	4355.74
437.84	4491.49
438.02	4470.42
438.21	4727.88
438.40	4470.42
438.58	4770.01
438.77	4662.35
438.96	4692.77
439.14	4837.89
439.33	4833.21
439.52	4805.12
439.70	4802.78
439.89	4938.53
440.08	5095.35
440.26	4891.72
440.45	5008.75
440.63	5097.69
440.82	5085.98
441.01	4983.00
441.19	5097.69
441.38	5334.08
441.57	5041.51
441.75	5254.50
441.94	5338.76
442.12	5322.38
442.31	5392.59
442.50	5266.21
442.68	5261.52
442.87	5254.50
443.05	5217.05
443.24	5490.90
443.43	5446.43
443.61	5462.81
443.80	5509.62
443.98	5502.60
444.17	5184.29
444.35	5563.45
444.54	5659.42
444.73	5535.37
444.91	5441.75
445.10	5556.43
445.28	5488.56
445.47	5565.79
445.65	5516.64
445.84	5474.51
446.02	5734.31
446.21	5614.95
446.39	5600.90
446.58	5394.93
446.77	5631.33
446.95	5458.13
447.14	5689.84
447.32	5699.20
447.51	5549.41
447.69	5820.91
447.88	5654.73
448.06	5753.04
448.25	5717.93
448.43	5806.87
448.62	5636.01
448.80	5720.27
448.99	5769.42
449.17	5645.37
449.36	5645.37
449.54	5980.07
449.73	6010.50
449.91	6001.13
450.10	5891.13
450.28	5949.64
450.46	5961.34
450.65	6036.24
450.83	6076.03
451.02	6092.41
451.20	6040.92
451.39	6134.54
451.57	6183.70
451.76	5977.73
451.94	6010.50
452.13	6251.57
452.31	6188.38
452.49	6129.86
452.68	6111.14
452.86	6345.19
453.05	6258.59
453.23	6211.78
453.42	6300.72
453.60	6127.52
453.78	6333.49
453.97	6153.27
454.15	6204.76
454.34	6242.21
454.52	6363.92
454.70	6476.26
454.89	6387.32
455.07	6455.20
455.26	6448.18
455.44	6530.09
455.62	6509.03
455.81	6537.12
455.99	6534.78
456.17	6668.19
456.36	6649.46
456.54	6813.30
456.73	6825.00
456.91	6953.73
457.09	6913.94
457.28	6890.54
457.46	6881.18
457.64	6979.48
457.83	6810.96
458.01	6874.15
458.19	7138.63
458.38	7007.56
458.56	7007.56
458.74	6988.84
458.93	7136.29
459.11	7220.55
459.29	7056.72
459.48	7094.16
459.66	7243.96
459.84	7164.38
460.03	7274.38
460.21	7110.55
460.39	7272.04
460.57	7288.43
460.76	7262.68
460.94	7222.89
461.12	7286.09
461.31	7358.64
461.49	7393.75
461.67	7290.77
461.85	7302.47
462.04	7300.13
462.22	7887.61
462.40	7723.77
462.59	7487.37
462.77	7552.91
462.95	7709.72
463.13	7557.59
463.32	7693.34
463.50	7826.75
463.68	7730.79
463.86	8028.04
464.05	7728.45
464.23	7803.35
464.41	7749.51
464.59	7810.37
464.78	8011.65
464.96	7871.22
465.14	7695.68
465.32	7901.65
465.50	7929.74
465.69	8013.99
465.87	7995.27
466.05	8011.65
466.23	8025.70
466.41	7899.31
466.60	8060.80
466.78	8102.93
466.96	7997.61
467.14	7925.05
467.32	7925.05
467.51	8351.03
467.69	8124.00
467.87	8039.74
468.05	8276.13
468.23	8147.40
468.41	8166.13
468.60	8428.27
468.78	8416.57
468.96	8407.20
469.14	8573.38
469.32	8428.27
469.50	8444.65
469.69	8505.51
469.87	8500.83
470.05	8437.63
470.23	8594.45
470.41	8589.77
470.59	8650.62
470.77	8596.79
470.95	8723.18
471.14	8854.25
471.32	8634.24
471.50	8798.07
471.68	8908.08
471.86	8828.50
472.04	9074.26
472.22	9231.07
472.40	9032.13
472.58	9210.01
472.77	9083.62
472.95	9109.36
473.13	9565.77
473.31	9188.94
473.49	9172.56
473.67	9109.36
473.85	9195.96
474.03	9760.03
474.21	9525.98
474.39	9645.35
474.57	9556.41
474.75	9638.33
474.93	9881.74
475.12	9727.27
475.30	9839.61
475.48	10024.51
475.66	10047.92
475.84	9916.85
476.02	9982.38
476.20	10104.09
476.38	10225.80
476.56	10265.59
476.74	10494.96
476.92	10253.89
477.10	10167.29
477.28	10534.75
477.46	10452.83
477.64	10377.94
477.82	10677.52
478.00	10857.75
478.18	10775.83
478.36	10906.90
478.54	10993.50
478.72	11075.42
478.90	11147.97
479.08	11243.93
479.26	11541.18
479.44	11585.65
479.62	11314.15
479.80	11618.42
479.98	11695.66
480.16	11887.58
480.34	11882.90
480.52	12025.67
480.70	12107.59
480.88	11962.48
481.06	12381.43
481.24	12285.47
481.41	12430.59
481.59	12376.75
481.77	12451.65
481.95	12549.95
482.13	12699.75
482.31	12664.64
482.49	13165.51
482.67	12861.24
482.85	13212.32
483.03	13500.21
483.21	13518.93
483.39	13284.88
483.57	13390.20
483.74	13825.54
483.92	13713.20
484.10	13760.01
484.28	13816.18
484.46	14380.25
484.64	14504.30
484.82	13947.25
485.00	14347.48
485.18	14530.05
485.35	14993.47
485.53	14864.74
485.71	14911.55
485.89	15206.46
486.07	14998.15
486.25	15115.18
486.43	15253.27
486.61	15391.36
486.78	15499.03
486.96	15559.88
487.14	15843.09
487.32	15709.68
487.50	15932.03
487.68	16182.46
487.85	16159.06
488.03	16411.84
488.21	16636.53
488.39	16622.48
488.57	17013.35
488.75	16849.52
488.92	17212.30
489.10	17284.86
489.28	17160.81
489.46	17422.95
489.64	17488.48
489.81	17804.46
489.99	17905.10
490.17	17872.33
490.35	17977.65
490.53	18026.81
490.70	18136.81
490.88	18031.49
491.06	18441.08
491.24	18427.04
491.41	18857.70
491.59	18916.21
491.77	18703.22
491.95	19028.56
492.13	19147.92
492.30	18995.79
492.48	19311.76
492.66	19594.96
492.84	19236.86
493.01	19707.31
493.19	19777.53
493.37	19932.00
493.54	20046.69
493.72	20259.68
493.90	20297.13
494.08	20407.13
494.25	20519.48
494.43	20819.07
494.61	20610.76
494.79	21013.33
494.96	20868.22
495.14	20889.28
495.32	21266.11
495.49	21736.56
495.67	21249.72
495.85	21809.11
496.02	21671.02
496.20	21919.12
496.38	21937.84
496.55	21809.11
496.73	22567.45
496.91	22258.49
497.09	22272.54
497.26	22515.95
497.44	22429.35
497.62	22963.00
497.79	23101.09
497.97	22923.21
498.14	23140.88
498.32	23414.72
498.50	23363.23
498.67	23623.03
498.85	23901.55
499.03	23384.29
499.20	23473.23
499.38	23978.79
499.56	23847.72
499.73	23913.25
499.91	24222.20
500.08	24091.13
500.26	24039.64
500.44	24273.70
500.61	24315.83
500.79	24294.76
500.97	24379.02
501.14	24933.73
501.32	24882.24
501.49	24596.69
501.67	24790.95
501.84	25083.52
502.02	25113.95
502.20	25013.31
502.37	25219.27
502.55	25195.87
502.72	25362.04
502.90	25743.55
503.07	25303.53
503.25	25834.83
503.43	25722.49
503.60	26054.84
503.78	25689.72
503.95	25781.00
504.13	25687.38
504.30	26553.38
504.48	26003.35
504.65	26417.63
504.83	26429.33
505.01	26490.18
505.18	26487.84
505.36	26829.56
505.53	26419.97
505.71	26876.37
505.88	27168.94
506.06	27028.51
506.23	27363.20
506.41	26913.82
506.58	27314.05
506.76	27307.03
506.93	27452.14
507.11	27323.41
507.28	27632.36
507.46	28011.53
507.63	27613.64
507.81	27969.40
507.98	27899.19
508.16	28086.43
508.33	28039.62
508.50	28140.26
508.68	28407.08
508.85	28486.66
509.03	27974.08
509.20	28442.19
509.38	28755.82
509.55	29060.09
509.73	28437.51
509.90	28835.40
510.08	28936.04
510.25	28591.98
510.42	29022.64
510.60	28931.36
510.77	29453.30
510.95	29415.85
511.12	29050.73
511.30	29200.52
511.47	29446.28
511.64	29411.17
511.82	29811.40
511.99	29888.64
512.17	29930.77
512.34	29795.02
512.51	29914.39
512.69	30288.87
512.86	30333.34
513.04	30314.62
513.21	30216.32
513.38	30319.30
513.56	30728.89
513.73	30691.44
513.90	30852.94
514.08	30689.10
514.25	30665.70
514.43	30810.81
514.60	30911.46
514.77	30768.68
514.95	31096.36
515.12	31049.55
515.29	31431.05
515.47	31482.55
515.64	31555.10
515.81	31353.82
515.99	31426.37
516.16	31835.97
516.33	31880.44
516.51	31983.42
516.68	31758.73
516.85	31716.60
517.03	31777.45
517.20	31903.84
517.37	32016.19
517.54	31964.70
517.72	32488.98
517.89	32598.98
518.06	32163.64
518.24	32341.52
518.41	32308.76
518.58	32341.52
518.75	32528.77
518.93	32765.16
519.10	32613.02
519.27	32912.61
519.45	32762.82
519.62	32811.97
519.79	33179.43
519.96	33137.30
520.14	33001.55
520.31	33170.07
520.48	33329.23
520.65	33455.62
520.83	34066.50
521.00	33776.27
521.17	33333.91
521.34	33970.54
521.52	33968.19
521.69	34066.50
521.86	34120.33
522.03	34183.52
522.20	34412.90
522.38	34745.25
522.55	34281.83
522.72	34319.28
522.89	34033.73
523.07	34686.74
523.24	34670.36
523.41	34632.91
523.58	34244.38
523.75	34768.66
523.92	34841.21
524.10	34944.20
524.27	34766.32
524.44	34916.11
524.61	34951.22
524.78	35414.65
524.96	35096.33
525.13	35033.14
525.30	35360.81
525.47	35526.99
525.64	35754.02
525.81	35700.19
525.98	35885.09
526.16	35295.28
526.33	35611.25
526.50	35938.93
526.67	35599.55
526.84	35978.72
527.01	35866.37
527.18	36456.18
527.36	36325.11
527.53	36074.68
527.70	36261.92
527.87	36697.26
528.04	36259.58
528.21	36320.43
528.38	36676.19
528.55	36598.96
528.72	36488.95
528.89	36589.59
529.07	36540.44
529.24	36435.12
529.41	36470.23
529.58	36830.67
529.75	36758.11
529.92	37053.02
530.09	36601.30
530.26	37151.32
530.43	37123.24
530.60	36959.40
530.77	37368.99
530.94	37249.63
531.11	37017.91
531.28	37240.26
531.46	37457.93
531.63	37446.23
531.80	37574.96
531.97	37303.46
532.14	37799.65
532.31	37708.37
532.48	37680.28
532.65	38220.95
532.82	37539.85
532.99	37764.54
533.16	38129.67
533.33	38178.82
533.50	38483.09
533.67	37801.99
533.84	37968.17
534.01	38550.96
534.18	38239.67
534.35	38483.09
534.52	38602.46
534.69	38637.56
534.86	38279.46
535.03	38127.33
535.20	38951.20
535.37	38866.94
535.54	38422.23
535.71	38733.53
535.88	39009.71
536.05	38614.16
536.22	39269.51
536.38	38689.06
536.55	39096.31
536.72	38843.53
536.89	38712.46
537.06	39063.54
537.23	39213.34
537.40	39000.35
537.57	38834.17
537.74	39093.97
537.91	39606.55
538.08	39026.09
538.25	39028.43
538.42	39388.88
538.59	39594.84
538.75	39131.42
538.92	39887.41
539.09	40037.20
539.26	39732.93
539.43	39826.56
539.60	39648.68
539.77	39749.32
539.94	39845.28
540.11	40079.33
540.28	40250.19
540.44	39995.07
540.61	39761.02
540.78	39735.27
540.95	40046.57
541.12	39920.18
541.29	40172.96
541.46	40355.52
541.62	40100.40
541.79	40343.81
541.96	40046.57
542.13	39831.24
542.30	40390.62
542.47	40622.34
542.63	40512.33
542.80	40900.86
542.97	40870.43
543.14	41060.02
543.31	41041.29
543.48	40912.56
543.64	41647.49
543.81	41315.14
543.98	41422.80
544.15	41090.44
544.32	41256.62
544.48	41556.21
544.65	41448.55
544.82	41439.18
544.99	41626.43
545.16	41347.90
545.32	41273.01
545.49	41804.31
545.66	41804.31
545.83	41729.41
546.00	41867.50
546.16	41876.86
546.33	41617.07
546.50	41518.76
546.67	42375.40
546.83	41371.31
547.00	41462.59
547.17	42129.64
547.34	41408.76
547.50	41748.14
547.67	42239.65
547.84	42197.52
548.00	42251.35
548.17	42883.30
548.34	42436.25
548.51	42862.23
548.67	42483.06
548.84	42384.76
549.01	41998.57
549.18	42258.37
549.34	42721.80
549.51	42635.20
549.68	42625.84
549.84	42293.48
550.01	43077.56
550.18	42614.13
550.34	42820.10
550.51	43203.95
550.68	42773.29
550.84	42777.97
551.01	42721.80
551.18	43093.94
551.34	42927.77
551.51	42958.19
551.68	42850.53
551.84	42995.64
552.01	43040.11
552.18	43159.48
552.34	43023.73
552.51	43072.88
552.68	42719.46
552.84	43044.79
553.01	43372.47
553.18	43220.33
553.34	43548.01
553.51	43084.58
553.67	43592.48
553.84	43868.66
554.01	43445.02
554.17	43571.41
554.34	43931.86
554.51	43786.74
554.67	43997.39
554.84	43861.64
555.00	43625.25
555.17	43662.69
555.33	43845.26
555.50	43831.21
555.67	43990.37
555.83	43498.86
556.00	44133.14
556.16	44287.62
556.33	43981.01
556.50	43950.58
556.66	44088.67
556.83	43903.77
556.99	43791.42
557.16	44465.50
557.32	44540.39
557.49	44533.37
557.65	43789.08
557.82	44360.17
557.98	44261.87
558.15	44254.85
558.32	44397.62
558.48	44390.60
558.65	44507.63
558.81	44739.34
558.98	44271.23
559.14	44156.55
559.31	44058.24
559.47	44406.98
559.64	44465.50
559.80	44533.37
559.97	44854.03
560.13	44371.88
560.30	44664.44
560.46	44699.55
560.63	44760.40
560.79	44666.78
560.96	45013.18
561.12	44720.62
561.29	44484.22
561.45	44423.37
561.61	44851.69
561.78	44669.12
561.94	44978.07
562.11	45076.38
562.27	45081.06
562.44	44767.43
562.60	45162.98
562.77	44900.84
562.93	44921.90
563.10	45408.73
563.26	45029.57
563.42	45111.49
563.59	44692.53
563.75	44818.92
563.92	45071.70
564.08	45308.09
564.24	45216.81
564.41	44985.10
564.57	45432.14
564.74	45460.23
564.90	45291.71
565.07	45174.68
565.23	45214.47
565.39	45607.68
565.56	45432.14
565.72	45436.82
565.88	45191.06
566.05	45537.46
566.21	45563.21
566.38	45462.57
566.54	45357.24
566.70	45801.94
566.87	45675.55
567.03	45532.78
567.19	45757.47
567.36	45392.35
567.52	45579.59
567.68	46033.66
567.85	45539.80
568.01	45853.44
568.17	45560.87
568.34	45930.67
568.50	45368.94
568.66	44900.84
568.83	45514.06
568.99	45752.79
569.15	45532.78
569.32	45820.67
569.48	45312.77
569.64	45734.07
569.81	45970.46
569.97	46047.70
570.13	45951.74
570.30	45631.08
570.46	45820.67
570.62	46106.21
570.78	46078.13
570.95	45626.40
571.11	45844.07
571.27	45867.48
571.43	46038.34
571.60	45743.43
571.76	45745.77
571.92	45925.99
572.09	46024.29
572.25	45591.30
572.41	45446.18
572.57	45968.12
572.74	46394.10
572.90	45722.37
573.06	46075.79
573.22	45811.31
573.38	45918.97
573.55	46110.89
573.71	46178.77
573.87	46478.36
574.03	46295.80
574.20	46206.86
574.36	46422.19
574.52	46157.70
574.68	46057.06
574.84	46157.70
575.01	46457.29
575.17	46302.82
575.33	46244.30
575.49	46017.27
575.65	46220.90
575.82	46873.91
575.98	46050.04
576.14	46272.39
576.30	46506.44
576.46	46342.61
576.62	46115.58
576.79	46244.30
576.95	45769.18
577.11	45741.09
577.27	46033.66
577.43	46309.84
577.59	46176.43
577.75	46230.26
577.92	45989.19
578.08	46017.27
578.24	46614.11
578.40	46480.70
578.56	46256.01
578.72	46263.03
578.88	46431.55
579.04	46153.02
579.21	46454.95
579.37	46176.43
579.53	46113.23
579.69	46040.68
579.85	45811.31
580.01	46459.63
580.17	46370.69
580.33	46347.29
580.49	46204.52
580.65	46445.59
580.82	46054.72
580.98	46354.31
581.14	46085.15
581.30	46581.34
581.46	46284.09
581.62	46384.74
581.78	46347.29
581.94	46651.56
582.10	46113.23
582.26	46452.61
582.42	46658.58
582.58	46038.34
582.74	46429.21
582.90	46398.78
583.06	46508.79
583.22	46337.93
583.38	45846.41
583.54	46684.33
583.70	46728.80
583.86	46794.33
584.02	46401.12
584.18	46686.67
584.34	46630.49
584.50	46635.17
584.66	46644.54
584.82	46576.66
584.98	47030.72
585.14	46887.95
585.30	46415.16
585.46	46358.99
585.62	46497.08
585.78	46401.12
585.94	46256.01
586.10	46408.14
586.26	46291.12
586.42	46469.00
586.58	46532.19
586.74	46017.27
586.90	46230.26
587.06	46417.50
587.22	46944.12
587.38	46351.97
587.54	47140.73
587.70	46880.93
587.86	46588.36
588.02	46864.55
588.18	46607.09
588.34	46211.54
588.49	46752.20
588.65	46284.09
588.81	47026.04
588.97	46822.42
589.13	46752.20
589.29	46630.49
589.45	46951.15
589.61	46791.99
589.77	46445.59
589.93	46691.35
590.08	46885.61
