SpectraSuite Data File
++++++++++++++++++++++++++++++++++++
Date: Fri Oct 25 11:23:58 EDT 2013
User: price-jones
Dark Spectrum Present: No
Reference Spectrum Present: No
Number of Sampled Component Spectra: 1
Spectrometers: USB2+H05261
Integration Time (usec): 100000 (USB2+H05261)
Spectra Averaged: 1 (USB2+H05261)
Boxcar Smoothing: 0 (USB2+H05261)
Correct for Electrical Dark: No (USB2+H05261)
Strobe/Lamp Enabled: No (USB2+H05261)
Correct for Detector Non-linearity: No (USB2+H05261)
Correct for Stray Light: No (USB2+H05261)
Number of Pixels in Processed Spectrum: 2048
>>>>>Begin Processed Spectral Data<<<<<
365.73	194.26
365.92	194.26
366.12	194.26
366.32	163.84
366.52	105.32
366.72	142.77
366.91	79.58
367.11	105.32
367.31	93.62
367.51	28.09
367.70	105.32
367.90	126.39
368.10	100.64
368.30	105.32
368.49	102.98
368.69	159.16
368.89	156.82
369.09	88.94
369.28	117.03
369.48	124.05
369.68	159.16
369.87	215.33
370.07	170.86
370.27	205.97
370.47	402.57
370.66	594.50
370.86	603.86
371.06	685.78
371.25	638.97
371.45	737.27
371.65	650.67
371.84	748.97
372.04	685.78
372.24	760.67
372.44	678.76
372.63	655.35
372.83	645.99
373.03	795.78
373.22	718.54
373.42	723.23
373.62	793.44
373.81	772.38
374.01	767.70
374.21	751.31
374.40	800.46
374.60	807.48
374.79	706.84
374.99	765.36
375.19	856.64
375.38	898.77
375.58	837.91
375.78	830.89
375.97	882.38
376.17	882.38
376.37	828.55
376.56	840.25
376.76	861.32
376.95	873.02
377.15	896.43
377.35	875.36
377.54	917.49
377.74	821.53
377.93	873.02
378.13	896.43
378.33	1011.11
378.52	884.72
378.72	1015.79
378.91	922.17
379.11	830.89
379.31	947.92
379.50	947.92
379.70	1039.20
379.89	978.34
380.09	936.21
380.28	992.39
380.48	973.66
380.68	985.37
380.87	922.17
381.07	1022.81
381.26	1036.86
381.46	1062.60
381.65	1076.65
381.85	1074.31
382.04	990.05
382.24	1062.60
382.43	1100.05
382.63	1107.07
382.83	1128.14
383.02	1095.37
383.22	1118.78
383.41	1114.10
383.61	1121.12
383.80	1158.57
384.00	1034.52
384.19	1137.50
384.39	1219.42
384.58	1158.57
384.78	1142.18
384.97	1149.20
385.17	1109.41
385.36	1177.29
385.56	1191.33
385.75	1247.51
385.95	1144.52
386.14	1266.23
386.34	1242.82
386.53	1172.61
386.72	1177.29
386.92	1261.55
387.11	1256.87
387.31	1263.89
387.50	1306.02
387.70	1280.27
387.89	1270.91
388.09	1186.65
388.28	1299.00
388.48	1289.64
388.67	1299.00
388.86	1355.17
389.06	1289.64
389.25	1315.38
389.45	1273.25
389.64	1280.27
389.84	1416.02
390.03	1390.28
390.22	1366.87
390.42	1378.58
390.61	1406.66
390.81	1416.02
391.00	1401.98
391.19	1474.54
391.39	1409.00
391.58	1446.45
391.78	1462.83
391.97	1430.07
392.16	1453.47
392.36	1577.52
392.55	1614.97
392.75	1500.28
392.94	1551.78
393.13	1547.09
393.33	1516.67
393.52	1586.88
393.71	1507.30
393.91	1652.42
394.10	1647.74
394.29	1542.41
394.49	1584.54
394.68	1668.80
394.88	1687.53
395.07	1671.14
395.26	1668.80
395.46	1621.99
395.65	1694.55
395.84	1764.76
396.04	1851.36
396.23	1659.44
396.42	1827.96
396.62	1839.66
396.81	1799.87
397.00	1818.60
397.19	1781.15
397.39	1842.00
397.58	1928.60
397.77	1856.04
397.97	1907.54
398.16	1834.98
398.35	1856.04
398.55	1860.73
398.74	2045.63
398.93	2031.58
399.12	1877.11
399.32	1977.75
399.51	2057.33
399.70	1895.83
399.90	1900.52
400.09	1912.22
400.28	2031.58
400.47	2026.90
400.67	2015.20
400.86	2057.33
401.05	2134.57
401.24	2090.10
401.44	2188.40
401.63	2148.61
401.82	2181.38
402.01	1977.75
402.21	2150.95
402.40	2263.30
402.59	2157.97
402.78	2228.19
402.97	2200.10
403.17	2314.79
403.36	2195.42
403.55	2314.79
403.74	2335.85
403.93	2253.94
404.13	2457.56
404.32	2450.54
404.51	2429.48
404.70	2373.30
404.89	2352.24
405.09	2504.37
405.28	2532.46
405.47	2431.82
405.66	2544.16
405.85	2466.92
406.05	2438.84
406.24	2476.29
406.43	2715.02
406.62	2499.69
406.81	2691.62
407.00	2551.18
407.20	2612.04
407.39	2600.34
407.58	2637.78
407.77	2719.70
407.96	2738.43
408.15	2897.58
408.34	2771.19
408.54	2810.98
408.73	2773.53
408.92	2874.18
409.11	2843.75
409.30	2993.55
409.49	2967.80
409.68	2928.01
409.87	2874.18
410.07	3012.27
410.26	3038.02
410.45	3030.99
410.64	3136.32
410.83	3211.22
411.02	3166.74
411.21	3143.34
411.40	3164.40
411.59	3155.04
411.78	3258.03
411.98	3194.83
412.17	3372.71
412.36	3386.76
412.55	3370.37
412.74	3353.99
412.93	3510.80
413.12	3412.50
413.31	3524.85
413.50	3466.33
413.69	3583.36
413.88	3655.92
414.07	3684.00
414.26	3672.30
414.45	3585.70
414.64	3761.24
414.83	3665.28
415.02	3695.71
415.22	3852.52
415.41	3997.64
415.60	3920.40
415.79	3950.82
415.98	3925.08
416.17	4007.00
416.36	4016.36
416.55	3969.55
416.74	4023.38
416.93	4042.11
417.12	4173.18
417.31	4283.18
417.50	4191.90
417.69	4372.12
417.88	4152.11
418.07	4334.67
418.26	4393.19
418.45	4273.82
418.64	4498.51
418.83	4407.23
419.02	4327.65
419.21	4561.70
419.39	4545.32
419.58	4442.34
419.77	4458.72
419.96	4648.30
420.15	4718.52
420.34	4531.28
420.53	4636.60
420.72	4777.03
420.91	4594.47
421.10	4746.61
421.29	4671.71
421.48	4807.46
421.67	4840.23
421.86	4765.33
422.05	4702.14
422.24	4851.93
422.43	4882.36
422.61	4870.65
422.80	4999.38
422.99	4957.25
423.18	4954.91
423.37	4992.36
423.56	4973.64
423.75	4997.04
423.94	4896.40
424.13	4526.60
424.32	4802.78
424.50	5020.45
424.69	5245.14
424.88	5069.60
425.07	4945.55
425.26	4983.00
425.45	5008.75
425.64	5057.90
425.83	5050.88
426.01	5144.50
426.20	5071.94
426.39	4957.25
426.58	4997.04
426.77	4987.68
426.96	5195.99
427.15	5107.05
427.33	5317.70
427.52	5121.09
427.71	5317.70
427.90	5291.95
428.09	5317.70
428.28	5277.91
428.46	5369.19
428.65	5280.25
428.84	5547.07
429.03	5533.03
429.22	5392.59
429.40	5469.83
429.59	5612.60
429.78	5416.00
429.97	5294.29
430.16	5558.77
430.34	5561.11
430.53	5692.18
430.72	5631.33
430.91	5582.18
431.10	5605.58
431.28	5621.97
431.47	5659.42
431.66	5818.57
431.85	5799.85
432.03	5769.42
432.22	6022.20
432.41	5926.24
432.60	6001.13
432.79	5944.96
432.97	6136.88
433.16	6160.29
433.35	6108.80
433.54	6026.88
433.72	6097.10
433.91	6216.46
434.10	6249.23
434.28	6101.78
434.47	6239.87
434.66	6263.27
434.85	6424.77
435.03	6448.18
435.22	6267.95
435.41	6544.14
435.59	6366.26
435.78	6532.44
435.97	6422.43
436.16	6394.34
436.34	6403.71
436.53	6319.45
436.72	6628.40
436.90	6392.00
437.09	6644.78
437.28	6663.51
437.46	6478.60
437.65	6604.99
437.84	6722.02
438.02	6686.91
438.21	6860.11
438.40	6619.04
438.58	7035.65
438.77	7164.38
438.96	6892.88
439.14	7204.17
439.33	7344.60
439.52	7045.01
439.70	7173.74
439.89	7309.49
440.08	7302.47
440.26	7466.31
440.45	7414.82
440.63	7473.33
440.82	7676.96
441.01	7323.54
441.19	7789.30
441.38	7775.26
441.57	7754.19
441.75	7913.35
441.94	8018.68
442.12	7918.03
442.31	7976.55
442.50	7988.25
442.68	7927.39
442.87	7878.24
443.05	8255.07
443.24	8278.47
443.43	8093.57
443.61	8063.15
443.80	8425.93
443.98	8149.75
444.17	7815.05
444.35	8250.39
444.54	8250.39
444.73	8271.45
444.91	8395.50
445.10	8362.73
445.28	8435.29
445.47	8311.24
445.65	8425.93
445.84	8374.44
446.02	8564.02
446.21	8528.91
446.39	8615.51
446.58	8444.65
446.77	8538.27
446.95	8346.35
447.14	8517.21
447.32	8505.51
447.51	8559.34
447.69	8430.61
447.88	8587.43
448.06	8360.39
448.25	8674.03
448.43	8767.65
448.62	8503.17
448.80	8627.21
448.99	8767.65
449.17	8800.41
449.36	8475.08
449.54	8685.73
449.73	8954.89
449.91	9114.05
450.10	8908.08
450.28	9095.32
450.46	9034.47
450.65	9188.94
450.83	9092.98
451.02	9092.98
451.20	9263.84
451.39	9249.80
451.57	9263.84
451.76	9170.22
451.94	9547.05
452.13	9312.99
452.31	9378.53
452.49	9121.07
452.68	9385.55
452.86	9343.42
453.05	9483.85
453.23	9603.22
453.42	9373.85
453.60	9460.45
453.78	9530.66
453.97	9460.45
454.15	9661.73
454.34	9357.46
454.52	9738.97
454.70	9834.93
454.89	9851.31
455.07	9881.74
455.26	9839.61
455.44	9846.63
455.62	10008.13
455.81	9951.96
455.99	10068.98
456.17	10101.75
456.36	10024.51
456.54	10270.27
456.73	10200.05
456.91	10410.70
457.09	10548.79
457.28	10471.56
457.46	10391.98
457.64	10560.50
457.83	10523.05
458.01	10317.08
458.19	10829.66
458.38	10647.10
458.56	10841.36
458.74	10850.72
458.93	10637.73
459.11	10939.66
459.29	10782.85
459.48	10850.72
459.66	10619.01
459.84	11009.88
460.03	11215.85
460.21	11012.22
460.39	10874.13
460.57	11089.46
460.76	11234.57
460.94	11213.51
461.12	11239.25
461.31	11199.46
461.49	11206.48
461.67	11417.13
461.85	11740.13
462.04	11344.58
462.22	11536.50
462.40	11747.15
462.59	11562.25
462.77	11414.79
462.95	11712.04
463.13	11466.28
463.32	11665.23
463.50	11606.72
463.68	11812.68
463.86	12006.95
464.05	11674.59
464.23	11492.03
464.41	11950.78
464.59	11690.98
464.78	12489.10
464.96	12042.06
465.14	11852.47
465.32	12255.04
465.50	12304.20
465.69	12292.49
465.87	12365.05
466.05	12149.72
466.23	12264.41
466.41	12159.08
466.60	12308.88
466.78	12194.19
466.96	12435.27
467.14	12463.35
467.32	12510.16
467.51	12739.54
467.69	12299.52
467.87	12390.80
468.05	12568.68
468.23	12493.78
468.41	12535.91
468.60	12713.79
468.78	12711.45
468.96	12720.81
469.14	13018.06
469.32	12828.48
469.50	12791.03
469.69	12849.54
469.87	13055.51
470.05	13085.94
470.23	12849.54
470.41	13125.72
470.59	13334.03
470.77	13128.06
470.95	13273.18
471.14	13778.73
471.32	13020.40
471.50	13788.10
471.68	13729.58
471.86	13769.37
472.04	13642.98
472.22	14148.54
472.40	13500.21
472.58	13870.01
472.77	14066.62
472.95	14134.50
473.13	14670.48
473.31	14340.46
473.49	14052.58
473.67	14242.16
473.85	14417.70
474.03	14499.62
474.21	14703.25
474.39	14773.46
474.57	14862.40
474.75	14874.10
474.93	14890.49
475.12	14862.40
475.30	15054.33
475.48	14853.04
475.66	15279.02
475.84	15229.87
476.02	15433.49
476.20	15396.04
476.38	15747.12
476.56	16063.10
476.74	15988.20
476.92	15934.37
477.10	15903.94
477.28	16154.38
477.46	16194.17
477.64	16358.00
477.82	16453.97
478.00	17111.66
478.18	16915.05
478.36	16732.49
478.54	17261.45
478.72	17315.28
478.90	17551.68
479.08	17713.17
479.26	17834.88
479.44	17886.37
479.62	17909.78
479.80	18150.85
479.98	18169.58
480.16	18700.88
480.34	18422.36
480.52	18412.99
480.70	18757.05
480.88	18127.45
481.06	18712.58
481.24	18757.05
481.41	19094.09
481.59	19344.53
481.77	19765.82
481.95	19620.71
482.13	19690.93
482.31	19676.88
482.49	20379.04
482.67	20203.50
482.85	20336.91
483.03	20776.94
483.21	20678.63
483.39	21235.68
483.57	20903.32
483.74	21120.99
483.92	21476.76
484.10	21516.54
484.28	21872.31
484.46	22265.52
484.64	22340.41
484.82	22366.16
485.00	22651.70
485.18	22991.08
485.35	23044.91
485.53	23000.44
485.71	22939.59
485.89	23786.86
486.07	23353.87
486.25	23690.90
486.43	23758.78
486.61	24098.16
486.78	24170.71
486.96	24336.89
487.14	24603.71
487.32	24645.84
487.50	25034.37
487.68	25139.69
487.85	25612.48
488.03	25743.55
488.21	26085.27
488.39	26036.12
488.57	26015.05
488.75	26307.62
488.92	26443.37
489.10	26878.71
489.28	26916.16
489.46	27175.96
489.64	27236.81
489.81	27847.69
489.99	27475.55
490.17	27852.38
490.35	28180.05
490.53	28051.32
490.70	28297.08
490.88	28868.17
491.06	29039.03
491.24	28931.36
491.41	29003.92
491.59	29376.06
491.77	29677.99
491.95	29734.17
492.13	30031.41
492.30	30221.00
492.48	30279.51
492.66	30082.91
492.84	30394.20
493.01	30876.35
493.19	30771.02
493.37	31049.55
493.54	31112.74
493.72	31639.36
493.90	31124.44
494.08	31941.29
494.25	32329.82
494.43	32219.81
494.61	32418.76
494.79	32514.72
494.96	32477.27
495.14	33177.09
495.32	33457.96
495.49	33280.08
495.67	33137.30
495.85	33488.38
496.02	34031.39
496.20	34338.00
496.38	34380.13
496.55	34110.97
496.73	35044.84
496.91	34548.65
497.09	34881.00
497.26	35112.72
497.44	35028.46
497.62	35365.49
497.79	35674.45
497.97	35634.66
498.14	36226.81
498.32	36383.63
498.50	36404.69
498.67	36943.02
498.85	36524.06
499.03	36734.71
499.20	36950.04
499.38	37022.59
499.56	37324.52
499.73	37198.13
499.91	37352.61
500.08	37766.88
500.26	37378.36
500.44	37956.47
500.61	38157.75
500.79	37689.65
500.97	38188.18
501.14	38876.30
501.32	38841.19
501.49	38672.67
501.67	38705.44
501.84	39262.49
502.02	39147.80
502.20	39271.85
502.37	39255.46
502.55	39590.16
502.72	39789.11
502.90	39592.50
503.07	39786.77
503.25	39573.78
503.43	40208.06
503.60	40402.33
503.78	40254.87
503.95	40376.58
504.13	40669.15
504.30	40931.29
504.48	40622.34
504.65	41221.52
504.83	41003.85
505.01	41303.43
505.18	41216.83
505.36	41478.97
505.53	41523.44
505.71	41563.23
505.88	42340.29
506.06	41624.09
506.23	41972.83
506.41	42211.56
506.58	42534.56
506.76	42335.61
506.93	42679.67
507.11	42653.92
507.28	42536.90
507.46	42691.37
507.63	43253.10
507.81	43496.52
507.98	43035.43
508.16	43770.36
508.33	43138.41
508.50	43590.14
508.68	43782.06
508.85	44519.33
509.03	43894.41
509.20	44184.63
509.38	44748.70
509.55	44332.09
509.73	44264.21
509.90	44926.58
510.08	45123.19
510.25	44306.34
510.42	44706.57
510.60	45043.61
510.77	45605.34
510.95	45551.51
511.12	45406.39
511.30	45329.16
511.47	45811.31
511.64	45462.57
511.82	46209.20
511.99	45645.13
512.17	46059.40
512.34	46117.92
512.51	46403.46
512.69	46784.97
512.86	46546.23
513.04	47086.90
513.21	46911.36
513.38	46946.47
513.56	47047.11
513.73	47276.48
513.90	47187.54
514.08	47239.03
514.25	47423.93
514.43	47700.12
514.60	47552.66
514.77	47445.00
514.95	47992.68
515.12	47943.53
515.29	48119.07
515.47	48229.08
515.64	48215.04
515.81	48123.75
515.99	48378.87
516.16	48395.26
516.33	48325.04
516.51	48776.76
516.68	48844.64
516.85	49050.61
517.03	48832.94
517.20	49207.42
517.37	48800.17
517.54	48786.13
517.72	49174.66
517.89	49418.07
518.06	49247.21
518.24	49378.28
518.41	49413.39
518.58	49687.23
518.75	49551.48
518.93	49499.99
519.10	49752.77
519.27	50021.93
519.45	49577.23
519.62	49818.30
519.79	50096.83
519.96	50061.72
520.14	50499.40
520.31	50447.91
520.48	50494.72
520.65	50354.29
520.83	50960.48
521.00	50445.57
521.17	50398.76
521.34	51091.55
521.52	50752.18
521.69	50934.74
521.86	51091.55
522.03	51622.86
522.20	51236.67
522.38	51604.13
522.55	51388.80
522.72	51372.42
522.89	51580.73
523.07	51812.44
523.24	51835.84
523.41	52048.83
523.58	51756.27
523.75	52133.09
523.92	52067.56
524.10	52275.87
524.27	52076.92
524.44	52460.77
524.61	52196.29
524.78	52046.49
524.96	52425.66
525.13	52266.50
525.30	52428.00
525.47	52367.15
525.64	52612.90
525.81	53078.67
525.98	52842.27
526.16	52530.98
526.33	52914.83
526.50	53169.95
526.67	52821.21
526.84	53038.88
527.01	53078.67
527.18	53380.60
527.36	53183.99
527.53	53322.08
527.70	53399.32
527.87	53495.28
528.04	53214.42
528.21	53495.28
528.38	53530.39
528.55	53661.46
528.72	53656.78
528.89	53434.43
529.07	53822.96
529.24	53698.91
529.41	53682.53
529.58	53752.74
529.75	53525.71
529.92	53794.87
530.09	54092.12
530.26	54047.65
530.43	53963.39
530.60	53694.23
530.77	53677.85
530.94	54103.82
531.11	54162.34
531.28	53970.41
531.46	54232.55
531.63	54356.60
531.80	54274.68
531.97	54623.42
532.14	54471.29
532.31	54464.27
532.48	54630.44
532.65	54616.40
532.82	54714.70
532.99	54923.01
533.16	54829.39
533.33	55007.27
533.50	54843.43
533.67	55208.56
533.84	54976.84
534.01	55082.17
534.18	54880.88
534.35	55297.50
534.52	55091.53
534.69	55370.05
534.86	55447.29
535.03	55161.75
535.20	55620.49
535.37	55257.71
535.54	55461.33
535.71	55391.12
535.88	55370.05
536.05	55636.87
536.22	55496.44
536.38	55704.75
536.55	55683.69
536.72	55887.31
536.89	55774.97
537.06	55519.85
537.23	55753.90
537.40	55875.61
537.57	55840.50
537.74	55938.80
537.91	56062.85
538.08	55908.38
538.25	55650.92
538.42	56147.11
538.59	56320.31
538.75	56020.72
538.92	56186.90
539.09	56346.06
539.26	56219.67
539.43	56324.99
539.60	56250.09
539.77	56430.32
539.94	56402.23
540.11	56378.82
540.28	56439.68
540.44	56683.09
540.61	56633.94
540.78	56460.74
540.95	56465.42
541.12	56509.89
541.29	56640.96
541.46	56451.38
541.62	56699.48
541.79	56865.66
541.96	56437.34
542.13	56790.76
542.30	56846.93
542.47	56743.95
542.63	56989.70
542.80	56821.19
542.97	57134.82
543.14	57464.83
543.31	57148.86
543.48	57244.82
543.64	57518.67
543.81	57628.67
543.98	57668.46
544.15	57584.20
544.32	57528.03
544.48	57633.35
544.65	57799.53
544.82	57579.52
544.99	57464.83
545.16	57839.32
545.32	57455.47
545.49	57642.71
545.66	57710.59
545.83	57719.95
546.00	57708.25
546.16	57614.63
546.33	57872.09
546.50	57544.41
546.67	57719.95
546.83	57656.76
547.00	57792.51
547.17	57844.00
547.34	57846.34
547.50	57918.90
547.67	58143.59
547.84	57907.19
548.00	58106.14
548.17	58363.60
548.34	58253.59
548.51	58314.45
548.67	58269.98
548.84	58145.93
549.01	58080.39
549.18	58064.01
549.34	58436.16
549.51	58592.97
549.68	58375.30
549.84	58578.93
550.01	58525.10
550.18	58314.45
550.34	58482.97
550.51	58581.27
550.68	58457.22
550.84	58277.00
551.01	58637.44
551.18	58695.95
551.34	58670.21
551.51	58850.43
551.68	58520.41
551.84	58658.51
552.01	58564.88
552.18	58698.30
552.34	58754.47
552.51	58922.99
552.68	58541.48
552.84	58768.51
553.01	58979.16
553.18	59054.06
553.34	58962.78
553.51	58686.59
553.67	58890.22
553.84	59042.35
554.01	58939.37
554.17	59030.65
554.34	59100.87
554.51	58979.16
554.67	59040.01
554.84	59004.91
555.00	59061.08
555.17	59295.13
555.33	59203.85
555.50	59065.76
555.67	59203.85
555.83	59164.06
556.00	59173.42
556.16	59257.68
556.33	59304.49
556.50	59433.22
556.66	59358.33
556.83	59391.09
556.99	59451.95
557.16	59667.28
557.32	59533.87
557.49	59800.69
557.65	59377.05
557.82	59566.63
557.98	59538.55
558.15	59531.53
558.32	59379.39
558.48	59550.25
558.65	59517.48
558.81	59470.67
558.98	59746.86
559.14	59657.91
559.31	59894.31
559.47	59718.77
559.64	59721.11
559.80	59648.55
559.97	59817.07
560.13	59615.79
560.30	59863.88
560.46	59786.64
560.63	60055.81
560.79	59976.23
560.96	60032.40
561.12	59824.09
561.29	59903.67
561.45	59781.96
561.61	60030.06
561.78	59882.61
561.94	59812.39
562.11	59714.09
562.27	59962.18
562.44	60067.51
562.60	60217.30
562.77	60030.06
562.93	59945.80
563.10	60191.56
563.26	59828.77
563.42	60191.56
563.59	60278.16
563.75	60156.45
563.92	60111.98
564.08	60119.00
564.24	60245.39
564.41	60048.78
564.57	60214.96
564.74	60207.94
564.90	60261.77
565.07	60051.12
565.23	60212.62
565.39	60397.52
565.56	60533.28
565.72	60086.23
565.88	60446.68
566.05	60095.60
566.21	60186.88
566.38	60254.75
566.54	60329.65
566.70	60362.42
566.87	60491.15
567.03	60203.26
567.19	60640.94
567.36	60310.92
567.52	60425.61
567.68	60605.83
567.85	60512.21
568.01	60629.24
568.17	60306.24
568.34	60423.27
568.50	60530.93
568.66	60301.56
568.83	60465.40
568.99	60341.35
569.15	60432.63
569.32	60353.05
569.48	60413.91
569.64	60633.92
569.81	60608.17
569.97	60519.23
570.13	60509.87
570.30	60566.04
570.46	60617.53
570.62	60619.88
570.78	60589.45
570.95	60608.17
571.11	60622.22
571.27	60537.96
571.43	60687.75
571.60	60884.36
571.76	60535.62
571.92	60704.13
572.09	60694.77
572.25	60849.25
572.41	60647.96
572.57	60816.48
572.74	61043.51
572.90	60757.97
573.06	60879.67
573.22	60905.42
573.38	60764.99
573.55	60680.73
573.71	60863.29
573.87	60889.04
574.03	60680.73
574.20	60764.99
574.36	60580.09
574.52	60636.26
574.68	60933.51
574.84	61013.08
575.01	61109.05
575.17	60832.86
575.33	60687.75
575.49	60605.83
575.65	60987.34
575.82	61013.08
575.98	60987.34
576.14	60924.14
576.30	60973.30
576.46	60877.33
576.62	60874.99
576.79	60772.01
576.95	60825.84
577.11	60999.04
577.27	61153.52
577.43	60816.48
577.59	60931.17
577.75	60811.80
577.92	60910.10
578.08	60781.37
578.24	60788.39
578.40	61017.77
578.56	60940.53
578.72	60851.59
578.88	60982.66
579.04	61162.88
579.21	61057.56
579.37	61083.30
579.53	60912.44
579.69	60779.03
579.85	61001.38
580.01	61057.56
580.17	60919.46
580.33	61059.90
580.49	60977.98
580.65	60959.25
580.82	60982.66
580.98	60870.31
581.14	60823.50
581.30	61169.90
581.46	61059.90
581.62	61090.32
581.78	60865.63
581.94	61066.92
582.10	60830.52
582.26	60823.50
582.42	61078.62
582.58	61158.20
582.74	61209.69
582.90	60924.14
583.06	60928.83
583.22	60757.97
583.38	61017.77
583.54	60970.96
583.70	60926.49
583.86	61043.51
584.02	61045.85
584.18	60968.61
584.34	61219.05
584.50	61097.34
584.66	61132.45
584.82	60945.21
584.98	61043.51
585.14	61322.04
585.30	61006.06
585.46	61324.38
585.62	61228.41
585.78	61296.29
585.94	60992.02
586.10	61041.17
586.26	61167.56
586.42	61249.48
586.58	61350.12
586.74	61066.92
586.90	61066.92
587.06	61127.77
587.22	61233.10
587.38	61111.39
587.54	61228.41
587.70	61265.86
587.86	61186.28
588.02	61216.71
588.18	61399.27
588.34	61153.52
588.49	61254.16
