SpectraSuite Data File
++++++++++++++++++++++++++++++++++++
Date: Fri Oct 25 10:43:18 EDT 2013
User: price-jones
Dark Spectrum Present: No
Reference Spectrum Present: No
Number of Sampled Component Spectra: 1
Spectrometers: USB2+H05261
Integration Time (usec): 100000 (USB2+H05261)
Spectra Averaged: 1 (USB2+H05261)
Boxcar Smoothing: 0 (USB2+H05261)
Correct for Electrical Dark: No (USB2+H05261)
Strobe/Lamp Enabled: No (USB2+H05261)
Correct for Detector Non-linearity: No (USB2+H05261)
Correct for Stray Light: No (USB2+H05261)
Number of Pixels in Processed Spectrum: 2048
>>>>>Begin Processed Spectral Data<<<<<
365.73	159.16
365.92	159.16
366.12	159.16
366.32	0.00
366.52	0.00
366.72	32.77
366.91	18.72
367.11	42.13
367.31	86.60
367.51	51.49
367.70	46.81
367.90	0.00
368.10	0.00
368.30	42.13
368.49	42.13
368.69	4.68
368.89	7.02
369.09	2.34
369.28	42.13
369.48	25.75
369.68	84.26
369.87	124.05
370.07	86.60
370.27	93.62
370.47	166.18
370.66	374.49
370.86	372.15
371.06	437.68
371.25	477.47
371.45	489.17
371.65	472.79
371.84	353.42
372.04	449.38
372.24	475.13
372.44	454.06
372.63	477.47
372.83	411.93
373.03	484.49
373.22	507.90
373.42	489.17
373.62	531.30
373.81	512.58
374.01	496.19
374.21	521.94
374.40	599.18
374.60	615.56
374.79	498.53
374.99	564.07
375.19	561.73
375.38	578.11
375.58	601.52
375.78	571.09
375.97	627.26
376.17	638.97
376.37	620.24
376.56	547.69
376.76	540.66
376.95	606.20
377.15	655.35
377.35	638.97
377.54	610.88
377.74	681.10
377.93	664.71
378.13	645.99
378.33	629.60
378.52	702.16
378.72	620.24
378.91	662.37
379.11	674.07
379.31	645.99
379.50	650.67
379.70	699.82
379.89	718.54
380.09	564.07
380.28	681.10
380.48	730.25
380.68	711.52
380.87	669.39
381.07	669.39
381.26	732.59
381.46	636.63
381.65	688.12
381.85	657.69
382.04	667.05
382.24	690.46
382.43	746.63
382.63	697.48
382.83	683.44
383.02	713.86
383.22	791.10
383.41	690.46
383.61	660.03
383.80	765.36
384.00	784.08
384.19	814.51
384.39	765.36
384.58	802.80
384.78	798.12
384.97	779.40
385.17	748.97
385.36	763.01
385.56	781.74
385.75	786.42
385.95	835.57
386.14	868.34
386.34	844.93
386.53	858.98
386.72	800.46
386.92	901.11
387.11	856.64
387.31	835.57
387.50	772.38
387.70	835.57
387.89	819.19
388.09	887.06
388.28	863.66
388.48	933.87
388.67	880.04
388.86	882.38
389.06	910.47
389.25	922.17
389.45	968.98
389.64	978.34
389.84	999.41
390.03	1011.11
390.22	987.71
390.42	994.73
390.61	1053.24
390.81	1048.56
391.00	1032.18
391.19	1060.26
391.39	1076.65
391.58	1093.03
391.78	1032.18
391.97	1057.92
392.16	945.58
392.36	1093.03
392.55	1036.86
392.75	978.34
392.94	997.07
393.13	1053.24
393.33	968.98
393.52	1039.20
393.71	1071.97
393.91	1121.12
394.10	1081.33
394.29	1057.92
394.49	1100.05
394.68	1095.37
394.88	1203.04
395.07	1313.04
395.26	1093.03
395.46	1299.00
395.65	1268.57
395.84	1235.80
396.04	1268.57
396.23	1200.69
396.42	1116.44
396.62	1174.95
396.81	1121.12
397.00	1177.29
397.19	1247.51
397.39	1270.91
397.58	1387.94
397.77	1291.98
397.97	1320.06
398.16	1392.62
398.35	1458.15
398.55	1416.02
398.74	1511.99
398.93	1458.15
399.12	1446.45
399.32	1479.22
399.51	1521.35
399.70	1542.41
399.90	1516.67
400.09	1535.39
400.28	1516.67
400.47	1537.73
400.67	1589.22
400.86	1600.93
401.05	1619.65
401.24	1633.69
401.44	1682.85
401.63	1717.95
401.82	1762.42
402.01	1743.70
402.21	1732.00
402.40	1736.68
402.59	1603.27
402.78	1657.10
402.97	1820.94
403.17	1722.63
403.36	1795.19
403.55	1842.00
403.74	1846.68
403.93	1827.96
404.13	1879.45
404.32	1760.08
404.51	1820.94
404.70	1870.09
404.89	1912.22
405.09	1926.26
405.28	1905.20
405.47	1921.58
405.66	1879.45
405.85	1905.20
406.05	1937.96
406.24	1961.37
406.43	2003.50
406.62	2047.97
406.81	2115.84
407.00	2036.27
407.20	2005.84
407.39	2099.46
407.58	2179.04
407.77	2090.10
407.96	2120.53
408.15	2172.02
408.34	2176.70
408.54	2277.34
408.73	2286.70
408.92	2317.13
409.11	2251.60
409.30	2270.32
409.49	2214.15
409.68	2317.13
409.87	2312.45
410.07	2237.55
410.26	2319.47
410.45	2298.41
410.64	2396.71
410.83	2356.92
411.02	2600.34
411.21	2513.74
411.40	2525.44
411.59	2539.48
411.78	2579.27
411.98	2541.82
412.17	2647.15
412.36	2565.23
412.55	2633.10
412.74	2724.38
412.93	2689.28
413.12	2626.08
413.31	2754.81
413.50	2951.42
413.69	2766.51
413.88	2778.22
414.07	2864.82
414.26	2935.03
414.45	2977.16
414.64	2944.39
414.83	2899.92
415.02	2932.69
415.22	3061.42
415.41	2951.42
415.60	3040.36
415.79	3253.34
415.98	3251.00
416.17	3162.06
416.36	3150.36
416.55	3157.38
416.74	3124.62
416.93	3220.58
417.12	3391.44
417.31	3269.73
417.50	3248.66
417.69	3382.07
417.88	3372.71
418.07	3356.33
418.26	3529.53
418.45	3559.95
418.64	3662.94
418.83	3499.10
419.02	3400.80
419.21	3515.48
419.39	3487.40
419.58	3597.40
419.77	3346.97
419.96	3471.01
420.15	3623.15
420.34	3618.47
420.53	3522.51
420.72	3691.02
420.91	3772.94
421.10	3791.67
421.29	3751.88
421.48	3707.41
421.67	3822.09
421.86	3786.99
422.05	3824.44
422.24	3681.66
422.43	3702.73
422.61	3840.82
422.80	3840.82
422.99	3782.31
423.18	3887.63
423.37	3885.29
423.56	3770.60
423.75	3817.41
423.94	3803.37
424.13	3616.13
424.32	3761.24
424.50	3864.22
424.69	3976.57
424.88	3946.14
425.07	3723.79
425.26	3838.48
425.45	3716.77
425.64	3805.71
425.83	3864.22
426.01	3894.65
426.20	3920.40
426.39	3878.27
426.58	3925.08
426.77	3971.89
426.96	3981.25
427.15	3880.61
427.33	4074.87
427.52	4042.11
427.71	3990.61
427.90	4114.66
428.09	3997.64
428.28	4100.62
428.46	3936.78
428.65	4081.89
428.84	4219.99
429.03	4210.62
429.22	4049.13
429.40	4060.83
429.59	4081.89
429.78	3946.14
429.97	3871.25
430.16	4044.45
430.34	4180.20
430.53	4208.28
430.72	4018.70
430.91	4273.82
431.10	4241.05
431.28	4376.80
431.47	4505.53
431.66	4641.28
431.85	4416.59
432.03	4491.49
432.22	4512.55
432.41	4491.49
432.60	4678.73
432.79	4608.51
432.97	4587.45
433.16	4620.22
433.35	4755.97
433.54	4685.75
433.72	4695.11
433.91	4519.57
434.10	4662.35
434.28	4748.95
434.47	4744.27
434.66	4931.51
434.85	4919.81
435.03	4985.34
435.22	4802.78
435.41	5036.83
435.59	4847.25
435.78	4919.81
435.97	5121.09
436.16	5008.75
436.34	5170.24
436.53	5116.41
436.72	5205.35
436.90	5160.88
437.09	5158.54
437.28	4945.55
437.46	5195.99
437.65	5032.15
437.84	5130.45
438.02	4975.98
438.21	4943.21
438.40	5132.79
438.58	5392.59
438.77	5418.34
438.96	5238.12
439.14	5636.01
439.33	5420.68
439.52	5619.63
439.70	5710.91
439.89	5624.31
440.08	5530.69
440.26	5591.54
440.45	5591.54
440.63	5795.17
440.82	5933.26
441.01	5877.09
441.19	5799.85
441.38	5905.17
441.57	5844.32
441.75	6211.78
441.94	6183.70
442.12	6136.88
442.31	6216.46
442.50	6181.35
442.68	6162.63
442.87	6246.89
443.05	6253.91
443.24	6377.96
443.43	6452.86
443.61	6333.49
443.80	6406.05
443.98	6335.83
444.17	6120.50
444.35	6455.20
444.54	6682.23
444.73	6504.35
444.91	6637.76
445.10	6366.26
445.28	6429.45
445.47	6307.74
445.65	6324.13
445.84	6328.81
446.02	6525.41
446.21	6392.00
446.39	6523.07
446.58	6651.80
446.77	6551.16
446.95	6555.84
447.14	6705.63
447.32	6719.68
447.51	6476.26
447.69	6621.38
447.88	6700.95
448.06	6677.55
448.25	6595.63
448.43	6717.34
448.62	6579.25
448.80	6623.72
448.99	6902.24
449.17	6775.85
449.36	6642.44
449.54	6911.60
449.73	6899.90
449.91	7028.63
450.10	7225.23
450.28	7208.85
450.46	7007.56
450.65	7155.02
450.83	7255.66
451.02	7052.03
451.20	7208.85
451.39	7040.33
451.57	7019.27
451.76	7040.33
451.94	7213.53
452.13	7234.60
452.31	7000.54
452.49	6906.92
452.68	7009.90
452.86	7192.47
453.05	7239.28
453.23	7250.98
453.42	7248.64
453.60	7307.15
453.78	7431.20
453.97	7414.82
454.15	7176.08
454.34	7208.85
454.52	7335.24
454.70	7396.09
454.89	7391.41
455.07	7433.54
455.26	7651.21
455.44	7801.01
455.62	7749.51
455.81	7639.51
455.99	7751.85
456.17	7765.90
456.36	7719.09
456.54	7812.71
456.73	7953.14
456.91	7974.21
457.09	8236.35
457.28	8023.36
457.46	7908.67
457.64	8063.15
457.83	7845.48
458.01	7918.03
458.19	8184.85
458.38	8100.59
458.56	8294.86
458.74	8180.17
458.93	8250.39
459.11	8177.83
459.29	8184.85
459.48	8170.81
459.66	8023.36
459.84	8285.50
460.03	8507.85
460.21	8472.74
460.39	8402.52
460.57	8388.48
460.76	8285.50
460.94	8458.70
461.12	8542.96
461.31	8425.93
461.49	8500.83
461.67	8390.82
461.85	8571.04
462.04	8638.92
462.22	8999.36
462.40	8751.26
462.59	8727.86
462.77	8915.10
462.95	8723.18
463.13	8950.21
463.32	8805.10
463.50	8940.85
463.68	8987.66
463.86	8667.00
464.05	8840.20
464.23	8786.37
464.41	8905.74
464.59	8638.92
464.78	9004.04
464.96	8947.87
465.14	8833.18
465.32	9163.20
465.50	9116.39
465.69	9163.20
465.87	9057.87
466.05	9074.26
466.23	8964.25
466.41	9006.38
466.60	9322.35
466.78	9048.51
466.96	9174.90
467.14	9245.12
467.32	9252.14
467.51	9296.61
467.69	9153.84
467.87	9179.58
468.05	9242.78
468.23	9221.71
468.41	9329.38
468.60	9303.63
468.78	9488.53
468.96	9444.06
469.14	9537.68
469.32	9635.99
469.50	9446.40
469.69	9582.15
469.87	9729.61
470.05	9635.99
470.23	9626.62
470.41	9783.44
470.59	10022.17
470.77	9753.01
470.95	9731.95
471.14	9928.55
471.32	9797.48
471.50	10420.06
471.68	10031.54
471.86	10024.51
472.04	10125.16
472.22	10417.72
472.40	10127.50
472.58	10139.20
472.77	10310.06
472.95	10443.47
473.13	10773.49
473.31	10445.81
473.49	10434.11
473.67	10225.80
473.85	10539.43
474.03	10988.82
474.21	10616.67
474.39	10846.04
474.57	10899.87
474.75	10878.81
474.93	11047.33
475.12	10864.77
475.30	10960.73
475.48	10956.05
475.66	11332.87
475.84	10984.13
476.02	11302.45
476.20	11335.21
476.38	11531.82
476.56	11786.94
476.74	11882.90
476.92	11676.93
477.10	11803.32
477.28	11997.59
477.46	11873.54
477.64	12079.50
477.82	12241.00
478.00	12308.88
478.18	12205.89
478.36	12224.62
478.54	12657.62
478.72	12704.43
478.90	12711.45
479.08	12861.24
479.26	13163.17
479.44	13029.76
479.62	12915.08
479.80	13193.60
479.98	13390.20
480.16	13380.84
480.34	13420.63
480.52	13437.02
480.70	13675.75
480.88	13502.55
481.06	13680.43
481.24	13741.29
481.41	13907.46
481.59	14200.03
481.77	14256.20
481.95	14225.78
482.13	14312.38
482.31	14274.93
482.49	14663.46
482.67	14581.54
482.85	14733.67
483.03	14813.25
483.21	15096.46
483.39	15166.67
483.57	15154.97
483.74	15648.82
483.92	15360.94
484.10	15438.17
484.28	15510.73
484.46	15889.90
484.64	16170.76
484.82	15896.92
485.00	16116.93
485.18	16077.14
485.35	16168.42
485.53	16318.22
485.71	16020.97
485.89	16170.76
486.07	16046.71
486.25	16407.16
486.43	16903.35
486.61	16875.26
486.78	16814.41
486.96	17247.41
487.14	17469.76
487.32	17483.80
487.50	17706.15
487.68	17855.95
487.85	17664.02
488.03	18209.37
488.21	18200.01
488.39	18263.20
488.57	18420.02
488.75	18637.69
488.92	18691.52
489.10	18960.68
489.28	18883.44
489.46	19627.73
489.64	19702.63
489.81	19997.54
489.99	19735.40
490.17	20102.86
490.35	20208.19
490.53	20189.46
490.70	20252.66
490.88	20299.47
491.06	20599.05
491.24	20423.51
491.41	20259.68
491.59	20683.31
491.77	20407.13
491.95	20755.87
492.13	21095.25
492.30	21301.22
492.48	21429.94
492.66	21312.92
492.84	21593.78
493.01	21930.82
493.19	21460.37
493.37	22115.72
493.54	22139.13
493.72	22485.53
493.90	22455.10
494.08	22551.06
494.25	22721.92
494.43	22958.31
494.61	23056.62
494.79	23171.30
494.96	23260.24
495.14	22923.21
495.32	23438.12
495.49	23335.14
495.67	23281.31
495.85	23791.55
496.02	23681.54
496.20	24056.03
496.38	24196.46
496.55	24149.65
496.73	24783.93
496.91	24231.57
497.09	24929.05
497.26	24744.14
497.44	24748.82
497.62	24690.31
497.79	25081.18
497.97	24491.37
498.14	25074.16
498.32	25282.47
498.50	25256.72
498.67	25930.80
498.85	25450.99
499.03	25542.27
499.20	26003.35
499.38	25879.30
499.56	25715.47
499.73	25977.61
499.91	26338.05
500.08	26127.40
500.26	25757.60
500.44	26373.16
500.61	25853.56
500.79	26480.82
500.97	26586.15
501.14	26974.67
501.32	26616.57
501.49	26771.05
501.67	26869.35
501.84	27049.57
502.02	27077.66
502.20	27328.10
502.37	27428.74
502.55	27880.46
502.72	27466.19
502.90	27812.59
503.07	27627.68
503.25	27681.52
503.43	27805.56
503.60	27585.55
503.78	27779.82
503.95	27580.87
504.13	28166.01
504.30	28231.54
504.48	27997.49
504.65	28151.96
504.83	28538.15
505.01	28847.10
505.18	28975.83
505.36	29448.62
505.53	29151.37
505.71	29383.09
505.88	29572.67
506.06	29106.90
506.23	29446.28
506.41	29422.87
506.58	29469.69
506.76	29720.12
506.93	29820.77
507.11	29617.14
507.28	29724.80
507.46	29462.66
507.63	29619.48
507.81	30129.72
507.98	29186.48
508.16	29928.43
508.33	30536.97
508.50	30492.50
508.68	30614.21
508.85	30827.20
509.03	30354.41
509.20	30551.01
509.38	30654.00
509.55	30892.73
509.73	30756.98
509.90	31154.87
510.08	30995.71
510.25	30979.33
510.42	31019.12
510.60	31302.32
510.77	31192.32
510.95	31573.83
511.12	31494.25
511.30	31768.09
511.47	31967.04
511.64	31571.49
511.82	32163.64
511.99	31454.46
512.17	31789.16
512.34	32088.74
512.51	32161.30
512.69	32371.95
512.86	32023.21
513.04	32334.50
513.21	32488.98
513.38	32488.98
513.56	32917.29
513.73	32526.42
513.90	32507.70
514.08	32826.01
514.25	33034.32
514.43	32631.75
514.60	32641.11
514.77	32936.02
514.95	33053.05
515.12	33235.61
515.29	33041.34
515.47	33380.72
515.64	33617.11
515.81	33191.14
515.99	33397.10
516.16	33163.05
516.33	33352.63
516.51	33207.52
516.68	33050.70
516.85	32968.79
517.03	33083.47
517.20	33514.13
517.37	33949.47
517.54	33940.11
517.72	33734.14
517.89	33551.58
518.06	33635.84
518.24	33472.00
518.41	33919.04
518.58	34363.75
518.75	34141.39
518.93	34033.73
519.10	34483.11
519.27	34675.04
519.45	34630.57
519.62	34962.92
519.79	34710.14
519.96	34848.24
520.14	34946.54
520.31	34857.60
520.48	34801.43
520.65	34698.44
520.83	35250.81
521.00	35632.32
521.17	35367.84
521.34	35440.39
521.52	35393.58
521.69	35625.29
521.86	36355.54
522.03	35651.04
522.20	35660.40
522.38	35964.67
522.55	35969.35
522.72	35604.23
522.89	35739.98
523.07	36154.26
523.24	36172.98
523.41	36418.74
523.58	36275.96
523.75	36692.58
523.92	36369.58
524.10	36772.16
524.27	36430.44
524.44	36711.30
524.61	37057.70
524.78	36669.17
524.96	36800.24
525.13	37350.27
525.30	37364.31
525.47	37441.55
525.64	37212.18
525.81	37273.03
525.98	36856.42
526.16	36982.80
526.33	37076.43
526.50	37076.43
526.67	36905.57
526.84	37219.20
527.01	37050.68
527.18	37446.23
527.36	37811.35
527.53	37593.68
527.70	38462.02
527.87	37628.79
528.04	37467.30
528.21	38560.33
528.38	38073.49
528.55	38239.67
528.72	38714.80
528.89	38506.49
529.07	38660.97
529.24	38146.05
529.41	38576.71
529.58	38253.72
529.75	38309.89
529.92	38752.25
530.09	38206.90
530.26	39138.44
530.43	38738.21
530.60	38747.57
530.77	38829.49
530.94	38852.89
531.11	38735.87
531.28	38485.43
531.46	38944.17
531.63	38969.92
531.80	38967.58
531.97	39342.06
532.14	39604.20
532.31	38368.40
532.48	38768.63
532.65	39077.58
532.82	38663.31
532.99	39065.88
533.16	39428.66
533.33	38990.98
533.50	40037.20
533.67	39929.54
533.84	38974.60
534.01	39365.47
534.18	39875.71
534.35	40208.06
534.52	39171.21
534.69	39805.49
534.86	40325.09
535.03	39812.51
535.20	40378.92
535.37	39819.53
535.54	40596.59
535.71	40165.93
535.88	39814.85
536.05	40161.25
536.22	40720.64
536.38	40643.40
536.55	40144.87
536.72	40112.10
536.89	40126.14
537.06	40425.73
537.23	40514.67
537.40	40643.40
537.57	40669.15
537.74	40617.66
537.91	41041.29
538.08	40484.25
538.25	40074.65
538.42	40404.67
538.59	41174.70
538.75	40615.32
538.92	40842.35
539.09	40985.12
539.26	40896.18
539.43	40594.25
539.60	41013.21
539.77	40456.16
539.94	41006.19
540.11	40783.83
540.28	41085.76
540.44	41160.66
540.61	41165.34
540.78	41043.63
540.95	41518.76
541.12	41436.84
541.29	41586.64
541.46	41251.94
541.62	41574.94
541.79	41495.36
541.96	41378.33
542.13	41326.84
542.30	41284.71
542.47	41280.03
542.63	41778.56
542.80	41640.47
542.97	42174.11
543.14	41893.25
543.31	42347.31
543.48	42157.73
543.64	42546.26
543.81	42616.47
543.98	42183.48
544.15	41851.12
544.32	42176.45
544.48	42646.90
544.65	42501.79
544.82	42768.61
544.99	42361.36
545.16	41907.29
545.32	42129.64
545.49	42625.84
545.66	43061.18
545.83	42520.51
546.00	42916.06
546.16	42550.94
546.33	42595.41
546.50	42522.85
546.67	42976.92
546.83	42754.57
547.00	42824.78
547.17	42700.73
547.34	42784.99
547.50	42962.87
547.67	43049.47
547.84	42920.74
548.00	43098.62
548.17	43232.04
548.34	42677.33
548.51	43203.95
548.67	43592.48
548.84	43278.85
549.01	43110.33
549.18	42911.38
549.34	43330.34
549.51	43702.48
549.68	43461.41
549.84	43447.36
550.01	43908.45
550.18	43253.10
550.34	43309.27
550.51	43320.98
550.68	43290.55
550.84	43250.76
551.01	43147.78
551.18	43798.44
551.34	43653.33
551.51	43929.51
551.68	43751.63
551.84	43686.10
552.01	43480.13
552.18	44053.56
552.34	43658.01
552.51	43700.14
552.68	44004.41
552.84	43634.61
553.01	44034.84
553.18	44121.44
553.34	44301.66
553.51	44112.08
553.67	43941.22
553.84	44409.32
554.01	44591.89
554.17	44552.10
554.34	44301.66
554.51	44673.81
554.67	44425.71
554.84	44231.44
555.00	43789.08
555.17	43988.03
555.33	44266.55
555.50	44397.62
555.67	44467.84
555.83	44058.24
556.00	44076.97
556.16	44474.86
556.33	44439.75
556.50	44699.55
556.66	44142.50
556.83	44357.83
556.99	44254.85
557.16	44919.56
557.32	44266.55
557.49	44678.49
557.65	44428.05
557.82	44315.70
557.98	44531.03
558.15	44774.45
558.32	44601.25
558.48	44381.24
558.65	44809.56
558.81	44542.74
558.98	44182.29
559.14	44666.78
559.31	44624.65
559.47	44720.62
559.64	44863.39
559.80	44657.42
559.97	44615.29
560.13	44327.41
560.30	44823.60
560.46	45071.70
560.63	44973.39
560.79	44842.32
560.96	45146.59
561.12	45127.87
561.29	44870.41
561.45	44982.76
561.61	44444.43
561.78	45090.42
561.94	45078.72
562.11	44900.84
562.27	44669.12
562.44	44945.31
562.60	45544.48
562.77	45170.00
562.93	45172.34
563.10	45261.28
563.26	44858.71
563.42	45432.14
563.59	44722.96
563.75	45151.27
563.92	45500.01
564.08	45146.59
564.24	45324.47
564.41	45221.49
564.57	44891.48
564.74	44839.98
564.90	45200.43
565.07	45202.77
565.23	45045.95
565.39	44875.09
565.56	44919.56
565.72	44856.37
565.88	44917.22
566.05	45029.57
566.21	45268.30
566.38	45038.93
566.54	45186.38
566.70	45418.10
566.87	45495.33
567.03	45305.75
567.19	45633.42
567.36	45308.09
567.52	45598.32
567.68	45567.89
567.85	45006.16
568.01	45724.71
568.17	45265.96
568.34	45539.80
568.50	45352.56
568.66	45045.95
568.83	45497.67
568.99	44737.00
569.15	45155.96
569.32	45422.78
569.48	45305.75
569.64	45748.11
569.81	45823.01
569.97	45624.06
570.13	45724.71
570.30	45172.34
570.46	45352.56
570.62	44615.29
570.78	44729.98
570.95	45340.86
571.11	45305.75
571.27	45280.00
571.43	45385.33
571.60	45518.74
571.76	45317.45
571.92	45350.22
572.09	45687.26
572.25	45305.75
572.41	45467.25
572.57	45364.26
572.74	45886.20
572.90	45179.36
573.06	45326.81
573.22	45640.45
573.38	45738.75
573.55	45535.12
573.71	45593.64
573.87	45766.84
574.03	45382.99
574.20	45481.29
574.36	45474.27
574.52	45144.25
574.68	45694.28
574.84	45375.97
575.01	45457.88
575.17	45654.49
575.33	45237.87
575.49	45188.72
575.65	45366.60
575.82	45357.24
575.98	45546.82
576.14	45940.04
576.30	45734.07
576.46	45937.69
576.62	45078.72
576.79	45392.35
576.95	45490.65
577.11	45272.98
577.27	45708.32
577.43	45619.38
577.59	45132.55
577.75	45268.30
577.92	45146.59
578.08	45010.84
578.24	45272.98
578.40	45301.07
578.56	45542.14
578.72	45434.48
578.88	45640.45
579.04	45586.61
579.21	45502.35
579.37	45619.38
579.53	45265.96
579.69	45099.78
579.85	45663.85
580.01	45446.18
580.17	45502.35
580.33	45481.29
580.49	45579.59
580.65	45495.33
580.82	46014.93
580.98	45869.82
581.14	45521.08
581.30	45778.54
581.46	45132.55
581.62	45530.44
581.78	45394.69
581.94	45900.25
582.10	45694.28
582.26	45603.00
582.42	45577.25
582.58	45759.81
582.74	45427.46
582.90	46101.53
583.06	45750.45
583.22	45827.69
583.38	45851.09
583.54	45731.73
583.70	45759.81
583.86	45460.23
584.02	45511.72
584.18	45696.62
584.34	45364.26
584.50	45729.39
584.66	45890.88
584.82	45883.86
584.98	45715.34
585.14	45799.60
585.30	45411.07
585.46	45329.16
585.62	45371.28
585.78	45301.07
585.94	45113.83
586.10	45621.72
586.26	45813.65
586.42	45771.52
586.58	45867.48
586.74	45820.67
586.90	45900.25
587.06	45476.61
587.22	45935.35
587.38	46143.66
587.54	46103.87
587.70	45834.71
587.86	45626.40
588.02	45724.71
588.18	46124.94
588.34	45516.40
588.49	45265.96
588.65	45043.61
588.81	45261.28
588.97	45385.33
589.13	44910.20
589.29	45338.52
589.45	45387.67
589.61	45301.07
589.77	45528.10
589.93	45382.99
590.08	45691.94
