SpectraSuite Data File
++++++++++++++++++++++++++++++++++++
Date: Fri Oct 25 11:26:24 EDT 2013
User: price-jones
Dark Spectrum Present: No
Reference Spectrum Present: No
Number of Sampled Component Spectra: 1
Spectrometers: USB2+H05261
Integration Time (usec): 100000 (USB2+H05261)
Spectra Averaged: 1 (USB2+H05261)
Boxcar Smoothing: 0 (USB2+H05261)
Correct for Electrical Dark: No (USB2+H05261)
Strobe/Lamp Enabled: No (USB2+H05261)
Correct for Detector Non-linearity: No (USB2+H05261)
Correct for Stray Light: No (USB2+H05261)
Number of Pixels in Processed Spectrum: 2048
>>>>>Begin Processed Spectral Data<<<<<
365.73	262.14
365.92	262.14
366.12	262.14
366.32	126.39
366.52	203.63
366.72	208.31
366.91	105.32
367.11	170.86
367.31	196.60
367.51	100.64
367.70	112.35
367.90	67.88
368.10	184.90
368.30	135.75
368.49	191.92
368.69	84.26
368.89	133.41
369.09	98.30
369.28	142.77
369.48	180.22
369.68	107.66
369.87	154.48
370.07	266.82
370.27	222.35
370.47	351.08
370.66	592.16
370.86	601.52
371.06	688.12
371.25	723.23
371.45	660.03
371.65	634.29
371.84	624.92
372.04	720.88
372.24	709.18
372.44	755.99
372.63	744.29
372.83	753.65
373.03	702.16
373.22	805.14
373.42	727.91
373.62	793.44
373.81	741.95
374.01	828.55
374.21	763.01
374.40	833.23
374.60	842.59
374.79	744.29
374.99	826.21
375.19	795.78
375.38	823.87
375.58	884.72
375.78	795.78
375.97	861.32
376.17	856.64
376.37	849.61
376.56	978.34
376.76	877.70
376.95	847.27
377.15	961.96
377.35	931.53
377.54	945.58
377.74	912.81
377.93	943.24
378.13	964.30
378.33	968.98
378.52	866.00
378.72	954.94
378.91	959.62
379.11	882.38
379.31	887.06
379.50	877.70
379.70	929.19
379.89	1013.45
380.09	959.62
380.28	968.98
380.48	1093.03
380.68	1069.62
380.87	1041.54
381.07	1055.58
381.26	959.62
381.46	896.43
381.65	1053.24
381.85	1064.94
382.04	990.05
382.24	983.02
382.43	994.73
382.63	1008.77
382.83	1142.18
383.02	1132.82
383.22	1121.12
383.41	1118.78
383.61	1039.20
383.80	1137.50
384.00	1107.07
384.19	1181.97
384.39	1142.18
384.58	1020.47
384.78	1214.74
384.97	1132.82
385.17	1093.03
385.36	1245.16
385.56	1153.88
385.75	1170.27
385.95	1207.72
386.14	1249.85
386.34	1193.67
386.53	1275.59
386.72	1219.42
386.92	1224.10
387.11	1238.14
387.31	1247.51
387.50	1186.65
387.70	1263.89
387.89	1301.34
388.09	1224.10
388.28	1238.14
388.48	1322.40
388.67	1289.64
388.86	1282.61
389.06	1322.40
389.25	1352.83
389.45	1263.89
389.64	1310.70
389.84	1493.26
390.03	1462.83
390.22	1308.36
390.42	1287.29
390.61	1334.11
390.81	1399.64
391.00	1446.45
391.19	1364.53
391.39	1441.77
391.58	1362.19
391.78	1401.98
391.97	1472.20
392.16	1462.83
392.36	1528.37
392.55	1460.49
392.75	1500.28
392.94	1479.22
393.13	1575.18
393.33	1554.12
393.52	1579.86
393.71	1544.75
393.91	1589.22
394.10	1614.97
394.29	1619.65
394.49	1589.22
394.68	1591.56
394.88	1643.06
395.07	1614.97
395.26	1643.06
395.46	1678.16
395.65	1680.50
395.84	1687.53
396.04	1631.35
396.23	1727.32
396.42	1802.21
396.62	1750.72
396.81	1795.19
397.00	1699.23
397.19	1837.32
397.39	1870.09
397.58	1806.89
397.77	1743.70
397.97	1839.66
398.16	1907.54
398.35	1891.15
398.55	1926.26
398.74	1891.15
398.93	1909.88
399.12	1916.90
399.32	1769.44
399.51	1956.69
399.70	1879.45
399.90	1825.62
400.09	1933.28
400.28	2040.95
400.47	2024.56
400.67	2005.84
400.86	2111.16
401.05	1991.80
401.24	1994.14
401.44	2083.08
401.63	2139.25
401.82	2064.35
402.01	2141.59
402.21	2172.02
402.40	2155.63
402.59	2221.17
402.78	2195.42
402.97	2239.89
403.17	2232.87
403.36	2223.51
403.55	2214.15
403.74	2326.49
403.93	2267.98
404.13	2265.64
404.32	2249.25
404.51	2326.49
404.70	2345.22
404.89	2420.11
405.09	2464.58
405.28	2485.65
405.47	2347.56
405.66	2487.99
405.85	2495.01
406.05	2408.41
406.24	2511.39
406.43	2527.78
406.62	2581.61
406.81	2630.76
407.00	2644.81
407.20	2530.12
407.39	2516.08
407.58	2672.89
407.77	2810.98
407.96	2717.36
408.15	2698.64
408.34	2698.64
408.54	2780.56
408.73	2710.34
408.92	2717.36
409.11	2862.48
409.30	2942.05
409.49	2972.48
409.68	2951.42
409.87	2953.76
410.07	3016.95
410.26	3087.17
410.45	2939.71
410.64	2923.33
410.83	3082.49
411.02	3145.68
411.21	3169.09
411.40	3094.19
411.59	3152.70
411.78	3124.62
411.98	3192.49
412.17	3269.73
412.36	3314.20
412.55	3344.63
412.74	3435.91
412.93	3349.31
413.12	3468.67
413.31	3459.31
413.50	3325.90
413.69	3358.67
413.88	3609.11
414.07	3557.61
414.26	3499.10
414.45	3576.34
414.64	3646.55
414.83	3658.26
415.02	3765.92
415.22	3822.09
415.41	3918.06
415.60	3824.44
415.79	3791.67
415.98	3941.46
416.17	3896.99
416.36	3927.42
416.55	3995.29
416.74	3992.95
416.93	4032.74
417.12	4126.36
417.31	4168.49
417.50	4093.60
417.69	4337.01
417.88	4215.30
418.07	4201.26
418.26	4276.16
418.45	4397.87
418.64	4425.95
418.83	4411.91
419.02	4400.21
419.21	4440.00
419.39	4393.19
419.58	4486.81
419.77	4592.13
419.96	4587.45
420.15	4486.81
420.34	4566.39
420.53	4667.03
420.72	4774.69
420.91	4622.56
421.10	4723.20
421.29	4734.90
421.48	4627.24
421.67	4814.48
421.86	4830.87
422.05	4840.23
422.24	4774.69
422.43	4676.39
422.61	4908.10
422.80	4842.57
422.99	4713.84
423.18	4943.21
423.37	5102.37
423.56	4711.50
423.75	4873.00
423.94	4873.00
424.13	4624.90
424.32	4777.03
424.50	4924.49
424.69	5188.97
424.88	5128.11
425.07	4950.23
425.26	4706.82
425.45	4917.47
425.64	4863.63
425.83	4980.66
426.01	4931.51
426.20	4971.30
426.39	4957.25
426.58	4980.66
426.77	4971.30
426.96	5055.56
427.15	5041.51
427.33	5191.31
427.52	5001.72
427.71	5210.03
427.90	5160.88
428.09	5238.12
428.28	5247.48
428.46	5348.12
428.65	5193.65
428.84	5614.95
429.03	5584.52
429.22	5270.89
429.40	5317.70
429.59	5591.54
429.78	5324.72
429.97	5301.31
430.16	5476.85
430.34	5427.70
430.53	5516.64
430.72	5708.57
430.91	5774.10
431.10	5687.50
431.28	5612.60
431.47	5757.72
431.66	5792.83
431.85	5846.66
432.03	5888.79
432.22	5951.98
432.41	6022.20
432.60	5867.72
432.79	5884.11
432.97	5788.14
433.16	6036.24
433.35	6029.22
433.54	6071.35
433.72	6183.70
433.91	6183.70
434.10	6024.54
434.28	6003.47
434.47	6026.88
434.66	6305.40
434.85	6333.49
435.03	6375.62
435.22	6317.11
435.41	6370.94
435.59	6352.21
435.78	6380.30
435.97	6427.11
436.16	6382.64
436.34	6258.59
436.53	6450.52
436.72	6551.16
436.90	6333.49
437.09	6647.12
437.28	6534.78
437.46	6612.01
437.65	6565.20
437.84	6602.65
438.02	6738.40
438.21	6773.51
438.40	6693.93
438.58	7077.78
438.77	7077.78
438.96	6904.58
439.14	7052.03
439.33	7243.96
439.52	7185.44
439.70	7260.34
439.89	7232.26
440.08	7384.39
440.26	7314.17
440.45	7218.21
440.63	7478.01
440.82	7597.38
441.01	7438.22
441.19	7534.18
441.38	7590.36
441.57	7709.72
441.75	7693.34
441.94	7920.37
442.12	7857.18
442.31	8049.10
442.50	8084.21
442.68	7957.82
442.87	8077.19
443.05	8056.12
443.24	8182.51
443.43	7967.18
443.61	8032.72
443.80	8341.67
443.98	7885.26
444.17	7859.52
444.35	8135.70
444.54	8390.82
444.73	8329.97
444.91	8304.22
445.10	8308.90
445.28	8416.57
445.47	8299.54
445.65	8280.82
445.84	8540.61
446.02	8409.54
446.21	8336.99
446.39	8231.66
446.58	8409.54
446.77	8409.54
446.95	8198.90
447.14	8304.22
447.32	8442.31
447.51	8592.11
447.69	8599.13
447.88	8526.57
448.06	8559.34
448.25	8477.42
448.43	8486.78
448.62	8498.49
448.80	8461.04
448.99	8692.75
449.17	8702.11
449.36	8627.21
449.54	8704.45
449.73	8762.97
449.91	8990.00
450.10	8767.65
450.28	9041.49
450.46	8968.93
450.65	8975.95
450.83	9015.74
451.02	9046.17
451.20	9186.60
451.39	9043.83
451.57	8802.75
451.76	9076.60
451.94	9083.62
452.13	9401.93
452.31	9153.84
452.49	9170.22
452.68	9380.87
452.86	9238.09
453.05	9558.75
453.23	9411.29
453.42	9135.11
453.60	9235.75
453.78	9626.62
453.97	9275.54
454.15	9650.03
454.34	9495.55
454.52	9610.24
454.70	9575.13
454.89	9870.04
455.07	9720.24
455.26	9804.50
455.44	9762.37
455.62	9750.67
455.81	9628.96
455.99	9837.27
456.17	10141.54
456.36	9984.73
456.54	10260.91
456.73	10298.36
456.91	10501.98
457.09	10525.39
457.28	10518.37
457.46	10183.67
457.64	10457.51
457.83	10441.13
458.01	10373.25
458.19	10443.47
458.38	10396.66
458.56	10553.48
458.74	10707.95
458.93	10494.96
459.11	10644.76
459.29	10593.26
459.48	10888.17
459.66	10698.59
459.84	10794.55
460.03	10927.96
460.21	11005.20
460.39	10696.25
460.57	11012.22
460.76	10904.56
460.94	11112.86
461.12	11082.44
461.31	11108.18
461.49	11073.07
461.67	11033.29
461.85	11365.64
462.04	11154.99
462.22	11826.73
462.40	11606.72
462.59	11323.51
462.77	11370.32
462.95	11714.38
463.13	11412.45
463.32	11623.10
463.50	11784.60
463.68	11700.34
463.86	11702.68
464.05	11555.22
464.23	11728.42
464.41	11840.77
464.59	11712.04
464.78	12046.74
464.96	11889.92
465.14	11772.89
465.32	11901.62
465.50	11985.88
465.69	12051.42
465.87	12180.15
466.05	12006.95
466.23	11847.79
466.41	12128.66
466.60	12290.15
466.78	11948.43
466.96	11981.20
467.14	12217.60
467.32	12264.41
467.51	12435.27
467.69	12042.06
467.87	12322.92
468.05	12617.83
468.23	12301.86
468.41	12383.77
468.60	12741.88
468.78	12746.56
468.96	12435.27
469.14	12575.70
469.32	12858.90
469.50	12446.97
469.69	12870.61
469.87	13099.98
470.05	13268.50
470.23	13041.46
470.41	12947.84
470.59	13090.62
470.77	12872.95
470.95	13214.66
471.14	13575.11
471.32	13132.75
471.50	13563.40
471.68	13451.06
471.86	13448.72
472.04	13483.83
472.22	13853.63
472.40	13645.32
472.58	13841.93
472.77	13561.06
472.95	14235.14
473.13	14626.01
473.31	13989.38
473.49	13961.30
473.67	13722.56
473.85	14038.53
474.03	14593.24
474.21	14677.50
474.39	14640.05
474.57	14728.99
474.75	14883.47
474.93	14867.08
475.12	14820.27
475.30	15037.94
475.48	14853.04
475.66	15185.40
475.84	15037.94
476.02	15477.96
476.20	15253.27
476.38	15454.56
476.56	15925.00
476.74	16088.84
476.92	15580.95
477.10	15293.06
477.28	16191.83
477.46	16140.33
477.64	16280.77
477.82	16491.41
478.00	16868.24
478.18	16617.80
478.36	16533.54
478.54	17312.94
478.72	17092.93
478.90	16947.82
479.08	17294.22
479.26	17481.46
479.44	17638.28
479.62	17731.90
479.80	18073.62
479.98	18347.46
480.16	18115.75
480.34	18183.62
480.52	18164.90
480.70	18429.38
480.88	18403.63
481.06	18560.45
481.24	18600.24
481.41	18890.46
481.59	19066.00
481.77	19239.20
481.95	19157.28
482.13	19587.94
482.31	19618.37
482.49	20058.39
482.67	20128.61
482.85	20465.64
483.03	20374.36
483.21	20383.73
483.39	20599.05
483.57	20931.41
483.74	20889.28
483.92	21209.93
484.10	20863.54
484.28	21549.31
484.46	21736.56
484.64	21996.35
484.82	22003.38
485.00	22263.18
485.18	22724.26
485.35	22963.00
485.53	22955.97
485.71	23171.30
485.89	23302.37
486.07	23227.48
486.25	23159.60
486.43	23601.96
486.61	23704.95
486.78	23878.15
486.96	23758.78
487.14	24467.96
487.32	24711.38
487.50	24514.77
487.68	24861.17
487.85	24915.00
488.03	25558.65
488.21	25560.99
488.39	25544.61
488.57	26033.78
488.75	26305.28
488.92	26742.96
489.10	26761.69
489.28	26710.19
489.46	26794.45
489.64	26630.62
489.81	27634.71
489.99	27192.34
490.17	27686.20
490.35	28070.04
490.53	28093.45
490.70	27941.32
490.88	28280.69
491.06	28531.13
491.24	28620.07
491.41	28648.16
491.59	29039.03
491.77	29179.46
491.95	29163.08
492.13	29160.73
492.30	29986.94
492.48	30075.88
492.66	29970.56
492.84	30162.48
493.01	30644.63
493.19	30319.30
493.37	30735.92
493.54	30948.90
493.72	31047.21
493.90	31372.54
494.08	31150.19
494.25	32128.53
494.43	31740.00
494.61	32355.57
494.79	32257.26
494.96	32163.64
495.14	32725.37
495.32	33048.36
495.49	32797.93
495.67	33118.58
495.85	33560.94
496.02	33109.22
496.20	33975.22
496.38	33722.44
496.55	33919.04
496.73	34359.06
496.91	34286.51
497.09	34958.24
497.26	35002.71
497.44	34895.05
497.62	35019.10
497.79	35405.28
497.97	35157.19
498.14	35871.05
498.32	36154.26
498.50	35810.20
498.67	36514.70
498.85	35849.99
499.03	36231.49
499.20	36566.19
499.38	36971.10
499.56	36905.57
499.73	36917.27
499.91	37006.21
500.08	37486.02
500.26	37050.68
500.44	37333.89
500.61	37244.94
500.79	37521.13
500.97	37811.35
501.14	38522.88
501.32	38431.60
501.49	38373.08
501.67	38646.93
501.84	38342.66
502.02	38513.52
502.20	38883.32
502.37	39192.27
502.55	38923.11
502.72	39447.39
502.90	39358.45
503.07	39391.22
503.25	39431.01
503.43	39484.84
503.60	39997.41
503.78	40194.02
503.95	39821.87
504.13	40280.62
504.30	40098.06
504.48	39756.34
504.65	40409.35
504.83	40594.25
505.01	41359.61
505.18	41064.70
505.36	41474.29
505.53	41244.92
505.71	41366.63
505.88	41265.99
506.06	40917.25
506.23	41408.76
506.41	41401.74
506.58	41762.18
506.76	42005.59
506.93	42223.26
507.11	41911.97
507.28	42384.76
507.46	42223.26
507.63	42300.50
507.81	42955.85
507.98	42440.93
508.16	43115.01
508.33	43267.14
508.50	43412.26
508.68	43278.85
508.85	43711.84
509.03	43512.90
509.20	43625.25
509.38	44268.89
509.55	44060.58
509.73	44385.92
509.90	44130.80
510.08	44624.65
510.25	44444.43
510.42	44636.36
510.60	44811.90
510.77	44814.24
510.95	45427.46
511.12	44662.10
511.30	45010.84
511.47	45195.74
511.64	45359.58
511.82	45205.11
511.99	45460.23
512.17	45492.99
512.34	45453.20
512.51	45944.72
512.69	45684.92
512.86	45883.86
513.04	46546.23
513.21	46195.15
513.38	46183.45
513.56	46401.12
513.73	46499.42
513.90	46925.40
514.08	46630.49
514.25	47070.51
514.43	47035.41
514.60	47182.86
514.77	47054.13
514.95	47047.11
515.12	47241.37
515.29	47035.41
515.47	47419.25
515.64	47812.46
515.81	47463.72
515.99	47681.39
516.16	47859.27
516.33	47903.74
516.51	48327.38
516.68	48406.96
516.85	48311.00
517.03	48638.67
517.20	48535.69
517.37	48769.74
517.54	48753.36
517.72	48783.79
517.89	48868.05
518.06	49120.82
518.24	49088.06
518.41	49329.13
518.58	49418.07
518.75	49209.76
518.93	49420.41
519.10	49291.68
519.27	49720.00
519.45	49425.09
519.62	49904.90
519.79	49848.73
519.96	49745.75
520.14	50197.47
520.31	50071.08
520.48	50295.77
520.65	50197.47
520.83	50738.13
521.00	50522.80
521.17	50241.94
521.34	50218.53
521.52	50681.96
521.69	50365.99
521.86	50925.38
522.03	51011.98
522.20	51274.12
522.38	51433.27
522.55	51234.33
522.72	50965.17
522.89	51318.59
523.07	51522.21
523.24	51346.67
523.41	51463.70
523.58	51009.64
523.75	51428.59
523.92	51440.29
524.10	51655.62
524.27	51767.97
524.44	51767.97
524.61	51985.64
524.78	51835.84
524.96	51770.31
525.13	52254.80
525.30	52376.51
525.47	52158.84
525.64	51999.68
525.81	52397.57
525.98	52229.05
526.16	52540.35
526.33	52605.88
526.50	52938.24
526.67	52664.39
526.84	52856.32
527.01	52346.08
527.18	52718.23
527.36	53015.47
527.53	52928.87
527.70	53420.39
527.87	53069.31
528.04	52793.12
528.21	53034.20
528.38	53333.79
528.55	53535.07
528.72	52938.24
528.89	53214.42
529.07	53207.40
529.24	53188.67
529.41	53635.72
529.58	53235.48
529.75	53495.28
529.92	53352.51
530.09	53595.93
530.26	53633.38
530.43	53811.26
530.60	53635.72
530.77	53509.33
530.94	53982.12
531.11	53558.48
531.28	53851.05
531.46	53984.46
531.63	53897.86
531.80	54049.99
531.97	54148.29
532.14	54174.04
532.31	54260.64
532.48	54101.48
532.65	54482.99
532.82	54251.28
532.99	54461.93
533.16	54387.03
533.33	54204.47
533.50	54904.29
533.67	54597.68
533.84	54494.69
534.01	54628.10
534.18	54628.10
534.35	55175.79
534.52	55157.06
534.69	54993.23
534.86	55220.26
535.03	54920.67
535.20	54965.14
535.37	55065.78
535.54	55161.75
535.71	55194.51
535.88	55304.52
536.05	55461.33
536.22	55304.52
536.38	55683.69
536.55	55187.49
536.72	55419.20
536.89	55281.11
537.06	55529.21
537.23	55484.74
537.40	55327.92
537.57	55557.30
537.74	55437.93
537.91	55730.50
538.08	55821.78
538.25	55416.86
538.42	55784.33
538.59	55870.93
538.75	55632.19
538.92	56062.85
539.09	55791.35
539.26	55882.63
539.43	55978.59
539.60	56062.85
539.77	56247.75
539.94	56268.82
540.11	56212.65
540.28	56198.60
540.44	56329.67
540.61	56423.29
540.78	56341.38
540.95	56222.01
541.12	56287.54
541.29	56271.16
541.46	56292.22
541.62	56292.22
541.79	56601.18
541.96	56336.69
542.13	56516.92
542.30	56217.33
542.47	56652.67
542.63	56647.99
542.80	56797.78
542.97	57003.75
543.14	57008.43
543.31	57085.67
543.48	57118.43
543.64	57329.08
543.81	57092.69
543.98	57319.72
544.15	57057.58
544.32	57146.52
544.48	57544.41
544.65	57050.56
544.82	57265.89
544.99	57109.07
545.16	57546.75
545.32	57282.27
545.49	57371.21
545.66	57521.01
545.83	57261.21
546.00	57516.32
546.16	57492.92
546.33	57446.11
546.50	57181.63
546.67	57745.70
546.83	57233.12
547.00	57469.51
547.17	57546.75
547.34	57652.08
547.50	57708.25
547.67	57949.32
547.84	57769.10
548.00	57907.19
548.17	58389.34
548.34	57715.27
548.51	58117.84
548.67	58026.56
548.84	58059.33
549.01	58024.22
549.18	57961.03
549.34	58178.70
549.51	58024.22
549.68	58169.33
549.84	58120.18
550.01	58361.26
550.18	58150.61
550.34	58351.90
550.51	58052.31
550.68	58382.32
550.84	57939.96
551.01	58269.98
551.18	58288.70
551.34	58141.25
551.51	58305.09
551.68	58478.28
551.84	58471.26
552.01	58136.57
552.18	58628.08
552.34	58354.24
552.51	58705.32
552.68	58555.52
552.84	58506.37
553.01	58646.80
553.18	58810.64
553.34	58763.83
553.51	58555.52
553.67	58628.08
553.84	58670.21
554.01	58843.41
554.17	58763.83
554.34	59068.10
554.51	58920.65
554.67	58850.43
554.84	58803.62
555.00	58897.24
555.17	58710.00
555.33	58679.57
555.50	58876.18
555.67	58731.06
555.83	58862.13
556.00	59110.23
556.16	59470.67
556.33	59168.74
556.50	59126.61
556.66	59241.30
556.83	59161.72
556.99	59243.64
557.16	59344.28
557.32	59194.49
557.49	59407.48
557.65	59227.26
557.82	59203.85
557.98	59220.23
558.15	59337.26
558.32	59337.26
558.48	59227.26
558.65	59182.79
558.81	59405.14
558.98	59395.77
559.14	59458.97
559.31	59618.13
559.47	59568.97
559.64	59536.21
559.80	59618.13
559.97	59515.14
560.13	59405.14
560.30	59320.88
560.46	59716.43
560.63	59503.44
560.79	59618.13
560.96	59585.36
561.12	59805.37
561.29	59887.29
561.45	59625.15
561.61	59583.02
561.78	59625.15
561.94	59573.66
562.11	59774.94
562.27	59650.89
562.44	59931.76
562.60	59943.46
562.77	59854.52
562.93	59627.49
563.10	59980.91
563.26	59700.04
563.42	59990.27
563.59	59922.40
563.75	59730.47
563.92	59746.86
564.08	59793.67
564.24	60069.85
564.41	60140.07
564.57	60011.34
564.74	60090.91
564.90	59948.14
565.07	59840.48
565.23	59828.77
565.39	60041.76
565.56	59962.18
565.72	60240.71
565.88	59987.93
566.05	60020.70
566.21	60011.34
566.38	59966.87
566.54	60182.19
566.70	60214.96
566.87	60163.47
567.03	59983.25
567.19	60207.94
567.36	60133.04
567.52	60123.68
567.68	60423.27
567.85	60018.36
568.01	60147.09
568.17	60051.12
568.34	60261.77
568.50	60219.64
568.66	60126.02
568.83	60336.67
568.99	60032.40
569.15	60247.73
569.32	60369.44
569.48	60203.26
569.64	60292.20
569.81	60177.51
569.97	60198.58
570.13	60322.63
570.30	60163.47
570.46	60561.36
570.62	60420.93
570.78	60378.80
570.95	60371.78
571.11	60353.05
571.27	60210.28
571.43	60289.86
571.60	60418.59
571.76	60308.58
571.92	60388.16
572.09	60280.50
572.25	60371.78
572.41	60327.31
572.57	60528.59
572.74	60460.72
572.90	60547.32
573.06	60331.99
573.22	60502.85
573.38	60402.21
573.55	60559.02
573.71	60769.67
573.87	60542.64
574.03	60528.59
574.20	60552.00
574.36	60273.48
574.52	60676.05
574.68	60662.00
574.84	60615.19
575.01	60734.56
575.17	60643.28
575.33	60439.65
575.49	60512.21
575.65	60575.40
575.82	60673.71
575.98	60713.50
576.14	60802.44
576.30	60849.25
576.46	60568.38
576.62	60762.65
576.79	60617.53
576.95	60491.15
577.11	60580.09
577.27	60732.22
577.43	60760.31
577.59	60544.98
577.75	60788.39
577.92	60523.91
578.08	60662.00
578.24	60519.23
578.40	60725.20
578.56	60779.03
578.72	60954.57
578.88	60870.31
579.04	60839.89
579.21	60783.71
579.37	60786.05
579.53	61036.49
579.69	60715.84
579.85	60657.32
580.01	60570.72
580.17	60692.43
580.33	60734.56
580.49	60786.05
580.65	60750.94
580.82	60678.39
580.98	60533.28
581.14	60598.81
581.30	60619.88
581.46	60629.24
581.62	60853.93
581.78	60746.26
581.94	60802.44
582.10	60690.09
582.26	60783.71
582.42	60823.50
582.58	60692.43
582.74	60582.43
582.90	60786.05
583.06	60725.20
583.22	60488.80
583.38	60636.26
583.54	60963.93
583.70	60669.03
583.86	60938.19
584.02	60619.88
584.18	60863.29
584.34	60963.93
584.50	60842.23
584.66	60664.35
584.82	60746.26
584.98	61052.87
585.14	61029.47
585.30	60734.56
585.46	60837.54
585.62	60907.76
585.78	60977.98
585.94	60793.07
586.10	60837.54
586.26	60956.91
586.42	60940.53
586.58	60945.21
586.74	60814.14
586.90	60954.57
587.06	60762.65
587.22	60996.70
587.38	61102.03
587.54	60921.80
587.70	61029.47
587.86	60935.85
588.02	60961.59
588.18	60992.02
588.34	60954.57
588.49	60956.91
