SpectraSuite Data File
++++++++++++++++++++++++++++++++++++
Date: Fri Oct 25 10:44:36 EDT 2013
User: price-jones
Dark Spectrum Present: No
Reference Spectrum Present: No
Number of Sampled Component Spectra: 1
Spectrometers: USB2+H05261
Integration Time (usec): 100000 (USB2+H05261)
Spectra Averaged: 1 (USB2+H05261)
Boxcar Smoothing: 0 (USB2+H05261)
Correct for Electrical Dark: No (USB2+H05261)
Strobe/Lamp Enabled: No (USB2+H05261)
Correct for Detector Non-linearity: No (USB2+H05261)
Correct for Stray Light: No (USB2+H05261)
Number of Pixels in Processed Spectrum: 2048
>>>>>Begin Processed Spectral Data<<<<<
365.73	138.09
365.92	138.09
366.12	138.09
366.32	63.19
366.52	49.15
366.72	84.26
366.91	39.79
367.11	60.85
367.31	0.00
367.51	0.00
367.70	74.90
367.90	128.73
368.10	7.02
368.30	0.00
368.49	49.15
368.69	105.32
368.89	11.70
369.09	49.15
369.28	84.26
369.48	91.28
369.68	51.49
369.87	119.37
370.07	98.30
370.27	149.79
370.47	184.90
370.66	297.25
370.86	397.89
371.06	461.09
371.25	461.09
371.45	447.04
371.65	435.34
371.84	456.40
372.04	365.12
372.24	500.87
372.44	491.51
372.63	430.66
372.83	468.11
373.03	482.15
373.22	557.05
373.42	557.05
373.62	503.22
373.81	535.98
374.01	543.00
374.21	521.94
374.40	561.73
374.60	491.51
374.79	559.39
374.99	580.45
375.19	599.18
375.38	608.54
375.58	566.41
375.78	543.00
375.97	580.45
376.17	648.33
376.37	547.69
376.56	582.79
376.76	545.34
376.95	568.75
377.15	507.90
377.35	491.51
377.54	589.82
377.74	592.16
377.93	620.24
378.13	606.20
378.33	662.37
378.52	606.20
378.72	585.13
378.91	545.34
379.11	540.66
379.31	617.90
379.50	585.13
379.70	681.10
379.89	667.05
380.09	671.73
380.28	674.07
380.48	645.99
380.68	624.92
380.87	634.29
381.07	685.78
381.26	653.01
381.46	641.31
381.65	615.56
381.85	676.41
382.04	638.97
382.24	615.56
382.43	688.12
382.63	613.22
382.83	643.65
383.02	688.12
383.22	613.22
383.41	615.56
383.61	678.76
383.80	706.84
384.00	774.72
384.19	716.20
384.39	678.76
384.58	821.53
384.78	807.48
384.97	784.08
385.17	866.00
385.36	751.31
385.56	671.73
385.75	704.50
385.95	826.21
386.14	788.76
386.34	734.93
386.53	786.42
386.72	791.10
386.92	748.97
387.11	821.53
387.31	842.59
387.50	849.61
387.70	716.20
387.89	746.63
388.09	781.74
388.28	863.66
388.48	840.25
388.67	772.38
388.86	849.61
389.06	952.60
389.25	816.85
389.45	980.68
389.64	966.64
389.84	922.17
390.03	940.90
390.22	919.83
390.42	926.85
390.61	858.98
390.81	828.55
391.00	938.55
391.19	938.55
391.39	1036.86
391.58	1001.75
391.78	1006.43
391.97	938.55
392.16	971.32
392.36	884.72
392.55	1004.09
392.75	922.17
392.94	882.38
393.13	952.60
393.33	1008.77
393.52	976.00
393.71	999.41
393.91	1071.97
394.10	1053.24
394.29	1130.48
394.49	1011.11
394.68	1139.84
394.88	1071.97
395.07	1214.74
395.26	1102.39
395.46	1132.82
395.65	1193.67
395.84	1177.29
396.04	1146.86
396.23	1097.71
396.42	1015.79
396.62	1029.84
396.81	1111.75
397.00	1128.14
397.19	1184.31
397.39	1179.63
397.58	1254.53
397.77	1235.80
397.97	1301.34
398.16	1224.10
398.35	1369.21
398.55	1259.21
398.74	1266.23
398.93	1277.93
399.12	1306.02
399.32	1301.34
399.51	1324.74
399.70	1535.39
399.90	1287.29
400.09	1430.07
400.28	1423.05
400.47	1366.87
400.67	1537.73
400.86	1490.92
401.05	1511.99
401.24	1467.52
401.44	1486.24
401.63	1596.25
401.82	1509.65
402.01	1467.52
402.21	1582.20
402.40	1514.33
402.59	1554.12
402.78	1603.27
402.97	1582.20
403.17	1554.12
403.36	1584.54
403.55	1629.01
403.74	1687.53
403.93	1659.44
404.13	1547.09
404.32	1729.66
404.51	1568.16
404.70	1614.97
404.89	1591.56
405.09	1692.21
405.28	1858.39
405.47	1678.16
405.66	1811.57
405.85	1755.40
406.05	1825.62
406.24	1816.26
406.43	1713.27
406.62	1856.04
406.81	1989.46
407.00	1919.24
407.20	1788.17
407.39	1865.41
407.58	1954.35
407.77	1970.73
407.96	1987.11
408.15	2036.27
408.34	1952.01
408.54	2001.16
408.73	1947.33
408.92	2038.61
409.11	2029.24
409.30	1968.39
409.49	2069.03
409.68	2141.59
409.87	2022.22
410.07	2132.23
410.26	2190.74
410.45	2047.97
410.64	2132.23
410.83	2113.50
411.02	2174.36
411.21	2237.55
411.40	2267.98
411.59	2363.94
411.78	2235.21
411.98	2429.48
412.17	2403.73
412.36	2380.32
412.55	2396.71
412.74	2492.67
412.93	2513.74
413.12	2375.64
413.31	2628.42
413.50	2567.57
413.69	2530.12
413.88	2750.13
414.07	2663.53
414.26	2588.63
414.45	2616.72
414.64	2686.94
414.83	2696.30
415.02	2768.85
415.22	2820.35
415.41	2806.30
415.60	2689.28
415.79	2923.33
415.98	2951.42
416.17	2883.54
416.36	2890.56
416.55	2888.22
416.74	2932.69
416.93	2956.10
417.12	2942.05
417.31	3054.40
417.50	2984.18
417.69	3098.87
417.88	3052.06
418.07	3007.59
418.26	3150.36
418.45	3204.19
418.64	3304.84
418.83	3225.26
419.02	3246.32
419.21	3126.96
419.39	3262.71
419.58	3225.26
419.77	3171.43
419.96	3426.54
420.15	3300.16
420.34	3335.26
420.53	3410.16
420.72	3262.71
420.91	3344.63
421.10	3316.54
421.29	3496.76
421.48	3293.13
421.67	3431.23
421.86	3536.55
422.05	3353.99
422.24	3377.39
422.43	3428.88
422.61	3445.27
422.80	3569.32
422.99	3454.63
423.18	3426.54
423.37	3599.74
423.56	3585.70
423.75	3501.44
423.94	3529.53
424.13	3173.77
424.32	3438.25
424.50	3613.79
424.69	3679.32
424.88	3524.85
425.07	3550.59
425.26	3536.55
425.45	3585.70
425.64	3669.96
425.83	3454.63
426.01	3712.09
426.20	3473.36
426.39	3588.04
426.58	3660.60
426.77	3550.59
426.96	3641.87
427.15	3513.14
427.33	3707.41
427.52	3772.94
427.71	3794.01
427.90	3676.98
428.09	3632.51
428.28	3712.09
428.46	3747.20
428.65	3892.31
428.84	3894.65
429.03	3974.23
429.22	3779.97
429.40	3801.03
429.59	3737.84
429.78	3632.51
429.97	3695.71
430.16	3777.62
430.34	3889.97
430.53	4112.32
430.72	3962.53
430.91	3868.91
431.10	3836.14
431.28	4060.83
431.47	4173.18
431.66	4191.90
431.85	4091.26
432.03	4126.36
432.22	4294.88
432.41	4344.03
432.60	4337.01
432.79	4245.73
432.97	4283.18
433.16	4299.56
433.35	4131.05
433.54	4409.57
433.72	4393.19
433.91	4301.90
434.10	4442.34
434.28	4332.33
434.47	4458.72
434.66	4339.35
434.85	4372.12
435.03	4475.10
435.22	4348.72
435.41	4592.13
435.59	4709.16
435.78	4615.54
435.97	4580.43
436.16	4723.20
436.34	4784.06
436.53	4669.37
436.72	4762.99
436.90	4573.41
437.09	4802.78
437.28	4617.88
437.46	4683.41
437.65	4713.84
437.84	4746.61
438.02	4784.06
438.21	4938.53
438.40	4601.49
438.58	4858.95
438.77	4997.04
438.96	4917.47
439.14	5039.17
439.33	5032.15
439.52	5132.79
439.70	5174.92
439.89	5217.05
440.08	5184.29
440.26	5174.92
440.45	5240.46
440.63	5348.12
440.82	5284.93
441.01	5338.76
441.19	5301.31
441.38	5469.83
441.57	5537.71
441.75	5696.86
441.94	5722.61
442.12	5605.58
442.31	5577.50
442.50	5570.48
442.68	5731.97
442.87	5633.67
443.05	5753.04
443.24	5844.32
443.43	5671.12
443.61	5731.97
443.80	6139.23
443.98	5844.32
444.17	5750.70
444.35	5717.93
444.54	5865.38
444.73	5914.53
444.91	5874.74
445.10	5966.03
445.28	5671.12
445.47	5753.04
445.65	5851.34
445.84	5865.38
446.02	5837.30
446.21	5902.83
446.39	5860.70
446.58	6045.60
446.77	6003.47
446.95	5921.56
447.14	6017.52
447.32	6057.31
447.51	5966.03
447.69	6214.12
447.88	6148.59
448.06	6174.33
448.25	5996.45
448.43	5970.71
448.62	5977.73
448.80	5970.71
448.99	6317.11
449.17	6183.70
449.36	6214.12
449.54	6265.61
449.73	6436.47
449.91	6431.79
450.10	6296.04
450.28	6403.71
450.46	6277.32
450.65	6562.86
450.83	6480.94
451.02	6471.58
451.20	6609.67
451.39	6600.31
451.57	6597.97
451.76	6597.97
451.94	6502.01
452.13	6576.91
452.31	6525.41
452.49	6429.45
452.68	6665.85
452.86	6565.20
453.05	6743.08
453.23	6771.17
453.42	6654.14
453.60	6616.69
453.78	6909.26
453.97	6663.51
454.15	6773.51
454.34	6853.09
454.52	6810.96
454.70	6916.28
454.89	6862.45
455.07	6822.66
455.26	6958.41
455.44	7164.38
455.62	6906.92
455.81	7056.72
455.99	7063.74
456.17	7091.82
456.36	7080.12
456.54	7213.53
456.73	7164.38
456.91	7445.24
457.09	7365.67
457.28	7253.32
457.46	7302.47
457.64	7302.47
457.83	7332.90
458.01	7335.24
458.19	7573.97
458.38	7377.37
458.56	7679.30
458.74	7508.44
458.93	7496.74
459.11	7524.82
459.29	7569.29
459.48	7646.53
459.66	7658.23
459.84	7559.93
460.03	7880.58
460.21	7674.62
460.39	7791.64
460.57	7831.43
460.76	7632.49
460.94	7861.86
461.12	7761.22
461.31	7878.24
461.49	7843.14
461.67	7691.00
461.85	7899.31
462.04	7929.74
462.22	8091.23
462.40	8159.11
462.59	8016.33
462.77	8042.08
462.95	8283.16
463.13	8224.64
463.32	8030.38
463.50	8248.05
463.68	8304.22
463.86	8138.04
464.05	8037.40
464.23	8210.60
464.41	8234.00
464.59	8114.64
464.78	8346.35
464.96	8215.28
465.14	8098.25
465.32	8355.71
465.50	8468.06
465.69	8552.32
465.87	8397.84
466.05	8365.07
466.23	8404.86
466.41	8332.31
466.60	8479.76
466.78	8238.69
466.96	8439.97
467.14	8451.67
467.32	8608.49
467.51	8746.58
467.69	8500.83
467.87	8477.42
468.05	8856.59
468.23	8533.59
468.41	8987.66
468.60	8688.07
468.78	8809.78
468.96	8652.96
469.14	8704.45
469.32	9085.96
469.50	8905.74
469.69	8912.76
469.87	8908.08
470.05	8812.12
470.23	9074.26
470.41	8999.36
470.59	9001.70
470.77	8990.00
470.95	9231.07
471.14	9210.01
471.32	9188.94
471.50	9202.99
471.68	9455.76
471.86	9355.12
472.04	9514.28
472.22	9568.11
472.40	9273.20
472.58	9551.73
472.77	9556.41
472.95	9472.15
473.13	9848.97
473.31	9619.60
473.49	9406.61
473.67	9755.35
473.85	9764.72
474.03	10008.13
474.21	10097.07
474.39	10061.96
474.57	10256.23
474.75	9870.04
474.93	10228.14
475.12	10090.05
475.30	10326.44
475.48	10263.25
475.66	10153.24
475.84	10422.41
476.02	10417.72
476.20	10314.74
476.38	10565.18
476.56	10810.93
476.74	10799.23
476.92	10773.49
477.10	10843.70
477.28	11239.25
477.46	11075.42
477.64	11253.30
477.82	11276.70
478.00	11529.48
478.18	11520.12
478.36	11522.46
478.54	11583.31
478.72	11705.02
478.90	11756.51
479.08	12032.69
479.26	12121.63
479.44	11861.84
479.62	11974.18
479.80	12367.39
479.98	12126.32
480.16	12631.87
480.34	12362.71
480.52	12624.85
480.70	12575.70
480.88	12524.21
481.06	12762.94
481.24	12971.25
481.41	13004.02
481.59	13259.13
481.77	13186.58
481.95	13207.64
482.13	13095.30
482.31	13427.65
482.49	13694.47
482.67	13621.92
482.85	13682.77
483.03	13947.25
483.21	13877.04
483.39	14230.46
483.57	14230.46
483.74	14466.85
483.92	14560.47
484.10	14279.61
484.28	14626.01
484.46	14831.97
484.64	14974.75
484.82	14789.85
485.00	15105.82
485.18	14970.07
485.35	15342.21
485.53	15021.56
485.71	15194.76
485.89	15346.89
486.07	15499.03
486.25	15253.27
486.43	15719.04
486.61	15707.34
486.78	15822.02
486.96	16023.31
487.14	16358.00
487.32	16407.16
487.50	16566.31
487.68	16807.39
487.85	16769.94
488.03	17247.41
488.21	17106.98
488.39	17270.81
488.57	17301.24
488.75	17441.67
488.92	17591.47
489.10	17685.09
489.28	17926.16
489.46	18106.38
489.64	18082.98
489.81	18473.85
489.99	18682.16
490.17	18719.60
490.35	18541.72
490.53	18602.58
490.70	18883.44
490.88	18719.60
491.06	19140.90
491.24	18822.59
491.41	19154.94
491.59	19290.70
491.77	19281.33
491.95	19707.31
492.13	19447.51
492.30	20065.41
492.48	19711.99
492.66	20049.03
492.84	20142.65
493.01	20283.08
493.19	20032.65
493.37	20570.97
493.54	20594.37
493.72	20973.54
493.90	20858.85
494.08	20917.37
494.25	21240.36
494.43	21149.08
494.61	21568.04
494.79	21422.92
494.96	21523.57
495.14	21378.45
495.32	21699.11
495.49	21921.46
495.67	22118.06
495.85	22583.83
496.02	22101.68
496.20	22621.28
496.38	22424.67
496.55	22604.89
496.73	22895.12
496.91	22944.27
497.09	23021.51
497.26	23009.81
497.44	23152.58
497.62	22829.59
497.79	23707.29
497.97	23201.73
498.14	23718.99
498.32	23688.56
498.50	23894.53
498.67	24114.54
498.85	23859.42
499.03	24170.71
499.20	24341.57
499.38	24254.97
499.56	24507.75
499.73	24528.81
499.91	24482.00
500.08	24814.36
500.26	24423.49
500.44	25184.16
500.61	24788.61
500.79	24896.28
500.97	24823.72
501.14	24947.77
501.32	24922.02
501.49	25455.67
501.67	25507.16
501.84	25434.60
502.02	25443.96
502.20	25455.67
502.37	25717.81
502.55	25446.30
502.72	25788.02
502.90	26073.57
503.07	25792.70
503.25	25914.41
503.43	25963.56
503.60	26274.85
503.78	26228.04
503.95	26682.11
504.13	26490.18
504.30	26520.61
504.48	26494.86
504.65	27002.76
504.83	26918.50
505.01	27077.66
505.18	27220.43
505.36	27187.66
505.53	27190.00
505.71	27494.27
505.88	27435.76
506.06	27393.63
506.23	27882.80
506.41	27276.60
506.58	27707.26
506.76	27873.44
506.93	27725.99
507.11	28046.64
507.28	28077.07
507.46	27889.82
507.63	28142.60
507.81	28400.06
507.98	28088.77
508.16	28369.63
508.33	28037.28
508.50	28903.28
508.68	28767.52
508.85	29207.55
509.03	29062.43
509.20	28938.38
509.38	29142.01
509.55	29048.39
509.73	29228.61
509.90	29418.19
510.08	29158.39
510.25	29474.37
510.42	29486.07
510.60	29465.00
510.77	29537.56
510.95	29965.88
511.12	29729.48
511.30	30031.41
511.47	30096.95
511.64	30401.22
511.82	30155.46
511.99	29949.50
512.17	30075.88
512.34	30075.88
512.51	30272.49
512.69	31002.74
512.86	30780.39
513.04	30843.58
513.21	30441.01
513.38	30927.84
513.56	30766.34
513.73	30848.26
513.90	31089.34
514.08	30799.11
514.25	30890.39
514.43	31084.65
514.60	31346.79
514.77	31267.22
514.95	31857.03
515.12	31573.83
515.29	31503.61
515.47	31545.74
515.64	31620.64
515.81	31604.25
515.99	31894.48
516.16	31477.86
516.33	31566.81
516.51	31810.22
516.68	31496.59
516.85	31538.72
517.03	31625.32
517.20	32074.70
517.37	32072.36
517.54	32500.68
517.72	32313.44
517.89	32222.16
518.06	31908.52
518.24	32189.39
518.41	31866.39
518.58	32680.90
518.75	32582.60
518.93	32802.61
519.10	32463.23
519.27	32727.71
519.45	32896.23
519.62	33088.15
519.79	33331.57
519.96	33364.34
520.14	33362.00
520.31	33071.77
520.48	33572.64
520.65	33535.20
520.83	33846.49
521.00	33701.37
521.17	33670.95
521.34	33743.50
521.52	33984.58
521.69	33874.57
521.86	34431.62
522.03	33876.91
522.20	34176.50
522.38	34506.52
522.55	34429.28
522.72	34106.29
522.89	34246.72
523.07	34235.02
523.24	34436.30
523.41	34450.35
523.58	34682.06
523.75	34927.81
523.92	35159.53
524.10	34838.87
524.27	34710.14
524.44	35061.22
524.61	35201.66
524.78	34976.97
524.96	35637.00
525.13	35407.62
525.30	35510.61
525.47	35316.34
525.64	35416.99
525.81	35304.64
525.98	35393.58
526.16	35393.58
526.33	35414.65
526.50	35807.86
526.67	35222.72
526.84	35489.54
527.01	35360.81
527.18	35332.73
527.36	36257.24
527.53	35491.88
527.70	36264.26
527.87	36856.42
528.04	36320.43
528.21	36156.60
528.38	36306.39
528.55	36739.39
528.72	36671.51
528.89	36587.25
529.07	36739.39
529.24	36236.17
529.41	37071.75
529.58	36835.35
529.75	36334.48
529.92	36830.67
530.09	36666.83
530.26	36847.05
530.43	36940.68
530.60	36940.68
530.77	36879.82
530.94	37006.21
531.11	37113.87
531.28	37268.35
531.46	37361.97
531.63	37624.11
531.80	37048.34
531.97	37361.97
532.14	36987.49
532.31	36903.23
532.48	37589.00
532.65	37268.35
532.82	37638.15
532.99	37535.17
533.16	37619.43
533.33	37783.27
533.50	37933.06
533.67	38146.05
533.84	37537.51
534.01	38007.96
534.18	37827.74
534.35	37982.21
534.52	38197.54
534.69	38251.38
534.86	38225.63
535.03	38103.92
535.20	38462.02
535.37	38848.21
535.54	38560.33
535.71	38553.30
535.88	38415.21
536.05	38473.73
536.22	38710.12
536.38	38623.52
536.55	38478.41
536.72	38611.82
536.89	38625.86
537.06	38878.64
537.23	38873.96
537.40	38913.75
537.57	38735.87
537.74	39023.75
537.91	39044.82
538.08	39208.65
538.25	38789.70
538.42	38862.26
538.59	39098.65
538.75	39122.05
538.92	39243.76
539.09	39255.46
539.26	39665.06
539.43	39636.97
539.60	39274.19
539.77	39124.40
539.94	39636.97
540.11	39409.94
540.28	39505.90
540.44	39306.96
540.61	39622.93
540.78	39526.97
540.95	38998.01
541.12	39363.13
541.29	39550.37
541.46	39887.41
541.62	39498.88
541.79	39945.92
541.96	39381.85
542.13	39800.81
542.30	39892.09
542.47	39847.62
542.63	39966.99
542.80	39978.69
542.97	40531.06
543.14	40708.94
543.31	40222.11
543.48	40547.44
543.64	41031.93
543.81	41113.85
543.98	40620.00
544.15	40430.41
544.32	40809.58
544.48	41237.90
544.65	40737.02
544.82	40882.14
544.99	40807.24
545.16	40912.56
545.32	40758.09
545.49	41462.59
545.66	41184.07
545.83	41214.49
546.00	41125.55
546.16	40793.20
546.33	41221.52
546.50	41167.68
546.67	41191.09
546.83	40994.48
547.00	41092.79
547.17	41256.62
547.34	41296.41
547.50	41331.52
547.67	41656.85
547.84	41172.36
548.00	41612.38
548.17	41642.81
548.34	41509.40
548.51	41490.68
548.67	42052.41
548.84	41385.35
549.01	41628.77
549.18	41343.22
549.34	41420.46
549.51	41940.06
549.68	42277.10
549.84	41839.42
550.01	41902.61
550.18	41764.52
550.34	41886.23
550.51	42141.35
550.68	42033.68
550.84	41577.28
551.01	42256.03
551.18	42082.83
551.34	41930.70
551.51	42209.22
551.68	42501.79
551.84	42326.25
552.01	41937.72
552.18	42211.56
552.34	41830.05
552.51	42150.71
552.68	42267.73
552.84	42712.44
553.01	42848.19
553.18	42848.19
553.34	42337.95
553.51	42178.79
553.67	42763.93
553.84	42506.47
554.01	42890.32
554.17	42871.59
554.34	42780.31
554.51	42576.69
554.67	43075.22
554.84	42813.08
555.00	42504.13
555.17	42597.75
555.33	42602.43
555.50	42777.97
555.67	42918.40
555.83	42981.60
556.00	43234.38
556.16	43220.33
556.33	42979.26
556.50	42944.15
556.66	43208.63
556.83	42909.04
556.99	43328.00
557.16	42983.94
557.32	43271.82
557.49	42892.66
557.65	42782.65
557.82	43154.80
557.98	43356.08
558.15	43512.90
558.32	43449.70
558.48	43316.29
558.65	43477.79
558.81	42845.85
558.98	43007.34
559.14	43416.94
559.31	43096.28
559.47	43501.20
559.64	43505.88
559.80	43180.54
559.97	43222.67
560.13	42969.90
560.30	43480.13
560.46	43180.54
560.63	43674.40
560.79	43662.69
560.96	43894.41
561.12	43412.26
561.29	43578.43
561.45	43690.78
561.61	43482.47
561.78	43655.67
561.94	43379.49
562.11	44037.18
562.27	43632.27
562.44	43929.51
562.60	43770.36
562.77	43894.41
562.93	43854.62
563.10	43571.41
563.26	43262.46
563.42	43847.60
563.59	43407.58
563.75	43681.42
563.92	43723.55
564.08	43983.35
564.24	44205.70
564.41	43985.69
564.57	44194.00
564.74	43557.37
564.90	43803.13
565.07	43796.10
565.23	43906.11
565.39	43854.62
565.56	43831.21
565.72	43964.62
565.88	44041.86
566.05	43480.13
566.21	43882.70
566.38	44088.67
566.54	44493.58
566.70	44072.29
566.87	44037.18
567.03	44163.57
567.19	44442.09
567.36	43920.15
567.52	43871.00
567.68	44435.07
567.85	44329.75
568.01	44212.72
568.17	43648.65
568.34	44521.67
568.50	44280.60
568.66	43746.95
568.83	44121.44
568.99	43929.51
569.15	44350.81
569.32	43494.18
569.48	43978.67
569.64	44486.56
569.81	44334.43
569.97	43906.11
570.13	44037.18
570.30	43381.83
570.46	43917.81
570.62	44168.25
570.78	43985.69
570.95	43983.35
571.11	44212.72
571.27	44149.53
571.43	44095.69
571.60	44444.43
571.76	43798.44
571.92	44259.53
572.09	44236.12
572.25	44072.29
572.41	43924.83
572.57	44563.80
572.74	44989.78
572.90	44271.23
573.06	44701.89
573.22	44292.30
573.38	44725.30
573.55	43728.23
573.71	44505.29
573.87	44371.88
574.03	44081.65
574.20	43915.47
574.36	43889.73
574.52	44273.57
574.68	44605.93
574.84	44116.76
575.01	44282.94
575.17	44215.06
575.33	44083.99
575.49	44065.27
575.65	44931.26
575.82	44411.67
575.98	44147.18
576.14	44486.56
576.30	44327.41
576.46	44247.83
576.62	44048.88
576.79	44299.32
576.95	44109.74
577.11	44285.28
577.27	44374.22
577.43	44673.81
577.59	44194.00
577.75	44039.52
577.92	43903.77
578.08	44088.67
578.24	44388.26
578.40	44109.74
578.56	44556.78
578.72	44547.42
578.88	44694.87
579.04	44734.66
579.21	44676.15
579.37	44781.47
579.53	44238.47
579.69	44229.10
579.85	44418.69
580.01	44463.16
580.17	44257.19
580.33	45020.20
580.49	44360.17
580.65	44573.16
580.82	44687.85
580.98	44266.55
581.14	44137.82
581.30	44729.98
581.46	44687.85
581.62	44374.22
581.78	44577.84
581.94	44648.06
582.10	44411.67
582.26	44662.10
582.42	44505.29
582.58	44362.51
582.74	44512.31
582.90	44931.26
583.06	44854.03
583.22	44559.12
583.38	44804.88
583.54	44725.30
583.70	44748.70
583.86	44886.79
584.02	44088.67
584.18	44184.63
584.34	44802.53
584.50	44699.55
584.66	44526.35
584.82	44484.22
584.98	44598.91
585.14	44828.28
585.30	44491.24
585.46	44243.15
585.62	44252.51
585.78	44732.32
585.94	44650.40
586.10	44615.29
586.26	44446.77
586.42	44507.63
586.58	44715.93
586.74	44521.67
586.90	44325.07
587.06	44371.88
587.22	44184.63
587.38	44460.82
587.54	44645.72
587.70	44566.14
587.86	44896.16
588.02	44264.21
588.18	44397.62
588.34	44706.57
588.49	44470.18
588.65	44322.72
588.81	43934.20
588.97	44261.87
589.13	44598.91
589.29	44519.33
589.45	44540.39
589.61	44994.46
589.77	44737.00
589.93	45015.52
590.08	45010.84
590.24	44751.04
