SpectraSuite Data File
++++++++++++++++++++++++++++++++++++
Date: Fri Oct 25 10:44:00 EDT 2013
User: price-jones
Dark Spectrum Present: No
Reference Spectrum Present: No
Number of Sampled Component Spectra: 1
Spectrometers: USB2+H05261
Integration Time (usec): 100000 (USB2+H05261)
Spectra Averaged: 1 (USB2+H05261)
Boxcar Smoothing: 0 (USB2+H05261)
Correct for Electrical Dark: No (USB2+H05261)
Strobe/Lamp Enabled: No (USB2+H05261)
Correct for Detector Non-linearity: No (USB2+H05261)
Correct for Stray Light: No (USB2+H05261)
Number of Pixels in Processed Spectrum: 2048
>>>>>Begin Processed Spectral Data<<<<<
365.73	161.50
365.92	161.50
366.12	161.50
366.32	11.70
366.52	105.32
366.72	58.51
366.91	56.17
367.11	0.00
367.31	42.13
367.51	60.85
367.70	16.38
367.90	9.36
368.10	21.06
368.30	9.36
368.49	56.17
368.69	88.94
368.89	37.45
369.09	63.19
369.28	51.49
369.48	18.72
369.68	112.35
369.87	114.69
370.07	88.94
370.27	117.03
370.47	205.97
370.66	449.38
370.86	451.72
371.06	486.83
371.25	409.59
371.45	491.51
371.65	433.00
371.84	451.72
372.04	456.40
372.24	486.83
372.44	491.51
372.63	533.64
372.83	540.66
373.03	472.79
373.22	559.39
373.42	517.26
373.62	568.75
373.81	552.37
374.01	557.05
374.21	610.88
374.40	589.82
374.60	580.45
374.79	627.26
374.99	524.28
375.19	631.94
375.38	657.69
375.58	599.18
375.78	678.76
375.97	601.52
376.17	706.84
376.37	664.71
376.56	627.26
376.76	669.39
376.95	653.01
377.15	650.67
377.35	669.39
377.54	645.99
377.74	704.50
377.93	669.39
378.13	720.88
378.33	643.65
378.52	706.84
378.72	671.73
378.91	620.24
379.11	575.77
379.31	737.27
379.50	603.86
379.70	727.91
379.89	720.88
380.09	683.44
380.28	650.67
380.48	725.57
380.68	676.41
380.87	641.31
381.07	706.84
381.26	716.20
381.46	711.52
381.65	760.67
381.85	648.33
382.04	716.20
382.24	695.14
382.43	770.04
382.63	678.76
382.83	730.25
383.02	791.10
383.22	763.01
383.41	720.88
383.61	795.78
383.80	826.21
384.00	674.07
384.19	683.44
384.39	781.74
384.58	760.67
384.78	746.63
384.97	765.36
385.17	802.80
385.36	725.57
385.56	833.23
385.75	835.57
385.95	784.08
386.14	919.83
386.34	866.00
386.53	812.17
386.72	854.30
386.92	924.51
387.11	880.04
387.31	868.34
387.50	842.59
387.70	870.68
387.89	830.89
388.09	915.15
388.28	901.11
388.48	961.96
388.67	980.68
388.86	1053.24
389.06	924.51
389.25	1006.43
389.45	990.05
389.64	943.24
389.84	997.07
390.03	1043.88
390.22	1020.47
390.42	1060.26
390.61	952.60
390.81	978.34
391.00	1020.47
391.19	1118.78
391.39	1123.46
391.58	1060.26
391.78	1032.18
391.97	1095.37
392.16	1062.60
392.36	1104.73
392.55	999.41
392.75	1027.50
392.94	1114.10
393.13	999.41
393.33	994.73
393.52	1025.15
393.71	1139.84
393.91	1165.59
394.10	1118.78
394.29	1221.76
394.49	1132.82
394.68	1301.34
394.88	1198.35
395.07	1291.98
395.26	1196.01
395.46	1249.85
395.65	1263.89
395.84	1242.82
396.04	1315.38
396.23	1174.95
396.42	1170.27
396.62	1219.42
396.81	1121.12
397.00	1191.33
397.19	1214.74
397.39	1226.44
397.58	1385.60
397.77	1390.28
397.97	1275.59
398.16	1476.88
398.35	1462.83
398.55	1519.01
398.74	1497.94
398.93	1591.56
399.12	1434.75
399.32	1516.67
399.51	1519.01
399.70	1584.54
399.90	1626.67
400.09	1692.21
400.28	1586.88
400.47	1678.16
400.67	1816.26
400.86	1708.59
401.05	1748.38
401.24	1760.08
401.44	1741.36
401.63	1727.32
401.82	1774.13
402.01	1724.97
402.21	1825.62
402.40	1743.70
402.59	1722.63
402.78	1762.42
402.97	1797.53
403.17	1762.42
403.36	1865.41
403.55	1905.20
403.74	1881.79
403.93	1853.70
404.13	1851.36
404.32	1949.67
404.51	1966.05
404.70	1914.56
404.89	1968.39
405.09	2118.18
405.28	2010.52
405.47	1961.37
405.66	1954.35
405.85	1895.83
406.05	1996.48
406.24	1998.82
406.43	2127.55
406.62	2033.93
406.81	2045.63
407.00	2099.46
407.20	2076.06
407.39	2040.95
407.58	2134.57
407.77	2258.62
407.96	2195.42
408.15	2228.19
408.34	2249.25
408.54	2321.81
408.73	2260.96
408.92	2303.09
409.11	2399.05
409.30	2303.09
409.49	2242.23
409.68	2265.64
409.87	2204.78
410.07	2284.36
410.26	2408.41
410.45	2450.54
410.64	2509.05
410.83	2487.99
411.02	2574.59
411.21	2689.28
411.40	2640.12
411.59	2740.77
411.78	2565.23
411.98	2705.66
412.17	2656.51
412.36	2736.09
412.55	2712.68
412.74	2693.96
412.93	2715.02
413.12	2717.36
413.31	2895.24
413.50	2876.52
413.69	2890.56
413.88	2871.84
414.07	2995.89
414.26	2991.20
414.45	2988.86
414.64	3021.63
414.83	3187.81
415.02	3101.21
415.22	2984.18
415.41	3126.96
415.60	3199.51
415.79	3272.07
415.98	3325.90
416.17	3365.69
416.36	3246.32
416.55	3260.37
416.74	3187.81
416.93	3248.66
417.12	3330.58
417.31	3215.90
417.50	3421.86
417.69	3585.70
417.88	3435.91
418.07	3487.40
418.26	3421.86
418.45	3592.72
418.64	3726.13
418.83	3712.09
419.02	3623.15
419.21	3728.47
419.39	3581.02
419.58	3662.94
419.77	3620.81
419.96	3590.38
420.15	3730.81
420.34	3726.13
420.53	3847.84
420.72	3852.52
420.91	3861.88
421.10	3950.82
421.29	3901.67
421.48	3758.90
421.67	3847.84
421.86	3854.86
422.05	3843.16
422.24	3782.31
422.43	3845.50
422.61	3906.35
422.80	3925.08
422.99	4079.55
423.18	3840.82
423.37	3920.40
423.56	4074.87
423.75	3906.35
423.94	3866.56
424.13	3798.69
424.32	3810.39
424.50	3948.48
424.69	4182.54
424.88	4227.01
425.07	4018.70
425.26	3927.42
425.45	3904.01
425.64	3999.98
425.83	4049.13
426.01	4051.47
426.20	4063.17
426.39	4114.66
426.58	3999.98
426.77	4014.02
426.96	4138.07
427.15	4058.49
427.33	4168.49
427.52	4133.39
427.71	4196.58
427.90	4198.92
428.09	4306.59
428.28	4159.13
428.46	4170.83
428.65	4231.69
428.84	4280.84
429.03	4505.53
429.22	4063.17
429.40	4152.11
429.59	4156.79
429.78	4133.39
429.97	3901.67
430.16	4077.21
430.34	4133.39
430.53	4184.88
430.72	4245.73
430.91	4238.71
431.10	4491.49
431.28	4610.86
431.47	4620.22
431.66	4554.68
431.85	4624.90
432.03	4634.26
432.22	4660.01
432.41	4557.02
432.60	4610.86
432.79	4781.71
432.97	4821.50
433.16	4767.67
433.35	4643.62
433.54	4645.96
433.72	4533.62
433.91	4596.81
434.10	4840.23
434.28	4844.91
434.47	4957.25
434.66	4910.44
434.85	4924.49
435.03	4926.83
435.22	4980.66
435.41	5235.78
435.59	5137.48
435.78	5177.26
435.97	5071.94
436.16	5207.69
436.34	5163.22
436.53	5123.43
436.72	5252.16
436.90	5107.05
437.09	5303.65
437.28	5313.02
437.46	5233.44
437.65	5181.95
437.84	5254.50
438.02	5348.12
438.21	5256.84
438.40	5214.71
438.58	5294.29
438.77	5420.68
438.96	5518.98
439.14	5734.31
439.33	5692.18
439.52	5647.71
439.70	5823.25
439.89	5664.10
440.08	5846.66
440.26	5858.36
440.45	5860.70
440.63	6022.20
440.82	5977.73
441.01	5940.28
441.19	6078.37
441.38	6136.88
441.57	6216.46
441.75	6230.51
441.94	6272.64
442.12	6448.18
442.31	6300.72
442.50	6314.77
442.68	6361.58
442.87	6384.98
443.05	6377.96
443.24	6551.16
443.43	6558.18
443.61	6616.69
443.80	6672.87
443.98	6539.46
444.17	6265.61
444.35	6490.31
444.54	6635.42
444.73	6597.97
444.91	6537.12
445.10	6588.61
445.28	6473.92
445.47	6466.90
445.65	6490.31
445.84	6635.42
446.02	6567.54
446.21	6729.04
446.39	6583.93
446.58	6799.26
446.77	6707.98
446.95	6614.35
447.14	6707.98
447.32	6857.77
447.51	6696.27
447.69	6768.83
447.88	6808.62
448.06	6775.85
448.25	6843.73
448.43	6930.33
448.62	6740.74
448.80	6846.07
448.99	6862.45
449.17	6993.52
449.36	7054.37
449.54	7103.53
449.73	7070.76
449.91	7016.93
450.10	7297.79
450.28	7311.83
450.46	7148.00
450.65	7332.90
450.83	7276.73
451.02	7220.55
451.20	7529.50
451.39	7260.34
451.57	7293.11
451.76	7201.83
451.94	7187.79
452.13	7321.20
452.31	7447.58
452.49	7131.61
452.68	7110.55
452.86	7335.24
453.05	7496.74
453.23	7459.29
453.42	7311.83
453.60	7330.56
453.78	7700.36
453.97	7426.52
454.15	7503.76
454.34	7492.05
454.52	7562.27
454.70	7644.19
454.89	7728.45
455.07	7522.48
455.26	7630.15
455.44	7824.41
455.62	7707.38
455.81	7976.55
455.99	7974.21
456.17	7901.65
456.36	8025.70
456.54	7971.86
456.73	8278.47
456.91	8238.69
457.09	8400.18
457.28	8421.25
457.46	8212.94
457.64	8276.13
457.83	8084.21
458.01	8131.02
458.19	8549.98
458.38	8187.19
458.56	8360.39
458.74	8376.78
458.93	8444.65
459.11	8416.57
459.29	8287.84
459.48	8451.67
459.66	8662.32
459.84	8601.47
460.03	8690.41
460.21	8711.47
460.39	8599.13
460.57	8648.28
460.76	8716.16
460.94	8531.25
461.12	8795.73
461.31	8681.05
461.49	8809.78
461.67	8669.34
461.85	8987.66
462.04	9020.42
462.22	8985.32
462.40	9043.83
462.59	9013.40
462.77	8865.95
462.95	8987.66
463.13	8905.74
463.32	9095.32
463.50	9128.09
463.68	9074.26
463.86	9142.13
464.05	9029.79
464.23	9064.89
464.41	9137.45
464.59	8987.66
464.78	9366.82
464.96	9430.02
465.14	9123.41
465.32	9446.40
465.50	9376.19
465.69	9392.57
465.87	9329.38
466.05	9212.35
466.23	9287.25
466.41	9385.55
466.60	9418.32
466.78	9174.90
466.96	9425.34
467.14	9486.19
467.32	9324.69
467.51	9542.36
467.69	9343.42
467.87	9619.60
468.05	9820.89
468.23	9652.37
468.41	9401.93
468.60	9591.52
468.78	9645.35
468.96	9563.43
469.14	9870.04
469.32	9954.30
469.50	9610.24
469.69	9963.66
469.87	9998.77
470.05	9947.28
470.23	9895.78
470.41	10050.26
470.59	10225.80
470.77	9923.87
470.95	10057.28
471.14	10120.48
471.32	10019.83
471.50	10361.55
471.68	10497.30
471.86	10555.82
472.04	10340.49
472.22	10602.63
472.40	10490.28
472.58	10621.35
472.77	10909.24
472.95	10775.83
473.13	10956.05
473.31	10551.14
473.49	10874.13
473.67	10803.91
473.85	11049.67
474.03	11105.84
474.21	11131.59
474.39	11047.33
474.57	11239.25
474.75	11185.42
474.93	11541.18
475.12	11524.80
475.30	11487.35
475.48	11393.73
475.66	11571.61
475.84	11534.16
476.02	11459.26
476.20	11365.64
476.38	11756.51
476.56	11974.18
476.74	11885.24
476.92	11934.39
477.10	12147.38
477.28	12269.09
477.46	12184.83
477.64	12423.56
477.82	12407.18
478.00	12865.92
478.18	12695.07
478.36	12863.58
478.54	12868.27
478.72	12919.76
478.90	13149.13
479.08	13467.44
479.26	13081.25
479.44	13334.03
479.62	13664.05
479.80	13617.24
479.98	13582.13
480.16	13909.80
480.34	13715.54
480.52	14001.08
480.70	13809.16
480.88	13813.84
481.06	14068.96
481.24	14146.20
481.41	14586.22
481.59	14806.23
481.77	14621.33
481.95	14424.72
482.13	14799.21
482.31	14698.56
482.49	15049.64
482.67	15094.11
482.85	15117.52
483.03	15578.61
483.21	15559.88
483.39	15524.77
483.57	15592.65
483.74	15744.78
483.92	15737.76
484.10	15880.53
484.28	15995.22
484.46	16386.09
484.64	16697.38
484.82	16119.27
485.00	16259.70
485.18	16741.85
485.35	16690.36
485.53	16238.64
485.71	16451.63
485.89	16430.56
486.07	16819.09
486.25	16879.94
486.43	17334.01
486.61	17509.55
486.78	17645.30
486.96	17797.43
487.14	18059.57
487.32	18061.91
487.50	17965.95
487.68	18445.76
487.85	18609.60
488.03	18595.56
488.21	19002.81
488.39	18764.07
488.57	18864.72
488.75	19208.78
488.92	19269.63
489.10	19618.37
489.28	19899.23
489.46	19910.94
489.64	19803.27
489.81	20491.39
489.99	20842.47
490.17	20414.15
490.35	20723.10
490.53	20477.35
490.70	20903.32
490.88	20449.26
491.06	21245.04
491.24	20828.43
491.41	20968.86
491.59	21125.68
491.77	21013.33
491.95	21357.39
492.13	21479.10
492.30	21549.31
492.48	22176.58
492.66	22164.87
492.84	22050.19
493.01	22427.01
493.19	22389.56
493.37	22705.54
493.54	22469.14
493.72	22991.08
493.90	22979.38
494.08	23161.94
494.25	23431.10
494.43	23473.23
494.61	23536.43
494.79	23702.61
494.96	23665.16
495.14	23646.43
495.32	23955.38
495.49	24121.56
495.67	24407.11
495.85	24456.26
496.02	24971.18
496.20	24470.30
496.38	24905.64
496.55	25020.33
496.73	25565.67
496.91	25158.42
497.09	25432.26
497.26	25560.99
497.44	25474.39
497.62	25743.55
497.79	25748.23
497.97	25263.74
498.14	25965.90
498.32	26239.75
498.50	26029.10
498.67	26396.56
498.85	26548.70
499.03	26478.48
499.20	26581.46
499.38	26710.19
499.56	27000.42
499.73	26691.47
499.91	26546.36
500.08	26951.27
500.26	26927.86
500.44	26993.40
500.61	26981.70
500.79	26834.24
500.97	27269.58
501.14	27388.95
501.32	27943.66
501.49	27388.95
501.67	27475.55
501.84	27807.90
502.02	27957.70
502.20	28191.75
502.37	28573.26
502.55	28196.43
502.72	28662.20
502.90	28542.83
503.07	28411.76
503.25	28723.05
503.43	28304.10
503.60	28350.91
503.78	28629.43
503.95	28493.68
504.13	28444.53
504.30	29333.93
504.48	28985.19
504.65	29259.04
504.83	29387.77
505.01	29378.40
505.18	29469.69
505.36	29851.19
505.53	29699.06
505.71	30183.55
505.88	30235.04
506.06	30000.99
506.23	30555.69
506.41	29766.93
506.58	30026.73
506.76	30225.68
506.93	30572.08
507.11	30773.36
507.28	30424.62
507.46	30639.95
507.63	30785.07
507.81	30576.76
507.98	30658.68
508.16	30677.40
508.33	31175.94
508.50	31402.97
508.68	31157.21
508.85	31463.82
509.03	31625.32
509.20	31761.07
509.38	31372.54
509.55	31711.92
509.73	31868.73
509.90	31723.62
510.08	31599.57
510.25	31704.90
510.42	31765.75
510.60	32201.09
510.77	32081.72
510.95	32329.82
511.12	32285.35
511.30	32449.19
511.47	32783.88
511.64	32776.86
511.82	32842.40
511.99	32713.67
512.17	32938.36
512.34	32414.08
512.51	32634.09
512.69	33111.56
512.86	33373.70
513.04	33298.80
513.21	32999.21
513.38	33172.41
513.56	33195.82
513.73	33383.06
513.90	33422.85
514.08	33511.79
514.25	33553.92
514.43	33457.96
514.60	33710.74
514.77	34012.66
514.95	34040.75
515.12	33972.88
515.29	34192.89
515.47	34518.22
515.64	34520.56
515.81	34047.77
515.99	34291.19
516.16	34092.24
516.33	34260.76
516.51	34134.37
516.68	33535.20
516.85	33553.92
517.03	33872.23
517.20	34359.06
517.37	34646.95
517.54	34895.05
517.72	34785.04
517.89	34583.76
518.06	34433.96
518.24	34696.10
518.41	34429.28
518.58	35328.05
518.75	34986.33
518.93	35037.82
519.10	34829.51
519.27	35667.42
519.45	35679.13
519.62	35838.28
519.79	35793.81
519.96	35758.70
520.14	35915.52
520.31	35735.30
520.48	35585.50
520.65	35782.11
520.83	36430.44
521.00	36444.48
521.17	36411.71
521.34	36762.79
521.52	36669.17
521.69	36723.01
521.86	36570.87
522.03	36613.00
522.20	36388.31
522.38	37053.02
522.55	36863.44
522.72	36697.26
522.89	36664.49
523.07	36870.46
523.24	37069.40
523.41	37268.35
523.58	37137.28
523.75	37996.26
523.92	37434.53
524.10	37633.47
524.27	37706.03
524.44	37890.93
524.61	37820.72
524.78	37862.85
524.96	37724.75
525.13	38246.69
525.30	38293.50
525.47	38073.49
525.64	38188.18
525.81	38087.54
525.98	37556.24
526.16	37731.78
526.33	37521.13
526.50	38057.11
526.67	37230.90
526.84	37591.34
527.01	37951.79
527.18	38511.17
527.36	38387.13
527.53	38646.93
527.70	39276.53
527.87	38820.13
528.04	38827.15
528.21	39000.35
528.38	39105.67
528.55	39335.04
528.72	39077.58
528.89	39704.85
529.07	39133.76
529.24	38878.64
529.41	39185.25
529.58	39512.92
529.75	39449.73
529.92	39812.51
530.09	39821.87
530.26	39470.79
530.43	39856.98
530.60	39388.88
530.77	39557.39
530.94	40259.55
531.11	39749.32
531.28	39611.23
531.46	40121.46
531.63	39861.66
531.80	40322.75
531.97	39966.99
532.14	39529.31
532.31	39728.25
532.48	40102.74
532.65	40512.33
532.82	39768.04
532.99	40399.99
533.16	40364.88
533.33	40664.47
533.50	40378.92
533.67	40453.82
533.84	40545.10
534.01	40362.54
534.18	40549.78
534.35	40837.67
534.52	40275.94
534.69	41118.53
534.86	40769.79
535.03	40863.41
535.20	41273.01
535.37	41628.77
535.54	41221.52
535.71	41102.15
535.88	41418.12
536.05	41125.55
536.22	40795.54
536.38	40992.14
536.55	41242.58
536.72	41214.49
536.89	41247.26
537.06	41663.88
537.23	41509.40
537.40	41497.70
537.57	41579.62
537.74	41289.39
537.91	41851.12
538.08	41722.39
538.25	41537.49
538.42	41727.07
538.59	42047.72
538.75	41759.84
538.92	41970.49
539.09	41703.67
539.26	41986.87
539.43	41691.96
539.60	41918.99
539.77	42115.60
539.94	42256.03
540.11	41834.74
540.28	41504.72
540.44	41944.74
540.61	42029.00
540.78	42176.45
540.95	42094.53
541.12	41968.15
541.29	42134.32
541.46	42141.35
541.62	42349.65
541.79	42822.44
541.96	41766.86
542.13	42469.02
542.30	42628.18
542.47	42618.81
542.63	42567.32
542.80	42480.72
542.97	42876.27
543.14	43328.00
543.31	43084.58
543.48	43030.75
543.64	43253.10
543.81	43026.07
543.98	43288.21
544.15	43110.33
544.32	43466.09
544.48	43913.13
544.65	43285.87
544.82	43342.04
544.99	43440.34
545.16	43412.26
545.32	43112.67
545.49	43569.07
545.66	43629.93
545.83	43650.99
546.00	43681.42
546.16	43941.22
546.33	43540.99
546.50	43117.35
546.67	43653.33
546.83	43634.61
547.00	43819.51
547.17	43697.80
547.34	43800.79
547.50	43653.33
547.67	43948.24
547.84	44231.44
548.00	44369.54
548.17	44198.68
548.34	44268.89
548.51	44378.90
548.67	44198.68
548.84	44126.12
549.01	44177.61
549.18	43786.74
549.34	44179.95
549.51	44610.61
549.68	44425.71
549.84	44421.03
550.01	44179.95
550.18	44194.00
550.34	44397.62
550.51	44362.51
550.68	44687.85
550.84	44311.02
551.01	44524.01
551.18	44456.14
551.34	44673.81
551.51	44493.58
551.68	44678.49
551.84	44727.64
552.01	44554.44
552.18	44666.78
552.34	44594.23
552.51	44949.99
552.68	45282.34
552.84	45034.25
553.01	44542.74
553.18	45153.62
553.34	44760.40
553.51	44758.06
553.67	44715.93
553.84	45455.54
554.01	45514.06
554.17	45223.83
554.34	45408.73
554.51	45235.53
554.67	45490.65
554.84	45413.41
555.00	45350.22
555.17	44821.26
555.33	45240.21
555.50	45200.43
555.67	45148.93
555.83	44952.33
556.00	45165.32
556.16	45167.66
556.33	45062.33
556.50	45244.90
556.66	45504.70
556.83	44964.03
556.99	45507.04
557.16	45743.43
557.32	45811.31
557.49	45858.12
557.65	45134.89
557.82	45200.43
557.98	45825.35
558.15	45457.88
558.32	46087.49
558.48	45535.12
558.65	45434.48
558.81	45200.43
558.98	45467.25
559.14	45516.40
559.31	45532.78
559.47	45748.11
559.64	45443.84
559.80	45013.18
559.97	45965.78
560.13	45291.71
560.30	45535.12
560.46	45607.68
560.63	45762.15
560.79	46153.02
560.96	46225.58
561.12	45989.19
561.29	45757.47
561.45	45731.73
561.61	45900.25
561.78	46043.02
561.94	45801.94
562.11	45584.27
562.27	45738.75
562.44	45881.52
562.60	46370.69
562.77	46108.55
562.93	45528.10
563.10	46234.94
563.26	45731.73
563.42	46480.70
563.59	46099.19
563.75	45457.88
563.92	46227.92
564.08	46120.26
564.24	46155.36
564.41	45928.33
564.57	45949.40
564.74	45970.46
564.90	46169.41
565.07	46003.23
565.23	46000.89
565.39	46047.70
565.56	46183.45
565.72	45404.05
565.88	45815.99
566.05	46094.51
566.21	45958.76
566.38	46281.75
566.54	46328.56
566.70	46705.39
566.87	46492.40
567.03	46113.23
567.19	46735.82
567.36	46197.49
567.52	45961.10
567.68	46548.57
567.85	46410.48
568.01	46639.86
568.17	46045.36
568.34	46501.76
568.50	46199.83
568.66	46253.67
568.83	46405.80
568.99	46005.57
569.15	46148.34
569.32	46082.81
569.48	46199.83
569.64	46003.23
569.81	46539.21
569.97	46438.57
570.13	46270.05
570.30	45893.22
570.46	46167.07
570.62	46000.89
570.78	46199.83
570.95	45787.90
571.11	46593.04
571.27	46181.11
571.43	46295.80
571.60	46267.71
571.76	46183.45
571.92	45991.53
572.09	46232.60
572.25	46382.40
572.41	46370.69
572.57	46382.40
572.74	46658.58
572.90	46567.30
573.06	46583.68
573.22	46419.84
573.38	46366.01
573.55	46246.65
573.71	46490.06
573.87	46562.62
574.03	46122.60
574.20	46721.77
574.36	46192.81
574.52	46529.85
574.68	46628.15
574.84	46567.30
575.01	46340.27
575.17	46499.42
575.33	46305.16
575.49	46288.77
575.65	46550.91
575.82	46667.94
575.98	45848.75
576.14	46696.03
576.30	46574.32
576.46	46721.77
576.62	46424.53
576.79	46426.87
576.95	46075.79
577.11	46777.95
577.27	46714.75
577.43	46719.43
577.59	46050.04
577.75	46380.06
577.92	46307.50
578.08	46138.98
578.24	46195.15
578.40	46094.51
578.56	46415.16
578.72	46059.40
578.88	46632.83
579.04	46759.22
579.21	46293.46
579.37	46216.22
579.53	46457.29
579.69	46412.82
579.85	46445.59
580.01	46642.20
580.17	46492.40
580.33	46323.88
580.49	46780.29
580.65	46447.93
580.82	46302.82
580.98	46403.46
581.14	46480.70
581.30	46775.61
581.46	46660.92
581.62	46700.71
581.78	46501.76
581.94	46775.61
582.10	46328.56
582.26	46976.89
582.42	46532.19
582.58	46873.91
582.74	46251.33
582.90	46459.63
583.06	46660.92
583.22	46761.56
583.38	46974.55
583.54	46557.94
583.70	46602.41
583.86	46747.52
584.02	46429.21
584.18	46543.89
584.34	46454.95
584.50	46674.96
584.66	46267.71
584.82	46635.17
584.98	46651.56
585.14	46946.47
585.30	46543.89
585.46	46155.36
585.62	46499.42
585.78	46712.41
585.94	45965.78
586.10	46438.57
586.26	46560.28
586.42	46637.51
586.58	46628.15
586.74	46724.11
586.90	46396.44
587.06	46609.43
587.22	46555.60
587.38	46618.79
587.54	46923.06
587.70	46450.27
587.86	46789.65
588.02	46759.22
588.18	46621.13
588.34	46174.09
588.49	46394.10
588.65	45841.73
588.81	45940.04
588.97	46237.28
589.13	46000.89
589.29	46658.58
589.45	46522.83
589.61	46419.84
589.77	46871.57
589.93	46272.39
