SpectraSuite Data File
++++++++++++++++++++++++++++++++++++
Date: Fri Oct 25 11:22:32 EDT 2013
User: price-jones
Dark Spectrum Present: No
Reference Spectrum Present: No
Number of Sampled Component Spectra: 1
Spectrometers: USB2+H05261
Integration Time (usec): 100000 (USB2+H05261)
Spectra Averaged: 1 (USB2+H05261)
Boxcar Smoothing: 0 (USB2+H05261)
Correct for Electrical Dark: No (USB2+H05261)
Strobe/Lamp Enabled: No (USB2+H05261)
Correct for Detector Non-linearity: No (USB2+H05261)
Correct for Stray Light: No (USB2+H05261)
Number of Pixels in Processed Spectrum: 2048
>>>>>Begin Processed Spectral Data<<<<<
365.73	283.20
365.92	283.20
366.12	283.20
366.32	88.94
366.52	91.28
366.72	156.82
366.91	124.05
367.11	93.62
367.31	135.75
367.51	145.11
367.70	107.66
367.90	180.22
368.10	98.30
368.30	95.96
368.49	152.13
368.69	112.35
368.89	105.32
369.09	189.58
369.28	147.45
369.48	182.56
369.68	187.24
369.87	161.50
370.07	142.77
370.27	201.29
370.47	299.59
370.66	559.39
370.86	650.67
371.06	655.35
371.25	760.67
371.45	685.78
371.65	669.39
371.84	674.07
372.04	585.13
372.24	669.39
372.44	695.14
372.63	660.03
372.83	774.72
373.03	702.16
373.22	676.41
373.42	730.25
373.62	774.72
373.81	814.51
374.01	837.91
374.21	788.76
374.40	847.27
374.60	880.04
374.79	763.01
374.99	856.64
375.19	755.99
375.38	837.91
375.58	791.10
375.78	903.45
375.97	936.21
376.17	903.45
376.37	835.57
376.56	931.53
376.76	816.85
376.95	854.30
377.15	990.05
377.35	919.83
377.54	889.40
377.74	809.83
377.93	910.47
378.13	957.28
378.33	997.07
378.52	903.45
378.72	943.24
378.91	889.40
379.11	985.37
379.31	964.30
379.50	922.17
379.70	849.61
379.89	976.00
380.09	964.30
380.28	924.51
380.48	945.58
380.68	1020.47
380.87	966.64
381.07	1036.86
381.26	990.05
381.46	1022.81
381.65	997.07
381.85	1001.75
382.04	1097.71
382.24	999.41
382.43	1029.84
382.63	1057.92
382.83	1062.60
383.02	1121.12
383.22	1149.20
383.41	1100.05
383.61	1102.39
383.80	1146.86
384.00	1109.41
384.19	1135.16
384.39	1200.69
384.58	1121.12
384.78	1144.52
384.97	1100.05
385.17	1121.12
385.36	1214.74
385.56	1142.18
385.75	1158.57
385.95	1158.57
386.14	1252.19
386.34	1174.95
386.53	1238.14
386.72	1158.57
386.92	1287.29
387.11	1184.31
387.31	1282.61
387.50	1254.53
387.70	1284.95
387.89	1343.47
388.09	1284.95
388.28	1268.57
388.48	1303.68
388.67	1338.79
388.86	1364.53
389.06	1247.51
389.25	1362.19
389.45	1390.28
389.64	1320.06
389.84	1392.62
390.03	1348.15
390.22	1394.96
390.42	1299.00
390.61	1479.22
390.81	1399.64
391.00	1427.73
391.19	1453.47
391.39	1519.01
391.58	1432.41
391.78	1465.18
391.97	1544.75
392.16	1432.41
392.36	1493.26
392.55	1483.90
392.75	1540.07
392.94	1488.58
393.13	1533.05
393.33	1521.35
393.52	1427.73
393.71	1556.46
393.91	1565.82
394.10	1540.07
394.29	1673.48
394.49	1612.63
394.68	1729.66
394.88	1631.35
395.07	1724.97
395.26	1720.29
395.46	1626.67
395.65	1713.27
395.84	1687.53
396.04	1699.23
396.23	1753.06
396.42	1781.15
396.62	1816.26
396.81	1687.53
397.00	1837.32
397.19	1844.34
397.39	1844.34
397.58	1823.28
397.77	1811.57
397.97	1825.62
398.16	1947.33
398.35	1863.07
398.55	1947.33
398.74	1923.92
398.93	1980.09
399.12	1952.01
399.32	1877.11
399.51	1991.80
399.70	2003.50
399.90	1996.48
400.09	1994.14
400.28	2052.65
400.47	2038.61
400.67	2155.63
400.86	2045.63
401.05	2047.97
401.24	2132.23
401.44	2122.87
401.63	2179.04
401.82	2225.85
402.01	2139.25
402.21	2125.21
402.40	2204.78
402.59	2286.70
402.78	2260.96
402.97	2331.17
403.17	2291.38
403.36	2272.66
403.55	2338.20
403.74	2298.41
403.93	2394.37
404.13	2434.16
404.32	2424.80
404.51	2424.80
404.70	2520.76
404.89	2399.05
405.09	2480.97
405.28	2558.21
405.47	2530.12
405.66	2502.03
405.85	2506.71
406.05	2462.24
406.24	2534.80
406.43	2590.97
406.62	2614.38
406.81	2651.83
407.00	2597.99
407.20	2597.99
407.39	2595.65
407.58	2768.85
407.77	2792.26
407.96	2759.49
408.15	2724.38
408.34	2766.51
408.54	2895.24
408.73	2782.90
408.92	2686.94
409.11	2991.20
409.30	2878.86
409.49	3049.72
409.68	3014.61
409.87	2951.42
410.07	3023.97
410.26	2958.44
410.45	3014.61
410.64	3098.87
410.83	3077.80
411.02	3152.70
411.21	3150.36
411.40	3227.60
411.59	3304.84
411.78	3190.15
411.98	3279.09
412.17	3227.60
412.36	3372.71
412.55	3316.54
412.74	3400.80
412.93	3316.54
413.12	3370.37
413.31	3564.64
413.50	3527.19
413.69	3569.32
413.88	3632.51
414.07	3508.46
414.26	3557.61
414.45	3749.54
414.64	3763.58
414.83	3850.18
415.02	3992.95
415.22	3995.29
415.41	3875.93
415.60	3946.14
415.79	3969.55
415.98	3887.63
416.17	3906.35
416.36	3936.78
416.55	4091.26
416.74	4229.35
416.93	4128.70
417.12	4236.37
417.31	4100.62
417.50	4234.03
417.69	4341.69
417.88	4313.61
418.07	4381.48
418.26	4283.18
418.45	4353.40
418.64	4552.34
418.83	4341.69
419.02	4409.57
419.21	4461.06
419.39	4638.94
419.58	4505.53
419.77	4531.28
419.96	4503.19
420.15	4585.11
420.34	4601.49
420.53	4580.43
420.72	4746.61
420.91	4681.07
421.10	4751.29
421.29	4880.02
421.48	4800.44
421.67	4856.61
421.86	4910.44
422.05	5055.56
422.24	4894.06
422.43	4823.84
422.61	4931.51
422.80	4990.02
422.99	4901.08
423.18	5050.88
423.37	5083.64
423.56	5018.11
423.75	5011.09
423.94	4926.83
424.13	4557.02
424.32	4741.93
424.50	5076.62
424.69	5219.39
424.88	5090.67
425.07	5004.07
425.26	4884.70
425.45	5160.88
425.64	5046.20
425.83	4961.94
426.01	5174.92
426.20	5029.81
426.39	5083.64
426.58	5090.67
426.77	5095.35
426.96	5156.20
427.15	5158.54
427.33	5242.80
427.52	5142.16
427.71	5275.57
427.90	5280.25
428.09	5345.78
428.28	5568.13
428.46	5490.90
428.65	5462.81
428.84	5570.48
429.03	5526.00
429.22	5511.96
429.40	5563.45
429.59	5675.80
429.78	5364.51
429.97	5408.98
430.16	5678.14
430.34	5834.96
430.53	5703.89
430.72	5837.30
430.91	5647.71
431.10	5633.67
431.28	5746.02
431.47	5856.02
431.66	5902.83
431.85	5769.42
432.03	5867.72
432.22	6183.70
432.41	6010.50
432.60	5973.05
432.79	5944.96
432.97	6197.74
433.16	6078.37
433.35	6038.58
433.54	6289.02
433.72	6310.08
433.91	6251.57
434.10	6230.51
434.28	6279.66
434.47	6305.40
434.66	6338.17
434.85	6218.80
435.03	6307.74
435.22	6340.51
435.41	6499.67
435.59	6534.78
435.78	6633.08
435.97	6628.40
436.16	6502.01
436.34	6335.83
436.53	6567.54
436.72	6806.28
436.90	6511.37
437.09	6502.01
437.28	6583.93
437.46	6665.85
437.65	6855.43
437.84	6768.83
438.02	6825.00
438.21	7037.99
438.40	6991.18
438.58	6932.67
438.77	7220.55
438.96	7077.78
439.14	7283.75
439.33	7091.82
439.52	7332.90
439.70	7255.66
439.89	7339.92
440.08	7637.17
440.26	7389.07
440.45	7559.93
440.63	7597.38
440.82	7714.41
441.01	7676.96
441.19	7808.03
441.38	7925.05
441.57	7882.92
441.75	7770.58
441.94	7934.42
442.12	8098.25
442.31	8166.13
442.50	8028.04
442.68	8152.09
442.87	8142.72
443.05	8154.43
443.24	8322.94
443.43	8273.79
443.61	8325.29
443.80	8439.97
443.98	8243.37
444.17	7971.86
444.35	8353.37
444.54	8421.25
444.73	8442.31
444.91	8496.14
445.10	8486.78
445.28	8486.78
445.47	8311.24
445.65	8444.65
445.84	8355.71
446.02	8669.34
446.21	8533.59
446.39	8519.55
446.58	8517.21
446.77	8542.96
446.95	8456.36
447.14	8491.46
447.32	8641.26
447.51	8552.32
447.69	8617.85
447.88	8549.98
448.06	8798.07
448.25	8439.97
448.43	8580.40
448.62	8695.09
448.80	8683.39
448.99	8723.18
449.17	8704.45
449.36	8837.86
449.54	9076.60
449.73	9273.20
449.91	9053.19
450.10	9067.24
450.28	9027.45
450.46	9179.58
450.65	9029.79
450.83	9266.18
451.02	9153.84
451.20	9174.90
451.39	9102.34
451.57	9188.94
451.76	9392.57
451.94	9195.96
452.13	9563.43
452.31	9446.40
452.49	9315.33
452.68	9657.05
452.86	9525.98
453.05	9554.07
453.23	9533.00
453.42	9530.66
453.60	9563.43
453.78	9640.67
453.97	9638.33
454.15	9701.52
454.34	9607.90
454.52	9823.23
454.70	9778.76
454.89	9884.08
455.07	9806.84
455.26	9841.95
455.44	10127.50
455.62	10209.42
455.81	10125.16
455.99	10207.08
456.17	10253.89
456.36	10342.83
456.54	10260.91
456.73	10452.83
456.91	10677.52
457.09	10759.44
457.28	10745.40
457.46	10464.54
457.64	10572.20
457.83	10583.90
458.01	10551.14
458.19	10949.03
458.38	10864.77
458.56	10754.76
458.74	10773.49
458.93	10862.43
459.11	11063.71
459.29	10951.37
459.48	10780.51
459.66	10813.28
459.84	11077.76
460.03	11243.93
460.21	11178.40
460.39	11171.38
460.57	11225.21
460.76	11124.57
460.94	11363.30
461.12	11421.81
461.31	11494.37
461.49	11337.56
461.67	11372.66
461.85	11620.76
462.04	11400.75
462.22	11838.43
462.40	11894.60
462.59	11747.15
462.77	11477.99
462.95	11756.51
463.13	11651.19
463.32	11772.89
463.50	12128.66
463.68	11845.45
463.86	11857.15
464.05	11868.86
464.23	11726.08
464.41	12243.34
464.59	11999.93
464.78	12280.79
464.96	12098.23
465.14	12105.25
465.32	12255.04
465.50	12369.73
465.69	12166.10
465.87	12271.43
466.05	12535.91
466.23	12430.59
466.41	12343.99
466.60	12753.58
466.78	12308.88
466.96	12596.76
467.14	12507.82
467.32	12737.20
467.51	12568.68
467.69	12128.66
467.87	12585.06
468.05	12847.20
468.23	12519.53
468.41	12894.01
468.60	12828.48
468.78	12933.80
468.96	12706.77
469.14	13137.43
469.32	13231.05
469.50	12599.10
469.69	13202.96
469.87	13235.73
470.05	13350.42
470.23	13296.58
470.41	13193.60
470.59	13582.13
470.77	13357.44
470.95	13612.56
471.14	13823.20
471.32	13352.76
471.50	13647.66
471.68	13750.65
471.86	13722.56
472.04	13947.25
472.22	14068.96
472.40	13816.18
472.58	13790.44
472.77	14293.65
472.95	14469.19
473.13	14670.48
473.31	14258.54
473.49	14476.21
473.67	14216.41
473.85	14427.06
474.03	14822.61
474.21	14682.18
474.39	15054.33
474.57	15126.88
474.75	15042.62
474.93	15211.14
475.12	15330.51
475.30	15424.13
475.48	15417.11
475.66	15382.00
475.84	15126.88
476.02	15513.07
476.20	15548.18
476.38	16123.95
476.56	15953.09
476.74	16255.02
476.92	16009.26
477.10	15943.73
477.28	16554.61
477.46	16638.87
477.64	16620.14
477.82	16758.24
478.00	17170.17
478.18	16886.97
478.36	17214.64
478.54	17383.16
478.72	17647.64
478.90	17724.88
479.08	17582.10
479.26	18026.81
479.44	17984.68
479.62	18242.14
479.80	18471.51
479.98	18677.48
480.16	18967.70
480.34	18597.90
480.52	18874.08
480.70	18817.91
480.88	18843.65
481.06	18906.85
481.24	19180.69
481.41	19168.99
481.59	19609.01
481.77	19370.27
481.95	20201.16
482.13	20212.87
482.31	20081.80
482.49	20339.26
482.67	20264.36
482.85	20589.69
483.03	20744.17
483.21	21074.18
483.39	21415.90
483.57	21366.75
483.74	21366.75
483.92	21671.02
484.10	21820.81
484.28	21865.28
484.46	22427.01
484.64	22485.53
484.82	22363.82
485.00	22703.20
485.18	23105.77
485.35	23030.87
485.53	23091.73
485.71	23396.00
485.89	24320.51
486.07	23482.59
486.25	23700.26
486.43	24102.84
486.61	24081.77
486.78	24182.42
486.96	24482.00
487.14	25041.39
487.32	24767.55
487.50	25303.53
487.68	25223.95
487.85	25575.03
488.03	25942.50
488.21	26024.42
488.39	26199.96
488.57	26661.04
488.75	26682.11
488.92	26644.66
489.10	27566.83
489.28	27075.32
489.46	27833.65
489.64	27412.35
489.81	27957.70
489.99	28114.52
490.17	28425.81
490.35	28376.66
490.53	28692.63
490.70	28706.67
490.88	28739.44
491.06	29078.82
491.24	29116.26
491.41	29366.70
491.59	29586.71
491.77	29888.64
491.95	29703.74
492.13	30216.32
492.30	30309.94
492.48	30522.93
492.66	30572.08
492.84	31009.76
493.01	31255.51
493.19	30925.50
493.37	31028.48
493.54	31543.40
493.72	31887.46
493.90	31992.78
494.08	32301.73
494.25	32713.67
494.43	32481.95
494.61	32699.62
494.79	32952.40
494.96	32893.89
495.14	33141.99
495.32	33544.56
495.49	34160.12
495.67	33837.12
495.85	33928.41
496.02	34668.02
496.20	34291.19
496.38	34366.09
496.55	34707.80
496.73	35262.51
496.91	35089.31
497.09	35360.81
497.26	35309.32
497.44	35281.24
497.62	35854.67
497.79	36322.77
497.97	35915.52
498.14	36229.15
498.32	36456.18
498.50	36627.04
498.67	36851.73
498.85	37247.29
499.03	37684.97
499.20	37579.64
499.38	37200.47
499.56	37181.75
499.73	37699.01
499.91	37778.59
500.08	38127.33
500.26	37888.59
500.44	37965.83
500.61	38340.32
500.79	38349.68
500.97	38740.55
501.14	39225.04
501.32	39409.94
501.49	39021.41
501.67	39548.03
501.84	39250.78
502.02	39693.15
502.20	39543.35
502.37	40079.33
502.55	39737.62
502.72	40254.87
502.90	40149.55
503.07	40048.91
503.25	40715.96
503.43	40107.42
503.60	40767.45
503.78	40804.90
503.95	40858.73
504.13	40811.92
504.30	41048.32
504.48	41186.41
504.65	41326.84
504.83	41610.04
505.01	41558.55
505.18	41991.55
505.36	42328.59
505.53	41535.15
505.71	42382.42
505.88	42321.57
506.06	41902.61
506.23	42527.53
506.41	42356.67
506.58	42784.99
506.76	42979.26
506.93	43105.65
507.11	43049.47
507.28	43061.18
507.46	43159.48
507.63	43358.42
507.81	43938.88
507.98	43562.05
508.16	43679.08
508.33	43990.37
508.50	43803.13
508.68	44514.65
508.85	44275.91
509.03	44643.38
509.20	44825.94
509.38	44631.68
509.55	45024.89
509.73	45394.69
509.90	45167.66
510.08	45085.74
510.25	44985.10
510.42	45216.81
510.60	45565.55
510.77	45329.16
510.95	45916.63
511.12	45532.78
511.30	45715.34
511.47	45794.92
511.64	46167.07
511.82	46461.97
511.99	46363.67
512.17	46358.99
512.34	46728.80
512.51	46953.49
512.69	46913.70
512.86	46717.09
513.04	47040.09
513.21	47299.89
513.38	47786.72
513.56	47412.23
513.73	47129.03
513.90	47608.84
514.08	47351.38
514.25	47969.28
514.43	47831.19
514.60	48011.41
514.77	47796.08
514.95	48402.28
515.12	47910.77
515.29	47903.74
515.47	48516.96
515.64	48577.82
515.81	48793.15
515.99	48732.29
516.16	49200.40
516.33	48942.94
516.51	48917.20
516.68	49081.03
516.85	49382.96
517.03	49457.86
517.20	49315.09
517.37	49104.44
517.54	49233.17
517.72	49460.20
517.89	49408.71
518.06	49815.96
518.24	49769.15
518.41	49556.16
518.58	49797.24
518.75	49696.59
518.93	49712.98
519.10	50033.63
519.27	50447.91
519.45	50433.86
519.62	50492.38
519.79	50227.90
519.96	50405.78
520.14	50616.43
520.31	50429.18
520.48	50787.28
520.65	50562.59
520.83	51037.72
521.00	51529.23
521.17	51241.35
521.34	51121.98
521.52	51033.04
521.69	51374.76
521.86	51849.89
522.03	51477.74
522.20	51910.74
522.38	51608.81
522.55	51791.37
522.72	51625.20
522.89	51838.18
523.07	52317.99
523.24	51847.55
523.41	52027.77
523.58	51985.64
523.75	52282.89
523.92	52332.04
524.10	52442.04
524.27	52313.31
524.44	52683.12
524.61	52390.55
524.78	52493.54
524.96	52626.95
525.13	52781.42
525.30	52853.98
525.47	53003.77
525.64	52739.29
525.81	53216.76
525.98	53132.50
526.16	53172.29
526.33	53247.19
526.50	53455.50
526.67	53113.78
526.84	53446.13
527.01	53275.27
527.18	53228.46
527.36	53450.81
527.53	53581.88
527.70	53783.17
527.87	53624.01
528.04	53705.93
528.21	53502.31
528.38	53460.18
528.55	54089.78
528.72	53570.18
528.89	53668.48
529.07	53698.91
529.24	53881.47
529.41	54347.24
529.58	54185.74
529.75	54122.55
529.92	54370.64
530.09	54248.94
530.26	54333.20
530.43	54382.35
530.60	54152.97
530.77	54110.85
530.94	54733.43
531.11	54457.24
531.28	54803.64
531.46	54597.68
531.63	54632.78
531.80	54635.13
531.97	54789.60
532.14	55040.04
532.31	54955.78
532.48	54628.10
532.65	54918.33
532.82	55112.59
532.99	55035.36
533.16	55079.83
533.33	55208.56
533.50	55166.43
533.67	55325.58
533.84	55107.91
534.01	55704.75
534.18	55281.11
534.35	55777.31
534.52	55398.14
534.69	55669.64
534.86	55828.80
535.03	55569.00
535.20	55739.86
535.37	55777.31
535.54	55723.47
535.71	55613.47
535.88	55789.01
536.05	55664.96
536.22	55796.03
536.38	55957.53
536.55	55894.33
536.72	56016.04
536.89	55922.42
537.06	56004.34
537.23	56027.74
537.40	56067.53
537.57	56257.12
537.74	56193.92
537.91	56435.00
538.08	56247.75
538.25	56191.58
538.42	56203.28
538.59	56563.73
538.75	56252.44
538.92	56200.94
539.09	56591.81
539.26	56498.19
539.43	56535.64
539.60	56573.09
539.77	56570.75
539.94	56825.87
540.11	56486.49
540.28	56760.33
540.44	56743.95
540.61	56669.05
540.78	56952.26
540.95	56779.06
541.12	56783.74
541.29	56802.46
541.46	56952.26
541.62	56978.00
541.79	57088.01
541.96	56734.59
542.13	56917.15
542.30	56910.13
542.47	57160.56
542.63	57088.01
542.80	57001.41
542.97	57448.45
543.14	57668.46
543.31	57478.88
543.48	57614.63
543.64	57743.36
543.81	57602.92
543.98	57701.23
544.15	57719.95
544.32	57712.93
544.48	57851.02
544.65	57558.45
544.82	57963.37
544.99	57623.99
545.16	57748.04
545.32	57801.87
545.49	57977.41
545.66	58087.42
545.83	58281.68
546.00	58054.65
546.16	58040.60
546.33	57701.23
546.50	57883.79
546.67	58000.82
546.83	57745.70
547.00	58122.52
547.17	58012.52
547.34	57991.45
547.50	58099.12
547.67	58396.37
547.84	58122.52
548.00	58333.17
548.17	58670.21
548.34	58284.02
548.51	58480.63
548.67	58590.63
548.84	58567.23
549.01	58384.66
549.18	58534.46
549.34	58564.88
549.51	58677.23
549.68	58674.89
549.84	58553.18
550.01	58667.87
550.18	58782.55
550.34	58663.19
550.51	58880.86
550.68	58845.75
550.84	58628.08
551.01	58843.41
551.18	58801.28
551.34	58571.91
551.51	58820.00
551.68	58705.32
551.84	58988.52
552.01	58822.34
552.18	59023.63
552.34	58581.27
552.51	58993.20
552.68	58951.07
552.84	59077.46
553.01	59110.23
553.18	59168.74
553.34	59311.52
553.51	58958.09
553.67	59051.72
553.84	59302.15
554.01	59243.64
554.17	59447.27
554.34	59180.45
554.51	59379.39
554.67	59568.97
554.84	59222.58
555.00	59360.67
555.17	59428.54
555.33	59152.36
555.50	59178.10
555.67	59522.16
555.83	59306.83
556.00	59433.22
556.16	59756.22
556.33	59657.91
556.50	59505.78
556.66	59784.30
556.83	59487.06
556.99	59800.69
557.16	59681.32
557.32	59896.65
557.49	59819.41
557.65	59599.40
557.82	59625.15
557.98	59587.70
558.15	59781.96
558.32	59756.22
558.48	59891.97
558.65	59627.49
558.81	59884.95
558.98	60037.08
559.14	59924.74
559.31	59873.24
559.47	59803.03
559.64	60001.97
559.80	60058.15
559.97	59887.29
560.13	60090.91
560.30	59931.76
560.46	60055.81
560.63	60147.09
560.79	59999.63
560.96	60207.94
561.12	60009.00
561.29	60126.02
561.45	60238.37
561.61	60168.15
561.78	60292.20
561.94	60243.05
562.11	60233.69
562.27	60079.21
562.44	60289.86
562.60	60477.10
562.77	60280.50
562.93	60044.10
563.10	60364.76
563.26	60170.49
563.42	60575.40
563.59	60289.86
563.75	60317.95
563.92	60315.61
564.08	60179.85
564.24	60357.74
564.41	60374.12
564.57	60409.23
564.74	60509.87
564.90	60587.11
565.07	60434.97
565.23	60519.23
565.39	60360.08
565.56	60500.51
565.72	60561.36
565.88	60453.70
566.05	60353.05
566.21	60701.79
566.38	60664.35
566.54	60547.32
566.70	60748.60
566.87	60736.90
567.03	60465.40
567.19	61017.77
567.36	60594.13
567.52	60514.55
567.68	60734.56
567.85	60856.27
568.01	60566.04
568.17	60715.84
568.34	60809.46
568.50	60463.06
568.66	60598.81
568.83	60870.31
568.99	60762.65
569.15	60556.68
569.32	60739.24
569.48	60708.82
569.64	60870.31
569.81	60884.36
569.97	60776.69
570.13	60657.32
570.30	60662.00
570.46	60809.46
570.62	60924.14
570.78	60690.09
570.95	60839.89
571.11	60790.73
571.27	60673.71
571.43	60807.12
571.60	60982.66
571.76	61006.06
571.92	60802.44
572.09	60828.18
572.25	60884.36
572.41	60931.17
572.57	60851.59
572.74	61223.73
572.90	61102.03
573.06	60987.34
573.22	60933.51
573.38	61137.13
573.55	60900.74
573.71	61193.31
573.87	61087.98
574.03	60769.67
574.20	60968.61
574.36	60858.61
574.52	60889.04
574.68	61099.68
574.84	61083.30
575.01	61097.34
575.17	61202.67
575.33	61242.46
575.49	60814.14
575.65	61099.68
575.82	61212.03
575.98	61148.84
576.14	61242.46
576.30	61066.92
576.46	60940.53
576.62	61078.62
576.79	61113.73
576.95	60928.83
577.11	61066.92
577.27	61057.56
577.43	61120.75
577.59	60963.93
577.75	60954.57
577.92	61038.83
578.08	61148.84
578.24	61244.80
578.40	61102.03
578.56	61272.88
578.72	60968.61
578.88	61413.32
579.04	61155.86
579.21	61045.85
579.37	61319.70
579.53	61324.38
579.69	61055.21
579.85	61146.50
580.01	61284.59
580.17	61118.41
580.33	61329.06
580.49	61427.36
580.65	61249.48
580.82	61263.52
580.98	61221.39
581.14	61064.58
581.30	61179.26
581.46	61141.81
581.62	61235.44
581.78	61296.29
581.94	61291.61
582.10	61153.52
582.26	61165.22
582.42	61197.99
582.58	61237.78
582.74	61265.86
582.90	61064.58
583.06	61345.44
583.22	61146.50
583.38	61345.44
583.54	61366.51
583.70	61235.44
583.86	61319.70
584.02	61200.33
584.18	61396.93
584.34	61329.06
584.50	61270.54
584.66	61270.54
584.82	61001.38
584.98	61478.85
585.14	61333.74
585.30	61258.84
585.46	61151.18
585.62	61279.91
585.78	61537.36
585.94	61153.52
586.10	61315.01
586.26	61277.57
586.42	61439.06
586.58	61441.40
586.74	61408.64
586.90	61389.91
587.06	61207.35
587.22	61509.28
587.38	61394.59
587.54	61427.36
587.70	61497.58
587.86	61329.06
588.02	61186.28
588.18	61525.66
588.34	61366.51
588.49	61497.58
