SpectraSuite Data File
++++++++++++++++++++++++++++++++++++
Date: Fri Oct 25 10:44:46 EDT 2013
User: price-jones
Dark Spectrum Present: No
Reference Spectrum Present: No
Number of Sampled Component Spectra: 1
Spectrometers: USB2+H05261
Integration Time (usec): 100000 (USB2+H05261)
Spectra Averaged: 1 (USB2+H05261)
Boxcar Smoothing: 0 (USB2+H05261)
Correct for Electrical Dark: No (USB2+H05261)
Strobe/Lamp Enabled: No (USB2+H05261)
Correct for Detector Non-linearity: No (USB2+H05261)
Correct for Stray Light: No (USB2+H05261)
Number of Pixels in Processed Spectrum: 2048
>>>>>Begin Processed Spectral Data<<<<<
365.73	147.45
365.92	147.45
366.12	147.45
366.32	4.68
366.52	32.77
366.72	46.81
366.91	28.09
367.11	84.26
367.31	58.51
367.51	0.00
367.70	0.00
367.90	39.79
368.10	7.02
368.30	0.00
368.49	2.34
368.69	63.19
368.89	74.90
369.09	44.47
369.28	152.13
369.48	126.39
369.68	86.60
369.87	42.13
370.07	93.62
370.27	102.98
370.47	142.77
370.66	322.99
370.86	465.77
371.06	402.57
371.25	468.11
371.45	421.30
371.65	454.06
371.84	461.09
372.04	430.66
372.24	468.11
372.44	479.81
372.63	486.83
372.83	496.19
373.03	475.13
373.22	454.06
373.42	585.13
373.62	587.47
373.81	510.24
374.01	631.94
374.21	521.94
374.40	486.83
374.60	592.16
374.79	559.39
374.99	510.24
375.19	594.50
375.38	613.22
375.58	557.05
375.78	575.77
375.97	514.92
376.17	613.22
376.37	554.71
376.56	596.84
376.76	550.03
376.95	582.79
377.15	587.47
377.35	634.29
377.54	557.05
377.74	650.67
377.93	615.56
378.13	568.75
378.33	559.39
378.52	592.16
378.72	645.99
378.91	573.43
379.11	641.31
379.31	566.41
379.50	587.47
379.70	580.45
379.89	575.77
380.09	636.63
380.28	653.01
380.48	617.90
380.68	674.07
380.87	657.69
381.07	648.33
381.26	641.31
381.46	697.48
381.65	681.10
381.85	620.24
382.04	723.23
382.24	653.01
382.43	589.82
382.63	599.18
382.83	641.31
383.02	716.20
383.22	697.48
383.41	667.05
383.61	702.16
383.80	655.35
384.00	732.59
384.19	793.44
384.39	779.40
384.58	739.61
384.78	798.12
384.97	734.93
385.17	664.71
385.36	746.63
385.56	861.32
385.75	791.10
385.95	744.29
386.14	847.27
386.34	772.38
386.53	702.16
386.72	767.70
386.92	802.80
387.11	877.70
387.31	781.74
387.50	880.04
387.70	751.31
387.89	828.55
388.09	727.91
388.28	821.53
388.48	823.87
388.67	875.36
388.86	940.90
389.06	917.49
389.25	840.25
389.45	933.87
389.64	994.73
389.84	933.87
390.03	922.17
390.22	903.45
390.42	858.98
390.61	891.74
390.81	959.62
391.00	966.64
391.19	929.19
391.39	898.77
391.58	964.30
391.78	957.28
391.97	1006.43
392.16	976.00
392.36	976.00
392.55	957.28
392.75	980.68
392.94	826.21
393.13	999.41
393.33	933.87
393.52	1006.43
393.71	992.39
393.91	1093.03
394.10	1041.54
394.29	1076.65
394.49	1029.84
394.68	1123.46
394.88	1029.84
395.07	1128.14
395.26	1095.37
395.46	1055.58
395.65	1139.84
395.84	1104.73
396.04	1224.10
396.23	1053.24
396.42	1034.52
396.62	1118.78
396.81	1139.84
397.00	1170.27
397.19	1270.91
397.39	1224.10
397.58	1242.82
397.77	1228.78
397.97	1266.23
398.16	1247.51
398.35	1448.79
398.55	1308.36
398.74	1359.85
398.93	1348.15
399.12	1385.60
399.32	1315.38
399.51	1338.79
399.70	1406.66
399.90	1345.81
400.09	1432.41
400.28	1439.43
400.47	1394.96
400.67	1526.03
400.86	1488.58
401.05	1413.68
401.24	1481.56
401.44	1523.69
401.63	1479.22
401.82	1453.47
402.01	1584.54
402.21	1561.14
402.40	1600.93
402.59	1584.54
402.78	1500.28
402.97	1575.18
403.17	1652.42
403.36	1652.42
403.55	1694.55
403.74	1600.93
403.93	1582.20
404.13	1617.31
404.32	1568.16
404.51	1710.93
404.70	1736.68
404.89	1694.55
405.09	1767.10
405.28	1762.42
405.47	1748.38
405.66	1799.87
405.85	1732.00
406.05	1743.70
406.24	1762.42
406.43	1834.98
406.62	1919.24
406.81	1870.09
407.00	1853.70
407.20	1909.88
407.39	1844.34
407.58	1961.37
407.77	1928.60
407.96	1947.33
408.15	1975.41
408.34	2029.24
408.54	2080.74
408.73	1963.71
408.92	2057.33
409.11	2101.80
409.30	2059.67
409.49	2120.53
409.68	2073.71
409.87	2043.29
410.07	2059.67
410.26	2139.25
410.45	2122.87
410.64	2239.89
410.83	2134.57
411.02	2143.93
411.21	2345.22
411.40	2237.55
411.59	2394.37
411.78	2321.81
411.98	2291.38
412.17	2333.51
412.36	2443.52
412.55	2410.75
412.74	2438.84
412.93	2443.52
413.12	2335.85
413.31	2579.27
413.50	2567.57
413.69	2623.74
413.88	2661.19
414.07	2588.63
414.26	2696.30
414.45	2668.21
414.64	2682.25
414.83	2612.04
415.02	2834.39
415.22	2832.05
415.41	2789.92
415.60	2715.02
415.79	2869.50
415.98	2839.07
416.17	2818.00
416.36	2892.90
416.55	2841.41
416.74	2986.52
416.93	2825.03
417.12	2841.41
417.31	2841.41
417.50	2974.82
417.69	3059.08
417.88	3162.06
418.07	3075.46
418.26	2944.39
418.45	3218.24
418.64	3169.09
418.83	3300.16
419.02	3255.69
419.21	3246.32
419.39	3211.22
419.58	3141.00
419.77	3227.60
419.96	3307.18
420.15	3349.31
420.34	3335.26
420.53	3311.86
420.72	3382.07
420.91	3372.71
421.10	3454.63
421.29	3452.29
421.48	3407.82
421.67	3442.93
421.86	3400.80
422.05	3517.83
422.24	3501.44
422.43	3599.74
422.61	3503.78
422.80	3433.57
422.99	3534.21
423.18	3595.06
423.37	3604.42
423.56	3684.00
423.75	3552.93
423.94	3531.87
424.13	3325.90
424.32	3473.36
424.50	3524.85
424.69	3810.39
424.88	3651.24
425.07	3503.78
425.26	3616.13
425.45	3475.70
425.64	3449.95
425.83	3669.96
426.01	3698.05
426.20	3733.15
426.39	3723.79
426.58	3569.32
426.77	3487.40
426.96	3620.81
427.15	3527.19
427.33	3733.15
427.52	3784.65
427.71	3742.52
427.90	3756.56
428.09	3721.45
428.28	3819.75
428.46	3681.66
428.65	3819.75
428.84	3967.21
429.03	3789.33
429.22	3749.54
429.40	3880.61
429.59	3812.73
429.78	3616.13
429.97	3583.36
430.16	3761.24
430.34	3810.39
430.53	3918.06
430.72	3904.01
430.91	3985.93
431.10	3997.64
431.28	4135.73
431.47	4266.80
431.66	4203.60
431.85	4112.32
432.03	4142.75
432.22	4217.65
432.41	4334.67
432.60	4280.84
432.79	4159.13
432.97	4421.27
433.16	4287.86
433.35	4304.25
433.54	4297.22
433.72	4283.18
433.91	4334.67
434.10	4386.16
434.28	4297.22
434.47	4341.69
434.66	4425.95
434.85	4519.57
435.03	4613.20
435.22	4519.57
435.41	4582.77
435.59	4552.34
435.78	4671.71
435.97	4601.49
436.16	4498.51
436.34	4823.84
436.53	4706.82
436.72	4734.90
436.90	4592.13
437.09	4821.50
437.28	4498.51
437.46	4571.07
437.65	4580.43
437.84	4795.76
438.02	4704.48
438.21	4758.31
438.40	4678.73
438.58	4894.06
438.77	4971.30
438.96	4985.34
439.14	5090.67
439.33	5247.48
439.52	5078.96
439.70	5057.90
439.89	5336.42
440.08	5085.98
440.26	5210.03
440.45	5224.08
440.63	5240.46
440.82	5364.51
441.01	5444.09
441.19	5373.87
441.38	5460.47
441.57	5600.90
441.75	5610.26
441.94	5713.25
442.12	5537.71
442.31	5668.78
442.50	5584.52
442.68	5781.12
442.87	5792.83
443.05	5755.38
443.24	5832.62
443.43	5685.16
443.61	5774.10
443.80	6024.54
443.98	5804.53
444.17	5626.65
444.35	5879.43
444.54	6033.90
444.73	5827.93
444.91	5858.36
445.10	5874.74
445.28	5858.36
445.47	5804.53
445.65	5863.04
445.84	5909.85
446.02	5776.44
446.21	5743.67
446.39	6092.41
446.58	6033.90
446.77	6073.69
446.95	5970.71
447.14	6054.97
447.32	6052.63
447.51	6054.97
447.69	5980.07
447.88	6083.05
448.06	5968.37
448.25	6080.71
448.43	6183.70
448.62	6061.99
448.80	6181.35
448.99	6171.99
449.17	6167.31
449.36	6303.06
449.54	6438.81
449.73	6511.37
449.91	6321.79
450.10	6422.43
450.28	6389.66
450.46	6363.92
450.65	6434.13
450.83	6516.05
451.02	6502.01
451.20	6614.35
451.39	6490.31
451.57	6595.63
451.76	6422.43
451.94	6483.28
452.13	6658.82
452.31	6569.88
452.49	6497.33
452.68	6544.14
452.86	6480.94
453.05	6583.93
453.23	6743.08
453.42	6424.77
453.60	6609.67
453.78	6815.64
453.97	6724.36
454.15	6647.12
454.34	6527.75
454.52	6855.43
454.70	6813.30
454.89	6993.52
455.07	6780.53
455.26	6876.49
455.44	6918.62
455.62	7023.95
455.81	7094.16
455.99	7066.08
456.17	6942.03
456.36	7033.31
456.54	7183.10
456.73	7206.51
456.91	7323.54
457.09	7276.73
457.28	7417.16
457.46	7155.02
457.64	7384.39
457.83	7314.17
458.01	7356.30
458.19	7435.88
458.38	7372.69
458.56	7428.86
458.74	7344.60
458.93	7447.58
459.11	7578.65
459.29	7456.95
459.48	7515.46
459.66	7531.84
459.84	7651.21
460.03	7864.20
460.21	7740.15
460.39	7651.21
460.57	7779.94
460.76	7747.17
460.94	7852.50
461.12	7812.71
461.31	7857.18
461.49	7758.88
461.67	7843.14
461.85	7861.86
462.04	7801.01
462.22	8044.42
462.40	7983.57
462.59	8142.72
462.77	7946.12
462.95	8091.23
463.13	8163.79
463.32	8107.62
463.50	8093.57
463.68	8238.69
463.86	8159.11
464.05	8362.73
464.23	7875.90
464.41	8226.98
464.59	8112.30
464.78	8393.16
464.96	8290.18
465.14	8329.97
465.32	8311.24
465.50	8439.97
465.69	8446.99
465.87	8231.66
466.05	8341.67
466.23	8435.29
466.41	8332.31
466.60	8601.47
466.78	8315.92
466.96	8416.57
467.14	8248.05
467.32	8624.87
467.51	8755.94
467.69	8383.80
467.87	8720.84
468.05	8571.04
468.23	8498.49
468.41	8685.73
468.60	8779.35
468.78	8819.14
468.96	8786.37
469.14	8999.36
469.32	8908.08
469.50	8805.10
469.69	8821.48
469.87	9050.85
470.05	9139.79
470.23	9109.36
470.41	9167.88
470.59	9078.94
470.77	8997.02
470.95	9214.69
471.14	9277.88
471.32	9006.38
471.50	9217.03
471.68	9408.95
471.86	9514.28
472.04	9525.98
472.22	9734.29
472.40	9432.36
472.58	9661.73
472.77	9383.21
472.95	9720.24
473.13	10139.20
473.31	9568.11
473.49	9631.30
473.67	9839.61
473.85	9764.72
474.03	9912.17
474.21	9865.36
474.39	10148.56
474.57	10176.65
474.75	10359.21
474.93	10317.08
475.12	9970.68
475.30	10197.71
475.48	10310.06
475.66	10181.33
475.84	10239.84
476.02	10504.32
476.20	10401.34
476.38	10686.89
476.56	10740.72
476.74	10726.68
476.92	10761.78
477.10	10611.99
477.28	10934.98
477.46	11012.22
477.64	11098.82
477.82	11194.78
478.00	11442.88
478.18	11480.33
478.36	11473.31
478.54	11676.93
478.72	11782.26
478.90	11688.64
479.08	11988.22
479.26	11964.82
479.44	11936.73
479.62	12191.85
479.80	12208.23
479.98	12257.39
480.16	12627.19
480.34	12201.21
480.52	12760.60
480.70	12575.70
480.88	12273.77
481.06	12732.51
481.24	12947.84
481.41	12872.95
481.59	13406.59
481.77	13418.29
481.95	13226.37
482.13	13401.91
482.31	13228.71
482.49	13481.49
482.67	13486.17
482.85	13961.30
483.03	13687.45
483.21	13823.20
483.39	14347.48
483.57	13928.53
483.74	14314.72
483.92	14132.15
484.10	14312.38
484.28	14490.26
484.46	14927.94
484.64	14916.23
484.82	14679.84
485.00	14839.00
485.18	15037.94
485.35	15321.15
485.53	14906.87
485.71	15054.33
485.89	15133.90
486.07	15126.88
486.25	15372.64
486.43	15580.95
486.61	16044.37
486.78	16067.78
486.96	16065.44
487.14	16453.97
487.32	16596.74
487.50	16442.26
487.68	16854.20
487.85	16833.13
488.03	16985.27
488.21	17380.82
488.39	17357.41
488.57	17308.26
488.75	17364.43
488.92	17483.80
489.10	17806.80
489.28	18036.17
489.46	17919.14
489.64	18005.74
489.81	18209.37
489.99	18530.02
490.17	18532.36
490.35	18623.64
490.53	18885.78
490.70	18771.10
490.88	18501.93
491.06	19356.23
491.24	19264.95
491.41	19278.99
491.59	19276.65
491.77	19129.20
491.95	19470.92
492.13	19880.51
492.30	19819.66
492.48	20201.16
492.66	19992.86
492.84	20058.39
493.01	20575.65
493.19	20276.06
493.37	20374.36
493.54	20931.41
493.72	20863.54
493.90	20774.60
494.08	21359.73
494.25	21446.33
494.43	21619.53
494.61	21872.31
494.79	21549.31
494.96	21659.32
495.14	21902.73
495.32	21820.81
495.49	21738.90
495.67	22089.98
495.85	22253.81
496.02	22263.18
496.20	22534.68
496.38	22658.73
496.55	22501.91
496.73	23028.53
496.91	22855.33
497.09	22948.95
497.26	23417.06
497.44	23075.34
497.62	23264.92
497.79	23454.51
497.97	23168.96
498.14	23293.01
498.32	23903.89
498.50	23527.06
498.67	24168.37
498.85	24205.82
499.03	24166.03
499.20	24137.94
499.38	24287.74
499.56	24400.08
499.73	24933.73
499.91	24339.23
500.08	24730.10
500.26	24418.81
500.44	24795.64
500.61	24744.14
500.79	24753.51
500.97	25326.94
501.14	25214.59
501.32	25413.54
501.49	25247.36
501.67	25078.84
501.84	25289.49
502.02	25586.74
502.20	25792.70
502.37	25605.46
502.55	25757.60
502.72	26185.91
502.90	26206.98
503.07	25975.27
503.25	26136.76
503.43	25867.60
503.60	26115.70
503.78	26054.84
503.95	26527.63
504.13	26398.90
504.30	26651.68
504.48	26281.88
504.65	26700.83
504.83	27229.79
505.01	27000.42
505.18	27061.27
505.36	27524.70
505.53	27337.46
505.71	27386.61
505.88	27442.78
506.06	27302.35
506.23	27374.91
506.41	27356.18
506.58	27559.81
506.76	28058.34
506.93	28182.39
507.11	28119.20
507.28	28072.39
507.46	27634.71
507.63	27908.55
507.81	28198.77
507.98	27985.79
508.16	28332.18
508.33	28360.27
508.50	28917.32
508.68	28313.46
508.85	29085.84
509.03	29060.09
509.20	28907.96
509.38	29207.55
509.55	29399.47
509.73	29193.50
509.90	29523.52
510.08	29111.58
510.25	29057.75
510.42	29610.12
510.60	29701.40
510.77	29816.08
510.95	29771.61
511.12	30256.11
511.30	29727.14
511.47	30342.70
511.64	29970.56
511.82	30125.04
511.99	30106.31
512.17	29914.39
512.34	30279.51
512.51	30639.95
512.69	30684.42
512.86	30686.76
513.04	30691.44
513.21	30693.79
513.38	30609.53
513.56	30555.69
513.73	30679.74
513.90	31140.83
514.08	30721.87
514.25	31182.96
514.43	30864.64
514.60	30815.49
514.77	31180.62
514.95	31360.84
515.12	31517.65
515.29	31393.61
515.47	31732.98
515.64	31803.20
515.81	31562.12
515.99	31529.36
516.16	31990.44
516.33	31398.29
516.51	32177.68
516.68	31065.93
516.85	31679.15
517.03	32165.98
517.20	31850.01
517.37	32219.81
517.54	32266.63
517.72	32027.89
517.89	32163.64
518.06	32041.93
518.24	31934.27
518.41	32201.09
518.58	32994.53
518.75	32528.77
518.93	32779.20
519.10	32950.06
519.27	32547.49
519.45	32919.63
519.62	33078.79
519.79	33141.99
519.96	33141.99
520.14	33315.19
520.31	33127.94
520.48	33294.12
520.65	33256.67
520.83	33785.63
521.00	33654.56
521.17	33675.63
521.34	33942.45
521.52	33930.75
521.69	33869.89
521.86	34242.04
522.03	33963.51
522.20	33921.38
522.38	34263.10
522.55	34302.89
522.72	34300.55
522.89	34597.80
523.07	34433.96
523.24	34284.17
523.41	34431.62
523.58	34398.85
523.75	34735.89
523.92	34972.28
524.10	35063.57
524.27	34836.53
524.44	35480.18
524.61	35440.39
524.78	35456.78
524.96	35370.18
525.13	35264.85
525.30	35351.45
525.47	35838.28
525.64	35447.41
525.81	35484.86
525.98	35585.50
526.16	35416.99
526.33	35634.66
526.50	35936.59
526.67	35306.98
526.84	35721.26
527.01	35381.88
527.18	35512.95
527.36	35526.99
527.53	36088.72
527.70	36191.70
527.87	36189.36
528.04	36261.92
528.21	36718.32
528.38	36229.15
528.55	36664.49
528.72	36437.46
528.89	36463.21
529.07	36172.98
529.24	36226.81
529.41	36409.37
529.58	36484.27
529.75	36514.70
529.92	36687.90
530.09	37057.70
530.26	37380.70
530.43	37081.11
530.60	36603.64
530.77	36884.50
530.94	36921.95
531.11	36935.99
531.28	37380.70
531.46	36868.12
531.63	37102.17
531.80	37495.38
531.97	37191.11
532.14	37092.81
532.31	37046.00
532.48	37446.23
532.65	37521.13
532.82	37656.88
532.99	37792.63
533.16	37497.72
533.33	37682.62
533.50	37846.46
533.67	37792.63
533.84	37467.30
534.01	37745.82
534.18	37904.98
534.35	38045.41
534.52	38174.14
534.69	38574.37
534.86	38209.25
535.03	38110.94
535.20	38660.97
535.37	38139.03
535.54	38337.98
535.71	38759.27
535.88	38333.29
536.05	38550.96
536.22	39049.50
536.38	38649.27
536.55	38684.37
536.72	38485.43
536.89	38246.69
537.06	38883.32
537.23	39440.37
537.40	38979.28
537.57	38607.14
537.74	38852.89
537.91	39210.99
538.08	39180.57
538.25	38522.88
538.42	38965.24
538.59	38787.36
538.75	38845.87
538.92	39093.97
539.09	39246.10
539.26	39173.55
539.43	39407.60
539.60	39175.89
539.77	39438.03
539.94	39234.40
540.11	39426.32
540.28	39419.30
540.44	39129.08
540.61	39491.86
540.78	39475.48
540.95	39510.58
541.12	38946.51
541.29	39531.65
541.46	39557.39
541.62	39725.91
541.79	39658.04
541.96	39763.36
542.13	40034.86
542.30	40002.10
542.47	40105.08
542.63	40194.02
542.80	40350.84
542.97	40105.08
543.14	40568.51
543.31	40458.50
543.48	40362.54
543.64	41078.74
543.81	40528.72
543.98	40760.43
544.15	40680.85
544.32	40531.06
544.48	40959.38
544.65	40676.17
544.82	41104.49
544.99	40374.24
545.16	41090.44
545.32	40481.91
545.49	41038.95
545.66	41462.59
545.83	41160.66
546.00	41116.19
546.16	41237.90
546.33	40849.37
546.50	41160.66
546.67	40739.36
546.83	41181.73
547.00	41081.08
547.17	40950.01
547.34	41031.93
547.50	41111.51
547.67	41422.80
547.84	41188.75
548.00	41422.80
548.17	41593.66
548.34	41375.99
548.51	41574.94
548.67	41427.48
548.84	41312.80
549.01	41249.60
549.18	41317.48
549.34	42026.66
549.51	41677.92
549.68	41556.21
549.84	42029.00
550.01	42029.00
550.18	41998.57
550.34	41865.16
550.51	41918.99
550.68	41722.39
550.84	41439.18
551.01	42321.57
551.18	42080.49
551.34	42176.45
551.51	41865.16
551.68	42471.36
551.84	42045.38
552.01	42253.69
552.18	42485.40
552.34	41879.21
552.51	42288.80
552.68	41975.17
552.84	42644.56
553.01	43014.37
553.18	42555.62
553.34	42199.86
553.51	42330.93
553.67	42305.18
553.84	42742.86
554.01	42899.68
554.17	42597.75
554.34	43157.14
554.51	42766.27
554.67	42658.60
554.84	42698.39
555.00	42473.70
555.17	43033.09
555.33	42710.10
555.50	42808.40
555.67	42913.72
555.83	43243.74
556.00	42752.23
556.16	43138.41
556.33	42871.59
556.50	42824.78
556.66	43065.86
556.83	42932.45
556.99	43576.09
557.16	43335.02
557.32	43138.41
557.49	43276.51
557.65	43112.67
557.82	42951.17
557.98	43098.62
558.15	43091.60
558.32	43227.35
558.48	43278.85
558.65	43325.66
558.81	43302.25
558.98	43129.05
559.14	43089.26
559.31	43222.67
559.47	43173.52
559.64	43220.33
559.80	43342.04
559.97	43283.53
560.13	43255.44
560.30	43164.16
560.46	43299.91
560.63	43576.09
560.79	43646.31
560.96	43903.77
561.12	44009.09
561.29	43587.80
561.45	43339.70
561.61	43459.07
561.78	43447.36
561.94	43250.76
562.11	43622.90
562.27	43938.88
562.44	43789.08
562.60	43508.22
562.77	43990.37
562.93	43772.70
563.10	43908.45
563.26	43129.05
563.42	43615.88
563.59	43641.63
563.75	43775.04
563.92	43880.36
564.08	44037.18
564.24	43372.47
564.41	43746.95
564.57	43711.84
564.74	43374.81
564.90	43906.11
565.07	43856.96
565.23	43751.63
565.39	43395.87
565.56	43618.22
565.72	43646.31
565.88	44074.63
566.05	43681.42
566.21	43796.10
566.38	43929.51
566.54	44140.16
566.70	44053.56
566.87	44367.20
567.03	43887.39
567.19	44582.52
567.36	44203.36
567.52	44055.90
567.68	43973.98
567.85	44079.31
568.01	43463.75
568.17	43814.83
568.34	44100.37
568.50	43552.69
568.66	44062.93
568.83	44362.51
568.99	43665.03
569.15	44016.11
569.32	43658.01
569.48	44016.11
569.64	44460.82
569.81	43765.68
569.97	44353.15
570.13	44304.00
570.30	43838.23
570.46	44273.57
570.62	44002.07
570.78	44023.14
570.95	43814.83
571.11	44371.88
571.27	43899.09
571.43	44318.04
571.60	43859.30
571.76	44126.12
571.92	44311.02
572.09	44016.11
572.25	43749.29
572.41	44044.20
572.57	43962.28
572.74	44704.23
572.90	44374.22
573.06	43704.82
573.22	44458.48
573.38	43887.39
573.55	44367.20
573.71	44650.40
573.87	44320.38
574.03	43971.64
574.20	44622.31
574.36	44428.05
574.52	44282.94
574.68	44364.85
574.84	44247.83
575.01	43810.15
575.17	44737.00
575.33	44519.33
575.49	44282.94
575.65	44549.76
575.82	44484.22
575.98	44163.57
576.14	44580.18
576.30	44509.97
576.46	44423.37
576.62	44336.77
576.79	44467.84
576.95	44079.31
577.11	44453.79
577.27	44547.42
577.43	44575.50
577.59	43915.47
577.75	44091.01
577.92	44093.35
578.08	43924.83
578.24	44271.23
578.40	44385.92
578.56	44098.03
578.72	44189.31
578.88	44442.09
579.04	44385.92
579.21	44025.48
579.37	44479.54
579.53	44224.42
579.69	44444.43
579.85	44196.34
580.01	44261.87
580.17	44678.49
580.33	44772.11
580.49	44753.38
580.65	45057.65
580.82	44863.39
580.98	44692.53
581.14	44402.30
581.30	45172.34
581.46	44245.49
581.62	44460.82
581.78	44369.54
581.94	44584.86
582.10	44004.41
582.26	44378.90
582.42	44222.08
582.58	44498.26
582.74	44392.94
582.90	45022.54
583.06	44849.35
583.22	44414.01
583.38	44634.02
583.54	44509.97
583.70	44472.52
583.86	44397.62
584.02	44437.41
584.18	44758.06
584.34	44563.80
584.50	44453.79
584.66	44481.88
584.82	44392.94
584.98	44772.11
585.14	44755.72
585.30	44531.03
585.46	44755.72
585.62	44332.09
585.78	44425.71
585.94	44217.40
586.10	44210.38
586.26	44322.72
586.42	44477.20
586.58	44882.11
586.74	44453.79
586.90	44481.88
587.06	44409.32
587.22	44907.86
587.38	43997.39
587.54	44385.92
587.70	44835.30
587.86	44858.71
588.02	44306.34
588.18	44690.19
588.34	44669.12
588.49	44219.74
588.65	43662.69
588.81	44296.98
588.97	44369.54
589.13	44376.56
589.29	44882.11
589.45	44652.74
589.61	44552.10
589.77	44456.14
589.93	45081.06
590.08	44713.59
590.24	44514.65
