SpectraSuite Data File
++++++++++++++++++++++++++++++++++++
Date: Fri Oct 25 11:22:42 EDT 2013
User: price-jones
Dark Spectrum Present: No
Reference Spectrum Present: No
Number of Sampled Component Spectra: 1
Spectrometers: USB2+H05261
Integration Time (usec): 100000 (USB2+H05261)
Spectra Averaged: 1 (USB2+H05261)
Boxcar Smoothing: 0 (USB2+H05261)
Correct for Electrical Dark: No (USB2+H05261)
Strobe/Lamp Enabled: No (USB2+H05261)
Correct for Detector Non-linearity: No (USB2+H05261)
Correct for Stray Light: No (USB2+H05261)
Number of Pixels in Processed Spectrum: 2048
>>>>>Begin Processed Spectral Data<<<<<
365.73	177.88
365.92	177.88
366.12	177.88
366.32	128.73
366.52	107.66
366.72	93.62
366.91	135.75
367.11	189.58
367.31	102.98
367.51	51.49
367.70	166.18
367.90	124.05
368.10	88.94
368.30	142.77
368.49	119.37
368.69	166.18
368.89	88.94
369.09	147.45
369.28	196.60
369.48	121.71
369.68	177.88
369.87	170.86
370.07	191.92
370.27	222.35
370.47	332.36
370.66	587.47
370.86	568.75
371.06	636.63
371.25	645.99
371.45	685.78
371.65	688.12
371.84	746.63
372.04	667.05
372.24	690.46
372.44	732.59
372.63	720.88
372.83	657.69
373.03	699.82
373.22	709.18
373.42	716.20
373.62	748.97
373.81	784.08
374.01	837.91
374.21	802.80
374.40	873.02
374.60	826.21
374.79	795.78
374.99	833.23
375.19	788.76
375.38	784.08
375.58	861.32
375.78	791.10
375.97	802.80
376.17	896.43
376.37	826.21
376.56	816.85
376.76	840.25
376.95	847.27
377.15	870.68
377.35	880.04
377.54	903.45
377.74	901.11
377.93	884.72
378.13	917.49
378.33	959.62
378.52	868.34
378.72	983.02
378.91	931.53
379.11	877.70
379.31	968.98
379.50	901.11
379.70	1013.45
379.89	952.60
380.09	917.49
380.28	926.85
380.48	903.45
380.68	997.07
380.87	964.30
381.07	978.34
381.26	1036.86
381.46	980.68
381.65	1006.43
381.85	997.07
382.04	1039.20
382.24	1057.92
382.43	994.73
382.63	1076.65
382.83	1053.24
383.02	1090.69
383.22	1064.94
383.41	1139.84
383.61	1067.28
383.80	1181.97
384.00	1071.97
384.19	1116.44
384.39	1144.52
384.58	1198.35
384.78	1078.99
384.97	1116.44
385.17	1196.01
385.36	1158.57
385.56	1139.84
385.75	1174.95
385.95	1240.48
386.14	1191.33
386.34	1097.71
386.53	1228.78
386.72	1256.87
386.92	1338.79
387.11	1217.08
387.31	1198.35
387.50	1242.82
387.70	1273.25
387.89	1294.32
388.09	1242.82
388.28	1273.25
388.48	1310.70
388.67	1331.76
388.86	1362.19
389.06	1282.61
389.25	1254.53
389.45	1301.34
389.64	1308.36
389.84	1378.58
390.03	1416.02
390.22	1420.71
390.42	1394.96
390.61	1369.21
390.81	1383.26
391.00	1430.07
391.19	1467.52
391.39	1366.87
391.58	1401.98
391.78	1380.92
391.97	1488.58
392.16	1441.77
392.36	1472.20
392.55	1507.30
392.75	1544.75
392.94	1533.05
393.13	1519.01
393.33	1486.24
393.52	1467.52
393.71	1617.31
393.91	1565.82
394.10	1535.39
394.29	1666.46
394.49	1577.52
394.68	1551.78
394.88	1556.46
395.07	1650.08
395.26	1710.93
395.46	1724.97
395.65	1687.53
395.84	1804.55
396.04	1692.21
396.23	1771.79
396.42	1799.87
396.62	1792.85
396.81	1764.76
397.00	1708.59
397.19	1799.87
397.39	1856.04
397.58	1776.47
397.77	1799.87
397.97	1811.57
398.16	1820.94
398.35	1916.90
398.55	1891.15
398.74	1902.86
398.93	1977.75
399.12	1963.71
399.32	1956.69
399.51	1956.69
399.70	1966.05
399.90	1998.82
400.09	1933.28
400.28	2083.08
400.47	2076.06
400.67	1991.80
400.86	2024.56
401.05	2047.97
401.24	1984.77
401.44	2076.06
401.63	2141.59
401.82	2076.06
402.01	2122.87
402.21	2125.21
402.40	2153.29
402.59	2172.02
402.78	2284.36
402.97	2141.59
403.17	2235.21
403.36	2204.78
403.55	2235.21
403.74	2401.39
403.93	2473.95
404.13	2349.90
404.32	2340.54
404.51	2356.92
404.70	2492.67
404.89	2403.73
405.09	2459.90
405.28	2436.50
405.47	2476.29
405.66	2382.67
405.85	2544.16
406.05	2438.84
406.24	2530.12
406.43	2623.74
406.62	2665.87
406.81	2637.78
407.00	2607.36
407.20	2651.83
407.39	2719.70
407.58	2684.59
407.77	2853.11
407.96	2813.32
408.15	2766.51
408.34	2665.87
408.54	2745.45
408.73	2785.24
408.92	2796.94
409.11	2855.45
409.30	2839.07
409.49	2906.95
409.68	2960.78
409.87	2829.71
410.07	3038.02
410.26	2867.16
410.45	2991.20
410.64	2949.08
410.83	2972.48
411.02	3152.70
411.21	3185.47
411.40	3126.96
411.59	3190.15
411.78	3213.56
411.98	3227.60
412.17	3267.39
412.36	3391.44
412.55	3361.01
412.74	3361.01
412.93	3325.90
413.12	3311.86
413.31	3569.32
413.50	3424.20
413.69	3578.68
413.88	3611.45
414.07	3599.74
414.26	3768.26
414.45	3632.51
414.64	3698.05
414.83	3730.81
415.02	3819.75
415.22	3873.59
415.41	3735.50
415.60	3843.16
415.79	3904.01
415.98	4021.04
416.17	4042.11
416.36	4007.00
416.55	4002.32
416.74	4067.85
416.93	4039.76
417.12	4156.79
417.31	4217.65
417.50	4081.89
417.69	4278.50
417.88	4215.30
418.07	4292.54
418.26	4292.54
418.45	4379.14
418.64	4533.62
418.83	4484.47
419.02	4442.34
419.21	4652.98
419.39	4524.26
419.58	4423.61
419.77	4451.70
419.96	4535.96
420.15	4559.36
420.34	4636.60
420.53	4578.09
420.72	4723.20
420.91	4718.52
421.10	4795.76
421.29	4814.48
421.48	4739.58
421.67	4802.78
421.86	4709.16
422.05	4774.69
422.24	4926.83
422.43	4795.76
422.61	4830.87
422.80	4891.72
422.99	4940.87
423.18	4844.91
423.37	4978.32
423.56	4978.32
423.75	4823.84
423.94	4868.31
424.13	4718.52
424.32	4828.53
424.50	5022.79
424.69	5158.54
424.88	5121.09
425.07	4917.47
425.26	4887.04
425.45	4926.83
425.64	5011.09
425.83	4868.31
426.01	4936.19
426.20	5078.96
426.39	5074.28
426.58	4990.02
426.77	5100.03
426.96	5128.11
427.15	5144.50
427.33	5268.55
427.52	5242.80
427.71	5191.31
427.90	5324.72
428.09	5343.44
428.28	5263.86
428.46	5362.17
428.65	5359.83
428.84	5465.15
429.03	5439.40
429.22	5322.38
429.40	5540.05
429.59	5598.56
429.78	5476.85
429.97	5320.04
430.16	5621.97
430.34	5682.82
430.53	5675.80
430.72	5738.99
430.91	5687.50
431.10	5514.30
431.28	5839.64
431.47	5837.30
431.66	5832.62
431.85	5781.12
432.03	5837.30
432.22	5886.45
432.41	5968.37
432.60	5914.53
432.79	5858.36
432.97	6033.90
433.16	6136.88
433.35	5998.79
433.54	6097.10
433.72	6052.63
433.91	6150.93
434.10	6164.97
434.28	6171.99
434.47	6251.57
434.66	6263.27
434.85	6317.11
435.03	6279.66
435.22	6181.35
435.41	6473.92
435.59	6452.86
435.78	6420.09
435.97	6597.97
436.16	6293.70
436.34	6509.03
436.53	6633.08
436.72	6612.01
436.90	6457.54
437.09	6588.61
437.28	6466.90
437.46	6773.51
437.65	6686.91
437.84	6745.42
438.02	6864.79
438.21	6855.43
438.40	6640.10
438.58	7091.82
438.77	7091.82
438.96	7045.01
439.14	7218.21
439.33	7332.90
439.52	7248.64
439.70	7208.85
439.89	7456.95
440.08	7236.94
440.26	7337.58
440.45	7321.20
440.63	7527.16
440.82	7803.35
441.01	7590.36
441.19	7564.61
441.38	7733.13
441.57	7801.01
441.75	7927.39
441.94	7997.61
442.12	8112.30
442.31	8114.64
442.50	8016.33
442.68	7960.16
442.87	8119.32
443.05	7943.78
443.24	8100.59
443.43	8119.32
443.61	8116.98
443.80	8479.76
443.98	8056.12
444.17	7981.23
444.35	8189.53
444.54	8407.20
444.73	8428.27
444.91	8222.30
445.10	8306.56
445.28	8552.32
445.47	8329.97
445.65	8180.17
445.84	8578.06
446.02	8486.78
446.21	8234.00
446.39	8432.95
446.58	8592.11
446.77	8526.57
446.95	8336.99
447.14	8531.25
447.32	8667.00
447.51	8437.63
447.69	8423.59
447.88	8594.45
448.06	8690.41
448.25	8442.31
448.43	8468.06
448.62	8603.81
448.80	8542.96
448.99	8746.58
449.17	8849.57
449.36	8685.73
449.54	9018.08
449.73	9008.72
449.91	9128.09
450.10	9088.30
450.28	9048.51
450.46	9146.81
450.65	8968.93
450.83	9298.95
451.02	9172.56
451.20	9259.16
451.39	9191.28
451.57	9013.40
451.76	9221.71
451.94	9130.43
452.13	9324.69
452.31	9404.27
452.49	9385.55
452.68	9380.87
452.86	9371.50
453.05	9565.77
453.23	9650.03
453.42	9596.20
453.60	9254.48
453.78	9453.42
453.97	9544.70
454.15	9439.38
454.34	9530.66
454.52	9689.82
454.70	9715.56
454.89	9921.53
455.07	9884.08
455.26	9928.55
455.44	10078.35
455.62	9813.87
455.81	9940.26
455.99	10054.94
456.17	10150.90
456.36	10157.92
456.54	10061.96
456.73	10345.17
456.91	10663.48
457.09	10513.69
457.28	10551.14
457.46	10450.49
457.64	10644.76
457.83	10626.03
458.01	10408.36
458.19	10548.79
458.38	10555.82
458.56	10780.51
458.74	10806.25
458.93	10698.59
459.11	10787.53
459.29	10832.00
459.48	10841.36
459.66	11037.97
459.84	10911.58
460.03	11136.27
460.21	10899.87
460.39	10984.13
460.57	11260.32
460.76	11262.66
460.94	11089.46
461.12	11262.66
461.31	11314.15
461.49	11180.74
461.67	11049.67
461.85	11620.76
462.04	11407.77
462.22	12049.08
462.40	11899.28
462.59	11360.96
462.77	11592.67
462.95	11520.12
463.13	11583.31
463.32	11669.91
463.50	12025.67
463.68	11985.88
463.86	11768.21
464.05	11538.84
464.23	11676.93
464.41	11829.07
464.59	11573.95
464.78	12109.93
464.96	11990.56
465.14	12077.16
465.32	12032.69
465.50	12346.33
465.69	12325.26
465.87	12093.55
466.05	12367.39
466.23	12283.13
466.41	12098.23
466.60	12173.13
466.78	12271.43
466.96	12212.92
467.14	12439.95
467.32	12472.71
467.51	12753.58
467.69	12449.31
467.87	12355.69
468.05	12648.26
468.23	12503.14
468.41	12535.91
468.60	12697.41
468.78	12809.75
468.96	12659.96
469.14	13060.19
469.32	13268.50
469.50	12671.66
469.69	13231.05
469.87	13137.43
470.05	13343.39
470.23	13331.69
470.41	13329.35
470.59	13338.71
470.77	13174.88
470.95	13357.44
471.14	13488.51
471.32	13186.58
471.50	13502.55
471.68	13699.16
471.86	13738.94
472.04	13750.65
472.22	14129.81
472.40	13727.24
472.58	13989.38
472.77	14059.60
472.95	14045.55
473.13	14862.40
473.31	14389.61
473.49	14305.35
473.67	14162.58
473.85	14457.49
474.03	14530.05
474.21	14736.01
474.39	14761.76
474.57	14724.31
474.75	14984.11
474.93	15094.11
475.12	15049.64
475.30	15220.50
475.48	15140.93
475.66	15152.63
475.84	15126.88
476.02	15578.61
476.20	15707.34
476.38	15639.46
476.56	16037.35
476.74	15815.00
476.92	16032.67
477.10	16105.23
477.28	16315.87
477.46	16425.88
477.64	16573.33
477.82	16697.38
478.00	16917.39
478.18	16882.28
478.36	17111.66
478.54	17439.33
478.72	16945.48
478.90	17467.42
479.08	17893.40
479.26	17909.78
479.44	17647.64
479.62	17671.04
479.80	18148.51
479.98	18082.98
480.16	18848.33
480.34	18473.85
480.52	18766.42
480.70	18808.54
480.88	18452.78
481.06	18721.95
481.24	19054.30
481.41	19307.08
481.59	19578.58
481.77	19721.35
481.95	19704.97
482.13	20276.06
482.31	19737.74
482.49	20191.80
482.67	20184.78
482.85	20453.94
483.03	20741.83
483.21	20964.18
483.39	21039.08
483.57	20556.93
483.74	21291.85
483.92	21422.92
484.10	21664.00
484.28	21914.44
484.46	22118.06
484.64	22689.15
484.82	22134.45
485.00	22745.33
485.18	22780.43
485.35	22885.76
485.53	22824.90
485.71	23213.43
485.89	23515.36
486.07	23585.58
486.25	23749.42
486.43	23920.28
486.61	23646.43
486.78	23917.93
486.96	24301.78
487.14	24943.09
487.32	24556.90
487.50	25092.88
487.68	25181.82
487.85	25472.05
488.03	25565.67
488.21	25303.53
488.39	25860.58
488.57	26499.55
488.75	26403.58
488.92	26658.70
489.10	26836.58
489.28	26703.17
489.46	27379.59
489.64	27065.96
489.81	27765.78
489.99	27740.03
490.17	27669.81
490.35	28596.67
490.53	28236.22
490.70	28877.53
490.88	28400.06
491.06	28952.43
491.24	28947.75
491.41	29029.66
491.59	29542.24
491.77	29310.53
491.95	29914.39
492.13	30082.91
492.30	30485.48
492.48	29951.84
492.66	30314.62
492.84	30235.04
493.01	30932.52
493.19	30930.18
493.37	30951.24
493.54	30962.95
493.72	31859.37
493.90	31639.36
494.08	32039.59
494.25	32180.03
494.43	31981.08
494.61	32821.33
494.79	32570.90
494.96	32573.24
495.14	33315.19
495.32	33331.57
495.49	33528.17
495.67	33113.90
495.85	33687.33
496.02	33778.61
496.20	34038.41
496.38	34338.00
496.55	34096.92
496.73	35234.42
496.91	34616.52
497.09	34881.00
497.26	35101.01
497.44	34885.68
497.62	35695.51
497.79	36062.97
497.97	35756.36
498.14	36093.40
498.32	36474.91
498.50	36306.39
498.67	36947.70
498.85	36917.27
499.03	36844.71
499.20	36704.28
499.38	37326.86
499.56	37191.11
499.73	37099.83
499.91	37748.16
500.08	37876.89
500.26	37593.68
500.44	37425.17
500.61	38206.90
500.79	37794.97
500.97	38195.20
501.14	38913.75
501.32	38714.80
501.49	38693.74
501.67	38630.54
501.84	39351.43
502.02	39037.80
502.20	39185.25
502.37	39746.98
502.55	39679.10
502.72	39709.53
502.90	39810.17
503.07	39721.23
503.25	39852.30
503.43	39999.76
503.60	39974.01
503.78	40685.53
503.95	40687.87
504.13	40807.24
504.30	40966.40
504.48	40495.95
504.65	41008.53
504.83	41404.08
505.01	41961.12
505.18	41495.36
505.36	41553.87
505.53	41706.01
505.71	41881.55
505.88	41914.31
506.06	41703.67
506.23	42059.43
506.41	41860.48
506.58	42333.27
506.76	42490.09
506.93	42366.04
507.11	42480.72
507.28	42836.48
507.46	42918.40
507.63	43199.27
507.81	43515.24
507.98	43014.37
508.16	43852.28
508.33	43526.94
508.50	43608.86
508.68	44083.99
508.85	43636.95
509.03	44201.02
509.20	44605.93
509.38	44374.22
509.55	44610.61
509.73	44942.97
509.90	44905.52
510.08	44935.95
510.25	44580.18
510.42	44725.30
510.60	45141.91
510.77	45162.98
510.95	45315.11
511.12	45167.66
511.30	45567.89
511.47	45265.96
511.64	45895.56
511.82	46110.89
511.99	45808.96
512.17	45984.51
512.34	45930.67
512.51	46560.28
512.69	46754.54
512.86	46712.41
513.04	46972.21
513.21	46883.27
513.38	47166.48
513.56	47222.65
513.73	47056.47
513.90	47159.45
514.08	47026.04
514.25	47821.83
514.43	47854.59
514.60	47498.83
514.77	47660.33
514.95	48292.27
515.12	47814.80
515.29	47941.19
515.47	48142.48
515.64	48170.57
515.81	48278.23
515.99	48559.09
516.16	49158.27
516.33	48378.87
516.51	48528.67
516.68	48687.82
516.85	49092.74
517.03	49198.06
517.20	49179.34
517.37	49017.84
517.54	49287.00
517.72	49350.20
517.89	49186.36
518.06	49521.05
518.24	49619.36
518.41	49661.49
518.58	49879.16
518.75	49450.84
518.93	49727.02
519.10	49827.66
519.27	50059.38
519.45	49855.75
519.62	50017.25
519.79	50267.69
519.96	50124.91
520.14	50571.96
520.31	50026.61
520.48	50607.06
520.65	50492.38
520.83	50822.39
521.00	50927.72
521.17	50567.27
521.34	50972.19
521.52	50946.44
521.69	50712.39
521.86	51351.35
522.03	51049.42
522.20	51358.38
522.38	51714.14
522.55	51723.50
522.72	51531.57
522.89	51667.33
523.07	51873.29
523.24	51657.96
523.41	51952.87
523.58	51695.41
523.75	52170.54
523.92	52154.16
524.10	51877.97
524.27	52184.58
524.44	52046.49
524.61	52404.59
524.78	52521.62
524.96	52704.18
525.13	52561.41
525.30	52640.99
525.47	52507.58
525.64	52645.67
525.81	52861.00
525.98	52762.70
526.16	52861.00
526.33	53029.52
526.50	53258.89
526.67	53062.29
526.84	53228.46
527.01	52966.32
527.18	53045.90
527.36	53209.74
527.53	53277.61
527.70	53605.29
527.87	53572.52
528.04	53176.97
528.21	53556.14
528.38	53525.71
528.55	53799.55
528.72	53441.45
528.89	53523.37
529.07	53247.19
529.24	53666.14
529.41	53965.73
529.58	53677.85
529.75	53909.56
529.92	53874.45
530.09	54218.51
530.26	54012.54
530.43	54042.97
530.60	53998.50
530.77	54042.97
530.94	54459.58
531.11	54328.52
531.28	54150.63
531.46	54344.90
531.63	54541.50
531.80	54380.01
531.97	54546.18
532.14	54822.37
532.31	54375.33
532.48	54625.76
532.65	54930.03
532.82	54845.77
532.99	54829.39
533.16	55068.12
533.33	54880.88
533.50	55075.15
533.67	55044.72
533.84	54941.74
534.01	55079.83
534.18	55112.59
534.35	55505.80
534.52	55285.79
534.69	55337.29
534.86	55323.24
535.03	55262.39
535.20	55320.90
535.37	55400.48
535.54	55491.76
535.71	55426.23
535.88	55552.62
536.05	55674.32
536.22	55838.16
536.38	55704.75
536.55	55690.71
536.72	55803.05
536.89	55796.03
537.06	55732.84
537.23	55969.23
537.40	55655.60
537.57	55655.60
537.74	56083.92
537.91	56273.50
538.08	56252.44
538.25	56067.53
538.42	56210.31
538.59	56479.47
538.75	56130.73
538.92	56172.86
539.09	56395.21
539.26	56088.60
539.43	56243.07
539.60	56430.32
539.77	56477.13
539.94	56697.14
540.11	56453.72
540.28	56587.13
540.44	56563.73
540.61	56701.82
540.78	56537.98
540.95	56411.59
541.12	56603.52
541.29	56666.71
541.46	56643.30
541.62	56893.74
541.79	56706.50
541.96	56547.34
542.13	56591.81
542.30	56886.72
542.47	56987.36
542.63	56921.83
542.80	57174.61
542.97	57240.14
543.14	57270.57
543.31	57146.52
543.48	57230.78
543.64	57406.32
543.81	57631.01
543.98	57446.11
544.15	57551.43
544.32	57616.97
544.48	57703.57
544.65	57574.84
544.82	57333.76
544.99	57413.34
545.16	57532.71
545.32	57633.35
545.49	57930.60
545.66	58019.54
545.83	57858.04
546.00	57914.22
546.16	57937.62
546.33	57525.69
546.50	57513.98
546.67	57888.47
546.83	57574.84
547.00	57954.00
547.17	58024.22
547.34	57820.59
547.50	57970.39
547.67	58099.12
547.84	57991.45
548.00	58342.53
548.17	58333.17
548.34	58117.84
548.51	58433.81
548.67	58298.06
548.84	58279.34
549.01	58045.29
549.18	58443.18
549.34	58361.26
549.51	58302.74
549.68	58419.77
549.84	58499.35
550.01	58539.14
550.18	58555.52
550.34	58511.05
550.51	58623.40
550.68	58625.74
550.84	58211.46
551.01	58595.31
551.18	58857.45
551.34	58869.15
551.51	58831.71
551.68	58688.93
551.84	58728.72
552.01	58567.23
552.18	58829.37
552.34	58738.08
552.51	58944.05
552.68	58777.87
552.84	58773.19
553.01	58990.86
553.18	59056.40
553.34	58986.18
553.51	59065.76
553.67	59014.27
553.84	59047.04
554.01	59133.63
554.17	59185.13
554.34	59051.72
554.51	59103.21
554.67	59171.08
554.84	59114.91
555.00	59440.24
555.17	59091.51
555.33	58981.50
555.50	59004.91
555.67	59220.23
555.83	59166.40
556.00	59241.30
556.16	59473.01
556.33	59283.43
556.50	59112.57
556.66	59494.08
556.83	59360.67
556.99	59557.27
557.16	59618.13
557.32	59620.47
557.49	59898.99
557.65	59557.27
557.82	59538.55
557.98	59388.75
558.15	59650.89
558.32	59554.93
558.48	59576.00
558.65	59697.70
558.81	59552.59
558.98	59648.55
559.14	59826.43
559.31	59690.68
559.47	59842.82
559.64	59681.32
559.80	59898.99
559.97	60074.53
560.13	59669.62
560.30	59859.20
560.46	59831.11
560.63	59924.74
560.79	60074.53
560.96	60074.53
561.12	59854.52
561.29	59948.14
561.45	59978.57
561.61	60030.06
561.78	59903.67
561.94	59990.27
562.11	59948.14
562.27	60189.22
562.44	60121.34
562.60	60233.69
562.77	60025.38
562.93	59831.11
563.10	60198.58
563.26	60004.31
563.42	60285.18
563.59	60163.47
563.75	60086.23
563.92	60119.00
564.08	60111.98
564.24	60200.92
564.41	60238.37
564.57	60285.18
564.74	60287.52
564.90	60324.97
565.07	60233.69
565.23	60282.84
565.39	60207.94
565.56	60320.29
565.72	60411.57
565.88	60317.95
566.05	60329.65
566.21	60376.46
566.38	60376.46
566.54	60324.97
566.70	60559.02
566.87	60573.06
567.03	60200.92
567.19	60619.88
567.36	60502.85
567.52	60474.76
567.68	60720.52
567.85	60409.23
568.01	60500.51
568.17	60432.63
568.34	60397.52
568.50	60505.19
568.66	60406.89
568.83	60638.60
568.99	60533.28
569.15	60530.93
569.32	60662.00
569.48	60416.25
569.64	60687.75
569.81	60697.11
569.97	60523.91
570.13	60444.33
570.30	60559.02
570.46	60654.98
570.62	60662.00
570.78	60685.41
570.95	60598.81
571.11	60734.56
571.27	60640.94
571.43	60640.94
571.60	60832.86
571.76	60657.32
571.92	60790.73
572.09	60690.09
572.25	60757.97
572.41	60795.42
572.57	60769.67
572.74	60774.35
572.90	60931.17
573.06	60835.20
573.22	60659.66
573.38	60739.24
573.55	60816.48
573.71	60947.55
573.87	60725.20
574.03	60617.53
574.20	60954.57
574.36	60851.59
574.52	60779.03
574.68	60832.86
574.84	61001.38
575.01	60933.51
575.17	60844.57
575.33	60844.57
575.49	60722.86
575.65	60807.12
575.82	60825.84
575.98	61022.45
576.14	60926.49
576.30	60926.49
576.46	60959.25
576.62	60774.35
576.79	61024.79
576.95	60907.76
577.11	60982.66
577.27	61001.38
577.43	60828.18
577.59	60938.19
577.75	60767.33
577.92	60748.60
578.08	60966.27
578.24	60973.30
578.40	60926.49
578.56	61134.79
578.72	60924.14
578.88	60935.85
579.04	60994.36
579.21	60851.59
579.37	61092.66
579.53	61151.18
579.69	60903.08
579.85	60786.05
580.01	60999.04
580.17	60905.42
580.33	61062.24
580.49	61034.15
580.65	61123.09
580.82	60910.10
580.98	60898.40
581.14	61034.15
581.30	61169.90
581.46	60924.14
581.62	60987.34
581.78	61048.19
581.94	61113.73
582.10	60872.65
582.26	61092.66
582.42	60748.60
582.58	61102.03
582.74	60844.57
582.90	61090.32
583.06	61132.45
583.22	60987.34
583.38	61095.00
583.54	61179.26
583.70	61137.13
583.86	61179.26
584.02	61102.03
584.18	61172.24
584.34	61066.92
584.50	61307.99
584.66	60825.84
584.82	61066.92
584.98	61200.33
585.14	61247.14
585.30	61062.24
585.46	61113.73
585.62	61207.35
585.78	61352.46
585.94	61055.21
586.10	61057.56
586.26	61092.66
586.42	61151.18
586.58	61165.22
586.74	61095.00
586.90	61123.09
587.06	61069.26
587.22	61212.03
587.38	61153.52
587.54	61436.72
587.70	61284.59
587.86	61158.20
588.02	61261.18
588.18	61364.17
588.34	61207.35
588.49	61116.07
