SpectraSuite Data File
++++++++++++++++++++++++++++++++++++
Date: Fri Oct 25 11:25:37 EDT 2013
User: price-jones
Dark Spectrum Present: No
Reference Spectrum Present: No
Number of Sampled Component Spectra: 1
Spectrometers: USB2+H05261
Integration Time (usec): 100000 (USB2+H05261)
Spectra Averaged: 1 (USB2+H05261)
Boxcar Smoothing: 0 (USB2+H05261)
Correct for Electrical Dark: No (USB2+H05261)
Strobe/Lamp Enabled: No (USB2+H05261)
Correct for Detector Non-linearity: No (USB2+H05261)
Correct for Stray Light: No (USB2+H05261)
Number of Pixels in Processed Spectrum: 2048
>>>>>Begin Processed Spectral Data<<<<<
365.73	231.71
365.92	231.71
366.12	231.71
366.32	196.60
366.52	121.71
366.72	189.58
366.91	145.11
367.11	128.73
367.31	168.52
367.51	77.24
367.70	112.35
367.90	168.52
368.10	93.62
368.30	182.56
368.49	124.05
368.69	156.82
368.89	124.05
369.09	65.54
369.28	126.39
369.48	142.77
369.68	145.11
369.87	180.22
370.07	189.58
370.27	304.27
370.47	318.31
370.66	547.69
370.86	653.01
371.06	638.97
371.25	744.29
371.45	641.31
371.65	653.01
371.84	699.82
372.04	688.12
372.24	711.52
372.44	704.50
372.63	704.50
372.83	798.12
373.03	765.36
373.22	795.78
373.42	758.33
373.62	751.31
373.81	793.44
374.01	830.89
374.21	763.01
374.40	788.76
374.60	837.91
374.79	774.72
374.99	812.17
375.19	837.91
375.38	880.04
375.58	800.46
375.78	807.48
375.97	851.96
376.17	880.04
376.37	833.23
376.56	844.93
376.76	917.49
376.95	856.64
377.15	929.19
377.35	954.94
377.54	849.61
377.74	889.40
377.93	863.66
378.13	985.37
378.33	943.24
378.52	887.06
378.72	940.90
378.91	1022.81
379.11	873.02
379.31	952.60
379.50	901.11
379.70	882.38
379.89	1022.81
380.09	1006.43
380.28	908.13
380.48	943.24
380.68	957.28
380.87	945.58
381.07	1027.50
381.26	1025.15
381.46	1020.47
381.65	1001.75
381.85	1088.35
382.04	1039.20
382.24	1025.15
382.43	1095.37
382.63	1032.18
382.83	1090.69
383.02	1109.41
383.22	1046.22
383.41	1008.77
383.61	1132.82
383.80	1097.71
384.00	1156.22
384.19	1109.41
384.39	1174.95
384.58	1144.52
384.78	1193.67
384.97	1163.25
385.17	1160.91
385.36	1149.20
385.56	1184.31
385.75	1170.27
385.95	1303.68
386.14	1214.74
386.34	1114.10
386.53	1214.74
386.72	1165.59
386.92	1193.67
387.11	1219.42
387.31	1191.33
387.50	1172.61
387.70	1242.82
387.89	1252.19
388.09	1242.82
388.28	1306.02
388.48	1245.16
388.67	1299.00
388.86	1371.55
389.06	1252.19
389.25	1380.92
389.45	1338.79
389.64	1416.02
389.84	1315.38
390.03	1343.47
390.22	1500.28
390.42	1418.36
390.61	1306.02
390.81	1348.15
391.00	1416.02
391.19	1490.92
391.39	1406.66
391.58	1446.45
391.78	1387.94
391.97	1497.94
392.16	1504.96
392.36	1568.16
392.55	1500.28
392.75	1514.33
392.94	1509.65
393.13	1558.80
393.33	1521.35
393.52	1577.52
393.71	1598.59
393.91	1535.39
394.10	1582.20
394.29	1488.58
394.49	1591.56
394.68	1624.33
394.88	1582.20
395.07	1680.50
395.26	1589.22
395.46	1657.10
395.65	1708.59
395.84	1717.95
396.04	1757.74
396.23	1806.89
396.42	1820.94
396.62	1823.28
396.81	1935.62
397.00	1788.17
397.19	1732.00
397.39	1792.85
397.58	1788.17
397.77	1706.25
397.97	1846.68
398.16	1806.89
398.35	1863.07
398.55	1816.26
398.74	1879.45
398.93	1949.67
399.12	1902.86
399.32	1937.96
399.51	1959.03
399.70	2113.50
399.90	2015.20
400.09	2038.61
400.28	2038.61
400.47	2113.50
400.67	2012.86
400.86	1966.05
401.05	2078.40
401.24	2064.35
401.44	2076.06
401.63	2090.10
401.82	2139.25
402.01	2104.14
402.21	2134.57
402.40	2270.32
402.59	2307.77
402.78	2172.02
402.97	2122.87
403.17	2267.98
403.36	2253.94
403.55	2335.85
403.74	2396.71
403.93	2373.30
404.13	2441.18
404.32	2385.01
404.51	2441.18
404.70	2420.11
404.89	2349.90
405.09	2298.41
405.28	2401.39
405.47	2459.90
405.66	2413.09
405.85	2544.16
406.05	2497.35
406.24	2518.42
406.43	2541.82
406.62	2689.28
406.81	2658.85
407.00	2642.46
407.20	2452.88
407.39	2654.17
407.58	2635.44
407.77	2717.36
407.96	2843.75
408.15	2754.81
408.34	2782.90
408.54	2766.51
408.73	2841.41
408.92	2813.32
409.11	2818.00
409.30	2871.84
409.49	2913.97
409.68	2876.52
409.87	2937.37
410.07	2827.37
410.26	2984.18
410.45	2911.63
410.64	3101.21
410.83	3126.96
411.02	3101.21
411.21	3133.98
411.40	3089.51
411.59	3014.61
411.78	3150.36
411.98	3187.81
412.17	3265.05
412.36	3346.97
412.55	3386.76
412.74	3400.80
412.93	3375.05
413.12	3398.46
413.31	3576.34
413.50	3400.80
413.69	3620.81
413.88	3536.55
414.07	3520.17
414.26	3524.85
414.45	3559.95
414.64	3688.68
414.83	3702.73
415.02	3850.18
415.22	3836.14
415.41	3822.09
415.60	3875.93
415.79	3889.97
415.98	3925.08
416.17	3999.98
416.36	4098.28
416.55	4095.94
416.74	3896.99
416.93	3971.89
417.12	4060.83
417.31	4032.74
417.50	4224.67
417.69	4381.48
417.88	4285.52
418.07	4311.27
418.26	4344.03
418.45	4329.99
418.64	4388.50
418.83	4360.42
419.02	4641.28
419.21	4514.89
419.39	4393.19
419.58	4423.61
419.77	4402.55
419.96	4559.36
420.15	4657.67
420.34	4631.92
420.53	4500.85
420.72	4568.73
420.91	4559.36
421.10	4648.30
421.29	4772.35
421.48	4741.93
421.67	4662.35
421.86	4709.16
422.05	4690.43
422.24	4915.12
422.43	4903.42
422.61	4861.29
422.80	4798.10
422.99	4968.96
423.18	4889.38
423.37	5022.79
423.56	4873.00
423.75	4849.59
423.94	4912.78
424.13	4594.47
424.32	4681.07
424.50	5022.79
424.69	5114.07
424.88	4908.10
425.07	4847.25
425.26	4833.21
425.45	4952.57
425.64	4964.28
425.83	4894.06
426.01	5015.77
426.20	5055.56
426.39	4992.36
426.58	5015.77
426.77	5006.41
426.96	5231.10
427.15	4957.25
427.33	5144.50
427.52	5139.82
427.71	5207.69
427.90	5188.97
428.09	5256.84
428.28	5348.12
428.46	5352.81
428.65	5322.38
428.84	5493.24
429.03	5472.17
429.22	5348.12
429.40	5383.23
429.59	5439.40
429.78	5191.31
429.97	5235.78
430.16	5481.53
430.34	5518.98
430.53	5607.92
430.72	5813.89
430.91	5657.07
431.10	5479.19
431.28	5872.40
431.47	5547.07
431.66	5884.11
431.85	5774.10
432.03	5839.64
432.22	5956.66
432.41	5727.29
432.60	6122.84
432.79	6106.46
432.97	5935.60
433.16	5937.94
433.35	6031.56
433.54	5966.03
433.72	6097.10
433.91	6193.06
434.10	6150.93
434.28	6076.03
434.47	6076.03
434.66	6291.36
434.85	6209.44
435.03	6270.30
435.22	6181.35
435.41	6478.60
435.59	6396.68
435.78	6207.10
435.97	6455.20
436.16	6502.01
436.34	6347.53
436.53	6359.24
436.72	6560.52
436.90	6455.20
437.09	6672.87
437.28	6354.55
437.46	6623.72
437.65	6668.19
437.84	6810.96
438.02	6733.72
438.21	6731.38
438.40	6602.65
438.58	6841.39
438.77	6993.52
438.96	6998.20
439.14	7049.69
439.33	6986.50
439.52	7040.33
439.70	7169.06
439.89	7272.04
440.08	7405.46
440.26	7440.56
440.45	7426.52
440.63	7496.74
440.82	7407.80
441.01	7489.71
441.19	7562.27
441.38	7597.38
441.57	7737.81
441.75	7527.16
441.94	7801.01
442.12	7969.52
442.31	7899.31
442.50	8074.85
442.68	7995.27
442.87	8086.55
443.05	8152.09
443.24	8166.13
443.43	8037.40
443.61	8154.43
443.80	8425.93
443.98	7906.33
444.17	7733.13
444.35	8287.84
444.54	8318.26
444.73	8241.03
444.91	8374.44
445.10	8283.16
445.28	8107.62
445.47	8161.45
445.65	8304.22
445.84	8365.07
446.02	8500.83
446.21	8390.82
446.39	8400.18
446.58	8468.06
446.77	8383.80
446.95	8051.44
447.14	8374.44
447.32	8468.06
447.51	8407.20
447.69	8383.80
447.88	8435.29
448.06	8381.46
448.25	8547.64
448.43	8688.07
448.62	8645.94
448.80	8411.89
448.99	8681.05
449.17	8566.36
449.36	8507.85
449.54	8830.84
449.73	8774.67
449.91	8844.88
450.10	8929.14
450.28	8933.82
450.46	8966.59
450.65	8891.70
450.83	9109.36
451.02	9015.74
451.20	9071.92
451.39	9092.98
451.57	9153.84
451.76	8973.61
451.94	9132.77
452.13	9312.99
452.31	9371.50
452.49	9149.15
452.68	9329.38
452.86	9305.97
453.05	9451.08
453.23	9343.42
453.42	9235.75
453.60	9430.02
453.78	9493.21
453.97	9228.73
454.15	9621.94
454.34	9446.40
454.52	9755.35
454.70	9647.69
454.89	9778.76
455.07	9650.03
455.26	9813.87
455.44	10012.81
455.62	9767.06
455.81	9760.03
455.99	9853.66
456.17	9991.75
456.36	9881.74
456.54	10078.35
456.73	10127.50
456.91	10272.61
457.09	10178.99
457.28	10373.25
457.46	10134.52
457.64	10394.32
457.83	10604.97
458.01	10338.15
458.19	10775.83
458.38	10293.68
458.56	10600.29
458.74	10518.37
458.93	10553.48
459.11	10670.50
459.29	10621.35
459.48	10855.40
459.66	10597.95
459.84	10595.61
460.03	10832.00
460.21	10860.09
460.39	11037.97
460.57	11094.14
460.76	11110.52
460.94	11293.08
461.12	11157.33
461.31	11033.29
461.49	10974.77
461.67	11241.59
461.85	11407.77
462.04	11197.12
462.22	11721.40
462.40	11733.11
462.59	11412.45
462.77	11396.07
462.95	11644.17
463.13	11396.07
463.32	11609.06
463.50	11508.41
463.68	11641.82
463.86	11918.01
464.05	11735.45
464.23	11826.73
464.41	11892.26
464.59	11250.96
464.78	12250.36
464.96	11852.47
465.14	11719.06
465.32	11936.73
465.50	11974.18
465.69	12060.78
465.87	12123.98
466.05	12072.48
466.23	12102.91
466.41	12168.45
466.60	12531.23
466.78	12018.65
466.96	12056.10
467.14	12273.77
467.32	12451.65
467.51	12449.31
467.69	12229.30
467.87	12379.09
468.05	12573.36
468.23	12372.07
468.41	12535.91
468.60	12711.45
468.78	12643.57
468.96	12629.53
469.14	12585.06
469.32	12868.27
469.50	12650.60
469.69	12929.12
469.87	13226.37
470.05	12924.44
470.23	13226.37
470.41	13064.87
470.59	13352.76
470.77	13153.81
470.95	13303.60
471.14	13298.92
471.32	12989.97
471.50	13458.08
471.68	13455.74
471.86	13635.96
472.04	13437.02
472.22	13874.70
472.40	13542.34
472.58	13797.46
472.77	13991.72
472.95	14120.45
473.13	14572.18
473.31	13919.17
473.49	14183.65
473.67	14174.28
473.85	14253.86
474.03	14516.00
474.21	14480.89
474.39	14834.32
474.57	14651.75
474.75	14757.08
474.93	14911.55
475.12	14876.44
475.30	15110.50
475.48	14780.48
475.66	15063.69
475.84	15077.73
476.02	15279.02
476.20	15267.31
476.38	15747.12
476.56	15775.21
476.74	15824.36
476.92	15704.99
477.10	15843.09
477.28	16161.40
477.46	16011.60
477.64	16058.42
477.82	16386.09
478.00	16837.81
478.18	16741.85
478.36	16959.52
478.54	16872.92
478.72	16858.88
478.90	17425.29
479.08	17345.71
479.26	17731.90
479.44	17380.82
479.62	17951.91
479.80	17708.49
479.98	18066.60
480.16	18354.48
480.34	18115.75
480.52	18317.03
480.70	18618.96
480.88	18331.08
481.06	18831.95
481.24	18698.54
481.41	19496.66
481.59	18995.79
481.77	19377.30
481.95	19592.62
482.13	19768.16
482.31	19674.54
482.49	20051.37
482.67	20243.29
482.85	20739.49
483.03	20833.11
483.21	20713.74
483.39	21254.40
483.57	20790.98
483.74	21109.29
483.92	21231.00
484.10	21223.98
484.28	21493.14
484.46	21888.69
484.64	22246.79
484.82	21956.57
485.00	21989.33
485.18	22609.58
485.35	22946.61
485.53	22958.31
485.71	22881.08
485.89	23171.30
486.07	23075.34
486.25	23374.93
486.43	23777.50
486.61	23433.44
486.78	24137.94
486.96	24187.10
487.14	24219.86
487.32	24514.77
487.50	25099.90
487.68	25200.55
487.85	25076.50
488.03	25135.01
488.21	25848.88
488.39	25418.22
488.57	26003.35
488.75	26127.40
488.92	26195.28
489.10	26548.70
489.28	26525.29
489.46	27110.43
489.64	26874.03
489.81	27253.20
489.99	27346.82
490.17	27744.71
490.35	28020.89
490.53	28020.89
490.70	28355.59
490.88	28203.46
491.06	28386.02
491.24	28601.35
491.41	28896.25
491.59	29214.57
491.77	28877.53
491.95	29762.25
492.13	29816.08
492.30	30008.01
492.48	30139.08
492.66	29937.79
492.84	30071.20
493.01	30190.57
493.19	30469.09
493.37	30948.90
493.54	30803.79
493.72	31433.39
493.90	31276.58
494.08	31522.34
494.25	31955.33
494.43	31655.75
494.61	32414.08
494.79	32346.20
494.96	32107.47
495.14	32692.60
495.32	32690.26
495.49	33010.92
495.67	33076.45
495.85	33244.97
496.02	33659.24
496.20	33762.23
496.38	33605.41
496.55	34017.35
496.73	34925.47
496.91	34452.69
497.09	34689.08
497.26	34677.38
497.44	34932.50
497.62	35211.02
497.79	35653.38
497.97	35271.87
498.14	35782.11
498.32	36044.25
498.50	35854.67
498.67	36442.14
498.85	36439.80
499.03	36449.16
499.20	36453.84
499.38	36928.97
499.56	36994.51
499.73	36959.40
499.91	36676.19
500.08	37441.55
500.26	37509.43
500.44	37567.94
500.61	37731.78
500.79	37645.18
500.97	38007.96
501.14	38415.21
501.32	38064.13
501.49	38562.67
501.67	38450.32
501.84	39241.42
502.02	38880.98
502.20	38932.47
502.37	39194.61
502.55	39178.23
502.72	39309.30
502.90	39208.65
503.07	39257.81
503.25	39782.09
503.43	39608.89
503.60	40037.20
503.78	40423.39
503.95	40208.06
504.13	40402.33
504.30	40636.38
504.48	40297.00
504.65	40659.79
504.83	40545.10
505.01	40910.22
505.18	41221.52
505.36	41397.06
505.53	40980.44
505.71	41226.20
505.88	41649.83
506.06	41563.23
506.23	41507.06
506.41	41596.00
506.58	41684.94
506.76	41785.58
506.93	42185.82
507.11	42246.67
507.28	42761.59
507.46	42450.30
507.63	43103.31
507.81	42920.74
507.98	42618.81
508.16	43012.02
508.33	43323.32
508.50	43295.23
508.68	43571.41
508.85	43688.44
509.03	43311.61
509.20	43662.69
509.38	43959.94
509.55	44163.57
509.73	44357.83
509.90	44238.47
510.08	44516.99
510.25	44769.77
510.42	44769.77
510.60	44949.99
510.77	45045.95
510.95	45052.97
511.12	45139.57
511.30	45022.54
511.47	45226.17
511.64	45347.88
511.82	45565.55
511.99	45523.42
512.17	45811.31
512.34	45371.28
512.51	46504.10
512.69	46600.07
512.86	46471.34
513.04	46213.88
513.21	46616.45
513.38	46445.59
513.56	46738.16
513.73	46391.76
513.90	47044.77
514.08	46824.76
514.25	46731.14
514.43	47136.05
514.60	47295.21
514.77	47035.41
514.95	47288.18
515.12	47414.57
515.29	47346.70
515.47	47440.32
515.64	47971.62
515.81	47597.13
515.99	48004.39
516.16	48624.63
516.33	48107.37
516.51	48575.48
516.68	48418.66
516.85	48488.88
517.03	48830.60
517.20	48449.09
517.37	48821.23
517.54	48650.38
517.72	48512.28
517.89	48652.72
518.06	48905.49
518.24	49148.91
518.41	49069.33
518.58	49347.86
518.75	49347.86
518.93	49366.58
519.10	49359.56
519.27	49399.35
519.45	49780.85
519.62	49619.36
519.79	49820.64
519.96	50145.98
520.14	49907.24
520.31	50124.91
520.48	50192.79
520.65	50054.70
520.83	50429.18
521.00	50429.18
521.17	50583.66
521.34	50377.69
521.52	50721.75
521.69	50508.76
521.86	50644.51
522.03	51239.01
522.20	51409.87
522.38	51260.07
522.55	51281.14
522.72	50934.74
522.89	51021.34
523.07	51437.95
523.24	51360.72
523.41	51679.03
523.58	51494.13
523.75	51756.27
523.92	51606.47
524.10	52072.24
524.27	51924.78
524.44	52051.17
524.61	51934.15
524.78	51910.74
524.96	52039.47
525.13	52308.63
525.30	52238.42
525.47	52481.83
525.64	52334.38
525.81	52570.77
525.98	52725.25
526.16	52404.59
526.33	52643.33
526.50	52842.27
526.67	52278.21
526.84	52795.46
527.01	52907.81
527.18	53099.73
527.36	52774.40
527.53	53066.97
527.70	53506.99
527.87	53125.48
528.04	53237.83
528.21	53485.92
528.38	53078.67
528.55	53516.35
528.72	53495.28
528.89	53200.38
529.07	53404.00
529.24	53350.17
529.41	53518.69
529.58	53499.97
529.75	53462.52
529.92	53605.29
530.09	53827.64
530.26	53705.93
530.43	53628.69
530.60	53682.53
530.77	53553.80
530.94	54148.29
531.11	53673.16
531.28	53930.62
531.46	54389.37
531.63	54319.15
531.80	54225.53
531.97	54211.49
532.14	54274.68
532.31	54162.34
532.48	54536.82
532.65	54653.85
532.82	54330.86
532.99	54452.56
533.16	54541.50
533.33	54712.36
533.50	54759.17
533.67	54885.56
533.84	54827.05
534.01	54852.80
534.18	54593.00
534.35	54993.23
534.52	54848.11
534.69	54892.58
534.86	55058.76
535.03	54965.14
535.20	55182.81
535.37	54990.89
535.54	55192.17
535.71	55175.79
535.88	55126.64
536.05	55217.92
536.22	55695.39
536.38	55564.32
536.55	55327.92
536.72	55391.12
536.89	55358.35
537.06	55344.31
537.23	55604.11
537.40	55370.05
537.57	55587.72
537.74	55800.71
537.91	55711.77
538.08	55721.13
538.25	55639.22
538.42	55770.28
538.59	55976.25
538.75	55950.51
538.92	56102.64
539.09	56479.47
539.26	55945.83
539.43	56020.72
539.60	56168.18
539.77	56109.66
539.94	56156.47
540.11	56353.08
540.28	56266.48
540.44	56406.91
540.61	56339.04
540.78	55880.29
540.95	56301.59
541.12	56165.84
541.29	56343.72
541.46	56416.27
541.62	56568.41
541.79	56498.19
541.96	56083.92
542.13	56432.66
542.30	56612.88
542.47	56701.82
542.63	56734.59
542.80	56816.50
542.97	56842.25
543.14	56882.04
543.31	57048.22
543.48	57172.27
543.64	57460.15
543.81	57258.87
543.98	57190.99
544.15	57214.40
544.32	57392.28
544.48	57394.62
544.65	57286.95
544.82	57134.82
544.99	57361.85
545.16	57359.51
545.32	57329.08
545.49	57427.38
545.66	57638.03
545.83	57408.66
546.00	57572.50
546.16	57504.62
546.33	57261.21
546.50	57301.00
546.67	57577.18
546.83	57223.76
547.00	57680.16
547.17	57535.05
547.34	57808.89
547.50	57907.19
547.67	57909.53
547.84	57921.24
548.00	57991.45
548.17	58101.46
548.34	57890.81
548.51	58150.61
548.67	57790.17
548.84	58078.05
549.01	58120.18
549.18	57766.76
549.34	57897.83
549.51	58122.52
549.68	58330.83
549.84	58281.68
550.01	58225.51
550.18	58190.40
550.34	58258.27
550.51	58651.48
550.68	58389.34
550.84	58064.01
551.01	58422.11
551.18	58440.84
551.34	58419.77
551.51	58710.00
551.68	58702.98
551.84	58195.08
552.01	58192.74
552.18	58616.38
552.34	58340.19
552.51	58607.01
552.68	58349.56
552.84	58494.67
553.01	58738.08
553.18	58747.45
553.34	58794.26
553.51	58691.27
553.67	58548.50
553.84	58899.58
554.01	58920.65
554.17	58899.58
554.34	58780.21
554.51	58920.65
554.67	59082.14
554.84	58667.87
555.00	58878.52
555.17	59269.39
555.33	58777.87
555.50	58766.17
555.67	58738.08
555.83	58904.26
556.00	58878.52
556.16	59402.80
556.33	59182.79
556.50	58974.48
556.66	59299.81
556.83	58932.35
556.99	59175.76
557.16	59458.97
557.32	59313.86
557.49	59606.42
557.65	59238.96
557.82	59253.00
557.98	59304.49
558.15	59461.31
558.32	59374.71
558.48	59271.73
558.65	59348.96
558.81	59473.01
558.98	59456.63
559.14	59447.27
559.31	59372.37
559.47	59693.02
559.64	59791.33
559.80	59536.21
559.97	59671.96
560.13	59625.15
560.30	59657.91
560.46	59952.82
560.63	59594.72
560.79	59875.58
560.96	59508.12
561.12	59669.62
561.29	59587.70
561.45	59693.02
561.61	59688.34
561.78	59971.55
561.94	59805.37
562.11	59686.00
562.27	59814.73
562.44	59803.03
562.60	60128.36
562.77	59880.27
562.93	59730.47
563.10	60275.82
563.26	59824.09
563.42	60142.41
563.59	59906.01
563.75	59838.14
563.92	60111.98
564.08	60039.42
564.24	59999.63
564.41	60067.51
564.57	59999.63
564.74	60048.78
564.90	59966.87
565.07	60086.23
565.23	60168.15
565.39	59807.71
565.56	60004.31
565.72	60020.70
565.88	60133.04
566.05	59922.40
566.21	60074.53
566.38	60196.24
566.54	60231.35
566.70	60200.92
566.87	60381.14
567.03	60046.44
567.19	60381.14
567.36	60102.62
567.52	60100.28
567.68	60481.78
567.85	60315.61
568.01	60250.07
568.17	60278.16
568.34	60292.20
568.50	60097.94
568.66	60362.42
568.83	60392.84
568.99	60062.83
569.15	60252.41
569.32	60315.61
569.48	60069.85
569.64	60587.11
569.81	60278.16
569.97	60306.24
570.13	60294.54
570.30	60168.15
570.46	60376.46
570.62	60369.44
570.78	60420.93
570.95	60360.08
571.11	60521.57
571.27	60229.01
571.43	60264.11
571.60	60556.68
571.76	60711.16
571.92	60470.08
572.09	60474.76
572.25	60406.89
572.41	60369.44
572.57	60488.80
572.74	60596.47
572.90	60367.10
573.06	60463.06
573.22	60334.33
573.38	60514.55
573.55	60329.65
573.71	60755.63
573.87	60528.59
574.03	60465.40
574.20	60673.71
574.36	60568.38
574.52	60514.55
574.68	60353.05
574.84	60554.34
575.01	60589.45
575.17	60395.18
575.33	60383.48
575.49	60463.06
575.65	60603.49
575.82	60779.03
575.98	60750.94
576.14	60755.63
576.30	60786.05
576.46	60647.96
576.62	60507.53
576.79	60533.28
576.95	60596.47
577.11	60479.44
577.27	60680.73
577.43	60776.69
577.59	60685.41
577.75	60584.77
577.92	60509.87
578.08	60650.30
578.24	60587.11
578.40	60940.53
578.56	60790.73
578.72	60673.71
578.88	61020.11
579.04	61036.49
579.21	60860.95
579.37	61027.13
579.53	60860.95
579.69	60320.29
579.85	60729.88
580.01	60772.01
580.17	60673.71
580.33	60776.69
580.49	60743.92
580.65	60788.39
580.82	60711.16
580.98	60750.94
581.14	60790.73
581.30	61052.87
581.46	60622.22
581.62	60809.46
581.78	60657.32
581.94	60867.97
582.10	60734.56
582.26	60907.76
582.42	60587.11
582.58	60837.54
582.74	60753.29
582.90	60704.13
583.06	60912.44
583.22	60734.56
583.38	60720.52
583.54	60879.67
583.70	61048.19
583.86	61010.74
584.02	60896.06
584.18	61057.56
584.34	60867.97
584.50	60982.66
584.66	60809.46
584.82	60767.33
584.98	61045.85
585.14	61104.37
585.30	60839.89
585.46	60877.33
585.62	60886.70
585.78	61064.58
585.94	60844.57
586.10	61034.15
586.26	60807.12
586.42	61034.15
586.58	60844.57
586.74	60910.10
586.90	60844.57
587.06	60729.88
587.22	61092.66
587.38	60940.53
587.54	61048.19
587.70	61247.14
587.86	60884.36
588.02	61013.08
588.18	61076.28
588.34	61036.49
588.49	60903.08
