SpectraSuite Data File
++++++++++++++++++++++++++++++++++++
Date: Fri Oct 25 11:22:42 EDT 2013
User: price-jones
Dark Spectrum Present: No
Reference Spectrum Present: No
Number of Sampled Component Spectra: 1
Spectrometers: USB2+H05261
Integration Time (usec): 100000 (USB2+H05261)
Spectra Averaged: 1 (USB2+H05261)
Boxcar Smoothing: 0 (USB2+H05261)
Correct for Electrical Dark: No (USB2+H05261)
Strobe/Lamp Enabled: No (USB2+H05261)
Correct for Detector Non-linearity: No (USB2+H05261)
Correct for Stray Light: No (USB2+H05261)
Number of Pixels in Processed Spectrum: 2048
>>>>>Begin Processed Spectral Data<<<<<
365.73	245.76
365.92	245.76
366.12	245.76
366.32	124.05
366.52	145.11
366.72	91.28
366.91	152.13
367.11	159.16
367.31	95.96
367.51	98.30
367.70	112.35
367.90	168.52
368.10	107.66
368.30	105.32
368.49	102.98
368.69	102.98
368.89	180.22
369.09	88.94
369.28	208.31
369.48	196.60
369.68	166.18
369.87	203.63
370.07	175.54
370.27	290.23
370.47	367.46
370.66	559.39
370.86	596.84
371.06	671.73
371.25	744.29
371.45	657.69
371.65	683.44
371.84	678.76
372.04	690.46
372.24	589.82
372.44	674.07
372.63	688.12
372.83	732.59
373.03	760.67
373.22	727.91
373.42	765.36
373.62	699.82
373.81	692.80
374.01	821.53
374.21	751.31
374.40	821.53
374.60	772.38
374.79	779.40
374.99	863.66
375.19	851.96
375.38	863.66
375.58	858.98
375.78	777.06
375.97	779.40
376.17	861.32
376.37	802.80
376.56	767.70
376.76	863.66
376.95	840.25
377.15	931.53
377.35	919.83
377.54	912.81
377.74	931.53
377.93	896.43
378.13	870.68
378.33	898.77
378.52	903.45
378.72	882.38
378.91	922.17
379.11	966.64
379.31	917.49
379.50	903.45
379.70	954.94
379.89	966.64
380.09	1008.77
380.28	1015.79
380.48	1022.81
380.68	954.94
380.87	959.62
381.07	926.85
381.26	1036.86
381.46	1013.45
381.65	1022.81
381.85	968.98
382.04	1048.56
382.24	1097.71
382.43	1071.97
382.63	1015.79
382.83	954.94
383.02	1076.65
383.22	1071.97
383.41	1109.41
383.61	1107.07
383.80	1146.86
384.00	1111.75
384.19	1114.10
384.39	1097.71
384.58	1123.46
384.78	1191.33
384.97	1165.59
385.17	1121.12
385.36	1097.71
385.56	1142.18
385.75	1191.33
385.95	1240.48
386.14	1149.20
386.34	1184.31
386.53	1224.10
386.72	1149.20
386.92	1273.25
387.11	1205.38
387.31	1240.48
387.50	1284.95
387.70	1259.21
387.89	1231.12
388.09	1270.91
388.28	1228.78
388.48	1296.66
388.67	1242.82
388.86	1205.38
389.06	1273.25
389.25	1336.45
389.45	1291.98
389.64	1385.60
389.84	1336.45
390.03	1416.02
390.22	1383.26
390.42	1317.72
390.61	1432.41
390.81	1441.77
391.00	1451.13
391.19	1409.00
391.39	1465.18
391.58	1373.89
391.78	1455.81
391.97	1511.99
392.16	1474.54
392.36	1535.39
392.55	1504.96
392.75	1591.56
392.94	1488.58
393.13	1575.18
393.33	1523.69
393.52	1556.46
393.71	1540.07
393.91	1614.97
394.10	1556.46
394.29	1535.39
394.49	1563.48
394.68	1659.44
394.88	1668.80
395.07	1598.59
395.26	1682.85
395.46	1764.76
395.65	1788.17
395.84	1703.91
396.04	1792.85
396.23	1727.32
396.42	1706.25
396.62	1701.57
396.81	1802.21
397.00	1727.32
397.19	1657.10
397.39	1774.13
397.58	1795.19
397.77	1736.68
397.97	1792.85
398.16	1792.85
398.35	1947.33
398.55	1905.20
398.74	1863.07
398.93	2080.74
399.12	1900.52
399.32	1926.26
399.51	1884.13
399.70	1916.90
399.90	2010.52
400.09	2008.18
400.28	1902.86
400.47	1980.09
400.67	2040.95
400.86	2167.34
401.05	2071.37
401.24	2062.01
401.44	2148.61
401.63	2090.10
401.82	2157.97
402.01	2125.21
402.21	2141.59
402.40	2197.76
402.59	2146.27
402.78	2200.10
402.97	2132.23
403.17	2204.78
403.36	2209.47
403.55	2293.72
403.74	2424.80
403.93	2406.07
404.13	2457.56
404.32	2382.67
404.51	2207.13
404.70	2427.14
404.89	2513.74
405.09	2471.61
405.28	2513.74
405.47	2396.71
405.66	2588.63
405.85	2567.57
406.05	2541.82
406.24	2504.37
406.43	2551.18
406.62	2665.87
406.81	2602.68
407.00	2586.29
407.20	2588.63
407.39	2663.53
407.58	2747.79
407.77	2656.51
407.96	2780.56
408.15	2738.43
408.34	2672.89
408.54	2787.58
408.73	2808.64
408.92	2729.06
409.11	2963.12
409.30	2810.98
409.49	2883.54
409.68	2895.24
409.87	3009.93
410.07	2958.44
410.26	2918.65
410.45	2972.48
410.64	3005.25
410.83	3138.66
411.02	3096.53
411.21	3199.51
411.40	3190.15
411.59	3323.56
411.78	3251.00
411.98	3148.02
412.17	3344.63
412.36	3311.86
412.55	3531.87
412.74	3414.84
412.93	3356.33
413.12	3552.93
413.31	3538.89
413.50	3361.01
413.69	3538.89
413.88	3482.72
414.07	3646.55
414.26	3679.32
414.45	3613.79
414.64	3655.92
414.83	3733.15
415.02	3854.86
415.22	3894.65
415.41	3878.27
415.60	3864.22
415.79	3810.39
415.98	3915.72
416.17	3880.61
416.36	3927.42
416.55	4011.68
416.74	4161.47
416.93	3997.64
417.12	4067.85
417.31	4128.70
417.50	4173.18
417.69	4320.63
417.88	4159.13
418.07	4236.37
418.26	4269.14
418.45	4365.10
418.64	4482.13
418.83	4390.84
419.02	4437.66
419.21	4594.47
419.39	4500.85
419.58	4381.48
419.77	4442.34
419.96	4545.32
420.15	4624.90
420.34	4573.41
420.53	4514.89
420.72	4657.67
420.91	4631.92
421.10	4718.52
421.29	4924.49
421.48	4692.77
421.67	4662.35
421.86	4781.71
422.05	4681.07
422.24	4788.74
422.43	4837.89
422.61	5036.83
422.80	4910.44
422.99	5011.09
423.18	4938.53
423.37	5013.43
423.56	4910.44
423.75	4973.64
423.94	4819.16
424.13	4664.69
424.32	4760.65
424.50	5006.41
424.69	5053.22
424.88	4912.78
425.07	5011.09
425.26	4795.76
425.45	5085.98
425.64	5027.47
425.83	4800.44
426.01	5228.76
426.20	5004.07
426.39	5116.41
426.58	4980.66
426.77	5060.24
426.96	5172.58
427.15	5200.67
427.33	5289.61
427.52	5153.86
427.71	5322.38
427.90	5249.82
428.09	5228.76
428.28	5341.10
428.46	5453.45
428.65	5256.84
428.84	5631.33
429.03	5706.23
429.22	5268.55
429.40	5568.13
429.59	5458.13
429.78	5357.49
429.97	5291.95
430.16	5582.18
430.34	5561.11
430.53	5643.03
430.72	5640.69
430.91	5591.54
431.10	5654.73
431.28	5640.69
431.47	5823.25
431.66	5764.74
431.85	5682.82
432.03	5968.37
432.22	5879.43
432.41	5877.09
432.60	5989.43
432.79	6036.24
432.97	6024.54
433.16	5970.71
433.35	6073.69
433.54	6003.47
433.72	6174.33
433.91	5916.87
434.10	6183.70
434.28	6216.46
434.47	6108.80
434.66	6228.17
434.85	6209.44
435.03	6368.60
435.22	6249.23
435.41	6476.26
435.59	6413.07
435.78	6473.92
435.97	6359.24
436.16	6438.81
436.34	6389.66
436.53	6544.14
436.72	6752.45
436.90	6469.24
437.09	6682.23
437.28	6462.22
437.46	6677.55
437.65	6717.34
437.84	7040.33
438.02	6715.00
438.21	6792.23
438.40	6855.43
438.58	6853.09
438.77	7108.21
438.96	7157.36
439.14	7215.87
439.33	7105.87
439.52	7192.47
439.70	7119.91
439.89	7335.24
440.08	7323.54
440.26	7330.56
440.45	7412.48
440.63	7623.12
440.82	7536.52
441.01	7550.57
441.19	7618.44
441.38	7660.57
441.57	7803.35
441.75	8056.12
441.94	8063.15
442.12	7932.08
442.31	8112.30
442.50	7995.27
442.68	7906.33
442.87	8046.76
443.05	8224.64
443.24	8301.88
443.43	8243.37
443.61	8344.01
443.80	8496.14
443.98	8196.56
444.17	7997.61
444.35	8198.90
444.54	8468.06
444.73	8273.79
444.91	8205.92
445.10	8217.62
445.28	8482.10
445.47	8362.73
445.65	8285.50
445.84	8414.23
446.02	8575.72
446.21	8332.31
446.39	8428.27
446.58	8683.39
446.77	8482.10
446.95	8498.49
447.14	8395.50
447.32	8765.31
447.51	8559.34
447.69	8535.93
447.88	8472.74
448.06	8613.17
448.25	8587.43
448.43	8723.18
448.62	8676.37
448.80	8411.89
448.99	8442.31
449.17	8512.53
449.36	8594.45
449.54	8648.28
449.73	8952.55
449.91	8805.10
450.10	8753.60
450.28	9121.07
450.46	9125.75
450.65	8957.23
450.83	9165.54
451.02	9137.45
451.20	9207.67
451.39	9259.16
451.57	9273.20
451.76	9123.41
451.94	9076.60
452.13	9415.98
452.31	9294.27
452.49	9315.33
452.68	9357.46
452.86	9530.66
453.05	9394.91
453.23	9486.19
453.42	9486.19
453.60	9549.39
453.78	9687.48
453.97	9516.62
454.15	9610.24
454.34	9341.08
454.52	9654.71
454.70	9591.52
454.89	9673.43
455.07	9898.13
455.26	10033.88
455.44	10010.47
455.62	10024.51
455.81	10118.14
455.99	10068.98
456.17	10239.84
456.36	10047.92
456.54	10319.42
456.73	10108.77
456.91	10464.54
457.09	10387.30
457.28	10665.82
457.46	10279.63
457.64	10511.35
457.83	10565.18
458.01	10415.38
458.19	10775.83
458.38	10588.58
458.56	10609.65
458.74	10600.29
458.93	10869.45
459.11	10710.29
459.29	10663.48
459.48	10719.65
459.66	10918.60
459.84	10981.79
460.03	11286.06
460.21	10998.18
460.39	10857.75
460.57	10874.13
460.76	11344.58
460.94	11211.17
461.12	11309.47
461.31	11119.89
461.49	11253.30
461.67	11243.93
461.85	11136.27
462.04	11391.39
462.22	11775.24
462.40	11698.00
462.59	11435.86
462.77	11641.82
462.95	11726.08
463.13	11506.07
463.32	11442.88
463.50	11826.73
463.68	11819.71
463.86	11948.43
464.05	11726.08
464.23	11894.60
464.41	11702.68
464.59	11674.59
464.78	11960.14
464.96	12116.95
465.14	11943.75
465.32	11918.01
465.50	12219.94
465.69	12184.83
465.87	12035.03
466.05	12231.64
466.23	12273.77
466.41	12252.70
466.60	12608.47
466.78	12098.23
466.96	12306.54
467.14	12262.07
467.32	12432.93
467.51	12622.51
467.69	12189.51
467.87	12578.04
468.05	12617.83
468.23	12325.26
468.41	12556.97
468.60	12711.45
468.78	12774.64
468.96	12561.66
469.14	12793.37
469.32	12954.87
469.50	12809.75
469.69	13200.62
469.87	12987.63
470.05	13172.54
470.23	13099.98
470.41	13331.69
470.59	13268.50
470.77	13006.36
470.95	13284.88
471.14	13603.19
471.32	12847.20
471.50	13598.51
471.68	13418.29
471.86	14045.55
472.04	13628.94
472.22	14099.39
472.40	13877.04
472.58	13937.89
472.77	13996.40
472.95	14139.18
473.13	14494.94
473.31	14230.46
473.49	14223.44
473.67	14363.87
473.85	14375.57
474.03	14190.67
474.21	14616.65
474.39	14878.79
474.57	14637.71
474.75	14712.61
474.93	15115.18
475.12	14885.81
475.30	15101.14
475.48	15054.33
475.66	14878.79
475.84	15101.14
476.02	15356.25
476.20	15477.96
476.38	15779.89
476.56	16086.50
476.74	15854.79
476.92	15983.52
477.10	15868.83
477.28	16009.26
477.46	16142.67
477.64	16287.79
477.82	16638.87
478.00	16931.44
478.18	16699.72
478.36	17142.08
478.54	17483.80
478.72	17465.08
478.90	17268.47
479.08	17582.10
479.26	17724.88
479.44	17771.69
479.62	17804.46
479.80	18122.77
479.98	18178.94
480.16	18403.63
480.34	18167.24
480.52	18794.50
480.70	18703.22
480.88	18546.40
481.06	18764.07
481.24	18874.08
481.41	19213.46
481.59	19534.11
481.77	19487.30
481.95	19583.26
482.13	19552.84
482.31	19578.58
482.49	20376.70
482.67	20292.44
482.85	20421.17
483.03	20692.68
483.21	20889.28
483.39	21109.29
483.57	20779.28
483.74	21165.46
483.92	21516.54
484.10	21247.38
484.28	21720.17
484.46	21708.47
484.64	22661.07
484.82	22022.10
485.00	22698.52
485.18	22604.89
485.35	22806.18
485.53	23026.19
485.71	23274.29
485.89	23456.85
486.07	23307.05
486.25	23398.34
486.43	23435.78
486.61	23936.66
486.78	24210.50
486.96	24151.99
487.14	24737.12
487.32	24458.60
487.50	24954.79
487.68	25116.29
487.85	25273.10
488.03	25891.01
488.21	25764.62
488.39	26267.83
488.57	26384.86
488.75	25839.51
488.92	26874.03
489.10	26965.31
489.28	26778.07
489.46	27143.19
489.64	26878.71
489.81	27674.49
489.99	27737.69
490.17	27693.22
490.35	28116.86
490.53	28374.31
490.70	28978.17
490.88	28278.35
491.06	28933.70
491.24	28716.03
491.41	29202.86
491.59	29575.01
491.77	29270.74
491.95	29748.21
492.13	29766.93
492.30	29883.96
492.48	30424.62
492.66	29961.20
492.84	30312.28
493.01	30724.21
493.19	30658.68
493.37	31072.95
493.54	31307.01
493.72	31604.25
493.90	31920.23
494.08	32009.17
494.25	32245.56
494.43	32112.15
494.61	32311.10
494.79	32779.20
494.96	32444.51
495.14	32989.85
495.32	33467.32
495.49	32914.95
495.67	33251.99
495.85	33748.18
496.02	33745.84
496.20	33710.74
496.38	34218.63
496.55	33972.88
496.73	35077.61
496.91	34703.12
497.09	35065.91
497.26	35049.52
497.44	34991.01
497.62	35400.60
497.79	35695.51
497.97	35807.86
498.14	36102.76
498.32	36067.66
498.50	36407.03
498.67	36926.63
498.85	36442.14
499.03	36723.01
499.20	36786.20
499.38	36964.08
499.56	36933.65
499.73	37109.19
499.91	37308.14
500.08	37689.65
500.26	37441.55
500.44	37624.11
500.61	38043.07
500.79	37834.76
500.97	38469.04
501.14	38770.97
501.32	38642.24
501.49	38469.04
501.67	38876.30
501.84	39407.60
502.02	39288.23
502.20	39269.51
502.37	39679.10
502.55	39349.09
502.72	39629.95
502.90	39325.68
503.07	39234.40
503.25	39697.83
503.43	39742.30
503.60	40465.52
503.78	39882.73
503.95	40273.60
504.13	40416.37
504.30	40556.80
504.48	40357.86
504.65	40612.98
504.83	40847.03
505.01	41876.86
505.18	41174.70
505.36	41757.50
505.53	41450.89
505.71	41743.45
505.88	42057.09
506.06	41741.11
506.23	42146.03
506.41	42263.05
506.58	42029.00
506.76	42712.44
506.93	42504.13
507.11	42628.18
507.28	43079.90
507.46	42756.91
507.63	42913.72
507.81	43707.16
507.98	43103.31
508.16	43194.59
508.33	43601.84
508.50	43215.65
508.68	43831.21
508.85	44306.34
509.03	44140.16
509.20	44521.67
509.38	44524.01
509.55	44526.35
509.73	44502.95
509.90	44563.80
510.08	44318.04
510.25	44788.49
510.42	44655.08
510.60	44804.88
510.77	45422.78
510.95	45478.95
511.12	45116.17
511.30	45390.01
511.47	45734.07
511.64	45610.02
511.82	46052.38
511.99	45209.79
512.17	45691.94
512.34	46155.36
512.51	46609.43
512.69	46389.42
512.86	46340.27
513.04	46937.10
513.21	46497.08
513.38	46773.27
513.56	46899.65
513.73	46948.81
513.90	47138.39
514.08	46916.04
514.25	47213.29
514.43	47828.85
514.60	47576.07
514.77	47964.60
514.95	48147.16
515.12	47838.21
515.29	47536.28
515.47	47913.11
515.64	48215.04
515.81	47676.71
515.99	48367.17
516.16	48545.05
516.33	48264.19
516.51	49193.38
516.68	48245.46
516.85	48725.27
517.03	49205.08
517.20	48907.83
517.37	49083.37
517.54	48975.71
517.72	49275.30
517.89	48999.12
518.06	49352.54
518.24	49244.87
518.41	49635.74
518.58	49593.61
518.75	49645.10
518.93	49682.55
519.10	49663.83
519.27	50335.56
519.45	49918.95
519.62	50094.49
519.79	50270.03
519.96	50396.42
520.14	50419.82
520.31	50073.42
520.48	50550.89
520.65	50426.84
520.83	50504.08
521.00	50918.35
521.17	50443.23
521.34	51016.66
521.52	50618.77
521.69	51072.83
521.86	51180.49
522.03	51285.82
522.20	51014.32
522.38	51461.36
522.55	51540.94
522.72	51484.76
522.89	51262.41
523.07	51767.97
523.24	51571.36
523.41	51716.48
523.58	51484.76
523.75	51980.96
523.92	52053.51
524.10	52371.83
524.27	52161.18
524.44	51880.31
524.61	52009.04
524.78	52446.72
524.96	52231.40
525.13	52451.41
525.30	52411.62
525.47	52727.59
525.64	52444.38
525.81	52580.13
525.98	52664.39
526.16	52526.30
526.33	52776.74
526.50	53450.81
526.67	52912.49
526.84	53052.92
527.01	52893.77
527.18	52956.96
527.36	52697.16
527.53	53429.75
527.70	53354.85
527.87	53427.41
528.04	53205.06
528.21	53427.41
528.38	53392.30
528.55	53556.14
528.72	53399.32
528.89	53712.95
529.07	53315.06
529.24	53525.71
529.41	53633.38
529.58	53820.62
529.75	53902.54
529.92	54066.38
530.09	53872.11
530.26	54089.78
530.43	54103.82
530.60	53928.28
530.77	53804.24
530.94	54087.44
531.11	54183.40
531.28	54309.79
531.46	54230.21
531.63	54461.93
531.80	54546.18
531.97	54384.69
532.14	54717.04
532.31	54384.69
532.48	54752.15
532.65	54681.94
532.82	54593.00
532.99	54749.81
533.16	54705.34
533.33	55110.25
533.50	55112.59
533.67	54796.62
533.84	54878.54
534.01	54822.37
534.18	54997.91
534.35	55498.78
534.52	55168.77
534.69	55089.19
534.86	55248.35
535.03	55292.82
535.20	55068.12
535.37	55426.23
535.54	55573.68
535.71	55327.92
535.88	55487.08
536.05	55447.29
536.22	55543.25
536.38	55615.81
536.55	55468.36
536.72	55882.63
536.89	55594.74
537.06	55789.01
537.23	55990.30
537.40	55643.90
537.57	55847.52
537.74	55941.14
537.91	56126.05
538.08	55908.38
538.25	55758.58
538.42	56289.88
538.59	56083.92
538.75	55934.12
538.92	56076.90
539.09	56554.36
539.26	55810.07
539.43	56233.71
539.60	56561.39
539.77	56233.71
539.94	56381.16
540.11	56481.81
540.28	56170.52
540.44	56519.26
540.61	56458.40
540.78	56392.87
540.95	56519.26
541.12	56268.82
541.29	56662.03
541.46	56472.45
541.62	56750.97
541.79	56905.44
541.96	56545.00
542.13	56781.40
542.30	56818.84
542.47	56994.39
542.63	56818.84
542.80	57052.90
542.97	57048.22
543.14	57148.86
543.31	57338.44
543.48	57333.76
543.64	57457.81
543.81	57336.10
543.98	57427.38
544.15	57303.34
544.32	57691.86
544.48	57670.80
544.65	57558.45
544.82	57577.18
544.99	57350.15
545.16	57499.94
545.32	57474.20
545.49	57668.46
545.66	57792.51
545.83	57787.83
546.00	57682.50
546.16	57724.63
546.33	57565.48
546.50	57436.75
546.67	57659.10
546.83	57607.61
547.00	57890.81
547.17	57794.85
547.34	57675.48
547.50	57942.30
547.67	58246.57
547.84	58014.86
548.00	58202.10
548.17	58319.13
548.34	58255.93
548.51	58239.55
548.67	58202.10
548.84	58199.76
549.01	58108.48
549.18	58344.87
549.34	58209.12
549.51	58223.17
549.68	58440.84
549.84	58454.88
550.01	58272.32
550.18	58358.92
550.34	58473.60
550.51	58513.39
550.68	58663.19
550.84	58443.18
551.01	58630.42
551.18	58529.78
551.34	58614.04
551.51	58702.98
551.68	58628.08
551.84	58749.79
552.01	58630.42
552.18	58782.55
552.34	58576.59
552.51	58731.06
552.68	58754.47
552.84	58695.95
553.01	58937.03
553.18	59030.65
553.34	58876.18
553.51	58890.22
553.67	58906.60
553.84	59114.91
554.01	59077.46
554.17	58873.84
554.34	58962.78
554.51	59075.12
554.67	59255.34
554.84	59061.08
555.00	58925.33
555.17	58864.47
555.33	59086.82
555.50	59042.35
555.67	59192.15
555.83	59009.59
556.00	59236.62
556.16	59662.60
556.33	59456.63
556.50	59398.12
556.66	59512.80
556.83	59309.18
556.99	59526.84
557.16	59714.09
557.32	59639.19
557.49	59669.62
557.65	59470.67
557.82	59458.97
557.98	59395.77
558.15	59468.33
558.32	59552.59
558.48	59473.01
558.65	59482.37
558.81	59510.46
558.98	59721.11
559.14	59767.92
559.31	59805.37
559.47	59835.80
559.64	59934.10
559.80	59901.33
559.97	60046.44
560.13	59508.12
560.30	59648.55
560.46	59639.19
560.63	59817.07
560.79	59793.67
560.96	59934.10
561.12	60083.89
561.29	59936.44
561.45	59751.54
561.61	59889.63
561.78	59999.63
561.94	59889.63
562.11	59980.91
562.27	60128.36
562.44	60147.09
562.60	60137.72
562.77	60186.88
562.93	59847.50
563.10	60041.76
563.26	59756.22
563.42	60175.17
563.59	60210.28
563.75	60027.72
563.92	60142.41
564.08	60170.49
564.24	60320.29
564.41	60324.97
564.57	60390.50
564.74	60072.19
564.90	60285.18
565.07	60268.79
565.23	60287.52
565.39	60271.14
565.56	60343.69
565.72	60278.16
565.88	60367.10
566.05	60406.89
566.21	60076.87
566.38	60329.65
566.54	60378.80
566.70	60406.89
566.87	60322.63
567.03	60186.88
567.19	60535.62
567.36	60526.25
567.52	60362.42
567.68	60729.88
567.85	60329.65
568.01	60434.97
568.17	60355.39
568.34	60521.57
568.50	60350.71
568.66	60488.80
568.83	60580.09
568.99	60374.12
569.15	60465.40
569.32	60654.98
569.48	60413.91
569.64	60533.28
569.81	60460.72
569.97	60463.06
570.13	60465.40
570.30	60463.06
570.46	60601.15
570.62	60669.03
570.78	60697.11
570.95	60582.43
571.11	60570.72
571.27	60434.97
571.43	60369.44
571.60	60757.97
571.76	60561.36
571.92	60949.89
572.09	60734.56
572.25	60739.24
572.41	60495.83
572.57	60589.45
572.74	60898.40
572.90	60741.58
573.06	60809.46
573.22	60690.09
573.38	60807.12
573.55	60650.30
573.71	60940.53
573.87	60699.45
574.03	60650.30
574.20	60612.85
574.36	60589.45
574.52	60729.88
574.68	60694.77
574.84	60741.58
575.01	60804.78
575.17	60629.24
575.33	60720.52
575.49	60741.58
575.65	60842.23
575.82	60882.02
575.98	61017.77
576.14	61034.15
576.30	60917.12
576.46	60889.04
576.62	60903.08
576.79	60856.27
576.95	60795.42
577.11	60858.61
577.27	60968.61
577.43	61052.87
577.59	60633.92
577.75	60823.50
577.92	60802.44
578.08	60851.59
578.24	61057.56
578.40	61080.96
578.56	61015.43
578.72	60811.80
578.88	60931.17
579.04	61083.30
579.21	60959.25
579.37	60968.61
579.53	61071.60
579.69	60905.42
579.85	61127.77
580.01	61034.15
580.17	61029.47
580.33	60886.70
580.49	61141.81
580.65	60942.87
580.82	60760.31
580.98	60748.60
581.14	60966.27
581.30	61125.43
581.46	60893.72
581.62	61003.72
581.78	60959.25
581.94	61048.19
582.10	61162.88
582.26	60945.21
582.42	61036.49
582.58	61113.73
582.74	60860.95
582.90	60963.93
583.06	60926.49
583.22	60828.18
583.38	60977.98
583.54	60980.32
583.70	61076.28
583.86	61209.69
584.02	60977.98
584.18	61120.75
584.34	61087.98
584.50	61022.45
584.66	61003.72
584.82	60867.97
584.98	61298.63
585.14	61071.60
585.30	60811.80
585.46	60879.67
585.62	61139.47
585.78	61179.26
585.94	60907.76
586.10	61193.31
586.26	61277.57
586.42	61139.47
586.58	61247.14
586.74	61226.07
586.90	60996.70
587.06	60968.61
587.22	61190.97
587.38	61289.27
587.54	61387.57
587.70	61361.82
587.86	61291.61
588.02	61221.39
588.18	61319.70
588.34	61045.85
588.49	61116.07
