SpectraSuite Data File
++++++++++++++++++++++++++++++++++++
Date: Fri Oct 25 10:47:00 EDT 2013
User: price-jones
Dark Spectrum Present: No
Reference Spectrum Present: No
Number of Sampled Component Spectra: 1
Spectrometers: USB2+H05261
Integration Time (usec): 100000 (USB2+H05261)
Spectra Averaged: 1 (USB2+H05261)
Boxcar Smoothing: 0 (USB2+H05261)
Correct for Electrical Dark: No (USB2+H05261)
Strobe/Lamp Enabled: No (USB2+H05261)
Correct for Detector Non-linearity: No (USB2+H05261)
Correct for Stray Light: No (USB2+H05261)
Number of Pixels in Processed Spectrum: 2048
>>>>>Begin Processed Spectral Data<<<<<
365.73	91.28
365.92	91.28
366.12	91.28
366.32	39.79
366.52	49.15
366.72	39.79
366.91	53.83
367.11	32.77
367.31	0.00
367.51	11.70
367.70	46.81
367.90	91.28
368.10	93.62
368.30	51.49
368.49	7.02
368.69	56.17
368.89	30.43
369.09	81.92
369.28	128.73
369.48	126.39
369.68	105.32
369.87	142.77
370.07	23.41
370.27	88.94
370.47	112.35
370.66	409.59
370.86	477.47
371.06	482.15
371.25	411.93
371.45	456.40
371.65	479.81
371.84	477.47
372.04	367.46
372.24	524.28
372.44	430.66
372.63	498.53
372.83	491.51
373.03	484.49
373.22	444.70
373.42	491.51
373.62	440.02
373.81	468.11
374.01	585.13
374.21	524.28
374.40	482.15
374.60	571.09
374.79	589.82
374.99	629.60
375.19	566.41
375.38	608.54
375.58	643.65
375.78	528.96
375.97	573.43
376.17	741.95
376.37	634.29
376.56	517.26
376.76	510.24
376.95	594.50
377.15	641.31
377.35	594.50
377.54	573.43
377.74	603.86
377.93	676.41
378.13	732.59
378.33	669.39
378.52	683.44
378.72	643.65
378.91	648.33
379.11	643.65
379.31	617.90
379.50	596.84
379.70	676.41
379.89	617.90
380.09	634.29
380.28	559.39
380.48	634.29
380.68	629.60
380.87	711.52
381.07	641.31
381.26	709.18
381.46	697.48
381.65	678.76
381.85	664.71
382.04	690.46
382.24	702.16
382.43	641.31
382.63	723.23
382.83	690.46
383.02	730.25
383.22	812.17
383.41	748.97
383.61	746.63
383.80	788.76
384.00	758.33
384.19	739.61
384.39	767.70
384.58	725.57
384.78	805.14
384.97	765.36
385.17	842.59
385.36	835.57
385.56	777.06
385.75	716.20
385.95	716.20
386.14	840.25
386.34	828.55
386.53	770.04
386.72	856.64
386.92	763.01
387.11	849.61
387.31	847.27
387.50	746.63
387.70	847.27
387.89	870.68
388.09	896.43
388.28	809.83
388.48	863.66
388.67	894.08
388.86	875.36
389.06	875.36
389.25	926.85
389.45	884.72
389.64	940.90
389.84	954.94
390.03	891.74
390.22	1064.94
390.42	924.51
390.61	952.60
390.81	931.53
391.00	933.87
391.19	1032.18
391.39	1034.52
391.58	947.92
391.78	1032.18
391.97	1053.24
392.16	997.07
392.36	992.39
392.55	983.02
392.75	1053.24
392.94	1015.79
393.13	1018.13
393.33	968.98
393.52	1004.09
393.71	1013.45
393.91	1132.82
394.10	1167.93
394.29	973.66
394.49	1137.50
394.68	1139.84
394.88	1198.35
395.07	1233.46
395.26	1142.18
395.46	1137.50
395.65	1158.57
395.84	1188.99
396.04	1240.48
396.23	1156.22
396.42	1139.84
396.62	1212.40
396.81	1217.08
397.00	1233.46
397.19	1188.99
397.39	1270.91
397.58	1308.36
397.77	1362.19
397.97	1343.47
398.16	1348.15
398.35	1315.38
398.55	1392.62
398.74	1366.87
398.93	1497.94
399.12	1324.74
399.32	1277.93
399.51	1399.64
399.70	1441.77
399.90	1526.03
400.09	1479.22
400.28	1523.69
400.47	1460.49
400.67	1554.12
400.86	1490.92
401.05	1570.50
401.24	1441.77
401.44	1509.65
401.63	1631.35
401.82	1666.46
402.01	1523.69
402.21	1575.18
402.40	1542.41
402.59	1713.27
402.78	1633.69
402.97	1556.46
403.17	1689.87
403.36	1596.25
403.55	1692.21
403.74	1692.21
403.93	1659.44
404.13	1689.87
404.32	1834.98
404.51	1727.32
404.70	1673.48
404.89	1736.68
405.09	1813.92
405.28	1867.75
405.47	1785.83
405.66	1834.98
405.85	1774.13
406.05	1694.55
406.24	1818.60
406.43	1783.49
406.62	1919.24
406.81	2097.12
407.00	1907.54
407.20	1900.52
407.39	1956.69
407.58	1905.20
407.77	2057.33
407.96	2040.95
408.15	2099.46
408.34	1996.48
408.54	2125.21
408.73	2139.25
408.92	2134.57
409.11	2087.76
409.30	2223.51
409.49	2017.54
409.68	2141.59
409.87	2029.24
410.07	2319.47
410.26	2237.55
410.45	2291.38
410.64	2359.26
410.83	2160.31
411.02	2349.90
411.21	2354.58
411.40	2403.73
411.59	2436.50
411.78	2377.98
411.98	2424.80
412.17	2487.99
412.36	2328.83
412.55	2455.22
412.74	2527.78
412.93	2516.08
413.12	2558.21
413.31	2637.78
413.50	2562.89
413.69	2684.59
413.88	2691.62
414.07	2717.36
414.26	2717.36
414.45	2663.53
414.64	2843.75
414.83	2897.58
415.02	2883.54
415.22	2832.05
415.41	2890.56
415.60	2928.01
415.79	2984.18
415.98	3054.40
416.17	2916.31
416.36	2970.14
416.55	3009.93
416.74	3112.91
416.93	3117.59
417.12	3112.91
417.31	3108.23
417.50	3176.11
417.69	3215.90
417.88	3204.19
418.07	3183.13
418.26	3248.66
418.45	3155.04
418.64	3246.32
418.83	3201.85
419.02	3302.50
419.21	3295.47
419.39	3403.14
419.58	3361.01
419.77	3370.37
419.96	3267.39
420.15	3454.63
420.34	3459.31
420.53	3529.53
420.72	3543.57
420.91	3513.14
421.10	3641.87
421.29	3667.62
421.48	3588.04
421.67	3543.57
421.86	3524.85
422.05	3709.75
422.24	3637.19
422.43	3583.36
422.61	3585.70
422.80	3648.90
422.99	3646.55
423.18	3679.32
423.37	3693.37
423.56	3658.26
423.75	3585.70
423.94	3653.58
424.13	3473.36
424.32	3648.90
424.50	3777.62
424.69	3908.69
424.88	3777.62
425.07	3691.02
425.26	3641.87
425.45	3705.07
425.64	3803.37
425.83	3639.53
426.01	3789.33
426.20	3873.59
426.39	3803.37
426.58	3646.55
426.77	3719.11
426.96	3779.97
427.15	3857.20
427.33	3836.14
427.52	3770.60
427.71	3805.71
427.90	3974.23
428.09	3981.25
428.28	4058.49
428.46	3908.69
428.65	3953.16
428.84	4208.28
429.03	4152.11
429.22	3801.03
429.40	3857.20
429.59	3981.25
429.78	3864.22
429.97	3801.03
430.16	3843.16
430.34	3904.01
430.53	3983.59
430.72	4037.42
430.91	4014.02
431.10	4168.49
431.28	4290.20
431.47	4308.93
431.66	4383.82
431.85	4339.35
432.03	4421.27
432.22	4416.59
432.41	4259.78
432.60	4489.15
432.79	4320.63
432.97	4262.12
433.16	4484.47
433.35	4374.46
433.54	4407.23
433.72	4449.36
433.91	4489.15
434.10	4592.13
434.28	4652.98
434.47	4489.15
434.66	4545.32
434.85	4564.04
435.03	4688.09
435.22	4629.58
435.41	4685.75
435.59	4760.65
435.78	4791.08
435.97	4933.85
436.16	4732.56
436.34	4800.44
436.53	4784.06
436.72	4889.38
436.90	4772.35
437.09	4837.89
437.28	4772.35
437.46	4894.06
437.65	4807.46
437.84	4975.98
438.02	4973.64
438.21	4992.36
438.40	4975.98
438.58	4999.38
438.77	5048.54
438.96	5188.97
439.14	5177.26
439.33	5348.12
439.52	5303.65
439.70	5416.00
439.89	5441.75
440.08	5497.92
440.26	5341.10
440.45	5334.08
440.63	5458.13
440.82	5628.99
441.01	5628.99
441.19	5582.18
441.38	5551.75
441.57	5738.99
441.75	5858.36
441.94	5912.19
442.12	5748.36
442.31	5830.27
442.50	5846.66
442.68	5902.83
442.87	5923.90
443.05	5930.92
443.24	6029.22
443.43	6026.88
443.61	6200.08
443.80	6179.01
443.98	5902.83
444.17	5811.55
444.35	6061.99
444.54	6296.04
444.73	5970.71
444.91	6148.59
445.10	6162.63
445.28	6076.03
445.47	6001.13
445.65	5996.45
445.84	6113.48
446.02	6174.33
446.21	6150.93
446.39	6136.88
446.58	6143.91
446.77	6188.38
446.95	6157.95
447.14	6296.04
447.32	6392.00
447.51	6249.23
447.69	6267.95
447.88	6286.68
448.06	6209.44
448.25	6129.86
448.43	6282.00
448.62	6424.77
448.80	6256.25
448.99	6321.79
449.17	6471.58
449.36	6338.17
449.54	6574.56
449.73	6572.22
449.91	6614.35
450.10	6633.08
450.28	6670.53
450.46	6808.62
450.65	6715.00
450.83	6731.38
451.02	6630.74
451.20	6787.55
451.39	6906.92
451.57	6677.55
451.76	6696.27
451.94	6665.85
452.13	6876.49
452.31	6630.74
452.49	6733.72
452.68	6876.49
452.86	6913.94
453.05	6775.85
453.23	6839.05
453.42	6822.66
453.60	6782.87
453.78	6829.68
453.97	6761.81
454.15	6927.99
454.34	6827.34
454.52	7075.44
454.70	7061.40
454.89	6986.50
455.07	7066.08
455.26	7276.73
455.44	7311.83
455.62	7213.53
455.81	7241.62
455.99	7283.75
456.17	7475.67
456.36	7431.20
456.54	7417.16
456.73	7431.20
456.91	7592.70
457.09	7344.60
457.28	7796.32
457.46	7538.87
457.64	7644.19
457.83	7728.45
458.01	7564.61
458.19	7599.72
458.38	7723.77
458.56	7695.68
458.74	7875.90
458.93	7875.90
459.11	7880.58
459.29	7726.11
459.48	7833.77
459.66	7672.28
459.84	7911.01
460.03	8025.70
460.21	7999.95
460.39	8011.65
460.57	7962.50
460.76	8016.33
460.94	8098.25
461.12	7955.48
461.31	8224.64
461.49	8086.55
461.67	8074.85
461.85	8255.07
462.04	8313.58
462.22	8779.35
462.40	8489.12
462.59	8348.69
462.77	8269.11
462.95	8407.20
463.13	8451.67
463.32	8290.18
463.50	8432.95
463.68	8381.46
463.86	8582.74
464.05	8189.53
464.23	8397.84
464.41	8229.32
464.59	8318.26
464.78	8667.00
464.96	8610.83
465.14	8425.93
465.32	8671.68
465.50	8587.43
465.69	8706.79
465.87	8727.86
466.05	8655.30
466.23	8870.63
466.41	8882.33
466.60	8837.86
466.78	8678.71
466.96	8769.99
467.14	8732.54
467.32	8777.01
467.51	8966.59
467.69	8641.26
467.87	8924.46
468.05	9043.83
468.23	8844.88
468.41	9078.94
468.60	8894.04
468.78	9064.89
468.96	9097.66
469.14	9226.39
469.32	9118.73
469.50	8802.75
469.69	9083.62
469.87	9338.74
470.05	9266.18
470.23	9254.48
470.41	9212.35
470.59	9453.42
470.77	9341.08
470.95	9521.30
471.14	9528.32
471.32	9465.13
471.50	9703.86
471.68	9757.69
471.86	9811.53
472.04	9600.88
472.22	9987.07
472.40	9610.24
472.58	10052.60
472.77	9792.80
472.95	9940.26
473.13	10382.62
473.31	9963.66
473.49	10078.35
473.67	9970.68
473.85	10101.75
474.03	10127.50
474.21	10387.30
474.39	10239.84
474.57	10457.51
474.75	10693.91
474.93	10501.98
475.12	10630.71
475.30	10848.38
475.48	10476.24
475.66	10642.42
475.84	10602.63
476.02	10633.05
476.20	10963.07
476.38	10927.96
476.56	11564.59
476.74	11061.37
476.92	11145.63
477.10	11185.42
477.28	11541.18
477.46	11344.58
477.64	11463.94
477.82	11372.66
478.00	11815.02
478.18	11707.36
478.36	11948.43
478.54	11955.46
478.72	12154.40
478.90	12409.52
479.08	12414.20
479.26	12407.18
479.44	12348.67
479.62	12503.14
479.80	12585.06
479.98	12643.57
480.16	12858.90
480.34	12741.88
480.52	13006.36
480.70	12922.10
480.88	12938.48
481.06	13233.39
481.24	13282.54
481.41	13233.39
481.59	13488.51
481.77	13514.25
481.95	13528.30
482.13	13977.68
482.31	13886.40
482.49	14476.21
482.67	14101.73
482.85	14209.39
483.03	14284.29
483.21	14340.46
483.39	14593.24
483.57	14738.35
483.74	14637.71
483.92	14864.74
484.10	14796.87
484.28	15218.16
484.46	15185.40
484.64	15431.15
484.82	15314.13
485.00	15222.84
485.18	15716.70
485.35	15946.07
485.53	15573.92
485.71	15309.44
485.89	15690.95
486.07	15688.61
486.25	15763.51
486.43	16046.71
486.61	16283.11
486.78	16791.00
486.96	16365.03
487.14	17137.40
487.32	16856.54
487.50	17060.16
487.68	16938.46
487.85	17561.04
488.03	17359.75
488.21	17631.26
488.39	17914.46
488.57	17666.36
488.75	17741.26
488.92	18134.47
489.10	18382.57
489.28	18431.72
489.46	18572.15
489.64	18621.30
489.81	19089.41
489.99	18876.42
490.17	19391.34
490.35	19250.91
490.53	19201.76
490.70	19632.41
490.88	19536.45
491.06	20058.39
491.24	20273.72
491.41	19847.74
491.59	20018.60
491.77	19829.02
491.95	19887.53
492.13	20133.29
492.30	20809.70
492.48	20636.50
492.66	20746.51
492.84	21083.55
493.01	21064.82
493.19	20879.92
493.37	21462.71
493.54	21060.14
493.72	21348.03
493.90	21413.56
494.08	21752.94
494.25	21774.00
494.43	22307.65
494.61	22242.11
494.79	22300.62
494.96	22279.56
495.14	22562.76
495.32	22628.30
495.49	22595.53
495.67	22609.58
495.85	22794.48
496.02	23082.36
496.20	23342.16
496.38	23417.06
496.55	23241.52
496.73	23800.91
496.91	23601.96
497.09	23454.51
497.26	23997.51
497.44	23718.99
497.62	24327.53
497.79	24175.39
497.97	23969.43
498.14	24098.16
498.32	24151.99
498.50	24561.58
498.67	24713.72
498.85	25048.41
499.03	24945.43
499.20	24915.00
499.38	25085.86
499.56	25399.49
499.73	24959.47
499.91	25195.87
500.08	25331.62
500.26	25355.02
500.44	25671.00
500.61	25710.78
500.79	25415.88
500.97	26176.55
501.14	26455.08
501.32	26064.21
501.49	25867.60
501.67	26122.72
501.84	26211.66
502.02	26403.58
502.20	26504.23
502.37	26827.22
502.55	26691.47
502.72	26838.92
502.90	26665.72
503.07	26761.69
503.25	26815.52
503.43	26998.08
503.60	26752.32
503.78	26904.46
503.95	27234.47
504.13	27175.96
504.30	27693.22
504.48	27218.09
504.65	27873.44
504.83	27779.82
505.01	27807.90
505.18	27906.21
505.36	28315.80
505.53	28177.71
505.71	28622.41
505.88	28336.87
506.06	28261.97
506.23	28271.33
506.41	28126.22
506.58	28669.22
506.76	28472.62
506.93	28584.96
507.11	28966.47
507.28	28790.93
507.46	28947.75
507.63	28589.64
507.81	29130.31
507.98	28884.55
508.16	29397.13
508.33	29291.80
508.50	29205.20
508.68	29984.60
508.85	29909.71
509.03	29757.57
509.20	29558.63
509.38	29872.26
509.55	29855.87
509.73	30218.66
509.90	29968.22
510.08	29921.41
510.25	30316.96
510.42	30143.76
510.60	30345.05
510.77	30670.38
510.95	30595.48
511.12	30808.47
511.30	30466.75
511.47	31119.76
511.64	31096.36
511.82	31335.09
511.99	31028.48
512.17	30843.58
512.34	30962.95
512.51	31438.08
512.69	31442.76
512.86	31660.43
513.04	31651.06
513.21	31676.81
513.38	31782.13
513.56	31702.56
513.73	31620.64
513.90	31840.65
514.08	31915.54
514.25	31906.18
514.43	32013.85
514.60	31997.46
514.77	32149.60
514.95	32273.65
515.12	32002.14
515.29	32470.25
515.47	32783.88
515.64	32587.28
515.81	32802.61
515.99	32783.88
516.16	32758.14
516.33	32872.82
516.51	32790.91
516.68	32470.25
516.85	32149.60
517.03	32334.50
517.20	32540.47
517.37	32800.27
517.54	33312.84
517.72	33165.39
517.89	33216.88
518.06	33123.26
518.24	33137.30
518.41	33277.74
518.58	33273.06
518.75	32980.49
518.93	33968.19
519.10	33383.06
519.27	33893.30
519.45	33909.68
519.62	33769.25
519.79	34440.98
519.96	34525.24
520.14	34607.16
520.31	34382.47
520.48	34553.33
520.65	34429.28
520.83	34895.05
521.00	34600.14
521.17	34939.52
521.34	34766.32
521.52	34649.29
521.69	34834.19
521.86	35164.21
522.03	35260.17
522.20	34969.94
522.38	35302.30
522.55	35283.58
522.72	35115.06
522.89	35316.34
523.07	35655.72
523.24	35283.58
523.41	35917.86
523.58	35470.82
523.75	35978.72
523.92	35700.19
524.10	35974.03
524.27	36130.85
524.44	36123.83
524.61	35857.01
524.78	36252.56
524.96	36484.27
525.13	36418.74
525.30	36730.03
525.47	37057.70
525.64	36524.06
525.81	36336.82
525.98	36486.61
526.16	36437.46
526.33	36154.26
526.50	36926.63
526.67	35936.59
526.84	36327.45
527.01	36442.14
527.18	37081.11
527.36	37078.77
527.53	37263.67
527.70	37247.29
527.87	37198.13
528.04	37141.96
528.21	37247.29
528.38	37123.24
528.55	37680.28
528.72	37481.34
528.89	38103.92
529.07	37991.58
529.24	37354.95
529.41	37748.16
529.58	37556.24
529.75	37649.86
529.92	37532.83
530.09	37748.16
530.26	37872.21
530.43	38389.47
530.60	38150.73
530.77	38188.18
530.94	38251.38
531.11	37759.86
531.28	38263.08
531.46	38639.90
531.63	38436.28
531.80	38368.40
531.97	38157.75
532.14	38675.01
532.31	38366.06
532.48	38382.45
532.65	38445.64
532.82	38401.17
532.99	38410.53
533.16	38724.16
533.33	38707.78
533.50	38759.27
533.67	39166.52
533.84	38831.83
534.01	38827.15
534.18	39035.45
534.35	39112.69
534.52	38993.32
534.69	39416.96
534.86	39309.30
535.03	38930.13
535.20	39873.37
535.37	39452.07
535.54	40041.88
535.71	39372.49
535.88	39194.61
536.05	39700.17
536.22	39555.05
536.38	39721.23
536.55	39704.85
536.72	39812.51
536.89	39147.80
537.06	40109.76
537.23	40016.14
537.40	40058.27
537.57	40060.61
537.74	39739.96
537.91	40147.21
538.08	40147.21
538.25	39672.08
538.42	40334.45
538.59	40341.47
538.75	39526.97
538.92	40313.39
539.09	40411.69
539.26	40304.02
539.43	40287.64
539.60	40493.61
539.77	40048.91
539.94	40463.18
540.11	40229.13
540.28	40392.97
540.44	40521.69
540.61	40275.94
540.78	40360.20
540.95	41001.50
541.12	40900.86
541.29	40947.67
541.46	40348.50
541.62	40669.15
541.79	40746.39
541.96	40722.98
542.13	40652.76
542.30	41155.98
542.47	40751.07
542.63	40608.29
542.80	40945.33
542.97	41298.75
543.14	41282.37
543.31	41551.53
543.48	41165.34
543.64	42192.84
543.81	41713.03
543.98	41553.87
544.15	41600.68
544.32	41848.78
544.48	41837.08
544.65	41673.24
544.82	42010.28
544.99	41481.31
545.16	41979.85
545.32	41715.37
545.49	41928.36
545.66	42302.84
545.83	41844.10
546.00	42436.25
546.16	41818.35
546.33	41937.72
546.50	41642.81
546.67	42361.36
546.83	41977.51
547.00	42515.83
547.17	42220.92
547.34	42117.94
547.50	42344.97
547.67	42600.09
547.84	42127.30
548.00	42309.86
548.17	42824.78
548.34	42738.18
548.51	42848.19
548.67	42600.09
548.84	42590.73
549.01	42244.33
549.18	42717.12
549.34	42913.72
549.51	42822.44
549.68	42728.82
549.84	43180.54
550.01	42904.36
550.18	42983.94
550.34	43143.09
550.51	43351.40
550.68	43152.46
550.84	42466.68
551.01	43629.93
551.18	42951.17
551.34	43421.62
551.51	43065.86
551.68	43203.95
551.84	42827.12
552.01	43295.23
552.18	43454.39
552.34	42972.24
552.51	43332.68
552.68	43398.21
552.84	43243.74
553.01	43723.55
553.18	43374.81
553.34	43672.06
553.51	43145.44
553.67	43885.04
553.84	44048.88
554.01	44259.53
554.17	43601.84
554.34	43988.03
554.51	43686.10
554.67	43658.01
554.84	43709.50
555.00	43718.87
555.17	43791.42
555.33	43931.86
555.50	43709.50
555.67	43934.20
555.83	43985.69
556.00	43966.96
556.16	44289.96
556.33	44037.18
556.50	44109.74
556.66	44786.15
556.83	44053.56
556.99	44311.02
557.16	44306.34
557.32	43908.45
557.49	44385.92
557.65	43765.68
557.82	43957.60
557.98	44236.12
558.15	43765.68
558.32	44388.26
558.48	44296.98
558.65	43950.58
558.81	44435.07
558.98	44683.17
559.14	44250.17
559.31	44205.70
559.47	44566.14
559.64	44774.45
559.80	44580.18
559.97	44524.01
560.13	44091.01
560.30	44109.74
560.46	44444.43
560.63	44676.15
560.79	44477.20
560.96	44861.05
561.12	44626.99
561.29	44449.11
561.45	44744.02
561.61	44779.13
561.78	45034.25
561.94	44601.25
562.11	44617.63
562.27	44643.38
562.44	44477.20
562.60	44783.81
562.77	44900.84
562.93	44772.11
563.10	44907.86
563.26	44793.17
563.42	44818.92
563.59	45022.54
563.75	44552.10
563.92	45439.16
564.08	45010.84
564.24	44870.41
564.41	44875.09
564.57	44952.33
564.74	44619.97
564.90	45125.53
565.07	45006.16
565.23	45155.96
565.39	44851.69
565.56	44940.63
565.72	45067.02
565.88	45181.70
566.05	45174.68
566.21	44814.24
566.38	44554.44
566.54	44624.65
566.70	44952.33
566.87	45825.35
567.03	45153.62
567.19	45621.72
567.36	44964.03
567.52	44865.73
567.68	45347.88
567.85	45581.93
568.01	45443.84
568.17	44945.31
568.34	45263.62
568.50	44896.16
568.66	44947.65
568.83	45397.03
568.99	45155.96
569.15	45191.06
569.32	45413.41
569.48	45055.31
569.64	45509.38
569.81	45441.50
569.97	45078.72
570.13	45598.32
570.30	45209.79
570.46	44755.72
570.62	45055.31
570.78	45214.47
570.95	45074.04
571.11	45270.64
571.27	45038.93
571.43	44772.11
571.60	45614.70
571.76	45338.52
571.92	44905.52
572.09	45280.00
572.25	44842.32
572.41	45251.92
572.57	45425.12
572.74	45659.17
572.90	45294.05
573.06	45549.17
573.22	45474.27
573.38	45097.44
573.55	44917.22
573.71	45469.59
573.87	45507.04
574.03	45127.87
574.20	45057.65
574.36	44657.42
574.52	45640.45
574.68	45689.60
574.84	45317.45
575.01	45296.39
575.17	45195.74
575.33	45586.61
575.49	45113.83
575.65	45682.58
575.82	45230.85
575.98	45565.55
576.14	45902.59
576.30	45364.26
576.46	45455.54
576.62	45514.06
576.79	45600.66
576.95	44734.66
577.11	45343.20
577.27	45123.19
577.43	45469.59
577.59	45862.80
577.75	45357.24
577.92	45015.52
578.08	45139.57
578.24	45291.71
578.40	45130.21
578.56	45275.32
578.72	45453.20
578.88	45219.15
579.04	45528.10
579.21	45492.99
579.37	45413.41
579.53	45649.81
579.69	45422.78
579.85	45614.70
580.01	45558.53
580.17	45610.02
580.33	45432.14
580.49	45645.13
580.65	45420.44
580.82	45308.09
580.98	45312.77
581.14	44949.99
581.30	45574.91
581.46	45778.54
581.62	45741.09
581.78	45394.69
581.94	46059.40
582.10	45570.23
582.26	45769.18
582.42	45485.97
582.58	46092.17
582.74	45408.73
582.90	45883.86
583.06	45832.37
583.22	45752.79
583.38	46178.77
583.54	46047.70
583.70	45460.23
583.86	45151.27
584.02	45326.81
584.18	45357.24
584.34	45514.06
584.50	45982.16
584.66	45436.82
584.82	45694.28
584.98	46012.59
585.14	45724.71
585.30	45841.73
585.46	45308.09
585.62	45263.62
585.78	45375.97
585.94	45111.49
586.10	45219.15
586.26	45343.20
586.42	45280.00
586.58	45539.80
586.74	45617.04
586.90	45453.20
587.06	45448.52
587.22	45722.37
587.38	45322.13
587.54	45755.13
587.70	45647.47
587.86	45544.48
588.02	45717.68
588.18	45963.44
588.34	45427.46
588.49	45184.04
588.65	45476.61
588.81	45315.11
588.97	45701.30
589.13	45329.16
589.29	45385.33
589.45	45673.21
589.61	45752.79
589.77	45986.85
589.93	45729.39
590.08	45844.07
