SpectraSuite Data File
++++++++++++++++++++++++++++++++++++
Date: Fri Oct 25 11:34:07 EDT 2013
User: price-jones
Dark Spectrum Present: No
Reference Spectrum Present: No
Number of Sampled Component Spectra: 1
Spectrometers: USB2+H05261
Integration Time (usec): 100000 (USB2+H05261)
Spectra Averaged: 1 (USB2+H05261)
Boxcar Smoothing: 0 (USB2+H05261)
Correct for Electrical Dark: No (USB2+H05261)
Strobe/Lamp Enabled: No (USB2+H05261)
Correct for Detector Non-linearity: No (USB2+H05261)
Correct for Stray Light: No (USB2+H05261)
Number of Pixels in Processed Spectrum: 2048
>>>>>Begin Processed Spectral Data<<<<<
365.73	322.99
365.92	322.99
366.12	322.99
366.32	196.60
366.52	194.26
366.72	220.01
366.91	166.18
367.11	205.97
367.31	177.88
367.51	149.79
367.70	124.05
367.90	154.48
368.10	248.10
368.30	98.30
368.49	194.26
368.69	201.29
368.89	175.54
369.09	177.88
369.28	196.60
369.48	196.60
369.68	245.76
369.87	266.82
370.07	184.90
370.27	229.37
370.47	266.82
370.66	444.70
370.86	559.39
371.06	564.07
371.25	638.97
371.45	528.96
371.65	653.01
371.84	540.66
372.04	596.84
372.24	606.20
372.44	603.86
372.63	573.43
372.83	643.65
373.03	601.52
373.22	580.45
373.42	634.29
373.62	587.47
373.81	589.82
374.01	601.52
374.21	629.60
374.40	641.31
374.60	596.84
374.79	631.94
374.99	669.39
375.19	669.39
375.38	657.69
375.58	674.07
375.78	709.18
375.97	734.93
376.17	678.76
376.37	683.44
376.56	692.80
376.76	657.69
376.95	655.35
377.15	634.29
377.35	688.12
377.54	739.61
377.74	615.56
377.93	653.01
378.13	676.41
378.33	713.86
378.52	748.97
378.72	772.38
378.91	711.52
379.11	706.84
379.31	716.20
379.50	657.69
379.70	805.14
379.89	723.23
380.09	695.14
380.28	711.52
380.48	741.95
380.68	809.83
380.87	702.16
381.07	718.54
381.26	763.01
381.46	788.76
381.65	737.27
381.85	746.63
382.04	770.04
382.24	737.27
382.43	706.84
382.63	676.41
382.83	751.31
383.02	856.64
383.22	814.51
383.41	697.48
383.61	873.02
383.80	779.40
384.00	821.53
384.19	844.93
384.39	788.76
384.58	748.97
384.78	739.61
384.97	840.25
385.17	812.17
385.36	882.38
385.56	812.17
385.75	819.19
385.95	887.06
386.14	844.93
386.34	786.42
386.53	882.38
386.72	849.61
386.92	868.34
387.11	840.25
387.31	880.04
387.50	891.74
387.70	868.34
387.89	833.23
388.09	875.36
388.28	973.66
388.48	940.90
388.67	947.92
388.86	887.06
389.06	940.90
389.25	978.34
389.45	908.13
389.64	973.66
389.84	1034.52
390.03	961.96
390.22	954.94
390.42	880.04
390.61	903.45
390.81	994.73
391.00	903.45
391.19	1001.75
391.39	1041.54
391.58	1053.24
391.78	987.71
391.97	978.34
392.16	954.94
392.36	1036.86
392.55	1053.24
392.75	1088.35
392.94	954.94
393.13	1053.24
393.33	1039.20
393.52	1043.88
393.71	1074.31
393.91	1100.05
394.10	1020.47
394.29	1076.65
394.49	1125.80
394.68	1069.62
394.88	1107.07
395.07	1064.94
395.26	1104.73
395.46	1053.24
395.65	1057.92
395.84	1081.33
396.04	1247.51
396.23	1165.59
396.42	1125.80
396.62	1193.67
396.81	1174.95
397.00	1125.80
397.19	1163.25
397.39	1228.78
397.58	1231.12
397.77	1233.46
397.97	1256.87
398.16	1336.45
398.35	1310.70
398.55	1221.76
398.74	1249.85
398.93	1369.21
399.12	1233.46
399.32	1259.21
399.51	1366.87
399.70	1310.70
399.90	1322.40
400.09	1294.32
400.28	1313.04
400.47	1364.53
400.67	1380.92
400.86	1371.55
401.05	1329.42
401.24	1364.53
401.44	1423.05
401.63	1465.18
401.82	1439.43
402.01	1385.60
402.21	1416.02
402.40	1483.90
402.59	1519.01
402.78	1455.81
402.97	1495.60
403.17	1483.90
403.36	1570.50
403.55	1565.82
403.74	1570.50
403.93	1493.26
404.13	1521.35
404.32	1575.18
404.51	1568.16
404.70	1687.53
404.89	1577.52
405.09	1736.68
405.28	1671.14
405.47	1666.46
405.66	1654.76
405.85	1668.80
406.05	1668.80
406.24	1708.59
406.43	1713.27
406.62	1741.36
406.81	1792.85
407.00	1804.55
407.20	1722.63
407.39	1842.00
407.58	1734.34
407.77	1781.15
407.96	1863.07
408.15	1809.23
408.34	1846.68
408.54	1849.02
408.73	1849.02
408.92	1837.32
409.11	1961.37
409.30	1970.73
409.49	2043.29
409.68	1933.28
409.87	1928.60
410.07	1944.99
410.26	2101.80
410.45	1956.69
410.64	2122.87
410.83	2146.27
411.02	2036.27
411.21	2207.13
411.40	2076.06
411.59	2195.42
411.78	2069.03
411.98	2223.51
412.17	2174.36
412.36	2143.93
412.55	2284.36
412.74	2286.70
412.93	2345.22
413.12	2214.15
413.31	2413.09
413.50	2401.39
413.69	2422.45
413.88	2354.58
414.07	2551.18
414.26	2401.39
414.45	2490.33
414.64	2504.37
414.83	2429.48
415.02	2541.82
415.22	2443.52
415.41	2574.59
415.60	2541.82
415.79	2689.28
415.98	2708.00
416.17	2612.04
416.36	2649.49
416.55	2717.36
416.74	2717.36
416.93	2722.04
417.12	2693.96
417.31	2855.45
417.50	2778.22
417.69	2892.90
417.88	2853.11
418.07	2878.86
418.26	2986.52
418.45	2925.67
418.64	3056.74
418.83	3096.53
419.02	3112.91
419.21	3063.76
419.39	2909.29
419.58	2897.58
419.77	3117.59
419.96	3061.42
420.15	3164.40
420.34	3038.02
420.53	3122.27
420.72	3126.96
420.91	3148.02
421.10	3311.86
421.29	3344.63
421.48	3187.81
421.67	3208.87
421.86	3239.30
422.05	3227.60
422.24	3269.73
422.43	3269.73
422.61	3363.35
422.80	3337.60
422.99	3433.57
423.18	3389.10
423.37	3412.50
423.56	3302.50
423.75	3323.56
423.94	3353.99
424.13	3108.23
424.32	3295.47
424.50	3447.61
424.69	3489.74
424.88	3485.06
425.07	3335.26
425.26	3375.05
425.45	3386.76
425.64	3323.56
425.83	3344.63
426.01	3375.05
426.20	3496.76
426.39	3361.01
426.58	3478.04
426.77	3426.54
426.96	3407.82
427.15	3513.14
427.33	3548.25
427.52	3550.59
427.71	3510.80
427.90	3588.04
428.09	3524.85
428.28	3485.06
428.46	3728.47
428.65	3599.74
428.84	3723.79
429.03	3733.15
429.22	3669.96
429.40	3590.38
429.59	3651.24
429.78	3559.95
429.97	3627.83
430.16	3709.75
430.34	3681.66
430.53	3833.80
430.72	3808.05
430.91	3838.48
431.10	3754.22
431.28	3728.47
431.47	3913.38
431.66	3957.85
431.85	3913.38
432.03	3964.87
432.22	3995.29
432.41	3929.76
432.60	3971.89
432.79	3997.64
432.97	4018.70
433.16	3936.78
433.35	3920.40
433.54	4039.76
433.72	4152.11
433.91	4056.15
434.10	4154.45
434.28	4035.08
434.47	4021.04
434.66	4355.74
434.85	4334.67
435.03	4248.07
435.22	4161.47
435.41	4283.18
435.59	4322.97
435.78	4273.82
435.97	4369.78
436.16	4344.03
436.34	4355.74
436.53	4526.60
436.72	4430.63
436.90	4451.70
437.09	4379.14
437.28	4409.57
437.46	4531.28
437.65	4526.60
437.84	4692.77
438.02	4657.67
438.21	4610.86
438.40	4322.97
438.58	4601.49
438.77	4919.81
438.96	4652.98
439.14	4809.80
439.33	4774.69
439.52	4746.61
439.70	4732.56
439.89	4901.08
440.08	4896.40
440.26	4786.40
440.45	4873.00
440.63	5111.73
440.82	5071.94
441.01	4957.25
441.19	5195.99
441.38	5261.52
441.57	5170.24
441.75	5233.44
441.94	5334.08
442.12	5322.38
442.31	5366.85
442.50	5418.34
442.68	5359.83
442.87	5268.55
443.05	5345.78
443.24	5392.59
443.43	5446.43
443.61	5530.69
443.80	5453.45
443.98	5397.28
444.17	5149.18
444.35	5327.06
444.54	5511.96
444.73	5570.48
444.91	5458.13
445.10	5633.67
445.28	5413.66
445.47	5521.32
445.65	5596.22
445.84	5636.01
446.02	5516.64
446.21	5540.05
446.39	5465.15
446.58	5490.90
446.77	5528.35
446.95	5584.52
447.14	5554.09
447.32	5643.03
447.51	5511.96
447.69	5708.57
447.88	5685.16
448.06	5710.91
448.25	5706.23
448.43	5774.10
448.62	5678.14
448.80	5713.25
448.99	5694.52
449.17	5607.92
449.36	5547.07
449.54	5774.10
449.73	5926.24
449.91	5940.28
450.10	5928.58
450.28	6069.01
450.46	5970.71
450.65	6136.88
450.83	6078.37
451.02	5973.05
451.20	6146.25
451.39	6197.74
451.57	5916.87
451.76	6090.07
451.94	6017.52
452.13	6078.37
452.31	6188.38
452.49	6143.91
452.68	6300.72
452.86	6186.04
453.05	6228.17
453.23	6256.25
453.42	6228.17
453.60	6181.35
453.78	6331.15
453.97	6211.78
454.15	6094.76
454.34	6115.82
454.52	6574.56
454.70	6424.77
454.89	6469.24
455.07	6670.53
455.26	6490.31
455.44	6485.62
455.62	6539.46
455.81	6478.60
455.99	6480.94
456.17	6525.41
456.36	6483.28
456.54	6649.46
456.73	6691.59
456.91	6944.37
457.09	6984.16
457.28	7021.61
457.46	6796.92
457.64	6881.18
457.83	6855.43
458.01	6871.81
458.19	7073.10
458.38	7042.67
458.56	6932.67
458.74	7045.01
458.93	6925.65
459.11	7112.89
459.29	7115.23
459.48	7215.87
459.66	6890.54
459.84	7201.83
460.03	7468.65
460.21	7288.43
460.39	7239.28
460.57	7342.26
460.76	7393.75
460.94	7351.62
461.12	7494.40
461.31	7236.94
461.49	7145.66
461.67	7499.08
461.85	7597.38
462.04	7602.06
462.22	7763.56
462.40	7644.19
462.59	7578.65
462.77	7698.02
462.95	7705.04
463.13	7602.06
463.32	7669.94
463.50	7878.24
463.68	7805.69
463.86	7714.41
464.05	7606.74
464.23	7705.04
464.41	7929.74
464.59	7709.72
464.78	8086.55
464.96	7882.92
465.14	7784.62
465.32	8002.29
465.50	8009.31
465.69	8028.04
465.87	7845.48
466.05	8004.63
466.23	7955.48
466.41	8046.76
466.60	8187.19
466.78	7875.90
466.96	7948.46
467.14	7962.50
467.32	8109.96
467.51	8224.64
467.69	8217.62
467.87	8105.28
468.05	8086.55
468.23	8046.76
468.41	8219.96
468.60	8358.05
468.78	8428.27
468.96	8198.90
469.14	8491.46
469.32	8517.21
469.50	8226.98
469.69	8446.99
469.87	8620.19
470.05	8622.53
470.23	8650.62
470.41	8620.19
470.59	8613.17
470.77	8557.00
470.95	8812.12
471.14	8919.78
471.32	8566.36
471.50	8765.31
471.68	8793.39
471.86	8980.64
472.04	8971.27
472.22	8889.35
472.40	9046.17
472.58	9004.04
472.77	8999.36
472.95	9296.61
473.13	9483.85
473.31	9151.49
473.49	9291.93
473.67	9423.00
473.85	9528.32
474.03	9308.31
474.21	9568.11
474.39	9460.45
474.57	9551.73
474.75	9640.67
474.93	9806.84
475.12	9577.47
475.30	9919.19
475.48	9790.46
475.66	9675.77
475.84	9851.31
476.02	9886.42
476.20	10029.20
476.38	10181.33
476.56	10146.22
476.74	10352.19
476.92	10349.85
477.10	10525.39
477.28	10464.54
477.46	10394.32
477.64	10387.30
477.82	10579.22
478.00	11040.31
478.18	11019.24
478.36	11136.27
478.54	10918.60
478.72	11342.24
478.90	11218.19
479.08	11353.94
479.26	11620.76
479.44	11562.25
479.62	11473.31
479.80	11606.72
479.98	11679.27
480.16	11826.73
480.34	11709.70
480.52	12086.53
480.70	12049.08
480.88	11868.86
481.06	12060.78
481.24	12236.32
481.41	12311.22
481.59	12425.90
481.77	12596.76
481.95	12872.95
482.13	12589.74
482.31	12826.14
482.49	13114.02
482.67	13151.47
482.85	13254.45
483.03	13160.83
483.21	13296.58
483.39	13551.70
483.57	13476.80
483.74	13724.90
483.92	13713.20
484.10	13750.65
484.28	13994.06
484.46	14230.46
484.64	14518.34
484.82	14216.41
485.00	14516.00
485.18	14436.42
485.35	14766.44
485.53	14787.50
485.71	14862.40
485.89	14920.92
486.07	15009.86
486.25	15431.15
486.43	15152.63
486.61	15328.17
486.78	15447.54
486.96	15435.83
487.14	15669.89
487.32	16053.73
487.50	15920.32
487.68	16004.58
487.85	16212.89
488.03	16383.75
488.21	16273.74
488.39	16645.89
488.57	16734.83
488.75	16755.90
488.92	16929.09
489.10	17167.83
489.28	17184.21
489.46	17743.60
489.64	17460.40
489.81	17563.38
489.99	17532.95
490.17	17933.18
490.35	18246.82
490.53	17748.28
490.70	18253.84
490.88	18129.79
491.06	18101.70
491.24	18473.85
491.41	18455.12
491.59	18869.40
491.77	19021.53
491.95	18862.38
492.13	19215.80
492.30	19248.57
492.48	19477.94
492.66	19475.60
492.84	19239.20
493.01	19768.16
493.19	19803.27
493.37	19873.49
493.54	19751.78
493.72	20201.16
493.90	20456.28
494.08	20414.15
494.25	20645.87
494.43	20327.55
494.61	20596.71
494.79	20936.09
494.96	20865.88
495.14	20896.30
495.32	21172.49
495.49	21378.45
495.67	21481.44
495.85	21483.78
496.02	21392.50
496.20	21722.51
496.38	22094.66
496.55	21963.59
496.73	22321.69
496.91	22155.51
497.09	22207.00
497.26	22787.46
497.44	22565.10
497.62	22249.13
497.79	22995.76
497.97	22977.04
498.14	22899.80
498.32	23073.00
498.50	22881.08
498.67	23403.02
498.85	23356.21
499.03	23630.05
499.20	23445.15
499.38	23765.80
499.56	23873.46
499.73	23948.36
499.91	24222.20
500.08	24280.72
500.26	23833.68
500.44	24238.59
500.61	24521.79
500.79	24027.94
500.97	24425.83
501.14	24849.47
501.32	24790.95
501.49	24662.22
501.67	25025.01
501.84	25172.46
502.02	25006.28
502.20	25163.10
502.37	24716.06
502.55	25179.48
502.72	25181.82
502.90	25207.57
503.07	25268.42
503.25	25902.71
503.43	25628.87
503.60	25743.55
503.78	25853.56
503.95	25816.11
504.13	25497.80
504.30	26511.25
504.48	25914.41
504.65	26242.09
504.83	26515.93
505.01	26211.66
505.18	26754.66
505.36	26686.79
505.53	26483.16
505.71	26843.60
505.88	26778.07
506.06	26649.34
506.23	27042.55
506.41	27222.77
506.58	26829.56
506.76	27030.85
506.93	27688.54
507.11	27615.98
507.28	27435.76
507.46	27419.38
507.63	27761.09
507.81	27707.26
507.98	27821.95
508.16	27679.18
508.33	27924.93
508.50	27630.02
508.68	28283.03
508.85	28360.27
509.03	27908.55
509.20	28404.74
509.38	28762.84
509.55	28622.41
509.73	28952.43
509.90	28819.02
510.08	28570.92
510.25	28748.80
510.42	29109.24
510.60	29106.90
510.77	29450.96
510.95	29596.07
511.12	29242.65
511.30	29221.59
511.47	29523.52
511.64	29326.91
511.82	29591.39
511.99	29532.88
512.17	29881.62
512.34	29968.22
512.51	29851.19
512.69	30197.59
512.86	29853.53
513.04	30696.13
513.21	30382.49
513.38	30057.16
513.56	30480.80
513.73	30569.74
513.90	30473.78
514.08	30253.76
514.25	30991.03
514.43	30380.15
514.60	31150.19
514.77	30862.30
514.95	31082.31
515.12	30728.89
515.29	31061.25
515.47	31278.92
515.64	31402.97
515.81	31185.30
515.99	31756.39
516.16	31182.96
516.33	31803.20
516.51	31606.59
516.68	31718.94
516.85	32002.14
517.03	32065.34
517.20	32067.68
517.37	32112.15
517.54	32545.15
517.72	32119.17
517.89	32566.21
518.06	32449.19
518.24	32203.43
518.41	32533.45
518.58	32065.34
518.75	32535.79
518.93	32701.96
519.10	32180.03
519.27	32816.65
519.45	32861.12
519.62	33104.54
519.79	33106.88
519.96	32800.27
520.14	32936.02
520.31	32898.57
520.48	33340.93
520.65	33392.42
520.83	33689.67
521.00	34010.32
521.17	33511.79
521.34	33694.35
521.52	33802.02
521.69	33844.15
521.86	34045.43
522.03	34188.21
522.20	34064.16
522.38	34274.80
522.55	34164.80
522.72	34298.21
522.89	34094.58
523.07	34424.60
523.24	34529.92
523.41	34387.15
523.58	34319.28
523.75	35054.20
523.92	34555.67
524.10	34876.32
524.27	34806.11
524.44	34768.66
524.61	34913.77
524.78	35026.12
524.96	35435.71
525.13	35342.09
525.30	35615.93
525.47	35526.99
525.64	35040.16
525.81	35831.26
525.98	35395.92
526.16	35782.11
526.33	35229.74
526.50	35969.35
526.67	35651.04
526.84	35393.58
527.01	35655.72
527.18	35981.06
527.36	36306.39
527.53	36191.70
527.70	36318.09
527.87	36535.76
528.04	36109.78
528.21	35971.69
528.38	36676.19
528.55	36285.33
528.72	36182.34
528.89	36697.26
529.07	36561.51
529.24	36196.38
529.41	37284.73
529.58	36652.79
529.75	36849.39
529.92	37191.11
530.09	36830.67
530.26	36732.37
530.43	37205.16
530.60	36634.06
530.77	37074.09
530.94	37088.13
531.11	36978.12
531.28	37134.94
531.46	37170.05
531.63	37191.11
531.80	37542.19
531.97	37364.31
532.14	37305.80
532.31	37710.71
532.48	37855.82
532.65	38181.16
532.82	37825.40
532.99	37968.17
533.16	37724.75
533.33	37816.04
533.50	37902.64
533.67	37661.56
533.84	37769.22
534.01	38124.99
534.18	38384.79
534.35	38080.52
534.52	38209.25
534.69	38508.83
534.86	38602.46
535.03	38139.03
535.20	38220.95
535.37	38354.36
535.54	38703.10
535.71	38485.43
535.88	38675.01
536.05	39203.97
536.22	39208.65
536.38	38934.81
536.55	38859.91
536.72	39077.58
536.89	38518.20
537.06	38995.67
537.23	39168.87
537.40	39086.95
537.57	38766.29
537.74	38754.59
537.91	39100.99
538.08	39210.99
538.25	39115.03
538.42	39423.98
538.59	40060.61
538.75	39388.88
538.92	39515.26
539.09	39316.32
539.26	39768.04
539.43	39662.72
539.60	39503.56
539.77	39594.84
539.94	39789.11
540.11	39739.96
540.28	39962.31
540.44	39590.16
540.61	39253.12
540.78	40109.76
540.95	40554.46
541.12	39929.54
541.29	40105.08
541.46	39924.86
541.62	40369.56
541.79	40603.61
541.96	40165.93
542.13	39697.83
542.30	40208.06
542.47	40435.10
542.63	40947.67
542.80	40711.28
542.97	40671.49
543.14	40966.40
543.31	40788.52
543.48	41132.57
543.64	41507.06
543.81	40992.14
543.98	41408.76
544.15	41060.02
544.32	41460.25
544.48	41668.56
544.65	40879.80
544.82	41333.86
544.99	41230.88
545.16	41546.85
545.32	41378.33
545.49	41780.90
545.66	41804.31
545.83	41872.18
546.00	41546.85
546.16	41893.25
546.33	41600.68
546.50	41514.08
546.67	41743.45
546.83	41251.94
547.00	41478.97
547.17	41436.84
547.34	41911.97
547.50	42094.53
547.67	42241.99
547.84	42218.58
548.00	42150.71
548.17	42635.20
548.34	42731.16
548.51	42188.16
548.67	42333.27
548.84	42436.25
549.01	42375.40
549.18	42160.07
549.34	42204.54
549.51	42651.58
549.68	42574.34
549.84	42529.87
550.01	42330.93
550.18	42279.44
550.34	42417.53
550.51	42775.63
550.68	42806.06
550.84	42351.99
551.01	42731.16
551.18	42471.36
551.34	42653.92
551.51	43157.14
551.68	42988.62
551.84	42986.28
552.01	43180.54
552.18	42953.51
552.34	42960.53
552.51	42883.30
552.68	42773.29
552.84	43257.78
553.01	43395.87
553.18	42913.72
553.34	43091.60
553.51	43365.45
553.67	43484.81
553.84	43494.18
554.01	43454.39
554.17	43728.23
554.34	43482.47
554.51	43629.93
554.67	43892.07
554.84	43545.67
555.00	43697.80
555.17	43576.09
555.33	43330.34
555.50	43636.95
555.67	43868.66
555.83	43812.49
556.00	43784.40
556.16	44119.10
556.33	44247.83
556.50	44259.53
556.66	43952.92
556.83	43770.36
556.99	44428.05
557.16	44205.70
557.32	44292.30
557.49	44348.47
557.65	44371.88
557.82	43730.57
557.98	44072.29
558.15	43948.24
558.32	44133.14
558.48	44172.93
558.65	43997.39
558.81	44268.89
558.98	44442.09
559.14	44526.35
559.31	44531.03
559.47	44458.48
559.64	44741.68
559.80	44603.59
559.97	44746.36
560.13	44385.92
560.30	44439.75
560.46	44547.42
560.63	44507.63
560.79	44601.25
560.96	44938.29
561.12	44992.12
561.29	44722.96
561.45	44538.05
561.61	44533.37
561.78	44968.71
561.94	44589.55
562.11	44444.43
562.27	44760.40
562.44	45034.25
562.60	45446.18
562.77	45151.27
562.93	45228.51
563.10	45160.64
563.26	45200.43
563.42	45111.49
563.59	44732.32
563.75	44439.75
563.92	45329.16
564.08	44952.33
564.24	45050.63
564.41	44914.88
564.57	45116.17
564.74	45284.68
564.90	45390.01
565.07	45450.86
565.23	45350.22
565.39	44832.96
565.56	45614.70
565.72	44973.39
565.88	45258.94
566.05	45333.84
566.21	45441.50
566.38	45464.91
566.54	45556.19
566.70	45631.08
566.87	45404.05
567.03	45280.00
567.19	45378.31
567.36	45027.23
567.52	45270.64
567.68	45689.60
567.85	46045.36
568.01	45621.72
568.17	45469.59
568.34	45457.88
568.50	45537.46
568.66	45502.35
568.83	45872.16
568.99	45415.76
569.15	45593.64
569.32	45579.59
569.48	45771.52
569.64	45921.31
569.81	45876.84
569.97	45738.75
570.13	45603.00
570.30	45380.65
570.46	45504.70
570.62	45769.18
570.78	45495.33
570.95	45542.14
571.11	46209.20
571.27	45701.30
571.43	45797.26
571.60	45677.90
571.76	45727.05
571.92	45720.02
572.09	45399.37
572.25	45263.62
572.41	45254.26
572.57	45696.62
572.74	46138.98
572.90	45893.22
573.06	45844.07
573.22	45904.93
573.38	45839.39
573.55	45965.78
573.71	46171.75
573.87	45652.15
574.03	46153.02
574.20	46361.33
574.36	46099.19
574.52	45867.48
574.68	46216.22
574.84	46532.19
575.01	46293.46
575.17	45951.74
575.33	46026.63
575.49	45862.80
575.65	45872.16
575.82	46007.91
575.98	46061.74
576.14	46005.57
576.30	46445.59
576.46	46274.73
576.62	45865.14
576.79	46220.90
576.95	46265.37
577.11	45731.73
577.27	46012.59
577.43	46124.94
577.59	46057.06
577.75	46197.49
577.92	45844.07
578.08	46298.14
578.24	45764.49
578.40	46450.27
578.56	46387.08
578.72	45944.72
578.88	46106.21
579.04	46103.87
579.21	46080.47
579.37	45986.85
579.53	46230.26
579.69	45830.03
579.85	46169.41
580.01	46309.84
580.17	46356.65
580.33	46370.69
580.49	46426.87
580.65	46270.05
580.82	46227.92
580.98	45918.97
581.14	46398.78
581.30	46279.41
581.46	46129.62
581.62	46127.28
581.78	46396.44
581.94	46660.92
582.10	46497.08
582.26	46646.88
582.42	46101.53
582.58	46415.16
582.74	46646.88
582.90	46157.70
583.06	46777.95
583.22	46220.90
583.38	46817.74
583.54	46377.72
583.70	46335.59
583.86	46557.94
584.02	46398.78
584.18	46857.52
584.34	46335.59
584.50	46157.70
584.66	46663.26
584.82	46476.02
584.98	46461.97
585.14	46651.56
585.30	46281.75
585.46	46377.72
585.62	46539.21
585.78	46653.90
585.94	46305.16
586.10	46571.98
586.26	46153.02
586.42	46258.35
586.58	46270.05
586.74	46248.99
586.90	46391.76
587.06	46485.38
587.22	46660.92
587.38	46316.86
587.54	46260.69
587.70	46550.91
587.86	46707.73
588.02	46726.46
588.18	46546.23
588.34	46021.95
588.49	46724.11
588.65	46241.96
588.81	46628.15
588.97	46272.39
589.13	46735.82
589.29	46438.57
589.45	46885.61
589.61	46803.69
589.77	46543.89
589.93	46775.61
590.08	46756.88
