SpectraSuite Data File
++++++++++++++++++++++++++++++++++++
Date: Fri Oct 25 11:23:27 EDT 2013
User: price-jones
Dark Spectrum Present: No
Reference Spectrum Present: No
Number of Sampled Component Spectra: 1
Spectrometers: USB2+H05261
Integration Time (usec): 100000 (USB2+H05261)
Spectra Averaged: 1 (USB2+H05261)
Boxcar Smoothing: 0 (USB2+H05261)
Correct for Electrical Dark: No (USB2+H05261)
Strobe/Lamp Enabled: No (USB2+H05261)
Correct for Detector Non-linearity: No (USB2+H05261)
Correct for Stray Light: No (USB2+H05261)
Number of Pixels in Processed Spectrum: 2048
>>>>>Begin Processed Spectral Data<<<<<
365.73	266.82
365.92	266.82
366.12	266.82
366.32	180.22
366.52	114.69
366.72	194.26
366.91	133.41
367.11	135.75
367.31	135.75
367.51	159.16
367.70	138.09
367.90	117.03
368.10	142.77
368.30	56.17
368.49	81.92
368.69	121.71
368.89	166.18
369.09	105.32
369.28	161.50
369.48	173.20
369.68	147.45
369.87	198.95
370.07	156.82
370.27	243.42
370.47	341.72
370.66	589.82
370.86	608.54
371.06	711.52
371.25	716.20
371.45	645.99
371.65	695.14
371.84	697.48
372.04	664.71
372.24	774.72
372.44	746.63
372.63	678.76
372.83	734.93
373.03	748.97
373.22	758.33
373.42	723.23
373.62	688.12
373.81	741.95
374.01	826.21
374.21	880.04
374.40	770.04
374.60	814.51
374.79	821.53
374.99	774.72
375.19	842.59
375.38	793.44
375.58	812.17
375.78	807.48
375.97	880.04
376.17	957.28
376.37	903.45
376.56	889.40
376.76	777.06
376.95	800.46
377.15	936.21
377.35	870.68
377.54	945.58
377.74	891.74
377.93	945.58
378.13	910.47
378.33	912.81
378.52	866.00
378.72	884.72
378.91	987.71
379.11	1015.79
379.31	887.06
379.50	849.61
379.70	1060.26
379.89	891.74
380.09	950.26
380.28	945.58
380.48	983.02
380.68	945.58
380.87	964.30
381.07	1074.31
381.26	950.26
381.46	990.05
381.65	1008.77
381.85	1057.92
382.04	1034.52
382.24	1001.75
382.43	1039.20
382.63	1050.90
382.83	978.34
383.02	1029.84
383.22	1116.44
383.41	1027.50
383.61	1081.33
383.80	1083.67
384.00	1102.39
384.19	1020.47
384.39	1130.48
384.58	1132.82
384.78	1102.39
384.97	1177.29
385.17	1196.01
385.36	1132.82
385.56	1146.86
385.75	1186.65
385.95	1181.97
386.14	1203.04
386.34	1205.38
386.53	1263.89
386.72	1228.78
386.92	1212.40
387.11	1158.57
387.31	1207.72
387.50	1273.25
387.70	1249.85
387.89	1184.31
388.09	1280.27
388.28	1320.06
388.48	1181.97
388.67	1289.64
388.86	1280.27
389.06	1324.74
389.25	1299.00
389.45	1409.00
389.64	1359.85
389.84	1369.21
390.03	1364.53
390.22	1336.45
390.42	1299.00
390.61	1376.24
390.81	1394.96
391.00	1406.66
391.19	1462.83
391.39	1423.05
391.58	1430.07
391.78	1469.86
391.97	1425.39
392.16	1437.09
392.36	1418.36
392.55	1451.13
392.75	1500.28
392.94	1535.39
393.13	1584.54
393.33	1479.22
393.52	1544.75
393.71	1570.50
393.91	1523.69
394.10	1624.33
394.29	1575.18
394.49	1675.82
394.68	1624.33
394.88	1612.63
395.07	1692.21
395.26	1629.01
395.46	1696.89
395.65	1753.06
395.84	1668.80
396.04	1825.62
396.23	1706.25
396.42	1809.23
396.62	1818.60
396.81	1778.81
397.00	1755.40
397.19	1729.66
397.39	1811.57
397.58	1825.62
397.77	1872.43
397.97	1874.77
398.16	1753.06
398.35	1907.54
398.55	1834.98
398.74	1844.34
398.93	1982.43
399.12	1935.62
399.32	1909.88
399.51	2005.84
399.70	2024.56
399.90	1970.73
400.09	1966.05
400.28	1970.73
400.47	1959.03
400.67	1980.09
400.86	2064.35
401.05	2122.87
401.24	2005.84
401.44	2118.18
401.63	2087.76
401.82	2083.08
402.01	2111.16
402.21	2225.85
402.40	2106.48
402.59	2134.57
402.78	2183.72
402.97	2246.91
403.17	2256.28
403.36	2188.40
403.55	2293.72
403.74	2256.28
403.93	2380.32
404.13	2331.17
404.32	2415.43
404.51	2401.39
404.70	2406.07
404.89	2382.67
405.09	2452.88
405.28	2457.56
405.47	2567.57
405.66	2506.71
405.85	2600.34
406.05	2546.50
406.24	2546.50
406.43	2523.10
406.62	2576.93
406.81	2670.55
407.00	2581.61
407.20	2506.71
407.39	2621.40
407.58	2679.91
407.77	2759.49
407.96	2801.62
408.15	2808.64
408.34	2747.79
408.54	2813.32
408.73	2731.41
408.92	2733.75
409.11	2825.03
409.30	2878.86
409.49	2949.08
409.68	2906.95
409.87	3007.59
410.07	3028.65
410.26	2925.67
410.45	3101.21
410.64	2984.18
410.83	3131.64
411.02	3232.28
411.21	3332.92
411.40	3066.10
411.59	3272.07
411.78	3258.03
411.98	3295.47
412.17	3337.60
412.36	3377.39
412.55	3337.60
412.74	3520.17
412.93	3403.14
413.12	3279.09
413.31	3524.85
413.50	3456.97
413.69	3473.36
413.88	3660.60
414.07	3557.61
414.26	3679.32
414.45	3756.56
414.64	3709.75
414.83	3730.81
415.02	3878.27
415.22	3906.35
415.41	3861.88
415.60	3831.46
415.79	4044.45
415.98	4102.96
416.17	3936.78
416.36	3918.06
416.55	4067.85
416.74	4058.49
416.93	4011.68
417.12	4191.90
417.31	4007.00
417.50	4215.30
417.69	4210.62
417.88	4381.48
418.07	4311.27
418.26	4374.46
418.45	4372.12
418.64	4582.77
418.83	4498.51
419.02	4227.01
419.21	4512.55
419.39	4559.36
419.58	4418.93
419.77	4648.30
419.96	4699.80
420.15	4638.94
420.34	4571.07
420.53	4603.83
420.72	4655.33
420.91	4601.49
421.10	4772.35
421.29	4851.93
421.48	4610.86
421.67	4706.82
421.86	4716.18
422.05	4748.95
422.24	4779.37
422.43	4959.60
422.61	4952.57
422.80	4898.74
422.99	4880.02
423.18	5048.54
423.37	5053.22
423.56	5029.81
423.75	4894.06
423.94	4795.76
424.13	4692.77
424.32	4828.53
424.50	4990.02
424.69	4961.94
424.88	5062.58
425.07	5097.69
425.26	4929.17
425.45	5055.56
425.64	5018.11
425.83	5043.85
426.01	5015.77
426.20	5167.90
426.39	4975.98
426.58	5027.47
426.77	5039.17
426.96	4936.19
427.15	5132.79
427.33	5172.58
427.52	5153.86
427.71	5200.67
427.90	5275.57
428.09	5254.50
428.28	5418.34
428.46	5535.37
428.65	5392.59
428.84	5504.94
429.03	5465.15
429.22	5329.40
429.40	5472.17
429.59	5469.83
429.78	5399.62
429.97	5418.34
430.16	5535.37
430.34	5507.28
430.53	5509.62
430.72	5694.52
430.91	5710.91
431.10	5547.07
431.28	5792.83
431.47	5771.76
431.66	5933.26
431.85	5790.49
432.03	5987.09
432.22	5877.09
432.41	5816.23
432.60	5982.41
432.79	6064.33
432.97	6005.81
433.16	5940.28
433.35	5926.24
433.54	6171.99
433.72	6012.84
433.91	6003.47
434.10	6043.26
434.28	6087.73
434.47	6061.99
434.66	6251.57
434.85	6310.08
435.03	6380.30
435.22	6331.15
435.41	6588.61
435.59	6387.32
435.78	6464.56
435.97	6546.48
436.16	6342.85
436.34	6485.62
436.53	6509.03
436.72	6670.53
436.90	6567.54
437.09	6382.64
437.28	6609.67
437.46	6628.40
437.65	6670.53
437.84	6754.79
438.02	6750.10
438.21	6850.75
438.40	6703.29
438.58	7000.54
438.77	6984.16
438.96	7068.42
439.14	7117.57
439.33	7302.47
439.52	7239.28
439.70	7236.94
439.89	7314.17
440.08	7307.15
440.26	7218.21
440.45	7466.31
440.63	7543.55
440.82	7534.18
441.01	7314.17
441.19	7742.49
441.38	7850.16
441.57	7777.60
441.75	7815.05
441.94	7948.46
442.12	7971.86
442.31	7960.16
442.50	8004.63
442.68	7861.86
442.87	8009.31
443.05	8119.32
443.24	8285.50
443.43	8177.83
443.61	8250.39
443.80	8475.08
443.98	7983.57
444.17	7691.00
444.35	8264.43
444.54	8484.44
444.73	8138.04
444.91	8107.62
445.10	8388.48
445.28	8315.92
445.47	8336.99
445.65	8386.14
445.84	8594.45
446.02	8557.00
446.21	8409.54
446.39	8510.19
446.58	8697.43
446.77	8617.85
446.95	8475.08
447.14	8514.87
447.32	8667.00
447.51	8645.94
447.69	8484.44
447.88	8592.11
448.06	8451.67
448.25	8627.21
448.43	8641.26
448.62	8634.24
448.80	8566.36
448.99	8610.83
449.17	8748.92
449.36	8816.80
449.54	8879.99
449.73	9041.49
449.91	8964.25
450.10	8870.63
450.28	9128.09
450.46	8821.48
450.65	9020.42
450.83	9076.60
451.02	9116.39
451.20	9341.08
451.39	9083.62
451.57	9188.94
451.76	9076.60
451.94	9341.08
452.13	9217.03
452.31	9308.31
452.49	9415.98
452.68	9523.64
452.86	9217.03
453.05	9364.48
453.23	9516.62
453.42	9511.94
453.60	9289.59
453.78	9788.12
453.97	9479.17
454.15	9481.51
454.34	9392.57
454.52	9771.74
454.70	9839.61
454.89	9874.72
455.07	9727.27
455.26	9839.61
455.44	10134.52
455.62	9977.70
455.81	9996.43
455.99	9898.13
456.17	9909.83
456.36	10157.92
456.54	10167.29
456.73	10265.59
456.91	10553.48
457.09	10342.83
457.28	10492.62
457.46	10333.47
457.64	10462.19
457.83	10450.49
458.01	10494.96
458.19	10630.71
458.38	10450.49
458.56	10696.25
458.74	10775.83
458.93	10696.25
459.11	10789.87
459.29	10630.71
459.48	10960.73
459.66	10820.30
459.84	10890.51
460.03	11150.31
460.21	10953.71
460.39	10925.62
460.57	11035.63
460.76	11192.44
460.94	11014.56
461.12	11082.44
461.31	11190.10
461.49	11208.83
461.67	11391.39
461.85	11517.78
462.04	11300.11
462.22	11712.04
462.40	11742.47
462.59	11473.31
462.77	11421.81
462.95	11880.56
463.13	11557.57
463.32	11695.66
463.50	12016.31
463.68	11836.09
463.86	11688.64
464.05	11653.53
464.23	11716.72
464.41	11805.66
464.59	11693.32
464.78	12131.00
464.96	12013.97
465.14	11733.11
465.32	12018.65
465.50	12049.08
465.69	12194.19
465.87	12170.79
466.05	12236.32
466.23	12215.26
466.41	12046.74
466.60	12500.80
466.78	12269.09
466.96	12325.26
467.14	12301.86
467.32	12161.42
467.51	12561.66
467.69	12219.94
467.87	12428.24
468.05	12901.03
468.23	12453.99
468.41	12470.37
468.60	12805.07
468.78	12863.58
468.96	12685.70
469.14	12835.50
469.32	13188.92
469.50	12631.87
469.69	12739.54
469.87	13008.70
470.05	12915.08
470.23	13425.31
470.41	13380.84
470.59	13273.18
470.77	13214.66
470.95	13301.26
471.14	13741.29
471.32	12971.25
471.50	13479.15
471.68	13584.47
471.86	13760.01
472.04	13661.71
472.22	14122.79
472.40	14059.60
472.58	14001.08
472.77	13898.10
472.95	14176.62
473.13	14640.05
473.31	13949.59
473.49	14232.80
473.67	14244.50
473.85	14494.94
474.03	14457.49
474.21	14808.57
474.39	14492.60
474.57	14869.42
474.75	14839.00
474.93	14937.30
475.12	14771.12
475.30	15115.18
475.48	14956.02
475.66	15257.95
475.84	14967.73
476.02	15332.85
476.20	15487.32
476.38	15681.59
476.56	16116.93
476.74	16039.69
476.92	15969.48
477.10	15896.92
477.28	16416.52
477.46	16430.56
477.64	16187.14
477.82	16774.62
478.00	16961.86
478.18	16898.67
478.36	17130.38
478.54	17240.39
478.72	17266.13
478.90	17731.90
479.08	17610.19
479.26	17755.30
479.44	18075.96
479.62	17621.89
479.80	17877.01
479.98	18462.15
480.16	18581.51
480.34	18672.79
480.52	18998.13
480.70	18658.75
480.88	18284.26
481.06	18871.74
481.24	18651.73
481.41	19349.21
481.59	19400.70
481.77	19414.74
481.95	19646.46
482.13	19756.46
482.31	19506.02
482.49	20453.94
482.67	20435.22
482.85	20416.49
483.03	20933.75
483.21	20835.45
483.39	21174.83
483.57	20585.01
483.74	21223.98
483.92	21455.69
484.10	21406.54
484.28	21706.13
484.46	22195.30
484.64	22515.95
484.82	22171.89
485.00	22178.92
485.18	22806.18
485.35	22977.04
485.53	22883.42
485.71	23054.28
485.89	23438.12
486.07	23363.23
486.25	23255.56
486.43	23943.68
486.61	24074.75
486.78	24226.89
486.96	24102.84
487.14	24737.12
487.32	24753.51
487.50	24999.26
487.68	25081.18
487.85	25645.25
488.03	25820.79
488.21	25905.05
488.39	26377.84
488.57	26155.49
488.75	26045.48
488.92	26382.52
489.10	26920.84
489.28	26663.38
489.46	26960.63
489.64	27211.07
489.81	27976.42
489.99	27754.07
490.17	27800.88
490.35	28067.70
490.53	28212.82
490.70	28589.64
490.88	28240.90
491.06	28673.90
491.24	29053.07
491.41	28929.02
491.59	29474.37
491.77	29558.63
491.95	29766.93
492.13	30288.87
492.30	30103.97
492.48	30181.21
492.66	30623.57
492.84	29837.15
493.01	30703.15
493.19	30691.44
493.37	31527.02
493.54	31508.29
493.72	31241.47
493.90	31627.66
494.08	31983.42
494.25	31915.54
494.43	32006.83
494.61	32617.71
494.79	32664.52
494.96	32496.00
495.14	32566.21
495.32	33263.69
495.49	33116.24
495.67	33474.34
495.85	33680.31
496.02	33923.72
496.20	33832.44
496.38	34230.33
496.55	34129.69
496.73	34855.26
496.91	34623.54
497.09	34930.16
497.26	35222.72
497.44	35051.86
497.62	35449.75
497.79	36339.16
497.97	35501.25
498.14	35854.67
498.32	36177.66
498.50	36374.27
498.67	36727.69
498.85	36517.04
499.03	36615.34
499.20	36828.33
499.38	37158.34
499.56	37371.33
499.73	37579.64
499.91	37684.97
500.08	37869.87
500.26	37237.92
500.44	37633.47
500.61	37947.11
500.79	37937.74
500.97	38155.41
501.14	38876.30
501.32	38761.61
501.49	38576.71
501.67	38623.52
501.84	39278.87
502.02	39042.48
502.20	39192.27
502.37	39295.25
502.55	39349.09
502.72	39690.80
502.90	39583.14
503.07	39777.40
503.25	40006.78
503.43	39901.45
503.60	40037.20
503.78	40554.46
503.95	40556.80
504.13	40584.89
504.30	40959.38
504.48	40622.34
504.65	41181.73
504.83	41219.17
505.01	41626.43
505.18	41338.54
505.36	41675.58
505.53	41537.49
505.71	41963.46
505.88	41902.61
506.06	41933.04
506.23	41900.27
506.41	42478.38
506.58	42569.66
506.76	42375.40
506.93	42506.47
507.11	42436.25
507.28	42967.55
507.46	43089.26
507.63	42953.51
507.81	43241.40
507.98	42997.98
508.16	43454.39
508.33	43557.37
508.50	43721.21
508.68	43885.04
508.85	43669.72
509.03	44233.78
509.20	44231.44
509.38	44589.55
509.55	44573.16
509.73	44580.18
509.90	44835.30
510.08	44809.56
510.25	44580.18
510.42	44900.84
510.60	45097.44
510.77	45233.19
510.95	45556.19
511.12	45057.65
511.30	45221.49
511.47	45502.35
511.64	45579.59
511.82	46108.55
511.99	45675.55
512.17	45998.55
512.34	46073.45
512.51	46052.38
512.69	46192.81
512.86	46445.59
513.04	46993.28
513.21	46897.31
513.38	46632.83
513.56	46923.06
513.73	46918.38
513.90	47072.85
514.08	47405.21
514.25	47224.99
514.43	47435.64
514.60	47810.12
514.77	47517.56
514.95	48123.75
515.12	47751.61
515.29	47737.57
515.47	48046.52
515.64	48458.45
515.81	47704.80
515.99	48376.53
516.16	48577.82
516.33	48626.97
516.51	49059.97
516.68	48444.41
516.85	48612.93
517.03	49003.80
517.20	49394.67
517.37	48945.28
517.54	48947.62
517.72	49200.40
517.89	48942.94
518.06	49181.68
518.24	49022.52
518.41	49476.58
518.58	49008.48
518.75	49188.70
518.93	49656.81
519.10	49705.96
519.27	49860.43
519.45	49701.28
519.62	50082.78
519.79	50319.18
519.96	49907.24
520.14	50122.57
520.31	50377.69
520.48	50527.48
520.65	50466.63
520.83	50815.37
521.00	50948.78
521.17	50791.97
521.34	50710.05
521.52	51180.49
521.69	50990.91
521.86	51234.33
522.03	51257.73
522.20	51531.57
522.38	51475.40
522.55	51533.92
522.72	51449.66
522.89	51573.70
523.07	51922.44
523.24	51793.71
523.41	51817.12
523.58	51793.71
523.75	52041.81
523.92	51892.02
524.10	52442.04
524.27	52018.41
524.44	52126.07
524.61	52027.77
524.78	52130.75
524.96	52418.64
525.13	52610.56
525.30	52570.77
525.47	52399.91
525.64	52449.06
525.81	52542.69
525.98	52708.86
526.16	52650.35
526.33	52746.31
526.50	53155.91
526.67	52762.70
526.84	53003.77
527.01	52900.79
527.18	53064.63
527.36	53076.33
527.53	53242.51
527.70	53446.13
527.87	53549.12
528.04	53235.48
528.21	53588.91
528.38	53340.81
528.55	53235.48
528.72	53375.92
528.89	53708.27
529.07	53443.79
529.24	53333.79
529.41	53799.55
529.58	53656.78
529.75	53745.72
529.92	53719.98
530.09	54073.40
530.26	54129.57
530.43	54103.82
530.60	53755.08
530.77	53865.09
530.94	53951.69
531.11	54054.67
531.28	54419.80
531.46	54478.31
531.63	54499.37
531.80	54277.02
531.97	54475.97
532.14	54391.71
532.31	54482.99
532.48	54679.60
532.65	54621.08
532.82	54695.98
532.99	54667.89
533.16	54850.45
533.33	55147.70
533.50	54899.61
533.67	54700.66
533.84	54569.59
534.01	55121.96
534.18	54801.30
534.35	55358.35
534.52	55051.74
534.69	55281.11
534.86	55557.30
535.03	55182.81
535.20	55353.67
535.37	55299.84
535.54	55503.46
535.71	55194.51
535.88	55629.85
536.05	55667.30
536.22	55650.92
536.38	55606.45
536.55	55760.92
536.72	55489.42
536.89	55730.50
537.06	55739.86
537.23	55826.46
537.40	55725.81
537.57	55730.50
537.74	55868.59
537.91	56083.92
538.08	56299.25
538.25	55962.21
538.42	55962.21
538.59	56348.40
538.75	56147.11
538.92	56278.18
539.09	56481.81
539.26	56175.20
539.43	56086.26
539.60	56144.77
539.77	56367.12
539.94	56498.19
540.11	56427.98
540.28	56453.72
540.44	56584.79
540.61	56526.28
540.78	56488.83
540.95	56535.64
541.12	56580.11
541.29	56406.91
541.46	56608.20
541.62	56507.55
541.79	56680.75
541.96	56383.51
542.13	56872.68
542.30	56811.82
542.47	56811.82
542.63	56968.64
542.80	57102.05
542.97	57186.31
543.14	57125.46
543.31	57399.30
543.48	57308.02
543.64	57518.67
543.81	57476.54
543.98	57123.11
544.15	57263.55
544.32	57733.99
544.48	57595.90
544.65	57350.15
544.82	57539.73
544.99	57432.07
545.16	57640.37
545.32	57537.39
545.49	57764.42
545.66	57729.31
545.83	57778.46
546.00	57865.06
546.16	57853.36
546.33	57668.46
546.50	57544.41
546.67	57874.43
546.83	57577.18
547.00	57902.51
547.17	57928.26
547.34	57855.70
547.50	58176.36
547.67	58099.12
547.84	57996.13
548.00	58127.20
548.17	58436.16
548.34	58178.70
548.51	58337.85
548.67	58281.68
548.84	58269.98
549.01	58199.76
549.18	58314.45
549.34	58429.13
549.51	58396.37
549.68	58382.32
549.84	58342.53
550.01	58560.20
550.18	58447.86
550.34	58651.48
550.51	58859.79
550.68	58644.46
550.84	58166.99
551.01	58590.63
551.18	58738.08
551.34	58459.56
551.51	58738.08
551.68	58651.48
551.84	58557.86
552.01	58471.26
552.18	58693.61
552.34	58452.54
552.51	58880.86
552.68	58763.83
552.84	58930.01
553.01	58890.22
553.18	58721.70
553.34	58922.99
553.51	58918.31
553.67	58803.62
553.84	59051.72
554.01	59065.76
554.17	59135.98
554.34	58913.62
554.51	58951.07
554.67	59154.70
554.84	59075.12
555.00	59004.91
555.17	59002.56
555.33	59061.08
555.50	59044.69
555.67	58990.86
555.83	59047.04
556.00	59147.68
556.16	59634.51
556.33	59372.37
556.50	59257.68
556.66	59487.06
556.83	59302.15
556.99	59463.65
557.16	59550.25
557.32	59557.27
557.49	59540.89
557.65	59531.53
557.82	59576.00
557.98	59309.18
558.15	59576.00
558.32	59629.83
558.48	59245.98
558.65	59395.77
558.81	59636.85
558.98	59519.82
559.14	59538.55
559.31	59707.07
559.47	59732.81
559.64	59814.73
559.80	59576.00
559.97	59903.67
560.13	59828.77
560.30	59662.60
560.46	59700.04
560.63	59917.71
560.79	59859.20
560.96	60001.97
561.12	59910.69
561.29	59906.01
561.45	59781.96
561.61	59938.78
561.78	59826.43
561.94	60009.00
562.11	60055.81
562.27	59819.41
562.44	59987.93
562.60	60123.68
562.77	59877.93
562.93	59842.82
563.10	60205.60
563.26	59887.29
563.42	60308.58
563.59	60093.25
563.75	59985.59
563.92	60060.49
564.08	60151.77
564.24	60245.39
564.41	60004.31
564.57	60430.29
564.74	60247.73
564.90	60268.79
565.07	60268.79
565.23	60221.98
565.39	60177.51
565.56	60406.89
565.72	60151.77
565.88	60308.58
566.05	60294.54
566.21	60301.56
566.38	60292.20
566.54	60308.58
566.70	60310.92
566.87	60528.59
567.03	60163.47
567.19	60589.45
567.36	60498.17
567.52	60282.84
567.68	60580.09
567.85	60423.27
568.01	60652.64
568.17	60336.67
568.34	60544.98
568.50	60467.74
568.66	60449.02
568.83	60388.16
568.99	60516.89
569.15	60385.82
569.32	60472.42
569.48	60327.31
569.64	60575.40
569.81	60657.32
569.97	60505.19
570.13	60519.23
570.30	60413.91
570.46	60645.62
570.62	60837.54
570.78	60591.79
570.95	60512.21
571.11	60659.66
571.27	60491.15
571.43	60556.68
571.60	60830.52
571.76	60760.31
571.92	60678.39
572.09	60720.52
572.25	60893.72
572.41	60608.17
572.57	60699.45
572.74	60926.49
572.90	60650.30
573.06	60800.10
573.22	60533.28
573.38	60865.63
573.55	60697.11
573.71	60893.72
573.87	60767.33
574.03	60488.80
574.20	60711.16
574.36	60701.79
574.52	60793.07
574.68	60982.66
574.84	60975.64
575.01	60940.53
575.17	60687.75
575.33	60849.25
575.49	60706.47
575.65	60912.44
575.82	60842.23
575.98	60956.91
576.14	60884.36
576.30	60889.04
576.46	60905.42
576.62	60884.36
576.79	60814.14
576.95	60884.36
577.11	60849.25
577.27	60912.44
577.43	60931.17
577.59	61008.40
577.75	60926.49
577.92	60746.26
578.08	60842.23
578.24	60961.59
578.40	61057.56
578.56	60835.20
578.72	60832.86
578.88	61111.39
579.04	61104.37
579.21	60926.49
579.37	60914.78
579.53	61017.77
579.69	60673.71
579.85	61041.17
580.01	60781.37
580.17	60842.23
580.33	61048.19
580.49	61043.51
580.65	61144.16
580.82	61001.38
580.98	60996.70
581.14	60977.98
581.30	61024.79
581.46	61010.74
581.62	61029.47
581.78	60830.52
581.94	61069.26
582.10	61043.51
582.26	61092.66
582.42	60940.53
582.58	61010.74
582.74	60898.40
582.90	60804.78
583.06	61073.94
583.22	60947.55
583.38	60989.68
583.54	61169.90
583.70	61116.07
583.86	61219.05
584.02	60774.35
584.18	61174.58
584.34	61125.43
584.50	61179.26
584.66	60996.70
584.82	60970.96
584.98	61237.78
585.14	61106.71
585.30	61041.17
585.46	61001.38
585.62	61111.39
585.78	61174.58
585.94	60985.00
586.10	61221.39
586.26	61216.71
586.42	61134.79
586.58	61062.24
586.74	61242.46
586.90	61235.44
587.06	61221.39
587.22	61165.22
587.38	61087.98
587.54	61167.56
587.70	61249.48
587.86	61104.37
588.02	61109.05
588.18	61354.80
588.34	61127.77
588.49	61291.61
