SpectraSuite Data File
++++++++++++++++++++++++++++++++++++
Date: Fri Oct 25 11:25:08 EDT 2013
User: price-jones
Dark Spectrum Present: No
Reference Spectrum Present: No
Number of Sampled Component Spectra: 1
Spectrometers: USB2+H05261
Integration Time (usec): 100000 (USB2+H05261)
Spectra Averaged: 1 (USB2+H05261)
Boxcar Smoothing: 0 (USB2+H05261)
Correct for Electrical Dark: No (USB2+H05261)
Strobe/Lamp Enabled: No (USB2+H05261)
Correct for Detector Non-linearity: No (USB2+H05261)
Correct for Stray Light: No (USB2+H05261)
Number of Pixels in Processed Spectrum: 2048
>>>>>Begin Processed Spectral Data<<<<<
365.73	301.93
365.92	301.93
366.12	301.93
366.32	152.13
366.52	154.48
366.72	126.39
366.91	70.22
367.11	53.83
367.31	126.39
367.51	177.88
367.70	152.13
367.90	142.77
368.10	149.79
368.30	189.58
368.49	112.35
368.69	212.99
368.89	142.77
369.09	166.18
369.28	177.88
369.48	156.82
369.68	234.05
369.87	220.01
370.07	259.80
370.27	201.29
370.47	332.36
370.66	561.73
370.86	559.39
371.06	617.90
371.25	657.69
371.45	641.31
371.65	781.74
371.84	674.07
372.04	692.80
372.24	763.01
372.44	786.42
372.63	702.16
372.83	755.99
373.03	812.17
373.22	734.93
373.42	798.12
373.62	767.70
373.81	777.06
374.01	793.44
374.21	880.04
374.40	835.57
374.60	873.02
374.79	786.42
374.99	875.36
375.19	842.59
375.38	798.12
375.58	781.74
375.78	966.64
375.97	870.68
376.17	880.04
376.37	884.72
376.56	800.46
376.76	863.66
376.95	903.45
377.15	880.04
377.35	882.38
377.54	945.58
377.74	947.92
377.93	896.43
378.13	837.91
378.33	903.45
378.52	833.23
378.72	887.06
378.91	987.71
379.11	891.74
379.31	1057.92
379.50	1036.86
379.70	1069.62
379.89	933.87
380.09	950.26
380.28	961.96
380.48	976.00
380.68	959.62
380.87	1029.84
381.07	1027.50
381.26	1076.65
381.46	973.66
381.65	938.55
381.85	1025.15
382.04	1039.20
382.24	987.71
382.43	1067.28
382.63	1064.94
382.83	1067.28
383.02	1158.57
383.22	1172.61
383.41	1139.84
383.61	1018.13
383.80	1130.48
384.00	1156.22
384.19	1132.82
384.39	1081.33
384.58	1107.07
384.78	1093.03
384.97	1280.27
385.17	1069.62
385.36	1203.04
385.56	1181.97
385.75	1121.12
385.95	1104.73
386.14	1196.01
386.34	1198.35
386.53	1163.25
386.72	1151.54
386.92	1184.31
387.11	1132.82
387.31	1224.10
387.50	1327.08
387.70	1268.57
387.89	1277.93
388.09	1306.02
388.28	1299.00
388.48	1245.16
388.67	1350.49
388.86	1331.76
389.06	1313.04
389.25	1259.21
389.45	1434.75
389.64	1394.96
389.84	1331.76
390.03	1364.53
390.22	1394.96
390.42	1383.26
390.61	1420.71
390.81	1355.17
391.00	1376.24
391.19	1387.94
391.39	1423.05
391.58	1322.40
391.78	1334.11
391.97	1397.30
392.16	1434.75
392.36	1554.12
392.55	1600.93
392.75	1509.65
392.94	1495.60
393.13	1516.67
393.33	1530.71
393.52	1596.25
393.71	1582.20
393.91	1586.88
394.10	1687.53
394.29	1530.71
394.49	1481.56
394.68	1633.69
394.88	1535.39
395.07	1596.25
395.26	1703.91
395.46	1668.80
395.65	1809.23
395.84	1722.63
396.04	1771.79
396.23	1813.92
396.42	1809.23
396.62	1792.85
396.81	1781.15
397.00	1703.91
397.19	1856.04
397.39	1750.72
397.58	1863.07
397.77	1907.54
397.97	1867.75
398.16	1825.62
398.35	1907.54
398.55	1865.41
398.74	1839.66
398.93	1937.96
399.12	1846.68
399.32	1830.30
399.51	2001.16
399.70	1919.24
399.90	1935.62
400.09	2024.56
400.28	1989.46
400.47	1961.37
400.67	2104.14
400.86	2052.65
401.05	2008.18
401.24	2099.46
401.44	2125.21
401.63	2057.33
401.82	2221.17
402.01	2172.02
402.21	2176.70
402.40	2115.84
402.59	2113.50
402.78	2214.15
402.97	2284.36
403.17	2242.23
403.36	2300.75
403.55	2237.55
403.74	2293.72
403.93	2363.94
404.13	2279.68
404.32	2335.85
404.51	2392.03
404.70	2450.54
404.89	2335.85
405.09	2399.05
405.28	2492.67
405.47	2431.82
405.66	2502.03
405.85	2485.65
406.05	2574.59
406.24	2576.93
406.43	2534.80
406.62	2595.65
406.81	2715.02
407.00	2691.62
407.20	2637.78
407.39	2506.71
407.58	2682.25
407.77	2583.95
407.96	2670.55
408.15	2768.85
408.34	2722.04
408.54	2759.49
408.73	2888.22
408.92	2803.96
409.11	2867.16
409.30	2841.41
409.49	2843.75
409.68	2827.37
409.87	2911.63
410.07	3012.27
410.26	2925.67
410.45	3047.38
410.64	3002.91
410.83	3131.64
411.02	3187.81
411.21	3101.21
411.40	3274.41
411.59	3236.96
411.78	3162.06
411.98	3082.49
412.17	3152.70
412.36	3314.20
412.55	3265.05
412.74	3393.78
412.93	3314.20
413.12	3255.69
413.31	3543.57
413.50	3492.08
413.69	3543.57
413.88	3576.34
414.07	3667.62
414.26	3618.47
414.45	3684.00
414.64	3648.90
414.83	3749.54
415.02	3676.98
415.22	3779.97
415.41	3857.20
415.60	3744.86
415.79	3988.27
415.98	3758.90
416.17	3894.65
416.36	3983.59
416.55	4107.64
416.74	4182.54
416.93	3894.65
417.12	4023.38
417.31	4161.47
417.50	4175.52
417.69	4170.83
417.88	4142.75
418.07	4189.56
418.26	4255.09
418.45	4276.16
418.64	4491.49
418.83	4299.56
419.02	4383.82
419.21	4489.15
419.39	4407.23
419.58	4402.55
419.77	4437.66
419.96	4552.34
420.15	4489.15
420.34	4662.35
420.53	4608.51
420.72	4800.44
420.91	4608.51
421.10	4720.86
421.29	4919.81
421.48	4608.51
421.67	4695.11
421.86	4734.90
422.05	4873.00
422.24	4662.35
422.43	4774.69
422.61	4891.72
422.80	5011.09
422.99	4882.36
423.18	4905.76
423.37	4889.38
423.56	5039.17
423.75	5004.07
423.94	4805.12
424.13	4634.26
424.32	4697.46
424.50	5006.41
424.69	5163.22
424.88	5151.52
425.07	4931.51
425.26	4910.44
425.45	4973.64
425.64	4674.05
425.83	4964.28
426.01	4933.85
426.20	5074.28
426.39	5109.39
426.58	5027.47
426.77	5043.85
426.96	5123.43
427.15	5172.58
427.33	5055.56
427.52	5193.65
427.71	5226.42
427.90	5123.43
428.09	5266.21
428.28	5273.23
428.46	5315.36
428.65	5423.02
428.84	5423.02
429.03	5460.47
429.22	5411.32
429.40	5551.75
429.59	5303.65
429.78	5359.83
429.97	5088.32
430.16	5404.30
430.34	5621.97
430.53	5734.31
430.72	5643.03
430.91	5554.09
431.10	5575.16
431.28	5692.18
431.47	5638.35
431.66	5757.72
431.85	5727.29
432.03	5973.05
432.22	5926.24
432.41	5823.25
432.60	5806.87
432.79	6010.50
432.97	5984.75
433.16	6052.63
433.35	5926.24
433.54	6122.84
433.72	6076.03
433.91	6078.37
434.10	6197.74
434.28	6125.18
434.47	6179.01
434.66	6354.55
434.85	6352.21
435.03	6286.68
435.22	6431.79
435.41	6487.96
435.59	6520.73
435.78	6394.34
435.97	6443.49
436.16	6181.35
436.34	6380.30
436.53	6544.14
436.72	6651.80
436.90	6413.07
437.09	6473.92
437.28	6612.01
437.46	6619.04
437.65	6502.01
437.84	6579.25
438.02	6658.82
438.21	6787.55
438.40	6696.27
438.58	6911.60
438.77	6939.69
438.96	7000.54
439.14	7253.32
439.33	7040.33
439.52	7089.48
439.70	7159.70
439.89	7283.75
440.08	7344.60
440.26	7440.56
440.45	7368.01
440.63	7417.16
440.82	7501.42
441.01	7241.62
441.19	7452.27
441.38	7597.38
441.57	7639.51
441.75	7618.44
441.94	7962.50
442.12	8114.64
442.31	7854.84
442.50	7948.46
442.68	7824.41
442.87	7845.48
443.05	8149.75
443.24	8081.87
443.43	8065.49
443.61	7939.10
443.80	8348.69
443.98	8255.07
444.17	7796.32
444.35	8128.68
444.54	8346.35
444.73	8121.66
444.91	8212.94
445.10	8367.42
445.28	8290.18
445.47	8285.50
445.65	8320.60
445.84	8362.73
446.02	8477.42
446.21	8224.64
446.39	8528.91
446.58	8395.50
446.77	8503.17
446.95	8297.20
447.14	8418.91
447.32	8468.06
447.51	8498.49
447.69	8383.80
447.88	8578.06
448.06	8575.72
448.25	8451.67
448.43	8587.43
448.62	8596.79
448.80	8592.11
448.99	8648.28
449.17	8741.90
449.36	8636.58
449.54	8765.31
449.73	8978.30
449.91	8943.19
450.10	8926.80
450.28	8926.80
450.46	9179.58
450.65	8854.25
450.83	9022.77
451.02	8732.54
451.20	9004.04
451.39	9165.54
451.57	9277.88
451.76	8994.68
451.94	9015.74
452.13	9137.45
452.31	9217.03
452.49	9142.13
452.68	9327.03
452.86	9322.35
453.05	9448.74
453.23	9458.10
453.42	9320.01
453.60	9298.95
453.78	9448.74
453.97	9434.70
454.15	9479.17
454.34	9380.87
454.52	9476.83
454.70	9724.93
454.89	9816.21
455.07	9769.40
455.26	9701.52
455.44	10078.35
455.62	9804.50
455.81	10045.58
455.99	9914.51
456.17	10183.67
456.36	9984.73
456.54	10050.26
456.73	10244.52
456.91	10408.36
457.09	10026.86
457.28	10551.14
457.46	10216.44
457.64	10630.71
457.83	10485.60
458.01	10115.80
458.19	10572.20
458.38	10401.34
458.56	10544.11
458.74	10714.97
458.93	10569.86
459.11	10642.42
459.29	10647.10
459.48	10799.23
459.66	10780.51
459.84	11019.24
460.03	11049.67
460.21	10902.22
460.39	11019.24
460.57	11077.76
460.76	11026.26
460.94	11047.33
461.12	11283.72
461.31	11049.67
461.49	10970.09
461.67	11122.23
461.85	11218.19
462.04	11300.11
462.22	11726.08
462.40	11761.19
462.59	11309.47
462.77	11396.07
462.95	11487.35
463.13	11552.88
463.32	11676.93
463.50	11672.25
463.68	11721.40
463.86	11665.23
464.05	11569.27
464.23	11578.63
464.41	11948.43
464.59	11630.12
464.78	12173.13
464.96	11974.18
465.14	11819.71
465.32	11995.25
465.50	11953.12
465.69	12023.33
465.87	12060.78
466.05	12301.86
466.23	12042.06
466.41	12049.08
466.60	12622.51
466.78	12074.82
466.96	12449.31
467.14	12161.42
467.32	12517.18
467.51	12451.65
467.69	12119.29
467.87	12336.96
468.05	12620.17
468.23	12500.80
468.41	12678.68
468.60	12400.16
468.78	12741.88
468.96	12507.82
469.14	12840.18
469.32	12943.16
469.50	12652.94
469.69	12767.62
469.87	13186.58
470.05	13184.24
470.23	13235.73
470.41	13034.44
470.59	13137.43
470.77	13074.23
470.95	13327.01
471.14	13350.42
471.32	13319.99
471.50	13862.99
471.68	13591.49
471.86	13650.00
472.04	13650.00
472.22	13916.83
472.40	13792.78
472.58	13799.80
472.77	13900.44
472.95	13958.96
473.13	14506.64
473.31	14176.62
473.49	14263.22
473.67	13923.85
473.85	14061.94
474.03	14338.12
474.21	14717.29
474.39	14672.82
474.57	14448.13
474.75	14857.72
474.93	14944.32
475.12	14745.38
475.30	14981.77
475.48	14899.85
475.66	15033.26
475.84	15218.16
476.02	15215.82
476.20	15414.77
476.38	15325.83
476.56	16166.08
476.74	16049.05
476.92	15871.17
477.10	15779.89
477.28	16002.24
477.46	15910.96
477.64	16215.23
477.82	16493.76
478.00	17078.89
478.18	16645.89
478.36	16704.40
478.54	16945.48
478.72	17085.91
478.90	17224.00
479.08	17645.30
479.26	17455.72
479.44	17598.49
479.62	17633.60
479.80	18160.22
479.98	18019.78
480.16	18232.77
480.34	18031.49
480.52	18466.83
480.70	18586.19
480.88	18368.52
481.06	18679.82
481.24	18895.14
481.41	19154.94
481.59	18956.00
481.77	19489.64
481.95	19419.42
482.13	19243.88
482.31	19510.71
482.49	20016.26
482.67	19976.47
482.85	20238.61
483.03	20402.45
483.21	20556.93
483.39	20790.98
483.57	20910.35
483.74	20613.10
483.92	21425.26
484.10	21273.13
484.28	21572.72
484.46	22139.13
484.64	22185.94
484.82	22061.89
485.00	22036.14
485.18	22586.17
485.35	23063.64
485.53	22881.08
485.71	23021.51
485.89	23377.27
486.07	23171.30
486.25	23360.89
486.43	23421.74
486.61	23758.78
486.78	23831.33
486.96	24393.06
487.14	24533.50
487.32	24327.53
487.50	24634.14
487.68	24802.66
487.85	25245.02
488.03	25303.53
488.21	25933.14
488.39	25696.74
488.57	25912.07
488.75	25977.61
488.92	26300.60
489.10	26426.99
489.28	26665.72
489.46	27292.99
489.64	26721.90
489.81	27290.65
489.99	27505.98
490.17	27798.54
490.35	28051.32
490.53	28154.30
490.70	27831.31
490.88	28070.04
491.06	28568.58
491.24	28245.58
491.41	28950.09
491.59	29099.88
491.77	29149.03
491.95	29659.27
492.13	29701.40
492.30	29909.71
492.48	29694.38
492.66	30024.39
492.84	30272.49
493.01	30586.12
493.19	30597.82
493.37	30590.80
493.54	31044.87
493.72	31367.86
493.90	31246.15
494.08	31342.11
494.25	32098.11
494.43	31639.36
494.61	32123.85
494.79	32268.97
494.96	32327.48
495.14	32397.70
495.32	32903.25
495.49	32914.95
495.67	33041.34
495.85	33427.53
496.02	33998.62
496.20	33851.17
496.38	34085.22
496.55	34181.18
496.73	34560.35
496.91	34366.09
497.09	34841.21
497.26	35005.05
497.44	34691.42
497.62	34890.37
497.79	35564.44
497.97	35866.37
498.14	36100.42
498.32	35934.24
498.50	36376.61
498.67	35754.02
498.85	36184.68
499.03	36395.33
499.20	36552.15
499.38	36538.10
499.56	36833.01
499.73	37153.66
499.91	37317.50
500.08	37048.34
500.26	37294.10
500.44	37069.40
500.61	37542.19
500.79	37785.61
500.97	37762.20
501.14	38242.01
501.32	38436.28
501.49	38602.46
501.67	38476.07
501.84	38553.30
502.02	38852.89
502.20	38808.42
502.37	39164.18
502.55	39122.05
502.72	39292.91
502.90	39552.71
503.07	39611.23
503.25	39498.88
503.43	39634.63
503.60	40119.12
503.78	39936.56
503.95	40381.26
504.13	40509.99
504.30	40514.67
504.48	40601.27
504.65	40931.29
504.83	40601.27
505.01	41251.94
505.18	41249.60
505.36	41184.07
505.53	41532.81
505.71	41448.55
505.88	41406.42
506.06	41383.01
506.23	41862.82
506.41	41504.72
506.58	42160.07
506.76	42274.76
506.93	42190.50
507.11	41668.56
507.28	42478.38
507.46	42377.74
507.63	42696.05
507.81	42855.21
507.98	42667.97
508.16	43030.75
508.33	42906.70
508.50	43271.82
508.68	43611.20
508.85	43669.72
509.03	43962.28
509.20	43878.02
509.38	43929.51
509.55	43964.62
509.73	44376.56
509.90	44610.61
510.08	44577.84
510.25	44847.00
510.42	44744.02
510.60	45195.74
510.77	44762.75
510.95	45041.27
511.12	45031.91
511.30	44851.69
511.47	45296.39
511.64	45382.99
511.82	46120.26
511.99	45492.99
512.17	45867.48
512.34	45242.56
512.51	46368.35
512.69	46419.84
512.86	45954.08
513.04	46237.28
513.21	46342.61
513.38	46820.08
513.56	46555.60
513.73	46216.22
513.90	47152.43
514.08	46735.82
514.25	46862.21
514.43	47096.26
514.60	47395.85
514.77	47349.04
514.95	47517.56
515.12	47072.85
515.29	47374.78
515.47	47805.44
515.64	47807.78
515.81	47629.90
515.99	48030.13
516.16	48053.54
516.33	47821.83
516.51	48339.08
516.68	48320.36
516.85	48369.51
517.03	49078.69
517.20	48589.52
517.37	48891.45
517.54	48793.15
517.72	49006.14
517.89	49092.74
518.06	48662.08
518.24	49003.80
518.41	49237.85
518.58	49233.17
518.75	49113.80
518.93	49338.49
519.10	49476.58
519.27	49649.78
519.45	49612.34
519.62	49764.47
519.79	49724.68
519.96	49909.58
520.14	50178.75
520.31	49783.19
520.48	49975.12
520.65	50248.96
520.83	50440.89
521.00	50651.53
521.17	50581.32
521.34	50681.96
521.52	50475.99
521.69	50618.77
521.86	50843.46
522.03	50920.70
522.20	51133.68
522.38	51639.24
522.55	51147.73
522.72	51107.94
522.89	51213.26
523.07	51393.48
523.24	51290.50
523.41	51201.56
523.58	51178.15
523.75	51840.53
523.92	51723.50
524.10	51901.38
524.27	51995.00
524.44	51657.96
524.61	51913.08
524.78	52062.88
524.96	52404.59
525.13	51863.93
525.30	52341.40
525.47	52023.09
525.64	52327.36
525.81	52430.34
525.98	52608.22
526.16	52479.49
526.33	52713.55
526.50	52839.93
526.67	52694.82
526.84	52926.53
527.01	52900.79
527.18	52762.70
527.36	52605.88
527.53	52783.76
527.70	53282.30
527.87	53001.43
528.04	52931.22
528.21	53104.41
528.38	53006.11
528.55	53450.81
528.72	53404.00
528.89	53399.32
529.07	53497.62
529.24	53223.78
529.41	53581.88
529.58	53305.70
529.75	53591.25
529.92	53628.69
530.09	53633.38
530.26	53801.89
530.43	53755.08
530.60	53659.12
530.77	53448.47
530.94	53837.00
531.11	53841.68
531.28	54049.99
531.46	54246.60
531.63	54089.78
531.80	53996.16
531.97	54291.07
532.14	54417.46
532.31	54281.70
532.48	54433.84
532.65	54539.16
532.82	54129.57
532.99	54454.90
533.16	54424.48
533.33	54817.69
533.50	54843.43
533.67	54684.28
533.84	54454.90
534.01	54574.27
534.18	54766.20
534.35	55337.29
534.52	54887.90
534.69	55047.06
534.86	55250.69
535.03	55058.76
535.20	55016.63
535.37	55220.26
535.54	55262.39
535.71	54944.08
535.88	55430.91
536.05	55267.07
536.22	55510.49
536.38	55449.63
536.55	55180.47
536.72	55716.45
536.89	55395.80
537.06	55700.07
537.23	55601.77
537.40	55295.16
537.57	55576.02
537.74	55863.91
537.91	55971.57
538.08	55655.60
538.25	55667.30
538.42	55952.85
538.59	56065.19
538.75	55976.25
538.92	56074.55
539.09	56165.84
539.26	55948.17
539.43	56060.51
539.60	55868.59
539.77	56032.42
539.94	56444.36
540.11	56463.08
540.28	56369.46
540.44	56289.88
540.61	56245.41
540.78	56186.90
540.95	56350.74
541.12	56315.63
541.29	56196.26
541.46	56357.76
541.62	56498.19
541.79	56498.19
541.96	56334.35
542.13	56610.54
542.30	56456.06
542.47	56640.96
542.63	56797.78
542.80	56690.12
542.97	56914.81
543.14	57183.97
543.31	56945.23
543.48	57162.90
543.64	57467.17
543.81	57202.69
543.98	57174.61
544.15	57088.01
544.32	57593.56
544.48	57511.64
544.65	57242.48
544.82	57427.38
544.99	57083.33
545.16	57511.64
545.32	57165.24
545.49	57724.63
545.66	57635.69
545.83	57422.70
546.00	57673.14
546.16	57499.94
546.33	57626.33
546.50	57118.43
546.67	57443.77
546.83	57382.91
547.00	57682.50
547.17	57649.74
547.34	57750.38
547.50	57897.83
547.67	58101.46
547.84	57916.56
548.00	58075.71
548.17	58005.50
548.34	57968.05
548.51	58127.20
548.67	58251.25
548.84	57890.81
549.01	57986.77
549.18	57975.07
549.34	58136.57
549.51	58157.63
549.68	58295.72
549.84	58106.14
550.01	58323.81
550.18	58220.83
550.34	58363.60
550.51	58415.09
550.68	58295.72
550.84	57949.32
551.01	58452.54
551.18	58391.68
551.34	58445.52
551.51	58499.35
551.68	58389.34
551.84	58398.71
552.01	58389.34
552.18	58829.37
552.34	58368.28
552.51	58515.73
552.68	58384.66
552.84	58642.12
553.01	58827.02
553.18	58794.26
553.34	58869.15
553.51	58747.45
553.67	58756.81
553.84	59025.97
554.01	58843.41
554.17	58988.52
554.34	58904.26
554.51	58974.48
554.67	59238.96
554.84	58906.60
555.00	58967.46
555.17	58951.07
555.33	59007.25
555.50	58761.49
555.67	58983.84
555.83	58981.50
556.00	58922.99
556.16	59271.73
556.33	59281.09
556.50	59229.60
556.66	59196.83
556.83	59047.04
556.99	59323.22
557.16	59360.67
557.32	59430.88
557.49	59391.09
557.65	59185.13
557.82	59334.92
557.98	59302.15
558.15	59386.41
558.32	59264.70
558.48	59152.36
558.65	59494.08
558.81	59267.05
558.98	59526.84
559.14	59367.69
559.31	59433.22
559.47	59545.57
559.64	59800.69
559.80	59653.23
559.97	59756.22
560.13	59688.34
560.30	59725.79
560.46	59674.30
560.63	59870.90
560.79	59641.53
560.96	59770.26
561.12	59604.08
561.29	59711.75
561.45	59800.69
561.61	59714.09
561.78	59611.10
561.94	59835.80
562.11	59744.51
562.27	59824.09
562.44	59807.71
562.60	60009.00
562.77	59997.29
562.93	59709.41
563.10	59838.14
563.26	59976.23
563.42	60037.08
563.59	59863.88
563.75	59793.67
563.92	60090.91
564.08	59887.29
564.24	60048.78
564.41	59971.55
564.57	60107.30
564.74	60165.81
564.90	60186.88
565.07	59924.74
565.23	59976.23
565.39	60079.21
565.56	60170.49
565.72	60001.97
565.88	60097.94
566.05	60154.11
566.21	59978.57
566.38	60198.58
566.54	59985.59
566.70	60360.08
566.87	60289.86
567.03	59973.89
567.19	60420.93
567.36	60289.86
567.52	60060.49
567.68	60383.48
567.85	60301.56
568.01	60327.31
568.17	60266.45
568.34	60411.57
568.50	60301.56
568.66	60542.64
568.83	60367.10
568.99	60179.85
569.15	60217.30
569.32	60509.87
569.48	60376.46
569.64	60339.01
569.81	60292.20
569.97	60378.80
570.13	60341.35
570.30	60411.57
570.46	60348.37
570.62	60474.76
570.78	60294.54
570.95	60243.05
571.11	60437.31
571.27	60306.24
571.43	60467.74
571.60	60369.44
571.76	60336.67
571.92	60631.58
572.09	60535.62
572.25	60610.51
572.41	60402.21
572.57	60444.33
572.74	60694.77
572.90	60456.04
573.06	60493.49
573.22	60434.97
573.38	60617.53
573.55	60317.95
573.71	60727.54
573.87	60460.72
574.03	60200.92
574.20	60699.45
574.36	60577.75
574.52	60474.76
574.68	60748.60
574.84	60846.91
575.01	60715.84
575.17	60697.11
575.33	60605.83
575.49	60573.06
575.65	60589.45
575.82	60729.88
575.98	60654.98
576.14	60860.95
576.30	60825.84
576.46	60570.72
576.62	60549.66
576.79	60690.09
576.95	60640.94
577.11	60596.47
577.27	60816.48
577.43	60725.20
577.59	60598.81
577.75	60640.94
577.92	60610.51
578.08	60856.27
578.24	60828.18
578.40	60882.02
578.56	60842.23
578.72	60729.88
578.88	60755.63
579.04	61036.49
579.21	60711.16
579.37	60985.00
579.53	60839.89
579.69	60687.75
579.85	60704.13
580.01	60729.88
580.17	60556.68
580.33	60989.68
580.49	60893.72
580.65	60828.18
580.82	60755.63
580.98	60598.81
581.14	60814.14
581.30	60926.49
581.46	60753.29
581.62	60790.73
581.78	60748.60
581.94	60912.44
582.10	60874.99
582.26	60786.05
582.42	60924.14
582.58	60905.42
582.74	60954.57
582.90	60657.32
583.06	60870.31
583.22	60753.29
583.38	60938.19
583.54	60807.12
583.70	60907.76
583.86	60872.65
584.02	60860.95
584.18	61050.53
584.34	60942.87
584.50	60818.82
584.66	60844.57
584.82	60720.52
584.98	61104.37
585.14	61010.74
585.30	60760.31
585.46	60903.08
585.62	61071.60
585.78	61036.49
585.94	60942.87
586.10	61083.30
586.26	60816.48
586.42	60912.44
586.58	61057.56
586.74	61102.03
586.90	60828.18
587.06	60783.71
587.22	61176.92
587.38	60968.61
587.54	61083.30
587.70	61052.87
587.86	61031.81
588.02	60985.00
588.18	60987.34
588.34	60935.85
588.49	61116.07
