SpectraSuite Data File
++++++++++++++++++++++++++++++++++++
Date: Fri Oct 25 10:47:50 EDT 2013
User: price-jones
Dark Spectrum Present: No
Reference Spectrum Present: No
Number of Sampled Component Spectra: 1
Spectrometers: USB2+H05261
Integration Time (usec): 100000 (USB2+H05261)
Spectra Averaged: 1 (USB2+H05261)
Boxcar Smoothing: 0 (USB2+H05261)
Correct for Electrical Dark: No (USB2+H05261)
Strobe/Lamp Enabled: No (USB2+H05261)
Correct for Detector Non-linearity: No (USB2+H05261)
Correct for Stray Light: No (USB2+H05261)
Number of Pixels in Processed Spectrum: 2048
>>>>>Begin Processed Spectral Data<<<<<
365.73	184.90
365.92	184.90
366.12	184.90
366.32	51.49
366.52	39.79
366.72	95.96
366.91	63.19
367.11	95.96
367.31	39.79
367.51	65.54
367.70	42.13
367.90	0.00
368.10	35.11
368.30	49.15
368.49	28.09
368.69	98.30
368.89	56.17
369.09	46.81
369.28	84.26
369.48	14.04
369.68	114.69
369.87	133.41
370.07	7.02
370.27	114.69
370.47	149.79
370.66	308.95
370.86	341.72
371.06	411.93
371.25	496.19
371.45	437.68
371.65	524.28
371.84	451.72
372.04	437.68
372.24	482.15
372.44	458.74
372.63	517.26
372.83	526.62
373.03	517.26
373.22	454.06
373.42	543.00
373.62	566.41
373.81	493.85
374.01	540.66
374.21	571.09
374.40	561.73
374.60	531.30
374.79	568.75
374.99	664.71
375.19	486.83
375.38	547.69
375.58	594.50
375.78	631.94
375.97	648.33
376.17	653.01
376.37	587.47
376.56	592.16
376.76	606.20
376.95	578.11
377.15	660.03
377.35	601.52
377.54	664.71
377.74	641.31
377.93	606.20
378.13	599.18
378.33	594.50
378.52	641.31
378.72	589.82
378.91	599.18
379.11	660.03
379.31	643.65
379.50	582.79
379.70	657.69
379.89	655.35
380.09	627.26
380.28	676.41
380.48	610.88
380.68	662.37
380.87	716.20
381.07	660.03
381.26	671.73
381.46	631.94
381.65	592.16
381.85	664.71
382.04	681.10
382.24	645.99
382.43	741.95
382.63	706.84
382.83	725.57
383.02	718.54
383.22	723.23
383.41	763.01
383.61	685.78
383.80	688.12
384.00	671.73
384.19	704.50
384.39	800.46
384.58	821.53
384.78	774.72
384.97	706.84
385.17	725.57
385.36	765.36
385.56	753.65
385.75	875.36
385.95	816.85
386.14	772.38
386.34	774.72
386.53	748.97
386.72	784.08
386.92	800.46
387.11	741.95
387.31	751.31
387.50	770.04
387.70	755.99
387.89	835.57
388.09	866.00
388.28	858.98
388.48	830.89
388.67	826.21
388.86	884.72
389.06	842.59
389.25	945.58
389.45	940.90
389.64	917.49
389.84	964.30
390.03	917.49
390.22	898.77
390.42	894.08
390.61	1015.79
390.81	936.21
391.00	1013.45
391.19	961.96
391.39	1013.45
391.58	1055.58
391.78	964.30
391.97	966.64
392.16	947.92
392.36	959.62
392.55	945.58
392.75	880.04
392.94	901.11
393.13	976.00
393.33	929.19
393.52	952.60
393.71	1083.67
393.91	1076.65
394.10	1022.81
394.29	1074.31
394.49	1069.62
394.68	1046.22
394.88	1137.50
395.07	1151.54
395.26	1107.07
395.46	1191.33
395.65	1125.80
395.84	1121.12
396.04	1226.44
396.23	1109.41
396.42	1053.24
396.62	1135.16
396.81	1153.88
397.00	1167.93
397.19	1233.46
397.39	1186.65
397.58	1181.97
397.77	1224.10
397.97	1317.72
398.16	1380.92
398.35	1301.34
398.55	1390.28
398.74	1441.77
398.93	1418.36
399.12	1221.76
399.32	1280.27
399.51	1228.78
399.70	1352.83
399.90	1331.76
400.09	1310.70
400.28	1526.03
400.47	1432.41
400.67	1488.58
400.86	1575.18
401.05	1490.92
401.24	1493.26
401.44	1451.13
401.63	1563.48
401.82	1547.09
402.01	1511.99
402.21	1528.37
402.40	1451.13
402.59	1582.20
402.78	1483.90
402.97	1469.86
403.17	1530.71
403.36	1565.82
403.55	1699.23
403.74	1610.29
403.93	1614.97
404.13	1673.48
404.32	1678.16
404.51	1633.69
404.70	1675.82
404.89	1696.89
405.09	1675.82
405.28	1746.04
405.47	1724.97
405.66	1783.49
405.85	1746.04
406.05	1710.93
406.24	1849.02
406.43	1741.36
406.62	1905.20
406.81	1865.41
407.00	1764.76
407.20	1755.40
407.39	1806.89
407.58	1844.34
407.77	1926.26
407.96	1968.39
408.15	1928.60
408.34	1975.41
408.54	2054.99
408.73	1952.01
408.92	2036.27
409.11	2001.16
409.30	1989.46
409.49	1973.07
409.68	2019.88
409.87	2038.61
410.07	2047.97
410.26	2090.10
410.45	2204.78
410.64	2076.06
410.83	2256.28
411.02	2239.89
411.21	2275.00
411.40	2326.49
411.59	2284.36
411.78	2291.38
411.98	2232.87
412.17	2307.77
412.36	2403.73
412.55	2361.60
412.74	2413.09
412.93	2537.14
413.12	2368.62
413.31	2471.61
413.50	2483.31
413.69	2628.42
413.88	2661.19
414.07	2658.85
414.26	2642.46
414.45	2663.53
414.64	2656.51
414.83	2558.21
415.02	2705.66
415.22	2764.17
415.41	2750.13
415.60	2825.03
415.79	2810.98
415.98	2949.08
416.17	2827.37
416.36	2815.66
416.55	2867.16
416.74	2902.26
416.93	2876.52
417.12	2881.20
417.31	2986.52
417.50	2949.08
417.69	2981.84
417.88	3059.08
418.07	2942.05
418.26	3075.46
418.45	3112.91
418.64	3124.62
418.83	3201.85
419.02	3105.89
419.21	3283.77
419.39	3258.03
419.58	3183.13
419.77	3157.38
419.96	3304.84
420.15	3295.47
420.34	3208.87
420.53	3269.73
420.72	3391.44
420.91	3206.53
421.10	3396.12
421.29	3431.23
421.48	3293.13
421.67	3463.99
421.86	3456.97
422.05	3454.63
422.24	3506.12
422.43	3400.80
422.61	3487.40
422.80	3623.15
422.99	3604.42
423.18	3508.46
423.37	3534.21
423.56	3431.23
423.75	3550.59
423.94	3487.40
424.13	3386.76
424.32	3361.01
424.50	3562.30
424.69	3648.90
424.88	3611.45
425.07	3534.21
425.26	3520.17
425.45	3456.97
425.64	3515.48
425.83	3662.94
426.01	3597.40
426.20	3620.81
426.39	3515.48
426.58	3632.51
426.77	3463.99
426.96	3674.64
427.15	3538.89
427.33	3707.41
427.52	3681.66
427.71	3733.15
427.90	3702.73
428.09	3852.52
428.28	3831.46
428.46	3730.81
428.65	3812.73
428.84	3873.59
429.03	3932.10
429.22	3761.24
429.40	3794.01
429.59	3791.67
429.78	3733.15
429.97	3602.08
430.16	3819.75
430.34	3789.33
430.53	3864.22
430.72	3812.73
430.91	3995.29
431.10	3969.55
431.28	3999.98
431.47	4184.88
431.66	4222.33
431.85	4152.11
432.03	4198.92
432.22	4341.69
432.41	4287.86
432.60	4203.60
432.79	4306.59
432.97	4215.30
433.16	4257.43
433.35	4255.09
433.54	4224.67
433.72	4217.65
433.91	4315.95
434.10	4465.74
434.28	4428.29
434.47	4409.57
434.66	4386.16
434.85	4411.91
435.03	4505.53
435.22	4437.66
435.41	4482.13
435.59	4655.33
435.78	4657.67
435.97	4727.88
436.16	4610.86
436.34	4552.34
436.53	4699.80
436.72	4723.20
436.90	4650.64
437.09	4596.81
437.28	4458.72
437.46	4545.32
437.65	4667.03
437.84	4676.39
438.02	4788.74
438.21	4779.37
438.40	4697.46
438.58	4835.55
438.77	4947.89
438.96	4938.53
439.14	5151.52
439.33	4999.38
439.52	5177.26
439.70	5022.79
439.89	5104.71
440.08	5193.65
440.26	5163.22
440.45	5249.82
440.63	5214.71
440.82	5385.57
441.01	5275.57
441.19	5509.62
441.38	5591.54
441.57	5537.71
441.75	5416.00
441.94	5561.11
442.12	5652.39
442.31	5696.86
442.50	5771.76
442.68	5652.39
442.87	5657.07
443.05	5816.23
443.24	5738.99
443.43	5760.06
443.61	5912.19
443.80	5853.68
443.98	5750.70
444.17	5696.86
444.35	5788.14
444.54	6003.47
444.73	5664.10
444.91	5856.02
445.10	5923.90
445.28	5785.80
445.47	5863.04
445.65	5680.48
445.84	5959.00
446.02	5980.07
446.21	5959.00
446.39	5877.09
446.58	6008.16
446.77	6003.47
446.95	5832.62
447.14	6047.94
447.32	6066.67
447.51	5942.62
447.69	6071.35
447.88	5961.34
448.06	5984.75
448.25	6001.13
448.43	6118.16
448.62	6061.99
448.80	5893.47
448.99	6148.59
449.17	6136.88
449.36	6169.65
449.54	6202.42
449.73	6387.32
449.91	6392.00
450.10	6530.09
450.28	6518.39
450.46	6361.58
450.65	6562.86
450.83	6511.37
451.02	6382.64
451.20	6443.49
451.39	6511.37
451.57	6462.22
451.76	6340.51
451.94	6600.31
452.13	6635.42
452.31	6558.18
452.49	6377.96
452.68	6548.82
452.86	6663.51
453.05	6635.42
453.23	6637.76
453.42	6415.41
453.60	6558.18
453.78	6738.40
453.97	6555.84
454.15	6614.35
454.34	6637.76
454.52	6597.97
454.70	6649.46
454.89	6918.62
455.07	6829.68
455.26	6675.21
455.44	7007.56
455.62	7098.84
455.81	6918.62
455.99	7136.29
456.17	7112.89
456.36	7084.80
456.54	7068.42
456.73	7082.46
456.91	7143.32
457.09	7126.93
457.28	7344.60
457.46	7180.76
457.64	7314.17
457.83	7246.30
458.01	7267.36
458.19	7220.55
458.38	7255.66
458.56	7482.69
458.74	7375.03
458.93	7424.18
459.11	7581.00
459.29	7403.11
459.48	7555.25
459.66	7452.27
459.84	7693.34
460.03	7728.45
460.21	7555.25
460.39	7583.34
460.57	7583.34
460.76	7522.48
460.94	7639.51
461.12	7728.45
461.31	7798.66
461.49	7639.51
461.67	7974.21
461.85	8028.04
462.04	7864.20
462.22	8369.76
462.40	8067.83
462.59	8222.30
462.77	8063.15
462.95	7829.09
463.13	8145.06
463.32	8018.68
463.50	8243.37
463.68	8241.03
463.86	8163.79
464.05	8107.62
464.23	8102.93
464.41	8168.47
464.59	8180.17
464.78	8304.22
464.96	8149.75
465.14	8091.23
465.32	8311.24
465.50	8236.35
465.69	8402.52
465.87	8416.57
466.05	8297.20
466.23	8154.43
466.41	8355.71
466.60	8622.53
466.78	8294.86
466.96	8411.89
467.14	8432.95
467.32	8416.57
467.51	8613.17
467.69	8369.76
467.87	8545.30
468.05	8554.66
468.23	8549.98
468.41	8414.23
468.60	8472.74
468.78	8727.86
468.96	8580.40
469.14	8875.31
469.32	8823.82
469.50	8545.30
469.69	8620.19
469.87	8938.51
470.05	9022.77
470.23	8924.46
470.41	9048.51
470.59	9263.84
470.77	8903.40
470.95	9156.18
471.14	9114.05
471.32	8985.32
471.50	9455.76
471.68	9317.67
471.86	9401.93
472.04	9434.70
472.22	9507.26
472.40	9408.95
472.58	9528.32
472.77	9420.66
472.95	9605.56
473.13	9998.77
473.31	9476.83
473.49	9668.75
473.67	9518.96
473.85	9652.37
474.03	9888.76
474.21	9745.99
474.39	10125.16
474.57	10001.11
474.75	9905.15
474.93	10270.27
475.12	10197.71
475.30	10441.13
475.48	10246.87
475.66	10223.46
475.84	10157.92
476.02	10569.86
476.20	10321.76
476.38	10597.95
476.56	10970.09
476.74	10824.98
476.92	10850.72
477.10	10883.49
477.28	11030.94
477.46	10937.32
477.64	11197.12
477.82	11447.56
478.00	11440.54
478.18	11531.82
478.36	11379.68
478.54	11726.08
478.72	11597.35
478.90	11772.89
479.08	11850.13
479.26	11903.96
479.44	12210.57
479.62	12056.10
479.80	12011.63
479.98	12217.60
480.16	12437.61
480.34	12100.57
480.52	12519.53
480.70	12311.22
480.88	12688.04
481.06	12802.73
481.24	12746.56
481.41	12886.99
481.59	13032.10
481.77	13151.47
481.95	13282.54
482.13	13387.86
482.31	13188.92
482.49	13664.05
482.67	13474.46
482.85	13668.73
483.03	13806.82
483.21	14066.62
483.39	14134.50
483.57	14157.90
483.74	14312.38
483.92	14459.83
484.10	14415.36
484.28	14689.20
484.46	14654.09
484.64	15197.10
484.82	14614.30
485.00	14588.56
485.18	15119.86
485.35	14960.70
485.53	15026.24
485.71	14984.11
485.89	15056.67
486.07	15351.57
486.25	15555.20
486.43	15815.00
486.61	15953.09
486.78	15810.32
486.96	15932.03
487.14	16484.39
487.32	16484.39
487.50	16669.30
487.68	16395.45
487.85	16744.19
488.03	16999.31
488.21	17085.91
488.39	17174.85
488.57	17584.44
488.75	17273.15
488.92	17568.06
489.10	17731.90
489.28	17991.70
489.46	18085.32
489.64	17869.99
489.81	18452.78
489.99	18551.09
490.17	18284.26
490.35	19110.47
490.53	18633.00
490.70	18712.58
490.88	18747.69
491.06	19080.05
491.24	19096.43
491.41	19276.65
491.59	19187.71
491.77	19463.90
491.95	19391.34
492.13	19627.73
492.30	19838.38
492.48	20233.93
492.66	19847.74
492.84	20065.41
493.01	20098.18
493.19	20269.04
493.37	20372.02
493.54	20451.60
493.72	20973.54
493.90	20680.97
494.08	20755.87
494.25	21434.63
494.43	21041.42
494.61	21151.42
494.79	21525.91
494.96	21720.17
495.14	21411.22
495.32	22022.10
495.49	21891.03
495.67	21991.67
495.85	22335.73
496.02	22544.04
496.20	22218.71
496.38	22647.02
496.55	22427.01
496.73	23101.09
496.91	22733.62
497.09	22944.27
497.26	22965.34
497.44	23080.02
497.62	23229.82
497.79	23498.98
497.97	23503.66
498.14	23646.43
498.32	23777.50
498.50	23728.35
498.67	23960.06
498.85	23810.27
499.03	24034.96
499.20	24259.65
499.38	24357.96
499.56	24198.80
499.73	24238.59
499.91	24491.37
500.08	24474.98
500.26	24484.34
500.44	24430.51
500.61	24456.26
500.79	24826.06
500.97	24992.24
501.14	25184.16
501.32	25481.41
501.49	25142.03
501.67	25125.65
501.84	25345.66
502.02	25401.83
502.20	25738.87
502.37	25879.30
502.55	25635.89
502.72	26047.82
502.90	25893.35
503.07	26001.01
503.25	26490.18
503.43	25797.38
503.60	26412.95
503.78	26506.57
503.95	26281.88
504.13	26309.96
504.30	26859.99
504.48	26548.70
504.65	26867.01
504.83	26831.90
505.01	27154.90
505.18	26906.80
505.36	27630.02
505.53	27360.86
505.71	27262.56
505.88	27487.25
506.06	27133.83
506.23	27606.62
506.41	27587.89
506.58	27737.69
506.76	27571.51
506.93	28203.46
507.11	27868.76
507.28	27927.27
507.46	27709.60
507.63	27805.56
507.81	28390.70
507.98	28067.70
508.16	28489.00
508.33	28446.87
508.50	28889.23
508.68	28526.45
508.85	28758.16
509.03	28938.38
509.20	28737.10
509.38	29139.67
509.55	29216.91
509.73	28987.53
509.90	29336.27
510.08	29261.38
510.25	29167.76
510.42	29326.91
510.60	29244.99
510.77	29544.58
510.95	30085.25
511.12	29813.74
511.30	29970.56
511.47	30043.12
511.64	30099.29
511.82	30487.82
511.99	30115.67
512.17	30078.22
512.34	29876.94
512.51	30260.79
512.69	30565.06
512.86	30445.69
513.04	30424.62
513.21	30895.07
513.38	30752.30
513.56	30712.51
513.73	30497.18
513.90	31044.87
514.08	30803.79
514.25	30913.80
514.43	31236.79
514.60	31079.97
514.77	31269.56
514.95	31208.70
515.12	31407.65
515.29	31491.91
515.47	31686.17
515.64	32016.19
515.81	31529.36
515.99	31859.37
516.16	31587.87
516.33	31938.95
516.51	31974.06
516.68	31604.25
516.85	31648.72
517.03	32158.96
517.20	31826.60
517.37	32215.13
517.54	32313.44
517.72	32371.95
517.89	31967.04
518.06	32034.91
518.24	32275.99
518.41	32287.69
518.58	32402.38
518.75	32601.32
518.93	32790.91
519.10	32582.60
519.27	33053.05
519.45	32816.65
519.62	33205.18
519.79	32978.15
519.96	33422.85
520.14	33769.25
520.31	33230.93
520.48	33392.42
520.65	33247.31
520.83	33642.86
521.00	33280.08
521.17	33776.27
521.34	33689.67
521.52	33591.37
521.69	33858.19
521.86	33968.19
522.03	34071.18
522.20	34108.63
522.38	34263.10
522.55	34440.98
522.72	33858.19
522.89	34206.93
523.07	34604.82
523.24	34375.45
523.41	34567.37
523.58	34335.66
523.75	34773.34
523.92	35129.10
524.10	34876.32
524.27	34831.85
524.44	34909.09
524.61	34763.98
524.78	35084.63
524.96	35253.15
525.13	35676.79
525.30	35309.32
525.47	35629.98
525.64	35475.50
525.81	35292.94
525.98	34834.19
526.16	35419.33
526.33	35812.54
526.50	35959.99
526.67	35318.68
526.84	35601.89
527.01	35484.86
527.18	35798.49
527.36	35838.28
527.53	35910.84
527.70	36439.80
527.87	36151.91
528.04	35887.43
528.21	36287.67
528.38	36423.42
528.55	36556.83
528.72	36208.09
528.89	36737.05
529.07	36591.94
529.24	36411.71
529.41	36521.72
529.58	36392.99
529.75	36390.65
529.92	36875.14
530.09	36989.83
530.26	36877.48
530.43	36931.31
530.60	36690.24
530.77	37359.63
530.94	36926.63
531.11	36713.64
531.28	37179.41
531.46	37233.24
531.63	37624.11
531.80	37432.19
531.97	37614.75
532.14	37406.44
532.31	37242.60
532.48	37251.97
532.65	37163.03
532.82	37558.58
532.99	37703.69
533.16	37600.71
533.33	37703.69
533.50	38190.52
533.67	37551.56
533.84	37724.75
534.01	37787.95
534.18	38052.43
534.35	38192.86
534.52	38356.70
534.69	38305.21
534.86	38323.93
535.03	37921.36
535.20	38501.81
535.37	38412.87
535.54	38728.84
535.71	38562.67
535.88	38548.62
536.05	38277.12
536.22	38635.22
536.38	38691.40
536.55	38426.92
536.72	38417.55
536.89	38731.18
537.06	38499.47
537.23	39192.27
537.40	38904.38
537.57	39000.35
537.74	39019.07
537.91	39393.56
538.08	39126.74
538.25	38766.29
538.42	39056.52
538.59	39100.99
538.75	38579.05
538.92	39487.18
539.09	39573.78
539.26	39381.85
539.43	39250.78
539.60	39491.86
539.77	39393.56
539.94	39494.20
540.11	39639.31
540.28	39709.53
540.44	39580.80
540.61	39321.00
540.78	39435.69
540.95	39199.29
541.12	39461.43
541.29	39264.83
541.46	40088.70
541.62	39889.75
541.79	39789.11
541.96	39475.48
542.13	40009.12
542.30	40231.47
542.47	39917.84
542.63	40268.92
542.80	39800.81
542.97	40676.17
543.14	40598.93
543.31	40226.79
543.48	40334.45
543.64	41074.06
543.81	40479.57
543.98	40762.77
544.15	40439.78
544.32	41198.11
544.48	41064.70
544.65	40861.07
544.82	41219.17
544.99	40435.10
545.16	41207.47
545.32	40730.00
545.49	40964.06
545.66	41008.53
545.83	40994.48
546.00	41450.89
546.16	40992.14
546.33	40814.26
546.50	41013.21
546.67	41394.71
546.83	40811.92
547.00	40921.93
547.17	40587.23
547.34	41434.50
547.50	41574.94
547.67	41947.08
547.84	41209.81
548.00	41567.91
548.17	41682.60
548.34	41537.49
548.51	42026.66
548.67	41607.70
548.84	42007.94
549.01	41844.10
549.18	41748.14
549.34	41750.48
549.51	42373.06
549.68	42036.02
549.84	42218.58
550.01	42298.16
550.18	41717.71
550.34	42169.43
550.51	41621.75
550.68	41509.40
550.84	41390.03
551.01	41647.49
551.18	42401.14
551.34	42457.32
551.51	42216.24
551.68	42302.84
551.84	42047.72
552.01	42033.68
552.18	42450.30
552.34	42059.43
552.51	42499.45
552.68	42328.59
552.84	42646.90
553.01	42967.55
553.18	42625.84
553.34	41902.61
553.51	42256.03
553.67	42373.06
553.84	42789.67
554.01	42962.87
554.17	43339.70
554.34	42649.24
554.51	42691.37
554.67	43061.18
554.84	42738.18
555.00	42572.00
555.17	42752.23
555.33	43044.79
555.50	42796.70
555.67	42829.46
555.83	43068.20
556.00	42752.23
556.16	43573.75
556.33	43356.08
556.50	42686.69
556.66	43229.69
556.83	43002.66
556.99	43175.86
557.16	43688.44
557.32	43021.39
557.49	43395.87
557.65	42869.25
557.82	43288.21
557.98	42913.72
558.15	43409.92
558.32	43643.97
558.48	43313.95
558.65	42990.96
558.81	43414.60
558.98	43054.15
559.14	43267.14
559.31	43393.53
559.47	43882.70
559.64	43552.69
559.80	43466.09
559.97	43026.07
560.13	43215.65
560.30	43346.72
560.46	43723.55
560.63	43494.18
560.79	43793.76
560.96	43770.36
561.12	43700.14
561.29	43620.56
561.45	43812.49
561.61	44142.50
561.78	44037.18
561.94	43658.01
562.11	43852.28
562.27	43419.28
562.44	43735.25
562.60	43618.22
562.77	44182.29
562.93	43988.03
563.10	44196.34
563.26	43697.80
563.42	43952.92
563.59	43945.90
563.75	43922.49
563.92	44065.27
564.08	43913.13
564.24	44004.41
564.41	44105.06
564.57	43761.00
564.74	44252.51
564.90	44208.04
565.07	44175.27
565.23	43899.09
565.39	44151.87
565.56	44177.61
565.72	43875.68
565.88	44451.45
566.05	44133.14
566.21	44261.87
566.38	43927.17
566.54	43697.80
566.70	44652.74
566.87	44573.16
567.03	44135.48
567.19	44699.55
567.36	44264.21
567.52	44292.30
567.68	44374.22
567.85	44271.23
568.01	44378.90
568.17	44266.55
568.34	44385.92
568.50	44252.51
568.66	44259.53
568.83	44112.08
568.99	43814.83
569.15	44119.10
569.32	43920.15
569.48	44329.75
569.64	44533.37
569.81	44336.77
569.97	43983.35
570.13	44341.45
570.30	44126.12
570.46	43739.93
570.62	44350.81
570.78	44184.63
570.95	44051.22
571.11	44170.59
571.27	44282.94
571.43	44318.04
571.60	44641.04
571.76	44495.92
571.92	44161.23
572.09	44109.74
572.25	44512.31
572.41	44086.33
572.57	44437.41
572.74	44783.81
572.90	44720.62
573.06	44383.58
573.22	44437.41
573.38	44397.62
573.55	44219.74
573.71	44753.38
573.87	44793.17
574.03	44409.32
574.20	44495.92
574.36	44657.42
574.52	44493.58
574.68	44580.18
574.84	44903.18
575.01	44542.74
575.17	44552.10
575.33	44259.53
575.49	44507.63
575.65	44652.74
575.82	44495.92
575.98	44619.97
576.14	44472.52
576.30	44701.89
576.46	44385.92
576.62	44582.52
576.79	44360.17
576.95	44032.50
577.11	44596.57
577.27	44414.01
577.43	44449.11
577.59	44304.00
577.75	44580.18
577.92	44315.70
578.08	44507.63
578.24	43782.06
578.40	44425.71
578.56	44847.00
578.72	44744.02
578.88	44378.90
579.04	44524.01
579.21	44634.02
579.37	44659.76
579.53	44257.19
579.69	44098.03
579.85	44645.72
580.01	44465.50
580.17	44832.96
580.33	45191.06
580.49	45050.63
580.65	44603.59
580.82	44334.43
580.98	44687.85
581.14	44467.84
581.30	44795.51
581.46	44701.89
581.62	44666.78
581.78	44849.35
581.94	44737.00
582.10	44664.44
582.26	44671.46
582.42	45074.04
582.58	44692.53
582.74	44519.33
582.90	44732.32
583.06	44861.05
583.22	45029.57
583.38	44715.93
583.54	44732.32
583.70	44849.35
583.86	44418.69
584.02	44505.29
584.18	44701.89
584.34	44509.97
584.50	45144.25
584.66	44739.34
584.82	44781.47
584.98	44746.36
585.14	45132.55
585.30	44638.70
585.46	44809.56
585.62	44729.98
585.78	44781.47
585.94	44912.54
586.10	44879.77
586.26	44397.62
586.42	45123.19
586.58	44720.62
586.74	44973.39
586.90	44694.87
587.06	44631.68
587.22	45013.18
587.38	45045.95
587.54	45015.52
587.70	45050.63
587.86	44992.12
588.02	44619.97
588.18	45237.87
588.34	45006.16
588.49	45270.64
588.65	44577.84
588.81	44371.88
588.97	45001.48
589.13	44823.60
589.29	44289.96
589.45	44919.56
589.61	44748.70
589.77	45120.85
589.93	45422.78
590.08	45237.87
590.24	44781.47
