SpectraSuite Data File
++++++++++++++++++++++++++++++++++++
Date: Fri Oct 25 11:23:56 EDT 2013
User: price-jones
Dark Spectrum Present: No
Reference Spectrum Present: No
Number of Sampled Component Spectra: 1
Spectrometers: USB2+H05261
Integration Time (usec): 100000 (USB2+H05261)
Spectra Averaged: 1 (USB2+H05261)
Boxcar Smoothing: 0 (USB2+H05261)
Correct for Electrical Dark: No (USB2+H05261)
Strobe/Lamp Enabled: No (USB2+H05261)
Correct for Detector Non-linearity: No (USB2+H05261)
Correct for Stray Light: No (USB2+H05261)
Number of Pixels in Processed Spectrum: 2048
>>>>>Begin Processed Spectral Data<<<<<
365.73	234.05
365.92	234.05
366.12	234.05
366.32	133.41
366.52	126.39
366.72	110.01
366.91	175.54
367.11	173.20
367.31	114.69
367.51	53.83
367.70	110.01
367.90	156.82
368.10	149.79
368.30	77.24
368.49	138.09
368.69	180.22
368.89	220.01
369.09	142.77
369.28	142.77
369.48	170.86
369.68	175.54
369.87	163.84
370.07	203.63
370.27	257.46
370.47	301.93
370.66	634.29
370.86	645.99
371.06	713.86
371.25	681.10
371.45	671.73
371.65	713.86
371.84	641.31
372.04	641.31
372.24	723.23
372.44	711.52
372.63	760.67
372.83	758.33
373.03	727.91
373.22	760.67
373.42	716.20
373.62	737.27
373.81	753.65
374.01	732.59
374.21	798.12
374.40	798.12
374.60	770.04
374.79	793.44
374.99	798.12
375.19	840.25
375.38	837.91
375.58	854.30
375.78	802.80
375.97	842.59
376.17	837.91
376.37	828.55
376.56	919.83
376.76	863.66
376.95	809.83
377.15	861.32
377.35	875.36
377.54	912.81
377.74	917.49
377.93	976.00
378.13	936.21
378.33	983.02
378.52	915.15
378.72	968.98
378.91	917.49
379.11	880.04
379.31	968.98
379.50	945.58
379.70	966.64
379.89	983.02
380.09	954.94
380.28	910.47
380.48	966.64
380.68	985.37
380.87	985.37
381.07	1022.81
381.26	1067.28
381.46	992.39
381.65	992.39
381.85	987.71
382.04	1076.65
382.24	976.00
382.43	1097.71
382.63	1104.73
382.83	1008.77
383.02	1188.99
383.22	1128.14
383.41	1027.50
383.61	1167.93
383.80	1156.22
384.00	992.39
384.19	1086.01
384.39	1158.57
384.58	1048.56
384.78	1102.39
384.97	1181.97
385.17	1165.59
385.36	1057.92
385.56	1128.14
385.75	1179.63
385.95	1165.59
386.14	1240.48
386.34	1121.12
386.53	1207.72
386.72	1170.27
386.92	1280.27
387.11	1268.57
387.31	1317.72
387.50	1217.08
387.70	1228.78
387.89	1387.94
388.09	1256.87
388.28	1287.29
388.48	1277.93
388.67	1352.83
388.86	1275.59
389.06	1331.76
389.25	1366.87
389.45	1317.72
389.64	1453.47
389.84	1409.00
390.03	1380.92
390.22	1371.55
390.42	1343.47
390.61	1404.32
390.81	1392.62
391.00	1547.09
391.19	1444.11
391.39	1392.62
391.58	1434.75
391.78	1451.13
391.97	1441.77
392.16	1467.52
392.36	1420.71
392.55	1378.58
392.75	1540.07
392.94	1474.54
393.13	1521.35
393.33	1507.30
393.52	1593.90
393.71	1575.18
393.91	1556.46
394.10	1500.28
394.29	1526.03
394.49	1631.35
394.68	1687.53
394.88	1551.78
395.07	1621.99
395.26	1746.04
395.46	1577.52
395.65	1764.76
395.84	1767.10
396.04	1834.98
396.23	1654.76
396.42	1743.70
396.62	1839.66
396.81	1781.15
397.00	1743.70
397.19	1755.40
397.39	1769.44
397.58	1816.26
397.77	1785.83
397.97	1820.94
398.16	1790.51
398.35	1956.69
398.55	1811.57
398.74	1886.47
398.93	1905.20
399.12	1996.48
399.32	1944.99
399.51	1959.03
399.70	2001.16
399.90	1923.92
400.09	2085.42
400.28	2040.95
400.47	1970.73
400.67	2150.95
400.86	2172.02
401.05	2019.88
401.24	2113.50
401.44	2054.99
401.63	2181.38
401.82	2127.55
402.01	2015.20
402.21	2111.16
402.40	2223.51
402.59	2143.93
402.78	2333.51
402.97	2253.94
403.17	2190.74
403.36	2256.28
403.55	2380.32
403.74	2387.35
403.93	2342.88
404.13	2401.39
404.32	2422.45
404.51	2476.29
404.70	2427.14
404.89	2385.01
405.09	2450.54
405.28	2422.45
405.47	2541.82
405.66	2560.55
405.85	2644.81
406.05	2569.91
406.24	2560.55
406.43	2588.63
406.62	2602.68
406.81	2602.68
407.00	2539.48
407.20	2551.18
407.39	2651.83
407.58	2780.56
407.77	2745.45
407.96	2675.23
408.15	2736.09
408.34	2705.66
408.54	2754.81
408.73	2736.09
408.92	2752.47
409.11	2836.73
409.30	2881.20
409.49	2906.95
409.68	2981.84
409.87	2979.50
410.07	3042.70
410.26	3133.98
410.45	2909.29
410.64	3176.11
410.83	3141.00
411.02	3129.30
411.21	3215.90
411.40	3091.85
411.59	3204.19
411.78	3157.38
411.98	3117.59
412.17	3281.43
412.36	3260.37
412.55	3435.91
412.74	3389.10
412.93	3337.60
413.12	3396.12
413.31	3639.53
413.50	3524.85
413.69	3407.82
413.88	3557.61
414.07	3524.85
414.26	3646.55
414.45	3627.83
414.64	3632.51
414.83	3618.47
415.02	3665.28
415.22	3730.81
415.41	3915.72
415.60	3857.20
415.79	3936.78
415.98	4079.55
416.17	3810.39
416.36	3894.65
416.55	4091.26
416.74	4072.53
416.93	4042.11
417.12	4227.01
417.31	4173.18
417.50	4095.94
417.69	4271.48
417.88	4224.67
418.07	4402.55
418.26	4344.03
418.45	4334.67
418.64	4568.73
418.83	4550.00
419.02	4456.38
419.21	4533.62
419.39	4437.66
419.58	4470.42
419.77	4561.70
419.96	4524.26
420.15	4550.00
420.34	4643.62
420.53	4510.21
420.72	4844.91
420.91	4578.09
421.10	4690.43
421.29	4877.68
421.48	4678.73
421.67	4760.65
421.86	4844.91
422.05	4732.56
422.24	4767.67
422.43	4896.40
422.61	4821.50
422.80	4847.25
422.99	4880.02
423.18	5156.20
423.37	5029.81
423.56	4816.82
423.75	4922.15
423.94	4887.04
424.13	4533.62
424.32	4882.36
424.50	4971.30
424.69	5034.49
424.88	5132.79
425.07	4954.91
425.26	4858.95
425.45	5001.72
425.64	4889.38
425.83	4954.91
426.01	5102.37
426.20	5071.94
426.39	5057.90
426.58	5188.97
426.77	5128.11
426.96	5158.54
427.15	5104.71
427.33	5160.88
427.52	5177.26
427.71	5034.49
427.90	5226.42
428.09	5282.59
428.28	5322.38
428.46	5240.46
428.65	5425.36
428.84	5542.39
429.03	5628.99
429.22	5495.58
429.40	5495.58
429.59	5327.06
429.78	5366.85
429.97	5359.83
430.16	5533.03
430.34	5636.01
430.53	5643.03
430.72	5593.88
430.91	5701.54
431.10	5771.76
431.28	5788.14
431.47	5654.73
431.66	5853.68
431.85	5853.68
432.03	5804.53
432.22	6008.16
432.41	5930.92
432.60	5912.19
432.79	5858.36
432.97	5951.98
433.16	6076.03
433.35	5841.98
433.54	6108.80
433.72	6069.01
433.91	6134.54
434.10	6169.65
434.28	6202.42
434.47	6057.31
434.66	6155.61
434.85	6490.31
435.03	6392.00
435.22	6169.65
435.41	6546.48
435.59	6478.60
435.78	6408.39
435.97	6399.02
436.16	6429.45
436.34	6499.67
436.53	6539.46
436.72	6745.42
436.90	6597.97
437.09	6633.08
437.28	6532.44
437.46	6583.93
437.65	6672.87
437.84	6750.10
438.02	6710.32
438.21	6820.32
438.40	6890.54
438.58	7042.67
438.77	6984.16
438.96	7000.54
439.14	7112.89
439.33	7229.91
439.52	7396.09
439.70	7382.05
439.89	7403.11
440.08	7435.88
440.26	7456.95
440.45	7248.64
440.63	7410.14
440.82	7564.61
441.01	7534.18
441.19	7557.59
441.38	7770.58
441.57	7665.25
441.75	7744.83
441.94	7922.71
442.12	8088.89
442.31	7974.21
442.50	8175.49
442.68	7901.65
442.87	7992.93
443.05	8180.17
443.24	8238.69
443.43	8320.60
443.61	8208.26
443.80	8489.12
443.98	8086.55
444.17	7941.44
444.35	8168.47
444.54	8493.80
444.73	8332.31
444.91	8423.59
445.10	8355.71
445.28	8365.07
445.47	8336.99
445.65	8353.37
445.84	8444.65
446.02	8629.56
446.21	8442.31
446.39	8435.29
446.58	8629.56
446.77	8528.91
446.95	8369.76
447.14	8353.37
447.32	8566.36
447.51	8468.06
447.69	8582.74
447.88	8549.98
448.06	8339.33
448.25	8554.66
448.43	8376.78
448.62	8657.64
448.80	8732.54
448.99	8723.18
449.17	8734.88
449.36	8648.28
449.54	9039.15
449.73	9018.08
449.91	9107.02
450.10	8922.12
450.28	9100.00
450.46	9142.13
450.65	8999.36
450.83	9146.81
451.02	9109.36
451.20	9277.88
451.39	9191.28
451.57	9235.75
451.76	9118.73
451.94	9205.33
452.13	9437.04
452.31	9277.88
452.49	9041.49
452.68	9376.19
452.86	9315.33
453.05	9415.98
453.23	9425.34
453.42	9308.31
453.60	9488.53
453.78	9467.47
453.97	9483.85
454.15	9654.71
454.34	9572.79
454.52	9914.51
454.70	9490.87
454.89	9856.00
455.07	9767.06
455.26	9837.27
455.44	9799.82
455.62	10003.45
455.81	9874.72
455.99	10066.64
456.17	10015.15
456.36	10099.41
456.54	10251.55
456.73	10230.48
456.91	10511.35
457.09	10572.20
457.28	10661.14
457.46	10181.33
457.64	10588.58
457.83	10366.23
458.01	10328.78
458.19	10754.76
458.38	10572.20
458.56	10761.78
458.74	10714.97
458.93	10595.61
459.11	10644.76
459.29	10881.15
459.48	10785.19
459.66	10846.04
459.84	11077.76
460.03	11129.25
460.21	10848.38
460.39	11157.33
460.57	11077.76
460.76	11059.03
460.94	11140.95
461.12	11152.65
461.31	11309.47
461.49	11171.38
461.67	11211.17
461.85	11428.84
462.04	11318.83
462.22	11534.16
462.40	11648.85
462.59	11587.99
462.77	11609.06
462.95	11690.98
463.13	11690.98
463.32	11840.77
463.50	11875.88
463.68	11812.68
463.86	11751.83
464.05	11749.49
464.23	11859.49
464.41	11763.53
464.59	11634.80
464.78	12053.76
464.96	12271.43
465.14	11950.78
465.32	12210.57
465.50	12091.21
465.69	12058.44
465.87	12131.00
466.05	12362.71
466.23	12250.36
466.41	12046.74
466.60	12706.77
466.78	12152.06
466.96	12409.52
467.14	12437.61
467.32	12659.96
467.51	12737.20
467.69	12465.69
467.87	12578.04
468.05	12594.42
468.23	12601.44
468.41	12517.18
468.60	12657.62
468.78	12788.69
468.96	12585.06
469.14	13011.04
469.32	12837.84
469.50	12697.41
469.69	13078.91
469.87	12973.59
470.05	13118.70
470.23	13310.63
470.41	13041.46
470.59	13432.33
470.77	13315.31
470.95	13336.37
471.14	13504.89
471.32	13135.09
471.50	13795.12
471.68	13743.63
471.86	13823.20
472.04	13956.61
472.22	14235.14
472.40	13640.64
472.58	14085.34
472.77	14043.21
472.95	14209.39
473.13	14721.97
473.31	14291.31
473.49	14235.14
473.67	13951.93
473.85	14019.81
474.03	14689.20
474.21	14487.92
474.39	14831.97
474.57	14799.21
474.75	14831.97
474.93	15061.35
475.12	14958.36
475.30	15176.03
475.48	14993.47
475.66	15227.53
475.84	15213.48
476.02	15307.10
476.20	15618.39
476.38	15803.30
476.56	15976.50
476.74	15845.43
476.92	16130.97
477.10	16006.92
477.28	16404.81
477.46	16470.35
477.64	16226.93
477.82	16837.81
478.00	17081.23
478.18	16823.77
478.36	16601.42
478.54	17209.96
478.72	17209.96
478.90	17488.48
479.08	17666.36
479.26	17727.22
479.44	17748.28
479.62	17977.65
479.80	18090.00
479.98	18125.11
480.16	18838.97
480.34	18471.51
480.52	18806.20
480.70	18721.95
480.88	18473.85
481.06	18817.91
481.24	18656.41
481.41	18951.32
481.59	19192.39
481.77	19714.33
481.95	19480.28
482.13	19655.82
482.31	19913.28
482.49	20568.63
482.67	20086.48
482.85	20451.60
483.03	20554.58
483.21	21064.82
483.39	20999.29
483.57	20751.19
483.74	21221.64
483.92	21605.49
484.10	21406.54
484.28	21886.35
484.46	22270.20
484.64	22366.16
484.82	21933.16
485.00	22251.47
485.18	22597.87
485.35	23126.83
485.53	22897.46
485.71	22998.10
485.89	23557.49
486.07	23367.91
486.25	23482.59
486.43	23681.54
486.61	24292.42
486.78	24224.54
486.96	24355.61
487.14	24503.07
487.32	24360.30
487.50	24952.45
487.68	24966.49
487.85	25448.64
488.03	25558.65
488.21	26111.02
488.39	26132.08
488.57	26038.46
488.75	26162.51
488.92	26593.17
489.10	26969.99
489.28	26794.45
489.46	27171.28
489.64	27016.80
489.81	27686.20
489.99	27843.01
490.17	27995.15
490.35	28339.21
490.53	28196.43
490.70	28477.30
490.88	28811.99
491.06	28568.58
491.24	28847.10
491.41	29282.44
491.59	29184.14
491.77	29137.33
491.95	29362.02
492.13	30017.37
492.30	29848.85
492.48	30005.67
492.66	30286.53
492.84	30539.31
493.01	30562.72
493.19	30838.90
493.37	30962.95
493.54	31285.94
493.72	31269.56
493.90	31412.33
494.08	31941.29
494.25	32070.02
494.43	32212.79
494.61	32519.40
494.79	32580.26
494.96	32758.14
495.14	32863.46
495.32	33153.69
495.49	33008.58
495.67	33209.86
495.85	33390.08
496.02	34263.10
496.20	34092.24
496.38	34099.26
496.55	34398.85
496.73	35145.48
496.91	34792.06
497.09	35136.12
497.26	35395.92
497.44	35108.04
497.62	35325.71
497.79	36273.62
497.97	35690.83
498.14	36311.07
498.32	36491.29
498.50	36257.24
498.67	36643.43
498.85	36678.54
499.03	36952.38
499.20	36837.69
499.38	37200.47
499.56	37607.73
499.73	37446.23
499.91	37809.01
500.08	37666.24
500.26	37916.68
500.44	37684.97
500.61	38057.11
500.79	38239.67
500.97	38293.50
501.14	38602.46
501.32	38719.48
501.49	38850.55
501.67	38866.94
501.84	38808.42
502.02	38932.47
502.20	39049.50
502.37	39309.30
502.55	39395.90
502.72	39587.82
502.90	39711.87
503.07	39803.15
503.25	39849.96
503.43	39821.87
503.60	40264.24
503.78	40161.25
503.95	40608.29
504.13	40678.51
504.30	41130.23
504.48	41074.06
504.65	40905.54
504.83	41368.97
505.01	41530.47
505.18	41579.62
505.36	41724.73
505.53	41551.53
505.71	41942.40
505.88	41813.67
506.06	41581.96
506.23	42153.05
506.41	41773.88
506.58	41982.19
506.76	42323.91
506.93	42471.36
507.11	42572.00
507.28	42487.74
507.46	42298.16
507.63	43227.35
507.81	43772.70
507.98	42932.45
508.16	43398.21
508.33	43217.99
508.50	43494.18
508.68	43445.02
508.85	44095.69
509.03	44194.00
509.20	44399.96
509.38	44177.61
509.55	44804.88
509.73	44552.10
509.90	44959.35
510.08	44676.15
510.25	44538.05
510.42	44928.92
510.60	45179.36
510.77	45099.78
510.95	45586.61
511.12	45024.89
511.30	45385.33
511.47	45628.74
511.64	45731.73
511.82	45933.01
511.99	45998.55
512.17	46529.85
512.34	45635.77
512.51	46436.23
512.69	46319.20
512.86	46621.13
513.04	46726.46
513.21	47339.68
513.38	46408.14
513.56	46740.50
513.73	46979.23
513.90	47157.11
514.08	46866.89
514.25	47295.21
514.43	47374.78
514.60	47683.73
514.77	47660.33
514.95	47810.12
515.12	47697.78
515.29	47751.61
515.47	47950.56
515.64	48334.40
515.81	47997.37
515.99	48563.78
516.16	48676.12
516.33	48198.65
516.51	48877.41
516.68	48413.98
516.85	48573.14
517.03	49036.56
517.20	48928.90
517.37	49048.27
517.54	49198.06
517.72	49125.50
517.89	49265.94
518.06	49453.18
518.24	49179.34
518.41	49453.18
518.58	49619.36
518.75	49460.20
518.93	49670.85
519.10	49830.01
519.27	49860.43
519.45	49827.66
519.62	50213.85
519.79	49801.92
519.96	50085.12
520.14	50202.15
520.31	50071.08
520.48	50464.29
520.65	50588.34
520.83	50834.10
521.00	50731.11
521.17	50780.26
521.34	50789.62
521.52	50766.22
521.69	51026.02
521.86	51444.98
522.03	51220.28
522.20	51503.49
522.38	51828.82
522.55	51426.25
522.72	51620.52
522.89	51430.93
523.07	51700.09
523.24	51480.08
523.41	51814.78
523.58	51861.59
523.75	51969.26
523.92	52140.11
524.10	51995.00
524.27	52013.73
524.44	52463.11
524.61	52289.91
524.78	52210.33
524.96	52088.62
525.13	52549.71
525.30	52683.12
525.47	52591.84
525.64	52488.85
525.81	52624.60
525.98	52973.34
526.16	52692.48
526.33	52753.33
526.50	53256.55
526.67	53090.37
526.84	52999.09
527.01	52685.46
527.18	53036.54
527.36	53216.76
527.53	53319.74
527.70	53535.07
527.87	53616.99
528.04	52963.98
528.21	53389.96
528.38	53361.87
528.55	53902.54
528.72	53294.00
528.89	53378.26
529.07	53375.92
529.24	53301.02
529.41	53954.03
529.58	53801.89
529.75	53858.07
529.92	53975.09
530.09	53925.94
530.26	54223.19
530.43	54152.97
530.60	53846.36
530.77	54085.10
530.94	54333.20
531.11	54101.48
531.28	54262.98
531.46	54277.02
531.63	54333.20
531.80	54019.56
531.97	54513.42
532.14	54686.62
532.31	54403.41
532.48	54934.71
532.65	54855.14
532.82	54616.40
532.99	54962.80
533.16	54705.34
533.33	54932.37
533.50	55119.62
533.67	54993.23
533.84	54890.24
534.01	55072.81
534.18	55117.28
534.35	55379.42
534.52	55426.23
534.69	55264.73
534.86	55236.64
535.03	55285.79
535.20	55243.66
535.37	55381.76
535.54	55510.49
535.71	55442.61
535.88	55451.97
536.05	55456.65
536.22	55618.15
536.38	55585.38
536.55	55690.71
536.72	55894.33
536.89	55716.45
537.06	55660.28
537.23	55859.23
537.40	55789.01
537.57	55777.31
537.74	55646.24
537.91	56076.90
538.08	56219.67
538.25	55875.61
538.42	55840.50
538.59	56299.25
538.75	55964.55
538.92	56317.97
539.09	56343.72
539.26	56236.05
539.43	56114.34
539.60	56629.26
539.77	56128.39
539.94	56320.31
540.11	56467.76
540.28	56463.08
540.44	56437.34
540.61	56598.83
540.78	56587.13
540.95	56512.23
541.12	56423.29
541.29	56743.95
541.46	56580.11
541.62	56463.08
541.79	56713.52
541.96	56442.02
542.13	56659.69
542.30	56727.56
542.47	56975.66
542.63	56924.17
542.80	57090.35
542.97	57024.81
543.14	57389.94
543.31	57418.02
543.48	57034.17
543.64	57682.50
543.81	57565.48
543.98	57523.35
544.15	57441.43
544.32	57354.83
544.48	57586.54
544.65	57574.84
544.82	57336.10
544.99	57277.59
545.16	57689.52
545.32	57420.36
545.49	57827.62
545.66	57703.57
545.83	57652.08
546.00	57726.97
546.16	57939.96
546.33	57635.69
546.50	57542.07
546.67	57766.76
546.83	57659.10
547.00	57865.06
547.17	57647.39
547.34	58005.50
547.50	58045.29
547.67	58127.20
547.84	58288.70
548.00	58096.78
548.17	58176.36
548.34	58223.17
548.51	58129.54
548.67	58396.37
548.84	58328.49
549.01	58162.31
549.18	58265.30
549.34	58431.47
549.51	58234.87
549.68	58520.41
549.84	58466.58
550.01	58555.52
550.18	58403.39
550.34	58618.72
550.51	58536.80
550.68	58681.91
550.84	58426.79
551.01	58782.55
551.18	58571.91
551.34	58560.20
551.51	58738.08
551.68	58864.47
551.84	58461.90
552.01	58426.79
552.18	58885.54
552.34	58642.12
552.51	58927.67
552.68	58548.50
552.84	58901.92
553.01	58988.52
553.18	58930.01
553.34	59035.33
553.51	58686.59
553.67	58922.99
553.84	58972.14
554.01	59009.59
554.17	59068.10
554.34	59096.19
554.51	59032.99
554.67	59025.97
554.84	59178.10
555.00	58941.71
555.17	59147.68
555.33	59100.87
555.50	59117.25
555.67	58855.11
555.83	59077.46
556.00	59395.77
556.16	59625.15
556.33	59320.88
556.50	59269.39
556.66	59451.95
556.83	59143.00
556.99	59463.65
557.16	59456.63
557.32	59662.60
557.49	59709.41
557.65	59217.89
557.82	59295.13
557.98	59440.24
558.15	59683.66
558.32	59632.17
558.48	59433.22
558.65	59395.77
558.81	59491.74
558.98	59859.20
559.14	59805.37
559.31	59901.33
559.47	59728.13
559.64	59739.83
559.80	59753.88
559.97	59842.82
560.13	59547.91
560.30	59793.67
560.46	59805.37
560.63	59753.88
560.79	59779.62
560.96	59936.44
561.12	60048.78
561.29	59927.08
561.45	59798.35
561.61	59866.22
561.78	59936.44
561.94	59868.56
562.11	60044.10
562.27	59952.82
562.44	60170.49
562.60	60268.79
562.77	60013.68
562.93	59971.55
563.10	60268.79
563.26	59793.67
563.42	60427.95
563.59	60090.91
563.75	60048.78
563.92	60261.77
564.08	60086.23
564.24	60257.09
564.41	59934.10
564.57	60285.18
564.74	60254.75
564.90	60109.64
565.07	60268.79
565.23	60121.34
565.39	60030.06
565.56	60261.77
565.72	60179.85
565.88	60353.05
566.05	60254.75
566.21	60135.38
566.38	60189.22
566.54	60427.95
566.70	60470.08
566.87	60402.21
567.03	60240.71
567.19	60657.32
567.36	60493.49
567.52	60465.40
567.68	60601.15
567.85	60523.91
568.01	60736.90
568.17	60369.44
568.34	60542.64
568.50	60402.21
568.66	60266.45
568.83	60577.75
568.99	60264.11
569.15	60512.21
569.32	60367.10
569.48	60544.98
569.64	60772.01
569.81	60479.44
569.97	60273.48
570.13	60495.83
570.30	60535.62
570.46	60502.85
570.62	60617.53
570.78	60633.92
570.95	60547.32
571.11	60662.00
571.27	60533.28
571.43	60622.22
571.60	60699.45
571.76	60514.55
571.92	60811.80
572.09	60762.65
572.25	60692.43
572.41	60509.87
572.57	60507.53
572.74	61020.11
572.90	60662.00
573.06	60776.69
573.22	60750.94
573.38	60650.30
573.55	60713.50
573.71	60914.78
573.87	60905.42
574.03	60556.68
574.20	60832.86
574.36	60521.57
574.52	60917.12
574.68	60769.67
574.84	60882.02
575.01	60720.52
575.17	60846.91
575.33	60942.87
575.49	60760.31
575.65	61038.83
575.82	60727.54
575.98	60860.95
576.14	60757.97
576.30	60846.91
576.46	60779.03
576.62	60783.71
576.79	60680.73
576.95	60793.07
577.11	60931.17
577.27	60914.78
577.43	60935.85
577.59	60729.88
577.75	60872.65
577.92	60650.30
578.08	60949.89
578.24	60928.83
578.40	61045.85
578.56	61174.58
578.72	60980.32
578.88	61165.22
579.04	61064.58
579.21	60956.91
579.37	60961.59
579.53	61207.35
579.69	60823.50
579.85	60839.89
580.01	60959.25
580.17	60952.23
580.33	61127.77
580.49	61104.37
580.65	61010.74
580.82	61087.98
580.98	60914.78
581.14	60797.76
581.30	61015.43
581.46	60933.51
581.62	61085.64
581.78	60992.02
581.94	61008.40
582.10	61109.05
582.26	60949.89
582.42	60903.08
582.58	61158.20
582.74	60898.40
582.90	60963.93
583.06	61024.79
583.22	61059.90
583.38	61078.62
583.54	61113.73
583.70	60884.36
583.86	61153.52
584.02	60828.18
584.18	61254.16
584.34	60963.93
584.50	61144.16
584.66	60832.86
584.82	60741.58
584.98	61113.73
585.14	61125.43
585.30	60959.25
585.46	61151.18
585.62	61099.68
585.78	61251.82
585.94	60982.66
586.10	61268.20
586.26	61197.99
586.42	61137.13
586.58	61195.65
586.74	61151.18
586.90	60884.36
587.06	61003.72
587.22	61361.82
587.38	61006.06
587.54	61169.90
587.70	61333.74
587.86	61418.00
588.02	61197.99
588.18	61197.99
588.34	61085.64
588.49	61125.43
