SpectraSuite Data File
++++++++++++++++++++++++++++++++++++
Date: Fri Oct 25 11:26:09 EDT 2013
User: price-jones
Dark Spectrum Present: No
Reference Spectrum Present: No
Number of Sampled Component Spectra: 1
Spectrometers: USB2+H05261
Integration Time (usec): 100000 (USB2+H05261)
Spectra Averaged: 1 (USB2+H05261)
Boxcar Smoothing: 0 (USB2+H05261)
Correct for Electrical Dark: No (USB2+H05261)
Strobe/Lamp Enabled: No (USB2+H05261)
Correct for Detector Non-linearity: No (USB2+H05261)
Correct for Stray Light: No (USB2+H05261)
Number of Pixels in Processed Spectrum: 2048
>>>>>Begin Processed Spectral Data<<<<<
365.73	229.37
365.92	229.37
366.12	229.37
366.32	126.39
366.52	145.11
366.72	184.90
366.91	46.81
367.11	126.39
367.31	107.66
367.51	126.39
367.70	159.16
367.90	135.75
368.10	128.73
368.30	126.39
368.49	168.52
368.69	128.73
368.89	173.20
369.09	156.82
369.28	198.95
369.48	208.31
369.68	145.11
369.87	208.31
370.07	173.20
370.27	180.22
370.47	308.95
370.66	662.37
370.86	667.05
371.06	695.14
371.25	683.44
371.45	636.63
371.65	702.16
371.84	669.39
372.04	760.67
372.24	772.38
372.44	648.33
372.63	713.86
372.83	774.72
373.03	716.20
373.22	791.10
373.42	786.42
373.62	795.78
373.81	798.12
374.01	816.85
374.21	814.51
374.40	847.27
374.60	835.57
374.79	758.33
374.99	798.12
375.19	830.89
375.38	880.04
375.58	786.42
375.78	833.23
375.97	840.25
376.17	1034.52
376.37	931.53
376.56	894.08
376.76	905.79
376.95	866.00
377.15	833.23
377.35	896.43
377.54	877.70
377.74	889.40
377.93	875.36
378.13	931.53
378.33	952.60
378.52	947.92
378.72	971.32
378.91	947.92
379.11	908.13
379.31	943.24
379.50	1004.09
379.70	1060.26
379.89	1046.22
380.09	1039.20
380.28	1018.13
380.48	964.30
380.68	929.19
380.87	1011.11
381.07	1013.45
381.26	1022.81
381.46	973.66
381.65	1069.62
381.85	1022.81
382.04	1057.92
382.24	1029.84
382.43	1114.10
382.63	1076.65
382.83	1053.24
383.02	1214.74
383.22	1130.48
383.41	1100.05
383.61	1020.47
383.80	1050.90
384.00	1139.84
384.19	1118.78
384.39	1153.88
384.58	1109.41
384.78	1207.72
384.97	1090.69
385.17	1151.54
385.36	1259.21
385.56	1172.61
385.75	1193.67
385.95	1249.85
386.14	1273.25
386.34	1165.59
386.53	1198.35
386.72	1240.48
386.92	1217.08
387.11	1266.23
387.31	1266.23
387.50	1224.10
387.70	1284.95
387.89	1193.67
388.09	1240.48
388.28	1242.82
388.48	1277.93
388.67	1289.64
388.86	1355.17
389.06	1294.32
389.25	1343.47
389.45	1413.68
389.64	1371.55
389.84	1245.16
390.03	1481.56
390.22	1439.43
390.42	1334.11
390.61	1336.45
390.81	1287.29
391.00	1413.68
391.19	1465.18
391.39	1423.05
391.58	1467.52
391.78	1362.19
391.97	1451.13
392.16	1430.07
392.36	1551.78
392.55	1490.92
392.75	1507.30
392.94	1547.09
393.13	1591.56
393.33	1497.94
393.52	1612.63
393.71	1568.16
393.91	1575.18
394.10	1511.99
394.29	1624.33
394.49	1561.14
394.68	1650.08
394.88	1652.42
395.07	1664.12
395.26	1626.67
395.46	1696.89
395.65	1724.97
395.84	1678.16
396.04	1715.61
396.23	1832.64
396.42	1729.66
396.62	1762.42
396.81	1790.51
397.00	1802.21
397.19	1788.17
397.39	1732.00
397.58	1895.83
397.77	1764.76
397.97	1703.91
398.16	1863.07
398.35	1863.07
398.55	1825.62
398.74	1708.59
398.93	2031.58
399.12	2024.56
399.32	1877.11
399.51	1966.05
399.70	2024.56
399.90	1832.64
400.09	1966.05
400.28	2008.18
400.47	2097.12
400.67	2090.10
400.86	2118.18
401.05	2038.61
401.24	2066.69
401.44	2169.68
401.63	2108.82
401.82	2157.97
402.01	2190.74
402.21	2073.71
402.40	2207.13
402.59	2139.25
402.78	2321.81
402.97	2324.15
403.17	2190.74
403.36	2197.76
403.55	2179.04
403.74	2296.07
403.93	2195.42
404.13	2375.64
404.32	2368.62
404.51	2338.20
404.70	2452.88
404.89	2394.37
405.09	2422.45
405.28	2537.14
405.47	2363.94
405.66	2523.10
405.85	2466.92
406.05	2644.81
406.24	2588.63
406.43	2443.52
406.62	2553.52
406.81	2595.65
407.00	2635.44
407.20	2658.85
407.39	2551.18
407.58	2679.91
407.77	2754.81
407.96	2855.45
408.15	2841.41
408.34	2766.51
408.54	2794.60
408.73	2778.22
408.92	2878.86
409.11	2803.96
409.30	2972.48
409.49	2911.63
409.68	2846.09
409.87	2869.50
410.07	2988.86
410.26	2937.37
410.45	3009.93
410.64	3068.44
410.83	3028.65
411.02	3173.77
411.21	3159.72
411.40	3255.69
411.59	3105.89
411.78	3208.87
411.98	3176.11
412.17	3297.81
412.36	3276.75
412.55	3307.18
412.74	3370.37
412.93	3213.56
413.12	3382.07
413.31	3625.49
413.50	3421.86
413.69	3478.04
413.88	3644.21
414.07	3489.74
414.26	3693.37
414.45	3630.17
414.64	3564.64
414.83	3702.73
415.02	3822.09
415.22	3850.18
415.41	4021.04
415.60	3801.03
415.79	3911.04
415.98	3939.12
416.17	3932.10
416.36	3964.87
416.55	3978.91
416.74	4180.20
416.93	4021.04
417.12	4077.21
417.31	4105.30
417.50	4131.05
417.69	4187.22
417.88	4170.83
418.07	4215.30
418.26	4306.59
418.45	4353.40
418.64	4519.57
418.83	4334.67
419.02	4341.69
419.21	4451.70
419.39	4519.57
419.58	4535.96
419.77	4596.81
419.96	4418.93
420.15	4589.79
420.34	4456.38
420.53	4699.80
420.72	4734.90
420.91	4627.24
421.10	4730.22
421.29	4620.22
421.48	4788.74
421.67	4861.29
421.86	4828.53
422.05	4784.06
422.24	4884.70
422.43	4826.18
422.61	4812.14
422.80	4983.00
422.99	4777.03
423.18	4826.18
423.37	4847.25
423.56	4898.74
423.75	4987.68
423.94	4819.16
424.13	4631.92
424.32	4718.52
424.50	4933.85
424.69	4968.96
424.88	5011.09
425.07	4966.62
425.26	4957.25
425.45	4894.06
425.64	5078.96
425.83	4983.00
426.01	5018.11
426.20	4964.28
426.39	4952.57
426.58	5060.24
426.77	4980.66
426.96	5093.01
427.15	5071.94
427.33	5097.69
427.52	5238.12
427.71	5235.78
427.90	5195.99
428.09	5165.56
428.28	5263.86
428.46	5348.12
428.65	5277.91
428.84	5390.25
429.03	5514.30
429.22	5324.72
429.40	5518.98
429.59	5511.96
429.78	5383.23
429.97	5263.86
430.16	5423.02
430.34	5434.72
430.53	5638.35
430.72	5717.93
430.91	5724.95
431.10	5509.62
431.28	5792.83
431.47	5701.54
431.66	5792.83
431.85	5685.16
432.03	5870.06
432.22	5820.91
432.41	5895.81
432.60	5959.00
432.79	5853.68
432.97	5928.58
433.16	6061.99
433.35	5977.73
433.54	6078.37
433.72	6083.05
433.91	6106.46
434.10	6097.10
434.28	6101.78
434.47	6239.87
434.66	6394.34
434.85	6193.06
435.03	6230.51
435.22	6237.53
435.41	6609.67
435.59	6384.98
435.78	6424.77
435.97	6665.85
436.16	6380.30
436.34	6434.13
436.53	6420.09
436.72	6612.01
436.90	6314.77
437.09	6663.51
437.28	6480.94
437.46	6647.12
437.65	6686.91
437.84	6635.42
438.02	6698.61
438.21	6796.92
438.40	6698.61
438.58	7037.99
438.77	7028.63
438.96	6806.28
439.14	7028.63
439.33	7208.85
439.52	7070.76
439.70	7274.38
439.89	7325.88
440.08	7246.30
440.26	7311.83
440.45	7145.66
440.63	7337.58
440.82	7487.37
441.01	7569.29
441.19	7445.24
441.38	7770.58
441.57	7653.55
441.75	7688.66
441.94	7981.23
442.12	7925.05
442.31	7995.27
442.50	8056.12
442.68	7955.48
442.87	8145.06
443.05	7995.27
443.24	8196.56
443.43	8198.90
443.61	8088.89
443.80	8461.04
443.98	8114.64
444.17	7915.69
444.35	7983.57
444.54	8278.47
444.73	8259.75
444.91	8198.90
445.10	8322.94
445.28	8379.12
445.47	8276.13
445.65	8245.71
445.84	8287.84
446.02	8456.36
446.21	8360.39
446.39	8496.14
446.58	8461.04
446.77	8671.68
446.95	8238.69
447.14	8381.46
447.32	8404.86
447.51	8344.01
447.69	8540.61
447.88	8500.83
448.06	8535.93
448.25	8210.60
448.43	8552.32
448.62	8374.44
448.80	8528.91
448.99	8557.00
449.17	8589.77
449.36	8528.91
449.54	8798.07
449.73	8704.45
449.91	8912.76
450.10	8849.57
450.28	9055.53
450.46	8849.57
450.65	8931.48
450.83	8889.35
451.02	8971.27
451.20	9123.41
451.39	9074.26
451.57	8851.91
451.76	8959.57
451.94	9233.41
452.13	9186.60
452.31	9289.59
452.49	9064.89
452.68	9385.55
452.86	9418.32
453.05	9411.29
453.23	9221.71
453.42	9261.50
453.60	9275.54
453.78	9245.12
453.97	9334.06
454.15	9460.45
454.34	9413.63
454.52	9738.97
454.70	9727.27
454.89	9605.56
455.07	9837.27
455.26	9584.49
455.44	9687.48
455.62	9830.25
455.81	9699.18
455.99	9912.17
456.17	10036.22
456.36	10050.26
456.54	9832.59
456.73	10155.58
456.91	10483.26
457.09	10333.47
457.28	10506.66
457.46	10492.62
457.64	10520.71
457.83	10387.30
458.01	10562.84
458.19	10665.82
458.38	10314.74
458.56	10635.39
458.74	10729.02
458.93	10850.72
459.11	10523.05
459.29	10712.63
459.48	10771.15
459.66	10497.30
459.84	10698.59
460.03	10857.75
460.21	10920.94
460.39	10998.18
460.57	10918.60
460.76	10974.77
460.94	11208.83
461.12	10956.05
461.31	11028.60
461.49	11234.57
461.67	11183.08
461.85	11389.05
462.04	11080.10
462.22	11871.20
462.40	11639.48
462.59	11412.45
462.77	11480.33
462.95	11763.53
463.13	11819.71
463.32	11358.62
463.50	11573.95
463.68	11548.20
463.86	11847.79
464.05	11559.91
464.23	11590.33
464.41	11573.95
464.59	11779.92
464.78	12154.40
464.96	11833.75
465.14	11714.38
465.32	12238.66
465.50	11950.78
465.69	12271.43
465.87	12219.94
466.05	12121.63
466.23	12135.68
466.41	12107.59
466.60	12346.33
466.78	12067.80
466.96	12098.23
467.14	12191.85
467.32	12191.85
467.51	12542.93
467.69	12123.98
467.87	12292.49
468.05	12622.51
468.23	12369.73
468.41	12439.95
468.60	12786.35
468.78	13055.51
468.96	12423.56
469.14	12915.08
469.32	12966.57
469.50	12613.15
469.69	12872.95
469.87	12924.44
470.05	12952.52
470.23	13191.26
470.41	13092.96
470.59	13404.25
470.77	13125.72
470.95	13240.41
471.14	13301.26
471.32	12975.93
471.50	13479.15
471.68	13579.79
471.86	13528.30
472.04	13752.99
472.22	13928.53
472.40	13689.79
472.58	13645.32
472.77	13991.72
472.95	14017.47
473.13	14595.58
473.31	13919.17
473.49	14305.35
473.67	14169.60
473.85	14246.84
474.03	14501.96
474.21	14616.65
474.39	14738.35
474.57	14745.38
474.75	14867.08
474.93	14944.32
475.12	14782.82
475.30	15117.52
475.48	14937.30
475.66	15206.46
475.84	15281.36
476.02	15309.44
476.20	15417.11
476.38	15637.12
476.56	15850.11
476.74	15833.72
476.92	15508.39
477.10	15627.76
477.28	15932.03
477.46	16027.99
477.64	16166.08
477.82	16332.26
478.00	16697.38
478.18	16772.28
478.36	16936.12
478.54	17149.11
478.72	17076.55
478.90	17186.55
479.08	17331.67
479.26	17413.59
479.44	17432.31
479.62	17965.95
479.80	17944.89
479.98	18092.34
480.16	18562.79
480.34	18066.60
480.52	18546.40
480.70	18637.69
480.88	18391.93
481.06	18768.76
481.24	18824.93
481.41	19021.53
481.59	19267.29
481.77	19543.47
481.95	19274.31
482.13	19384.32
482.31	19812.63
482.49	20166.06
482.67	20262.02
482.85	20304.15
483.03	20306.49
483.21	20683.31
483.39	20807.36
483.57	20863.54
483.74	20891.62
483.92	21294.19
484.10	20891.62
484.28	21502.50
484.46	21869.97
484.64	22188.28
484.82	21902.73
485.00	22178.92
485.18	22871.72
485.35	23321.10
485.53	22888.10
485.71	22923.21
485.89	23166.62
486.07	23091.73
486.25	23115.13
486.43	23295.35
486.61	23704.95
486.78	24027.94
486.96	23889.85
487.14	24720.74
487.32	24542.86
487.50	24847.13
487.68	25207.57
487.85	24940.75
488.03	25556.31
488.21	25467.37
488.39	25422.90
488.57	25895.69
488.75	26228.04
488.92	26099.31
489.10	26808.50
489.28	26485.50
489.46	27138.51
489.64	26712.53
489.81	27335.12
489.99	27761.09
490.17	27611.30
490.35	28161.33
490.53	27976.42
490.70	28334.53
490.88	28233.88
491.06	28849.44
491.24	28849.44
491.41	28804.97
491.59	29039.03
491.77	29439.26
491.95	29666.29
492.13	29619.48
492.30	29369.04
492.48	29366.70
492.66	30291.21
492.84	30099.29
493.01	30728.89
493.19	30553.35
493.37	30628.25
493.54	31147.85
493.72	31522.34
493.90	31728.30
494.08	31662.77
494.25	32020.87
494.43	31751.71
494.61	32205.77
494.79	32362.59
494.96	32306.41
495.14	32671.54
495.32	33034.32
495.49	33039.00
495.67	32849.42
495.85	33141.99
496.02	33771.59
496.20	33841.81
496.38	33692.01
496.55	33944.79
496.73	34712.49
496.91	34567.37
497.09	34656.31
497.26	34789.72
497.44	34520.56
497.62	35145.48
497.79	35805.52
497.97	35246.13
498.14	35522.31
498.32	35934.24
498.50	36039.57
498.67	36481.93
498.85	36364.90
499.03	36428.10
499.20	36519.38
499.38	36699.60
499.56	36856.42
499.73	37565.60
499.91	37221.54
500.08	37163.03
500.26	37172.39
500.44	37209.84
500.61	37734.12
500.79	37123.24
500.97	37785.61
501.14	37968.17
501.32	38394.15
501.49	38345.00
501.67	38469.04
501.84	38768.63
502.02	38705.44
502.20	38656.29
502.37	38822.47
502.55	39091.63
502.72	39009.71
502.90	39807.83
503.07	39367.81
503.25	39618.25
503.43	39716.55
503.60	39842.94
503.78	40058.27
503.95	40219.77
504.13	40048.91
504.30	39945.92
504.48	40198.70
504.65	40306.37
504.83	40830.65
505.01	40933.63
505.18	41034.27
505.36	41558.55
505.53	41045.97
505.71	41493.02
505.88	41172.36
506.06	40893.84
506.23	41949.42
506.41	41724.73
506.58	41656.85
506.76	42199.86
506.93	42234.97
507.11	42192.84
507.28	42588.39
507.46	42359.02
507.63	42710.10
507.81	42820.10
507.98	42974.58
508.16	43225.01
508.33	43192.25
508.50	43807.81
508.68	43608.86
508.85	43854.62
509.03	43409.92
509.20	43627.59
509.38	44025.48
509.55	44065.27
509.73	44336.77
509.90	44423.37
510.08	44575.50
510.25	44713.59
510.42	44154.21
510.60	45258.94
510.77	45226.17
510.95	45647.47
511.12	45008.50
511.30	45170.00
511.47	45308.09
511.64	45375.97
511.82	45476.61
511.99	45691.94
512.17	45345.54
512.34	46012.59
512.51	45914.29
512.69	46010.25
512.86	46185.79
513.04	46419.84
513.21	46801.35
513.38	46490.06
513.56	46763.90
513.73	46452.61
513.90	46878.59
514.08	46382.40
514.25	46969.87
514.43	47253.08
514.60	47192.22
514.77	47037.75
514.95	47674.37
515.12	47356.06
515.29	47449.68
515.47	47587.77
515.64	47821.83
515.81	47749.27
515.99	47995.03
516.16	48303.98
516.33	48090.99
516.51	48519.31
516.68	48219.72
516.85	48601.22
517.03	48430.36
517.20	48556.75
517.37	48498.24
517.54	48814.21
517.72	48790.81
517.89	49034.22
518.06	48992.09
518.24	49141.89
518.41	49228.49
518.58	49251.89
518.75	49092.74
518.93	49291.68
519.10	49242.53
519.27	49272.96
519.45	49542.12
519.62	49907.24
519.79	49804.26
519.96	49698.94
520.14	49886.18
520.31	50014.91
520.48	50384.71
520.65	49961.08
520.83	50571.96
521.00	50684.30
521.17	50335.56
521.34	50644.51
521.52	50550.89
521.69	50714.73
521.86	50688.98
522.03	50827.07
522.20	51026.02
522.38	51084.53
522.55	51381.78
522.72	51222.62
522.89	51227.31
523.07	51782.01
523.24	51332.63
523.41	51538.60
523.58	51154.75
523.75	51915.42
523.92	51573.70
524.10	51756.27
524.27	51756.27
524.44	51784.35
524.61	51791.37
524.78	52039.47
524.96	52076.92
525.13	52126.07
525.30	52343.74
525.47	52477.15
525.64	52163.52
525.81	52325.02
525.98	52652.69
526.16	52460.77
526.33	52626.95
526.50	52795.46
526.67	52697.16
526.84	52755.68
527.01	52701.84
527.18	52772.06
527.36	52963.98
527.53	53043.56
527.70	53319.74
527.87	53371.24
528.04	53015.47
528.21	53439.11
528.38	53558.48
528.55	53616.99
528.72	53214.42
528.89	53406.34
529.07	53169.95
529.24	53202.72
529.41	53712.95
529.58	53514.01
529.75	53336.13
529.92	53600.61
530.09	53485.92
530.26	53563.16
530.43	53801.89
530.60	54019.56
530.77	53750.40
530.94	53778.49
531.11	53801.89
531.28	53876.79
531.46	54274.68
531.63	53811.26
531.80	53951.69
531.97	54150.63
532.14	54178.72
532.31	54429.16
532.48	54532.14
532.65	54607.04
532.82	54504.06
532.99	54649.17
533.16	54461.93
533.33	54681.94
533.50	54543.84
533.67	54316.81
533.84	54602.36
534.01	54707.68
534.18	54777.90
534.35	55320.90
534.52	54754.49
534.69	55063.44
534.86	55044.72
535.03	54859.82
535.20	55384.10
535.37	55110.25
535.54	55210.90
535.71	55058.76
535.88	55189.83
536.05	55327.92
536.22	55625.17
536.38	55346.65
536.55	55583.04
536.72	55311.54
536.89	55470.70
537.06	55517.51
537.23	55686.03
537.40	55320.90
537.57	55564.32
537.74	55866.25
537.91	55564.32
538.08	55749.22
538.25	55501.12
538.42	55819.44
538.59	56053.49
538.75	55611.13
538.92	55870.93
539.09	56177.54
539.26	55962.21
539.43	56004.34
539.60	56313.29
539.77	56154.13
539.94	56402.23
540.11	56343.72
540.28	56247.75
540.44	56261.80
540.61	56095.62
540.78	56142.43
540.95	56165.84
541.12	56355.42
541.29	56238.39
541.46	56381.16
541.62	56509.89
541.79	56411.59
541.96	56397.55
542.13	56378.82
542.30	56575.43
542.47	56545.00
542.63	56919.49
542.80	56954.60
542.97	57022.47
543.14	57099.71
543.31	57125.46
543.48	57125.46
543.64	57354.83
543.81	57364.19
543.98	57144.18
544.15	57226.10
544.32	57361.85
544.48	57221.42
544.65	57303.34
544.82	57233.12
544.99	57432.07
545.16	57387.60
545.32	57382.91
545.49	57492.92
545.66	57418.02
545.83	57513.98
546.00	57670.80
546.16	57457.81
546.33	57544.41
546.50	57467.17
546.67	57513.98
546.83	57499.94
547.00	57492.92
547.17	57513.98
547.34	57623.99
547.50	57808.89
547.67	58047.63
547.84	57822.93
548.00	57956.35
548.17	58115.50
548.34	57865.06
548.51	57998.48
548.67	58108.48
548.84	57986.77
549.01	57822.93
549.18	57956.35
549.34	58204.44
549.51	58183.38
549.68	58286.36
549.84	57949.32
550.01	58239.55
550.18	58164.65
550.34	58258.27
550.51	58454.88
550.68	58302.74
550.84	58298.06
551.01	58504.03
551.18	58148.27
551.34	58326.15
551.51	58581.27
551.68	58466.58
551.84	58447.86
552.01	58330.83
552.18	58604.67
552.34	58408.07
552.51	58539.14
552.68	58347.21
552.84	58583.61
553.01	58808.30
553.18	58609.35
553.34	58810.64
553.51	58508.71
553.67	58864.47
553.84	58848.09
554.01	58885.54
554.17	58710.00
554.34	58693.61
554.51	59002.56
554.67	58866.81
554.84	58866.81
555.00	58934.69
555.17	58850.43
555.33	58831.71
555.50	58878.52
555.67	58887.88
555.83	58721.70
556.00	59030.65
556.16	59374.71
556.33	59274.07
556.50	59091.51
556.66	59168.74
556.83	58962.78
556.99	59278.75
557.16	59405.14
557.32	59407.48
557.49	59405.14
557.65	59412.16
557.82	59304.49
557.98	59384.07
558.15	59313.86
558.32	59355.99
558.48	59461.31
558.65	59236.62
558.81	59234.28
558.98	59388.75
559.14	59475.35
559.31	59540.89
559.47	59384.07
559.64	59681.32
559.80	59480.03
559.97	59657.91
560.13	59482.37
560.30	59515.14
560.46	59903.67
560.63	59587.70
560.79	59700.04
560.96	59798.35
561.12	59758.56
561.29	59894.31
561.45	59627.49
561.61	59749.20
561.78	59501.10
561.94	59784.30
562.11	59662.60
562.27	59604.08
562.44	59861.54
562.60	59990.27
562.77	59962.18
562.93	59828.77
563.10	59931.76
563.26	59690.68
563.42	60198.58
563.59	59856.86
563.75	59870.90
563.92	59884.95
564.08	59655.57
564.24	59936.44
564.41	59999.63
564.57	60011.34
564.74	60037.08
564.90	60074.53
565.07	59657.91
565.23	59898.99
565.39	59987.93
565.56	60076.87
565.72	60119.00
565.88	60020.70
566.05	59992.61
566.21	60027.72
566.38	60069.85
566.54	60385.82
566.70	60245.39
566.87	60285.18
567.03	60011.34
567.19	60388.16
567.36	60093.25
567.52	60027.72
567.68	60355.39
567.85	60252.41
568.01	60280.50
568.17	60095.60
568.34	60346.03
568.50	60172.83
568.66	60278.16
568.83	60404.55
568.99	60388.16
569.15	60411.57
569.32	60207.94
569.48	60355.39
569.64	60301.56
569.81	60280.50
569.97	60313.26
570.13	60285.18
570.30	60282.84
570.46	60409.23
570.62	60095.60
570.78	60402.21
570.95	60395.18
571.11	60383.48
571.27	60062.83
571.43	60549.66
571.60	60378.80
571.76	60339.01
571.92	60608.17
572.09	60343.69
572.25	60502.85
572.41	60423.27
572.57	60535.62
572.74	60680.73
572.90	60207.94
573.06	60411.57
573.22	60570.72
573.38	60633.92
573.55	60418.59
573.71	60772.01
573.87	60580.09
574.03	60404.55
574.20	60552.00
574.36	60596.47
574.52	60729.88
574.68	60575.40
574.84	60884.36
575.01	60687.75
575.17	60603.49
575.33	60645.62
575.49	60540.30
575.65	60619.88
575.82	60748.60
575.98	60502.85
576.14	60788.39
576.30	60715.84
576.46	60390.50
576.62	60687.75
576.79	60701.79
576.95	60502.85
577.11	60603.49
577.27	60631.58
577.43	60666.69
577.59	60697.11
577.75	60500.51
577.92	60619.88
578.08	60692.43
578.24	60832.86
578.40	60760.31
578.56	60837.54
578.72	60858.61
578.88	60849.25
579.04	60870.31
579.21	60846.91
579.37	60739.24
579.53	60832.86
579.69	60596.47
579.85	60788.39
580.01	60809.46
580.17	60619.88
580.33	60867.97
580.49	61099.68
580.65	60884.36
580.82	60767.33
580.98	60739.24
581.14	60867.97
581.30	60872.65
581.46	60729.88
581.62	60942.87
581.78	60654.98
581.94	60980.32
582.10	60647.96
582.26	60741.58
582.42	60706.47
582.58	60725.20
582.74	60706.47
582.90	60982.66
583.06	60842.23
583.22	60774.35
583.38	60872.65
583.54	60839.89
583.70	60977.98
583.86	60954.57
584.02	60874.99
584.18	60949.89
584.34	60842.23
584.50	60919.46
584.66	60680.73
584.82	60537.96
584.98	60961.59
585.14	61020.11
585.30	60699.45
585.46	61057.56
585.62	60774.35
585.78	61083.30
585.94	60603.49
586.10	60678.39
586.26	60994.36
586.42	61055.21
586.58	60910.10
586.74	60933.51
586.90	60985.00
587.06	60870.31
587.22	61055.21
587.38	61176.92
587.54	61003.72
587.70	61127.77
587.86	60903.08
588.02	60926.49
588.18	60924.14
588.34	60877.33
