SpectraSuite Data File
++++++++++++++++++++++++++++++++++++
Date: Fri Oct 25 10:44:05 EDT 2013
User: price-jones
Dark Spectrum Present: No
Reference Spectrum Present: No
Number of Sampled Component Spectra: 1
Spectrometers: USB2+H05261
Integration Time (usec): 100000 (USB2+H05261)
Spectra Averaged: 1 (USB2+H05261)
Boxcar Smoothing: 0 (USB2+H05261)
Correct for Electrical Dark: No (USB2+H05261)
Strobe/Lamp Enabled: No (USB2+H05261)
Correct for Detector Non-linearity: No (USB2+H05261)
Correct for Stray Light: No (USB2+H05261)
Number of Pixels in Processed Spectrum: 2048
>>>>>Begin Processed Spectral Data<<<<<
365.73	105.32
365.92	105.32
366.12	105.32
366.32	81.92
366.52	18.72
366.72	53.83
366.91	0.00
367.11	35.11
367.31	0.00
367.51	44.47
367.70	0.00
367.90	28.09
368.10	65.54
368.30	0.00
368.49	77.24
368.69	16.38
368.89	0.00
369.09	60.85
369.28	37.45
369.48	70.22
369.68	154.48
369.87	84.26
370.07	53.83
370.27	121.71
370.47	208.31
370.66	372.15
370.86	468.11
371.06	393.21
371.25	521.94
371.45	475.13
371.65	505.56
371.84	477.47
372.04	484.49
372.24	477.47
372.44	482.15
372.63	510.24
372.83	465.77
373.03	500.87
373.22	535.98
373.42	657.69
373.62	484.49
373.81	543.00
374.01	564.07
374.21	610.88
374.40	531.30
374.60	568.75
374.79	489.17
374.99	610.88
375.19	636.63
375.38	610.88
375.58	596.84
375.78	589.82
375.97	660.03
376.17	657.69
376.37	662.37
376.56	641.31
376.76	557.05
376.95	636.63
377.15	662.37
377.35	592.16
377.54	688.12
377.74	617.90
377.93	594.50
378.13	709.18
378.33	697.48
378.52	582.79
378.72	657.69
378.91	664.71
379.11	596.84
379.31	629.60
379.50	737.27
379.70	741.95
379.89	678.76
380.09	725.57
380.28	692.80
380.48	690.46
380.68	702.16
380.87	739.61
381.07	655.35
381.26	720.88
381.46	746.63
381.65	713.86
381.85	704.50
382.04	671.73
382.24	664.71
382.43	760.67
382.63	737.27
382.83	758.33
383.02	800.46
383.22	800.46
383.41	744.29
383.61	751.31
383.80	816.85
384.00	760.67
384.19	844.93
384.39	875.36
384.58	793.44
384.78	868.34
384.97	840.25
385.17	730.25
385.36	816.85
385.56	835.57
385.75	814.51
385.95	711.52
386.14	896.43
386.34	849.61
386.53	945.58
386.72	882.38
386.92	847.27
387.11	917.49
387.31	821.53
387.50	945.58
387.70	863.66
387.89	898.77
388.09	835.57
388.28	854.30
388.48	891.74
388.67	933.87
388.86	1032.18
389.06	919.83
389.25	966.64
389.45	954.94
389.64	978.34
389.84	985.37
390.03	1027.50
390.22	1074.31
390.42	1048.56
390.61	924.51
390.81	1032.18
391.00	1128.14
391.19	1043.88
391.39	1004.09
391.58	1093.03
391.78	1137.50
391.97	1102.39
392.16	1090.69
392.36	1114.10
392.55	994.73
392.75	1036.86
392.94	1029.84
393.13	1008.77
393.33	1027.50
393.52	1114.10
393.71	1130.48
393.91	1188.99
394.10	1186.65
394.29	1137.50
394.49	1198.35
394.68	1249.85
394.88	1329.42
395.07	1296.66
395.26	1210.06
395.46	1224.10
395.65	1303.68
395.84	1254.53
396.04	1242.82
396.23	1174.95
396.42	1266.23
396.62	1207.72
396.81	1210.06
397.00	1287.29
397.19	1268.57
397.39	1343.47
397.58	1324.74
397.77	1411.34
397.97	1432.41
398.16	1519.01
398.35	1528.37
398.55	1441.77
398.74	1460.49
398.93	1530.71
399.12	1530.71
399.32	1486.24
399.51	1561.14
399.70	1598.59
399.90	1584.54
400.09	1626.67
400.28	1612.63
400.47	1624.33
400.67	1713.27
400.86	1685.19
401.05	1748.38
401.24	1760.08
401.44	1762.42
401.63	1832.64
401.82	1717.95
402.01	1710.93
402.21	1816.26
402.40	1856.04
402.59	1757.74
402.78	1863.07
402.97	1816.26
403.17	1902.86
403.36	1870.09
403.55	1930.94
403.74	1905.20
403.93	1902.86
404.13	1860.73
404.32	1874.77
404.51	1940.30
404.70	2040.95
404.89	2010.52
405.09	1980.09
405.28	1991.80
405.47	2017.54
405.66	1942.64
405.85	2033.93
406.05	2003.50
406.24	1977.75
406.43	2062.01
406.62	2113.50
406.81	2228.19
407.00	2120.53
407.20	2115.84
407.39	2073.71
407.58	2122.87
407.77	2228.19
407.96	2225.85
408.15	2204.78
408.34	2216.49
408.54	2324.15
408.73	2335.85
408.92	2335.85
409.11	2335.85
409.30	2347.56
409.49	2359.26
409.68	2303.09
409.87	2326.49
410.07	2422.45
410.26	2380.32
410.45	2438.84
410.64	2520.76
410.83	2553.52
411.02	2597.99
411.21	2609.70
411.40	2668.21
411.59	2738.43
411.78	2633.10
411.98	2445.86
412.17	2663.53
412.36	2773.53
412.55	2731.41
412.74	2850.77
412.93	2829.71
413.12	2745.45
413.31	2899.92
413.50	2942.05
413.69	2820.35
413.88	2846.09
414.07	2810.98
414.26	3061.42
414.45	3089.51
414.64	3068.44
414.83	3084.83
415.02	3126.96
415.22	3260.37
415.41	3176.11
415.60	3115.25
415.79	3236.96
415.98	3346.97
416.17	3288.45
416.36	3279.09
416.55	3314.20
416.74	3323.56
416.93	3337.60
417.12	3358.67
417.31	3316.54
417.50	3435.91
417.69	3515.48
417.88	3515.48
418.07	3480.38
418.26	3510.80
418.45	3555.27
418.64	3630.17
418.83	3679.32
419.02	3705.07
419.21	3653.58
419.39	3658.26
419.58	3569.32
419.77	3541.23
419.96	3737.84
420.15	3754.22
420.34	3733.15
420.53	3758.90
420.72	3934.44
420.91	3911.04
421.10	3840.82
421.29	4060.83
421.48	3939.12
421.67	3925.08
421.86	3896.99
422.05	3850.18
422.24	4032.74
422.43	3810.39
422.61	3824.44
422.80	3918.06
422.99	3904.01
423.18	3990.61
423.37	3969.55
423.56	3936.78
423.75	4128.70
423.94	4044.45
424.13	3913.38
424.32	3875.93
424.50	4016.36
424.69	4124.02
424.88	4077.21
425.07	3976.57
425.26	3915.72
425.45	3967.21
425.64	4098.28
425.83	4016.36
426.01	4112.32
426.20	4095.94
426.39	4032.74
426.58	4009.34
426.77	4018.70
426.96	3957.85
427.15	4065.51
427.33	4161.47
427.52	4154.45
427.71	4203.60
427.90	4234.03
428.09	4264.46
428.28	4276.16
428.46	4187.22
428.65	4390.84
428.84	4166.15
429.03	4383.82
429.22	4255.09
429.40	4320.63
429.59	4105.30
429.78	4093.60
429.97	4007.00
430.16	3882.95
430.34	4121.68
430.53	4229.35
430.72	4147.43
430.91	4430.63
431.10	4606.17
431.28	4617.88
431.47	4793.42
431.66	4828.53
431.85	4631.92
432.03	4662.35
432.22	4823.84
432.41	4767.67
432.60	4788.74
432.79	4669.37
432.97	4936.19
433.16	4760.65
433.35	4624.90
433.54	4795.76
433.72	4844.91
433.91	4739.58
434.10	4758.31
434.28	5151.52
434.47	4952.57
434.66	4908.10
434.85	4950.23
435.03	5022.79
435.22	4978.32
435.41	5146.84
435.59	5069.60
435.78	5043.85
435.97	5322.38
436.16	5170.24
436.34	5303.65
436.53	5195.99
436.72	5273.23
436.90	5177.26
437.09	5146.84
437.28	5345.78
437.46	5341.10
437.65	5390.25
437.84	5460.47
438.02	5404.30
438.21	5298.97
438.40	5266.21
438.58	5500.26
438.77	5577.50
438.96	5593.88
439.14	5678.14
439.33	5764.74
439.52	5909.85
439.70	5797.51
439.89	5874.74
440.08	5755.38
440.26	5891.13
440.45	5844.32
440.63	5982.41
440.82	6122.84
441.01	6054.97
441.19	6104.12
441.38	6249.23
441.57	6193.06
441.75	6410.73
441.94	6410.73
442.12	6670.53
442.31	6448.18
442.50	6464.56
442.68	6427.11
442.87	6478.60
443.05	6392.00
443.24	6717.34
443.43	6544.14
443.61	6698.61
443.80	6998.20
443.98	6544.14
444.17	6242.21
444.35	6759.47
444.54	6801.60
444.73	6590.95
444.91	6616.69
445.10	6562.86
445.28	6682.23
445.47	6399.02
445.65	6424.77
445.84	6672.87
446.02	6691.59
446.21	6766.49
446.39	6738.40
446.58	6775.85
446.77	6874.15
446.95	6668.19
447.14	6794.58
447.32	6974.80
447.51	6684.57
447.69	6825.00
447.88	6682.23
448.06	6899.90
448.25	6792.23
448.43	6953.73
448.62	6775.85
448.80	6918.62
448.99	6963.09
449.17	6946.71
449.36	6782.87
449.54	7014.59
449.73	7339.92
449.91	7148.00
450.10	7337.58
450.28	7461.63
450.46	7337.58
450.65	7391.41
450.83	7527.16
451.02	7405.46
451.20	7459.29
451.39	7424.18
451.57	7454.61
451.76	7314.17
451.94	7438.22
452.13	7536.52
452.31	7489.71
452.49	7126.93
452.68	7368.01
452.86	7328.22
453.05	7485.03
453.23	7442.90
453.42	7400.77
453.60	7449.93
453.78	7786.96
453.97	7723.77
454.15	7356.30
454.34	7482.69
454.52	7726.11
454.70	7667.60
454.89	7602.06
455.07	7700.36
455.26	7761.22
455.44	7791.64
455.62	7988.25
455.81	7978.89
455.99	7927.39
456.17	8009.31
456.36	7892.29
456.54	7976.55
456.73	8248.05
456.91	8226.98
457.09	8173.15
457.28	8524.23
457.46	8236.35
457.64	8533.59
457.83	8290.18
458.01	8091.23
458.19	8472.74
458.38	8163.79
458.56	8353.37
458.74	8479.76
458.93	8512.53
459.11	8442.31
459.29	8589.77
459.48	8528.91
459.66	8472.74
459.84	8671.68
460.03	8692.75
460.21	8713.81
460.39	8856.59
460.57	8683.39
460.76	8704.45
460.94	8709.13
461.12	8739.56
461.31	8685.73
461.49	8898.72
461.67	8910.42
461.85	9043.83
462.04	8905.74
462.22	9423.00
462.40	9212.35
462.59	9233.41
462.77	9186.60
462.95	9144.47
463.13	8929.14
463.32	9181.92
463.50	9191.28
463.68	9308.31
463.86	9217.03
464.05	9015.74
464.23	8922.12
464.41	9100.00
464.59	9048.51
464.78	9582.15
464.96	9254.48
465.14	9156.18
465.32	9516.62
465.50	9397.25
465.69	9614.92
465.87	9420.66
466.05	9523.64
466.23	9511.94
466.41	9277.88
466.60	9448.74
466.78	9289.59
466.96	9582.15
467.14	9451.08
467.32	9570.45
467.51	9633.64
467.69	9268.52
467.87	9570.45
468.05	9764.72
468.23	9820.89
468.41	9713.22
468.60	9717.90
468.78	9921.53
468.96	9706.20
469.14	9741.31
469.32	9980.04
469.50	9715.56
469.69	10150.90
469.87	10071.33
470.05	9989.41
470.23	10019.83
470.41	10061.96
470.59	10029.20
470.77	9944.94
470.95	10052.60
471.14	10228.14
471.32	10209.42
471.50	10525.39
471.68	10375.59
471.86	10675.18
472.04	10679.86
472.22	10628.37
472.40	10490.28
472.58	10314.74
472.77	10714.97
472.95	10909.24
473.13	10794.55
473.31	10647.10
473.49	10689.23
473.67	10733.70
473.85	11066.05
474.03	11286.06
474.21	11452.24
474.39	11316.49
474.57	11398.41
474.75	11346.92
474.93	11279.04
475.12	11440.54
475.30	11180.74
475.48	11751.83
475.66	11681.61
475.84	11625.44
476.02	11686.29
476.20	11517.78
476.38	11859.49
476.56	12170.79
476.74	12203.55
476.92	12074.82
477.10	12159.08
477.28	12451.65
477.46	12329.94
477.64	12477.40
477.82	12549.95
478.00	12989.97
478.18	12861.24
478.36	12809.75
478.54	12769.96
478.72	12776.98
478.90	13179.56
479.08	13071.89
479.26	13305.95
479.44	13348.08
479.62	13434.68
479.80	13462.76
479.98	13902.78
480.16	14038.53
480.34	13769.37
480.52	14115.77
480.70	14277.27
480.88	13947.25
481.06	14286.63
481.24	14239.82
481.41	14464.51
481.59	14789.85
481.77	14724.31
481.95	14794.53
482.13	14691.54
482.31	14803.89
482.49	15213.48
482.67	15136.24
482.85	15255.61
483.03	15447.54
483.21	15435.83
483.39	15847.77
483.57	15854.79
483.74	15667.55
483.92	16016.29
484.10	16044.37
484.28	16322.90
484.46	16489.07
484.64	16695.04
484.82	16091.18
485.00	16568.65
485.18	16748.87
485.35	16786.32
485.53	16617.80
485.71	16524.18
485.89	16872.92
486.07	16746.53
486.25	16910.37
486.43	17221.66
486.61	17287.20
486.78	17699.13
486.96	17738.92
487.14	17987.02
487.32	17970.63
487.50	18490.23
487.68	18551.09
487.85	18885.78
488.03	19009.83
488.21	19108.13
488.39	18862.38
488.57	19009.83
488.75	19208.78
488.92	19559.86
489.10	19847.74
489.28	19510.71
489.46	19971.79
489.64	20285.42
489.81	20533.52
489.99	20533.52
490.17	20751.19
490.35	20730.12
490.53	20753.53
490.70	20734.81
490.88	21046.10
491.06	21149.08
491.24	20844.81
491.41	20957.16
491.59	20975.88
491.77	21153.76
491.95	21329.30
492.13	21701.45
492.30	21607.83
492.48	22122.74
492.66	22094.66
492.84	22108.70
493.01	22431.69
493.19	22335.73
493.37	22576.81
493.54	22860.01
493.72	23124.49
493.90	23042.57
494.08	23339.82
494.25	23555.15
494.43	23915.59
494.61	23896.87
494.79	23564.51
494.96	24063.05
495.14	24086.45
495.32	24116.88
495.49	24205.82
495.67	24503.07
495.85	24388.38
496.02	25069.48
496.20	24655.20
496.38	25120.97
496.55	24744.14
496.73	25530.56
496.91	25230.98
497.09	25621.84
497.26	25722.49
497.44	25783.34
497.62	25537.59
497.79	25624.18
497.97	25734.19
498.14	25991.65
498.32	25914.41
498.50	25986.97
498.67	26209.32
498.85	26731.26
499.03	26836.58
499.20	26609.55
499.38	26864.67
499.56	26888.07
499.73	27253.20
499.91	27047.23
500.08	27054.25
500.26	26888.07
500.44	27049.57
500.61	26953.61
500.79	27218.09
500.97	27307.03
501.14	27711.94
501.32	27669.81
501.49	27716.62
501.67	27660.45
501.84	28025.57
502.02	28149.62
502.20	28481.98
502.37	28175.37
502.55	28259.63
502.72	28407.08
502.90	28397.72
503.07	28285.37
503.25	28823.70
503.43	28762.84
503.60	28826.04
503.78	28311.12
503.95	28779.23
504.13	28933.70
504.30	29151.37
504.48	29043.71
504.65	29549.26
504.83	29731.83
505.01	29876.94
505.18	29607.78
505.36	29834.81
505.53	29677.99
505.71	30377.81
505.88	30073.54
506.06	29832.47
506.23	30047.80
506.41	29890.98
506.58	30429.30
506.76	30611.87
506.93	30171.85
507.11	30586.12
507.28	30651.66
507.46	30433.99
507.63	30724.21
507.81	30338.02
507.98	30843.58
508.16	30778.04
508.33	31538.72
508.50	31084.65
508.68	31377.22
508.85	31871.07
509.03	31248.49
509.20	31562.12
509.38	31842.99
509.55	32011.51
509.73	31882.78
509.90	31770.43
510.08	31924.91
510.25	31840.65
510.42	31814.90
510.60	32236.20
510.77	32290.03
510.95	32556.85
511.12	32428.12
511.30	32882.19
511.47	33062.41
511.64	32926.66
511.82	33163.05
511.99	32694.94
512.17	32643.45
512.34	32727.71
512.51	33214.54
512.69	33188.80
512.86	33104.54
513.04	33097.52
513.21	33654.56
513.38	33261.35
513.56	33345.61
513.73	33408.81
513.90	33324.55
514.08	33830.10
514.25	33645.20
514.43	33633.50
514.60	33551.58
514.77	33724.78
514.95	34029.05
515.12	34263.10
515.29	34174.16
515.47	34213.95
515.64	34665.67
515.81	34209.27
515.99	34174.16
516.16	34117.99
516.33	34178.84
516.51	34235.02
516.68	33647.54
516.85	33537.54
517.03	34380.13
517.20	34419.92
517.37	34906.75
517.54	34506.52
517.72	34665.67
517.89	34272.46
518.06	34361.40
518.24	34368.43
518.41	34625.89
518.58	35213.36
518.75	35372.52
518.93	35676.79
519.10	35225.06
519.27	35660.40
519.45	35758.70
519.62	35735.30
519.79	35901.48
519.96	35842.96
520.14	35835.94
520.31	36086.38
520.48	36156.60
520.65	35908.50
520.83	36297.03
521.00	36514.70
521.17	36833.01
521.34	36463.21
521.52	36121.49
521.69	36751.09
521.86	37319.84
522.03	37008.55
522.20	36690.24
522.38	37266.01
522.55	36931.31
522.72	37160.69
522.89	36610.66
523.07	37261.33
523.24	36900.89
523.41	37699.01
523.58	37207.50
523.75	37771.57
523.92	37514.11
524.10	37993.92
524.27	38185.84
524.44	37834.76
524.61	37907.32
524.78	38075.84
524.96	38110.94
525.13	38103.92
525.30	38469.04
525.47	38550.96
525.64	38532.24
525.81	38036.05
525.98	38171.80
526.16	37919.02
526.33	37612.41
526.50	37916.68
526.67	37897.95
526.84	37661.56
527.01	38127.33
527.18	38110.94
527.36	38665.65
527.53	39136.10
527.70	38810.76
527.87	39115.03
528.04	38525.22
528.21	39138.44
528.38	39426.32
528.55	39688.46
528.72	39576.12
528.89	39578.46
529.07	39456.75
529.24	39402.92
529.41	39395.90
529.58	39346.75
529.75	39391.22
529.92	39674.42
530.09	40184.66
530.26	39611.23
530.43	39878.05
530.60	39948.26
530.77	39739.96
530.94	40444.46
531.11	39695.49
531.28	40055.93
531.46	40158.91
531.63	40072.31
531.80	39791.45
531.97	40278.28
532.14	40231.47
532.31	40034.86
532.48	39779.74
532.65	40191.68
532.82	40081.67
532.99	40652.76
533.16	40332.11
533.33	40226.79
533.50	41048.32
533.67	40524.04
533.84	40392.97
534.01	40828.30
534.18	40765.11
534.35	41181.73
534.52	40713.62
534.69	41368.97
534.86	40893.84
535.03	41099.81
535.20	41446.21
535.37	41687.28
535.54	41268.33
535.71	41469.61
535.88	41329.18
536.05	41198.11
536.22	41603.02
536.38	42012.62
536.55	41455.57
536.72	41535.15
536.89	41329.18
537.06	41446.21
537.23	41928.36
537.40	41614.72
537.57	41696.64
537.74	41617.07
537.91	41911.97
538.08	42045.38
538.25	41909.63
538.42	41883.89
538.59	41764.52
538.75	41832.39
538.92	42199.86
539.09	42188.16
539.26	42000.91
539.43	42162.41
539.60	41844.10
539.77	41935.38
539.94	41673.24
540.11	41907.29
540.28	42326.25
540.44	41818.35
540.61	42059.43
540.78	42110.92
540.95	41663.88
541.12	42127.30
541.29	42211.56
541.46	42775.63
541.62	42796.70
541.79	42967.55
541.96	41951.76
542.13	42286.46
542.30	42375.40
542.47	42925.42
542.63	42895.00
542.80	42796.70
542.97	42731.16
543.14	43276.51
543.31	43313.95
543.48	43447.36
543.64	43391.19
543.81	43243.74
543.98	43817.17
544.15	43725.89
544.32	43676.74
544.48	44002.07
544.65	43674.40
544.82	43805.47
544.99	43510.56
545.16	43388.85
545.32	43487.15
545.49	43751.63
545.66	44334.43
545.83	43861.64
546.00	43838.23
546.16	43838.23
546.33	43945.90
546.50	43880.36
546.67	44016.11
546.83	43665.03
547.00	43938.88
547.17	43697.80
547.34	43409.92
547.50	44161.23
547.67	44016.11
547.84	44182.29
548.00	44491.24
548.17	44779.13
548.34	44493.58
548.51	44444.43
548.67	44409.32
548.84	44765.09
549.01	44474.86
549.18	43976.33
549.34	44655.08
549.51	44687.85
549.68	44432.73
549.84	44306.34
550.01	44746.36
550.18	44566.14
550.34	45209.79
550.51	44538.05
550.68	44863.39
550.84	44107.40
551.01	44577.84
551.18	44411.67
551.34	44872.75
551.51	44704.23
551.68	45184.04
551.84	45116.17
552.01	45172.34
552.18	44868.07
552.34	44856.37
552.51	45027.23
552.68	44891.48
552.84	44931.26
553.01	45284.68
553.18	45006.16
553.34	44877.43
553.51	44769.77
553.67	45123.19
553.84	45338.52
554.01	45291.71
554.17	45284.68
554.34	45406.39
554.51	45172.34
554.67	45918.97
554.84	45614.70
555.00	45347.88
555.17	44933.60
555.33	45263.62
555.50	45104.46
555.67	45570.23
555.83	45111.49
556.00	45301.07
556.16	45462.57
556.33	46003.23
556.50	45535.12
556.66	45474.27
556.83	45244.90
556.99	45390.01
557.16	46024.29
557.32	45591.30
557.49	45757.47
557.65	45570.23
557.82	45563.21
557.98	45823.01
558.15	45310.43
558.32	45492.99
558.48	45214.47
558.65	45310.43
558.81	45539.80
558.98	46007.91
559.14	45464.91
559.31	45556.19
559.47	45696.62
559.64	45937.69
559.80	46071.10
559.97	45963.44
560.13	45612.36
560.30	45998.55
560.46	46003.23
560.63	46014.93
560.79	45797.26
560.96	46307.50
561.12	45698.96
561.29	45998.55
561.45	46326.22
561.61	45787.90
561.78	45883.86
561.94	45844.07
562.11	45933.01
562.27	46024.29
562.44	45820.67
562.60	45904.93
562.77	46461.97
562.93	46134.30
563.10	45930.67
563.26	46195.15
563.42	46054.72
563.59	45855.78
563.75	46485.38
563.92	45977.48
564.08	46234.94
564.24	46506.44
564.41	46174.09
564.57	46295.80
564.74	46157.70
564.90	45837.05
565.07	46174.09
565.23	46485.38
565.39	46403.46
565.56	46288.77
565.72	45691.94
565.88	46721.77
566.05	46216.22
566.21	46326.22
566.38	45993.87
566.54	46143.66
566.70	46106.21
566.87	46571.98
567.03	46504.10
567.19	47232.01
567.36	46972.21
567.52	46356.65
567.68	46752.20
567.85	46342.61
568.01	46527.51
568.17	46134.30
568.34	46284.09
568.50	46689.01
568.66	46272.39
568.83	46740.50
568.99	45902.59
569.15	46216.22
569.32	45925.99
569.48	46394.10
569.64	46597.73
569.81	46719.43
569.97	46623.47
570.13	46333.24
570.30	46358.99
570.46	46108.55
570.62	45708.32
570.78	46321.54
570.95	46138.98
571.11	46087.49
571.27	46309.84
571.43	46333.24
571.60	46628.15
571.76	46424.53
571.92	46665.60
572.09	46541.55
572.25	46681.98
572.41	46593.04
572.57	46700.71
572.74	46848.16
572.90	46380.06
573.06	46735.82
573.22	46951.15
573.38	46834.12
573.55	46405.80
573.71	46681.98
573.87	46667.94
574.03	46471.34
574.20	46770.93
574.36	46405.80
574.52	46478.36
574.68	46913.70
574.84	46841.14
575.01	46497.08
575.17	46564.96
575.33	46246.65
575.49	46028.98
575.65	46593.04
575.82	46728.80
575.98	46602.41
576.14	46642.20
576.30	46955.83
576.46	46838.80
576.62	46749.86
576.79	46712.41
576.95	46366.01
577.11	46717.09
577.27	47016.68
577.43	46541.55
577.59	46492.40
577.75	46272.39
577.92	46260.69
578.08	46059.40
578.24	46080.47
578.40	46527.51
578.56	46745.18
578.72	46864.55
578.88	46777.95
579.04	46932.42
579.21	46887.95
579.37	46546.23
579.53	46621.13
579.69	46754.54
579.85	46457.29
580.01	46876.25
580.17	46461.97
580.33	46766.24
580.49	46726.46
580.65	46665.60
580.82	46679.64
580.98	46461.97
581.14	46742.84
581.30	47257.76
581.46	46780.29
581.62	46845.82
581.78	46890.29
581.94	47236.69
582.10	46766.24
582.26	46796.67
582.42	46590.70
582.58	46148.34
582.74	46642.20
582.90	46824.76
583.06	46848.16
583.22	46684.33
583.38	46490.06
583.54	46993.28
583.70	46684.33
583.86	47072.85
584.02	46681.98
584.18	47044.77
584.34	46845.82
584.50	46691.35
584.66	46443.25
584.82	46920.72
584.98	46806.03
585.14	46787.31
585.30	46436.23
585.46	46738.16
585.62	46681.98
585.78	46780.29
585.94	46260.69
586.10	46703.05
586.26	46155.36
586.42	47147.75
586.58	47105.62
586.74	46962.85
586.90	46733.48
587.06	46698.37
587.22	46625.81
587.38	46672.62
587.54	46693.69
587.70	46497.08
587.86	47026.04
588.02	46745.18
588.18	46754.54
588.34	46363.67
588.49	46302.82
588.65	46141.32
588.81	45942.38
588.97	46398.78
589.13	46040.68
589.29	46354.31
589.45	46480.70
589.61	46649.22
589.77	46951.15
589.93	46637.51
