SpectraSuite Data File
++++++++++++++++++++++++++++++++++++
Date: Fri Oct 25 11:25:56 EDT 2013
User: price-jones
Dark Spectrum Present: No
Reference Spectrum Present: No
Number of Sampled Component Spectra: 1
Spectrometers: USB2+H05261
Integration Time (usec): 100000 (USB2+H05261)
Spectra Averaged: 1 (USB2+H05261)
Boxcar Smoothing: 0 (USB2+H05261)
Correct for Electrical Dark: No (USB2+H05261)
Strobe/Lamp Enabled: No (USB2+H05261)
Correct for Detector Non-linearity: No (USB2+H05261)
Correct for Stray Light: No (USB2+H05261)
Number of Pixels in Processed Spectrum: 2048
>>>>>Begin Processed Spectral Data<<<<<
365.73	238.73
365.92	238.73
366.12	238.73
366.32	194.26
366.52	138.09
366.72	140.43
366.91	88.94
367.11	126.39
367.31	159.16
367.51	142.77
367.70	126.39
367.90	191.92
368.10	114.69
368.30	112.35
368.49	152.13
368.69	124.05
368.89	142.77
369.09	161.50
369.28	114.69
369.48	131.07
369.68	133.41
369.87	187.24
370.07	126.39
370.27	184.90
370.47	390.87
370.66	510.24
370.86	704.50
371.06	734.93
371.25	636.63
371.45	650.67
371.65	655.35
371.84	716.20
372.04	690.46
372.24	699.82
372.44	741.95
372.63	753.65
372.83	791.10
373.03	763.01
373.22	798.12
373.42	809.83
373.62	734.93
373.81	802.80
374.01	844.93
374.21	842.59
374.40	809.83
374.60	870.68
374.79	819.19
374.99	884.72
375.19	812.17
375.38	812.17
375.58	863.66
375.78	919.83
375.97	877.70
376.17	854.30
376.37	898.77
376.56	866.00
376.76	795.78
376.95	875.36
377.15	915.15
377.35	912.81
377.54	919.83
377.74	952.60
377.93	966.64
378.13	964.30
378.33	997.07
378.52	880.04
378.72	976.00
378.91	1064.94
379.11	919.83
379.31	947.92
379.50	926.85
379.70	1006.43
379.89	917.49
380.09	929.19
380.28	924.51
380.48	1081.33
380.68	997.07
380.87	1015.79
381.07	968.98
381.26	1050.90
381.46	1027.50
381.65	964.30
381.85	1015.79
382.04	1004.09
382.24	1130.48
382.43	1055.58
382.63	1020.47
382.83	1041.54
383.02	1067.28
383.22	1078.99
383.41	1081.33
383.61	1121.12
383.80	1111.75
384.00	1086.01
384.19	1081.33
384.39	1160.91
384.58	1104.73
384.78	1135.16
384.97	1100.05
385.17	1184.31
385.36	1086.01
385.56	1210.06
385.75	1107.07
385.95	1165.59
386.14	1184.31
386.34	1107.07
386.53	1219.42
386.72	1277.93
386.92	1203.04
387.11	1247.51
387.31	1268.57
387.50	1268.57
387.70	1210.06
387.89	1284.95
388.09	1315.38
388.28	1303.68
388.48	1291.98
388.67	1376.24
388.86	1299.00
389.06	1310.70
389.25	1371.55
389.45	1320.06
389.64	1437.09
389.84	1455.81
390.03	1369.21
390.22	1355.17
390.42	1409.00
390.61	1336.45
390.81	1369.21
391.00	1348.15
391.19	1390.28
391.39	1411.34
391.58	1493.26
391.78	1490.92
391.97	1481.56
392.16	1535.39
392.36	1565.82
392.55	1481.56
392.75	1465.18
392.94	1549.43
393.13	1511.99
393.33	1401.98
393.52	1537.73
393.71	1577.52
393.91	1626.67
394.10	1603.27
394.29	1638.38
394.49	1621.99
394.68	1533.05
394.88	1600.93
395.07	1577.52
395.26	1652.42
395.46	1664.12
395.65	1757.74
395.84	1748.38
396.04	1788.17
396.23	1776.47
396.42	1703.91
396.62	1802.21
396.81	1867.75
397.00	1720.29
397.19	1661.78
397.39	1877.11
397.58	1975.41
397.77	1643.06
397.97	1919.24
398.16	1891.15
398.35	1844.34
398.55	1851.36
398.74	1830.30
398.93	2015.20
399.12	1928.60
399.32	1816.26
399.51	1926.26
399.70	1991.80
399.90	1905.20
400.09	1982.43
400.28	2064.35
400.47	1961.37
400.67	2050.31
400.86	2005.84
401.05	2045.63
401.24	2118.18
401.44	2071.37
401.63	2167.34
401.82	2176.70
402.01	2242.23
402.21	2256.28
402.40	2134.57
402.59	2127.55
402.78	2179.04
402.97	2237.55
403.17	2298.41
403.36	2293.72
403.55	2258.62
403.74	2314.79
403.93	2345.22
404.13	2300.75
404.32	2452.88
404.51	2373.30
404.70	2408.41
404.89	2349.90
405.09	2448.20
405.28	2462.24
405.47	2499.69
405.66	2389.69
405.85	2532.46
406.05	2487.99
406.24	2532.46
406.43	2576.93
406.62	2583.95
406.81	2644.81
407.00	2588.63
407.20	2597.99
407.39	2705.66
407.58	2635.44
407.77	2658.85
407.96	2782.90
408.15	2684.59
408.34	2782.90
408.54	2815.66
408.73	2761.83
408.92	2822.69
409.11	2761.83
409.30	2977.16
409.49	2913.97
409.68	3002.91
409.87	2958.44
410.07	2923.33
410.26	2909.29
410.45	2818.00
410.64	3023.97
410.83	3138.66
411.02	3068.44
411.21	3164.40
411.40	3082.49
411.59	3236.96
411.78	3112.91
411.98	3276.75
412.17	3197.17
412.36	3353.99
412.55	3332.92
412.74	3405.48
412.93	3463.99
413.12	3386.76
413.31	3501.44
413.50	3461.65
413.69	3529.53
413.88	3676.98
414.07	3555.27
414.26	3597.40
414.45	3590.38
414.64	3751.88
414.83	3798.69
415.02	3726.13
415.22	3798.69
415.41	3861.88
415.60	3805.71
415.79	3852.52
415.98	4009.34
416.17	3981.25
416.36	4053.81
416.55	3845.50
416.74	4021.04
416.93	4021.04
417.12	4053.81
417.31	4203.60
417.50	4229.35
417.69	4257.43
417.88	4278.50
418.07	4325.31
418.26	4315.95
418.45	4262.12
418.64	4362.76
418.83	4430.63
419.02	4360.42
419.21	4493.83
419.39	4414.25
419.58	4353.40
419.77	4493.83
419.96	4681.07
420.15	4636.60
420.34	4498.51
420.53	4601.49
420.72	4667.03
420.91	4746.61
421.10	4688.09
421.29	4809.80
421.48	4765.33
421.67	4674.05
421.86	4741.93
422.05	4755.97
422.24	4702.14
422.43	4877.68
422.61	4802.78
422.80	4816.82
422.99	4741.93
423.18	5093.01
423.37	5198.33
423.56	4966.62
423.75	4975.98
423.94	4734.90
424.13	4528.94
424.32	4664.69
424.50	4865.97
424.69	5172.58
424.88	5090.67
425.07	4882.36
425.26	4788.74
425.45	4924.49
425.64	4910.44
425.83	4926.83
426.01	5011.09
426.20	4980.66
426.39	5043.85
426.58	5050.88
426.77	4950.23
426.96	5350.46
427.15	5100.03
427.33	5102.37
427.52	5245.14
427.71	5172.58
427.90	5280.25
428.09	5366.85
428.28	5324.72
428.46	5373.87
428.65	5252.16
428.84	5458.13
429.03	5619.63
429.22	5322.38
429.40	5577.50
429.59	5575.16
429.78	5327.06
429.97	5245.14
430.16	5476.85
430.34	5451.11
430.53	5610.26
430.72	5778.78
430.91	5668.78
431.10	5621.97
431.28	5579.84
431.47	5692.18
431.66	5795.17
431.85	5753.04
432.03	5799.85
432.22	5930.92
432.41	5947.30
432.60	5678.14
432.79	5970.71
432.97	6040.92
433.16	5991.77
433.35	6125.18
433.54	6059.65
433.72	6087.73
433.91	6080.71
434.10	6031.56
434.28	6026.88
434.47	6080.71
434.66	6263.27
434.85	6143.91
435.03	6436.47
435.22	6256.25
435.41	6649.46
435.59	6487.96
435.78	6424.77
435.97	6487.96
436.16	6314.77
436.34	6370.94
436.53	6518.39
436.72	6567.54
436.90	6321.79
437.09	6597.97
437.28	6394.34
437.46	6640.10
437.65	6693.93
437.84	6574.56
438.02	6857.77
438.21	6658.82
438.40	6623.72
438.58	6792.23
438.77	6855.43
438.96	7035.65
439.14	7075.44
439.33	7140.97
439.52	7365.67
439.70	7267.36
439.89	7410.14
440.08	7386.73
440.26	7307.15
440.45	7332.90
440.63	7342.26
440.82	7658.23
441.01	7382.05
441.19	7798.66
441.38	7623.12
441.57	7833.77
441.75	7882.92
441.94	8002.29
442.12	8042.08
442.31	7861.86
442.50	8056.12
442.68	7941.44
442.87	8266.77
443.05	7850.16
443.24	8168.47
443.43	8313.58
443.61	8095.91
443.80	8390.82
443.98	7901.65
444.17	7786.96
444.35	7976.55
444.54	8491.46
444.73	8278.47
444.91	8341.67
445.10	8297.20
445.28	8255.07
445.47	8400.18
445.65	8234.00
445.84	8217.62
446.02	8414.23
446.21	8318.26
446.39	8320.60
446.58	8493.80
446.77	8458.70
446.95	8224.64
447.14	8549.98
447.32	8435.29
447.51	8402.52
447.69	8514.87
447.88	8643.60
448.06	8638.92
448.25	8542.96
448.43	8594.45
448.62	8510.19
448.80	8505.51
448.99	8622.53
449.17	8774.67
449.36	8676.37
449.54	8755.94
449.73	8851.91
449.91	9027.45
450.10	8854.25
450.28	8945.53
450.46	9226.39
450.65	9128.09
450.83	9114.05
451.02	8959.57
451.20	9118.73
451.39	9090.64
451.57	9039.15
451.76	9158.52
451.94	9242.78
452.13	9378.53
452.31	9221.71
452.49	9263.84
452.68	9263.84
452.86	9327.03
453.05	9383.21
453.23	9509.60
453.42	9186.60
453.60	9415.98
453.78	9769.40
453.97	9362.14
454.15	9343.42
454.34	9525.98
454.52	9727.27
454.70	9748.33
454.89	9439.38
455.07	9865.36
455.26	9682.80
455.44	9846.63
455.62	10083.03
455.81	9907.49
455.99	9841.95
456.17	10080.69
456.36	10164.95
456.54	10200.05
456.73	10003.45
456.91	10277.29
457.09	10401.34
457.28	10494.96
457.46	10331.12
457.64	10417.72
457.83	10595.61
458.01	10413.04
458.19	10553.48
458.38	10384.96
458.56	10820.30
458.74	10712.63
458.93	10686.89
459.11	10682.20
459.29	10654.12
459.48	10677.52
459.66	10649.44
459.84	10937.32
460.03	11023.92
460.21	11138.61
460.39	10899.87
460.57	11150.31
460.76	11213.51
460.94	11147.97
461.12	11169.04
461.31	11229.89
461.49	11398.41
461.67	11136.27
461.85	11559.91
462.04	11372.66
462.22	11775.24
462.40	11719.06
462.59	11625.44
462.77	11414.79
462.95	11456.92
463.13	11405.43
463.32	11550.54
463.50	11798.64
463.68	11742.47
463.86	11932.05
464.05	11674.59
464.23	11686.29
464.41	11906.31
464.59	11726.08
464.78	12095.89
464.96	11946.09
465.14	11733.11
465.32	12032.69
465.50	12077.16
465.69	12271.43
465.87	12023.33
466.05	12072.48
466.23	12123.98
466.41	12266.75
466.60	12561.66
466.78	12351.01
466.96	11997.59
467.14	12215.26
467.32	12390.80
467.51	12854.22
467.69	12093.55
467.87	12358.03
468.05	12585.06
468.23	12627.19
468.41	12372.07
468.60	12564.00
468.78	12559.31
468.96	12409.52
469.14	12788.69
469.32	12898.69
469.50	12812.09
469.69	12720.81
469.87	13069.55
470.05	13128.06
470.23	13046.15
470.41	13111.68
470.59	13324.67
470.77	13310.63
470.95	13160.83
471.14	13577.45
471.32	13200.62
471.50	13343.39
471.68	13554.04
471.86	13640.64
472.04	13841.93
472.22	14066.62
472.40	13547.02
472.58	13802.14
472.77	14111.09
472.95	14225.78
473.13	14265.57
473.31	14160.24
473.49	13951.93
473.67	14120.45
473.85	14221.10
474.03	14546.43
474.21	14417.70
474.39	14846.02
474.57	14747.72
474.75	14958.36
474.93	14927.94
475.12	14862.40
475.30	14953.68
475.48	15023.90
475.66	15154.97
475.84	15206.46
476.02	15484.98
476.20	15279.02
476.38	15522.43
476.56	16027.99
476.74	15836.06
476.92	15908.62
477.10	15971.82
477.28	15857.13
477.46	16376.73
477.64	16224.59
477.82	16479.71
478.00	16814.41
478.18	16697.38
478.36	16959.52
478.54	17245.07
478.72	16924.41
478.90	17123.36
479.08	17528.27
479.26	17701.47
479.44	17539.97
479.62	17996.38
479.80	18090.00
479.98	18038.51
480.16	18403.63
480.34	18181.28
480.52	18644.71
480.70	18735.99
480.88	18691.52
481.06	18841.31
481.24	18691.52
481.41	19145.58
481.59	19283.67
481.77	19316.44
481.95	19585.60
482.13	19489.64
482.31	19676.88
482.49	20217.55
482.67	20004.56
482.85	20350.96
483.03	20594.37
483.21	20842.47
483.39	20957.16
483.57	20865.88
483.74	21006.31
483.92	21383.13
484.10	20943.11
484.28	21827.84
484.46	21860.60
484.64	22228.07
484.82	22052.53
485.00	22480.85
485.18	22773.41
485.35	22775.75
485.53	22700.86
485.71	23201.73
485.89	23452.17
486.07	23080.02
486.25	23161.94
486.43	23564.51
486.61	23735.37
486.78	23983.47
486.96	24032.62
487.14	24449.24
487.32	24678.61
487.50	24903.30
487.68	24821.38
487.85	25062.46
488.03	25432.26
488.21	25783.34
488.39	25902.71
488.57	25928.45
488.75	26143.78
488.92	26359.11
489.10	26607.21
489.28	26595.51
489.46	27264.90
489.64	26647.00
489.81	27576.19
489.99	27784.50
490.17	27831.31
490.35	28163.67
490.53	28369.63
490.70	28390.70
490.88	28280.69
491.06	28622.41
491.24	28823.70
491.41	28833.06
491.59	29331.59
491.77	29223.93
491.95	29418.19
492.13	29729.48
492.30	30197.59
492.48	29708.42
492.66	30054.82
492.84	30185.89
493.01	30445.69
493.19	30441.01
493.37	31005.08
493.54	31122.10
493.72	31538.72
493.90	30939.54
494.08	31782.13
494.25	31854.69
494.43	32217.47
494.61	32648.13
494.79	32336.84
494.96	32472.59
495.14	32376.63
495.32	33053.05
495.49	32947.72
495.67	33319.87
495.85	33701.37
496.02	33675.63
496.20	34302.89
496.38	34146.08
496.55	33905.00
496.73	35030.80
496.91	34232.68
497.09	34810.79
497.26	35061.22
497.44	34440.98
497.62	34785.04
497.79	35599.55
497.97	35360.81
498.14	36009.14
498.32	35971.69
498.50	36535.76
498.67	36524.06
498.85	36388.31
499.03	36474.91
499.20	36884.50
499.38	36854.08
499.56	36893.86
499.73	36847.05
499.91	37310.48
500.08	37509.43
500.26	37518.79
500.44	37628.79
500.61	38160.09
500.79	37439.21
500.97	37703.69
501.14	38710.12
501.32	38330.95
501.49	38380.10
501.67	38728.84
501.84	38827.15
502.02	38794.38
502.20	39098.65
502.37	39227.38
502.55	39051.84
502.72	39395.90
502.90	39639.31
503.07	39264.83
503.25	39648.68
503.43	40074.65
503.60	40275.94
503.78	39906.13
503.95	39751.66
504.13	40390.62
504.30	40587.23
504.48	40163.59
504.65	40692.55
504.83	40945.33
505.01	41605.36
505.18	40797.88
505.36	41486.00
505.53	41319.82
505.71	41535.15
505.88	41633.45
506.06	41092.79
506.23	41736.43
506.41	41600.68
506.58	42085.17
506.76	42131.98
506.93	42148.37
507.11	42464.34
507.28	42431.57
507.46	42646.90
507.63	42784.99
507.81	43475.45
507.98	42237.31
508.16	43040.11
508.33	42990.96
508.50	43107.99
508.68	43517.58
508.85	43840.57
509.03	43831.21
509.20	44065.27
509.38	44374.22
509.55	44158.89
509.73	44109.74
509.90	44779.13
510.08	44453.79
510.25	44608.27
510.42	45202.77
510.60	44903.18
510.77	45148.93
510.95	45464.91
511.12	44865.73
511.30	45036.59
511.47	45284.68
511.64	45488.31
511.82	46258.35
511.99	45560.87
512.17	46291.12
512.34	45518.74
512.51	45853.44
512.69	46202.18
512.86	46370.69
513.04	46677.30
513.21	46623.47
513.38	46731.14
513.56	46681.98
513.73	46766.24
513.90	46937.10
514.08	46834.12
514.25	47002.64
514.43	46770.93
514.60	47531.60
514.77	47313.93
514.95	47452.02
515.12	47428.62
515.29	47657.99
515.47	47751.61
515.64	48030.13
515.81	47491.81
515.99	48275.89
516.16	47943.53
516.33	48376.53
516.51	48568.46
516.68	48350.79
516.85	48315.68
517.03	48659.74
517.20	48704.21
517.37	48966.35
517.54	48437.39
517.72	48889.11
517.89	49165.29
518.06	49277.64
518.24	49397.01
518.41	49078.69
518.58	49406.37
518.75	49116.14
518.93	49207.42
519.10	49345.51
519.27	49631.06
519.45	49436.80
519.62	49794.90
519.79	49696.59
519.96	49757.45
520.14	49844.05
520.31	49942.35
520.48	50398.76
520.65	50506.42
520.83	50536.85
521.00	50394.07
521.17	50543.87
521.34	50447.91
521.52	50880.91
521.69	50529.83
521.86	50719.41
522.03	51079.85
522.20	50883.25
522.38	51449.66
522.55	51426.25
522.72	51332.63
522.89	51185.18
523.07	51552.64
523.24	51414.55
523.41	51381.78
523.58	51622.86
523.75	51718.82
523.92	51821.80
524.10	52360.12
524.27	52376.51
524.44	52275.87
524.61	52259.48
524.78	52161.18
524.96	52205.65
525.13	52156.50
525.30	52369.49
525.47	52561.41
525.64	52233.74
525.81	52273.52
525.98	52718.23
526.16	52608.22
526.33	52549.71
526.50	52734.61
526.67	52690.14
526.84	52931.22
527.01	53003.77
527.18	52849.30
527.36	52945.26
527.53	52982.71
527.70	53127.82
527.87	52992.07
528.04	53247.19
528.21	53359.53
528.38	53408.68
528.55	53279.96
528.72	53008.45
528.89	53235.48
529.07	53284.64
529.24	53563.16
529.41	53869.77
529.58	53635.72
529.75	53736.36
529.92	53642.74
530.09	53673.16
530.26	53537.41
530.43	53858.07
530.60	53748.06
530.77	53797.21
530.94	54087.44
531.11	54178.72
531.28	53911.90
531.46	53968.07
531.63	54038.29
531.80	54101.48
531.97	54057.01
532.14	54230.21
532.31	54415.11
532.48	54239.57
532.65	54635.13
532.82	54358.94
532.99	54677.25
533.16	54508.74
533.33	54789.60
533.50	54621.08
533.67	54665.55
533.84	54550.87
534.01	54726.41
534.18	54988.55
534.35	55276.43
534.52	54883.22
534.69	55194.51
534.86	55229.62
535.03	54988.55
535.20	55030.68
535.37	55365.37
535.54	55257.71
535.71	54934.71
535.88	55428.57
536.05	55220.26
536.22	55828.80
536.38	55554.96
536.55	55721.13
536.72	55458.99
536.89	55529.21
537.06	55533.89
537.23	55803.05
537.40	55505.80
537.57	55709.43
537.74	55742.20
537.91	55641.56
538.08	55870.93
538.25	55828.80
538.42	55777.31
538.59	56041.79
538.75	56032.42
538.92	55908.38
539.09	56128.39
539.26	56095.62
539.43	55976.25
539.60	56119.02
539.77	56151.79
539.94	56495.85
540.11	56388.19
540.28	56399.89
540.44	56388.19
540.61	56491.17
540.78	56320.31
540.95	56315.63
541.12	56435.00
541.29	56413.93
541.46	56456.06
541.62	56619.90
541.79	56727.56
541.96	56439.68
542.13	56720.54
542.30	56587.13
542.47	56879.70
542.63	56772.03
542.80	56765.01
542.97	57141.84
543.14	57078.64
543.31	57195.67
543.48	57282.27
543.64	57352.49
543.81	57478.88
543.98	57434.41
544.15	57228.44
544.32	57375.89
544.48	57588.88
544.65	57270.57
544.82	57244.82
544.99	57301.00
545.16	57359.51
545.32	57392.28
545.49	57607.61
545.66	57492.92
545.83	57602.92
546.00	57684.84
546.16	57612.29
546.33	57668.46
546.50	57670.80
546.67	57661.44
546.83	57389.94
547.00	57886.13
547.17	57762.08
547.34	57602.92
547.50	57743.36
547.67	58014.86
547.84	58000.82
548.00	58059.33
548.17	58068.69
548.34	57879.11
548.51	58127.20
548.67	58218.49
548.84	58054.65
549.01	58024.22
549.18	58211.46
549.34	58059.33
549.51	58211.46
549.68	58534.46
549.84	58368.28
550.01	58513.39
550.18	58248.91
550.34	58618.72
550.51	58489.99
550.68	58220.83
550.84	58356.58
551.01	58450.20
551.18	58269.98
551.34	58592.97
551.51	58319.13
551.68	58595.31
551.84	58492.33
552.01	58436.16
552.18	58426.79
552.34	58492.33
552.51	58717.02
552.68	58532.12
552.84	58560.20
553.01	58810.64
553.18	58766.17
553.34	58885.54
553.51	58731.06
553.67	58845.75
553.84	59021.29
554.01	58983.84
554.17	59014.27
554.34	59035.33
554.51	58974.48
554.67	59023.63
554.84	58796.60
555.00	58885.54
555.17	58974.48
555.33	58904.26
555.50	58962.78
555.67	59145.34
555.83	58887.88
556.00	59007.25
556.16	59318.54
556.33	59250.66
556.50	59276.41
556.66	59400.46
556.83	59091.51
556.99	59503.44
557.16	59339.60
557.32	59615.79
557.49	59428.54
557.65	59140.66
557.82	59536.21
557.98	59278.75
558.15	59360.67
558.32	59559.61
558.48	59143.00
558.65	59447.27
558.81	59496.42
558.98	59355.99
559.14	59536.21
559.31	59489.40
559.47	59423.86
559.64	59700.04
559.80	59636.85
559.97	59777.28
560.13	59470.67
560.30	59508.12
560.46	59695.36
560.63	59737.49
560.79	59744.51
560.96	59814.73
561.12	59725.79
561.29	59798.35
561.45	60058.15
561.61	59952.82
561.78	59779.62
561.94	59873.24
562.11	59749.20
562.27	59716.43
562.44	60023.04
562.60	59952.82
562.77	59826.43
562.93	59704.73
563.10	60170.49
563.26	59898.99
563.42	60097.94
563.59	60074.53
563.75	60109.64
563.92	59920.05
564.08	60023.04
564.24	60037.08
564.41	60163.47
564.57	60135.38
564.74	60193.90
564.90	60109.64
565.07	60053.47
565.23	60023.04
565.39	60013.68
565.56	60076.87
565.72	60273.48
565.88	60023.04
566.05	60158.79
566.21	60088.57
566.38	59994.95
566.54	60079.21
566.70	60308.58
566.87	60266.45
567.03	60177.51
567.19	60463.06
567.36	60126.02
567.52	60294.54
567.68	60577.75
567.85	60327.31
568.01	60320.29
568.17	60102.62
568.34	60413.91
568.50	60308.58
568.66	60376.46
568.83	60264.11
568.99	60406.89
569.15	60463.06
569.32	60041.76
569.48	60392.84
569.64	60570.72
569.81	60423.27
569.97	60360.08
570.13	60425.61
570.30	60257.09
570.46	60346.03
570.62	60364.76
570.78	60285.18
570.95	60432.63
571.11	60584.77
571.27	60303.90
571.43	60535.62
571.60	60542.64
571.76	60441.99
571.92	60563.70
572.09	60575.40
572.25	60650.30
572.41	60498.17
572.57	60591.79
572.74	60575.40
572.90	60530.93
573.06	60659.66
573.22	60687.75
573.38	60559.02
573.55	60631.58
573.71	60704.13
573.87	60633.92
574.03	60465.40
574.20	60636.26
574.36	60451.36
574.52	60624.56
574.68	60622.22
574.84	60610.51
575.01	60654.98
575.17	60676.05
575.33	60736.90
575.49	60549.66
575.65	60652.64
575.82	60570.72
575.98	60750.94
576.14	60828.18
576.30	60715.84
576.46	60839.89
576.62	60804.78
576.79	60757.97
576.95	60692.43
577.11	60814.14
577.27	60835.20
577.43	60807.12
577.59	60650.30
577.75	60694.77
577.92	60680.73
578.08	60870.31
578.24	60610.51
578.40	60573.06
578.56	60942.87
578.72	60683.07
578.88	60987.34
579.04	61038.83
579.21	60842.23
579.37	60989.68
579.53	61083.30
579.69	60697.11
579.85	60561.36
580.01	60722.86
580.17	60662.00
580.33	60851.59
580.49	60769.67
580.65	61020.11
580.82	60767.33
580.98	60720.52
581.14	60825.84
581.30	61057.56
581.46	60804.78
581.62	60982.66
581.78	60664.35
581.94	60994.36
582.10	60942.87
582.26	60886.70
582.42	60793.07
582.58	60802.44
582.74	60898.40
582.90	60830.52
583.06	61020.11
583.22	60776.69
583.38	60963.93
583.54	60999.04
583.70	60757.97
583.86	60893.72
584.02	60891.38
584.18	60905.42
584.34	60938.19
584.50	60987.34
584.66	60992.02
584.82	60977.98
584.98	61137.13
585.14	60996.70
585.30	61015.43
585.46	61013.08
585.62	61003.72
585.78	60863.29
585.94	60734.56
586.10	60926.49
586.26	61120.75
586.42	60931.17
586.58	61008.40
586.74	61045.85
586.90	61001.38
587.06	60800.10
587.22	60940.53
587.38	60999.04
587.54	61132.45
587.70	61169.90
587.86	61013.08
588.02	61015.43
588.18	61326.72
588.34	60966.27
588.49	60952.23
