SpectraSuite Data File
++++++++++++++++++++++++++++++++++++
Date: Fri Oct 25 11:25:05 EDT 2013
User: price-jones
Dark Spectrum Present: No
Reference Spectrum Present: No
Number of Sampled Component Spectra: 1
Spectrometers: USB2+H05261
Integration Time (usec): 100000 (USB2+H05261)
Spectra Averaged: 1 (USB2+H05261)
Boxcar Smoothing: 0 (USB2+H05261)
Correct for Electrical Dark: No (USB2+H05261)
Strobe/Lamp Enabled: No (USB2+H05261)
Correct for Detector Non-linearity: No (USB2+H05261)
Correct for Stray Light: No (USB2+H05261)
Number of Pixels in Processed Spectrum: 2048
>>>>>Begin Processed Spectral Data<<<<<
365.73	259.80
365.92	259.80
366.12	259.80
366.32	133.41
366.52	126.39
366.72	215.33
366.91	175.54
367.11	191.92
367.31	140.43
367.51	74.90
367.70	88.94
367.90	131.07
368.10	102.98
368.30	149.79
368.49	189.58
368.69	112.35
368.89	110.01
369.09	180.22
369.28	124.05
369.48	175.54
369.68	163.84
369.87	194.26
370.07	220.01
370.27	210.65
370.47	285.55
370.66	615.56
370.86	648.33
371.06	648.33
371.25	704.50
371.45	606.20
371.65	758.33
371.84	676.41
372.04	645.99
372.24	667.05
372.44	681.10
372.63	706.84
372.83	758.33
373.03	748.97
373.22	732.59
373.42	814.51
373.62	772.38
373.81	786.42
374.01	816.85
374.21	758.33
374.40	791.10
374.60	875.36
374.79	741.95
374.99	802.80
375.19	816.85
375.38	873.02
375.58	840.25
375.78	863.66
375.97	837.91
376.17	844.93
376.37	828.55
376.56	908.13
376.76	938.55
376.95	919.83
377.15	910.47
377.35	863.66
377.54	875.36
377.74	854.30
377.93	952.60
378.13	905.79
378.33	931.53
378.52	952.60
378.72	980.68
378.91	1006.43
379.11	966.64
379.31	924.51
379.50	891.74
379.70	999.41
379.89	978.34
380.09	1069.62
380.28	971.32
380.48	992.39
380.68	957.28
380.87	908.13
381.07	1011.11
381.26	1032.18
381.46	1036.86
381.65	1053.24
381.85	1067.28
382.04	1053.24
382.24	1057.92
382.43	1036.86
382.63	1111.75
382.83	1078.99
383.02	1095.37
383.22	1123.46
383.41	1074.31
383.61	1048.56
383.80	1142.18
384.00	1151.54
384.19	1039.20
384.39	1191.33
384.58	1151.54
384.78	1146.86
384.97	1144.52
385.17	1184.31
385.36	1193.67
385.56	1130.48
385.75	1149.20
385.95	1196.01
386.14	1259.21
386.34	1095.37
386.53	1228.78
386.72	1177.29
386.92	1284.95
387.11	1165.59
387.31	1256.87
387.50	1247.51
387.70	1235.80
387.89	1289.64
388.09	1336.45
388.28	1219.42
388.48	1343.47
388.67	1322.40
388.86	1256.87
389.06	1378.58
389.25	1331.76
389.45	1282.61
389.64	1277.93
389.84	1296.66
390.03	1427.73
390.22	1247.51
390.42	1306.02
390.61	1411.34
390.81	1359.85
391.00	1432.41
391.19	1509.65
391.39	1430.07
391.58	1348.15
391.78	1488.58
391.97	1418.36
392.16	1479.22
392.36	1544.75
392.55	1568.16
392.75	1514.33
392.94	1549.43
393.13	1638.38
393.33	1605.61
393.52	1509.65
393.71	1519.01
393.91	1488.58
394.10	1434.75
394.29	1650.08
394.49	1598.59
394.68	1673.48
394.88	1624.33
395.07	1661.78
395.26	1713.27
395.46	1577.52
395.65	1624.33
395.84	1699.23
396.04	1823.28
396.23	1764.76
396.42	1692.21
396.62	1724.97
396.81	1851.36
397.00	1692.21
397.19	1741.36
397.39	1769.44
397.58	1823.28
397.77	1776.47
397.97	1827.96
398.16	1722.63
398.35	1804.55
398.55	1757.74
398.74	1823.28
398.93	1916.90
399.12	1818.60
399.32	2012.86
399.51	1947.33
399.70	1937.96
399.90	1923.92
400.09	1954.35
400.28	2003.50
400.47	2050.31
400.67	2036.27
400.86	2120.53
401.05	2054.99
401.24	2078.40
401.44	2150.95
401.63	2249.25
401.82	2097.12
402.01	2038.61
402.21	2078.40
402.40	2214.15
402.59	2211.81
402.78	2146.27
402.97	2221.17
403.17	2237.55
403.36	2207.13
403.55	2211.81
403.74	2389.69
403.93	2370.96
404.13	2363.94
404.32	2349.90
404.51	2289.04
404.70	2377.98
404.89	2476.29
405.09	2438.84
405.28	2422.45
405.47	2401.39
405.66	2441.18
405.85	2499.69
406.05	2565.23
406.24	2492.67
406.43	2546.50
406.62	2518.42
406.81	2698.64
407.00	2518.42
407.20	2452.88
407.39	2635.44
407.58	2621.40
407.77	2665.87
407.96	2708.00
408.15	2750.13
408.34	2764.17
408.54	2785.24
408.73	2839.07
408.92	2841.41
409.11	2810.98
409.30	2937.37
409.49	2885.88
409.68	2972.48
409.87	2850.77
410.07	2979.50
410.26	2993.55
410.45	3054.40
410.64	3009.93
410.83	3105.89
411.02	3016.95
411.21	3082.49
411.40	3220.58
411.59	3232.28
411.78	3169.09
411.98	3166.74
412.17	3332.92
412.36	3243.98
412.55	3337.60
412.74	3351.65
412.93	3314.20
413.12	3251.00
413.31	3625.49
413.50	3349.31
413.69	3548.25
413.88	3676.98
414.07	3480.38
414.26	3524.85
414.45	3438.25
414.64	3616.13
414.83	3620.81
415.02	3777.62
415.22	3784.65
415.41	3782.31
415.60	3733.15
415.79	3836.14
415.98	3889.97
416.17	4023.38
416.36	3906.35
416.55	3904.01
416.74	4032.74
416.93	4023.38
417.12	4030.40
417.31	4182.54
417.50	4046.79
417.69	4201.26
417.88	4269.14
418.07	4283.18
418.26	4287.86
418.45	4194.24
418.64	4318.29
418.83	4276.16
419.02	4278.50
419.21	4440.00
419.39	4503.19
419.58	4468.08
419.77	4463.40
419.96	4617.88
420.15	4641.28
420.34	4444.68
420.53	4510.21
420.72	4603.83
420.91	4657.67
421.10	4723.20
421.29	4929.17
421.48	4599.15
421.67	4592.13
421.86	4784.06
422.05	4671.71
422.24	4777.03
422.43	4805.12
422.61	4795.76
422.80	4805.12
422.99	4873.00
423.18	4915.12
423.37	4966.62
423.56	4924.49
423.75	4800.44
423.94	4681.07
424.13	4608.51
424.32	4664.69
424.50	5046.20
424.69	5149.18
424.88	4997.04
425.07	4901.08
425.26	4929.17
425.45	4779.37
425.64	4954.91
425.83	4961.94
426.01	4987.68
426.20	5057.90
426.39	4924.49
426.58	4978.32
426.77	5029.81
426.96	4943.21
427.15	4985.34
427.33	5057.90
427.52	5149.18
427.71	5254.50
427.90	5144.50
428.09	5294.29
428.28	5397.28
428.46	5280.25
428.65	5371.53
428.84	5425.36
429.03	5469.83
429.22	5341.10
429.40	5518.98
429.59	5451.11
429.78	5252.16
429.97	5224.08
430.16	5420.68
430.34	5575.16
430.53	5511.96
430.72	5596.22
430.91	5472.17
431.10	5645.37
431.28	5804.53
431.47	5764.74
431.66	5776.44
431.85	5689.84
432.03	5970.71
432.22	5980.07
432.41	5832.62
432.60	5921.56
432.79	5837.30
432.97	5872.40
433.16	5916.87
433.35	5909.85
433.54	5830.27
433.72	5996.45
433.91	6019.86
434.10	6204.76
434.28	6134.54
434.47	6090.07
434.66	6216.46
434.85	6274.98
435.03	6289.02
435.22	6218.80
435.41	6555.84
435.59	6218.80
435.78	6555.84
435.97	6497.33
436.16	6366.26
436.34	6410.73
436.53	6291.36
436.72	6642.44
436.90	6429.45
437.09	6523.07
437.28	6389.66
437.46	6464.56
437.65	6380.30
437.84	6775.85
438.02	6588.61
438.21	6628.40
438.40	6750.10
438.58	6869.47
438.77	7063.74
438.96	6935.01
439.14	6974.80
439.33	7166.72
439.52	7005.22
439.70	7054.37
439.89	7368.01
440.08	7136.29
440.26	7463.97
440.45	7435.88
440.63	7293.11
440.82	7492.05
441.01	7524.82
441.19	7379.71
441.38	7803.35
441.57	7672.28
441.75	7742.49
441.94	7875.90
442.12	7861.86
442.31	8114.64
442.50	8037.40
442.68	7969.52
442.87	7969.52
443.05	7997.61
443.24	8184.85
443.43	7988.25
443.61	8072.51
443.80	8535.93
443.98	8053.78
444.17	7824.41
444.35	8046.76
444.54	8322.94
444.73	8058.46
444.91	8381.46
445.10	8215.28
445.28	8346.35
445.47	8067.83
445.65	8379.12
445.84	8334.65
446.02	8510.19
446.21	8287.84
446.39	8388.48
446.58	8369.76
446.77	8446.99
446.95	8138.04
447.14	8491.46
447.32	8566.36
447.51	8407.20
447.69	8325.29
447.88	8484.44
448.06	8435.29
448.25	8372.10
448.43	8540.61
448.62	8367.42
448.80	8549.98
448.99	8559.34
449.17	8718.50
449.36	8533.59
449.54	8784.03
449.73	8898.72
449.91	8908.08
450.10	8861.27
450.28	9050.85
450.46	8964.25
450.65	9046.17
450.83	8961.91
451.02	9048.51
451.20	9350.44
451.39	9160.86
451.57	9104.68
451.76	9242.78
451.94	9032.13
452.13	9226.39
452.31	9214.69
452.49	9167.88
452.68	9530.66
452.86	9357.46
453.05	9413.63
453.23	9446.40
453.42	9252.14
453.60	9090.64
453.78	9392.57
453.97	9338.74
454.15	9621.94
454.34	9249.80
454.52	9628.96
454.70	9713.22
454.89	9682.80
455.07	9657.05
455.26	9856.00
455.44	9802.16
455.62	9703.86
455.81	9703.86
455.99	9832.59
456.17	10064.30
456.36	10001.11
456.54	10097.07
456.73	10242.18
456.91	10401.34
457.09	10202.40
457.28	10490.28
457.46	10186.01
457.64	10476.24
457.83	10363.89
458.01	10157.92
458.19	10616.67
458.38	10485.60
458.56	10574.54
458.74	10553.48
458.93	10815.62
459.11	10675.18
459.29	10466.88
459.48	10611.99
459.66	10654.12
459.84	10724.33
460.03	10925.62
460.21	10611.99
460.39	10698.59
460.57	10846.04
460.76	11162.01
460.94	11185.42
461.12	11157.33
461.31	11290.74
461.49	11360.96
461.67	11073.07
461.85	11330.53
462.04	11288.40
462.22	11758.85
462.40	11702.68
462.59	11236.91
462.77	11620.76
462.95	11407.77
463.13	11496.71
463.32	11627.78
463.50	11620.76
463.68	11751.83
463.86	11971.84
464.05	11658.21
464.23	11681.61
464.41	11669.91
464.59	11662.89
464.78	12102.91
464.96	11915.67
465.14	11646.51
465.32	11829.07
465.50	11932.05
465.69	12109.93
465.87	11997.59
466.05	12006.95
466.23	12013.97
466.41	11995.25
466.60	12624.85
466.78	12030.35
466.96	11983.54
467.14	12173.13
467.32	12322.92
467.51	12451.65
467.69	12264.41
467.87	12313.56
468.05	12540.59
468.23	12241.00
468.41	12432.93
468.60	12578.04
468.78	12629.53
468.96	12212.92
469.14	12620.17
469.32	12762.94
469.50	12416.54
469.69	12858.90
469.87	13032.10
470.05	13132.75
470.23	13022.74
470.41	13034.44
470.59	12954.87
470.77	13224.03
470.95	13137.43
471.14	13577.45
471.32	13142.11
471.50	13380.84
471.68	13570.43
471.86	13420.63
472.04	13589.15
472.22	13795.12
472.40	13453.40
472.58	13729.58
472.77	13898.10
472.95	14033.85
473.13	14272.59
473.31	13944.91
473.49	13961.30
473.67	14085.34
473.85	14321.74
474.03	14420.04
474.21	14579.20
474.39	14726.65
474.57	14801.55
474.75	14846.02
474.93	14721.97
475.12	15051.99
475.30	15087.09
475.48	14899.85
475.66	15019.22
475.84	15119.86
476.02	15545.84
476.20	15386.68
476.38	15536.48
476.56	15850.11
476.74	15772.87
476.92	15747.12
477.10	15726.06
477.28	16170.76
477.46	16042.03
477.64	16350.98
477.82	16287.79
478.00	16695.04
478.18	16582.70
478.36	16812.07
478.54	16975.91
478.72	16828.45
478.90	17184.21
479.08	17530.61
479.26	17577.42
479.44	17703.81
479.62	17642.96
479.80	18029.15
479.98	17874.67
480.16	18354.48
480.34	18408.31
480.52	18560.45
480.70	18490.23
480.88	18305.33
481.06	18511.30
481.24	18728.97
481.41	18965.36
481.59	19342.19
481.77	19157.28
481.95	19199.41
482.13	19634.75
482.31	19538.79
482.49	19990.52
482.67	20166.06
482.85	20149.67
483.03	20472.67
483.21	20503.09
483.39	20601.40
483.57	20730.12
483.74	20931.41
483.92	20926.73
484.10	20950.14
484.28	21263.77
484.46	21752.94
484.64	22174.24
484.82	21888.69
485.00	21986.99
485.18	22246.79
485.35	23077.68
485.53	22464.46
485.71	22892.78
485.89	23393.65
486.07	23239.18
486.25	22855.33
486.43	23281.31
486.61	23538.77
486.78	23690.90
486.96	23906.23
487.14	24318.17
487.32	24503.07
487.50	24627.12
487.68	24765.21
487.85	25450.99
488.03	25394.81
488.21	25481.41
488.39	25717.81
488.57	25710.78
488.75	26015.05
488.92	26120.38
489.10	26583.80
489.28	26539.33
489.46	26747.64
489.64	26569.76
489.81	27068.30
489.99	27496.61
490.17	27758.75
490.35	27641.73
490.53	27714.28
490.70	28233.88
490.88	28170.69
491.06	28748.80
491.24	28694.97
491.41	28690.29
491.59	29099.88
491.77	29039.03
491.95	29130.31
492.13	29493.09
492.30	29532.88
492.48	29865.24
492.66	30185.89
492.84	30188.23
493.01	30380.15
493.19	30522.93
493.37	30441.01
493.54	31016.78
493.72	30871.67
493.90	30700.81
494.08	31566.81
494.25	31644.04
494.43	31840.65
494.61	32343.86
494.79	32371.95
494.96	32100.45
495.14	32397.70
495.32	32676.22
495.49	33226.24
495.67	32706.65
495.85	33638.18
496.02	33453.28
496.20	33392.42
496.38	33689.67
496.55	33354.97
496.73	34422.26
496.91	34061.82
497.09	34834.19
497.26	35218.04
497.44	34630.57
497.62	35103.35
497.79	35250.81
497.97	35236.77
498.14	35754.02
498.32	36062.97
498.50	36198.73
498.67	36077.02
498.85	35962.33
499.03	36842.37
499.20	36046.59
499.38	36397.67
499.56	36938.33
499.73	36825.99
499.91	37010.89
500.08	36870.46
500.26	37514.11
500.44	37387.72
500.61	37647.52
500.79	37392.40
500.97	37518.79
501.14	38199.88
501.32	38190.52
501.49	38469.04
501.67	38600.12
501.84	38529.90
502.02	38330.95
502.20	39194.61
502.37	39026.09
502.55	38895.02
502.72	39353.77
502.90	39035.45
503.07	39402.92
503.25	39122.05
503.43	39260.15
503.60	39400.58
503.78	39906.13
503.95	39810.17
504.13	40465.52
504.30	40636.38
504.48	40135.51
504.65	40453.82
504.83	40828.30
505.01	41013.21
505.18	41071.72
505.36	41277.69
505.53	40968.74
505.71	41347.90
505.88	41586.64
506.06	41336.20
506.23	41706.01
506.41	41373.65
506.58	41888.57
506.76	41624.09
506.93	42349.65
507.11	42377.74
507.28	42218.58
507.46	42316.89
507.63	42241.99
507.81	42824.78
507.98	42883.30
508.16	42941.81
508.33	43236.72
508.50	43154.80
508.68	42792.01
508.85	43157.14
509.03	43501.20
509.20	44091.01
509.38	44156.55
509.55	44009.09
509.73	44304.00
509.90	44112.08
510.08	44474.86
510.25	44374.22
510.42	44655.08
510.60	44786.15
510.77	44753.38
510.95	45123.19
511.12	44575.50
511.30	45036.59
511.47	45310.43
511.64	45148.93
511.82	45310.43
511.99	45214.47
512.17	45825.35
512.34	45205.11
512.51	45851.09
512.69	45949.40
512.86	45869.82
513.04	46270.05
513.21	46288.77
513.38	46586.02
513.56	46667.94
513.73	46534.53
513.90	46525.17
514.08	46759.22
514.25	46775.61
514.43	46967.53
514.60	47047.11
514.77	47091.58
514.95	47416.91
515.12	47150.09
515.29	47119.66
515.47	47271.80
515.64	47716.50
515.81	47882.68
515.99	48086.31
516.16	47892.04
516.33	47845.23
516.51	48638.67
516.68	48163.54
516.85	48435.05
517.03	48556.75
517.20	48858.68
517.37	48741.66
517.54	48261.85
517.72	48261.85
517.89	48624.63
518.06	49024.86
518.24	48996.77
518.41	48875.07
518.58	48989.75
518.75	48650.38
518.93	49525.74
519.10	48966.35
519.27	49483.61
519.45	49275.30
519.62	49413.39
519.79	49507.01
519.96	49483.61
520.14	49858.09
520.31	49799.58
520.48	50078.10
520.65	49860.43
520.83	49991.50
521.00	50464.29
521.17	50532.17
521.34	50478.33
521.52	50562.59
521.69	50440.89
521.86	50759.20
522.03	50571.96
522.20	51199.22
522.38	51150.07
522.55	51054.11
522.72	51016.66
522.89	50899.63
523.07	51414.55
523.24	51468.38
523.41	51746.90
523.58	51077.51
523.75	51564.34
523.92	51512.85
524.10	51805.42
524.27	51763.29
524.44	51880.31
524.61	51945.85
524.78	51765.63
524.96	51941.17
525.13	51971.60
525.30	52530.98
525.47	52224.37
525.64	52095.64
525.81	52397.57
525.98	52418.64
526.16	52093.30
526.33	52217.35
526.50	52631.63
526.67	52430.34
526.84	52678.44
527.01	52266.50
527.18	52612.90
527.36	52875.04
527.53	52664.39
527.70	53272.93
527.87	53123.14
528.04	52818.87
528.21	53071.65
528.38	52952.28
528.55	53422.73
528.72	52926.53
528.89	53027.18
529.07	53301.02
529.24	53137.18
529.41	53607.63
529.58	53446.13
529.75	53488.26
529.92	53418.05
530.09	53396.98
530.26	53829.98
530.43	53773.81
530.60	53490.60
530.77	53717.64
530.94	53872.11
531.11	53719.98
531.28	53841.68
531.46	53839.34
531.63	53970.41
531.80	53848.71
531.97	53961.05
532.14	54152.97
532.31	54206.81
532.48	54422.14
532.65	54223.19
532.82	54356.60
532.99	54658.53
533.16	54464.27
533.33	54527.46
533.50	54667.89
533.67	54693.64
533.84	54405.75
534.01	54539.16
534.18	54791.94
534.35	54831.73
534.52	54815.35
534.69	54866.84
534.86	54852.80
535.03	54822.37
535.20	54904.29
535.37	55161.75
535.54	55023.65
535.71	55037.70
535.88	55206.22
536.05	55096.21
536.22	55414.52
536.38	55377.08
536.55	55246.00
536.72	55360.69
536.89	55236.64
537.06	55374.73
537.23	55182.81
537.40	55344.31
537.57	55238.98
537.74	55620.49
537.91	55662.62
538.08	55955.19
538.25	55278.77
538.42	55671.98
538.59	56069.87
538.75	55182.81
538.92	55847.52
539.09	56016.04
539.26	55828.80
539.43	56135.41
539.60	55863.91
539.77	55934.12
539.94	56161.15
540.11	56030.08
540.28	56296.91
540.44	56041.79
540.61	56336.69
540.78	56175.20
540.95	56306.27
541.12	56051.15
541.29	56470.11
541.46	56317.97
541.62	56332.01
541.79	56591.81
541.96	56137.75
542.13	56425.64
542.30	56385.85
542.47	56708.84
542.63	56587.13
542.80	56947.57
542.97	56832.89
543.14	57279.93
543.31	56832.89
543.48	57141.84
543.64	57317.38
543.81	57345.47
543.98	57172.27
544.15	57169.93
544.32	57286.95
544.48	57415.68
544.65	56928.85
544.82	57069.28
544.99	57205.03
545.16	57176.95
545.32	57160.56
545.49	57638.03
545.66	57530.37
545.83	57528.03
546.00	57375.89
546.16	57429.72
546.33	57336.10
546.50	57235.46
546.67	57427.38
546.83	57319.72
547.00	57570.16
547.17	57350.15
547.34	57535.05
547.50	57797.19
547.67	57584.20
547.84	57712.93
548.00	57752.72
548.17	57979.75
548.34	57958.69
548.51	58190.40
548.67	58047.63
548.84	58103.80
549.01	57771.44
549.18	57951.66
549.34	57993.79
549.51	58164.65
549.68	58202.10
549.84	58190.40
550.01	58272.32
550.18	57998.48
550.34	58342.53
550.51	58328.49
550.68	58454.88
550.84	58024.22
551.01	58504.03
551.18	58333.17
551.34	58312.11
551.51	58377.64
551.68	58377.64
551.84	58543.82
552.01	58246.57
552.18	58307.43
552.34	58272.32
552.51	58389.34
552.68	58246.57
552.84	58422.11
553.01	58894.90
553.18	58738.08
553.34	58747.45
553.51	58607.01
553.67	58569.57
553.84	58864.47
554.01	58824.68
554.17	58969.80
554.34	58820.00
554.51	58719.36
554.67	58747.45
554.84	58824.68
555.00	58862.13
555.17	58913.62
555.33	58885.54
555.50	58937.03
555.67	58630.42
555.83	58920.65
556.00	59016.61
556.16	59016.61
556.33	59140.66
556.50	59054.06
556.66	59061.08
556.83	59107.89
556.99	59164.06
557.16	59325.56
557.32	59573.66
557.49	59508.12
557.65	59292.79
557.82	59215.55
557.98	59164.06
558.15	59173.42
558.32	59213.21
558.48	59224.92
558.65	59430.88
558.81	59290.45
558.98	59325.56
559.14	59491.74
559.31	59302.15
559.47	59412.16
559.64	59428.54
559.80	59475.35
559.97	59503.44
560.13	59444.93
560.30	59433.22
560.46	59690.68
560.63	59444.93
560.79	59643.87
560.96	59683.66
561.12	59704.73
561.29	59622.81
561.45	59749.20
561.61	59842.82
561.78	59501.10
561.94	59475.35
562.11	59693.02
562.27	59683.66
562.44	59791.33
562.60	59828.77
562.77	59484.72
562.93	59568.97
563.10	59739.83
563.26	59868.56
563.42	60060.49
563.59	59910.69
563.75	59702.38
563.92	59796.01
564.08	59737.49
564.24	59959.84
564.41	59959.84
564.57	59915.37
564.74	60133.04
564.90	59920.05
565.07	59835.80
565.23	59978.57
565.39	59985.59
565.56	60107.30
565.72	59915.37
565.88	60168.15
566.05	59917.71
566.21	60013.68
566.38	60186.88
566.54	60004.31
566.70	60161.13
566.87	60367.10
567.03	59852.18
567.19	60313.26
567.36	60191.56
567.52	60121.34
567.68	60509.87
567.85	60198.58
568.01	60360.08
568.17	60142.41
568.34	60126.02
568.50	60147.09
568.66	60142.41
568.83	60278.16
568.99	60341.35
569.15	60275.82
569.32	60207.94
569.48	60217.30
569.64	60156.45
569.81	60193.90
569.97	60004.31
570.13	60385.82
570.30	60154.11
570.46	60306.24
570.62	60392.84
570.78	60214.96
570.95	60275.82
571.11	60273.48
571.27	60481.78
571.43	60243.05
571.60	60449.02
571.76	60474.76
571.92	60493.49
572.09	60430.29
572.25	60383.48
572.41	60350.71
572.57	60498.17
572.74	60507.53
572.90	60254.75
573.06	60343.69
573.22	60456.04
573.38	60481.78
573.55	60420.93
573.71	60561.36
573.87	60439.65
574.03	60388.16
574.20	60507.53
574.36	60158.79
574.52	60432.63
574.68	60519.23
574.84	60701.79
575.01	60732.22
575.17	60533.28
575.33	60411.57
575.49	60568.38
575.65	60657.32
575.82	60350.71
575.98	60577.75
576.14	60816.48
576.30	60680.73
576.46	60500.51
576.62	60598.81
576.79	60680.73
576.95	60640.94
577.11	60643.28
577.27	60809.46
577.43	60755.63
577.59	60622.22
577.75	60486.46
577.92	60449.02
578.08	60622.22
578.24	60561.36
578.40	60767.33
578.56	60809.46
578.72	60463.06
578.88	60631.58
579.04	61041.17
579.21	60713.50
579.37	60760.31
579.53	60692.43
579.69	60591.79
579.85	60643.28
580.01	60680.73
580.17	60605.83
580.33	60884.36
580.49	60949.89
580.65	60692.43
580.82	60769.67
580.98	60530.93
581.14	60617.53
581.30	60893.72
581.46	60711.16
581.62	60921.80
581.78	60659.66
581.94	60708.82
582.10	60851.59
582.26	60748.60
582.42	60790.73
582.58	60767.33
582.74	60687.75
582.90	60544.98
583.06	60729.88
583.22	60669.03
583.38	60755.63
583.54	60786.05
583.70	60795.42
583.86	60935.85
584.02	60769.67
584.18	60940.53
584.34	60844.57
584.50	60729.88
584.66	60933.51
584.82	60729.88
584.98	61059.90
585.14	60912.44
585.30	60638.60
585.46	60982.66
585.62	60793.07
585.78	60886.70
585.94	60746.26
586.10	60802.44
586.26	60898.40
586.42	60877.33
586.58	60851.59
586.74	60832.86
586.90	60760.31
587.06	60739.24
587.22	61015.43
587.38	60926.49
587.54	60900.74
587.70	60994.36
587.86	60935.85
588.02	60811.80
588.18	61097.34
588.34	60718.18
588.49	60935.85
