SpectraSuite Data File
++++++++++++++++++++++++++++++++++++
Date: Fri Oct 25 10:48:13 EDT 2013
User: price-jones
Dark Spectrum Present: No
Reference Spectrum Present: No
Number of Sampled Component Spectra: 1
Spectrometers: USB2+H05261
Integration Time (usec): 100000 (USB2+H05261)
Spectra Averaged: 1 (USB2+H05261)
Boxcar Smoothing: 0 (USB2+H05261)
Correct for Electrical Dark: No (USB2+H05261)
Strobe/Lamp Enabled: No (USB2+H05261)
Correct for Detector Non-linearity: No (USB2+H05261)
Correct for Stray Light: No (USB2+H05261)
Number of Pixels in Processed Spectrum: 2048
>>>>>Begin Processed Spectral Data<<<<<
365.73	133.41
365.92	133.41
366.12	133.41
366.32	91.28
366.52	23.41
366.72	53.83
366.91	30.43
367.11	86.60
367.31	44.47
367.51	72.56
367.70	53.83
367.90	91.28
368.10	23.41
368.30	11.70
368.49	93.62
368.69	21.06
368.89	121.71
369.09	42.13
369.28	88.94
369.48	112.35
369.68	138.09
369.87	126.39
370.07	121.71
370.27	114.69
370.47	238.73
370.66	393.21
370.86	414.27
371.06	475.13
371.25	528.96
371.45	416.62
371.65	393.21
371.84	411.93
372.04	418.96
372.24	479.81
372.44	470.45
372.63	507.90
372.83	519.60
373.03	524.28
373.22	465.77
373.42	524.28
373.62	512.58
373.81	564.07
374.01	545.34
374.21	461.09
374.40	615.56
374.60	566.41
374.79	512.58
374.99	629.60
375.19	510.24
375.38	671.73
375.58	594.50
375.78	589.82
375.97	561.73
376.17	636.63
376.37	528.96
376.56	596.84
376.76	699.82
376.95	561.73
377.15	599.18
377.35	678.76
377.54	568.75
377.74	547.69
377.93	594.50
378.13	629.60
378.33	594.50
378.52	685.78
378.72	674.07
378.91	629.60
379.11	622.58
379.31	613.22
379.50	521.94
379.70	681.10
379.89	720.88
380.09	624.92
380.28	601.52
380.48	636.63
380.68	587.47
380.87	634.29
381.07	669.39
381.26	695.14
381.46	636.63
381.65	641.31
381.85	613.22
382.04	653.01
382.24	727.91
382.43	678.76
382.63	596.84
382.83	706.84
383.02	779.40
383.22	760.67
383.41	767.70
383.61	650.67
383.80	709.18
384.00	709.18
384.19	653.01
384.39	779.40
384.58	800.46
384.78	786.42
384.97	814.51
385.17	734.93
385.36	755.99
385.56	751.31
385.75	777.06
385.95	788.76
386.14	802.80
386.34	809.83
386.53	795.78
386.72	821.53
386.92	814.51
387.11	823.87
387.31	837.91
387.50	868.34
387.70	638.97
387.89	760.67
388.09	765.36
388.28	842.59
388.48	844.93
388.67	828.55
388.86	816.85
389.06	898.77
389.25	837.91
389.45	959.62
389.64	898.77
389.84	912.81
390.03	901.11
390.22	894.08
390.42	983.02
390.61	898.77
390.81	835.57
391.00	994.73
391.19	961.96
391.39	997.07
391.58	992.39
391.78	1039.20
391.97	1029.84
392.16	910.47
392.36	1027.50
392.55	1020.47
392.75	957.28
392.94	985.37
393.13	973.66
393.33	940.90
393.52	933.87
393.71	1020.47
393.91	1086.01
394.10	997.07
394.29	1078.99
394.49	1018.13
394.68	1121.12
394.88	1060.26
395.07	1114.10
395.26	1170.27
395.46	1151.54
395.65	1188.99
395.84	1146.86
396.04	1191.33
396.23	1151.54
396.42	1043.88
396.62	1043.88
396.81	1107.07
397.00	1275.59
397.19	1287.29
397.39	1210.06
397.58	1317.72
397.77	1259.21
397.97	1198.35
398.16	1275.59
398.35	1313.04
398.55	1256.87
398.74	1376.24
398.93	1357.51
399.12	1308.36
399.32	1416.02
399.51	1327.08
399.70	1451.13
399.90	1341.13
400.09	1493.26
400.28	1495.60
400.47	1458.15
400.67	1493.26
400.86	1469.86
401.05	1479.22
401.24	1476.88
401.44	1528.37
401.63	1540.07
401.82	1582.20
402.01	1537.73
402.21	1519.01
402.40	1533.05
402.59	1558.80
402.78	1631.35
402.97	1521.35
403.17	1619.65
403.36	1533.05
403.55	1666.46
403.74	1671.14
403.93	1671.14
404.13	1727.32
404.32	1743.70
404.51	1703.91
404.70	1717.95
404.89	1696.89
405.09	1839.66
405.28	1788.17
405.47	1799.87
405.66	1795.19
405.85	1753.06
406.05	1706.25
406.24	1753.06
406.43	1893.49
406.62	1907.54
406.81	1886.47
407.00	1874.77
407.20	1914.56
407.39	1970.73
407.58	1902.86
407.77	2008.18
407.96	1982.43
408.15	1991.80
408.34	2094.78
408.54	2064.35
408.73	2047.97
408.92	2125.21
409.11	2029.24
409.30	2038.61
409.49	2064.35
409.68	1952.01
409.87	2085.42
410.07	2092.44
410.26	2108.82
410.45	2139.25
410.64	2183.72
410.83	2218.83
411.02	2216.49
411.21	2420.11
411.40	2310.11
411.59	2424.80
411.78	2289.04
411.98	2272.66
412.17	2382.67
412.36	2293.72
412.55	2420.11
412.74	2422.45
412.93	2513.74
413.12	2403.73
413.31	2523.10
413.50	2516.08
413.69	2473.95
413.88	2649.49
414.07	2574.59
414.26	2539.48
414.45	2705.66
414.64	2579.27
414.83	2700.98
415.02	2722.04
415.22	2757.15
415.41	2794.60
415.60	2757.15
415.79	2822.69
415.98	2895.24
416.17	3026.31
416.36	2892.90
416.55	2942.05
416.74	2916.31
416.93	3028.65
417.12	3047.38
417.31	2902.26
417.50	2787.58
417.69	3028.65
417.88	3133.98
418.07	3152.70
418.26	3110.57
418.45	3009.93
418.64	3260.37
418.83	3162.06
419.02	3243.98
419.21	3220.58
419.39	3351.65
419.58	3103.55
419.77	3194.83
419.96	3187.81
420.15	3382.07
420.34	3419.52
420.53	3405.48
420.72	3407.82
420.91	3431.23
421.10	3442.93
421.29	3461.65
421.48	3363.35
421.67	3588.04
421.86	3438.25
422.05	3452.29
422.24	3506.12
422.43	3428.88
422.61	3613.79
422.80	3569.32
422.99	3529.53
423.18	3623.15
423.37	3517.83
423.56	3566.98
423.75	3566.98
423.94	3595.06
424.13	3304.84
424.32	3379.73
424.50	3545.91
424.69	3784.65
424.88	3733.15
425.07	3545.91
425.26	3515.48
425.45	3545.91
425.64	3676.98
425.83	3662.94
426.01	3709.75
426.20	3625.49
426.39	3597.40
426.58	3653.58
426.77	3510.80
426.96	3679.32
427.15	3744.86
427.33	3779.97
427.52	3695.71
427.71	3789.33
427.90	3726.13
428.09	3728.47
428.28	3852.52
428.46	3829.12
428.65	3749.54
428.84	3716.77
429.03	3929.76
429.22	3791.67
429.40	3953.16
429.59	3847.84
429.78	3791.67
429.97	3693.37
430.16	3669.96
430.34	3672.30
430.53	3857.20
430.72	3960.19
430.91	3901.67
431.10	3873.59
431.28	4007.00
431.47	4217.65
431.66	4222.33
431.85	4095.94
432.03	4093.60
432.22	4344.03
432.41	4175.52
432.60	4203.60
432.79	4325.31
432.97	4388.50
433.16	4379.14
433.35	4379.14
433.54	4227.01
433.72	4327.65
433.91	4320.63
434.10	4344.03
434.28	4381.48
434.47	4484.47
434.66	4416.59
434.85	4475.10
435.03	4521.92
435.22	4671.71
435.41	4638.94
435.59	4706.82
435.78	4580.43
435.97	4601.49
436.16	4723.20
436.34	4702.14
436.53	4741.93
436.72	4692.77
436.90	4730.22
437.09	4685.75
437.28	4636.60
437.46	4561.70
437.65	4739.58
437.84	4683.41
438.02	4830.87
438.21	4704.48
438.40	4765.33
438.58	4931.51
438.77	4926.83
438.96	4903.42
439.14	5018.11
439.33	5085.98
439.52	5231.10
439.70	5039.17
439.89	5078.96
440.08	5294.29
440.26	5200.67
440.45	5217.05
440.63	5357.49
440.82	5401.96
441.01	5282.59
441.19	5371.53
441.38	5444.09
441.57	5521.32
441.75	5561.11
441.94	5731.97
442.12	5603.24
442.31	5561.11
442.50	5643.03
442.68	5614.95
442.87	5699.20
443.05	5682.82
443.24	5727.29
443.43	5762.40
443.61	5781.12
443.80	5987.09
443.98	5839.64
444.17	5610.26
444.35	5797.51
444.54	5914.53
444.73	5879.43
444.91	5830.27
445.10	5863.04
445.28	5844.32
445.47	5802.19
445.65	5905.17
445.84	5937.94
446.02	5947.30
446.21	6010.50
446.39	5827.93
446.58	6017.52
446.77	6022.20
446.95	5900.49
447.14	6052.63
447.32	6029.22
447.51	6019.86
447.69	6008.16
447.88	6183.70
448.06	5961.34
448.25	5902.83
448.43	6200.08
448.62	6195.40
448.80	5980.07
448.99	6167.31
449.17	6352.21
449.36	5996.45
449.54	6239.87
449.73	6569.88
449.91	6265.61
450.10	6333.49
450.28	6509.03
450.46	6410.73
450.65	6707.98
450.83	6462.22
451.02	6450.52
451.20	6586.27
451.39	6663.51
451.57	6558.18
451.76	6574.56
451.94	6464.56
452.13	6520.73
452.31	6595.63
452.49	6389.66
452.68	6630.74
452.86	6689.25
453.05	6775.85
453.23	6544.14
453.42	6722.02
453.60	6803.94
453.78	6892.88
453.97	6630.74
454.15	6579.25
454.34	6743.08
454.52	6757.13
454.70	6906.92
454.89	6932.67
455.07	7012.24
455.26	6942.03
455.44	6984.16
455.62	7101.19
455.81	6965.43
455.99	7225.23
456.17	7082.46
456.36	6998.20
456.54	7040.33
456.73	7309.49
456.91	7588.02
457.09	7222.89
457.28	7501.42
457.46	7178.42
457.64	7468.65
457.83	7136.29
458.01	7178.42
458.19	7513.12
458.38	7335.24
458.56	7660.57
458.74	7492.05
458.93	7391.41
459.11	7524.82
459.29	7566.95
459.48	7632.49
459.66	7482.69
459.84	7522.48
460.03	8006.97
460.21	7843.14
460.39	7707.38
460.57	7840.79
460.76	7639.51
460.94	7808.03
461.12	7887.61
461.31	7983.57
461.49	7845.48
461.67	7957.82
461.85	8021.02
462.04	7903.99
462.22	8430.61
462.40	8084.21
462.59	8063.15
462.77	8121.66
462.95	8046.76
463.13	8177.83
463.32	7990.59
463.50	8056.12
463.68	8091.23
463.86	8084.21
464.05	8182.51
464.23	8262.09
464.41	8266.77
464.59	8070.17
464.78	8416.57
464.96	8264.43
465.14	8259.75
465.32	8568.70
465.50	8353.37
465.69	8435.29
465.87	8390.82
466.05	8519.55
466.23	8341.67
466.41	8423.59
466.60	8767.65
466.78	8297.20
466.96	8552.32
467.14	8566.36
467.32	8816.80
467.51	8617.85
467.69	8512.53
467.87	8725.52
468.05	8500.83
468.23	8669.34
468.41	8554.66
468.60	8777.01
468.78	9076.60
468.96	8692.75
469.14	8786.37
469.32	8884.67
469.50	8699.77
469.69	8861.27
469.87	9006.38
470.05	9076.60
470.23	8896.38
470.41	9029.79
470.59	9202.99
470.77	9116.39
470.95	9034.47
471.14	9469.81
471.32	9083.62
471.50	9490.87
471.68	9268.52
471.86	9355.12
472.04	9430.02
472.22	9504.92
472.40	9364.48
472.58	9430.02
472.77	9659.39
472.95	9699.18
473.13	9980.04
473.31	9673.43
473.49	9638.33
473.67	9521.30
473.85	9757.69
474.03	10068.98
474.21	9893.44
474.39	10092.39
474.57	10047.92
474.75	10047.92
474.93	10399.00
475.12	10155.58
475.30	10174.31
475.48	10225.80
475.66	10338.15
475.84	10326.44
476.02	10162.61
476.20	10717.31
476.38	10714.97
476.56	10897.53
476.74	10834.34
476.92	10869.45
477.10	10857.75
477.28	11154.99
477.46	11026.26
477.64	11220.53
477.82	11204.14
478.00	11431.18
478.18	11543.52
478.36	11576.29
478.54	11665.23
478.72	11674.59
478.90	11688.64
479.08	12184.83
479.26	11925.03
479.44	12046.74
479.62	12109.93
479.80	12229.30
479.98	12395.48
480.16	12472.71
480.34	12285.47
480.52	12493.78
480.70	12650.60
480.88	12594.42
481.06	12837.84
481.24	12905.71
481.41	13069.55
481.59	13287.22
481.77	12933.80
481.95	13322.33
482.13	13324.67
482.31	13322.33
482.49	13532.98
482.67	13671.07
482.85	13668.73
483.03	14059.60
483.21	13844.27
483.39	14183.65
483.57	14197.69
483.74	14307.69
483.92	14331.10
484.10	14307.69
484.28	14597.92
484.46	14717.29
484.64	14923.26
484.82	14846.02
485.00	15005.17
485.18	15194.76
485.35	15403.07
485.53	15253.27
485.71	15023.90
485.89	15351.57
486.07	15396.04
486.25	15452.22
486.43	15726.06
486.61	15723.72
486.78	15932.03
486.96	15976.50
487.14	16449.28
487.32	16587.38
487.50	16655.25
487.68	16954.84
487.85	16774.62
488.03	16954.84
488.21	17247.41
488.39	17422.95
488.57	17530.61
488.75	17378.48
488.92	17635.94
489.10	17720.20
489.28	17729.56
489.46	18609.60
489.64	18260.86
489.81	18586.19
489.99	18707.90
490.17	18459.81
490.35	18757.05
490.53	18586.19
490.70	18867.06
490.88	18527.68
491.06	19239.20
491.24	19080.05
491.41	19515.39
491.59	19440.49
491.77	19660.50
491.95	19508.37
492.13	19920.30
492.30	20149.67
492.48	19950.73
492.66	19943.70
492.84	20053.71
493.01	20596.71
493.19	20465.64
493.37	20453.94
493.54	20470.33
493.72	20954.82
493.90	21013.33
494.08	21324.62
494.25	21495.48
494.43	21542.29
494.61	21603.14
494.79	21614.85
494.96	21902.73
495.14	21729.53
495.32	22085.30
495.49	22057.21
495.67	22148.49
495.85	22424.67
496.02	22338.07
496.20	22696.17
496.38	22675.11
496.55	22792.14
496.73	23447.49
496.91	22817.88
497.09	23190.03
497.26	23360.89
497.44	23447.49
497.62	23250.88
497.79	23669.84
497.97	23431.10
498.14	23866.44
498.32	23627.71
498.50	23850.06
498.67	24025.60
498.85	24322.85
499.03	24477.32
499.20	24339.23
499.38	24243.27
499.56	24404.77
499.73	24830.74
499.91	24636.48
500.08	24907.98
500.26	24545.20
500.44	25043.73
500.61	25177.14
500.79	24835.42
500.97	25085.86
501.14	25617.16
501.32	25233.32
501.49	25429.92
501.67	25507.16
501.84	25600.78
502.02	25425.24
502.20	26078.25
502.37	25972.92
502.55	25905.05
502.72	25717.81
502.90	26155.49
503.07	26263.15
503.25	26295.92
503.43	26246.77
503.60	26412.95
503.78	26551.04
503.95	26787.43
504.13	26529.97
504.30	26642.32
504.48	26677.43
504.65	26780.41
504.83	27171.28
505.01	27154.90
505.18	27562.15
505.36	27484.91
505.53	27260.22
505.71	27934.29
505.88	27733.01
506.06	27225.11
506.23	27456.82
506.41	27487.25
506.58	27536.40
506.76	27990.47
506.93	28011.53
507.11	27541.08
507.28	28098.13
507.46	28271.33
507.63	28093.45
507.81	28294.74
507.98	28226.86
508.16	28435.17
508.33	28790.93
508.50	28814.34
508.68	28744.12
508.85	28774.55
509.03	29083.50
509.20	29172.44
509.38	29193.50
509.55	29408.83
509.73	29123.29
509.90	29160.73
510.08	29432.24
510.25	29399.47
510.42	29659.27
510.60	29776.30
510.77	29670.97
510.95	29795.02
511.12	29879.28
511.30	30216.32
511.47	30616.55
511.64	30520.59
511.82	30562.72
511.99	30148.44
512.17	30593.14
512.34	30597.82
512.51	30801.45
512.69	31049.55
512.86	30986.35
513.04	31108.06
513.21	31065.93
513.38	30946.56
513.56	31075.29
513.73	31091.68
513.90	31307.01
514.08	31232.11
514.25	31398.29
514.43	31119.76
514.60	31505.95
514.77	31531.70
514.95	31622.98
515.12	31421.69
515.29	31747.03
515.47	32329.82
515.64	31814.90
515.81	31971.72
515.99	32095.77
516.16	31892.14
516.33	31842.99
516.51	32568.55
516.68	31756.39
516.85	31721.28
517.03	31992.78
517.20	32016.19
517.37	32418.76
517.54	32484.30
517.72	32439.82
517.89	32552.17
518.06	32294.71
518.24	32275.99
518.41	32479.61
518.58	32753.46
518.75	32620.05
518.93	33205.18
519.10	32554.51
519.27	32769.84
519.45	33123.26
519.62	33008.58
519.79	33083.47
519.96	33436.89
520.14	33792.65
520.31	33619.46
520.48	33759.89
520.65	33848.83
520.83	34141.39
521.00	33907.34
521.17	33759.89
521.34	33954.15
521.52	34005.64
521.69	34440.98
521.86	34288.85
522.03	34377.79
522.20	34771.00
522.38	34838.87
522.55	34581.42
522.72	34415.24
522.89	34471.41
523.07	34553.33
523.24	34485.45
523.41	34621.20
523.58	34792.06
523.75	35213.36
523.92	35433.37
524.10	35089.31
524.27	35253.15
524.44	35283.58
524.61	35166.55
524.78	35091.65
524.96	35637.00
525.13	35526.99
525.30	35880.41
525.47	35920.20
525.64	35653.38
525.81	36025.53
525.98	35707.21
526.16	35456.78
526.33	35480.18
526.50	35903.82
526.67	35566.78
526.84	35672.10
527.01	35562.10
527.18	36233.83
527.36	36205.75
527.53	36407.03
527.70	36580.23
527.87	36566.19
528.04	36397.67
528.21	36343.84
528.38	36252.56
528.55	36542.78
528.72	36835.35
528.89	37284.73
529.07	36769.82
529.24	36409.37
529.41	36933.65
529.58	36711.30
529.75	36804.92
529.92	36938.33
530.09	37174.73
530.26	37642.84
530.43	37118.56
530.60	37090.47
530.77	37474.32
530.94	37123.24
531.11	37474.32
531.28	37329.20
531.46	37324.52
531.63	37912.00
531.80	37612.41
531.97	37481.34
532.14	37752.84
532.31	37593.68
532.48	37820.72
532.65	37872.21
532.82	37942.42
532.99	38258.40
533.16	38057.11
533.33	38209.25
533.50	38288.82
533.67	38096.90
533.84	37617.09
534.01	38202.22
534.18	38223.29
534.35	38464.36
534.52	37993.92
534.69	38501.81
534.86	38731.18
535.03	38160.09
535.20	38518.20
535.37	38930.13
535.54	38876.30
535.71	38726.50
535.88	38731.18
536.05	38508.83
536.22	38869.28
536.38	38808.42
536.55	38960.56
536.72	38724.16
536.89	38560.33
537.06	39037.80
537.23	39079.92
537.40	39044.82
537.57	39208.65
537.74	38876.30
537.91	39489.52
538.08	39063.54
538.25	38969.92
538.42	39072.90
538.59	39739.96
538.75	38918.43
538.92	39543.35
539.09	39777.40
539.26	39564.42
539.43	39505.90
539.60	39660.38
539.77	39164.18
539.94	39529.31
540.11	39515.26
540.28	39433.35
540.44	39484.84
540.61	39538.67
540.78	39966.99
540.95	39845.28
541.12	39782.09
541.29	39880.39
541.46	39938.90
541.62	40170.61
541.79	40432.75
541.96	39920.18
542.13	40699.58
542.30	40531.06
542.47	40222.11
542.63	40348.50
542.80	40376.58
542.97	40652.76
543.14	41287.05
543.31	40629.36
543.48	40528.72
543.64	41476.63
543.81	40999.16
543.98	40573.19
544.15	41071.72
544.32	40952.35
544.48	41144.28
544.65	41448.55
544.82	41301.09
544.99	40641.06
545.16	41371.31
545.32	40989.80
545.49	41525.78
545.66	41500.04
545.83	41202.79
546.00	41790.27
546.16	41413.44
546.33	41165.34
546.50	40987.46
546.67	41078.74
546.83	41144.28
547.00	41331.52
547.17	41411.10
547.34	41375.99
547.50	41656.85
547.67	41900.27
547.84	41998.57
548.00	41888.57
548.17	42209.22
548.34	41436.84
548.51	41560.89
548.67	42160.07
548.84	41830.05
549.01	42014.96
549.18	41837.08
549.34	42103.90
549.51	42216.24
549.68	42129.64
549.84	42117.94
550.01	42515.83
550.18	41940.06
550.34	42211.56
550.51	41731.75
550.68	42029.00
550.84	41518.76
551.01	42066.45
551.18	42539.24
551.34	42426.89
551.51	42199.86
551.68	42344.97
551.84	42756.91
552.01	42408.17
552.18	42532.22
552.34	42024.32
552.51	42841.17
552.68	42450.30
552.84	43063.52
553.01	43175.86
553.18	42419.87
553.34	42618.81
553.51	42490.09
553.67	42857.55
553.84	43159.48
554.01	42913.72
554.17	43168.84
554.34	43283.53
554.51	43309.27
554.67	43297.57
554.84	43239.06
555.00	42892.66
555.17	42801.38
555.33	43330.34
555.50	43267.14
555.67	43129.05
555.83	43014.37
556.00	43372.47
556.16	43569.07
556.33	43423.96
556.50	43548.01
556.66	43283.53
556.83	42974.58
556.99	43339.70
557.16	43196.93
557.32	43491.83
557.49	43662.69
557.65	43246.08
557.82	43316.29
557.98	43679.08
558.15	43728.23
558.32	43225.01
558.48	44009.09
558.65	43042.45
558.81	43150.12
558.98	43510.56
559.14	43318.64
559.31	43915.47
559.47	43779.72
559.64	44041.86
559.80	43990.37
559.97	43650.99
560.13	43611.20
560.30	43627.59
560.46	43915.47
560.63	43662.69
560.79	43744.61
560.96	44119.10
561.12	43922.49
561.29	43892.07
561.45	44182.29
561.61	43969.30
561.78	44247.83
561.94	43899.09
562.11	43632.27
562.27	43615.88
562.44	44006.75
562.60	43873.34
562.77	44341.45
562.93	43901.43
563.10	44463.16
563.26	44044.20
563.42	44194.00
563.59	44296.98
563.75	44081.65
563.92	44208.04
564.08	44383.58
564.24	44376.56
564.41	44243.15
564.57	44479.54
564.74	44409.32
564.90	44238.47
565.07	44369.54
565.23	43929.51
565.39	43934.20
565.56	44177.61
565.72	43941.22
565.88	44076.97
566.05	43856.96
566.21	44215.06
566.38	44236.12
566.54	43959.94
566.70	44477.20
566.87	44865.73
567.03	44638.70
567.19	44711.25
567.36	44367.20
567.52	44257.19
567.68	44645.72
567.85	44414.01
568.01	45024.89
568.17	44336.77
568.34	44409.32
568.50	44362.51
568.66	44236.12
568.83	44460.82
568.99	44460.82
569.15	44397.62
569.32	44219.74
569.48	44336.77
569.64	44395.28
569.81	44538.05
569.97	44912.54
570.13	44271.23
570.30	44336.77
570.46	44329.75
570.62	44065.27
570.78	44364.85
570.95	44371.88
571.11	44535.71
571.27	44439.75
571.43	44584.86
571.60	44823.60
571.76	44685.51
571.92	44245.49
572.09	44580.18
572.25	44655.08
572.41	44863.39
572.57	44584.86
572.74	45518.74
572.90	44683.17
573.06	44844.66
573.22	45001.48
573.38	44879.77
573.55	44437.41
573.71	44755.72
573.87	44957.01
574.03	44685.51
574.20	44987.44
574.36	44439.75
574.52	44385.92
574.68	44673.81
574.84	44961.69
575.01	44666.78
575.17	44430.39
575.33	44727.64
575.49	44465.50
575.65	44825.94
575.82	44940.63
575.98	44687.85
576.14	44615.29
576.30	45085.74
576.46	45109.14
576.62	45029.57
576.79	44851.69
576.95	44194.00
577.11	44655.08
577.27	44839.98
577.43	44940.63
577.59	44538.05
577.75	44933.60
577.92	44229.10
578.08	44720.62
578.24	44531.03
578.40	44903.18
578.56	44589.55
578.72	44762.75
578.88	45041.27
579.04	44947.65
579.21	44837.64
579.37	44610.61
579.53	44657.42
579.69	44460.82
579.85	44772.11
580.01	44896.16
580.17	44753.38
580.33	45261.28
580.49	45118.51
580.65	45340.86
580.82	44849.35
580.98	44622.31
581.14	44669.12
581.30	45202.77
581.46	45062.33
581.62	44931.26
581.78	45017.86
581.94	44921.90
582.10	44790.83
582.26	45043.61
582.42	44680.83
582.58	44938.29
582.74	44643.38
582.90	44847.00
583.06	45397.03
583.22	45008.50
583.38	45516.40
583.54	44842.32
583.70	45006.16
583.86	44664.44
584.02	44364.85
584.18	44533.37
584.34	45085.74
584.50	44708.91
584.66	44847.00
584.82	44898.50
584.98	45083.40
585.14	45420.44
585.30	44875.09
585.46	45202.77
585.62	44999.14
585.78	44851.69
585.94	44652.74
586.10	44704.23
586.26	44753.38
586.42	45209.79
586.58	45212.13
586.74	44491.24
586.90	45064.67
587.06	44708.91
587.22	45359.58
587.38	45034.25
587.54	45001.48
587.70	45235.53
587.86	45118.51
588.02	45329.16
588.18	45338.52
588.34	44928.92
588.49	44634.02
588.65	44837.64
588.81	44786.15
588.97	44879.77
589.13	44760.40
589.29	44889.13
589.45	45146.59
589.61	45191.06
589.77	45071.70
589.93	45343.20
590.08	45263.62
590.24	45317.45
