SpectraSuite Data File
++++++++++++++++++++++++++++++++++++
Date: Fri Oct 25 10:44:50 EDT 2013
User: price-jones
Dark Spectrum Present: No
Reference Spectrum Present: No
Number of Sampled Component Spectra: 1
Spectrometers: USB2+H05261
Integration Time (usec): 100000 (USB2+H05261)
Spectra Averaged: 1 (USB2+H05261)
Boxcar Smoothing: 0 (USB2+H05261)
Correct for Electrical Dark: No (USB2+H05261)
Strobe/Lamp Enabled: No (USB2+H05261)
Correct for Detector Non-linearity: No (USB2+H05261)
Correct for Stray Light: No (USB2+H05261)
Number of Pixels in Processed Spectrum: 2048
>>>>>Begin Processed Spectral Data<<<<<
365.73	163.84
365.92	163.84
366.12	163.84
366.32	14.04
366.52	53.83
366.72	35.11
366.91	9.36
367.11	0.00
367.31	88.94
367.51	0.00
367.70	9.36
367.90	0.00
368.10	35.11
368.30	0.00
368.49	60.85
368.69	95.96
368.89	74.90
369.09	51.49
369.28	44.47
369.48	56.17
369.68	79.58
369.87	102.98
370.07	79.58
370.27	81.92
370.47	173.20
370.66	369.80
370.86	386.19
371.06	456.40
371.25	503.22
371.45	433.00
371.65	411.93
371.84	423.64
372.04	451.72
372.24	383.85
372.44	475.13
372.63	493.85
372.83	440.02
373.03	507.90
373.22	402.57
373.42	430.66
373.62	543.00
373.81	524.28
374.01	463.43
374.21	580.45
374.40	540.66
374.60	535.98
374.79	519.60
374.99	578.11
375.19	557.05
375.38	573.43
375.58	498.53
375.78	610.88
375.97	580.45
376.17	667.05
376.37	620.24
376.56	566.41
376.76	505.56
376.95	533.64
377.15	587.47
377.35	636.63
377.54	531.30
377.74	545.34
377.93	620.24
378.13	585.13
378.33	662.37
378.52	594.50
378.72	690.46
378.91	566.41
379.11	594.50
379.31	617.90
379.50	608.54
379.70	702.16
379.89	709.18
380.09	559.39
380.28	638.97
380.48	641.31
380.68	657.69
380.87	669.39
381.07	624.92
381.26	718.54
381.46	678.76
381.65	603.86
381.85	650.67
382.04	589.82
382.24	716.20
382.43	667.05
382.63	641.31
382.83	660.03
383.02	660.03
383.22	786.42
383.41	725.57
383.61	608.54
383.80	802.80
384.00	702.16
384.19	674.07
384.39	758.33
384.58	711.52
384.78	653.01
384.97	727.91
385.17	739.61
385.36	685.78
385.56	725.57
385.75	732.59
385.95	674.07
386.14	800.46
386.34	723.23
386.53	744.29
386.72	795.78
386.92	791.10
387.11	800.46
387.31	786.42
387.50	734.93
387.70	753.65
387.89	798.12
388.09	788.76
388.28	837.91
388.48	868.34
388.67	875.36
388.86	847.27
389.06	884.72
389.25	954.94
389.45	868.34
389.64	919.83
389.84	926.85
390.03	912.81
390.22	954.94
390.42	957.28
390.61	896.43
390.81	880.04
391.00	1029.84
391.19	997.07
391.39	929.19
391.58	1020.47
391.78	947.92
391.97	1041.54
392.16	924.51
392.36	910.47
392.55	945.58
392.75	983.02
392.94	898.77
393.13	929.19
393.33	952.60
393.52	947.92
393.71	987.71
393.91	1004.09
394.10	1057.92
394.29	1069.62
394.49	978.34
394.68	1086.01
394.88	1111.75
395.07	1097.71
395.26	1139.84
395.46	1074.31
395.65	1205.38
395.84	1125.80
396.04	1137.50
396.23	1095.37
396.42	1090.69
396.62	1174.95
396.81	1100.05
397.00	1177.29
397.19	1214.74
397.39	1268.57
397.58	1214.74
397.77	1163.25
397.97	1299.00
398.16	1224.10
398.35	1366.87
398.55	1289.64
398.74	1416.02
398.93	1310.70
399.12	1301.34
399.32	1322.40
399.51	1324.74
399.70	1350.49
399.90	1359.85
400.09	1406.66
400.28	1425.39
400.47	1516.67
400.67	1451.13
400.86	1486.24
401.05	1418.36
401.24	1521.35
401.44	1465.18
401.63	1544.75
401.82	1472.20
402.01	1455.81
402.21	1570.50
402.40	1504.96
402.59	1514.33
402.78	1511.99
402.97	1542.41
403.17	1596.25
403.36	1647.74
403.55	1696.89
403.74	1732.00
403.93	1621.99
404.13	1584.54
404.32	1621.99
404.51	1619.65
404.70	1748.38
404.89	1640.72
405.09	1802.21
405.28	1715.61
405.47	1813.92
405.66	1795.19
405.85	1783.49
406.05	1739.02
406.24	1823.28
406.43	1856.04
406.62	1837.32
406.81	1724.97
407.00	1909.88
407.20	1895.83
407.39	1797.53
407.58	1877.11
407.77	1895.83
407.96	1944.99
408.15	1998.82
408.34	1912.22
408.54	1952.01
408.73	2038.61
408.92	1994.14
409.11	2087.76
409.30	2066.69
409.49	2036.27
409.68	2022.22
409.87	2005.84
410.07	2113.50
410.26	2143.93
410.45	2169.68
410.64	2228.19
410.83	2188.40
411.02	2223.51
411.21	2289.04
411.40	2284.36
411.59	2377.98
411.78	2333.51
411.98	2296.07
412.17	2221.17
412.36	2413.09
412.55	2356.92
412.74	2546.50
412.93	2476.29
413.12	2380.32
413.31	2497.35
413.50	2448.20
413.69	2553.52
413.88	2466.92
414.07	2502.03
414.26	2642.46
414.45	2642.46
414.64	2602.68
414.83	2677.57
415.02	2700.98
415.22	2754.81
415.41	2736.09
415.60	2818.00
415.79	2979.50
415.98	2871.84
416.17	2806.30
416.36	2949.08
416.55	2967.80
416.74	2778.22
416.93	2810.98
417.12	2897.58
417.31	3023.97
417.50	3122.27
417.69	3143.34
417.88	3019.29
418.07	3091.85
418.26	3187.81
418.45	3082.49
418.64	3208.87
418.83	3262.71
419.02	3190.15
419.21	3302.50
419.39	3208.87
419.58	3241.64
419.77	3117.59
419.96	3262.71
420.15	3269.73
420.34	3314.20
420.53	3398.46
420.72	3382.07
420.91	3346.97
421.10	3417.18
421.29	3452.29
421.48	3485.06
421.67	3471.01
421.86	3375.05
422.05	3391.44
422.24	3316.54
422.43	3358.67
422.61	3417.18
422.80	3557.61
422.99	3506.12
423.18	3618.47
423.37	3557.61
423.56	3552.93
423.75	3599.74
423.94	3531.87
424.13	3349.31
424.32	3492.08
424.50	3681.66
424.69	3557.61
424.88	3763.58
425.07	3625.49
425.26	3454.63
425.45	3510.80
425.64	3583.36
425.83	3585.70
426.01	3592.72
426.20	3562.30
426.39	3632.51
426.58	3583.36
426.77	3613.79
426.96	3730.81
427.15	3698.05
427.33	3761.24
427.52	3623.15
427.71	3733.15
427.90	3847.84
428.09	3770.60
428.28	3801.03
428.46	3786.99
428.65	3829.12
428.84	3875.93
429.03	3749.54
429.22	3779.97
429.40	3850.18
429.59	3784.65
429.78	3726.13
429.97	3538.89
430.16	3772.94
430.34	3730.81
430.53	3812.73
430.72	3927.42
430.91	3901.67
431.10	3906.35
431.28	4021.04
431.47	4131.05
431.66	4184.88
431.85	4039.76
432.03	4294.88
432.22	4243.39
432.41	4229.35
432.60	4229.35
432.79	4306.59
432.97	4313.61
433.16	4273.82
433.35	4117.00
433.54	4273.82
433.72	4250.41
433.91	4074.87
434.10	4269.14
434.28	4393.19
434.47	4383.82
434.66	4369.78
434.85	4390.84
435.03	4622.56
435.22	4461.06
435.41	4610.86
435.59	4379.14
435.78	4552.34
435.97	4606.17
436.16	4643.62
436.34	4784.06
436.53	4676.39
436.72	4793.42
436.90	4624.90
437.09	4681.07
437.28	4622.56
437.46	4683.41
437.65	4748.95
437.84	4746.61
438.02	4863.63
438.21	4669.37
438.40	4814.48
438.58	5018.11
438.77	4875.34
438.96	4964.28
439.14	4987.68
439.33	5116.41
439.52	5151.52
439.70	5144.50
439.89	5165.56
440.08	5181.95
440.26	5142.16
440.45	5224.08
440.63	5233.44
440.82	5296.63
441.01	5406.64
441.19	5476.85
441.38	5474.51
441.57	5556.43
441.75	5537.71
441.94	5603.24
442.12	5607.92
442.31	5863.04
442.50	5748.36
442.68	5694.52
442.87	5741.33
443.05	5771.76
443.24	5863.04
443.43	5844.32
443.61	5902.83
443.80	5687.50
443.98	5755.38
444.17	5514.30
444.35	5827.93
444.54	5900.49
444.73	5870.06
444.91	5884.11
445.10	5912.19
445.28	5830.27
445.47	5813.89
445.65	5778.78
445.84	6050.28
446.02	5951.98
446.21	5856.02
446.39	5865.38
446.58	6057.31
446.77	5987.09
446.95	5989.43
447.14	5951.98
447.32	6211.78
447.51	6108.80
447.69	6015.18
447.88	6092.41
448.06	6148.59
448.25	6047.94
448.43	6073.69
448.62	6090.07
448.80	6022.20
448.99	6186.04
449.17	6153.27
449.36	5907.51
449.54	6335.83
449.73	6270.30
449.91	6375.62
450.10	6534.78
450.28	6590.95
450.46	6422.43
450.65	6459.88
450.83	6583.93
451.02	6450.52
451.20	6347.53
451.39	6569.88
451.57	6445.84
451.76	6347.53
451.94	6399.02
452.13	6623.72
452.31	6480.94
452.49	6352.21
452.68	6588.61
452.86	6452.86
453.05	6750.10
453.23	6612.01
453.42	6583.93
453.60	6693.93
453.78	6689.25
453.97	6672.87
454.15	6682.23
454.34	6597.97
454.52	6586.27
454.70	6803.94
454.89	6913.94
455.07	6801.60
455.26	7009.90
455.44	7052.03
455.62	6780.53
455.81	7059.06
455.99	7033.31
456.17	6984.16
456.36	7042.67
456.54	7222.89
456.73	7145.66
456.91	7389.07
457.09	7323.54
457.28	7489.71
457.46	7246.30
457.64	7459.29
457.83	7295.45
458.01	7412.48
458.19	7403.11
458.38	7302.47
458.56	7536.52
458.74	7379.71
458.93	7272.04
459.11	7506.10
459.29	7545.89
459.48	7602.06
459.66	7531.84
459.84	7487.37
460.03	7784.62
460.21	7662.91
460.39	7623.12
460.57	7777.60
460.76	7810.37
460.94	7892.29
461.12	7840.79
461.31	7793.98
461.49	7679.30
461.67	7686.32
461.85	8039.74
462.04	7992.93
462.22	8177.83
462.40	8252.73
462.59	8002.29
462.77	8093.57
462.95	8002.29
463.13	8035.06
463.32	7918.03
463.50	8255.07
463.68	8229.32
463.86	8372.10
464.05	8119.32
464.23	8046.76
464.41	8173.15
464.59	8107.62
464.78	8437.63
464.96	8365.07
465.14	8212.94
465.32	8444.65
465.50	8353.37
465.69	8383.80
465.87	8212.94
466.05	8489.12
466.23	8341.67
466.41	8500.83
466.60	8461.04
466.78	8327.63
466.96	8299.54
467.14	8397.84
467.32	8461.04
467.51	8545.30
467.69	8470.40
467.87	8498.49
468.05	8786.37
468.23	8802.75
468.41	8718.50
468.60	8545.30
468.78	8732.54
468.96	8645.94
469.14	8833.18
469.32	9020.42
469.50	8610.83
469.69	8896.38
469.87	8898.72
470.05	8924.46
470.23	9027.45
470.41	9095.32
470.59	9249.80
470.77	9041.49
470.95	9015.74
471.14	9413.63
471.32	8954.89
471.50	9362.14
471.68	9341.08
471.86	9380.87
472.04	9551.73
472.22	9671.09
472.40	9341.08
472.58	9523.64
472.77	9694.50
472.95	9743.65
473.13	9940.26
473.31	9483.85
473.49	9420.66
473.67	9799.82
473.85	9736.63
474.03	9872.38
474.21	9811.53
474.39	10076.01
474.57	10017.49
474.75	10132.18
474.93	10174.31
475.12	10389.64
475.30	10501.98
475.48	10284.31
475.66	10265.59
475.84	10375.59
476.02	10497.30
476.20	10408.36
476.38	10539.43
476.56	11040.31
476.74	10843.70
476.92	10775.83
477.10	10916.26
477.28	11000.52
477.46	10991.16
477.64	11187.76
477.82	11267.34
478.00	11651.19
478.18	11468.62
478.36	11321.17
478.54	11648.85
478.72	11569.27
478.90	11779.92
479.08	12018.65
479.26	11833.75
479.44	11950.78
479.62	11971.84
479.80	12046.74
479.98	12269.09
480.16	12421.22
480.34	12624.85
480.52	12491.44
480.70	12571.02
480.88	12512.50
481.06	12587.40
481.24	12828.48
481.41	13228.71
481.59	13217.01
481.77	13135.09
481.95	13261.48
482.13	13631.28
482.31	13437.02
482.49	13593.83
482.67	13783.41
482.85	13713.20
483.03	13839.59
483.21	14164.92
483.39	13937.89
483.57	14312.38
483.74	14155.56
483.92	14473.87
484.10	14139.18
484.28	14721.97
484.46	14792.19
484.64	15129.22
484.82	14785.16
485.00	14965.39
485.18	15161.99
485.35	15222.84
485.53	14815.59
485.71	14965.39
485.89	15407.75
486.07	15440.51
486.25	15534.14
486.43	15819.68
486.61	15688.61
486.78	16011.60
486.96	16154.38
487.14	16219.91
487.32	16168.42
487.50	16287.79
487.68	16634.19
487.85	16821.43
488.03	17071.87
488.21	17106.98
488.39	17099.95
488.57	17198.26
488.75	17303.58
488.92	17703.81
489.10	17755.30
489.28	17844.24
489.46	18106.38
489.64	18335.76
489.81	18335.76
489.99	18588.53
490.17	18764.07
490.35	18883.44
490.53	18686.84
490.70	18691.52
490.88	18838.97
491.06	19220.48
491.24	19026.21
491.41	19372.61
491.59	19253.25
491.77	19351.55
491.95	19414.74
492.13	19489.64
492.30	19548.15
492.48	20269.04
492.66	20315.85
492.84	19997.54
493.01	20297.13
493.19	20320.53
493.37	20741.83
493.54	21102.27
493.72	20879.92
493.90	21069.50
494.08	21074.18
494.25	21252.06
494.43	21284.83
494.61	21446.33
494.79	21558.67
494.96	21633.57
495.14	21865.28
495.32	22066.57
495.49	21778.68
495.67	21958.91
495.85	22195.30
496.02	22410.63
496.20	22377.86
496.38	22850.65
496.55	22565.10
496.73	23068.32
496.91	23108.11
497.09	23056.62
497.26	23136.20
497.44	23290.67
497.62	23438.12
497.79	23601.96
497.97	23616.01
498.14	23686.22
498.32	23805.59
498.50	23763.46
498.67	24049.00
498.85	23899.21
499.03	24130.92
499.20	24421.15
499.38	24287.74
499.56	24444.56
499.73	24631.80
499.91	24610.73
500.08	24467.96
500.26	24528.81
500.44	24514.77
500.61	25317.57
500.79	24524.13
500.97	25085.86
501.14	25345.66
501.32	25432.26
501.49	25113.95
501.67	25469.71
501.84	25635.89
502.02	25745.89
502.20	25603.12
502.37	26019.74
502.55	25923.77
502.72	26075.91
502.90	25968.24
503.07	26237.41
503.25	26118.04
503.43	26146.12
503.60	26450.39
503.78	26518.27
503.95	26473.80
504.13	26661.04
504.30	26494.86
504.48	26485.50
504.65	27091.70
504.83	26888.07
505.01	27185.32
505.18	27335.12
505.36	27580.87
505.53	27353.84
505.71	27398.31
505.88	27201.71
506.06	27517.68
506.23	27655.77
506.41	27627.68
506.58	27793.86
506.76	27538.74
506.93	28320.48
507.11	27754.07
507.28	28196.43
507.46	28027.92
507.63	27740.03
507.81	28278.35
507.98	27803.22
508.16	28376.66
508.33	28421.13
508.50	28364.95
508.68	28538.15
508.85	29333.93
509.03	28875.19
509.20	28814.34
509.38	29596.07
509.55	29106.90
509.73	29170.10
509.90	29326.91
510.08	28961.79
510.25	29109.24
510.42	29120.95
510.60	29593.73
510.77	30000.99
510.95	29860.55
511.12	30096.95
511.30	29944.81
511.47	30349.73
511.64	30326.32
511.82	30433.99
511.99	29996.31
512.17	30309.94
512.34	30024.39
512.51	30665.70
512.69	30738.26
512.86	30518.25
513.04	30721.87
513.21	30314.62
513.38	31014.44
513.56	30899.75
513.73	31068.27
513.90	30780.39
514.08	30609.53
514.25	31374.88
514.43	31140.83
514.60	31063.59
514.77	31152.53
514.95	31236.79
515.12	31501.27
515.29	31529.36
515.47	31948.31
515.64	31854.69
515.81	31861.71
515.99	31697.88
516.16	31885.12
516.33	31992.78
516.51	31714.26
516.68	31592.55
516.85	31714.26
517.03	31838.31
517.20	32135.56
517.37	32458.55
517.54	32383.65
517.72	32369.61
517.89	32336.84
518.06	32297.05
518.24	32259.60
518.41	32690.26
518.58	32540.47
518.75	32706.65
518.93	33111.56
519.10	32952.40
519.27	32701.96
519.45	33046.02
519.62	33336.25
519.79	33099.86
519.96	33249.65
520.14	33289.44
520.31	33446.26
520.48	33479.02
520.65	33778.61
520.83	33806.70
521.00	33654.56
521.17	33923.72
521.34	33687.33
521.52	34050.11
521.69	33872.23
521.86	34417.58
522.03	33771.59
522.20	34225.65
522.38	34398.85
522.55	34125.01
522.72	34235.02
522.89	34293.53
523.07	34553.33
523.24	34630.57
523.41	35129.10
523.58	34827.17
523.75	35129.10
523.92	35016.75
524.10	35175.91
524.27	35028.46
524.44	35299.96
524.61	35154.85
524.78	35398.26
524.96	35243.79
525.13	35409.96
525.30	35725.94
525.47	35754.02
525.64	35798.49
525.81	35454.44
525.98	35503.59
526.16	35559.76
526.33	35466.14
526.50	35768.07
526.67	35105.70
526.84	35168.89
527.01	35826.58
527.18	35810.20
527.36	36339.16
527.53	36240.86
527.70	36236.17
527.87	36526.40
528.04	36163.62
528.21	36170.64
528.38	36362.56
528.55	36631.72
528.72	36652.79
528.89	36882.16
529.07	36332.14
529.24	36137.87
529.41	36753.43
529.58	36545.12
529.75	36760.45
529.92	37088.13
530.09	36634.06
530.26	37041.32
530.43	37029.62
530.60	36751.09
530.77	37043.66
530.94	37207.50
531.11	36968.76
531.28	36938.33
531.46	37488.36
531.63	37312.82
531.80	37153.66
531.97	37453.25
532.14	37214.52
532.31	37069.40
532.48	37055.36
532.65	37535.17
532.82	37780.93
532.99	37708.37
533.16	37411.12
533.33	37750.50
533.50	37855.82
533.67	38033.71
533.84	38003.28
534.01	38330.95
534.18	38300.53
534.35	38328.61
534.52	38064.13
534.69	38487.77
534.86	38263.08
535.03	38417.55
535.20	38534.58
535.37	38616.50
535.54	38822.47
535.71	38256.06
535.88	38384.79
536.05	38382.45
536.22	39229.72
536.38	38249.03
536.55	38841.19
536.72	38663.31
536.89	38057.11
537.06	38827.15
537.23	38932.47
537.40	38962.90
537.57	38710.12
537.74	38960.56
537.91	38890.34
538.08	39005.03
538.25	38948.85
538.42	38855.23
538.59	39344.41
538.75	39213.34
538.92	39634.63
539.09	39161.84
539.26	39318.66
539.43	39075.24
539.60	39604.20
539.77	38906.73
539.94	39653.36
540.11	39585.48
540.28	39447.39
540.44	39714.21
540.61	39133.76
540.78	39494.20
540.95	39040.14
541.12	39613.57
541.29	39580.80
541.46	39625.27
541.62	39789.11
541.79	40053.59
541.96	39459.09
542.13	40112.10
542.30	39636.97
542.47	39758.68
542.63	40079.33
542.80	40172.96
542.97	40957.03
543.14	40807.24
543.31	40456.16
543.48	40636.38
543.64	40818.94
543.81	40961.72
543.98	40952.35
544.15	40498.29
544.32	40865.75
544.48	41214.49
544.65	41081.08
544.82	41251.94
544.99	40772.13
545.16	40938.31
545.32	40779.15
545.49	41020.23
545.66	41237.90
545.83	40957.03
546.00	41500.04
546.16	40755.75
546.33	41373.65
546.50	40982.78
546.67	41184.07
546.83	41085.76
547.00	41214.49
547.17	41235.56
547.34	41549.19
547.50	41371.31
547.67	41556.21
547.84	41265.99
548.00	41947.08
548.17	41869.84
548.34	41750.48
548.51	42031.34
548.67	41900.27
548.84	41638.13
549.01	41570.25
549.18	41851.12
549.34	41469.61
549.51	41872.18
549.68	41998.57
549.84	41914.31
550.01	42216.24
550.18	41984.53
550.34	42305.18
550.51	41584.30
550.68	41937.72
550.84	42007.94
551.01	42288.80
551.18	42099.22
551.34	42497.11
551.51	42038.36
551.68	42057.09
551.84	42454.98
552.01	41961.12
552.18	42192.84
552.34	42253.69
552.51	42583.71
552.68	42260.71
552.84	42752.23
553.01	42827.12
553.18	42733.50
553.34	42674.99
553.51	42354.33
553.67	42239.65
553.84	42820.10
554.01	42862.23
554.17	42930.11
554.34	42909.04
554.51	42707.76
554.67	42682.01
554.84	43201.61
555.00	42588.39
555.17	42677.33
555.33	42693.71
555.50	42492.43
555.67	42827.12
555.83	43086.92
556.00	43044.79
556.16	43152.46
556.33	43454.39
556.50	42513.49
556.66	43159.48
556.83	42892.66
556.99	43477.79
557.16	43430.98
557.32	43721.21
557.49	43515.24
557.65	42997.98
557.82	43304.59
557.98	43540.99
558.15	43189.91
558.32	43569.07
558.48	43182.88
558.65	42969.90
558.81	43335.02
558.98	43229.69
559.14	43323.32
559.31	42789.67
559.47	43866.32
559.64	43618.22
559.80	43805.47
559.97	43688.44
560.13	43498.86
560.30	43313.95
560.46	43435.66
560.63	43540.99
560.79	44168.25
560.96	43606.52
561.12	43803.13
561.29	43681.42
561.45	43100.97
561.61	43838.23
561.78	43686.10
561.94	43505.88
562.11	43676.74
562.27	43683.76
562.44	43959.94
562.60	44023.14
562.77	44233.78
562.93	43737.59
563.10	43798.44
563.26	43372.47
563.42	43983.35
563.59	43222.67
563.75	43737.59
563.92	43969.30
564.08	44044.20
564.24	43732.91
564.41	43686.10
564.57	43908.45
564.74	43606.52
564.90	44619.97
565.07	44226.76
565.23	43924.83
565.39	44168.25
565.56	44074.63
565.72	43751.63
565.88	44095.69
566.05	43812.49
566.21	43887.39
566.38	43950.58
566.54	43999.73
566.70	44016.11
566.87	44350.81
567.03	43721.21
567.19	44528.69
567.36	44430.39
567.52	44266.55
567.68	44257.19
567.85	43899.09
568.01	44226.76
568.17	43777.38
568.34	44147.18
568.50	44013.77
568.66	44177.61
568.83	44250.17
568.99	44069.95
569.15	44098.03
569.32	44112.08
569.48	43880.36
569.64	44449.11
569.81	44287.62
569.97	44020.80
570.13	44498.26
570.30	44472.52
570.46	43887.39
570.62	43856.96
570.78	44067.61
570.95	44339.11
571.11	43873.34
571.27	43800.79
571.43	44444.43
571.60	44229.10
571.76	44013.77
571.92	44140.16
572.09	44334.43
572.25	43889.73
572.41	44203.36
572.57	44418.69
572.74	44626.99
572.90	44615.29
573.06	44479.54
573.22	44165.91
573.38	44418.69
573.55	44451.45
573.71	44334.43
573.87	44605.93
574.03	44381.24
574.20	44772.11
574.36	44098.03
574.52	44570.82
574.68	44446.77
574.84	44854.03
575.01	44758.06
575.17	44491.24
575.33	43793.76
575.49	44493.58
575.65	44659.76
575.82	44877.43
575.98	44292.30
576.14	44650.40
576.30	44296.98
576.46	44465.50
576.62	44091.01
576.79	44055.90
576.95	44533.37
577.11	44587.21
577.27	44830.62
577.43	44198.68
577.59	44418.69
577.75	44533.37
577.92	44399.96
578.08	44191.65
578.24	44488.90
578.40	44289.96
578.56	44449.11
578.72	44325.07
578.88	44446.77
579.04	44704.23
579.21	44713.59
579.37	44135.48
579.53	44774.45
579.69	44470.18
579.85	44509.97
580.01	44521.67
580.17	44921.90
580.33	44844.66
580.49	44809.56
580.65	44982.76
580.82	44779.13
580.98	44327.41
581.14	44542.74
581.30	44765.09
581.46	44718.28
581.62	44648.06
581.78	44533.37
581.94	45008.50
582.10	44814.24
582.26	44589.55
582.42	44809.56
582.58	44624.65
582.74	44952.33
582.90	44786.15
583.06	44552.10
583.22	45027.23
583.38	44692.53
583.54	44589.55
583.70	44554.44
583.86	44626.99
584.02	44498.26
584.18	45015.52
584.34	44891.48
584.50	44711.25
584.66	44271.23
584.82	44245.49
584.98	44807.22
585.14	44453.79
585.30	44573.16
585.46	44903.18
585.62	44568.48
585.78	44603.59
585.94	44332.09
586.10	44858.71
586.26	44481.88
586.42	44898.50
586.58	44966.37
586.74	44676.15
586.90	44329.75
587.06	44619.97
587.22	44603.59
587.38	44149.53
587.54	44701.89
587.70	45010.84
587.86	44821.26
588.02	44783.81
588.18	44694.87
588.34	44603.59
588.49	44760.40
588.65	44374.22
588.81	44175.27
588.97	44266.55
589.13	44659.76
589.29	44762.75
589.45	44432.73
589.61	44505.29
589.77	44959.35
589.93	45010.84
590.08	44931.26
590.24	44636.36
590.40	44465.50
