SpectraSuite Data File
++++++++++++++++++++++++++++++++++++
Date: Fri Oct 25 11:34:07 EDT 2013
User: price-jones
Dark Spectrum Present: No
Reference Spectrum Present: No
Number of Sampled Component Spectra: 1
Spectrometers: USB2+H05261
Integration Time (usec): 100000 (USB2+H05261)
Spectra Averaged: 1 (USB2+H05261)
Boxcar Smoothing: 0 (USB2+H05261)
Correct for Electrical Dark: No (USB2+H05261)
Strobe/Lamp Enabled: No (USB2+H05261)
Correct for Detector Non-linearity: No (USB2+H05261)
Correct for Stray Light: No (USB2+H05261)
Number of Pixels in Processed Spectrum: 2048
>>>>>Begin Processed Spectral Data<<<<<
365.73	250.44
365.92	250.44
366.12	250.44
366.32	189.58
366.52	236.39
366.72	220.01
366.91	154.48
367.11	180.22
367.31	191.92
367.51	217.67
367.70	170.86
367.90	142.77
368.10	161.50
368.30	198.95
368.49	187.24
368.69	222.35
368.89	145.11
369.09	224.69
369.28	145.11
369.48	212.99
369.68	255.12
369.87	273.84
370.07	264.48
370.27	248.10
370.47	322.99
370.66	433.00
370.86	535.98
371.06	557.05
371.25	631.94
371.45	550.03
371.65	589.82
371.84	561.73
372.04	543.00
372.24	596.84
372.44	606.20
372.63	538.32
372.83	599.18
373.03	594.50
373.22	550.03
373.42	601.52
373.62	606.20
373.81	636.63
374.01	683.44
374.21	610.88
374.40	554.71
374.60	629.60
374.79	641.31
374.99	777.06
375.19	559.39
375.38	613.22
375.58	627.26
375.78	814.51
375.97	692.80
376.17	753.65
376.37	638.97
376.56	720.88
376.76	622.58
376.95	660.03
377.15	730.25
377.35	664.71
377.54	699.82
377.74	692.80
377.93	702.16
378.13	678.76
378.33	692.80
378.52	620.24
378.72	650.67
378.91	760.67
379.11	671.73
379.31	699.82
379.50	671.73
379.70	751.31
379.89	711.52
380.09	667.05
380.28	751.31
380.48	732.59
380.68	678.76
380.87	702.16
381.07	741.95
381.26	765.36
381.46	793.44
381.65	802.80
381.85	716.20
382.04	718.54
382.24	655.35
382.43	702.16
382.63	758.33
382.83	741.95
383.02	793.44
383.22	866.00
383.41	767.70
383.61	800.46
383.80	823.87
384.00	826.21
384.19	800.46
384.39	903.45
384.58	849.61
384.78	814.51
384.97	814.51
385.17	791.10
385.36	802.80
385.56	840.25
385.75	786.42
385.95	805.14
386.14	866.00
386.34	844.93
386.53	896.43
386.72	877.70
386.92	861.32
387.11	933.87
387.31	910.47
387.50	858.98
387.70	889.40
387.89	910.47
388.09	880.04
388.28	917.49
388.48	763.01
388.67	954.94
388.86	882.38
389.06	992.39
389.25	933.87
389.45	880.04
389.64	926.85
389.84	1029.84
390.03	919.83
390.22	901.11
390.42	940.90
390.61	901.11
390.81	936.21
391.00	1043.88
391.19	945.58
391.39	912.81
391.58	905.79
391.78	1046.22
391.97	933.87
392.16	966.64
392.36	1062.60
392.55	1069.62
392.75	1086.01
392.94	1081.33
393.13	1011.11
393.33	980.68
393.52	1104.73
393.71	1118.78
393.91	1034.52
394.10	1097.71
394.29	1118.78
394.49	1050.90
394.68	1109.41
394.88	1067.28
395.07	1181.97
395.26	1116.44
395.46	1144.52
395.65	1184.31
395.84	1188.99
396.04	1123.46
396.23	1174.95
396.42	1160.91
396.62	1172.61
396.81	1125.80
397.00	1196.01
397.19	1228.78
397.39	1235.80
397.58	1128.14
397.77	1224.10
397.97	1228.78
398.16	1144.52
398.35	1240.48
398.55	1181.97
398.74	1177.29
398.93	1289.64
399.12	1256.87
399.32	1263.89
399.51	1341.13
399.70	1280.27
399.90	1284.95
400.09	1308.36
400.28	1385.60
400.47	1266.23
400.67	1416.02
400.86	1425.39
401.05	1385.60
401.24	1387.94
401.44	1352.83
401.63	1453.47
401.82	1448.79
402.01	1434.75
402.21	1542.41
402.40	1547.09
402.59	1446.45
402.78	1509.65
402.97	1458.15
403.17	1467.52
403.36	1554.12
403.55	1551.78
403.74	1507.30
403.93	1563.48
404.13	1668.80
404.32	1561.14
404.51	1540.07
404.70	1586.88
404.89	1640.72
405.09	1685.19
405.28	1699.23
405.47	1682.85
405.66	1647.74
405.85	1643.06
406.05	1668.80
406.24	1610.29
406.43	1724.97
406.62	1753.06
406.81	1748.38
407.00	1790.51
407.20	1837.32
407.39	1778.81
407.58	1804.55
407.77	1853.70
407.96	1912.22
408.15	1926.26
408.34	1757.74
408.54	1877.11
408.73	1884.13
408.92	1975.41
409.11	1940.30
409.30	1973.07
409.49	2010.52
409.68	1872.43
409.87	2043.29
410.07	1984.77
410.26	2012.86
410.45	2071.37
410.64	2050.31
410.83	2012.86
411.02	2073.71
411.21	2120.53
411.40	2052.65
411.59	2275.00
411.78	2209.47
411.98	2162.66
412.17	2244.57
412.36	2282.02
412.55	2293.72
412.74	2471.61
412.93	2349.90
413.12	2246.91
413.31	2319.47
413.50	2310.11
413.69	2333.51
413.88	2408.41
414.07	2363.94
414.26	2373.30
414.45	2530.12
414.64	2532.46
414.83	2473.95
415.02	2562.89
415.22	2656.51
415.41	2626.08
415.60	2644.81
415.79	2658.85
415.98	2703.32
416.17	2757.15
416.36	2679.91
416.55	2743.11
416.74	2754.81
416.93	2839.07
417.12	2782.90
417.31	2904.60
417.50	2829.71
417.69	2979.50
417.88	2951.42
418.07	2944.39
418.26	3061.42
418.45	2850.77
418.64	3049.72
418.83	2918.65
419.02	2988.86
419.21	3063.76
419.39	2965.46
419.58	2946.73
419.77	2904.60
419.96	3070.78
420.15	3101.21
420.34	3201.85
420.53	3089.51
420.72	3150.36
420.91	3066.10
421.10	3126.96
421.29	3222.92
421.48	3023.97
421.67	3255.69
421.86	3145.68
422.05	3272.07
422.24	3330.58
422.43	3400.80
422.61	3353.99
422.80	3314.20
422.99	3382.07
423.18	3321.22
423.37	3351.65
423.56	3279.09
423.75	3339.94
423.94	3248.66
424.13	3180.79
424.32	3304.84
424.50	3353.99
424.69	3375.05
424.88	3407.82
425.07	3358.67
425.26	3375.05
425.45	3307.18
425.64	3379.73
425.83	3365.69
426.01	3393.78
426.20	3393.78
426.39	3321.22
426.58	3304.84
426.77	3335.26
426.96	3393.78
427.15	3396.12
427.33	3431.23
427.52	3466.33
427.71	3588.04
427.90	3499.10
428.09	3445.27
428.28	3602.08
428.46	3588.04
428.65	3639.53
428.84	3714.43
429.03	3674.64
429.22	3723.79
429.40	3588.04
429.59	3698.05
429.78	3475.70
429.97	3595.06
430.16	3768.26
430.34	3833.80
430.53	3777.62
430.72	3803.37
430.91	3829.12
431.10	3700.39
431.28	3847.84
431.47	3829.12
431.66	3868.91
431.85	3873.59
432.03	3983.59
432.22	3936.78
432.41	4014.02
432.60	3941.46
432.79	3985.93
432.97	3948.48
433.16	4119.34
433.35	4121.68
433.54	3852.52
433.72	4044.45
433.91	3969.55
434.10	4173.18
434.28	4121.68
434.47	4084.23
434.66	4056.15
434.85	4149.77
435.03	4086.58
435.22	4381.48
435.41	4283.18
435.59	4322.97
435.78	4327.65
435.97	4355.74
436.16	4271.48
436.34	4400.21
436.53	4358.08
436.72	4311.27
436.90	4280.84
437.09	4353.40
437.28	4344.03
437.46	4587.45
437.65	4327.65
437.84	4550.00
438.02	4458.72
438.21	4491.49
438.40	4451.70
438.58	4589.79
438.77	4655.33
438.96	4685.75
439.14	4652.98
439.33	4816.82
439.52	4720.86
439.70	4760.65
439.89	4898.74
440.08	4887.04
440.26	4891.72
440.45	4805.12
440.63	4894.06
440.82	5015.77
441.01	4992.36
441.19	5163.22
441.38	5085.98
441.57	5139.82
441.75	5149.18
441.94	5179.61
442.12	5327.06
442.31	5263.86
442.50	5322.38
442.68	5235.78
442.87	5247.48
443.05	5504.94
443.24	5338.76
443.43	5390.25
443.61	5329.40
443.80	5643.03
443.98	5266.21
444.17	5205.35
444.35	5628.99
444.54	5493.24
444.73	5542.39
444.91	5493.24
445.10	5352.81
445.28	5563.45
445.47	5350.46
445.65	5643.03
445.84	5528.35
446.02	5692.18
446.21	5661.76
446.39	5462.81
446.58	5533.03
446.77	5556.43
446.95	5427.70
447.14	5558.77
447.32	5713.25
447.51	5570.48
447.69	5579.84
447.88	5743.67
448.06	5778.78
448.25	5596.22
448.43	5685.16
448.62	5628.99
448.80	5624.31
448.99	5844.32
449.17	5863.04
449.36	5544.73
449.54	5851.34
449.73	5898.15
449.91	5813.89
450.10	5893.47
450.28	6104.12
450.46	5893.47
450.65	6050.28
450.83	5973.05
451.02	5996.45
451.20	6033.90
451.39	6120.50
451.57	6073.69
451.76	6003.47
451.94	6249.23
452.13	6071.35
452.31	6106.46
452.49	6001.13
452.68	6108.80
452.86	6171.99
453.05	6312.42
453.23	6307.74
453.42	6197.74
453.60	6293.70
453.78	6277.32
453.97	6150.93
454.15	6314.77
454.34	6466.90
454.52	6307.74
454.70	6361.58
454.89	6457.54
455.07	6345.19
455.26	6502.01
455.44	6630.74
455.62	6553.50
455.81	6565.20
455.99	6520.73
456.17	6663.51
456.36	6654.14
456.54	6803.94
456.73	6773.51
456.91	6963.09
457.09	6827.34
457.28	6911.60
457.46	6806.28
457.64	7035.65
457.83	6963.09
458.01	6813.30
458.19	6899.90
458.38	7045.01
458.56	7045.01
458.74	7066.08
458.93	7021.61
459.11	6867.13
459.29	7103.53
459.48	6958.41
459.66	6916.28
459.84	7171.40
460.03	7260.34
460.21	7187.79
460.39	7258.00
460.57	7368.01
460.76	7279.07
460.94	7377.37
461.12	7389.07
461.31	7417.16
461.49	7300.13
461.67	7332.90
461.85	7665.25
462.04	7358.64
462.22	7801.01
462.40	7578.65
462.59	7527.16
462.77	7522.48
462.95	7688.66
463.13	7559.93
463.32	7564.61
463.50	7695.68
463.68	7831.43
463.86	7831.43
464.05	7691.00
464.23	7620.78
464.41	7744.83
464.59	7674.62
464.78	7971.86
464.96	8163.79
465.14	7824.41
465.32	7702.70
465.50	7875.90
465.69	7915.69
465.87	7758.88
466.05	8053.78
466.23	8016.33
466.41	8067.83
466.60	8241.03
466.78	8011.65
466.96	7962.50
467.14	7866.54
467.32	8149.75
467.51	8276.13
467.69	7960.16
467.87	8369.76
468.05	8266.77
468.23	8201.24
468.41	8116.98
468.60	8425.93
468.78	8383.80
468.96	8353.37
469.14	8327.63
469.32	8351.03
469.50	8226.98
469.69	8470.40
469.87	8695.09
470.05	8559.34
470.23	8514.87
470.41	8762.97
470.59	8809.78
470.77	8533.59
470.95	8674.03
471.14	8819.14
471.32	8599.13
471.50	8709.13
471.68	8952.55
471.86	9109.36
472.04	8917.44
472.22	9252.14
472.40	8821.48
472.58	8997.02
472.77	9153.84
472.95	9142.13
473.13	9511.94
473.31	9418.32
473.49	9067.24
473.67	9186.60
473.85	9280.22
474.03	9385.55
474.21	9535.34
474.39	9645.35
474.57	9643.01
474.75	9652.37
474.93	9682.80
475.12	9741.31
475.30	9790.46
475.48	9778.76
475.66	9888.76
475.84	9858.34
476.02	10024.51
476.20	9968.34
476.38	10209.42
476.56	10342.83
476.74	10230.48
476.92	10218.78
477.10	10221.12
477.28	10527.73
477.46	10462.19
477.64	10480.92
477.82	10534.75
478.00	10867.11
478.18	10796.89
478.36	10988.82
478.54	11016.90
478.72	11147.97
478.90	11183.08
479.08	11587.99
479.26	11508.41
479.44	11536.50
479.62	11290.74
479.80	11513.10
479.98	11749.49
480.16	11985.88
480.34	11962.48
480.52	12067.80
480.70	12269.09
480.88	11962.48
481.06	11901.62
481.24	12159.08
481.41	12322.92
481.59	12545.27
481.77	12636.55
481.95	12353.35
482.13	12784.01
482.31	12575.70
482.49	12950.18
482.67	12985.29
482.85	13334.03
483.03	13004.02
483.21	13383.18
483.39	13521.27
483.57	13331.69
483.74	13741.29
483.92	13792.78
484.10	13774.05
484.28	14061.94
484.46	14288.97
484.64	14258.54
484.82	14204.71
485.00	14633.03
485.18	14324.08
485.35	14593.24
485.53	14391.95
485.71	14864.74
485.89	15005.17
486.07	14946.66
486.25	14923.26
486.43	15204.12
486.61	15143.27
486.78	15365.62
486.96	15616.05
487.14	15641.80
487.32	15873.51
487.50	15784.57
487.68	15824.36
487.85	16320.56
488.03	16271.40
488.21	16556.95
488.39	16711.42
488.57	16781.64
488.75	16746.53
488.92	16851.86
489.10	17301.24
489.28	17057.82
489.46	17516.57
489.64	17427.63
489.81	17696.79
489.99	17790.41
490.17	17380.82
490.35	17940.21
490.53	18059.57
490.70	18097.02
490.88	18200.01
491.06	18611.94
491.24	18146.17
491.41	18724.29
491.59	18970.04
491.77	18647.05
491.95	19049.62
492.13	18799.18
492.30	19105.79
492.48	19023.87
492.66	19220.48
492.84	19470.92
493.01	19796.25
493.19	19616.03
493.37	19812.63
493.54	19728.38
493.72	19976.47
493.90	20531.18
494.08	20299.47
494.25	20386.07
494.43	20744.17
494.61	20669.27
494.79	20673.95
494.96	20540.54
495.14	20910.35
495.32	21394.84
495.49	21460.37
495.67	21455.69
495.85	21441.65
496.02	21610.17
496.20	21638.25
496.38	22066.57
496.55	21837.20
496.73	22043.17
496.91	22059.55
497.09	22314.67
497.26	22436.38
497.44	22335.73
497.62	22721.92
497.79	22836.61
497.97	22792.14
498.14	22913.84
498.32	23164.28
498.50	23468.55
498.67	23695.58
498.85	23438.12
499.03	23646.43
499.20	23936.66
499.38	23559.83
499.56	23566.85
499.73	23779.84
499.91	24425.83
500.08	23875.80
500.26	23831.33
500.44	24217.52
500.61	24472.64
500.79	24219.86
500.97	24421.15
501.14	24863.51
501.32	24821.38
501.49	24751.17
501.67	24638.82
501.84	24594.35
502.02	24821.38
502.20	24940.75
502.37	25142.03
502.55	25212.25
502.72	25422.90
502.90	25436.94
503.07	25252.04
503.25	25441.62
503.43	25467.37
503.60	25743.55
503.78	25743.55
503.95	25996.33
504.13	25834.83
504.30	25998.67
504.48	26094.63
504.65	26267.83
504.83	26324.01
505.01	26328.69
505.18	26295.92
505.36	26719.56
505.53	26792.11
505.71	26766.37
505.88	26911.48
506.06	26529.97
506.23	27096.38
506.41	27096.38
506.58	27126.81
506.76	27307.03
506.93	27484.91
507.11	27826.63
507.28	27580.87
507.46	27669.81
507.63	27697.90
507.81	27672.15
507.98	27810.25
508.16	27700.24
508.33	27901.53
508.50	27791.52
508.68	28144.94
508.85	28161.33
509.03	28479.64
509.20	28533.47
509.38	28638.80
509.55	28671.56
509.73	28823.70
509.90	28727.74
510.08	28851.78
510.25	28671.56
510.42	28772.21
510.60	29127.97
510.77	29301.17
510.95	29479.05
511.12	29291.80
511.30	29198.18
511.47	29567.99
511.64	29420.53
511.82	29722.46
511.99	29579.69
512.17	29816.08
512.34	29701.40
512.51	30045.46
512.69	30260.79
512.86	29996.31
513.04	30534.63
513.21	30494.84
513.38	30614.21
513.56	30906.77
513.73	30279.51
513.90	30436.33
514.08	30501.86
514.25	30635.27
514.43	30965.29
514.60	30869.33
514.77	30906.77
514.95	30993.37
515.12	31117.42
515.29	30822.51
515.47	30986.35
515.64	30960.61
515.81	30745.28
515.99	31817.24
516.16	31559.78
516.33	31552.76
516.51	31655.75
516.68	31641.70
516.85	31538.72
517.03	31777.45
517.20	31641.70
517.37	31929.59
517.54	31924.91
517.72	32608.34
517.89	31931.93
518.06	32187.05
518.24	32205.77
518.41	31962.36
518.58	32151.94
518.75	32191.73
518.93	32554.51
519.10	32526.42
519.27	32673.88
519.45	32830.69
519.62	33474.34
519.79	32856.44
519.96	32872.82
520.14	32929.00
520.31	33092.83
520.48	33422.85
520.65	33069.43
520.83	33612.43
521.00	33795.00
521.17	33464.98
521.34	33792.65
521.52	33317.53
521.69	33694.35
521.86	33633.50
522.03	33846.49
522.20	34012.66
522.38	34450.35
522.55	34373.11
522.72	34010.32
522.89	34307.57
523.07	34501.84
523.24	34433.96
523.41	34511.20
523.58	34338.00
523.75	34424.60
523.92	34541.63
524.10	34445.66
524.27	35058.88
524.44	35091.65
524.61	34857.60
524.78	35110.38
524.96	35384.22
525.13	35150.17
525.30	35351.45
525.47	35494.22
525.64	35089.31
525.81	35742.32
525.98	35859.35
526.16	35416.99
526.33	35833.60
526.50	35985.74
526.67	35208.68
526.84	35337.41
527.01	35438.05
527.18	35695.51
527.36	35896.80
527.53	35906.16
527.70	36392.99
527.87	36495.97
528.04	36060.63
528.21	36402.35
528.38	36311.07
528.55	36397.67
528.72	36605.98
528.89	36210.43
529.07	36533.42
529.24	36767.48
529.41	36938.33
529.58	36549.81
529.75	36418.74
529.92	36723.01
530.09	36751.09
530.26	36741.73
530.43	36924.29
530.60	36704.28
530.77	36840.03
530.94	37078.77
531.11	36378.95
531.28	37008.55
531.46	36989.83
531.63	37148.98
531.80	37401.76
531.97	37551.56
532.14	37207.50
532.31	37408.78
532.48	37521.13
532.65	37823.06
532.82	37848.80
532.99	37617.09
533.16	37656.88
533.33	37780.93
533.50	38103.92
533.67	37984.55
533.84	37455.59
534.01	37809.01
534.18	38012.64
534.35	38426.92
534.52	38251.38
534.69	38340.32
534.86	38728.84
535.03	38127.33
535.20	38476.07
535.37	38520.54
535.54	38565.01
535.71	38785.02
535.88	38511.17
536.05	38686.71
536.22	38794.38
536.38	38890.34
536.55	39035.45
536.72	38979.28
536.89	38394.15
537.06	39133.76
537.23	39409.94
537.40	39014.39
537.57	38665.65
537.74	38911.41
537.91	39714.21
538.08	39143.12
538.25	39035.45
538.42	39091.63
538.59	39604.20
538.75	39033.11
538.92	39662.72
539.09	39917.84
539.26	39508.24
539.43	39295.25
539.60	39714.21
539.77	39711.87
539.94	40128.48
540.11	39913.16
540.28	39868.69
540.44	39533.99
540.61	39651.02
540.78	39601.86
540.95	39894.43
541.12	39974.01
541.29	39608.89
541.46	39990.39
541.62	40524.04
541.79	40493.61
541.96	40196.36
542.13	39756.34
542.30	40112.10
542.47	40215.08
542.63	40306.37
542.80	40589.57
542.97	41020.23
543.14	40748.73
543.31	40940.65
543.48	41017.89
543.64	41181.73
543.81	41160.66
543.98	41214.49
544.15	41123.21
544.32	41378.33
544.48	41467.27
544.65	41507.06
544.82	41844.10
544.99	41247.26
545.16	41408.76
545.32	40950.01
545.49	41312.80
545.66	42080.49
545.83	41441.53
546.00	41455.57
546.16	41425.14
546.33	41287.05
546.50	41577.28
546.67	41865.16
546.83	41212.15
547.00	41343.22
547.17	41694.30
547.34	41879.21
547.50	42419.87
547.67	42691.37
547.84	41907.29
548.00	42080.49
548.17	42122.62
548.34	41982.19
548.51	42150.71
548.67	42312.20
548.84	42249.01
549.01	42047.72
549.18	42188.16
549.34	42206.88
549.51	42621.16
549.68	42300.50
549.84	42368.38
550.01	42810.74
550.18	42609.45
550.34	42698.39
550.51	42768.61
550.68	42946.49
550.84	42206.88
551.01	42974.58
551.18	42471.36
551.34	42752.23
551.51	43065.86
551.68	42909.04
551.84	42976.92
552.01	42424.55
552.18	42677.33
552.34	42562.64
552.51	43091.60
552.68	42841.17
552.84	43096.28
553.01	43030.75
553.18	43030.75
553.34	43131.39
553.51	43323.32
553.67	43342.04
553.84	43386.51
554.01	43136.07
554.17	43564.39
554.34	43611.20
554.51	43688.44
554.67	43543.33
554.84	43821.85
555.00	43475.45
555.17	43555.03
555.33	43751.63
555.50	43536.30
555.67	43716.53
555.83	43861.64
556.00	43880.36
556.16	44542.74
556.33	43936.54
556.50	43955.26
556.66	43920.15
556.83	43625.25
556.99	44278.25
557.16	43997.39
557.32	44037.18
557.49	44502.95
557.65	43545.67
557.82	44037.18
557.98	43796.10
558.15	43938.88
558.32	44451.45
558.48	43966.96
558.65	44479.54
558.81	44327.41
558.98	44390.60
559.14	44044.20
559.31	44222.08
559.47	44114.42
559.64	44205.70
559.80	44769.77
559.97	44467.84
560.13	43992.71
560.30	44421.03
560.46	44945.31
560.63	44641.04
560.79	44561.46
560.96	44823.60
561.12	44713.59
561.29	44683.17
561.45	44961.69
561.61	44502.95
561.78	45106.80
561.94	44514.65
562.11	45013.18
562.27	44987.44
562.44	45081.06
562.60	44800.19
562.77	44868.07
562.93	44481.88
563.10	45219.15
563.26	44591.89
563.42	44964.03
563.59	44708.91
563.75	45202.77
563.92	44772.11
564.08	44891.48
564.24	45081.06
564.41	44987.44
564.57	44849.35
564.74	44938.29
564.90	45146.59
565.07	45022.54
565.23	45055.31
565.39	45415.76
565.56	45247.24
565.72	45244.90
565.88	45315.11
566.05	45034.25
566.21	45509.38
566.38	45099.78
566.54	45544.48
566.70	44971.05
566.87	45205.11
567.03	45102.12
567.19	45406.39
567.36	45230.85
567.52	44907.86
567.68	45832.37
567.85	45741.09
568.01	45338.52
568.17	45385.33
568.34	45556.19
568.50	45523.42
568.66	45272.98
568.83	45460.23
568.99	45605.34
569.15	45413.41
569.32	45294.05
569.48	45626.40
569.64	45794.92
569.81	45546.82
569.97	45593.64
570.13	45244.90
570.30	45731.73
570.46	45474.27
570.62	45659.17
570.78	45738.75
570.95	45673.21
571.11	45741.09
571.27	45408.73
571.43	45261.28
571.60	45783.22
571.76	45881.52
571.92	45722.37
572.09	45579.59
572.25	45425.12
572.41	45701.30
572.57	45631.08
572.74	46394.10
572.90	45481.29
573.06	46146.00
573.22	46045.36
573.38	46174.09
573.55	46122.60
573.71	46707.73
573.87	46068.76
574.03	45855.78
574.20	45862.80
574.36	45937.69
574.52	46277.07
574.68	45603.00
574.84	46204.52
575.01	46354.31
575.17	45958.76
575.33	46047.70
575.49	46169.41
575.65	46089.83
575.82	45846.41
575.98	46227.92
576.14	46321.54
576.30	45954.08
576.46	45900.25
576.62	45900.25
576.79	45977.48
576.95	45965.78
577.11	46174.09
577.27	46050.04
577.43	45951.74
577.59	45729.39
577.75	46012.59
577.92	45792.58
578.08	45993.87
578.24	46040.68
578.40	45911.95
578.56	46408.14
578.72	46113.23
578.88	46703.05
579.04	45883.86
579.21	46138.98
579.37	46438.57
579.53	46195.15
579.69	46050.04
579.85	46033.66
580.01	45977.48
580.17	46241.96
580.33	45940.04
580.49	46623.47
580.65	46569.64
580.82	46021.95
580.98	46120.26
581.14	46155.36
581.30	46124.94
581.46	46384.74
581.62	46014.93
581.78	46003.23
581.94	46422.19
582.10	45998.55
582.26	46270.05
582.42	46148.34
582.58	46174.09
582.74	46260.69
582.90	46574.32
583.06	46642.20
583.22	45851.09
583.38	45975.14
583.54	46356.65
583.70	46490.06
583.86	46307.50
584.02	46618.79
584.18	46590.70
584.34	46829.44
584.50	46873.91
584.66	46466.66
584.82	46380.06
584.98	47047.11
585.14	46223.24
585.30	46045.36
585.46	46293.46
585.62	46085.15
585.78	46555.60
585.94	46164.73
586.10	46597.73
586.26	46213.88
586.42	46288.77
586.58	46319.20
586.74	46483.04
586.90	46288.77
587.06	46724.11
587.22	46520.49
587.38	46291.12
587.54	46707.73
587.70	46614.11
587.86	46649.22
588.02	46045.36
588.18	46616.45
588.34	46356.65
588.49	46316.86
588.65	46433.89
588.81	46726.46
588.97	46419.84
589.13	46532.19
589.29	46480.70
589.45	46890.29
589.61	46522.83
589.77	46412.82
589.93	46454.95
590.08	46590.70
