SpectraSuite Data File
++++++++++++++++++++++++++++++++++++
Date: Fri Oct 25 11:23:52 EDT 2013
User: price-jones
Dark Spectrum Present: No
Reference Spectrum Present: No
Number of Sampled Component Spectra: 1
Spectrometers: USB2+H05261
Integration Time (usec): 100000 (USB2+H05261)
Spectra Averaged: 1 (USB2+H05261)
Boxcar Smoothing: 0 (USB2+H05261)
Correct for Electrical Dark: No (USB2+H05261)
Strobe/Lamp Enabled: No (USB2+H05261)
Correct for Detector Non-linearity: No (USB2+H05261)
Correct for Stray Light: No (USB2+H05261)
Number of Pixels in Processed Spectrum: 2048
>>>>>Begin Processed Spectral Data<<<<<
365.73	210.65
365.92	210.65
366.12	210.65
366.32	161.50
366.52	177.88
366.72	163.84
366.91	124.05
367.11	124.05
367.31	84.26
367.51	117.03
367.70	121.71
367.90	170.86
368.10	142.77
368.30	84.26
368.49	156.82
368.69	152.13
368.89	110.01
369.09	149.79
369.28	229.37
369.48	189.58
369.68	154.48
369.87	215.33
370.07	191.92
370.27	308.95
370.47	285.55
370.66	603.86
370.86	648.33
371.06	629.60
371.25	779.40
371.45	699.82
371.65	676.41
371.84	746.63
372.04	718.54
372.24	681.10
372.44	739.61
372.63	795.78
372.83	781.74
373.03	730.25
373.22	697.48
373.42	741.95
373.62	711.52
373.81	763.01
374.01	842.59
374.21	812.17
374.40	711.52
374.60	866.00
374.79	786.42
374.99	840.25
375.19	819.19
375.38	837.91
375.58	873.02
375.78	854.30
375.97	861.32
376.17	915.15
376.37	861.32
376.56	973.66
376.76	898.77
376.95	842.59
377.15	884.72
377.35	908.13
377.54	915.15
377.74	926.85
377.93	889.40
378.13	884.72
378.33	992.39
378.52	835.57
378.72	985.37
378.91	936.21
379.11	999.41
379.31	950.26
379.50	924.51
379.70	1032.18
379.89	954.94
380.09	973.66
380.28	957.28
380.48	999.41
380.68	973.66
380.87	952.60
381.07	1043.88
381.26	1011.11
381.46	936.21
381.65	1036.86
381.85	1069.62
382.04	1039.20
382.24	1107.07
382.43	1027.50
382.63	1018.13
382.83	1041.54
383.02	1111.75
383.22	1123.46
383.41	1104.73
383.61	1142.18
383.80	1156.22
384.00	1107.07
384.19	1137.50
384.39	1172.61
384.58	1032.18
384.78	1158.57
384.97	1081.33
385.17	1231.12
385.36	1207.72
385.56	1240.48
385.75	1217.08
385.95	1259.21
386.14	1252.19
386.34	1146.86
386.53	1214.74
386.72	1172.61
386.92	1221.76
387.11	1345.81
387.31	1249.85
387.50	1233.46
387.70	1249.85
387.89	1214.74
388.09	1214.74
388.28	1406.66
388.48	1313.04
388.67	1291.98
388.86	1259.21
389.06	1334.11
389.25	1359.85
389.45	1355.17
389.64	1313.04
389.84	1397.30
390.03	1441.77
390.22	1441.77
390.42	1364.53
390.61	1430.07
390.81	1427.73
391.00	1387.94
391.19	1420.71
391.39	1411.34
391.58	1479.22
391.78	1516.67
391.97	1467.52
392.16	1544.75
392.36	1511.99
392.55	1526.03
392.75	1570.50
392.94	1413.68
393.13	1497.94
393.33	1502.62
393.52	1561.14
393.71	1486.24
393.91	1570.50
394.10	1565.82
394.29	1582.20
394.49	1516.67
394.68	1603.27
394.88	1586.88
395.07	1729.66
395.26	1591.56
395.46	1647.74
395.65	1748.38
395.84	1650.08
396.04	1760.08
396.23	1739.02
396.42	1713.27
396.62	1849.02
396.81	1816.26
397.00	1753.06
397.19	1888.81
397.39	1760.08
397.58	1853.70
397.77	1844.34
397.97	1886.47
398.16	1811.57
398.35	1877.11
398.55	1898.17
398.74	1933.28
398.93	1923.92
399.12	1949.67
399.32	1818.60
399.51	1928.60
399.70	1973.07
399.90	2008.18
400.09	2003.50
400.28	2153.29
400.47	2008.18
400.67	2122.87
400.86	2085.42
401.05	2045.63
401.24	2148.61
401.44	2214.15
401.63	2228.19
401.82	2129.89
402.01	2169.68
402.21	2228.19
402.40	2312.45
402.59	2204.78
402.78	2249.25
402.97	2214.15
403.17	2214.15
403.36	2289.04
403.55	2319.47
403.74	2319.47
403.93	2373.30
404.13	2403.73
404.32	2441.18
404.51	2452.88
404.70	2363.94
404.89	2401.39
405.09	2457.56
405.28	2511.39
405.47	2525.44
405.66	2495.01
405.85	2527.78
406.05	2567.57
406.24	2450.54
406.43	2555.86
406.62	2698.64
406.81	2841.41
407.00	2597.99
407.20	2612.04
407.39	2670.55
407.58	2656.51
407.77	2799.28
407.96	2771.19
408.15	2820.35
408.34	2677.57
408.54	2792.26
408.73	2855.45
408.92	2820.35
409.11	2909.29
409.30	2974.82
409.49	2897.58
409.68	2780.56
409.87	2967.80
410.07	2909.29
410.26	2998.23
410.45	2949.08
410.64	3094.19
410.83	2979.50
411.02	2981.84
411.21	3164.40
411.40	3082.49
411.59	3288.45
411.78	3215.90
411.98	3342.28
412.17	3276.75
412.36	3300.16
412.55	3377.39
412.74	3398.46
412.93	3351.65
413.12	3445.27
413.31	3592.72
413.50	3335.26
413.69	3454.63
413.88	3686.34
414.07	3669.96
414.26	3735.50
414.45	3686.34
414.64	3740.18
414.83	3737.84
415.02	3754.22
415.22	3985.93
415.41	3784.65
415.60	3796.35
415.79	3969.55
415.98	3971.89
416.17	3988.27
416.36	3925.08
416.55	3941.46
416.74	4039.76
416.93	4152.11
417.12	4180.20
417.31	4133.39
417.50	4180.20
417.69	4269.14
417.88	4311.27
418.07	4362.76
418.26	4304.25
418.45	4374.46
418.64	4444.68
418.83	4500.85
419.02	4418.93
419.21	4332.33
419.39	4655.33
419.58	4535.96
419.77	4620.22
419.96	4559.36
420.15	4667.03
420.34	4641.28
420.53	4585.11
420.72	4753.63
420.91	4737.24
421.10	4842.57
421.29	4664.69
421.48	4760.65
421.67	4753.63
421.86	4739.58
422.05	4924.49
422.24	4791.08
422.43	4788.74
422.61	4898.74
422.80	4947.89
422.99	4903.42
423.18	4985.34
423.37	4971.30
423.56	4842.57
423.75	4997.04
423.94	4805.12
424.13	4657.67
424.32	4851.93
424.50	5064.92
424.69	5221.74
424.88	5207.69
425.07	5004.07
425.26	4807.46
425.45	4997.04
425.64	5008.75
425.83	4901.08
426.01	5078.96
426.20	5170.24
426.39	5104.71
426.58	4987.68
426.77	5167.90
426.96	5207.69
427.15	5177.26
427.33	5263.86
427.52	5149.18
427.71	5280.25
427.90	5217.05
428.09	5359.83
428.28	5416.00
428.46	5315.36
428.65	5373.87
428.84	5523.66
429.03	5591.54
429.22	5420.68
429.40	5408.98
429.59	5526.00
429.78	5364.51
429.97	5268.55
430.16	5446.43
430.34	5638.35
430.53	5710.91
430.72	5579.84
430.91	5650.05
431.10	5565.79
431.28	5668.78
431.47	5769.42
431.66	5715.59
431.85	5921.56
432.03	5996.45
432.22	6164.97
432.41	5905.17
432.60	5888.79
432.79	5907.51
432.97	6085.39
433.16	5959.00
433.35	6029.22
433.54	6066.67
433.72	6183.70
433.91	6073.69
434.10	6228.17
434.28	6153.27
434.47	6176.67
434.66	6387.32
434.85	6368.60
435.03	6317.11
435.22	6263.27
435.41	6506.69
435.59	6509.03
435.78	6476.26
435.97	6490.31
436.16	6289.02
436.34	6583.93
436.53	6387.32
436.72	6689.25
436.90	6497.33
437.09	6647.12
437.28	6375.62
437.46	6626.06
437.65	6497.33
437.84	6679.89
438.02	6595.63
438.21	6991.18
438.40	6754.79
438.58	7028.63
438.77	7101.19
438.96	7035.65
439.14	6967.77
439.33	7059.06
439.52	7185.44
439.70	7187.79
439.89	7286.09
440.08	7337.58
440.26	7463.97
440.45	7426.52
440.63	7426.52
440.82	7641.85
441.01	7431.20
441.19	7480.35
441.38	7705.04
441.57	7786.96
441.75	7847.82
441.94	7925.05
442.12	7990.59
442.31	8070.17
442.50	8205.92
442.68	7960.16
442.87	8208.26
443.05	8065.49
443.24	8124.00
443.43	7950.80
443.61	8145.06
443.80	8613.17
443.98	7896.97
444.17	7981.23
444.35	8351.03
444.54	8437.63
444.73	8388.48
444.91	8425.93
445.10	8292.52
445.28	8444.65
445.47	8322.94
445.65	8217.62
445.84	8397.84
446.02	8498.49
446.21	8287.84
446.39	8449.33
446.58	8538.27
446.77	8430.61
446.95	8404.86
447.14	8446.99
447.32	8681.05
447.51	8531.25
447.69	8748.92
447.88	8526.57
448.06	8585.08
448.25	8395.50
448.43	8554.66
448.62	8573.38
448.80	8557.00
448.99	8638.92
449.17	8793.39
449.36	8793.39
449.54	8788.71
449.73	8898.72
449.91	9139.79
450.10	8968.93
450.28	8990.00
450.46	9048.51
450.65	9130.43
450.83	9153.84
451.02	9004.04
451.20	9158.52
451.39	9064.89
451.57	9149.15
451.76	9149.15
451.94	9305.97
452.13	9270.86
452.31	9305.97
452.49	9128.09
452.68	9345.76
452.86	9341.08
453.05	9423.00
453.23	9467.47
453.42	9376.19
453.60	9184.26
453.78	9743.65
453.97	9476.83
454.15	9617.26
454.34	9502.58
454.52	9764.72
454.70	9708.54
454.89	9755.35
455.07	9753.01
455.26	9877.06
455.44	9830.25
455.62	9802.16
455.81	9844.29
455.99	9944.94
456.17	10155.58
456.36	9851.31
456.54	10178.99
456.73	10403.68
456.91	10593.26
457.09	10450.49
457.28	10523.05
457.46	10345.17
457.64	10499.64
457.83	10539.43
458.01	10600.29
458.19	10712.63
458.38	10677.52
458.56	10857.75
458.74	10757.10
458.93	10834.34
459.11	10707.95
459.29	10679.86
459.48	10815.62
459.66	10916.26
459.84	10888.17
460.03	11192.44
460.21	11173.72
460.39	11129.25
460.57	11042.65
460.76	11049.67
460.94	11239.25
461.12	11033.29
461.31	11211.17
461.49	11190.10
461.67	11220.53
461.85	11496.71
462.04	11466.28
462.22	11552.88
462.40	11566.93
462.59	11332.87
462.77	11414.79
462.95	11669.91
463.13	11740.13
463.32	11796.30
463.50	11908.65
463.68	11812.68
463.86	11978.86
464.05	11543.52
464.23	11712.04
464.41	12156.74
464.59	11735.45
464.78	12135.68
464.96	11974.18
465.14	11737.79
465.32	12262.07
465.50	12009.29
465.69	12241.00
465.87	12060.78
466.05	12243.34
466.23	12355.69
466.41	12255.04
466.60	12524.21
466.78	12241.00
466.96	12414.20
467.14	12479.74
467.32	12554.63
467.51	12641.23
467.69	12222.28
467.87	12456.33
468.05	12704.43
468.23	12556.97
468.41	12355.69
468.60	12477.40
468.78	12666.98
468.96	12503.14
469.14	12987.63
469.32	12861.24
469.50	12812.09
469.69	13345.73
469.87	13284.88
470.05	13184.24
470.23	13364.46
470.41	13226.37
470.59	13341.05
470.77	13247.43
470.95	13310.63
471.14	13612.56
471.32	13202.96
471.50	13752.99
471.68	13661.71
471.86	13633.62
472.04	13736.60
472.22	14197.69
472.40	13682.77
472.58	13848.95
472.77	14239.82
472.95	13928.53
473.13	14387.27
473.31	14260.88
473.49	14012.79
473.67	14228.12
473.85	14265.57
474.03	14520.68
474.21	14817.93
474.39	14796.87
474.57	14778.14
474.75	14649.41
474.93	15005.17
475.12	15073.05
475.30	15063.69
475.48	15211.14
475.66	15220.50
475.84	15042.62
476.02	15452.22
476.20	15623.08
476.38	15765.85
476.56	15995.22
476.74	16109.91
476.92	15892.24
477.10	15798.62
477.28	16091.18
477.46	16372.05
477.64	16563.97
477.82	16425.88
478.00	17092.93
478.18	17060.16
478.36	17092.93
478.54	17298.90
478.72	17153.79
478.90	17621.89
479.08	17640.62
479.26	17830.20
479.44	17727.22
479.62	17778.71
479.80	17970.63
479.98	18148.51
480.16	18532.36
480.34	18534.70
480.52	18530.02
480.70	18768.76
480.88	18471.51
481.06	19028.56
481.24	18876.42
481.41	19325.80
481.59	19363.25
481.77	19250.91
481.95	19548.15
482.13	20020.94
482.31	20091.16
482.49	20325.21
482.67	20257.34
482.85	20606.08
483.03	20793.32
483.21	20514.80
483.39	20802.68
483.57	21387.82
483.74	21195.89
483.92	21593.78
484.10	21029.71
484.28	21909.75
484.46	22136.79
484.64	22281.90
484.82	22338.07
485.00	22300.62
485.18	22551.06
485.35	23133.86
485.53	23051.94
485.71	23133.86
485.89	23328.12
486.07	23410.04
486.25	23417.06
486.43	23887.51
486.61	24259.65
486.78	24196.46
486.96	24149.65
487.14	24465.62
487.32	24732.44
487.50	24938.41
487.68	25308.21
487.85	25263.74
488.03	25516.52
488.21	25785.68
488.39	25333.96
488.57	26338.05
488.75	26335.71
488.92	26450.39
489.10	26824.88
489.28	26703.17
489.46	27103.40
489.64	27204.05
489.81	27606.62
489.99	27754.07
490.17	27894.50
490.35	28318.14
490.53	28404.74
490.70	28360.27
490.88	28325.16
491.06	28914.98
491.24	28924.34
491.41	29060.09
491.59	29556.28
491.77	29127.97
491.95	29642.88
492.13	29919.07
492.30	30115.67
492.48	29968.22
492.66	30075.88
492.84	30731.23
493.01	30885.71
493.19	30630.59
493.37	30998.06
493.54	31239.13
493.72	31700.22
493.90	31569.15
494.08	31995.12
494.25	31929.59
494.43	32210.45
494.61	32020.87
494.79	32872.82
494.96	32584.94
495.14	32723.03
495.32	33429.87
495.49	33184.12
495.67	33357.32
495.85	33624.14
496.02	34026.71
496.20	33853.51
496.38	34155.44
496.55	34265.44
496.73	34991.01
496.91	34567.37
497.09	34616.52
497.26	35154.85
497.44	34864.62
497.62	35363.15
497.79	35908.50
497.97	35409.96
498.14	36133.19
498.32	36268.94
498.50	36444.48
498.67	36886.84
498.85	36570.87
499.03	37017.91
499.20	36884.50
499.38	36730.03
499.56	37303.46
499.73	36950.04
499.91	37366.65
500.08	38124.99
500.26	37312.82
500.44	37874.55
500.61	38162.43
500.79	37853.48
500.97	38375.42
501.14	38911.41
501.32	38466.70
501.49	38822.47
501.67	38850.55
501.84	38904.38
502.02	39187.59
502.20	38775.66
502.37	39412.28
502.55	39714.21
502.72	39636.97
502.90	39672.08
503.07	40037.20
503.25	40034.86
503.43	39580.80
503.60	40149.55
503.78	40472.54
503.95	40467.86
504.13	40402.33
504.30	40877.46
504.48	40673.83
504.65	40758.09
504.83	41340.88
505.01	41387.69
505.18	41024.91
505.36	41537.49
505.53	41303.43
505.71	41984.53
505.88	42110.92
506.06	41748.14
506.23	42197.52
506.41	41830.05
506.58	42398.80
506.76	42040.70
506.93	42464.34
507.11	42635.20
507.28	42419.87
507.46	42892.66
507.63	43215.65
507.81	43374.81
507.98	43196.93
508.16	43311.61
508.33	43896.75
508.50	43241.40
508.68	43842.92
508.85	44053.56
509.03	43693.12
509.20	44245.49
509.38	44282.94
509.55	44388.26
509.73	44746.36
509.90	44514.65
510.08	44563.80
510.25	44456.14
510.42	45029.57
510.60	45036.59
510.77	45364.26
510.95	45172.34
511.12	45364.26
511.30	45808.96
511.47	45851.09
511.64	46026.63
511.82	45993.87
511.99	45893.22
512.17	46665.60
512.34	45766.84
512.51	46838.80
512.69	46639.86
512.86	46199.83
513.04	46618.79
513.21	46848.16
513.38	46586.02
513.56	47433.30
513.73	46550.91
513.90	47281.16
514.08	46733.48
514.25	47103.28
514.43	47686.07
514.60	47648.63
514.77	47805.44
514.95	47789.06
515.12	47688.42
515.29	47559.69
515.47	47847.57
515.64	48065.24
515.81	48278.23
515.99	48413.98
516.16	48903.15
516.33	48189.29
516.51	48767.40
516.68	48566.12
516.85	48636.33
517.03	48814.21
517.20	48844.64
517.37	48807.19
517.54	48790.81
517.72	49382.96
517.89	49006.14
518.06	49502.33
518.24	49366.58
518.41	49411.05
518.58	49907.24
518.75	49502.33
518.93	49710.64
519.10	49659.15
519.27	50000.86
519.45	50075.76
519.62	50038.31
519.79	49972.78
519.96	49998.52
520.14	50314.50
520.31	50164.70
520.48	50637.49
520.65	50160.02
520.83	50887.93
521.00	51063.47
521.17	50487.70
521.34	50688.98
521.52	51110.28
521.69	50911.33
521.86	50908.99
522.03	51316.25
522.20	51452.00
522.38	51512.85
522.55	51529.23
522.72	51391.14
522.89	51246.03
523.07	52004.36
523.24	51688.39
523.41	51613.49
523.58	51454.34
523.75	51901.38
523.92	51831.16
524.10	52097.98
524.27	52261.82
524.44	52332.04
524.61	52446.72
524.78	52355.44
524.96	52453.75
525.13	52252.46
525.30	52697.16
525.47	52566.09
525.64	52418.64
525.81	52727.59
525.98	52678.44
526.16	52800.15
526.33	52781.42
526.50	53216.76
526.67	52832.91
526.84	52949.94
527.01	52968.66
527.18	53003.77
527.36	53179.31
527.53	53277.61
527.70	53432.09
527.87	53464.86
528.04	53343.15
528.21	53450.81
528.38	53504.65
528.55	53556.14
528.72	53542.10
528.89	53389.96
529.07	53427.41
529.24	53600.61
529.41	53778.49
529.58	53766.79
529.75	53675.51
529.92	53797.21
530.09	53776.15
530.26	54281.70
530.43	54361.28
530.60	54033.61
530.77	53932.96
530.94	54225.53
531.11	54148.29
531.28	54380.01
531.46	54380.01
531.63	54281.70
531.80	54291.07
531.97	54674.91
532.14	54611.72
532.31	54602.36
532.48	54787.26
532.65	54770.88
532.82	54749.81
532.99	54995.57
533.16	54567.25
533.33	55192.17
533.50	55253.03
533.67	54803.64
533.84	54955.78
534.01	54923.01
534.18	54892.58
534.35	55433.25
534.52	55290.48
534.69	55447.29
534.86	55278.77
535.03	55215.58
535.20	55150.04
535.37	55517.51
535.54	55344.31
535.71	55421.55
535.88	55442.61
536.05	55789.01
536.22	55494.10
536.38	55531.55
536.55	55683.69
536.72	55484.74
536.89	55576.02
537.06	55632.19
537.23	56034.77
537.40	55695.39
537.57	55697.73
537.74	55866.25
537.91	56018.38
538.08	56086.26
538.25	55821.78
538.42	55920.08
538.59	56247.75
538.75	56069.87
538.92	56076.90
539.09	56095.62
539.26	56126.05
539.43	56165.84
539.60	56172.86
539.77	56381.16
539.94	56493.51
540.11	56530.96
540.28	56533.30
540.44	56425.64
540.61	56523.94
540.78	56449.04
540.95	56631.60
541.12	56528.62
541.29	56610.54
541.46	56633.94
541.62	56795.44
541.79	56802.46
541.96	56509.89
542.13	56640.96
542.30	56802.46
542.47	56795.44
542.63	56839.91
542.80	57043.54
542.97	57169.93
543.14	57066.94
543.31	57172.27
543.48	57263.55
543.64	57528.03
543.81	57485.90
543.98	57565.48
544.15	57579.52
544.32	57581.86
544.48	57785.49
544.65	57474.20
544.82	57551.43
544.99	57560.79
545.16	57626.33
545.32	57570.16
545.49	57752.72
545.66	57895.49
545.83	57670.80
546.00	57879.11
546.16	57806.55
546.33	57694.21
546.50	57595.90
546.67	57902.51
546.83	57659.10
547.00	57792.51
547.17	57764.42
547.34	57811.23
547.50	58103.80
547.67	58059.33
547.84	57968.05
548.00	58000.82
548.17	58244.23
548.34	58124.86
548.51	58316.79
548.67	58159.97
548.84	58454.88
549.01	58302.74
549.18	58260.62
549.34	58403.39
549.51	58286.36
549.68	58543.82
549.84	58527.44
550.01	58415.09
550.18	58312.11
550.34	58527.44
550.51	58361.26
550.68	58585.95
550.84	58408.07
551.01	58614.04
551.18	58412.75
551.34	58653.82
551.51	58686.59
551.68	58548.50
551.84	58621.06
552.01	58562.54
552.18	58543.82
552.34	58459.56
552.51	58899.58
552.68	58679.57
552.84	58735.74
553.01	58951.07
553.18	58993.20
553.34	58731.06
553.51	58763.83
553.67	58869.15
553.84	58974.48
554.01	58855.11
554.17	59112.57
554.34	59110.23
554.51	59178.10
554.67	58941.71
554.84	59042.35
555.00	59037.67
555.17	58976.82
555.33	59004.91
555.50	59007.25
555.67	59213.21
555.83	59150.02
556.00	59065.76
556.16	59473.01
556.33	59290.45
556.50	59447.27
556.66	59487.06
556.83	59126.61
556.99	59522.16
557.16	59505.78
557.32	59489.40
557.49	59868.56
557.65	59501.10
557.82	59503.44
557.98	59475.35
558.15	59489.40
558.32	59657.91
558.48	59348.96
558.65	59709.41
558.81	59456.63
558.98	59756.22
559.14	59842.82
559.31	59812.39
559.47	59700.04
559.64	59826.43
559.80	59894.31
559.97	59889.63
560.13	59573.66
560.30	59786.64
560.46	59922.40
560.63	59891.97
560.79	59929.42
560.96	59962.18
561.12	59821.75
561.29	60095.60
561.45	59880.27
561.61	59714.09
561.78	59891.97
561.94	59870.90
562.11	59964.52
562.27	59959.84
562.44	60023.04
562.60	59992.61
562.77	59987.93
562.93	59760.90
563.10	60140.07
563.26	59964.52
563.42	60119.00
563.59	59980.91
563.75	60193.90
563.92	60086.23
564.08	60116.66
564.24	60154.11
564.41	60041.76
564.57	60292.20
564.74	60093.25
564.90	60172.83
565.07	60020.70
565.23	60172.83
565.39	60172.83
565.56	60231.35
565.72	60111.98
565.88	60257.09
566.05	60313.26
566.21	60243.05
566.38	60381.14
566.54	60334.33
566.70	60521.57
566.87	60509.87
567.03	60385.82
567.19	60526.25
567.36	60484.12
567.52	60172.83
567.68	60743.92
567.85	60495.83
568.01	60451.36
568.17	60168.15
568.34	60507.53
568.50	60219.64
568.66	60519.23
568.83	60479.44
568.99	60463.06
569.15	60626.90
569.32	60552.00
569.48	60444.33
569.64	60720.52
569.81	60552.00
569.97	60587.11
570.13	60662.00
570.30	60348.37
570.46	60676.05
570.62	60708.82
570.78	60563.70
570.95	60594.13
571.11	60645.62
571.27	60474.76
571.43	60446.68
571.60	60612.85
571.76	60615.19
571.92	60732.22
572.09	60500.51
572.25	60860.95
572.41	60706.47
572.57	60591.79
572.74	60786.05
572.90	60654.98
573.06	60701.79
573.22	60713.50
573.38	60680.73
573.55	60587.11
573.71	60851.59
573.87	60743.92
574.03	60537.96
574.20	60736.90
574.36	60685.41
574.52	60760.31
574.68	60816.48
574.84	60690.09
575.01	60802.44
575.17	60589.45
575.33	60706.47
575.49	60694.77
575.65	60814.14
575.82	60956.91
575.98	60870.31
576.14	60952.23
576.30	60921.80
576.46	60617.53
576.62	60886.70
576.79	60914.78
576.95	60708.82
577.11	60853.93
577.27	60947.55
577.43	61078.62
577.59	60863.29
577.75	60879.67
577.92	60713.50
578.08	60865.63
578.24	61017.77
578.40	61008.40
578.56	61153.52
578.72	60853.93
578.88	60900.74
579.04	60949.89
579.21	60837.54
579.37	61059.90
579.53	60992.02
579.69	60741.58
579.85	60804.78
580.01	60924.14
580.17	60774.35
580.33	60992.02
580.49	61013.08
580.65	61050.53
580.82	60699.45
580.98	60898.40
581.14	60921.80
581.30	61034.15
581.46	60685.41
581.62	61003.72
581.78	60907.76
581.94	60949.89
582.10	61045.85
582.26	61095.00
582.42	60893.72
582.58	60996.70
582.74	60889.04
582.90	60938.19
583.06	60959.25
583.22	60886.70
583.38	61132.45
583.54	61071.60
583.70	61212.03
583.86	61062.24
584.02	60977.98
584.18	61127.77
584.34	61102.03
584.50	60999.04
584.66	60907.76
584.82	60891.38
584.98	61137.13
585.14	61130.11
585.30	60931.17
585.46	60926.49
585.62	61048.19
585.78	61233.10
585.94	61104.37
586.10	61249.48
586.26	60966.27
586.42	61254.16
586.58	61102.03
586.74	61076.28
586.90	61148.84
587.06	61137.13
587.22	61291.61
587.38	61036.49
587.54	61130.11
587.70	61446.08
587.86	61052.87
588.02	61153.52
588.18	61176.92
588.34	61048.19
588.49	61118.41
