SpectraSuite Data File
++++++++++++++++++++++++++++++++++++
Date: Fri Oct 25 11:26:18 EDT 2013
User: price-jones
Dark Spectrum Present: No
Reference Spectrum Present: No
Number of Sampled Component Spectra: 1
Spectrometers: USB2+H05261
Integration Time (usec): 100000 (USB2+H05261)
Spectra Averaged: 1 (USB2+H05261)
Boxcar Smoothing: 0 (USB2+H05261)
Correct for Electrical Dark: No (USB2+H05261)
Strobe/Lamp Enabled: No (USB2+H05261)
Correct for Detector Non-linearity: No (USB2+H05261)
Correct for Stray Light: No (USB2+H05261)
Number of Pixels in Processed Spectrum: 2048
>>>>>Begin Processed Spectral Data<<<<<
365.73	285.55
365.92	285.55
366.12	285.55
366.32	170.86
366.52	182.56
366.72	198.95
366.91	77.24
367.11	147.45
367.31	119.37
367.51	63.19
367.70	107.66
367.90	138.09
368.10	154.48
368.30	156.82
368.49	105.32
368.69	210.65
368.89	173.20
369.09	177.88
369.28	173.20
369.48	180.22
369.68	227.03
369.87	212.99
370.07	245.76
370.27	278.52
370.47	376.83
370.66	615.56
370.86	674.07
371.06	674.07
371.25	737.27
371.45	716.20
371.65	737.27
371.84	741.95
372.04	669.39
372.24	730.25
372.44	774.72
372.63	702.16
372.83	760.67
373.03	763.01
373.22	777.06
373.42	751.31
373.62	739.61
373.81	795.78
374.01	692.80
374.21	809.83
374.40	842.59
374.60	828.55
374.79	833.23
374.99	851.96
375.19	758.33
375.38	894.08
375.58	842.59
375.78	854.30
375.97	805.14
376.17	873.02
376.37	840.25
376.56	903.45
376.76	856.64
376.95	800.46
377.15	891.74
377.35	868.34
377.54	896.43
377.74	821.53
377.93	910.47
378.13	933.87
378.33	816.85
378.52	940.90
378.72	994.73
378.91	997.07
379.11	968.98
379.31	959.62
379.50	952.60
379.70	1001.75
379.89	1025.15
380.09	966.64
380.28	1004.09
380.48	1029.84
380.68	936.21
380.87	961.96
381.07	910.47
381.26	1074.31
381.46	1013.45
381.65	1013.45
381.85	1090.69
382.04	1027.50
382.24	976.00
382.43	990.05
382.63	1097.71
382.83	1027.50
383.02	1081.33
383.22	1165.59
383.41	1111.75
383.61	1139.84
383.80	1165.59
384.00	1057.92
384.19	1186.65
384.39	1146.86
384.58	1191.33
384.78	1123.46
384.97	1153.88
385.17	1203.04
385.36	1146.86
385.56	1116.44
385.75	1224.10
385.95	1163.25
386.14	1214.74
386.34	1196.01
386.53	1172.61
386.72	1207.72
386.92	1254.53
387.11	1310.70
387.31	1191.33
387.50	1289.64
387.70	1235.80
387.89	1291.98
388.09	1261.55
388.28	1348.15
388.48	1179.63
388.67	1200.69
388.86	1404.32
389.06	1343.47
389.25	1371.55
389.45	1380.92
389.64	1409.00
389.84	1355.17
390.03	1376.24
390.22	1455.81
390.42	1406.66
390.61	1329.42
390.81	1385.60
391.00	1378.58
391.19	1495.60
391.39	1378.58
391.58	1493.26
391.78	1469.86
391.97	1537.73
392.16	1451.13
392.36	1483.90
392.55	1439.43
392.75	1551.78
392.94	1493.26
393.13	1607.95
393.33	1500.28
393.52	1507.30
393.71	1537.73
393.91	1561.14
394.10	1732.00
394.29	1614.97
394.49	1570.50
394.68	1680.50
394.88	1659.44
395.07	1631.35
395.26	1724.97
395.46	1626.67
395.65	1729.66
395.84	1781.15
396.04	1734.34
396.23	1732.00
396.42	1640.72
396.62	1865.41
396.81	1753.06
397.00	1661.78
397.19	1692.21
397.39	1811.57
397.58	1816.26
397.77	1811.57
397.97	1942.64
398.16	1741.36
398.35	1858.39
398.55	1858.39
398.74	1926.26
398.93	1966.05
399.12	1921.58
399.32	1853.70
399.51	1991.80
399.70	2085.42
399.90	1937.96
400.09	1956.69
400.28	2012.86
400.47	2069.03
400.67	2045.63
400.86	2071.37
401.05	1996.48
401.24	2064.35
401.44	2143.93
401.63	2111.16
401.82	2207.13
402.01	2127.55
402.21	2122.87
402.40	2172.02
402.59	2183.72
402.78	2097.12
402.97	2239.89
403.17	2207.13
403.36	2214.15
403.55	2197.76
403.74	2396.71
403.93	2333.51
404.13	2420.11
404.32	2368.62
404.51	2377.98
404.70	2373.30
404.89	2366.28
405.09	2415.43
405.28	2544.16
405.47	2380.32
405.66	2476.29
405.85	2492.67
406.05	2504.37
406.24	2506.71
406.43	2621.40
406.62	2480.97
406.81	2703.32
407.00	2586.29
407.20	2532.46
407.39	2509.05
407.58	2743.11
407.77	2747.79
407.96	2759.49
408.15	2799.28
408.34	2640.12
408.54	2698.64
408.73	2818.00
408.92	2991.20
409.11	2911.63
409.30	2899.92
409.49	2925.67
409.68	2937.37
409.87	2932.69
410.07	2974.82
410.26	2974.82
410.45	3059.08
410.64	3096.53
410.83	3150.36
411.02	3098.87
411.21	3180.79
411.40	3131.64
411.59	3150.36
411.78	3162.06
411.98	3215.90
412.17	3332.92
412.36	3332.92
412.55	3274.41
412.74	3389.10
412.93	3396.12
413.12	3382.07
413.31	3524.85
413.50	3452.29
413.69	3463.99
413.88	3578.68
414.07	3503.78
414.26	3644.21
414.45	3707.41
414.64	3646.55
414.83	3712.09
415.02	3918.06
415.22	3735.50
415.41	3810.39
415.60	3922.74
415.79	3810.39
415.98	4011.68
416.17	4018.70
416.36	3915.72
416.55	3997.64
416.74	4030.40
416.93	4070.19
417.12	4124.02
417.31	4009.34
417.50	4173.18
417.69	4266.80
417.88	4273.82
418.07	4238.71
418.26	4437.66
418.45	4355.74
418.64	4596.81
418.83	4299.56
419.02	4472.76
419.21	4491.49
419.39	4444.68
419.58	4491.49
419.77	4533.62
419.96	4475.10
420.15	4571.07
420.34	4594.47
420.53	4643.62
420.72	4596.81
420.91	4699.80
421.10	4786.40
421.29	4716.18
421.48	4596.81
421.67	4917.47
421.86	4786.40
422.05	4924.49
422.24	4660.01
422.43	4823.84
422.61	4915.12
422.80	4922.15
422.99	4863.63
423.18	4835.55
423.37	5039.17
423.56	4777.03
423.75	4952.57
423.94	4819.16
424.13	4496.17
424.32	4788.74
424.50	4943.21
424.69	5060.24
424.88	5050.88
425.07	4929.17
425.26	4975.98
425.45	4961.94
425.64	4880.02
425.83	4887.04
426.01	5041.51
426.20	5123.43
426.39	5041.51
426.58	5252.16
426.77	4908.10
426.96	5050.88
427.15	5156.20
427.33	5275.57
427.52	5151.52
427.71	5308.34
427.90	5184.29
428.09	5214.71
428.28	5233.44
428.46	5219.39
428.65	5418.34
428.84	5364.51
429.03	5493.24
429.22	5284.93
429.40	5476.85
429.59	5626.65
429.78	5423.02
429.97	5322.38
430.16	5341.10
430.34	5472.17
430.53	5703.89
430.72	5654.73
430.91	5542.39
431.10	5757.72
431.28	5673.46
431.47	5612.60
431.66	5881.77
431.85	5603.24
432.03	5902.83
432.22	5923.90
432.41	5776.44
432.60	5930.92
432.79	5825.59
432.97	5874.74
433.16	6031.56
433.35	5968.37
433.54	6179.01
433.72	5987.09
433.91	6031.56
434.10	6050.28
434.28	6200.08
434.47	6183.70
434.66	6171.99
434.85	6417.75
435.03	6125.18
435.22	6246.89
435.41	6427.11
435.59	6171.99
435.78	6534.78
435.97	6576.91
436.16	6506.69
436.34	6494.99
436.53	6544.14
436.72	6602.65
436.90	6562.86
437.09	6604.99
437.28	6487.96
437.46	6567.54
437.65	6745.42
437.84	6661.16
438.02	6876.49
438.21	6918.62
438.40	6792.23
438.58	6998.20
438.77	7026.29
438.96	6895.22
439.14	7155.02
439.33	7098.84
439.52	7105.87
439.70	7234.60
439.89	7314.17
440.08	7222.89
440.26	7283.75
440.45	7389.07
440.63	7449.93
440.82	7419.50
441.01	7487.37
441.19	7655.89
441.38	7646.53
441.57	7754.19
441.75	7847.82
441.94	7894.63
442.12	7793.98
442.31	7957.82
442.50	7978.89
442.68	7824.41
442.87	7981.23
443.05	8042.08
443.24	8217.62
443.43	8084.21
443.61	8121.66
443.80	8456.36
443.98	8063.15
444.17	7824.41
444.35	8170.81
444.54	8372.10
444.73	8374.44
444.91	8252.73
445.10	8332.31
445.28	8355.71
445.47	8388.48
445.65	8376.78
445.84	8521.89
446.02	8435.29
446.21	8271.45
446.39	8360.39
446.58	8479.76
446.77	8376.78
446.95	8411.89
447.14	8491.46
447.32	8617.85
447.51	8439.97
447.69	8526.57
447.88	8388.48
448.06	8439.97
448.25	8496.14
448.43	8397.84
448.62	8634.24
448.80	8444.65
448.99	8772.33
449.17	8695.09
449.36	8575.72
449.54	8837.86
449.73	8821.48
449.91	8795.73
450.10	8826.16
450.28	9146.81
450.46	8823.82
450.65	8952.55
450.83	9149.15
451.02	9071.92
451.20	9104.68
451.39	9100.00
451.57	9165.54
451.76	9013.40
451.94	8985.32
452.13	9233.41
452.31	9200.65
452.49	9163.20
452.68	9390.23
452.86	9371.50
453.05	9420.66
453.23	9383.21
453.42	9348.10
453.60	9303.63
453.78	9600.88
453.97	9479.17
454.15	9579.81
454.34	9699.18
454.52	9652.37
454.70	9825.57
454.89	9481.51
455.07	9715.56
455.26	9816.21
455.44	9928.55
455.62	9928.55
455.81	9902.81
455.99	9776.42
456.17	10061.96
456.36	10118.14
456.54	9994.09
456.73	10211.76
456.91	10274.95
457.09	10256.23
457.28	10537.09
457.46	10518.37
457.64	10471.56
457.83	10373.25
458.01	10476.24
458.19	10581.56
458.38	10303.04
458.56	10654.12
458.74	10712.63
458.93	10633.05
459.11	10693.91
459.29	10640.08
459.48	10745.40
459.66	10738.38
459.84	11000.52
460.03	11199.46
460.21	10665.82
460.39	10757.10
460.57	11103.50
460.76	11222.87
460.94	11178.40
461.12	10953.71
461.31	11056.69
461.49	11075.42
461.67	11007.54
461.85	11449.90
462.04	11126.91
462.22	11845.45
462.40	11487.35
462.59	11562.25
462.77	11627.78
462.95	11559.91
463.13	11573.95
463.32	11990.56
463.50	11683.95
463.68	11655.87
463.86	12100.57
464.05	11716.72
464.23	11407.77
464.41	11620.76
464.59	11496.71
464.78	12243.34
464.96	12102.91
465.14	11791.62
465.32	12072.48
465.50	12138.02
465.69	11946.09
465.87	12013.97
466.05	11976.52
466.23	12278.45
466.41	12100.57
466.60	12353.35
466.78	12189.51
466.96	12131.00
467.14	12276.11
467.32	12327.60
467.51	12727.83
467.69	12161.42
467.87	12299.52
468.05	12575.70
468.23	12446.97
468.41	12390.80
468.60	12538.25
468.78	12603.78
468.96	12620.17
469.14	12950.18
469.32	12746.56
469.50	12730.17
469.69	13048.49
469.87	13071.89
470.05	13165.51
470.23	13270.84
470.41	12973.59
470.59	12905.71
470.77	13043.81
470.95	13128.06
471.14	13437.02
471.32	13039.12
471.50	13451.06
471.68	13493.19
471.86	13769.37
472.04	13542.34
472.22	13886.40
472.40	13877.04
472.58	13970.66
472.77	13748.31
472.95	13841.93
473.13	14628.35
473.31	13977.68
473.49	14071.30
473.67	14001.08
473.85	14394.29
474.03	14649.41
474.21	14277.27
474.39	14574.52
474.57	14377.91
474.75	14885.81
474.93	14939.64
475.12	14649.41
475.30	15096.46
475.48	15105.82
475.66	15255.61
475.84	15201.78
476.02	15396.04
476.20	15066.03
476.38	15620.74
476.56	15899.26
476.74	16025.65
476.92	15990.54
477.10	15468.60
477.28	16095.86
477.46	16173.10
477.64	16332.26
477.82	16563.97
478.00	16772.28
478.18	16620.14
478.36	16702.06
478.54	16610.78
478.72	17099.95
478.90	17039.10
479.08	17539.97
479.26	17635.94
479.44	17675.73
479.62	17652.32
479.80	17947.23
479.98	18249.16
480.16	18375.55
480.34	18188.30
480.52	18558.11
480.70	18616.62
480.88	18340.44
481.06	18675.13
481.24	18635.35
481.41	18768.76
481.59	18885.78
481.77	19630.07
481.95	19513.05
482.13	19506.02
482.31	19625.39
482.49	19723.69
482.67	20070.09
482.85	20313.51
483.03	20517.14
483.21	20755.87
483.39	20746.51
483.57	20624.80
483.74	21125.68
483.92	20926.73
484.10	21231.00
484.28	21366.75
484.46	21921.46
484.64	21783.37
484.82	21699.11
485.00	22448.08
485.18	22544.04
485.35	22918.53
485.53	22560.42
485.71	22878.74
485.89	23646.43
486.07	23215.77
486.25	23225.14
486.43	23381.95
486.61	23702.61
486.78	23747.08
486.96	23997.51
487.14	24704.35
487.32	24524.13
487.50	24517.11
487.68	24779.25
487.85	25186.50
488.03	25355.02
488.21	25862.92
488.39	25839.51
488.57	26387.20
488.75	26012.71
488.92	26466.78
489.10	26094.63
489.28	26478.48
489.46	27002.76
489.64	26941.91
489.81	27435.76
489.99	27552.79
490.17	27374.91
490.35	27990.47
490.53	27927.27
490.70	28163.67
490.88	28025.57
491.06	28411.76
491.24	28765.18
491.41	28699.65
491.59	29003.92
491.77	29216.91
491.95	29359.68
492.13	29614.80
492.30	29589.05
492.48	29799.70
492.66	29869.92
492.84	30192.91
493.01	30827.20
493.19	30672.72
493.37	30927.84
493.54	30813.15
493.72	31407.65
493.90	31466.16
494.08	31662.77
494.25	31988.10
494.43	31772.77
494.61	32425.78
494.79	32306.41
494.96	32301.73
495.14	32568.55
495.32	33116.24
495.49	33282.42
495.67	32826.01
495.85	33336.25
496.02	33741.16
496.20	34305.23
496.38	34115.65
496.55	33979.90
496.73	34754.61
496.91	34546.31
497.09	34976.97
497.26	34953.56
497.44	34808.45
497.62	34785.04
497.79	35618.27
497.97	35339.75
498.14	35693.17
498.32	35955.31
498.50	35679.13
498.67	36723.01
498.85	36453.84
499.03	36137.87
499.20	36409.37
499.38	36673.85
499.56	36910.25
499.73	36683.22
499.91	37013.23
500.08	37380.70
500.26	37174.73
500.44	38005.62
500.61	37205.16
500.79	37425.17
500.97	37954.13
501.14	38057.11
501.32	38335.63
501.49	38576.71
501.67	38576.71
501.84	38555.64
502.02	38607.14
502.20	38663.31
502.37	39381.85
502.55	38990.98
502.72	39248.44
502.90	39522.29
503.07	39620.59
503.25	39541.01
503.43	39395.90
503.60	39433.35
503.78	39784.43
503.95	39868.69
504.13	40222.11
504.30	40376.58
504.48	40114.44
504.65	40690.21
504.83	40790.86
505.01	41155.98
505.18	40863.41
505.36	41010.87
505.53	41319.82
505.71	41464.93
505.88	41497.70
506.06	41146.62
506.23	41869.84
506.41	42099.22
506.58	42068.79
506.76	41972.83
506.93	42314.55
507.11	42075.81
507.28	42543.92
507.46	42171.77
507.63	42939.47
507.81	42925.42
507.98	42525.19
508.16	43091.60
508.33	43232.04
508.50	43487.15
508.68	43639.29
508.85	43969.30
509.03	43702.48
509.20	43583.12
509.38	43978.67
509.55	44105.06
509.73	44659.76
509.90	44240.81
510.08	44357.83
510.25	44484.22
510.42	44624.65
510.60	45123.19
510.77	44804.88
510.95	44900.84
511.12	45401.71
511.30	44982.76
511.47	45443.84
511.64	45450.86
511.82	45769.18
511.99	45085.74
512.17	45682.58
512.34	45783.22
512.51	46309.84
512.69	46277.07
512.86	46033.66
513.04	46288.77
513.21	46007.91
513.38	46693.69
513.56	46766.24
513.73	46307.50
513.90	46944.12
514.08	46368.35
514.25	47217.97
514.43	47313.93
514.60	47337.33
514.77	47356.06
514.95	47725.86
515.12	47152.43
515.29	47496.49
515.47	47716.50
515.64	48149.50
515.81	47702.46
515.99	48039.50
516.16	48299.30
516.33	48149.50
516.51	48594.20
516.68	48046.52
516.85	48055.88
517.03	48720.59
517.20	48383.55
517.37	48619.95
517.54	48816.55
517.72	48924.22
517.89	48818.89
518.06	48753.36
518.24	49024.86
518.41	49347.86
518.58	49144.23
518.75	49240.19
518.93	49834.69
519.10	49048.27
519.27	49244.87
519.45	49705.96
519.62	49743.41
519.79	49935.33
519.96	49935.33
520.14	50183.43
520.31	49689.57
520.48	50047.68
520.65	50059.38
520.83	50803.67
521.00	50506.42
521.17	50300.45
521.34	50593.02
521.52	50724.09
521.69	50639.83
521.86	50195.13
522.03	50820.05
522.20	51496.47
522.38	51154.75
522.55	51306.88
522.72	51269.43
522.89	51114.96
523.07	51569.02
523.24	51187.52
523.41	51707.12
523.58	51180.49
523.75	51959.89
523.92	51522.21
524.10	51861.59
524.27	51943.51
524.44	51709.46
524.61	51863.93
524.78	52076.92
524.96	52191.61
525.13	52205.65
525.30	52205.65
525.47	52275.87
525.64	52090.96
525.81	52355.44
525.98	52648.01
526.16	52397.57
526.33	52582.48
526.50	53179.31
526.67	52388.21
526.84	52919.51
527.01	52605.88
527.18	52643.33
527.36	52910.15
527.53	52924.19
527.70	53244.85
527.87	53111.44
528.04	53020.16
528.21	53102.07
528.38	52940.58
528.55	53642.74
528.72	53408.68
528.89	53144.20
529.07	53382.94
529.24	53268.25
529.41	53549.12
529.58	53504.65
529.75	53471.88
529.92	53771.47
530.09	53361.87
530.26	53879.13
530.43	53874.45
530.60	53502.31
530.77	53780.83
530.94	54082.76
531.11	53755.08
531.28	53961.05
531.46	54108.50
531.63	53918.92
531.80	54302.77
531.97	54005.52
532.14	54466.61
532.31	54232.55
532.48	54239.57
532.65	54326.17
532.82	54480.65
532.99	54419.80
533.16	54344.90
533.33	54440.86
533.50	54918.33
533.67	54703.00
533.84	54426.82
534.01	54862.16
534.18	54885.56
534.35	55063.44
534.52	54859.82
534.69	55140.68
534.86	55203.88
535.03	54918.33
535.20	54887.90
535.37	55107.91
535.54	55121.96
535.71	55145.36
535.88	55395.80
536.05	55004.93
536.22	55136.00
536.38	55550.27
536.55	55257.71
536.72	55576.02
536.89	55667.30
537.06	55707.09
537.23	55718.79
537.40	55238.98
537.57	55426.23
537.74	55402.82
537.91	55962.21
538.08	55824.12
538.25	55515.17
538.42	55894.33
538.59	56100.30
538.75	55636.87
538.92	55854.54
539.09	55971.57
539.26	55957.53
539.43	56184.56
539.60	55957.53
539.77	56259.46
539.94	56278.18
540.11	56268.82
540.28	56324.99
540.44	56275.84
540.61	56231.37
540.78	56268.82
540.95	56196.26
541.12	56100.30
541.29	56474.79
541.46	56364.78
541.62	56514.58
541.79	56694.80
541.96	56275.84
542.13	56467.76
542.30	56409.25
542.47	56666.71
542.63	56713.52
542.80	56795.44
542.97	56835.23
543.14	57151.20
543.31	57020.13
543.48	57176.95
543.64	57188.65
543.81	57286.95
543.98	57233.12
544.15	57286.95
544.32	57190.99
544.48	57579.52
544.65	57158.22
544.82	57261.21
544.99	57207.37
545.16	57425.04
545.32	57146.52
545.49	57516.32
545.66	57602.92
545.83	57408.66
546.00	57743.36
546.16	57483.56
546.33	57422.70
546.50	57305.68
546.67	57551.43
546.83	57406.32
547.00	57616.97
547.17	57570.16
547.34	57673.14
547.50	57874.43
547.67	57998.48
547.84	58024.22
548.00	58000.82
548.17	58026.56
548.34	57993.79
548.51	57916.56
548.67	58169.33
548.84	57961.03
549.01	57766.76
549.18	58056.99
549.34	58141.25
549.51	58274.66
549.68	58003.16
549.84	58120.18
550.01	58396.37
550.18	58244.23
550.34	58445.52
550.51	58291.04
550.68	58323.81
550.84	58056.99
551.01	58504.03
551.18	58344.87
551.34	58494.67
551.51	58405.73
551.68	58370.62
551.84	58192.74
552.01	58429.13
552.18	58564.88
552.34	58309.77
552.51	58625.74
552.68	58361.26
552.84	58485.31
553.01	58775.53
553.18	58478.28
553.34	58841.07
553.51	58698.30
553.67	58791.92
553.84	58922.99
554.01	58934.69
554.17	58745.11
554.34	59068.10
554.51	58831.71
554.67	58918.31
554.84	58763.83
555.00	58796.60
555.17	59002.56
555.33	58946.39
555.50	58815.32
555.67	58983.84
555.83	58733.40
556.00	58927.67
556.16	59297.47
556.33	59152.36
556.50	59334.92
556.66	59147.68
556.83	58951.07
556.99	59327.90
557.16	59461.31
557.32	59451.95
557.49	59402.80
557.65	59241.30
557.82	59274.07
557.98	59323.22
558.15	59379.39
558.32	59426.20
558.48	59395.77
558.65	59220.23
558.81	59292.79
558.98	59229.60
559.14	59533.87
559.31	59451.95
559.47	59564.29
559.64	59545.57
559.80	59503.44
559.97	59693.02
560.13	59386.41
560.30	59601.74
560.46	59777.28
560.63	59693.02
560.79	59536.21
560.96	59709.41
561.12	59510.46
561.29	59604.08
561.45	59423.86
561.61	59817.07
561.78	59714.09
561.94	59704.73
562.11	59618.13
562.27	59648.55
562.44	59758.56
562.60	59929.42
562.77	59805.37
562.93	59873.24
563.10	59835.80
563.26	59838.14
563.42	60037.08
563.59	59688.34
563.75	59873.24
563.92	59945.80
564.08	59884.95
564.24	59891.97
564.41	60168.15
564.57	59903.67
564.74	59985.59
564.90	59845.16
565.07	59887.29
565.23	60111.98
565.39	59739.83
565.56	60069.85
565.72	60177.51
565.88	60102.62
566.05	60072.19
566.21	59908.35
566.38	59889.63
566.54	60081.55
566.70	60212.62
566.87	60109.64
567.03	60065.17
567.19	60357.74
567.36	60334.33
567.52	59997.29
567.68	60374.12
567.85	60280.50
568.01	60175.17
568.17	60074.53
568.34	60252.41
568.50	60324.97
568.66	60523.91
568.83	60245.39
568.99	60364.76
569.15	60404.55
569.32	60362.42
569.48	60245.39
569.64	60313.26
569.81	60392.84
569.97	60381.14
570.13	60278.16
570.30	60289.86
570.46	60083.89
570.62	60367.10
570.78	60247.73
570.95	60252.41
571.11	60533.28
571.27	60420.93
571.43	60294.54
571.60	60601.15
571.76	60449.02
571.92	60566.04
572.09	60460.72
572.25	60271.14
572.41	60339.01
572.57	60392.84
572.74	60495.83
572.90	60207.94
573.06	60339.01
573.22	60559.02
573.38	60713.50
573.55	60495.83
573.71	60816.48
573.87	60645.62
574.03	60423.27
574.20	60657.32
574.36	60647.96
574.52	60446.68
574.68	60441.99
574.84	60816.48
575.01	60718.18
575.17	60444.33
575.33	60568.38
575.49	60477.10
575.65	60772.01
575.82	60711.16
575.98	60701.79
576.14	60743.92
576.30	60650.30
576.46	60467.74
576.62	60757.97
576.79	60601.15
576.95	60498.17
577.11	60619.88
577.27	60596.47
577.43	60802.44
577.59	60544.98
577.75	60556.68
577.92	60385.82
578.08	60797.76
578.24	60622.22
578.40	60907.76
578.56	60779.03
578.72	60664.35
578.88	60788.39
579.04	60963.93
579.21	60472.42
579.37	60912.44
579.53	60945.21
579.69	60608.17
579.85	60437.31
580.01	60704.13
580.17	60772.01
580.33	60821.16
580.49	61003.72
580.65	60994.36
580.82	60753.29
580.98	60919.46
581.14	60676.05
581.30	60877.33
581.46	60736.90
581.62	60896.06
581.78	60580.09
581.94	60762.65
582.10	60786.05
582.26	60748.60
582.42	60638.60
582.58	60757.97
582.74	60598.81
582.90	60767.33
583.06	60910.10
583.22	60652.64
583.38	60769.67
583.54	60919.46
583.70	60919.46
583.86	60795.42
584.02	60755.63
584.18	60903.08
584.34	60790.73
584.50	60942.87
584.66	60633.92
584.82	60692.43
584.98	60935.85
585.14	60872.65
585.30	60870.31
585.46	60992.02
585.62	60823.50
585.78	60947.55
585.94	60851.59
586.10	60989.68
586.26	60947.55
586.42	60844.57
586.58	61022.45
586.74	61116.07
586.90	60898.40
587.06	60870.31
587.22	60842.23
587.38	60966.27
587.54	60982.66
587.70	61118.41
587.86	60994.36
588.02	61013.08
588.18	61059.90
588.34	60830.52
588.49	61085.64
