SpectraSuite Data File
++++++++++++++++++++++++++++++++++++
Date: Fri Oct 25 11:25:48 EDT 2013
User: price-jones
Dark Spectrum Present: No
Reference Spectrum Present: No
Number of Sampled Component Spectra: 1
Spectrometers: USB2+H05261
Integration Time (usec): 100000 (USB2+H05261)
Spectra Averaged: 1 (USB2+H05261)
Boxcar Smoothing: 0 (USB2+H05261)
Correct for Electrical Dark: No (USB2+H05261)
Strobe/Lamp Enabled: No (USB2+H05261)
Correct for Detector Non-linearity: No (USB2+H05261)
Correct for Stray Light: No (USB2+H05261)
Number of Pixels in Processed Spectrum: 2048
>>>>>Begin Processed Spectral Data<<<<<
365.73	215.33
365.92	215.33
366.12	215.33
366.32	166.18
366.52	154.48
366.72	189.58
366.91	217.67
367.11	105.32
367.31	86.60
367.51	191.92
367.70	119.37
367.90	194.26
368.10	98.30
368.30	147.45
368.49	152.13
368.69	161.50
368.89	138.09
369.09	201.29
369.28	180.22
369.48	217.67
369.68	196.60
369.87	177.88
370.07	173.20
370.27	184.90
370.47	365.12
370.66	622.58
370.86	648.33
371.06	620.24
371.25	690.46
371.45	678.76
371.65	748.97
371.84	709.18
372.04	695.14
372.24	730.25
372.44	720.88
372.63	748.97
372.83	755.99
373.03	791.10
373.22	833.23
373.42	739.61
373.62	770.04
373.81	774.72
374.01	875.36
374.21	774.72
374.40	849.61
374.60	821.53
374.79	816.85
374.99	814.51
375.19	770.04
375.38	772.38
375.58	809.83
375.78	856.64
375.97	936.21
376.17	936.21
376.37	919.83
376.56	809.83
376.76	868.34
376.95	891.74
377.15	847.27
377.35	903.45
377.54	896.43
377.74	807.48
377.93	1004.09
378.13	894.08
378.33	873.02
378.52	896.43
378.72	938.55
378.91	954.94
379.11	954.94
379.31	901.11
379.50	976.00
379.70	1048.56
379.89	1078.99
380.09	1006.43
380.28	1034.52
380.48	999.41
380.68	1004.09
380.87	1029.84
381.07	1025.15
381.26	997.07
381.46	1048.56
381.65	1032.18
381.85	992.39
382.04	1041.54
382.24	1100.05
382.43	1027.50
382.63	1132.82
382.83	1039.20
383.02	1027.50
383.22	1130.48
383.41	1062.60
383.61	1163.25
383.80	1174.95
384.00	1076.65
384.19	1139.84
384.39	1128.14
384.58	1135.16
384.78	1114.10
384.97	1151.54
385.17	1076.65
385.36	1200.69
385.56	1177.29
385.75	1144.52
385.95	1121.12
386.14	1200.69
386.34	1128.14
386.53	1259.21
386.72	1226.44
386.92	1245.16
387.11	1238.14
387.31	1284.95
387.50	1212.40
387.70	1308.36
387.89	1233.46
388.09	1238.14
388.28	1390.28
388.48	1320.06
388.67	1371.55
388.86	1296.66
389.06	1306.02
389.25	1329.42
389.45	1313.04
389.64	1380.92
389.84	1385.60
390.03	1432.41
390.22	1409.00
390.42	1420.71
390.61	1385.60
390.81	1352.83
391.00	1392.62
391.19	1437.09
391.39	1394.96
391.58	1551.78
391.78	1495.60
391.97	1504.96
392.16	1387.94
392.36	1533.05
392.55	1593.90
392.75	1544.75
392.94	1481.56
393.13	1497.94
393.33	1474.54
393.52	1544.75
393.71	1526.03
393.91	1708.59
394.10	1720.29
394.29	1530.71
394.49	1519.01
394.68	1481.56
394.88	1678.16
395.07	1593.90
395.26	1619.65
395.46	1720.29
395.65	1757.74
395.84	1736.68
396.04	1837.32
396.23	1785.83
396.42	1813.92
396.62	1764.76
396.81	1809.23
397.00	1856.04
397.19	1795.19
397.39	1865.41
397.58	1902.86
397.77	1870.09
397.97	1912.22
398.16	1746.04
398.35	1849.02
398.55	1863.07
398.74	1940.30
398.93	1952.01
399.12	1930.94
399.32	1900.52
399.51	2015.20
399.70	2050.31
399.90	1909.88
400.09	1886.47
400.28	2017.54
400.47	2136.91
400.67	2078.40
400.86	2146.27
401.05	2104.14
401.24	2057.33
401.44	2087.76
401.63	2143.93
401.82	2150.95
402.01	1989.46
402.21	2181.38
402.40	2172.02
402.59	2162.66
402.78	2157.97
402.97	2286.70
403.17	2286.70
403.36	2286.70
403.55	2340.54
403.74	2267.98
403.93	2377.98
404.13	2385.01
404.32	2331.17
404.51	2256.28
404.70	2462.24
404.89	2417.77
405.09	2520.76
405.28	2509.05
405.47	2499.69
405.66	2530.12
405.85	2487.99
406.05	2541.82
406.24	2569.91
406.43	2537.14
406.62	2651.83
406.81	2644.81
407.00	2520.76
407.20	2600.34
407.39	2588.63
407.58	2722.04
407.77	2747.79
407.96	2771.19
408.15	2705.66
408.34	2715.02
408.54	2651.83
408.73	2836.73
408.92	2771.19
409.11	2939.71
409.30	2810.98
409.49	2839.07
409.68	2885.88
409.87	2862.48
410.07	2951.42
410.26	3005.25
410.45	3033.33
410.64	3026.31
410.83	3096.53
411.02	3063.76
411.21	3119.93
411.40	3126.96
411.59	3155.04
411.78	3190.15
411.98	3286.11
412.17	3400.80
412.36	3239.30
412.55	3433.57
412.74	3234.62
412.93	3351.65
413.12	3253.34
413.31	3433.57
413.50	3515.48
413.69	3424.20
413.88	3559.95
414.07	3524.85
414.26	3644.21
414.45	3693.37
414.64	3684.00
414.83	3847.84
415.02	3763.58
415.22	3857.20
415.41	3882.95
415.60	3878.27
415.79	3843.16
415.98	4021.04
416.17	4067.85
416.36	3887.63
416.55	4007.00
416.74	4035.08
416.93	3894.65
417.12	4175.52
417.31	4170.83
417.50	4255.09
417.69	4358.08
417.88	4346.37
418.07	4311.27
418.26	4329.99
418.45	4383.82
418.64	4484.47
418.83	4505.53
419.02	4418.93
419.21	4454.04
419.39	4540.64
419.58	4217.65
419.77	4418.93
419.96	4482.13
420.15	4695.11
420.34	4589.79
420.53	4573.41
420.72	4795.76
420.91	4702.14
421.10	4706.82
421.29	4578.09
421.48	4746.61
421.67	4828.53
421.86	4795.76
422.05	4784.06
422.24	4924.49
422.43	4861.29
422.61	4877.68
422.80	4917.47
422.99	4933.85
423.18	5011.09
423.37	5149.18
423.56	4896.40
423.75	4758.31
423.94	4858.95
424.13	4503.19
424.32	4730.22
424.50	4896.40
424.69	5083.64
424.88	5210.03
425.07	4931.51
425.26	4716.18
425.45	4868.31
425.64	4835.55
425.83	4840.23
426.01	5081.30
426.20	5069.60
426.39	5151.52
426.58	5107.05
426.77	5188.97
426.96	5116.41
427.15	5177.26
427.33	5224.08
427.52	5247.48
427.71	5139.82
427.90	5076.62
428.09	5107.05
428.28	5224.08
428.46	5432.38
428.65	5399.62
428.84	5523.66
429.03	5359.83
429.22	5460.47
429.40	5488.56
429.59	5509.62
429.78	5139.82
429.97	5266.21
430.16	5526.00
430.34	5474.51
430.53	5701.54
430.72	5738.99
430.91	5528.35
431.10	5523.66
431.28	5710.91
431.47	5849.00
431.66	5949.64
431.85	5755.38
432.03	5984.75
432.22	5841.98
432.41	5937.94
432.60	5989.43
432.79	5827.93
432.97	5914.53
433.16	6078.37
433.35	5966.03
433.54	6040.92
433.72	6071.35
433.91	6115.82
434.10	6129.86
434.28	6150.93
434.47	6317.11
434.66	6258.59
434.85	6136.88
435.03	6422.43
435.22	6200.08
435.41	6424.77
435.59	6494.99
435.78	6614.35
435.97	6427.11
436.16	6321.79
436.34	6399.02
436.53	6384.98
436.72	6576.91
436.90	6621.38
437.09	6597.97
437.28	6417.75
437.46	6850.75
437.65	6532.44
437.84	6649.46
438.02	6663.51
438.21	6775.85
438.40	6696.27
438.58	7026.29
438.77	7030.97
438.96	6944.37
439.14	7311.83
439.33	7047.35
439.52	7190.13
439.70	7262.68
439.89	7288.43
440.08	7337.58
440.26	7180.76
440.45	7213.53
440.63	7447.58
440.82	7702.70
441.01	7573.97
441.19	7637.17
441.38	7679.30
441.57	7737.81
441.75	7742.49
441.94	7779.94
442.12	7971.86
442.31	8091.23
442.50	7999.95
442.68	7955.48
442.87	7847.82
443.05	8107.62
443.24	8147.40
443.43	8142.72
443.61	8135.70
443.80	8402.52
443.98	8152.09
444.17	7768.24
444.35	8205.92
444.54	8451.67
444.73	8133.36
444.91	8159.11
445.10	8208.26
445.28	8311.24
445.47	8334.65
445.65	8287.84
445.84	8320.60
446.02	8472.74
446.21	8308.90
446.39	8444.65
446.58	8608.49
446.77	8381.46
446.95	8250.39
447.14	8276.13
447.32	8402.52
447.51	8500.83
447.69	8329.97
447.88	8463.38
448.06	8411.89
448.25	8610.83
448.43	8528.91
448.62	8802.75
448.80	8557.00
448.99	8606.15
449.17	8823.82
449.36	8594.45
449.54	8854.25
449.73	8882.33
449.91	9144.47
450.10	8849.57
450.28	8905.74
450.46	8898.72
450.65	9034.47
450.83	8975.95
451.02	8889.35
451.20	9167.88
451.39	9128.09
451.57	8943.19
451.76	8912.76
451.94	9231.07
452.13	9270.86
452.31	9207.67
452.49	9195.96
452.68	9259.16
452.86	9254.48
453.05	9415.98
453.23	9549.39
453.42	9291.93
453.60	9369.16
453.78	9664.07
453.97	9399.59
454.15	9525.98
454.34	9551.73
454.52	9891.10
454.70	9678.12
454.89	9736.63
455.07	9650.03
455.26	9937.91
455.44	9872.38
455.62	9893.44
455.81	9870.04
455.99	9846.63
456.17	9888.76
456.36	10047.92
456.54	9994.09
456.73	10078.35
456.91	10129.84
457.09	10305.38
457.28	10483.26
457.46	10394.32
457.64	10253.89
457.83	10384.96
458.01	10417.72
458.19	10553.48
458.38	10427.09
458.56	10665.82
458.74	10714.97
458.93	10647.10
459.11	10714.97
459.29	10633.05
459.48	10668.16
459.66	10876.47
459.84	10822.64
460.03	10934.98
460.21	10949.03
460.39	11098.82
460.57	10897.53
460.76	10899.87
460.94	10822.64
461.12	11316.49
461.31	11227.55
461.49	11063.71
461.67	11150.31
461.85	11459.26
462.04	11302.45
462.22	11892.26
462.40	11627.78
462.59	11627.78
462.77	11405.43
462.95	11590.33
463.13	11585.65
463.32	11466.28
463.50	11852.47
463.68	11705.02
463.86	11808.00
464.05	11595.01
464.23	11852.47
464.41	11772.89
464.59	11728.42
464.78	11969.50
464.96	12004.61
465.14	11847.79
465.32	11871.20
465.50	11957.80
465.69	12114.61
465.87	12074.82
466.05	12107.59
466.23	12131.00
466.41	12145.04
466.60	12606.13
466.78	11962.48
466.96	12245.68
467.14	12077.16
467.32	12336.96
467.51	12294.83
467.69	12035.03
467.87	12496.12
468.05	12521.87
468.23	12351.01
468.41	12470.37
468.60	12498.46
468.78	12503.14
468.96	12648.26
469.14	12744.22
469.32	12985.29
469.50	12816.77
469.69	12975.93
469.87	12952.52
470.05	13074.23
470.23	13249.77
470.41	13277.86
470.59	13357.44
470.77	13111.68
470.95	13160.83
471.14	13521.27
471.32	12844.86
471.50	13474.46
471.68	13406.59
471.86	13605.53
472.04	13671.07
472.22	13980.02
472.40	13640.64
472.58	13673.41
472.77	13940.23
472.95	14132.15
473.13	14438.76
473.31	13872.36
473.49	14080.66
473.67	13991.72
473.85	14345.14
474.03	14567.49
474.21	14424.72
474.39	14621.33
474.57	14668.14
474.75	14780.48
474.93	15009.86
475.12	14656.43
475.30	14892.83
475.48	14906.87
475.66	15122.20
475.84	14911.55
476.02	15082.41
476.20	15297.74
476.38	15503.71
476.56	15950.75
476.74	15791.59
476.92	15854.79
477.10	15590.31
477.28	15948.41
477.46	16018.63
477.64	16444.60
477.82	16575.67
478.00	17074.21
478.18	16489.07
478.36	16872.92
478.54	17011.01
478.72	16966.54
478.90	17350.39
479.08	17380.82
479.26	17247.41
479.44	17582.10
479.62	17771.69
479.80	17935.53
479.98	18150.85
480.16	18738.33
480.34	18171.92
480.52	18820.25
480.70	18829.61
480.88	18375.55
481.06	18822.59
481.24	18864.72
481.41	19143.24
481.59	19192.39
481.77	19452.19
481.95	19426.45
482.13	19632.41
482.31	19489.64
482.49	20156.69
482.67	20266.70
482.85	20259.68
483.03	20491.39
483.21	20582.67
483.39	20989.92
483.57	20673.95
483.74	21205.25
483.92	21144.40
484.10	21013.33
484.28	21326.96
484.46	22075.93
484.64	22396.59
484.82	21692.08
485.00	22190.62
485.18	22600.21
485.35	22918.53
485.53	22789.80
485.71	23234.50
485.89	23377.27
486.07	23255.56
486.25	23407.70
486.43	23498.98
486.61	23765.80
486.78	23903.89
486.96	24320.51
487.14	24367.32
487.32	24758.19
487.50	25102.25
487.68	25156.08
487.85	25186.50
488.03	25792.70
488.21	25558.65
488.39	25619.50
488.57	25886.32
488.75	26075.91
488.92	26188.25
489.10	26525.29
489.28	26637.64
489.46	26937.23
489.64	27000.42
489.81	27545.76
489.99	27644.07
490.17	28093.45
490.35	27871.10
490.53	28058.34
490.70	28498.36
490.88	28046.64
491.06	28610.71
491.24	28636.45
491.41	29242.65
491.59	29214.57
491.77	28924.34
491.95	29811.40
492.13	29661.61
492.30	29905.02
492.48	29970.56
492.66	30043.12
492.84	30394.20
493.01	30567.40
493.19	30785.07
493.37	31033.16
493.54	31138.49
493.72	31580.85
493.90	31534.04
494.08	31651.06
494.25	31901.50
494.43	32301.73
494.61	32589.62
494.79	32364.93
494.96	32072.36
495.14	32456.21
495.32	32629.41
495.49	33083.47
495.67	33268.37
495.85	33357.32
496.02	33462.64
496.20	33504.77
496.38	33921.38
496.55	34249.06
496.73	34424.60
496.91	34307.57
497.09	34455.03
497.26	35068.25
497.44	35051.86
497.62	35140.80
497.79	35386.56
497.97	35285.92
498.14	35943.61
498.32	36187.02
498.50	36011.48
498.67	36463.21
498.85	36327.45
499.03	36605.98
499.20	36678.54
499.38	36788.54
499.56	36797.90
499.73	36840.03
499.91	37106.85
500.08	37502.40
500.26	37050.68
500.44	37429.85
500.61	38162.43
500.79	37422.83
500.97	38103.92
501.14	38164.78
501.32	38728.84
501.49	38270.10
501.67	38410.53
501.84	38770.97
502.02	38682.03
502.20	39215.68
502.37	39203.97
502.55	38635.22
502.72	39538.67
502.90	39438.03
503.07	39482.50
503.25	39541.01
503.43	39487.18
503.60	39969.33
503.78	40208.06
503.95	40612.98
504.13	40383.60
504.30	40755.75
504.48	40275.94
504.65	40208.06
504.83	40697.24
505.01	41024.91
505.18	41008.53
505.36	41193.43
505.53	41102.15
505.71	41715.37
505.88	41687.28
506.06	41305.77
506.23	42003.25
506.41	41542.17
506.58	42167.09
506.76	42003.25
506.93	42581.37
507.11	41965.81
507.28	42595.41
507.46	42799.04
507.63	42990.96
507.81	43129.05
507.98	42955.85
508.16	42808.40
508.33	43555.03
508.50	43253.10
508.68	43662.69
508.85	43590.14
509.03	43480.13
509.20	43791.42
509.38	44039.52
509.55	44034.84
509.73	44397.62
509.90	44222.08
510.08	44203.36
510.25	44402.30
510.42	44605.93
510.60	44713.59
510.77	45151.27
510.95	45469.59
511.12	45076.38
511.30	44931.26
511.47	45558.53
511.64	45614.70
511.82	45921.31
511.99	45586.61
512.17	45621.72
512.34	46082.81
512.51	46398.78
512.69	46354.31
512.86	46433.89
513.04	46447.93
513.21	46803.69
513.38	46965.19
513.56	46490.06
513.73	46822.42
513.90	46972.21
514.08	46153.02
514.25	47093.92
514.43	47313.93
514.60	47210.95
514.77	47334.99
514.95	47377.12
515.12	47306.91
515.29	47847.57
515.47	47604.16
515.64	48126.10
515.81	47765.65
515.99	47922.47
516.16	48325.04
516.33	48208.01
516.51	48736.98
516.68	48369.51
516.85	48470.15
517.03	48624.63
517.20	48783.79
517.37	48556.75
517.54	48648.03
517.72	48568.46
517.89	48713.57
518.06	49027.20
518.24	49041.24
518.41	48917.20
518.58	49090.40
518.75	49240.19
518.93	49092.74
519.10	49256.57
519.27	49839.37
519.45	49345.51
519.62	49940.01
519.79	49893.20
519.96	49975.12
520.14	50129.59
520.31	49900.22
520.48	50363.65
520.65	50253.64
520.83	50621.11
521.00	50684.30
521.17	50365.99
521.34	50569.61
521.52	50838.78
521.69	50433.86
521.86	50724.09
522.03	50976.87
522.20	51194.54
522.38	51330.29
522.55	51173.47
522.72	51229.65
522.89	51042.40
523.07	51503.49
523.24	51379.44
523.41	51264.75
523.58	51440.29
523.75	51929.47
523.92	51606.47
524.10	51653.28
524.27	51695.41
524.44	51604.13
524.61	51978.62
524.78	52186.92
524.96	52207.99
525.13	52158.84
525.30	52179.90
525.47	52530.98
525.64	52491.19
525.81	52369.49
525.98	52816.53
526.16	52479.49
526.33	52545.03
526.50	52790.78
526.67	52568.43
526.84	53081.01
527.01	52818.87
527.18	52982.71
527.36	52994.41
527.53	52905.47
527.70	53282.30
527.87	53315.06
528.04	52898.45
528.21	53193.36
528.38	53242.51
528.55	53605.29
528.72	53581.88
528.89	53176.97
529.07	53364.21
529.24	53446.13
529.41	53752.74
529.58	53499.97
529.75	53855.73
529.92	53666.14
530.09	53815.94
530.26	53776.15
530.43	54012.54
530.60	53439.11
530.77	53628.69
530.94	54167.02
531.11	53907.22
531.28	54021.90
531.46	54225.53
531.63	54108.50
531.80	53975.09
531.97	54024.25
532.14	54480.65
532.31	54255.96
532.48	54740.45
532.65	54553.21
532.82	54508.74
532.99	54735.77
533.16	54588.31
533.33	54604.70
533.50	54923.01
533.67	54590.66
533.84	54890.24
534.01	54585.97
534.18	54775.56
534.35	55030.68
534.52	54859.82
534.69	55327.92
534.86	55430.91
535.03	55107.91
535.20	54962.80
535.37	55002.59
535.54	55327.92
535.71	55091.53
535.88	55337.29
536.05	55318.56
536.22	55583.04
536.38	55536.23
536.55	55473.04
536.72	55601.77
536.89	55110.25
537.06	55447.29
537.23	55758.58
537.40	55437.93
537.57	55517.51
537.74	55767.94
537.91	55777.31
538.08	55828.80
538.25	55576.02
538.42	56069.87
538.59	56224.35
538.75	55690.71
538.92	55908.38
539.09	56055.83
539.26	55884.97
539.43	56044.13
539.60	56179.88
539.77	55938.80
539.94	56332.01
540.11	56083.92
540.28	56053.49
540.44	56217.33
540.61	56287.54
540.78	56184.56
540.95	56226.69
541.12	56245.41
541.29	56196.26
541.46	56397.55
541.62	56470.11
541.79	56491.17
541.96	56172.86
542.13	56432.66
542.30	56610.54
542.47	56849.27
542.63	56917.15
542.80	56858.63
542.97	56999.07
543.14	57127.80
543.31	57111.41
543.48	57279.93
543.64	57598.24
543.81	57621.65
543.98	57446.11
544.15	57389.94
544.32	57537.39
544.48	57476.54
544.65	57432.07
544.82	57408.66
544.99	57024.81
545.16	57415.68
545.32	57359.51
545.49	57726.97
545.66	57708.25
545.83	57497.60
546.00	57556.11
546.16	57560.79
546.33	57354.83
546.50	57214.40
546.67	57560.79
546.83	57567.82
547.00	57633.35
547.17	57834.64
547.34	57853.36
547.50	57951.66
547.67	58080.39
547.84	57904.85
548.00	57942.30
548.17	58007.84
548.34	57972.73
548.51	58220.83
548.67	58101.46
548.84	58164.65
549.01	57867.40
549.18	58012.52
549.34	58298.06
549.51	58291.04
549.68	58302.74
549.84	58293.38
550.01	58424.45
550.18	58171.67
550.34	58487.65
550.51	58576.59
550.68	58225.51
550.84	58117.84
551.01	58358.92
551.18	58419.77
551.34	58534.46
551.51	58632.76
551.68	58592.97
551.84	58525.10
552.01	58536.80
552.18	58712.34
552.34	58389.34
552.51	58562.54
552.68	58550.84
552.84	58677.23
553.01	58511.05
553.18	58808.30
553.34	58798.94
553.51	58752.13
553.67	58892.56
553.84	58988.52
554.01	58899.58
554.17	58880.86
554.34	58918.31
554.51	58960.44
554.67	59002.56
554.84	58805.96
555.00	59173.42
555.17	59030.65
555.33	58897.24
555.50	58803.62
555.67	58972.14
555.83	59140.66
556.00	59021.29
556.16	59412.16
556.33	59358.33
556.50	59040.01
556.66	59325.56
556.83	59093.85
556.99	59363.01
557.16	59489.40
557.32	59508.12
557.49	59461.31
557.65	59255.34
557.82	59374.71
557.98	59292.79
558.15	59334.92
558.32	59540.89
558.48	59337.26
558.65	59325.56
558.81	59449.61
558.98	59433.22
559.14	59641.53
559.31	59550.25
559.47	59702.38
559.64	59641.53
559.80	59709.41
559.97	59753.88
560.13	59725.79
560.30	59913.03
560.46	59547.91
560.63	59540.89
560.79	59805.37
560.96	59873.24
561.12	59791.33
561.29	59756.22
561.45	59803.03
561.61	59550.25
561.78	59838.14
561.94	59601.74
562.11	59566.63
562.27	59793.67
562.44	59805.37
562.60	60053.47
562.77	59980.91
562.93	59821.75
563.10	60011.34
563.26	59936.44
563.42	59980.91
563.59	59737.49
563.75	59859.20
563.92	59943.46
564.08	60001.97
564.24	60116.66
564.41	60133.04
564.57	59969.21
564.74	59976.23
564.90	60119.00
565.07	60076.87
565.23	60048.78
565.39	59985.59
565.56	60200.92
565.72	60037.08
565.88	60182.19
566.05	60062.83
566.21	60023.04
566.38	60154.11
566.54	60369.44
566.70	60200.92
566.87	60200.92
567.03	60128.36
567.19	60388.16
567.36	60247.73
567.52	60357.74
567.68	60292.20
567.85	60432.63
568.01	60336.67
568.17	60233.69
568.34	60364.76
568.50	60310.92
568.66	60310.92
568.83	60238.37
568.99	60224.32
569.15	60051.12
569.32	60346.03
569.48	60193.90
569.64	60479.44
569.81	60383.48
569.97	60299.22
570.13	60367.10
570.30	60224.32
570.46	60404.55
570.62	60217.30
570.78	60441.99
570.95	60502.85
571.11	60692.43
571.27	60322.63
571.43	60472.42
571.60	60271.14
571.76	60444.33
571.92	60690.09
572.09	60470.08
572.25	60587.11
572.41	60463.06
572.57	60453.70
572.74	60687.75
572.90	60465.40
573.06	60449.02
573.22	60425.61
573.38	60633.92
573.55	60580.09
573.71	60837.54
573.87	60617.53
574.03	60430.29
574.20	60580.09
574.36	60509.87
574.52	60685.41
574.68	60451.36
574.84	60863.29
575.01	60659.66
575.17	60718.18
575.33	60530.93
575.49	60556.68
575.65	60694.77
575.82	60837.54
575.98	60612.85
576.14	60842.23
576.30	60797.76
576.46	60662.00
576.62	60608.17
576.79	60683.07
576.95	60610.51
577.11	60739.24
577.27	60790.73
577.43	60823.50
577.59	60577.75
577.75	60760.31
577.92	60645.62
578.08	60809.46
578.24	60631.58
578.40	61200.33
578.56	60935.85
578.72	60687.75
578.88	60898.40
579.04	60961.59
579.21	60610.51
579.37	61027.13
579.53	60985.00
579.69	60547.32
579.85	60631.58
580.01	60804.78
580.17	60556.68
580.33	60809.46
580.49	60980.32
580.65	60825.84
580.82	60828.18
580.98	60975.64
581.14	60975.64
581.30	61055.21
581.46	60917.12
581.62	60896.06
581.78	60736.90
581.94	61024.79
582.10	60788.39
582.26	60711.16
582.42	60764.99
582.58	60790.73
582.74	60821.16
582.90	60790.73
583.06	60860.95
583.22	60776.69
583.38	60912.44
583.54	60992.02
583.70	60823.50
583.86	60884.36
584.02	60697.11
584.18	61048.19
584.34	60816.48
584.50	60905.42
584.66	60917.12
584.82	60879.67
584.98	61139.47
585.14	61132.45
585.30	60753.29
585.46	60870.31
585.62	60961.59
585.78	61158.20
585.94	60809.46
586.10	61003.72
586.26	61043.51
586.42	60783.71
586.58	60961.59
586.74	61022.45
586.90	61226.07
587.06	60940.53
587.22	61087.98
587.38	61120.75
587.54	61172.24
587.70	61008.40
587.86	61202.67
588.02	60945.21
588.18	61050.53
588.34	60891.38
588.49	60959.25
