SpectraSuite Data File
++++++++++++++++++++++++++++++++++++
Date: Fri Oct 25 11:22:32 EDT 2013
User: price-jones
Dark Spectrum Present: No
Reference Spectrum Present: No
Number of Sampled Component Spectra: 1
Spectrometers: USB2+H05261
Integration Time (usec): 100000 (USB2+H05261)
Spectra Averaged: 1 (USB2+H05261)
Boxcar Smoothing: 0 (USB2+H05261)
Correct for Electrical Dark: No (USB2+H05261)
Strobe/Lamp Enabled: No (USB2+H05261)
Correct for Detector Non-linearity: No (USB2+H05261)
Correct for Stray Light: No (USB2+H05261)
Number of Pixels in Processed Spectrum: 2048
>>>>>Begin Processed Spectral Data<<<<<
365.73	229.37
365.92	229.37
366.12	229.37
366.32	154.48
366.52	58.51
366.72	145.11
366.91	74.90
367.11	161.50
367.31	58.51
367.51	86.60
367.70	93.62
367.90	128.73
368.10	81.92
368.30	135.75
368.49	93.62
368.69	149.79
368.89	152.13
369.09	117.03
369.28	100.64
369.48	145.11
369.68	187.24
369.87	131.07
370.07	110.01
370.27	255.12
370.47	351.08
370.66	624.92
370.86	622.58
371.06	718.54
371.25	648.33
371.45	592.16
371.65	669.39
371.84	627.26
372.04	615.56
372.24	692.80
372.44	699.82
372.63	727.91
372.83	770.04
373.03	760.67
373.22	723.23
373.42	779.40
373.62	826.21
373.81	788.76
374.01	798.12
374.21	791.10
374.40	847.27
374.60	781.74
374.79	814.51
374.99	842.59
375.19	826.21
375.38	858.98
375.58	842.59
375.78	821.53
375.97	891.74
376.17	926.85
376.37	767.70
376.56	882.38
376.76	858.98
376.95	856.64
377.15	917.49
377.35	830.89
377.54	896.43
377.74	926.85
377.93	898.77
378.13	863.66
378.33	905.79
378.52	933.87
378.72	950.26
378.91	945.58
379.11	903.45
379.31	896.43
379.50	910.47
379.70	945.58
379.89	1097.71
380.09	1029.84
380.28	950.26
380.48	983.02
380.68	1013.45
380.87	999.41
381.07	1006.43
381.26	1081.33
381.46	1004.09
381.65	1090.69
381.85	1076.65
382.04	1064.94
382.24	1041.54
382.43	997.07
382.63	1048.56
382.83	1018.13
383.02	1039.20
383.22	1104.73
383.41	1064.94
383.61	1123.46
383.80	1198.35
384.00	1142.18
384.19	1013.45
384.39	1102.39
384.58	1198.35
384.78	1156.22
384.97	1186.65
385.17	1214.74
385.36	1224.10
385.56	1093.03
385.75	1095.37
385.95	1212.40
386.14	1177.29
386.34	1266.23
386.53	1235.80
386.72	1121.12
386.92	1256.87
387.11	1252.19
387.31	1207.72
387.50	1266.23
387.70	1287.29
387.89	1186.65
388.09	1315.38
388.28	1303.68
388.48	1296.66
388.67	1245.16
388.86	1338.79
389.06	1376.24
389.25	1359.85
389.45	1397.30
389.64	1359.85
389.84	1362.19
390.03	1350.49
390.22	1462.83
390.42	1355.17
390.61	1364.53
390.81	1497.94
391.00	1376.24
391.19	1483.90
391.39	1364.53
391.58	1483.90
391.78	1387.94
391.97	1530.71
392.16	1467.52
392.36	1577.52
392.55	1472.20
392.75	1504.96
392.94	1488.58
393.13	1516.67
393.33	1537.73
393.52	1460.49
393.71	1516.67
393.91	1596.25
394.10	1511.99
394.29	1572.84
394.49	1631.35
394.68	1633.69
394.88	1774.13
395.07	1703.91
395.26	1619.65
395.46	1717.95
395.65	1732.00
395.84	1710.93
396.04	1732.00
396.23	1746.04
396.42	1699.23
396.62	1816.26
396.81	1778.81
397.00	1849.02
397.19	1856.04
397.39	1703.91
397.58	1837.32
397.77	1813.92
397.97	1975.41
398.16	1930.94
398.35	1834.98
398.55	1818.60
398.74	1858.39
398.93	2019.88
399.12	1919.24
399.32	2024.56
399.51	1949.67
399.70	1959.03
399.90	2085.42
400.09	2059.67
400.28	1991.80
400.47	2113.50
400.67	2052.65
400.86	2221.17
401.05	2106.48
401.24	2069.03
401.44	2270.32
401.63	2143.93
401.82	2197.76
402.01	2010.52
402.21	2169.68
402.40	2183.72
402.59	2146.27
402.78	2277.34
402.97	2232.87
403.17	2263.30
403.36	2324.15
403.55	2377.98
403.74	2377.98
403.93	2366.28
404.13	2380.32
404.32	2317.13
404.51	2300.75
404.70	2558.21
404.89	2370.96
405.09	2572.25
405.28	2546.50
405.47	2429.48
405.66	2424.80
405.85	2427.14
406.05	2469.27
406.24	2637.78
406.43	2572.25
406.62	2597.99
406.81	2658.85
407.00	2658.85
407.20	2532.46
407.39	2588.63
407.58	2771.19
407.77	2785.24
407.96	2820.35
408.15	2818.00
408.34	2773.53
408.54	2789.92
408.73	2726.72
408.92	2897.58
409.11	2832.05
409.30	2913.97
409.49	2930.35
409.68	2956.10
409.87	3063.76
410.07	2974.82
410.26	3063.76
410.45	2904.60
410.64	3108.23
410.83	3066.10
411.02	3138.66
411.21	3239.30
411.40	3243.98
411.59	3096.53
411.78	3309.52
411.98	3229.94
412.17	3332.92
412.36	3304.84
412.55	3382.07
412.74	3494.42
412.93	3529.53
413.12	3375.05
413.31	3581.02
413.50	3473.36
413.69	3466.33
413.88	3541.23
414.07	3562.30
414.26	3679.32
414.45	3768.26
414.64	3756.56
414.83	3875.93
415.02	3836.14
415.22	3770.60
415.41	3826.78
415.60	3899.33
415.79	3845.50
415.98	4168.49
416.17	4079.55
416.36	4065.51
416.55	3974.23
416.74	4128.70
416.93	4248.07
417.12	4255.09
417.31	4255.09
417.50	4245.73
417.69	4299.56
417.88	4435.32
418.07	4334.67
418.26	4416.59
418.45	4358.08
418.64	4484.47
418.83	4540.64
419.02	4493.83
419.21	4589.79
419.39	4606.17
419.58	4465.74
419.77	4477.44
419.96	4580.43
420.15	4587.45
420.34	4550.00
420.53	4629.58
420.72	4784.06
420.91	4678.73
421.10	4702.14
421.29	4945.55
421.48	4617.88
421.67	4727.88
421.86	4809.80
422.05	4901.08
422.24	4791.08
422.43	4926.83
422.61	4959.60
422.80	5022.79
422.99	5001.72
423.18	4990.02
423.37	5097.69
423.56	4973.64
423.75	4933.85
423.94	4919.81
424.13	4638.94
424.32	4800.44
424.50	4959.60
424.69	5167.90
424.88	5076.62
425.07	5104.71
425.26	4968.96
425.45	4999.38
425.64	4959.60
425.83	5128.11
426.01	5259.18
426.20	5165.56
426.39	5132.79
426.58	5158.54
426.77	5240.46
426.96	5231.10
427.15	5078.96
427.33	5329.40
427.52	5231.10
427.71	5376.21
427.90	5153.86
428.09	5366.85
428.28	5413.66
428.46	5408.98
428.65	5530.69
428.84	5502.60
429.03	5486.22
429.22	5324.72
429.40	5547.07
429.59	5497.92
429.78	5359.83
429.97	5479.19
430.16	5441.75
430.34	5638.35
430.53	5853.68
430.72	5724.95
430.91	5715.59
431.10	5593.88
431.28	5823.25
431.47	5851.34
431.66	5942.62
431.85	5710.91
432.03	5893.47
432.22	6059.65
432.41	5949.64
432.60	6066.67
432.79	5989.43
432.97	6160.29
433.16	6174.33
433.35	5973.05
433.54	6099.44
433.72	6167.31
433.91	6092.41
434.10	6347.53
434.28	6078.37
434.47	6300.72
434.66	6305.40
434.85	6176.67
435.03	6333.49
435.22	6293.70
435.41	6370.94
435.59	6303.06
435.78	6394.34
435.97	6436.47
436.16	6511.37
436.34	6546.48
436.53	6497.33
436.72	6595.63
436.90	6565.20
437.09	6707.98
437.28	6698.61
437.46	6750.10
437.65	6785.21
437.84	6855.43
438.02	6766.49
438.21	6712.66
438.40	6736.06
438.58	7054.37
438.77	7201.83
438.96	7007.56
439.14	7307.15
439.33	7133.95
439.52	7269.70
439.70	7279.07
439.89	7365.67
440.08	7386.73
440.26	7410.14
440.45	7403.11
440.63	7543.55
440.82	7637.17
441.01	7487.37
441.19	7674.62
441.38	7854.84
441.57	7782.28
441.75	7894.63
441.94	8100.59
442.12	8028.04
442.31	8215.28
442.50	8163.79
442.68	8037.40
442.87	8163.79
443.05	8215.28
443.24	8376.78
443.43	8329.97
443.61	8145.06
443.80	8566.36
443.98	8299.54
444.17	7911.01
444.35	8325.29
444.54	8545.30
444.73	8531.25
444.91	8205.92
445.10	8409.54
445.28	8250.39
445.47	8241.03
445.65	8456.36
445.84	8470.40
446.02	8688.07
446.21	8470.40
446.39	8486.78
446.58	8734.88
446.77	8706.79
446.95	8402.52
447.14	8592.11
447.32	8683.39
447.51	8617.85
447.69	8599.13
447.88	8540.61
448.06	8659.98
448.25	8617.85
448.43	8835.52
448.62	8676.37
448.80	8608.49
448.99	8767.65
449.17	8755.94
449.36	8854.25
449.54	9029.79
449.73	9165.54
449.91	8994.68
450.10	8987.66
450.28	9289.59
450.46	9296.61
450.65	9142.13
450.83	9247.46
451.02	9179.58
451.20	9493.21
451.39	9291.93
451.57	9193.62
451.76	9334.06
451.94	9430.02
452.13	9245.12
452.31	9259.16
452.49	9071.92
452.68	9390.23
452.86	9373.85
453.05	9785.78
453.23	9666.41
453.42	9430.02
453.60	9570.45
453.78	9568.11
453.97	9509.60
454.15	9788.12
454.34	9692.16
454.52	9760.03
454.70	9872.38
454.89	9900.47
455.07	9980.04
455.26	9881.74
455.44	10239.84
455.62	9867.70
455.81	10024.51
455.99	10045.58
456.17	10246.87
456.36	10176.65
456.54	10303.04
456.73	10202.40
456.91	10637.73
457.09	10537.09
457.28	10789.87
457.46	10586.24
457.64	10684.55
457.83	10724.33
458.01	10665.82
458.19	11052.01
458.38	10595.61
458.56	10848.38
458.74	11040.31
458.93	10824.98
459.11	10820.30
459.29	10846.04
459.48	10897.53
459.66	11037.97
459.84	11075.42
460.03	11126.91
460.21	11227.55
460.39	11108.18
460.57	10963.07
460.76	11367.98
460.94	11290.74
461.12	11559.91
461.31	11405.43
461.49	11339.90
461.67	11253.30
461.85	11616.08
462.04	11332.87
462.22	11630.12
462.40	11604.38
462.59	11637.14
462.77	11543.52
462.95	11445.22
463.13	11782.26
463.32	11831.41
463.50	11976.52
463.68	11964.82
463.86	11896.94
464.05	11852.47
464.23	11950.78
464.41	12060.78
464.59	11852.47
464.78	12346.33
464.96	12203.55
465.14	11988.22
465.32	12285.47
465.50	12269.09
465.69	12594.42
465.87	12013.97
466.05	12343.99
466.23	12372.07
466.41	12425.90
466.60	12554.63
466.78	12461.01
466.96	12301.86
467.14	12725.49
467.32	12311.22
467.51	12498.46
467.69	12355.69
467.87	12468.03
468.05	12917.42
468.23	12425.90
468.41	12547.61
468.60	12641.23
468.78	12875.29
468.96	12849.54
469.14	12905.71
469.32	13069.55
469.50	12842.52
469.69	12856.56
469.87	13137.43
470.05	13231.05
470.23	13628.94
470.41	13224.03
470.59	13490.85
470.77	13319.99
470.95	13532.98
471.14	13628.94
471.32	13406.59
471.50	13909.80
471.68	14141.52
471.86	13825.54
472.04	13848.95
472.22	14153.22
472.40	13830.23
472.58	13809.16
472.77	14246.84
472.95	14523.02
473.13	15103.48
473.31	14216.41
473.49	14417.70
473.67	14267.91
473.85	14530.05
474.03	14689.20
474.21	14981.77
474.39	14773.46
474.57	15089.43
474.75	15140.93
474.93	15190.08
475.12	15370.30
475.30	15304.76
475.48	15398.38
475.66	15417.11
475.84	15550.52
476.02	15747.12
476.20	15805.64
476.38	15871.17
476.56	16348.64
476.74	16208.21
476.92	15999.90
477.10	15887.56
477.28	16409.50
477.46	16287.79
477.64	16711.42
477.82	16713.77
478.00	17539.97
478.18	17097.61
478.36	17116.34
478.54	17334.01
478.72	17500.19
478.90	17572.74
479.08	17680.41
479.26	17853.61
479.44	18310.01
479.62	18148.51
479.80	18134.47
479.98	18448.10
480.16	18651.73
480.34	18551.09
480.52	18719.60
480.70	18738.33
480.88	18326.39
481.06	18984.09
481.24	19438.15
481.41	19573.90
481.59	19538.79
481.77	19557.52
481.95	19707.31
482.13	19894.55
482.31	20091.16
482.49	20414.15
482.67	20402.45
482.85	20706.72
483.03	20585.01
483.21	20884.60
483.39	20940.77
483.57	21085.89
483.74	21345.69
483.92	21832.52
484.10	21488.46
484.28	21790.39
484.46	22544.04
484.64	22450.42
484.82	22235.09
485.00	22539.36
485.18	23000.44
485.35	23278.97
485.53	23037.89
485.71	23594.94
485.89	23775.16
486.07	23735.37
486.25	23506.00
486.43	23864.10
486.61	24259.65
486.78	24119.22
486.96	24271.36
487.14	24978.20
487.32	24765.21
487.50	24985.22
487.68	25565.67
487.85	26127.40
488.03	25675.68
488.21	26380.18
488.39	26199.96
488.57	26434.01
488.75	26562.74
488.92	26602.53
489.10	27108.08
489.28	27112.77
489.46	27358.52
489.64	27267.24
489.81	28283.03
489.99	28063.02
490.17	28002.17
490.35	28519.43
490.53	28456.23
490.70	28479.64
490.88	28613.05
491.06	29165.42
491.24	29268.40
491.41	29373.72
491.59	29785.66
491.77	29783.32
491.95	29965.88
492.13	30127.38
492.30	30228.02
492.48	30340.36
492.66	30593.14
492.84	30756.98
493.01	30991.03
493.19	30871.67
493.37	31550.42
493.54	31634.68
493.72	31913.20
493.90	31871.07
494.08	32154.28
494.25	32439.82
494.43	32531.11
494.61	32570.90
494.79	33200.50
494.96	32823.67
495.14	33493.07
495.32	33642.86
495.49	33488.38
495.67	33514.13
495.85	34202.25
496.02	34450.35
496.20	34539.29
496.38	34588.44
496.55	34497.16
496.73	35040.16
496.91	35140.80
497.09	35147.82
497.26	35091.65
497.44	35295.28
497.62	35772.75
497.79	36233.83
497.97	36226.81
498.14	36210.43
498.32	36465.55
498.50	36568.53
498.67	37010.89
498.85	37057.70
499.03	37233.24
499.20	37006.21
499.38	37483.68
499.56	37867.53
499.73	37970.51
499.91	37649.86
500.08	38272.44
500.26	37741.14
500.44	38279.46
500.61	38532.24
500.79	38153.07
500.97	38663.31
501.14	39318.66
501.32	38848.21
501.49	39332.70
501.67	39166.52
501.84	39716.55
502.02	39342.06
502.20	39463.77
502.37	39608.89
502.55	39817.19
502.72	39983.37
502.90	39866.34
503.07	40004.44
503.25	40378.92
503.43	40505.31
503.60	40912.56
503.78	40875.12
503.95	40692.55
504.13	41029.59
504.30	40975.76
504.48	40727.66
504.65	41411.10
504.83	41701.32
505.01	41827.71
505.18	41610.04
505.36	42021.98
505.53	42110.92
505.71	42529.87
505.88	42562.64
506.06	41773.88
506.23	42572.00
506.41	42136.66
506.58	42621.16
506.76	42806.06
506.93	43559.71
507.11	43115.01
507.28	43016.71
507.46	43332.68
507.63	43555.03
507.81	43831.21
507.98	43159.48
508.16	43342.04
508.33	43772.70
508.50	44350.81
508.68	44388.26
508.85	44357.83
509.03	44573.16
509.20	44832.96
509.38	44683.17
509.55	44933.60
509.73	45006.16
509.90	45088.08
510.08	44975.73
510.25	45382.99
510.42	45563.21
510.60	45085.74
510.77	45993.87
510.95	45996.21
511.12	45893.22
511.30	45862.80
511.47	45823.01
511.64	46225.58
511.82	46609.43
511.99	46323.88
512.17	46232.60
512.34	46471.34
512.51	46873.91
512.69	46927.74
512.86	46918.38
513.04	47445.00
513.21	46937.10
513.38	47454.36
513.56	47288.18
513.73	47569.05
513.90	47428.62
514.08	47878.00
514.25	47873.32
514.43	47611.18
514.60	48245.46
514.77	47564.37
514.95	48107.37
515.12	47971.62
515.29	48196.31
515.47	48641.01
515.64	48830.60
515.81	48477.18
515.99	48751.02
516.16	48760.38
516.33	48776.76
516.51	49666.17
516.68	48966.35
516.85	48985.07
517.03	49495.31
517.20	49270.62
517.37	49521.05
517.54	49406.37
517.72	49188.70
517.89	49511.69
518.06	49979.80
518.24	49581.91
518.41	49811.28
518.58	49989.16
518.75	49855.75
518.93	49890.86
519.10	50178.75
519.27	50047.68
519.45	50410.46
519.62	50312.16
519.79	50358.97
519.96	50560.25
520.14	50806.01
520.31	50595.36
520.48	50876.22
520.65	50642.17
520.83	50749.84
521.00	51377.10
521.17	50616.43
521.34	51030.70
521.52	51049.42
521.69	51468.38
521.86	51618.17
522.03	51737.54
522.20	51711.80
522.38	51957.55
522.55	52048.83
522.72	51590.09
522.89	51774.99
523.07	51999.68
523.24	51934.15
523.41	52170.54
523.58	52009.04
523.75	52313.31
523.92	52107.35
524.10	52474.81
524.27	52388.21
524.44	52645.67
524.61	52411.62
524.78	52341.40
524.96	52683.12
525.13	52853.98
525.30	52765.04
525.47	52725.25
525.64	53015.47
525.81	53375.92
525.98	53153.57
526.16	53050.58
526.33	53099.73
526.50	53366.55
526.67	53141.86
526.84	53350.17
527.01	52982.71
527.18	53265.91
527.36	53446.13
527.53	53490.60
527.70	53649.76
527.87	53600.61
528.04	53535.07
528.21	53668.48
528.38	53574.86
528.55	53918.92
528.72	53780.83
528.89	53832.32
529.07	53769.13
529.24	53867.43
529.41	53989.14
529.58	53900.20
529.75	54028.93
529.92	54042.97
530.09	54192.76
530.26	54347.24
530.43	54396.39
530.60	54305.11
530.77	54429.16
530.94	54513.42
531.11	54473.63
531.28	54553.21
531.46	54497.03
531.63	55023.65
531.80	54454.90
531.97	55072.81
532.14	55061.10
532.31	54759.17
532.48	55051.74
532.65	55166.43
532.82	54845.77
532.99	54967.48
533.16	54946.42
533.33	55213.24
533.50	55121.96
533.67	55288.13
533.84	55044.72
534.01	55337.29
534.18	55154.72
534.35	55590.06
534.52	55657.94
534.69	55662.62
534.86	55662.62
535.03	55409.84
535.20	55526.87
535.37	55608.79
535.54	55580.70
535.71	55653.26
535.88	55814.76
536.05	55983.27
536.22	55999.66
536.38	55983.27
536.55	56107.32
536.72	55910.72
536.89	55796.03
537.06	56053.49
537.23	55962.21
537.40	56072.21
537.57	56343.72
537.74	56205.62
537.91	56442.02
538.08	56247.75
538.25	56112.00
538.42	56301.59
538.59	56561.39
538.75	56390.53
538.92	56119.02
539.09	56547.34
539.26	56650.33
539.43	56402.23
539.60	56671.39
539.77	56657.35
539.94	56804.80
540.11	56655.01
540.28	56853.95
540.44	56690.12
540.61	56938.21
540.78	56767.35
540.95	56666.71
541.12	56837.57
541.29	56725.22
541.46	56966.30
541.62	56987.36
541.79	57181.63
541.96	56942.89
542.13	56949.92
542.30	56956.94
542.47	57336.10
542.63	57296.31
542.80	57095.03
542.97	57343.12
543.14	57495.26
543.31	57434.41
543.48	57462.49
543.64	57698.89
543.81	57570.16
543.98	57635.69
544.15	57705.91
544.32	57829.96
544.48	57890.81
544.65	57623.99
544.82	57719.95
544.99	57490.58
545.16	57787.83
545.32	57663.78
545.49	57986.77
545.66	58106.14
545.83	57970.39
546.00	58021.88
546.16	58129.54
546.33	57902.51
546.50	57972.73
546.67	57972.73
546.83	57764.42
547.00	58356.58
547.17	58202.10
547.34	57986.77
547.50	58274.66
547.67	58504.03
547.84	58333.17
548.00	58592.97
548.17	58485.31
548.34	58592.97
548.51	58473.60
548.67	58578.93
548.84	58468.92
549.01	58422.11
549.18	58312.11
549.34	58387.00
549.51	58492.33
549.68	58944.05
549.84	58738.08
550.01	58614.04
550.18	58583.61
550.34	58752.13
550.51	58815.32
550.68	58958.09
550.84	58571.91
551.01	58904.26
551.18	58922.99
551.34	58862.13
551.51	58925.33
551.68	58834.05
551.84	58789.58
552.01	58787.24
552.18	59135.98
552.34	58976.82
552.51	59011.93
552.68	59030.65
552.84	58953.41
553.01	59093.85
553.18	59077.46
553.34	59178.10
553.51	58829.37
553.67	59063.42
553.84	59290.45
554.01	59222.58
554.17	59283.43
554.34	59222.58
554.51	59262.36
554.67	59330.24
554.84	59334.92
555.00	59215.55
555.17	59470.67
555.33	59405.14
555.50	59061.08
555.67	59173.42
555.83	59414.50
556.00	59531.53
556.16	59765.58
556.33	59648.55
556.50	59433.22
556.66	59765.58
556.83	59505.78
556.99	59772.60
557.16	59840.48
557.32	59732.81
557.49	59784.30
557.65	59517.48
557.82	59739.83
557.98	59629.83
558.15	59739.83
558.32	59870.90
558.48	59791.33
558.65	59772.60
558.81	59903.67
558.98	60032.40
559.14	59814.73
559.31	59824.09
559.47	60081.55
559.64	60193.90
559.80	60037.08
559.97	59898.99
560.13	59952.82
560.30	60030.06
560.46	60055.81
560.63	60182.19
560.79	60135.38
560.96	60301.56
561.12	60191.56
561.29	60140.07
561.45	60205.60
561.61	60186.88
561.78	59955.16
561.94	60088.57
562.11	60069.85
562.27	60289.86
562.44	60126.02
562.60	60357.74
562.77	60154.11
562.93	60111.98
563.10	60392.84
563.26	60268.79
563.42	60636.26
563.59	60467.74
563.75	60334.33
563.92	60418.59
564.08	60093.25
564.24	60458.38
564.41	60371.78
564.57	60294.54
564.74	60521.57
564.90	60460.72
565.07	60512.21
565.23	60348.37
565.39	60601.15
565.56	60463.06
565.72	60624.56
565.88	60645.62
566.05	60364.76
566.21	60477.10
566.38	60444.33
566.54	60711.16
566.70	60685.41
566.87	60662.00
567.03	60547.32
567.19	60697.11
567.36	60662.00
567.52	60514.55
567.68	60743.92
567.85	60914.78
568.01	60664.35
568.17	60687.75
568.34	60769.67
568.50	60659.66
568.66	60430.29
568.83	60837.54
568.99	60811.80
569.15	60535.62
569.32	60769.67
569.48	60750.94
569.64	60811.80
569.81	60793.07
569.97	60535.62
570.13	60690.09
570.30	60741.58
570.46	60846.91
570.62	60673.71
570.78	60832.86
570.95	60809.46
571.11	60994.36
571.27	60835.20
571.43	60769.67
571.60	60849.25
571.76	60757.97
571.92	60837.54
572.09	60776.69
572.25	60764.99
572.41	60795.42
572.57	60757.97
572.74	61155.86
572.90	60942.87
573.06	60900.74
573.22	60837.54
573.38	60891.38
573.55	61146.50
573.71	61216.71
573.87	61097.34
574.03	60874.99
574.20	61020.11
574.36	60889.04
574.52	60982.66
574.68	60917.12
574.84	61312.67
575.01	61087.98
575.17	61113.73
575.33	61130.11
575.49	61062.24
575.65	61006.06
575.82	61169.90
575.98	60853.93
576.14	61240.12
576.30	61148.84
576.46	61261.18
576.62	60956.91
576.79	61347.78
576.95	60940.53
577.11	61118.41
577.27	61169.90
577.43	61286.93
577.59	61277.57
577.75	61127.77
577.92	61233.10
578.08	61195.65
578.24	61172.24
578.40	61293.95
578.56	61359.48
578.72	61055.21
578.88	61350.12
579.04	61322.04
579.21	61312.67
579.37	61258.84
579.53	61336.08
579.69	61165.22
579.85	61284.59
580.01	61137.13
580.17	60992.02
580.33	61357.14
580.49	61216.71
580.65	61366.51
580.82	61097.34
580.98	61277.57
581.14	61109.05
581.30	61167.56
581.46	61141.81
581.62	61324.38
581.78	61127.77
581.94	61366.51
582.10	61242.46
582.26	61132.45
582.42	61216.71
582.58	61338.42
582.74	61256.50
582.90	61357.14
583.06	61476.51
583.22	61249.48
583.38	61450.77
583.54	61172.24
583.70	61221.39
583.86	61331.40
584.02	61158.20
584.18	61167.56
584.34	61216.71
584.50	61298.63
584.66	61190.97
584.82	61410.98
584.98	61366.51
585.14	61347.78
585.30	61272.88
585.46	61364.17
585.62	61251.82
585.78	61460.13
585.94	61221.39
586.10	61315.01
586.26	61366.51
586.42	61403.95
586.58	61286.93
586.74	61326.72
586.90	61212.03
587.06	61364.17
587.22	61427.36
587.38	61361.82
587.54	61549.07
587.70	61394.59
587.86	61401.61
588.02	61579.49
588.18	61439.06
588.34	61511.62
588.49	61394.59
