SpectraSuite Data File
++++++++++++++++++++++++++++++++++++
Date: Fri Oct 25 10:43:38 EDT 2013
User: price-jones
Dark Spectrum Present: No
Reference Spectrum Present: No
Number of Sampled Component Spectra: 1
Spectrometers: USB2+H05261
Integration Time (usec): 100000 (USB2+H05261)
Spectra Averaged: 1 (USB2+H05261)
Boxcar Smoothing: 0 (USB2+H05261)
Correct for Electrical Dark: No (USB2+H05261)
Strobe/Lamp Enabled: No (USB2+H05261)
Correct for Detector Non-linearity: No (USB2+H05261)
Correct for Stray Light: No (USB2+H05261)
Number of Pixels in Processed Spectrum: 2048
>>>>>Begin Processed Spectral Data<<<<<
365.73	79.58
365.92	79.58
366.12	79.58
366.32	21.06
366.52	25.75
366.72	30.43
366.91	53.83
367.11	0.00
367.31	0.00
367.51	0.00
367.70	35.11
367.90	91.28
368.10	4.68
368.30	60.85
368.49	23.41
368.69	14.04
368.89	56.17
369.09	102.98
369.28	126.39
369.48	58.51
369.68	11.70
369.87	65.54
370.07	107.66
370.27	159.16
370.47	147.45
370.66	365.12
370.86	416.62
371.06	498.53
371.25	423.64
371.45	451.72
371.65	468.11
371.84	421.30
372.04	423.64
372.24	379.17
372.44	461.09
372.63	535.98
372.83	472.79
373.03	547.69
373.22	540.66
373.42	510.24
373.62	561.73
373.81	559.39
374.01	585.13
374.21	505.56
374.40	503.22
374.60	655.35
374.79	496.19
374.99	582.79
375.19	573.43
375.38	538.32
375.58	638.97
375.78	674.07
375.97	636.63
376.17	594.50
376.37	559.39
376.56	617.90
376.76	592.16
376.95	692.80
377.15	575.77
377.35	688.12
377.54	615.56
377.74	695.14
377.93	653.01
378.13	706.84
378.33	706.84
378.52	606.20
378.72	676.41
378.91	683.44
379.11	606.20
379.31	667.05
379.50	678.76
379.70	627.26
379.89	681.10
380.09	664.71
380.28	732.59
380.48	681.10
380.68	653.01
380.87	664.71
381.07	676.41
381.26	674.07
381.46	744.29
381.65	636.63
381.85	819.19
382.04	812.17
382.24	779.40
382.43	760.67
382.63	685.78
382.83	718.54
383.02	713.86
383.22	727.91
383.41	678.76
383.61	774.72
383.80	674.07
384.00	737.27
384.19	828.55
384.39	746.63
384.58	844.93
384.78	868.34
384.97	814.51
385.17	781.74
385.36	767.70
385.56	861.32
385.75	784.08
385.95	791.10
386.14	910.47
386.34	863.66
386.53	828.55
386.72	833.23
386.92	896.43
387.11	931.53
387.31	978.34
387.50	854.30
387.70	856.64
387.89	840.25
388.09	866.00
388.28	826.21
388.48	933.87
388.67	959.62
388.86	1015.79
389.06	947.92
389.25	931.53
389.45	952.60
389.64	968.98
389.84	1062.60
390.03	938.55
390.22	924.51
390.42	1029.84
390.61	999.41
390.81	1008.77
391.00	1104.73
391.19	1011.11
391.39	1004.09
391.58	1083.67
391.78	1062.60
391.97	1067.28
392.16	1050.90
392.36	1149.20
392.55	1008.77
392.75	1004.09
392.94	966.64
393.13	1053.24
393.33	1053.24
393.52	1088.35
393.71	1160.91
393.91	1146.86
394.10	1132.82
394.29	1170.27
394.49	1233.46
394.68	1170.27
394.88	1163.25
395.07	1210.06
395.26	1238.14
395.46	1184.31
395.65	1205.38
395.84	1268.57
396.04	1160.91
396.23	1191.33
396.42	1172.61
396.62	1165.59
396.81	1193.67
397.00	1156.22
397.19	1299.00
397.39	1343.47
397.58	1371.55
397.77	1315.38
397.97	1483.90
398.16	1467.52
398.35	1535.39
398.55	1439.43
398.74	1500.28
398.93	1488.58
399.12	1507.30
399.32	1584.54
399.51	1568.16
399.70	1652.42
399.90	1488.58
400.09	1626.67
400.28	1619.65
400.47	1682.85
400.67	1682.85
400.86	1736.68
401.05	1720.29
401.24	1708.59
401.44	1755.40
401.63	1675.82
401.82	1687.53
402.01	1696.89
402.21	1746.04
402.40	1776.47
402.59	1799.87
402.78	1769.44
402.97	1720.29
403.17	1827.96
403.36	1851.36
403.55	1865.41
403.74	1853.70
403.93	1844.34
404.13	1975.41
404.32	1898.17
404.51	1858.39
404.70	1895.83
404.89	1902.86
405.09	2078.40
405.28	2045.63
405.47	1959.03
405.66	2118.18
405.85	2047.97
406.05	1968.39
406.24	2073.71
406.43	2143.93
406.62	2026.90
406.81	2118.18
407.00	2008.18
407.20	2054.99
407.39	2108.82
407.58	2122.87
407.77	2244.57
407.96	2218.83
408.15	2333.51
408.34	2317.13
408.54	2293.72
408.73	2429.48
408.92	2338.20
409.11	2340.54
409.30	2399.05
409.49	2249.25
409.68	2275.00
409.87	2289.04
410.07	2347.56
410.26	2445.86
410.45	2406.07
410.64	2490.33
410.83	2445.86
411.02	2520.76
411.21	2686.94
411.40	2464.58
411.59	2637.78
411.78	2656.51
411.98	2693.96
412.17	2705.66
412.36	2703.32
412.55	2810.98
412.74	2789.92
412.93	2750.13
413.12	2705.66
413.31	2867.16
413.50	2874.18
413.69	2853.11
413.88	3002.91
414.07	3007.59
414.26	3112.91
414.45	2939.71
414.64	2967.80
414.83	3005.25
415.02	3000.57
415.22	3023.97
415.41	3218.24
415.60	3190.15
415.79	3234.62
415.98	3302.50
416.17	3304.84
416.36	3302.50
416.55	3293.13
416.74	3349.31
416.93	3267.39
417.12	3452.29
417.31	3403.14
417.50	3410.16
417.69	3548.25
417.88	3632.51
418.07	3447.61
418.26	3515.48
418.45	3534.21
418.64	3618.47
418.83	3662.94
419.02	3616.13
419.21	3653.58
419.39	3707.41
419.58	3569.32
419.77	3531.87
419.96	3674.64
420.15	3871.25
420.34	3676.98
420.53	3824.44
420.72	3768.26
420.91	3768.26
421.10	3833.80
421.29	3875.93
421.48	3866.56
421.67	3794.01
421.86	3868.91
422.05	3861.88
422.24	3751.88
422.43	3847.84
422.61	3918.06
422.80	3936.78
422.99	4011.68
423.18	4011.68
423.37	4004.66
423.56	3950.82
423.75	3997.64
423.94	3934.44
424.13	3644.21
424.32	3864.22
424.50	3950.82
424.69	4098.28
424.88	4095.94
425.07	3932.10
425.26	3908.69
425.45	3864.22
425.64	3990.61
425.83	4119.34
426.01	3964.87
426.20	3943.80
426.39	4025.72
426.58	4093.60
426.77	3918.06
426.96	4028.06
427.15	4060.83
427.33	4081.89
427.52	4210.62
427.71	4346.37
427.90	4203.60
428.09	4063.17
428.28	4119.34
428.46	4152.11
428.65	4299.56
428.84	4255.09
429.03	4208.28
429.22	4201.26
429.40	4201.26
429.59	4128.70
429.78	3962.53
429.97	3875.93
430.16	3939.12
430.34	4259.78
430.53	4241.05
430.72	4236.37
430.91	4271.48
431.10	4334.67
431.28	4592.13
431.47	4692.77
431.66	4648.30
431.85	4493.83
432.03	4711.50
432.22	4765.33
432.41	4634.26
432.60	4786.40
432.79	4676.39
432.97	4830.87
433.16	4812.14
433.35	4711.50
433.54	4606.17
433.72	4685.75
433.91	4748.95
434.10	4819.16
434.28	4648.30
434.47	4894.06
434.66	4997.04
434.85	4994.70
435.03	5090.67
435.22	4983.00
435.41	5146.84
435.59	5167.90
435.78	5102.37
435.97	5210.03
436.16	5282.59
436.34	5256.84
436.53	5226.42
436.72	5261.52
436.90	5156.20
437.09	5195.99
437.28	5313.02
437.46	5231.10
437.65	5128.11
437.84	5310.68
438.02	5226.42
438.21	5383.23
438.40	5242.80
438.58	5390.25
438.77	5404.30
438.96	5530.69
439.14	5666.44
439.33	5769.42
439.52	5841.98
439.70	5621.97
439.89	5542.39
440.08	5748.36
440.26	5823.25
440.45	5778.78
440.63	5994.11
440.82	6080.71
441.01	6031.56
441.19	6101.78
441.38	6216.46
441.57	6270.30
441.75	6136.88
441.94	6520.73
442.12	6441.15
442.31	6340.51
442.50	6513.71
442.68	6392.00
442.87	6434.13
443.05	6443.49
443.24	6518.39
443.43	6431.79
443.61	6459.88
443.80	6700.95
443.98	6567.54
444.17	6333.49
444.35	6675.21
444.54	6595.63
444.73	6597.97
444.91	6738.40
445.10	6644.78
445.28	6497.33
445.47	6448.18
445.65	6480.94
445.84	6548.82
446.02	6789.89
446.21	6614.35
446.39	6551.16
446.58	6637.76
446.77	6801.60
446.95	6604.99
447.14	6801.60
447.32	6888.20
447.51	6820.32
447.69	6726.70
447.88	6822.66
448.06	6881.18
448.25	6719.68
448.43	6722.02
448.62	6857.77
448.80	6930.33
448.99	6848.41
449.17	7082.46
449.36	6862.45
449.54	7148.00
449.73	7241.62
449.91	7239.28
450.10	7227.57
450.28	7185.44
450.46	7180.76
450.65	7555.25
450.83	7269.70
451.02	7187.79
451.20	7321.20
451.39	7342.26
451.57	7250.98
451.76	7208.85
451.94	7276.73
452.13	7260.34
452.31	7316.51
452.49	6951.39
452.68	7316.51
452.86	7288.43
453.05	7318.86
453.23	7360.98
453.42	7274.38
453.60	7445.24
453.78	7489.71
453.97	7293.11
454.15	7515.46
454.34	7440.56
454.52	7611.42
454.70	7552.91
454.89	7515.46
455.07	7552.91
455.26	7590.36
455.44	7887.61
455.62	8116.98
455.81	7843.14
455.99	7932.08
456.17	7943.78
456.36	8170.81
456.54	8030.38
456.73	8046.76
456.91	8388.48
457.09	8269.11
457.28	8299.54
457.46	8091.23
457.64	8217.62
457.83	8159.11
458.01	8004.63
458.19	8355.71
458.38	8163.79
458.56	8257.41
458.74	8210.60
458.93	8109.96
459.11	8374.44
459.29	8325.29
459.48	8430.61
459.66	8393.16
459.84	8629.56
460.03	8615.51
460.21	8671.68
460.39	8554.66
460.57	8512.53
460.76	8819.14
460.94	8664.66
461.12	8608.49
461.31	8601.47
461.49	8655.30
461.67	8599.13
461.85	8940.85
462.04	8847.22
462.22	9270.86
462.40	9132.77
462.59	9046.17
462.77	8936.17
462.95	9041.49
463.13	8966.59
463.32	8821.48
463.50	9006.38
463.68	9083.62
463.86	9041.49
464.05	9151.49
464.23	9090.64
464.41	9163.20
464.59	8926.80
464.78	9500.23
464.96	9226.39
465.14	8978.30
465.32	9212.35
465.50	9334.06
465.69	9413.63
465.87	9284.91
466.05	9317.67
466.23	9146.81
466.41	9193.62
466.60	9516.62
466.78	9217.03
466.96	9352.78
467.14	9528.32
467.32	9390.23
467.51	9643.01
467.69	9336.40
467.87	9671.09
468.05	9614.92
468.23	9661.73
468.41	9638.33
468.60	9549.39
468.78	9495.55
468.96	9479.17
469.14	9769.40
469.32	9905.15
469.50	9699.18
469.69	9886.42
469.87	9870.04
470.05	9893.44
470.23	10045.58
470.41	9926.21
470.59	9928.55
470.77	10120.48
470.95	10054.94
471.14	10148.56
471.32	10150.90
471.50	10218.78
471.68	10403.68
471.86	10501.98
472.04	10370.91
472.22	10717.31
472.40	10347.51
472.58	10501.98
472.77	10604.97
472.95	10616.67
473.13	11042.65
473.31	10885.83
473.49	10609.65
473.67	10705.61
473.85	10754.76
474.03	11040.31
474.21	11061.37
474.39	11344.58
474.57	11351.60
474.75	11393.73
474.93	11487.35
475.12	11349.26
475.30	11255.64
475.48	11442.88
475.66	11494.37
475.84	11339.90
476.02	11517.78
476.20	11688.64
476.38	11693.32
476.56	12131.00
476.74	12046.74
476.92	11967.16
477.10	11985.88
477.28	12236.32
477.46	12159.08
477.64	12313.56
477.82	12358.03
478.00	12709.11
478.18	12699.75
478.36	12531.23
478.54	12702.09
478.72	12912.74
478.90	13092.96
479.08	12968.91
479.26	13287.22
479.44	13195.94
479.62	13570.43
479.80	13547.02
479.98	13678.09
480.16	13895.76
480.34	13525.96
480.52	14059.60
480.70	13827.88
480.88	13806.82
481.06	13958.96
481.24	14410.68
481.41	14356.85
481.59	14508.98
481.77	14586.22
481.95	14597.92
482.13	14670.48
482.31	14626.01
482.49	14754.74
482.67	14876.44
482.85	15183.06
483.03	15379.66
483.21	15337.53
483.39	15492.01
483.57	15470.94
483.74	15770.53
483.92	15719.04
484.10	15461.58
484.28	16074.80
484.46	16168.42
484.64	16376.73
484.82	16217.57
485.00	16217.57
485.18	16629.51
485.35	16393.11
485.53	16358.00
485.71	16348.64
485.89	16746.53
486.07	16893.99
486.25	16793.34
486.43	17125.70
486.61	17380.82
486.78	17334.01
486.96	17750.62
487.14	17919.14
487.32	17832.54
487.50	18403.63
487.68	18450.44
487.85	18326.39
488.03	18963.02
488.21	18824.93
488.39	18824.93
488.57	19211.12
488.75	18862.38
488.92	19365.59
489.10	19517.73
489.28	19524.75
489.46	19742.42
489.64	19953.07
489.81	20460.96
489.99	20327.55
490.17	20217.55
490.35	20631.82
490.53	20280.74
490.70	20641.18
490.88	20484.37
491.06	21123.33
491.24	21193.55
491.41	21053.12
491.59	20917.37
491.77	20926.73
491.95	20943.11
492.13	21596.12
492.30	21884.01
492.48	21972.95
492.66	22038.48
492.84	22136.79
493.01	22232.75
493.19	22146.15
493.37	22293.60
493.54	22480.85
493.72	22766.39
493.90	22806.18
494.08	23044.91
494.25	23433.44
494.43	23601.96
494.61	23679.20
494.79	23594.94
494.96	23817.29
495.14	23676.86
495.32	23843.04
495.49	24114.54
495.67	24046.66
495.85	24386.04
496.02	24685.63
496.20	24746.48
496.38	24584.99
496.55	24734.78
496.73	25165.44
496.91	24966.49
497.09	25308.21
497.26	25647.59
497.44	25369.07
497.62	25685.04
497.79	25827.81
497.97	25673.34
498.14	25270.76
498.32	25432.26
498.50	25663.97
498.67	26052.50
498.85	26251.45
499.03	26260.81
499.20	26366.13
499.38	26682.11
499.56	26497.20
499.73	26532.31
499.91	26892.76
500.08	26728.92
500.26	26338.05
500.44	26616.57
500.61	27157.24
500.79	27087.02
500.97	26974.67
501.14	27381.93
501.32	27407.67
501.49	27206.39
501.67	27360.86
501.84	27393.63
502.02	27946.00
502.20	28081.75
502.37	28135.58
502.55	28126.22
502.72	28613.05
502.90	28196.43
503.07	28191.75
503.25	28226.86
503.43	28311.12
503.60	28503.04
503.78	28238.56
503.95	28266.65
504.13	28582.62
504.30	29029.66
504.48	28582.62
504.65	29570.33
504.83	29373.72
505.01	29397.13
505.18	29818.42
505.36	29893.32
505.53	29956.52
505.71	29956.52
505.88	30162.48
506.06	29425.22
506.23	29933.11
506.41	29654.59
506.58	30401.22
506.76	30120.35
506.93	30316.96
507.11	29811.40
507.28	30448.03
507.46	30160.14
507.63	30349.73
507.81	30445.69
507.98	30632.93
508.16	30808.47
508.33	30789.75
508.50	31021.46
508.68	31360.84
508.85	31409.99
509.03	31028.48
509.20	31587.87
509.38	31667.45
509.55	31798.52
509.73	31543.40
509.90	31625.32
510.08	31372.54
510.25	31985.76
510.42	31754.05
510.60	32182.37
510.77	32060.66
510.95	32238.54
511.12	31686.17
511.30	32603.66
511.47	32589.62
511.64	32989.85
511.82	32776.86
511.99	32273.65
512.17	32596.64
512.34	32531.11
512.51	32973.47
512.69	32844.74
512.86	32521.74
513.04	33202.84
513.21	33254.33
513.38	32900.91
513.56	33233.27
513.73	33216.88
513.90	33418.17
514.08	33357.32
514.25	33373.70
514.43	33734.14
514.60	33443.91
514.77	33701.37
514.95	34089.90
515.12	33965.85
515.29	33865.21
515.47	34181.18
515.64	34213.95
515.81	33890.96
515.99	33944.79
516.16	33916.70
516.33	33699.03
516.51	33818.40
516.68	33694.35
516.85	33282.42
517.03	33912.02
517.20	34398.85
517.37	34202.25
517.54	35019.10
517.72	34600.14
517.89	34480.77
518.06	34342.68
518.24	34471.41
518.41	34616.52
518.58	34918.45
518.75	34546.31
518.93	35154.85
519.10	34677.38
519.27	35180.59
519.45	35173.57
519.62	35449.75
519.79	35763.39
519.96	35405.28
520.14	35819.56
520.31	35866.37
520.48	35503.59
520.65	36016.16
520.83	36240.86
521.00	36430.44
521.17	36114.47
521.34	36488.95
521.52	36486.61
521.69	36156.60
521.86	36870.46
522.03	36634.06
522.20	36280.64
522.38	36818.97
522.55	36238.51
522.72	36671.51
522.89	36638.75
523.07	37031.96
523.24	36704.28
523.41	37174.73
523.58	37125.58
523.75	38078.18
523.92	37509.43
524.10	37455.59
524.27	37425.17
524.44	37207.50
524.61	37893.27
524.78	37605.39
524.96	38019.66
525.13	37631.13
525.30	37940.08
525.47	37923.70
525.64	38424.57
525.81	37837.10
525.98	38007.96
526.16	37722.41
526.33	37647.52
526.50	37832.42
526.67	37301.12
526.84	37930.72
527.01	37462.61
527.18	37972.85
527.36	37874.55
527.53	38639.90
527.70	39108.01
527.87	38885.66
528.04	38398.83
528.21	38714.80
528.38	38459.68
528.55	39206.31
528.72	39236.74
528.89	38918.43
529.07	39164.18
529.24	38752.25
529.41	39218.02
529.58	39178.23
529.75	39079.92
529.92	39723.57
530.09	39625.27
530.26	39573.78
530.43	39599.52
530.60	39100.99
530.77	38988.64
530.94	39789.11
531.11	39800.81
531.28	39508.24
531.46	40184.66
531.63	39784.43
531.80	39990.39
531.97	39711.87
532.14	39117.37
532.31	39367.81
532.48	39632.29
532.65	40060.61
532.82	39655.70
532.99	40273.60
533.16	39814.85
533.33	40240.83
533.50	40378.92
533.67	40259.55
533.84	40109.76
534.01	40027.84
534.18	39765.70
534.35	40568.51
534.52	40631.70
534.69	40676.17
534.86	40844.69
535.03	40683.19
535.20	41151.30
535.37	41008.53
535.54	41179.39
535.71	40891.50
535.88	41132.57
536.05	40807.24
536.22	41102.15
536.38	41130.23
536.55	41090.44
536.72	40828.30
536.89	40538.08
537.06	40877.46
537.23	41141.94
537.40	41256.62
537.57	41298.75
537.74	41336.20
537.91	41478.97
538.08	41268.33
538.25	41801.97
538.42	41666.22
538.59	41738.77
538.75	41251.94
538.92	41647.49
539.09	42017.30
539.26	41853.46
539.43	41659.20
539.60	41811.33
539.77	41818.35
539.94	41797.29
540.11	41556.21
540.28	41734.09
540.44	41909.63
540.61	41965.81
540.78	41535.15
540.95	41708.35
541.12	41640.47
541.29	41911.97
541.46	41984.53
541.62	42370.72
541.79	42370.72
541.96	41535.15
542.13	42293.48
542.30	42555.62
542.47	42600.09
542.63	42485.40
542.80	42494.77
542.97	42754.57
543.14	42363.70
543.31	43124.37
543.48	42941.81
543.64	43531.62
543.81	43505.88
543.98	43194.59
544.15	42721.80
544.32	43290.55
544.48	43515.24
544.65	42773.29
544.82	43655.67
544.99	42742.86
545.16	43145.44
545.32	43255.44
545.49	43304.59
545.66	43650.99
545.83	43540.99
546.00	43765.68
546.16	43377.15
546.33	43269.48
546.50	43428.64
546.67	43498.86
546.83	43054.15
547.00	43487.15
547.17	43613.54
547.34	43519.92
547.50	43690.78
547.67	43779.72
547.84	43613.54
548.00	43786.74
548.17	43941.22
548.34	44313.36
548.51	44273.57
548.67	44151.87
548.84	43901.43
549.01	44311.02
549.18	44165.91
549.34	44004.41
549.51	44318.04
549.68	44222.08
549.84	44385.92
550.01	44458.48
550.18	43885.04
550.34	44093.35
550.51	44292.30
550.68	44065.27
550.84	43966.96
551.01	44369.54
551.18	44626.99
551.34	44374.22
551.51	44453.79
551.68	44671.46
551.84	44554.44
552.01	44311.02
552.18	44191.65
552.34	44222.08
552.51	44449.11
552.68	44760.40
552.84	44666.78
553.01	44879.77
553.18	44619.97
553.34	44587.21
553.51	44538.05
553.67	44652.74
553.84	45422.78
554.01	45244.90
554.17	45064.67
554.34	45059.99
554.51	44500.61
554.67	45095.10
554.84	44842.32
555.00	45074.04
555.17	44713.59
555.33	45118.51
555.50	45125.53
555.67	45020.20
555.83	45097.44
556.00	44994.46
556.16	45380.65
556.33	44807.22
556.50	44882.11
556.66	45294.05
556.83	44985.10
556.99	45111.49
557.16	45291.71
557.32	44886.79
557.49	45476.61
557.65	44924.24
557.82	45303.41
557.98	45137.23
558.15	45270.64
558.32	45776.20
558.48	44968.71
558.65	45074.04
558.81	45104.46
558.98	45106.80
559.14	45223.83
559.31	45450.86
559.47	45509.38
559.64	45443.84
559.80	45874.50
559.97	45855.78
560.13	45790.24
560.30	45563.21
560.46	45698.96
560.63	45673.21
560.79	46131.96
560.96	45907.27
561.12	45507.04
561.29	45546.82
561.45	45771.52
561.61	45682.58
561.78	45610.02
561.94	45247.24
562.11	45481.29
562.27	45675.55
562.44	45595.98
562.60	45907.27
562.77	46157.70
562.93	45514.06
563.10	46019.61
563.26	45495.33
563.42	45872.16
563.59	45792.58
563.75	45846.41
563.92	46129.62
564.08	45457.88
564.24	45982.16
564.41	45736.41
564.57	45968.12
564.74	45476.61
564.90	45937.69
565.07	45242.56
565.23	45867.48
565.39	46216.22
565.56	45759.81
565.72	45731.73
565.88	45717.68
566.05	45785.56
566.21	45736.41
566.38	45935.35
566.54	46239.62
566.70	45993.87
566.87	46354.31
567.03	46003.23
567.19	46323.88
567.36	46038.34
567.52	46220.90
567.68	45911.95
567.85	45813.65
568.01	45867.48
568.17	45785.56
568.34	46344.95
568.50	45888.54
568.66	45890.88
568.83	46167.07
568.99	46550.91
569.15	46164.73
569.32	46017.27
569.48	45750.45
569.64	46422.19
569.81	45963.44
569.97	45982.16
570.13	46010.25
570.30	45698.96
570.46	45923.65
570.62	45911.95
570.78	45392.35
570.95	46028.98
571.11	46038.34
571.27	46045.36
571.43	45752.79
571.60	46043.02
571.76	46246.65
571.92	46176.43
572.09	46646.88
572.25	46387.08
572.41	46277.07
572.57	46375.37
572.74	46532.19
572.90	46892.63
573.06	46153.02
573.22	46115.58
573.38	46333.24
573.55	46330.90
573.71	46476.02
573.87	46703.05
574.03	46312.18
574.20	46380.06
574.36	45837.05
574.52	46347.29
574.68	46028.98
574.84	46401.12
575.01	46295.80
575.17	46057.06
575.33	46169.41
575.49	46197.49
575.65	46110.89
575.82	46232.60
575.98	46092.17
576.14	46216.22
576.30	46466.66
576.46	46525.17
576.62	46087.49
576.79	46073.45
576.95	46122.60
577.11	46595.38
577.27	46057.06
577.43	46457.29
577.59	45680.24
577.75	46211.54
577.92	45792.58
578.08	45757.47
578.24	45949.40
578.40	46213.88
578.56	46094.51
578.72	46106.21
578.88	46501.76
579.04	46295.80
579.21	45998.55
579.37	46157.70
579.53	46478.36
579.69	46141.32
579.85	46450.27
580.01	46188.13
580.17	46356.65
580.33	46101.53
580.49	46309.84
580.65	46391.76
580.82	46291.12
580.98	45965.78
581.14	45773.86
581.30	46469.00
581.46	46710.07
581.62	46539.21
581.78	46724.11
581.94	46887.95
582.10	46080.47
582.26	46398.78
582.42	46361.33
582.58	46014.93
582.74	45972.80
582.90	46319.20
583.06	46347.29
583.22	46223.24
583.38	46862.21
583.54	46944.12
583.70	46494.74
583.86	46419.84
584.02	45731.73
584.18	46698.37
584.34	46382.40
584.50	46248.99
584.66	46349.63
584.82	46143.66
584.98	46806.03
585.14	46326.22
585.30	46106.21
585.46	46302.82
585.62	46050.04
585.78	46244.30
585.94	45612.36
586.10	46550.91
586.26	46019.61
586.42	46906.68
586.58	46756.88
586.74	46199.83
586.90	46038.34
587.06	46300.48
587.22	46611.77
587.38	46347.29
587.54	46295.80
587.70	46415.16
587.86	46625.81
588.02	46066.42
588.18	46433.89
588.34	45947.06
588.49	45729.39
588.65	45844.07
588.81	45778.54
588.97	46101.53
589.13	45745.77
589.29	45867.48
589.45	45909.61
589.61	46075.79
589.77	46616.45
589.93	46302.82
