SpectraSuite Data File
++++++++++++++++++++++++++++++++++++
Date: Fri Oct 25 11:23:33 EDT 2013
User: price-jones
Dark Spectrum Present: No
Reference Spectrum Present: No
Number of Sampled Component Spectra: 1
Spectrometers: USB2+H05261
Integration Time (usec): 100000 (USB2+H05261)
Spectra Averaged: 1 (USB2+H05261)
Boxcar Smoothing: 0 (USB2+H05261)
Correct for Electrical Dark: No (USB2+H05261)
Strobe/Lamp Enabled: No (USB2+H05261)
Correct for Detector Non-linearity: No (USB2+H05261)
Correct for Stray Light: No (USB2+H05261)
Number of Pixels in Processed Spectrum: 2048
>>>>>Begin Processed Spectral Data<<<<<
365.73	224.69
365.92	224.69
366.12	224.69
366.32	102.98
366.52	107.66
366.72	140.43
366.91	147.45
367.11	159.16
367.31	88.94
367.51	110.01
367.70	140.43
367.90	105.32
368.10	114.69
368.30	175.54
368.49	100.64
368.69	189.58
368.89	124.05
369.09	72.56
369.28	217.67
369.48	133.41
369.68	154.48
369.87	163.84
370.07	170.86
370.27	285.55
370.47	262.14
370.66	627.26
370.86	615.56
371.06	643.65
371.25	690.46
371.45	727.91
371.65	706.84
371.84	692.80
372.04	573.43
372.24	777.06
372.44	730.25
372.63	774.72
372.83	744.29
373.03	807.48
373.22	732.59
373.42	781.74
373.62	739.61
373.81	828.55
374.01	826.21
374.21	835.57
374.40	851.96
374.60	877.70
374.79	814.51
374.99	777.06
375.19	779.40
375.38	889.40
375.58	816.85
375.78	851.96
375.97	753.65
376.17	842.59
376.37	849.61
376.56	819.19
376.76	875.36
376.95	898.77
377.15	854.30
377.35	908.13
377.54	964.30
377.74	980.68
377.93	882.38
378.13	919.83
378.33	880.04
378.52	973.66
378.72	1004.09
378.91	985.37
379.11	908.13
379.31	966.64
379.50	915.15
379.70	952.60
379.89	994.73
380.09	1008.77
380.28	992.39
380.48	924.51
380.68	1029.84
380.87	954.94
381.07	1013.45
381.26	1055.58
381.46	1057.92
381.65	1020.47
381.85	1067.28
382.04	1041.54
382.24	1053.24
382.43	1029.84
382.63	1011.11
382.83	1027.50
383.02	980.68
383.22	1076.65
383.41	1039.20
383.61	1046.22
383.80	1221.76
384.00	1095.37
384.19	1128.14
384.39	1083.67
384.58	1116.44
384.78	1139.84
384.97	1158.57
385.17	1121.12
385.36	1163.25
385.56	1135.16
385.75	1224.10
385.95	1146.86
386.14	1132.82
386.34	1121.12
386.53	1151.54
386.72	1214.74
386.92	1357.51
387.11	1186.65
387.31	1259.21
387.50	1172.61
387.70	1224.10
387.89	1261.55
388.09	1299.00
388.28	1338.79
388.48	1289.64
388.67	1273.25
388.86	1289.64
389.06	1277.93
389.25	1315.38
389.45	1322.40
389.64	1383.26
389.84	1390.28
390.03	1401.98
390.22	1345.81
390.42	1327.08
390.61	1376.24
390.81	1357.51
391.00	1315.38
391.19	1474.54
391.39	1432.41
391.58	1474.54
391.78	1502.62
391.97	1362.19
392.16	1423.05
392.36	1561.14
392.55	1521.35
392.75	1523.69
392.94	1549.43
393.13	1537.73
393.33	1528.37
393.52	1682.85
393.71	1577.52
393.91	1544.75
394.10	1544.75
394.29	1530.71
394.49	1516.67
394.68	1664.12
394.88	1617.31
395.07	1666.46
395.26	1647.74
395.46	1692.21
395.65	1790.51
395.84	1778.81
396.04	1710.93
396.23	1788.17
396.42	1708.59
396.62	1750.72
396.81	1839.66
397.00	1809.23
397.19	1872.43
397.39	1797.53
397.58	1825.62
397.77	1823.28
397.97	1820.94
398.16	1813.92
398.35	1823.28
398.55	1905.20
398.74	1909.88
398.93	1970.73
399.12	1905.20
399.32	1942.64
399.51	1984.77
399.70	2038.61
399.90	1900.52
400.09	1980.09
400.28	2118.18
400.47	2162.66
400.67	2019.88
400.86	2073.71
401.05	2139.25
401.24	1940.30
401.44	2165.00
401.63	2094.78
401.82	2099.46
402.01	2111.16
402.21	2190.74
402.40	2120.53
402.59	2277.34
402.78	2211.81
402.97	2319.47
403.17	2230.53
403.36	2331.17
403.55	2293.72
403.74	2354.58
403.93	2275.00
404.13	2352.24
404.32	2340.54
404.51	2326.49
404.70	2436.50
404.89	2417.77
405.09	2586.29
405.28	2387.35
405.47	2506.71
405.66	2466.92
405.85	2455.22
406.05	2431.82
406.24	2579.27
406.43	2574.59
406.62	2654.17
406.81	2649.49
407.00	2523.10
407.20	2633.10
407.39	2754.81
407.58	2661.19
407.77	2731.41
407.96	2806.30
408.15	2654.17
408.34	2761.83
408.54	2836.73
408.73	2705.66
408.92	2785.24
409.11	2855.45
409.30	2977.16
409.49	2904.60
409.68	2857.79
409.87	2860.13
410.07	2956.10
410.26	3033.33
410.45	2988.86
410.64	3030.99
410.83	3054.40
411.02	3098.87
411.21	3157.38
411.40	3094.19
411.59	3227.60
411.78	3117.59
411.98	3173.77
412.17	3236.96
412.36	3234.62
412.55	3332.92
412.74	3426.54
412.93	3522.51
413.12	3300.16
413.31	3517.83
413.50	3468.67
413.69	3496.76
413.88	3648.90
414.07	3634.85
414.26	3737.84
414.45	3695.71
414.64	3616.13
414.83	3747.20
415.02	3808.05
415.22	3782.31
415.41	3861.88
415.60	3889.97
415.79	3950.82
415.98	4046.79
416.17	3925.08
416.36	4007.00
416.55	3995.29
416.74	4091.26
416.93	4133.39
417.12	3992.95
417.31	4219.99
417.50	4112.32
417.69	4301.90
417.88	4236.37
418.07	4299.56
418.26	4440.00
418.45	4278.50
418.64	4442.34
418.83	4397.87
419.02	4477.44
419.21	4379.14
419.39	4454.04
419.58	4425.95
419.77	4470.42
419.96	4547.66
420.15	4454.04
420.34	4828.53
420.53	4519.57
420.72	4716.18
420.91	4723.20
421.10	4779.37
421.29	4821.50
421.48	4662.35
421.67	4901.08
421.86	4770.01
422.05	4877.68
422.24	4765.33
422.43	4793.42
422.61	4919.81
422.80	4922.15
422.99	4936.19
423.18	4880.02
423.37	5055.56
423.56	5100.03
423.75	4877.68
423.94	4873.00
424.13	4676.39
424.32	4727.88
424.50	4809.80
424.69	4975.98
424.88	5027.47
425.07	5163.22
425.26	5029.81
425.45	4931.51
425.64	4994.70
425.83	4994.70
426.01	5083.64
426.20	5076.62
426.39	5071.94
426.58	5053.22
426.77	4966.62
426.96	5160.88
427.15	5046.20
427.33	5221.74
427.52	5170.24
427.71	5284.93
427.90	5280.25
428.09	5200.67
428.28	5310.68
428.46	5345.78
428.65	5324.72
428.84	5458.13
429.03	5533.03
429.22	5476.85
429.40	5401.96
429.59	5558.77
429.78	5238.12
429.97	5273.23
430.16	5399.62
430.34	5430.04
430.53	5722.61
430.72	5717.93
430.91	5628.99
431.10	5661.76
431.28	5713.25
431.47	5865.38
431.66	5706.23
431.85	5722.61
432.03	5961.34
432.22	5982.41
432.41	6003.47
432.60	5820.91
432.79	5949.64
432.97	6127.52
433.16	6033.90
433.35	5888.79
433.54	6141.57
433.72	6155.61
433.91	6181.35
434.10	6183.70
434.28	6125.18
434.47	6200.08
434.66	6293.70
434.85	6237.53
435.03	6555.84
435.22	6225.82
435.41	6326.47
435.59	6342.85
435.78	6450.52
435.97	6490.31
436.16	6553.50
436.34	6551.16
436.53	6494.99
436.72	6516.05
436.90	6305.40
437.09	6513.71
437.28	6450.52
437.46	6827.34
437.65	6588.61
437.84	6745.42
438.02	6731.38
438.21	6733.72
438.40	6677.55
438.58	6953.73
438.77	7007.56
438.96	7070.76
439.14	6988.84
439.33	7040.33
439.52	7276.73
439.70	7075.44
439.89	7421.84
440.08	7335.24
440.26	7363.33
440.45	7412.48
440.63	7637.17
440.82	7550.57
441.01	7562.27
441.19	7714.41
441.38	7768.24
441.57	7831.43
441.75	7669.94
441.94	7967.18
442.12	7978.89
442.31	8018.68
442.50	8084.21
442.68	8035.06
442.87	8030.38
443.05	8198.90
443.24	8194.22
443.43	8126.34
443.61	8212.94
443.80	8329.97
443.98	7976.55
444.17	7932.08
444.35	8065.49
444.54	8327.63
444.73	8093.57
444.91	8205.92
445.10	8304.22
445.28	8255.07
445.47	8203.58
445.65	8311.24
445.84	8388.48
446.02	8379.12
446.21	8496.14
446.39	8407.20
446.58	8603.81
446.77	8367.42
446.95	8304.22
447.14	8463.38
447.32	8524.23
447.51	8535.93
447.69	8465.72
447.88	8610.83
448.06	8587.43
448.25	8402.52
448.43	8744.24
448.62	8664.66
448.80	8580.40
448.99	8669.34
449.17	8814.46
449.36	8629.56
449.54	8805.10
449.73	8926.80
449.91	9039.15
450.10	8807.44
450.28	8959.57
450.46	9177.24
450.65	9128.09
450.83	9013.40
451.02	8938.51
451.20	9109.36
451.39	9179.58
451.57	9231.07
451.76	9067.24
451.94	9137.45
452.13	9280.22
452.31	9320.01
452.49	9146.81
452.68	9474.49
452.86	9240.44
453.05	9378.53
453.23	9441.72
453.42	9308.31
453.60	9357.46
453.78	9692.16
453.97	9284.91
454.15	9383.21
454.34	9605.56
454.52	9738.97
454.70	9607.90
454.89	9720.24
455.07	9710.88
455.26	9858.34
455.44	9778.76
455.62	9867.70
455.81	10012.81
455.99	10059.62
456.17	10047.92
456.36	10045.58
456.54	10064.30
456.73	10118.14
456.91	10384.96
457.09	10497.30
457.28	10616.67
457.46	10228.14
457.64	10480.92
457.83	10602.63
458.01	10366.23
458.19	10745.40
458.38	10443.47
458.56	10614.33
458.74	10824.98
458.93	10803.91
459.11	10724.33
459.29	10846.04
459.48	10602.63
459.66	10792.21
459.84	10895.19
460.03	11108.18
460.21	10991.16
460.39	10965.41
460.57	11030.94
460.76	11119.89
460.94	11063.71
461.12	11309.47
461.31	11180.74
461.49	11030.94
461.67	11094.14
461.85	11440.54
462.04	11314.15
462.22	11885.24
462.40	11829.07
462.59	11515.44
462.77	11557.57
462.95	11777.58
463.13	11527.14
463.32	11522.46
463.50	11784.60
463.68	11695.66
463.86	11843.11
464.05	11648.85
464.23	11630.12
464.41	11819.71
464.59	11707.36
464.78	11974.18
464.96	11843.11
465.14	11810.34
465.32	11946.09
465.50	11976.52
465.69	11894.60
465.87	12166.10
466.05	12138.02
466.23	12348.67
466.41	12318.24
466.60	12573.36
466.78	12238.66
466.96	12210.57
467.14	12367.39
467.32	12404.84
467.51	12482.08
467.69	12526.55
467.87	12163.76
468.05	12416.54
468.23	12472.71
468.41	12718.47
468.60	12620.17
468.78	12816.77
468.96	12699.75
469.14	12791.03
469.32	12863.58
469.50	12617.83
469.69	13186.58
469.87	13104.66
470.05	12975.93
470.23	13041.46
470.41	12882.31
470.59	13228.71
470.77	13282.54
470.95	13188.92
471.14	13462.76
471.32	13008.70
471.50	13544.68
471.68	13273.18
471.86	13832.57
472.04	13446.38
472.22	14171.94
472.40	13621.92
472.58	14085.34
472.77	14019.81
472.95	14120.45
473.13	14717.29
473.31	14104.07
473.49	14347.48
473.67	14237.48
473.85	14338.12
474.03	14633.03
474.21	14518.34
474.39	14686.86
474.57	14998.15
474.75	14820.27
474.93	14970.07
475.12	14663.46
475.30	15145.61
475.48	15131.56
475.66	15321.15
475.84	15140.93
476.02	15646.48
476.20	15211.14
476.38	15733.08
476.56	16147.36
476.74	16252.68
476.92	15782.23
477.10	15868.83
477.28	16468.01
477.46	16276.09
477.64	16194.17
477.82	16425.88
478.00	17099.95
478.18	16683.34
478.36	16847.18
478.54	16798.02
478.72	17104.64
478.90	17130.38
479.08	17483.80
479.26	17841.90
479.44	17759.98
479.62	17914.46
479.80	18045.53
479.98	18150.85
480.16	18815.57
480.34	18349.80
480.52	18504.28
480.70	18590.88
480.88	18235.11
481.06	18817.91
481.24	18899.83
481.41	18913.87
481.59	19295.38
481.77	19506.02
481.95	19749.44
482.13	19463.90
482.31	19363.25
482.49	20081.80
482.67	19728.38
482.85	20346.28
483.03	20388.41
483.21	20847.15
483.39	21120.99
483.57	21128.02
483.74	21235.68
483.92	21518.89
484.10	21188.87
484.28	21312.92
484.46	22113.38
484.64	22253.81
484.82	21928.48
485.00	22387.22
485.18	22616.60
485.35	22768.73
485.53	22920.87
485.71	22869.37
485.89	23587.92
486.07	23276.63
486.25	23637.07
486.43	23819.63
486.61	23901.55
486.78	24065.39
486.96	24084.11
487.14	24889.26
487.32	24526.47
487.50	24727.76
487.68	24851.81
487.85	25362.04
488.03	25406.52
488.21	25940.16
488.39	26010.37
488.57	26291.24
488.75	26033.78
488.92	26565.08
489.10	26565.08
489.28	26738.28
489.46	27197.02
489.64	27325.75
489.81	27445.12
489.99	27821.95
490.17	27637.05
490.35	28311.12
490.53	28231.54
490.70	28308.78
490.88	28334.53
491.06	28573.26
491.24	29188.82
491.41	29160.73
491.59	29338.62
491.77	29507.13
491.95	29446.28
492.13	29818.42
492.30	29968.22
492.48	29890.98
492.66	29993.97
492.84	30298.23
493.01	31070.61
493.19	30595.48
493.37	31030.82
493.54	30696.13
493.72	31541.06
493.90	31894.48
494.08	31803.20
494.25	32175.34
494.43	31622.98
494.61	32156.62
494.79	32540.47
494.96	32582.60
495.14	32744.09
495.32	33549.24
495.49	33170.07
495.67	33214.54
495.85	33528.17
496.02	33441.57
496.20	34129.69
496.38	34394.17
496.55	33975.22
496.73	34920.79
496.91	34426.94
497.09	34796.74
497.26	35084.63
497.44	35180.59
497.62	35318.68
497.79	36016.16
497.97	35321.02
498.14	36306.39
498.32	35782.11
498.50	36205.75
498.67	36503.00
498.85	36643.43
499.03	36762.79
499.20	36816.63
499.38	36996.85
499.56	37034.30
499.73	37010.89
499.91	37504.74
500.08	37717.73
500.26	37261.33
500.44	37567.94
500.61	37778.59
500.79	37708.37
500.97	38019.66
501.14	38642.24
501.32	38349.68
501.49	38506.49
501.67	38576.71
501.84	39243.76
502.02	38953.54
502.20	38866.94
502.37	39737.62
502.55	39005.03
502.72	39363.13
502.90	39737.62
503.07	39805.49
503.25	39768.04
503.43	39438.03
503.60	40423.39
503.78	40140.19
503.95	40126.14
504.13	40776.81
504.30	40931.29
504.48	40645.74
504.65	40746.39
504.83	41083.42
505.01	41350.24
505.18	41392.37
505.36	41504.72
505.53	41202.79
505.71	41734.09
505.88	41769.20
506.06	41851.12
506.23	41876.86
506.41	42064.11
506.58	41986.87
506.76	42265.39
506.93	42344.97
507.11	42408.17
507.28	42380.08
507.46	42525.19
507.63	42586.05
507.81	43311.61
507.98	42714.78
508.16	43304.59
508.33	43241.40
508.50	43222.67
508.68	43433.32
508.85	44165.91
509.03	43690.78
509.20	43814.83
509.38	44259.53
509.55	44259.53
509.73	43973.98
509.90	44203.36
510.08	44587.21
510.25	44832.96
510.42	44814.24
510.60	45015.52
510.77	45251.92
510.95	45474.27
511.12	45422.78
511.30	45148.93
511.47	45642.79
511.64	45235.53
511.82	45626.40
511.99	45516.40
512.17	45989.19
512.34	46169.41
512.51	46298.14
512.69	46263.03
512.86	46246.65
513.04	46342.61
513.21	46461.97
513.38	46916.04
513.56	47262.44
513.73	47065.83
513.90	46960.51
514.08	47117.32
514.25	47398.19
514.43	47283.50
514.60	47606.50
514.77	47421.59
514.95	47980.98
515.12	47243.71
515.29	47707.14
515.47	47613.52
515.64	48231.42
515.81	47842.89
515.99	48048.86
516.16	48222.06
516.33	48140.14
516.51	48631.65
516.68	48587.18
516.85	48612.93
517.03	48823.58
517.20	48657.40
517.37	48748.68
517.54	48739.32
517.72	49085.72
517.89	49294.02
518.06	49144.23
518.24	49336.15
518.41	49310.41
518.58	49333.81
518.75	49539.78
518.93	49528.08
519.10	49682.55
519.27	49932.99
519.45	49724.68
519.62	50082.78
519.79	49776.17
519.96	50279.39
520.14	49968.10
520.31	50312.16
520.48	50323.86
520.65	50581.32
520.83	50213.85
521.00	50630.47
521.17	50621.11
521.34	50597.70
521.52	50700.68
521.69	51285.82
521.86	50986.23
522.03	51199.22
522.20	51433.27
522.38	51381.78
522.55	51283.48
522.72	51353.69
522.89	50993.25
523.07	51695.41
523.24	51391.14
523.41	51700.09
523.58	51260.07
523.75	51782.01
523.92	51704.77
524.10	52285.23
524.27	51966.91
524.44	52261.82
524.61	52095.64
524.78	52044.15
524.96	52287.57
525.13	52301.61
525.30	52535.66
525.47	52109.69
525.64	52488.85
525.81	52657.37
525.98	52811.85
526.16	52566.09
526.33	52615.24
526.50	53064.63
526.67	52772.06
526.84	53036.54
527.01	53010.79
527.18	52722.91
527.36	53162.93
527.53	53106.76
527.70	53329.11
527.87	53333.79
528.04	53146.54
528.21	53591.25
528.38	53457.84
528.55	53670.82
528.72	53371.24
528.89	53385.28
529.07	53366.55
529.24	53160.59
529.41	53886.15
529.58	53577.20
529.75	53450.81
529.92	53851.05
530.09	53717.64
530.26	53970.41
530.43	53914.24
530.60	53764.45
530.77	53968.07
530.94	54078.08
531.11	54176.38
531.28	54192.76
531.46	54349.58
531.63	54513.42
531.80	54403.41
531.97	54396.39
532.14	54274.68
532.31	54695.98
532.48	54527.46
532.65	54625.76
532.82	54625.76
532.99	54412.77
533.16	54581.29
533.33	54953.44
533.50	55131.32
533.67	54745.13
533.84	54883.22
534.01	55079.83
534.18	54951.10
534.35	55236.64
534.52	55269.41
534.69	55194.51
534.86	55372.39
535.03	55124.30
535.20	55243.66
535.37	55253.03
535.54	55208.56
535.71	55107.91
535.88	55489.42
536.05	55650.92
536.22	55714.11
536.38	55714.11
536.55	55620.49
536.72	55629.85
536.89	55660.28
537.06	55526.87
537.23	55791.35
537.40	55580.70
537.57	55950.51
537.74	55910.72
537.91	55978.59
538.08	56140.09
538.25	55976.25
538.42	55952.85
538.59	56107.32
538.75	56097.96
538.92	56039.45
539.09	56268.82
539.26	56453.72
539.43	56154.13
539.60	56322.65
539.77	56086.26
539.94	56467.76
540.11	56362.44
540.28	56521.60
540.44	56533.30
540.61	56327.33
540.78	56322.65
540.95	56406.91
541.12	56449.04
541.29	56395.21
541.46	56537.98
541.62	56427.98
541.79	56563.73
541.96	56250.09
542.13	56554.36
542.30	56580.11
542.47	56999.07
542.63	57020.13
542.80	56767.35
542.97	57144.18
543.14	57279.93
543.31	57347.81
543.48	57432.07
543.64	57427.38
543.81	57556.11
543.98	57195.67
544.15	57193.33
544.32	57525.69
544.48	57462.49
544.65	57530.37
544.82	57436.75
544.99	57535.05
545.16	57144.18
545.32	57558.45
545.49	57958.69
545.66	57609.95
545.83	57661.44
546.00	57757.40
546.16	57822.93
546.33	57506.96
546.50	57602.92
546.67	57509.30
546.83	57420.36
547.00	57813.57
547.17	57860.38
547.34	57989.11
547.50	57841.66
547.67	58213.80
547.84	57909.53
548.00	58129.54
548.17	58377.64
548.34	57900.17
548.51	58164.65
548.67	58370.62
548.84	58155.29
549.01	58061.67
549.18	58316.79
549.34	58234.87
549.51	58258.27
549.68	58525.10
549.84	58417.43
550.01	58539.14
550.18	58525.10
550.34	58314.45
550.51	58677.23
550.68	58492.33
550.84	58218.49
551.01	58555.52
551.18	58628.08
551.34	58649.14
551.51	58571.91
551.68	58611.70
551.84	58506.37
552.01	58478.28
552.18	58623.40
552.34	58789.58
552.51	58707.66
552.68	58766.17
552.84	58763.83
553.01	58932.35
553.18	58827.02
553.34	58773.19
553.51	58667.87
553.67	58831.71
553.84	59236.62
554.01	58862.13
554.17	59161.72
554.34	59014.27
554.51	59032.99
554.67	59201.51
554.84	59164.06
555.00	59152.36
555.17	58974.48
555.33	59077.46
555.50	58941.71
555.67	59138.32
555.83	59042.35
556.00	59178.10
556.16	59402.80
556.33	59316.20
556.50	59138.32
556.66	59608.76
556.83	59058.74
556.99	59423.86
557.16	59529.19
557.32	59473.01
557.49	59491.74
557.65	59463.65
557.82	59367.69
557.98	59374.71
558.15	59533.87
558.32	59468.33
558.48	59344.28
558.65	59611.10
558.81	59498.76
558.98	59557.27
559.14	59730.47
559.31	59751.54
559.47	59702.38
559.64	59718.77
559.80	59735.15
559.97	59671.96
560.13	59688.34
560.30	59709.41
560.46	59709.41
560.63	59842.82
560.79	59721.11
560.96	59852.18
561.12	59826.43
561.29	59744.51
561.45	59819.41
561.61	59859.20
561.78	59903.67
561.94	59770.26
562.11	59917.71
562.27	59868.56
562.44	59957.50
562.60	60177.51
562.77	60067.51
562.93	59906.01
563.10	59910.69
563.26	59791.33
563.42	60221.98
563.59	59622.81
563.75	59980.91
563.92	59983.25
564.08	59980.91
564.24	60193.90
564.41	60039.42
564.57	59854.52
564.74	60011.34
564.90	60076.87
565.07	59964.52
565.23	60207.94
565.39	59997.29
565.56	60119.00
565.72	60310.92
565.88	60135.38
566.05	60341.35
566.21	60186.88
566.38	60189.22
566.54	60093.25
566.70	60416.25
566.87	60275.82
567.03	60449.02
567.19	60570.72
567.36	60217.30
567.52	60207.94
567.68	60481.78
567.85	60392.84
568.01	60317.95
568.17	60250.07
568.34	60495.83
568.50	60444.33
568.66	60271.14
568.83	60420.93
568.99	60257.09
569.15	60427.95
569.32	60465.40
569.48	60584.77
569.64	60683.07
569.81	60615.19
569.97	60364.76
570.13	60390.50
570.30	60303.90
570.46	60549.66
570.62	60406.89
570.78	60566.04
570.95	60512.21
571.11	60697.11
571.27	60617.53
571.43	60671.37
571.60	60647.96
571.76	60444.33
571.92	60678.39
572.09	60598.81
572.25	60568.38
572.41	60409.23
572.57	60561.36
572.74	60809.46
572.90	60743.92
573.06	60774.35
573.22	60568.38
573.38	60701.79
573.55	60697.11
573.71	60713.50
573.87	60776.69
574.03	60542.64
574.20	61001.38
574.36	60919.46
574.52	60680.73
574.68	60715.84
574.84	61059.90
575.01	60809.46
575.17	60617.53
575.33	60619.88
575.49	60807.12
575.65	60577.75
575.82	60671.37
575.98	60757.97
576.14	61024.79
576.30	60924.14
576.46	60528.59
576.62	60687.75
576.79	60830.52
576.95	60774.35
577.11	60739.24
577.27	60760.31
577.43	60769.67
577.59	60802.44
577.75	60842.23
577.92	60626.90
578.08	60772.01
578.24	60882.02
578.40	61003.72
578.56	60928.83
578.72	60828.18
578.88	61099.68
579.04	61066.92
579.21	60807.12
579.37	61132.45
579.53	61087.98
579.69	60783.71
579.85	60891.38
580.01	60907.76
580.17	60734.56
580.33	61069.26
580.49	60975.64
580.65	60767.33
580.82	60736.90
580.98	60914.78
581.14	60743.92
581.30	61003.72
581.46	60966.27
581.62	60823.50
581.78	60713.50
581.94	60994.36
582.10	60928.83
582.26	60715.84
582.42	60900.74
582.58	61106.71
582.74	61055.21
582.90	61006.06
583.06	60844.57
583.22	60863.29
583.38	60931.17
583.54	61104.37
583.70	61205.01
583.86	60970.96
584.02	60807.12
584.18	60830.52
584.34	60900.74
584.50	60952.23
584.66	60945.21
584.82	60781.37
584.98	61066.92
585.14	61027.13
585.30	60842.23
585.46	60919.46
585.62	60945.21
585.78	61080.96
585.94	60809.46
586.10	60924.14
586.26	60949.89
586.42	61008.40
586.58	61162.88
586.74	61120.75
586.90	60968.61
587.06	60907.76
587.22	61127.77
587.38	61083.30
587.54	61003.72
587.70	61434.38
587.86	61123.09
588.02	61132.45
588.18	61254.16
588.34	61134.79
588.49	60884.36
