SpectraSuite Data File
++++++++++++++++++++++++++++++++++++
Date: Fri Oct 25 11:25:46 EDT 2013
User: price-jones
Dark Spectrum Present: No
Reference Spectrum Present: No
Number of Sampled Component Spectra: 1
Spectrometers: USB2+H05261
Integration Time (usec): 100000 (USB2+H05261)
Spectra Averaged: 1 (USB2+H05261)
Boxcar Smoothing: 0 (USB2+H05261)
Correct for Electrical Dark: No (USB2+H05261)
Strobe/Lamp Enabled: No (USB2+H05261)
Correct for Detector Non-linearity: No (USB2+H05261)
Correct for Stray Light: No (USB2+H05261)
Number of Pixels in Processed Spectrum: 2048
>>>>>Begin Processed Spectral Data<<<<<
365.73	248.10
365.92	248.10
366.12	248.10
366.32	133.41
366.52	105.32
366.72	117.03
366.91	93.62
367.11	166.18
367.31	205.97
367.51	152.13
367.70	142.77
367.90	149.79
368.10	79.58
368.30	114.69
368.49	140.43
368.69	149.79
368.89	194.26
369.09	189.58
369.28	173.20
369.48	173.20
369.68	156.82
369.87	187.24
370.07	201.29
370.27	220.01
370.47	304.27
370.66	594.50
370.86	545.34
371.06	641.31
371.25	664.71
371.45	753.65
371.65	653.01
371.84	662.37
372.04	636.63
372.24	641.31
372.44	716.20
372.63	674.07
372.83	784.08
373.03	770.04
373.22	758.33
373.42	763.01
373.62	814.51
373.81	819.19
374.01	884.72
374.21	788.76
374.40	828.55
374.60	788.76
374.79	765.36
374.99	828.55
375.19	868.34
375.38	847.27
375.58	877.70
375.78	779.40
375.97	866.00
376.17	903.45
376.37	812.17
376.56	875.36
376.76	791.10
376.95	919.83
377.15	976.00
377.35	826.21
377.54	870.68
377.74	903.45
377.93	943.24
378.13	952.60
378.33	912.81
378.52	835.57
378.72	915.15
378.91	912.81
379.11	987.71
379.31	954.94
379.50	976.00
379.70	966.64
379.89	1008.77
380.09	954.94
380.28	1029.84
380.48	952.60
380.68	971.32
380.87	1008.77
381.07	1011.11
381.26	1008.77
381.46	1001.75
381.65	992.39
381.85	1055.58
382.04	1022.81
382.24	1074.31
382.43	1022.81
382.63	1036.86
382.83	1067.28
383.02	1078.99
383.22	1174.95
383.41	1074.31
383.61	1022.81
383.80	1186.65
384.00	1137.50
384.19	1100.05
384.39	1142.18
384.58	1172.61
384.78	1158.57
384.97	1158.57
385.17	1146.86
385.36	1156.22
385.56	1172.61
385.75	1090.69
385.95	1200.69
386.14	1306.02
386.34	1203.04
386.53	1284.95
386.72	1177.29
386.92	1291.98
387.11	1181.97
387.31	1130.48
387.50	1261.55
387.70	1263.89
387.89	1263.89
388.09	1254.53
388.28	1233.46
388.48	1270.91
388.67	1343.47
388.86	1263.89
389.06	1371.55
389.25	1315.38
389.45	1331.76
389.64	1327.08
389.84	1378.58
390.03	1401.98
390.22	1490.92
390.42	1406.66
390.61	1313.04
390.81	1397.30
391.00	1394.96
391.19	1497.94
391.39	1387.94
391.58	1439.43
391.78	1390.28
391.97	1542.41
392.16	1423.05
392.36	1514.33
392.55	1533.05
392.75	1636.03
392.94	1469.86
393.13	1500.28
393.33	1472.20
393.52	1533.05
393.71	1516.67
393.91	1614.97
394.10	1652.42
394.29	1631.35
394.49	1633.69
394.68	1668.80
394.88	1572.84
395.07	1612.63
395.26	1689.87
395.46	1638.38
395.65	1640.72
395.84	1713.27
396.04	1762.42
396.23	1675.82
396.42	1743.70
396.62	1764.76
396.81	1809.23
397.00	1732.00
397.19	1767.10
397.39	1729.66
397.58	1820.94
397.77	1809.23
397.97	1865.41
398.16	1818.60
398.35	1935.62
398.55	1886.47
398.74	1912.22
398.93	2010.52
399.12	1968.39
399.32	1895.83
399.51	1895.83
399.70	1982.43
399.90	1947.33
400.09	2015.20
400.28	1987.11
400.47	1973.07
400.67	2080.74
400.86	2094.78
401.05	2087.76
401.24	2083.08
401.44	2036.27
401.63	2083.08
401.82	2092.44
402.01	2195.42
402.21	2214.15
402.40	2246.91
402.59	2104.14
402.78	2221.17
402.97	2340.54
403.17	2150.95
403.36	2272.66
403.55	2363.94
403.74	2342.88
403.93	2324.15
404.13	2326.49
404.32	2356.92
404.51	2399.05
404.70	2431.82
404.89	2300.75
405.09	2427.14
405.28	2354.58
405.47	2284.36
405.66	2518.42
405.85	2558.21
406.05	2473.95
406.24	2579.27
406.43	2574.59
406.62	2724.38
406.81	2738.43
407.00	2588.63
407.20	2593.31
407.39	2712.68
407.58	2839.07
407.77	2670.55
407.96	2724.38
408.15	2780.56
408.34	2736.09
408.54	2747.79
408.73	2818.00
408.92	2684.59
409.11	2871.84
409.30	2860.13
409.49	2937.37
409.68	2785.24
409.87	2864.82
410.07	2979.50
410.26	2972.48
410.45	3014.61
410.64	3009.93
410.83	3129.30
411.02	3042.70
411.21	3183.13
411.40	3157.38
411.59	3201.85
411.78	3295.47
411.98	3040.36
412.17	3164.40
412.36	3183.13
412.55	3323.56
412.74	3344.63
412.93	3363.35
413.12	3344.63
413.31	3510.80
413.50	3499.10
413.69	3536.55
413.88	3566.98
414.07	3625.49
414.26	3538.89
414.45	3688.68
414.64	3651.24
414.83	3660.60
415.02	3674.64
415.22	3798.69
415.41	3801.03
415.60	3857.20
415.79	3786.99
415.98	3801.03
416.17	3908.69
416.36	3962.53
416.55	3981.25
416.74	3899.33
416.93	4119.34
417.12	4107.64
417.31	4079.55
417.50	4018.70
417.69	4140.41
417.88	4362.76
418.07	4161.47
418.26	4248.07
418.45	4252.75
418.64	4573.41
418.83	4479.79
419.02	4475.10
419.21	4517.23
419.39	4437.66
419.58	4552.34
419.77	4512.55
419.96	4652.98
420.15	4631.92
420.34	4585.11
420.53	4468.08
420.72	4521.92
420.91	4688.09
421.10	4650.64
421.29	4627.24
421.48	4575.75
421.67	4657.67
421.86	4688.09
422.05	4779.37
422.24	4819.16
422.43	4746.61
422.61	5032.15
422.80	4901.08
422.99	4863.63
423.18	5100.03
423.37	5100.03
423.56	4667.03
423.75	4847.25
423.94	4868.31
424.13	4472.76
424.32	4660.01
424.50	4992.36
424.69	4983.00
424.88	5219.39
425.07	4938.53
425.26	4844.91
425.45	5013.43
425.64	5060.24
425.83	4975.98
426.01	5053.22
426.20	4994.70
426.39	4964.28
426.58	5074.28
426.77	5048.54
426.96	5137.48
427.15	5163.22
427.33	5207.69
427.52	5128.11
427.71	5078.96
427.90	5137.48
428.09	5296.63
428.28	5359.83
428.46	5245.14
428.65	5338.76
428.84	5465.15
429.03	5413.66
429.22	5324.72
429.40	5392.59
429.59	5626.65
429.78	5270.89
429.97	5163.22
430.16	5476.85
430.34	5619.63
430.53	5413.66
430.72	5561.11
430.91	5593.88
431.10	5547.07
431.28	5547.07
431.47	5748.36
431.66	5795.17
431.85	5827.93
432.03	5715.59
432.22	6001.13
432.41	5830.27
432.60	5818.57
432.79	5975.39
432.97	6071.35
433.16	5989.43
433.35	5884.11
433.54	5975.39
433.72	6169.65
433.91	6169.65
434.10	6174.33
434.28	6157.95
434.47	6134.54
434.66	6129.86
434.85	6403.71
435.03	6256.25
435.22	6190.72
435.41	6459.88
435.59	6335.83
435.78	6256.25
435.97	6471.58
436.16	6179.01
436.34	6228.17
436.53	6499.67
436.72	6607.33
436.90	6370.94
437.09	6518.39
437.28	6289.02
437.46	6499.67
437.65	6590.95
437.84	6745.42
438.02	6675.21
438.21	6712.66
438.40	6593.29
438.58	7007.56
438.77	7063.74
438.96	6827.34
439.14	7073.10
439.33	7236.94
439.52	7042.67
439.70	7176.08
439.89	7166.72
440.08	7323.54
440.26	7440.56
440.45	7398.43
440.63	7337.58
440.82	7566.95
441.01	7424.18
441.19	7597.38
441.38	7606.74
441.57	7714.41
441.75	7859.52
441.94	7882.92
442.12	7932.08
442.31	8152.09
442.50	8116.98
442.68	7850.16
442.87	7836.11
443.05	8095.91
443.24	8180.17
443.43	8051.44
443.61	8039.74
443.80	8561.68
443.98	7969.52
444.17	7859.52
444.35	8262.09
444.54	8472.74
444.73	8301.88
444.91	8145.06
445.10	8358.05
445.28	8374.44
445.47	8161.45
445.65	8339.33
445.84	8283.16
446.02	8491.46
446.21	8365.07
446.39	8271.45
446.58	8521.89
446.77	8336.99
446.95	8196.56
447.14	8351.03
447.32	8699.77
447.51	8449.33
447.69	8585.08
447.88	8535.93
448.06	8425.93
448.25	8456.36
448.43	8561.68
448.62	8456.36
448.80	8484.44
448.99	8793.39
449.17	8615.51
449.36	8641.26
449.54	8664.66
449.73	8842.54
449.91	9048.51
450.10	8973.61
450.28	9090.64
450.46	8826.16
450.65	9071.92
450.83	9111.71
451.02	9095.32
451.20	9188.94
451.39	9043.83
451.57	9097.66
451.76	9018.08
451.94	9057.87
452.13	9198.31
452.31	9046.17
452.49	9013.40
452.68	9184.26
452.86	9320.01
453.05	9273.20
453.23	9301.29
453.42	9280.22
453.60	9050.85
453.78	9518.96
453.97	9348.10
454.15	9479.17
454.34	9217.03
454.52	9476.83
454.70	9614.92
454.89	9610.24
455.07	9694.50
455.26	9860.68
455.44	9666.41
455.62	9745.99
455.81	9851.31
455.99	9930.89
456.17	9893.44
456.36	10120.48
456.54	10286.65
456.73	10209.42
456.91	10277.29
457.09	10445.81
457.28	10443.47
457.46	10462.19
457.64	10595.61
457.83	10363.89
458.01	10410.70
458.19	10541.77
458.38	10462.19
458.56	10560.50
458.74	10724.33
458.93	10696.25
459.11	10494.96
459.29	10569.86
459.48	10759.44
459.66	10696.25
459.84	10820.30
460.03	11047.33
460.21	10836.68
460.39	10930.30
460.57	10944.34
460.76	11192.44
460.94	11131.59
461.12	10949.03
461.31	11098.82
461.49	10904.56
461.67	11272.02
461.85	11225.21
462.04	11056.69
462.22	11737.79
462.40	11580.97
462.59	11433.52
462.77	11461.60
462.95	11616.08
463.13	11644.17
463.32	11698.00
463.50	11667.57
463.68	11800.98
463.86	11651.19
464.05	11367.98
464.23	11585.65
464.41	11543.52
464.59	11742.47
464.78	11997.59
464.96	11796.30
465.14	11829.07
465.32	11768.21
465.50	12020.99
465.69	11892.26
465.87	11950.78
466.05	12002.27
466.23	12175.47
466.41	12182.49
466.60	12580.38
466.78	11875.88
466.96	12374.41
467.14	12175.47
467.32	12301.86
467.51	12674.00
467.69	12196.53
467.87	12470.37
468.05	12439.95
468.23	12262.07
468.41	12491.44
468.60	12659.96
468.78	12671.66
468.96	12549.95
469.14	12863.58
469.32	12821.45
469.50	12692.73
469.69	13249.77
469.87	13057.85
470.05	13130.41
470.23	13130.41
470.41	13135.09
470.59	13186.58
470.77	12879.97
470.95	13172.54
471.14	13277.86
471.32	13284.88
471.50	13371.48
471.68	13565.74
471.86	13729.58
472.04	13497.87
472.22	13902.78
472.40	13600.85
472.58	13694.47
472.77	13795.12
472.95	14155.56
473.13	14359.19
473.31	14207.05
473.49	13886.40
473.67	14178.97
473.85	14288.97
474.03	14427.06
474.21	14511.32
474.39	14796.87
474.57	14710.27
474.75	14963.04
474.93	14899.85
475.12	14642.39
475.30	14958.36
475.48	15166.67
475.66	15112.84
475.84	14867.08
476.02	15508.39
476.20	15180.71
476.38	15697.97
476.56	15896.92
476.74	15906.28
476.92	15838.41
477.10	15609.03
477.28	16283.11
477.46	16006.92
477.64	16095.86
477.82	16613.12
478.00	16945.48
478.18	16596.74
478.36	16755.90
478.54	17212.30
478.72	16901.01
478.90	16826.11
479.08	17614.87
479.26	17816.16
479.44	17518.91
479.62	18045.53
479.80	17825.52
479.98	18059.57
480.16	18324.05
480.34	18059.57
480.52	18228.09
480.70	18672.79
480.88	18178.94
481.06	18405.97
481.24	18817.91
481.41	18970.04
481.59	19447.51
481.77	19480.28
481.95	19564.54
482.13	19648.80
482.31	19550.49
482.49	20329.89
482.67	20290.10
482.85	20231.59
483.03	20367.34
483.21	20439.90
483.39	21027.37
483.57	20739.49
483.74	20767.57
483.92	21359.73
484.10	21172.49
484.28	21741.24
484.46	21696.77
484.64	22253.81
484.82	21600.80
485.00	22249.13
485.18	22246.79
485.35	23096.41
485.53	22766.39
485.71	22892.78
485.89	23058.96
486.07	23274.29
486.25	23367.91
486.43	23185.35
486.61	23784.52
486.78	24018.58
486.96	24191.78
487.14	24430.51
487.32	24357.96
487.50	24411.79
487.68	24875.21
487.85	25015.65
488.03	25256.72
488.21	25743.55
488.39	25570.35
488.57	26218.68
488.75	26066.55
488.92	26075.91
489.10	26384.86
489.28	26665.72
489.46	26974.67
489.64	26764.03
489.81	27365.54
489.99	27351.50
490.17	27381.93
490.35	27852.38
490.53	27934.29
490.70	28130.90
490.88	28163.67
491.06	28549.85
491.24	28479.64
491.41	28559.22
491.59	29060.09
491.77	29184.14
491.95	29081.16
492.13	29436.92
492.30	29694.38
492.48	29982.26
492.66	30223.34
492.84	30391.86
493.01	30558.03
493.19	30401.22
493.37	30885.71
493.54	30923.16
493.72	31360.84
493.90	31428.71
494.08	31307.01
494.25	31522.34
494.43	31725.96
494.61	31974.06
494.79	32013.85
494.96	32369.61
495.14	32601.32
495.32	33039.00
495.49	32788.56
495.67	33024.96
495.85	33509.45
496.02	33771.59
496.20	33813.72
496.38	34073.52
496.55	33865.21
496.73	34548.65
496.91	34513.54
497.09	34686.74
497.26	34553.33
497.44	34862.28
497.62	34759.30
497.79	35686.15
497.97	34918.45
498.14	35810.20
498.32	36091.06
498.50	35945.95
498.67	36313.41
498.85	36055.95
499.03	36643.43
499.20	36556.83
499.38	36315.75
499.56	37116.22
499.73	36800.24
499.91	37022.59
500.08	37347.93
500.26	37350.27
500.44	37219.20
500.61	37844.12
500.79	37359.63
500.97	38017.32
501.14	38337.98
501.32	38251.38
501.49	38550.96
501.67	38356.70
501.84	38689.06
502.02	38581.39
502.20	38644.59
502.37	38541.60
502.55	38873.96
502.72	38969.92
502.90	39648.68
503.07	39454.41
503.25	39522.29
503.43	39576.12
503.60	40098.06
503.78	40224.45
503.95	40215.08
504.13	40346.15
504.30	40610.64
504.48	40243.17
504.65	40645.74
504.83	40931.29
505.01	40893.84
505.18	41130.23
505.36	41113.85
505.53	41219.17
505.71	41879.21
505.88	41247.26
506.06	41191.09
506.23	41626.43
506.41	41645.15
506.58	41839.42
506.76	42080.49
506.93	42241.99
507.11	41647.49
507.28	42279.44
507.46	42389.44
507.63	42476.04
507.81	42864.57
507.98	42656.26
508.16	42862.23
508.33	43192.25
508.50	42988.62
508.68	43613.54
508.85	43182.88
509.03	43540.99
509.20	43531.62
509.38	44280.60
509.55	44144.84
509.73	44051.22
509.90	44163.57
510.08	44512.31
510.25	44322.72
510.42	44329.75
510.60	45034.25
510.77	45013.18
510.95	45392.35
511.12	44802.53
511.30	44704.23
511.47	45095.10
511.64	45277.66
511.82	45322.13
511.99	45371.28
512.17	45584.27
512.34	45738.75
512.51	46370.69
512.69	46216.22
512.86	45879.18
513.04	46309.84
513.21	46419.84
513.38	46602.41
513.56	46546.23
513.73	46218.56
513.90	46810.71
514.08	46808.37
514.25	47063.49
514.43	47107.96
514.60	47021.36
514.77	47110.30
514.95	47271.80
515.12	46951.15
515.29	47356.06
515.47	47833.53
515.64	48009.07
515.81	47524.58
515.99	47700.12
516.16	48102.69
516.33	48048.86
516.51	48488.88
516.68	48624.63
516.85	48697.19
517.03	48619.95
517.20	48566.12
517.37	48355.47
517.54	48725.27
517.72	48760.38
517.89	48793.15
518.06	49174.66
518.24	49031.88
518.41	48985.07
518.58	48975.71
518.75	49006.14
518.93	49340.83
519.10	48987.41
519.27	49633.40
519.45	49397.01
519.62	49921.29
519.79	49750.43
519.96	49909.58
520.14	49916.61
520.31	50024.27
520.48	50637.49
520.65	49956.39
520.83	50866.86
521.00	50548.55
521.17	50031.29
521.34	50628.13
521.52	50574.30
521.69	50782.60
521.86	51063.47
522.03	51196.88
522.20	51283.48
522.38	51625.20
522.55	51103.26
522.72	51035.38
522.89	50876.22
523.07	51545.62
523.24	51180.49
523.41	51550.30
523.58	51262.41
523.75	51690.73
523.92	51466.04
524.10	51800.74
524.27	52097.98
524.44	52062.88
524.61	51971.60
524.78	51915.42
524.96	51959.89
525.13	52149.48
525.30	51896.70
525.47	52580.13
525.64	52186.92
525.81	52502.90
525.98	52116.71
526.16	52488.85
526.33	52467.79
526.50	52442.04
526.67	52425.66
526.84	52582.48
527.01	52458.43
527.18	52844.62
527.36	52704.18
527.53	52418.64
527.70	53279.96
527.87	53247.19
528.04	53006.11
528.21	53319.74
528.38	53408.68
528.55	53286.98
528.72	52889.09
528.89	53415.71
529.07	53261.23
529.24	53392.30
529.41	53717.64
529.58	53677.85
529.75	53485.92
529.92	53511.67
530.09	53701.25
530.26	53570.18
530.43	53635.72
530.60	53638.06
530.77	53591.25
530.94	53921.26
531.11	54106.16
531.28	54188.08
531.46	54057.01
531.63	53937.65
531.80	53860.41
531.97	53932.96
532.14	54265.32
532.31	54375.33
532.48	54223.19
532.65	54171.70
532.82	54204.47
532.99	54443.20
533.16	54232.55
533.33	54443.20
533.50	54831.73
533.67	54468.95
533.84	54614.06
534.01	54770.88
534.18	54787.26
534.35	54770.88
534.52	55051.74
534.69	55021.31
534.86	55140.68
535.03	54841.09
535.20	54660.87
535.37	55154.72
535.54	55250.69
535.71	55138.34
535.88	55161.75
536.05	55121.96
536.22	55327.92
536.38	55451.97
536.55	55547.93
536.72	55758.58
536.89	55348.99
537.06	55327.92
537.23	55681.34
537.40	55496.44
537.57	55571.34
537.74	55732.84
537.91	55957.53
538.08	55800.71
538.25	55473.04
538.42	56013.70
538.59	56128.39
538.75	55828.80
538.92	55936.46
539.09	56058.17
539.26	55948.17
539.43	55875.61
539.60	56170.52
539.77	56128.39
539.94	56179.88
540.11	56081.58
540.28	56002.00
540.44	56308.61
540.61	56406.91
540.78	56046.47
540.95	56271.16
541.12	56128.39
541.29	56116.68
541.46	56699.48
541.62	56392.87
541.79	56453.72
541.96	56402.23
542.13	56535.64
542.30	56278.18
542.47	56788.42
542.63	56669.05
542.80	56706.50
542.97	57003.75
543.14	57221.42
543.31	56807.14
543.48	56809.48
543.64	57148.86
543.81	57286.95
543.98	57151.20
544.15	57265.89
544.32	57130.14
544.48	57385.25
544.65	57209.71
544.82	57343.12
544.99	57160.56
545.16	57310.36
545.32	57298.65
545.49	57333.76
545.66	57382.91
545.83	57605.26
546.00	57434.41
546.16	57226.10
546.33	57198.01
546.50	57073.96
546.67	57876.77
546.83	57244.82
547.00	57783.15
547.17	57436.75
547.34	57558.45
547.50	57827.62
547.67	57602.92
547.84	57869.75
548.00	58042.95
548.17	57942.30
548.34	57778.46
548.51	57968.05
548.67	58059.33
548.84	57827.62
549.01	57982.09
549.18	58075.71
549.34	57996.13
549.51	57996.13
549.68	58166.99
549.84	58136.57
550.01	58309.77
550.18	58085.07
550.34	58340.19
550.51	58403.39
550.68	58305.09
550.84	58145.93
551.01	58403.39
551.18	58419.77
551.34	58330.83
551.51	58529.78
551.68	58426.79
551.84	58508.71
552.01	58473.60
552.18	58553.18
552.34	58330.83
552.51	58539.14
552.68	58440.84
552.84	58501.69
553.01	58845.75
553.18	58581.27
553.34	58569.57
553.51	58590.63
553.67	58618.72
553.84	58878.52
554.01	58712.34
554.17	58939.37
554.34	59051.72
554.51	58798.94
554.67	58990.86
554.84	58773.19
555.00	58859.79
555.17	58827.02
555.33	58749.79
555.50	58653.82
555.67	58670.21
555.83	58901.92
556.00	58899.58
556.16	59175.76
556.33	58986.18
556.50	59030.65
556.66	59283.43
556.83	58981.50
556.99	59007.25
557.16	59309.18
557.32	59423.86
557.49	59458.97
557.65	59203.85
557.82	59222.58
557.98	59206.19
558.15	59262.36
558.32	59341.94
558.48	59276.41
558.65	59274.07
558.81	59313.86
558.98	59278.75
559.14	59185.13
559.31	59480.03
559.47	59517.48
559.64	59377.05
559.80	59554.93
559.97	59475.35
560.13	59398.12
560.30	59554.93
560.46	59728.13
560.63	59522.16
560.79	59784.30
560.96	59777.28
561.12	59608.76
561.29	59711.75
561.45	59737.49
561.61	59688.34
561.78	59601.74
561.94	59821.75
562.11	59686.00
562.27	59573.66
562.44	59896.65
562.60	59927.08
562.77	59962.18
562.93	59613.44
563.10	59990.27
563.26	59690.68
563.42	60023.04
563.59	60011.34
563.75	59723.45
563.92	59941.12
564.08	59566.63
564.24	60081.55
564.41	59924.74
564.57	59765.58
564.74	59943.46
564.90	60062.83
565.07	59854.52
565.23	59875.58
565.39	60037.08
565.56	59945.80
565.72	59873.24
565.88	60076.87
566.05	59929.42
566.21	59887.29
566.38	60023.04
566.54	60009.00
566.70	60186.88
566.87	60257.09
567.03	59725.79
567.19	60409.23
567.36	60229.01
567.52	60067.51
567.68	60364.76
567.85	60165.81
568.01	60252.41
568.17	60205.60
568.34	60154.11
568.50	59969.21
568.66	60268.79
568.83	60287.52
568.99	60114.32
569.15	60233.69
569.32	60463.06
569.48	60156.45
569.64	60313.26
569.81	60315.61
569.97	60207.94
570.13	60350.71
570.30	60140.07
570.46	60465.40
570.62	60406.89
570.78	60388.16
570.95	60584.77
571.11	60331.99
571.27	60334.33
571.43	60371.78
571.60	60640.94
571.76	60479.44
571.92	60285.18
572.09	60561.36
572.25	60317.95
572.41	60355.39
572.57	60362.42
572.74	60750.94
572.90	60481.78
573.06	60458.38
573.22	60570.72
573.38	60456.04
573.55	60425.61
573.71	60797.76
573.87	60624.56
574.03	60439.65
574.20	60523.91
574.36	60294.54
574.52	60793.07
574.68	60603.49
574.84	60706.47
575.01	60793.07
575.17	60591.79
575.33	60306.24
575.49	60491.15
575.65	60608.17
575.82	60643.28
575.98	60699.45
576.14	60748.60
576.30	60701.79
576.46	60535.62
576.62	60650.30
576.79	60774.35
576.95	60383.48
577.11	60533.28
577.27	60608.17
577.43	60795.42
577.59	60444.33
577.75	60711.16
577.92	60594.13
578.08	60430.29
578.24	60776.69
578.40	61034.15
578.56	60903.08
578.72	60839.89
578.88	60835.20
579.04	60816.48
579.21	60867.97
579.37	60762.65
579.53	60910.10
579.69	60556.68
579.85	60601.15
580.01	60554.34
580.17	60463.06
580.33	60762.65
580.49	60828.18
580.65	60956.91
580.82	60767.33
580.98	60638.60
581.14	60624.56
581.30	60797.76
581.46	60692.43
581.62	60647.96
581.78	60657.32
581.94	60741.58
582.10	60741.58
582.26	60697.11
582.42	60643.28
582.58	60783.71
582.74	60856.27
582.90	60720.52
583.06	60823.50
583.22	60760.31
583.38	60645.62
583.54	60636.26
583.70	60795.42
583.86	60757.97
584.02	60713.50
584.18	60893.72
584.34	60654.98
584.50	60760.31
584.66	61013.08
584.82	60645.62
584.98	60947.55
585.14	60790.73
585.30	60781.37
585.46	61057.56
585.62	60914.78
585.78	60963.93
585.94	60640.94
586.10	60790.73
586.26	60839.89
586.42	60893.72
586.58	60846.91
586.74	60800.10
586.90	60917.12
587.06	60701.79
587.22	61020.11
587.38	61137.13
587.54	61027.13
587.70	60846.91
587.86	61066.92
588.02	60858.61
588.18	61034.15
588.34	60865.63
588.49	60872.65
