SpectraSuite Data File
++++++++++++++++++++++++++++++++++++
Date: Fri Oct 25 11:33:09 EDT 2013
User: price-jones
Dark Spectrum Present: No
Reference Spectrum Present: No
Number of Sampled Component Spectra: 1
Spectrometers: USB2+H05261
Integration Time (usec): 100000 (USB2+H05261)
Spectra Averaged: 1 (USB2+H05261)
Boxcar Smoothing: 0 (USB2+H05261)
Correct for Electrical Dark: No (USB2+H05261)
Strobe/Lamp Enabled: No (USB2+H05261)
Correct for Detector Non-linearity: No (USB2+H05261)
Correct for Stray Light: No (USB2+H05261)
Number of Pixels in Processed Spectrum: 2048
>>>>>Begin Processed Spectral Data<<<<<
365.73	327.68
365.92	327.68
366.12	327.68
366.32	175.54
366.52	191.92
366.72	196.60
366.91	173.20
367.11	163.84
367.31	152.13
367.51	187.24
367.70	121.71
367.90	156.82
368.10	203.63
368.30	163.84
368.49	215.33
368.69	196.60
368.89	145.11
369.09	189.58
369.28	241.08
369.48	180.22
369.68	163.84
369.87	229.37
370.07	222.35
370.27	278.52
370.47	311.29
370.66	484.49
370.86	479.81
371.06	573.43
371.25	573.43
371.45	519.60
371.65	550.03
371.84	578.11
372.04	596.84
372.24	636.63
372.44	638.97
372.63	641.31
372.83	592.16
373.03	620.24
373.22	524.28
373.42	594.50
373.62	543.00
373.81	655.35
374.01	634.29
374.21	622.58
374.40	690.46
374.60	678.76
374.79	774.72
374.99	704.50
375.19	699.82
375.38	662.37
375.58	678.76
375.78	606.20
375.97	697.48
376.17	720.88
376.37	695.14
376.56	723.23
376.76	699.82
376.95	723.23
377.15	685.78
377.35	692.80
377.54	702.16
377.74	753.65
377.93	664.71
378.13	641.31
378.33	683.44
378.52	725.57
378.72	727.91
378.91	674.07
379.11	690.46
379.31	711.52
379.50	763.01
379.70	741.95
379.89	795.78
380.09	751.31
380.28	718.54
380.48	706.84
380.68	730.25
380.87	791.10
381.07	727.91
381.26	781.74
381.46	751.31
381.65	837.91
381.85	816.85
382.04	807.48
382.24	786.42
382.43	676.41
382.63	720.88
382.83	751.31
383.02	837.91
383.22	791.10
383.41	849.61
383.61	784.08
383.80	758.33
384.00	891.74
384.19	788.76
384.39	730.25
384.58	847.27
384.78	816.85
384.97	828.55
385.17	807.48
385.36	844.93
385.56	814.51
385.75	812.17
385.95	795.78
386.14	889.40
386.34	922.17
386.53	940.90
386.72	910.47
386.92	816.85
387.11	882.38
387.31	882.38
387.50	964.30
387.70	929.19
387.89	903.45
388.09	910.47
388.28	978.34
388.48	887.06
388.67	903.45
388.86	891.74
389.06	926.85
389.25	957.28
389.45	903.45
389.64	943.24
389.84	961.96
390.03	910.47
390.22	983.02
390.42	915.15
390.61	912.81
390.81	983.02
391.00	959.62
391.19	999.41
391.39	912.81
391.58	1043.88
391.78	952.60
391.97	1008.77
392.16	1011.11
392.36	1011.11
392.55	1029.84
392.75	997.07
392.94	1060.26
393.13	1086.01
393.33	997.07
393.52	1071.97
393.71	1095.37
393.91	1111.75
394.10	1083.67
394.29	1123.46
394.49	1102.39
394.68	1142.18
394.88	1128.14
395.07	1139.84
395.26	1282.61
395.46	1235.80
395.65	1207.72
395.84	1228.78
396.04	1261.55
396.23	1205.38
396.42	1214.74
396.62	1191.33
396.81	1252.19
397.00	1214.74
397.19	1214.74
397.39	1277.93
397.58	1228.78
397.77	1142.18
397.97	1315.38
398.16	1329.42
398.35	1289.64
398.55	1275.59
398.74	1308.36
398.93	1320.06
399.12	1348.15
399.32	1240.48
399.51	1392.62
399.70	1352.83
399.90	1355.17
400.09	1357.51
400.28	1392.62
400.47	1364.53
400.67	1488.58
400.86	1380.92
401.05	1462.83
401.24	1479.22
401.44	1439.43
401.63	1521.35
401.82	1481.56
402.01	1420.71
402.21	1476.88
402.40	1430.07
402.59	1540.07
402.78	1455.81
402.97	1528.37
403.17	1544.75
403.36	1483.90
403.55	1528.37
403.74	1624.33
403.93	1563.48
404.13	1633.69
404.32	1598.59
404.51	1600.93
404.70	1629.01
404.89	1549.43
405.09	1694.55
405.28	1753.06
405.47	1717.95
405.66	1701.57
405.85	1727.32
406.05	1629.01
406.24	1764.76
406.43	1675.82
406.62	1720.29
406.81	1771.79
407.00	1778.81
407.20	1776.47
407.39	1865.41
407.58	1930.94
407.77	1851.36
407.96	1849.02
408.15	1851.36
408.34	1846.68
408.54	1930.94
408.73	1949.67
408.92	1970.73
409.11	1963.71
409.30	2019.88
409.49	2033.93
409.68	1984.77
409.87	2118.18
410.07	2066.69
410.26	2146.27
410.45	2129.89
410.64	2047.97
410.83	2167.34
411.02	2118.18
411.21	2176.70
411.40	2223.51
411.59	2209.47
411.78	2214.15
411.98	2132.23
412.17	2183.72
412.36	2286.70
412.55	2333.51
412.74	2326.49
412.93	2415.43
413.12	2399.05
413.31	2370.96
413.50	2424.80
413.69	2263.30
413.88	2525.44
414.07	2502.03
414.26	2583.95
414.45	2464.58
414.64	2576.93
414.83	2649.49
415.02	2539.48
415.22	2658.85
415.41	2548.84
415.60	2651.83
415.79	2633.10
415.98	2621.40
416.17	2693.96
416.36	2738.43
416.55	2745.45
416.74	2740.77
416.93	2766.51
417.12	2864.82
417.31	2867.16
417.50	2892.90
417.69	2974.82
417.88	2925.67
418.07	2956.10
418.26	2967.80
418.45	2885.88
418.64	3080.14
418.83	3021.63
419.02	2993.55
419.21	3241.64
419.39	3155.04
419.58	3026.31
419.77	3112.91
419.96	3171.43
420.15	3143.34
420.34	3173.77
420.53	3131.64
420.72	3236.96
420.91	3260.37
421.10	3365.69
421.29	3272.07
421.48	3251.00
421.67	3309.52
421.86	3365.69
422.05	3400.80
422.24	3475.70
422.43	3426.54
422.61	3438.25
422.80	3391.44
422.99	3353.99
423.18	3538.89
423.37	3517.83
423.56	3529.53
423.75	3473.36
423.94	3295.47
424.13	3157.38
424.32	3337.60
424.50	3463.99
424.69	3510.80
424.88	3658.26
425.07	3433.57
425.26	3463.99
425.45	3468.67
425.64	3506.12
425.83	3480.38
426.01	3492.08
426.20	3379.73
426.39	3566.98
426.58	3548.25
426.77	3473.36
426.96	3581.02
427.15	3569.32
427.33	3602.08
427.52	3508.46
427.71	3480.38
427.90	3662.94
428.09	3644.21
428.28	3786.99
428.46	3784.65
428.65	3705.07
428.84	3859.54
429.03	3775.28
429.22	3691.02
429.40	3712.09
429.59	3721.45
429.78	3611.45
429.97	3667.62
430.16	3808.05
430.34	3985.93
430.53	4042.11
430.72	3850.18
430.91	3861.88
431.10	3747.20
431.28	3990.61
431.47	4037.42
431.66	3906.35
431.85	3836.14
432.03	4119.34
432.22	4159.13
432.41	3964.87
432.60	4093.60
432.79	4039.76
432.97	4140.41
433.16	4236.37
433.35	4067.85
433.54	4124.02
433.72	4168.49
433.91	4086.58
434.10	4140.41
434.28	4334.67
434.47	4381.48
434.66	4386.16
434.85	4257.43
435.03	4271.48
435.22	4456.38
435.41	4547.66
435.59	4320.63
435.78	4416.59
435.97	4482.13
436.16	4507.87
436.34	4381.48
436.53	4454.04
436.72	4475.10
436.90	4379.14
437.09	4470.42
437.28	4496.17
437.46	4475.10
437.65	4669.37
437.84	4571.07
438.02	4596.81
438.21	4468.08
438.40	4674.05
438.58	4695.11
438.77	4891.72
438.96	4676.39
439.14	4858.95
439.33	4940.87
439.52	4896.40
439.70	4908.10
439.89	5130.45
440.08	5132.79
440.26	4990.02
440.45	5132.79
440.63	5004.07
440.82	5156.20
441.01	5088.32
441.19	5247.48
441.38	5348.12
441.57	5345.78
441.75	5259.18
441.94	5416.00
442.12	5394.93
442.31	5343.44
442.50	5504.94
442.68	5406.64
442.87	5467.49
443.05	5614.95
443.24	5640.69
443.43	5584.52
443.61	5558.77
443.80	5774.10
443.98	5659.42
444.17	5387.91
444.35	5603.24
444.54	5652.39
444.73	5561.11
444.91	5530.69
445.10	5612.60
445.28	5664.10
445.47	5799.85
445.65	5678.14
445.84	5673.46
446.02	5720.27
446.21	5722.61
446.39	5696.86
446.58	5870.06
446.77	5762.40
446.95	5710.91
447.14	5851.34
447.32	5757.72
447.51	5989.43
447.69	5942.62
447.88	5893.47
448.06	5940.28
448.25	5823.25
448.43	5722.61
448.62	5720.27
448.80	5802.19
448.99	6083.05
449.17	6066.67
449.36	5799.85
449.54	6003.47
449.73	6087.73
449.91	6083.05
450.10	6092.41
450.28	6031.56
450.46	6263.27
450.65	6211.78
450.83	6174.33
451.02	6120.50
451.20	6342.85
451.39	6277.32
451.57	6260.93
451.76	6120.50
451.94	6319.45
452.13	6305.40
452.31	6345.19
452.49	5980.07
452.68	6384.98
452.86	6441.15
453.05	6616.69
453.23	6389.66
453.42	6459.88
453.60	6490.31
453.78	6530.09
453.97	6389.66
454.15	6530.09
454.34	6396.68
454.52	6623.72
454.70	6607.33
454.89	6558.18
455.07	6670.53
455.26	6733.72
455.44	6773.51
455.62	6628.40
455.81	6813.30
455.99	6871.81
456.17	6782.87
456.36	6930.33
456.54	6932.67
456.73	7089.48
456.91	7021.61
457.09	7026.29
457.28	7061.40
457.46	7030.97
457.64	7122.25
457.83	7152.68
458.01	7138.63
458.19	7295.45
458.38	7232.26
458.56	7201.83
458.74	7311.83
458.93	7396.09
459.11	7351.62
459.29	7148.00
459.48	7405.46
459.66	7316.51
459.84	7609.08
460.03	7524.82
460.21	7403.11
460.39	7342.26
460.57	7370.35
460.76	7428.86
460.94	7503.76
461.12	7632.49
461.31	7431.20
461.49	7660.57
461.67	7545.89
461.85	7658.23
462.04	7611.42
462.22	7943.78
462.40	8023.36
462.59	7719.09
462.77	7679.30
462.95	7817.39
463.13	7646.53
463.32	7744.83
463.50	7990.59
463.68	8049.10
463.86	7957.82
464.05	7791.64
464.23	8035.06
464.41	8156.77
464.59	7894.63
464.78	8154.43
464.96	8042.08
465.14	7969.52
465.32	8168.47
465.50	8269.11
465.69	8189.53
465.87	8156.77
466.05	8021.02
466.23	8294.86
466.41	8175.49
466.60	8283.16
466.78	8336.99
466.96	8259.75
467.14	8273.79
467.32	8624.87
467.51	8329.97
467.69	8549.98
467.87	8397.84
468.05	8535.93
468.23	8446.99
468.41	8365.07
468.60	8585.08
468.78	8727.86
468.96	8369.76
469.14	8669.34
469.32	8772.33
469.50	8491.46
469.69	8519.55
469.87	8872.97
470.05	8901.06
470.23	8865.95
470.41	8842.54
470.59	9011.06
470.77	9137.45
470.95	8865.95
471.14	9057.87
471.32	8814.46
471.50	9025.11
471.68	9074.26
471.86	9069.58
472.04	9172.56
472.22	9493.21
472.40	9132.77
472.58	9490.87
472.77	9430.02
472.95	9387.89
473.13	9760.03
473.31	9565.77
473.49	9617.26
473.67	9469.81
473.85	9605.56
474.03	9710.88
474.21	9635.99
474.39	9776.42
474.57	9921.53
474.75	10143.88
474.93	10246.87
475.12	10026.86
475.30	9942.60
475.48	10101.75
475.66	10214.10
475.84	10345.17
476.02	10457.51
476.20	10284.31
476.38	10665.82
476.56	10595.61
476.74	10672.84
476.92	10672.84
477.10	10630.71
477.28	10773.49
477.46	10829.66
477.64	10920.94
477.82	11000.52
478.00	11269.68
478.18	11201.80
478.36	11389.05
478.54	11639.48
478.72	11358.62
478.90	11698.00
479.08	11796.30
479.26	11761.19
479.44	11836.09
479.62	11896.94
479.80	11960.14
479.98	11964.82
480.16	12358.03
480.34	12278.45
480.52	12456.33
480.70	12386.12
480.88	12248.02
481.06	12795.71
481.24	12411.86
481.41	12552.29
481.59	12793.37
481.77	13034.44
481.95	13050.83
482.13	13114.02
482.31	12980.61
482.49	13305.95
482.67	13504.89
482.85	13633.62
483.03	13696.82
483.21	13614.90
483.39	13895.76
483.57	13879.38
483.74	13862.99
483.92	14132.15
484.10	14066.62
484.28	14490.26
484.46	14544.09
484.64	14677.50
484.82	14387.27
485.00	15131.56
485.18	15215.82
485.35	15384.34
485.53	15087.09
485.71	15435.83
485.89	15602.01
486.07	15482.64
486.25	15733.08
486.43	15836.06
486.61	15831.38
486.78	15665.21
486.96	15964.79
487.14	16421.20
487.32	16257.36
487.50	16514.82
487.68	16641.21
487.85	16776.96
488.03	16903.35
488.21	17296.56
488.39	17067.19
488.57	17273.15
488.75	17130.38
488.92	17575.08
489.10	17612.53
489.28	17628.92
489.46	18352.14
489.64	17935.53
489.81	18394.27
489.99	18097.02
490.17	18530.02
490.35	18766.42
490.53	18794.50
490.70	18906.85
490.88	18948.98
491.06	19023.87
491.24	19012.17
491.41	19087.07
491.59	19515.39
491.77	19463.90
491.95	19627.73
492.13	19594.96
492.30	19688.59
492.48	19838.38
492.66	19964.77
492.84	19807.95
493.01	20198.82
493.19	20386.07
493.37	20519.48
493.54	20755.87
493.72	20884.60
493.90	21252.06
494.08	20915.03
494.25	21156.10
494.43	21120.99
494.61	21146.74
494.79	21530.59
494.96	21369.09
495.14	21806.77
495.32	21769.32
495.49	22251.47
495.67	22129.77
495.85	22199.98
496.02	22228.07
496.20	22551.06
496.38	22396.59
496.55	22590.85
496.73	22845.97
496.91	22759.37
497.09	23344.50
497.26	22930.23
497.44	22960.66
497.62	23288.33
497.79	23501.32
497.97	23365.57
498.14	23828.99
498.32	23859.42
498.50	23807.93
498.67	23864.10
498.85	23985.81
499.03	24294.76
499.20	24252.63
499.38	24369.66
499.56	24259.65
499.73	24807.34
499.91	24741.80
500.08	25394.81
500.26	24957.13
500.44	24683.29
500.61	25160.76
500.79	25053.09
500.97	25212.25
501.14	25790.36
501.32	25727.17
501.49	25579.71
501.67	25694.40
501.84	25799.73
502.02	25944.84
502.20	25689.72
502.37	26111.02
502.55	26314.64
502.72	26047.82
502.90	25891.01
503.07	26139.10
503.25	26384.86
503.43	26204.64
503.60	26459.76
503.78	26567.42
503.95	26672.74
504.13	27138.51
504.30	26803.82
504.48	27019.14
504.65	27557.47
504.83	27016.80
505.01	27501.29
505.18	27274.26
505.36	27751.73
505.53	27552.79
505.71	27473.21
505.88	27728.33
506.06	27580.87
506.23	27749.39
506.41	27833.65
506.58	28180.05
506.76	28051.32
506.93	28016.21
507.11	28489.00
507.28	28100.47
507.46	28671.56
507.63	28404.74
507.81	28627.09
507.98	28348.57
508.16	28561.56
508.33	28608.37
508.50	28945.41
508.68	29029.66
508.85	29404.15
509.03	29209.89
509.20	29413.51
509.38	29530.54
509.55	29752.89
509.73	29584.37
509.90	29434.58
510.08	29640.54
510.25	29968.22
510.42	29846.51
510.60	29942.47
510.77	29989.28
510.95	30436.33
511.12	29855.87
511.30	30199.93
511.47	30459.73
511.64	30298.23
511.82	30441.01
511.99	30541.65
512.17	30646.97
512.34	30787.41
512.51	30883.37
512.69	31023.80
512.86	31098.70
513.04	31297.64
513.21	31215.72
513.38	31501.27
513.56	31168.91
513.73	31672.13
513.90	31236.79
514.08	31232.11
514.25	32055.98
514.43	31974.06
514.60	32165.98
514.77	32025.55
514.95	31960.02
515.12	31810.22
515.29	31957.67
515.47	32613.02
515.64	32444.51
515.81	32020.87
515.99	32219.81
516.16	32767.50
516.33	32772.18
516.51	32992.19
516.68	32503.02
516.85	32816.65
517.03	33160.71
517.20	32996.87
517.37	32814.31
517.54	33268.37
517.72	32947.72
517.89	33237.95
518.06	32978.15
518.24	33326.89
518.41	33446.26
518.58	33254.33
518.75	33287.10
518.93	33582.01
519.10	33352.63
519.27	33888.62
519.45	34024.37
519.62	34202.25
519.79	34127.35
519.96	34103.95
520.14	33975.22
520.31	33860.53
520.48	34323.96
520.65	34251.40
520.83	34567.37
521.00	34653.97
521.17	34448.00
521.34	34871.64
521.52	34642.27
521.69	34934.84
521.86	35089.31
522.03	35037.82
522.20	35292.94
522.38	35276.55
522.55	35674.45
522.72	35622.95
522.89	35208.68
523.07	36091.06
523.24	35416.99
523.41	35625.29
523.58	35522.31
523.75	35894.46
523.92	35468.48
524.10	36037.23
524.27	36025.53
524.44	36065.31
524.61	36004.46
524.78	36418.74
524.96	36299.37
525.13	36128.51
525.30	36418.74
525.47	36524.06
525.64	36180.00
525.81	36854.08
525.98	36910.25
526.16	36297.03
526.33	36503.00
526.50	36954.72
526.67	36570.87
526.84	37296.44
527.01	37401.76
527.18	37392.40
527.36	37060.04
527.53	37188.77
527.70	37780.93
527.87	37825.40
528.04	37261.33
528.21	37336.23
528.38	37551.56
528.55	37305.80
528.72	37226.22
528.89	37460.27
529.07	37439.21
529.24	37469.64
529.41	37855.82
529.58	38190.52
529.75	37787.95
529.92	37841.78
530.09	38295.85
530.26	38398.83
530.43	38101.58
530.60	37893.27
530.77	38045.41
530.94	38199.88
531.11	38160.09
531.28	38274.78
531.46	38478.41
531.63	38291.16
531.80	38288.82
531.97	38455.00
532.14	38663.31
532.31	38422.23
532.48	38525.22
532.65	38951.20
532.82	38562.67
532.99	38756.93
533.16	39199.29
533.33	39192.27
533.50	39089.29
533.67	38827.15
533.84	38836.51
534.01	39428.66
534.18	38946.51
534.35	39365.47
534.52	39398.24
534.69	39990.39
534.86	39784.43
535.03	39789.11
535.20	39459.09
535.37	39971.67
535.54	39974.01
535.71	39852.30
535.88	40526.38
536.05	39545.69
536.22	40706.60
536.38	40079.33
536.55	39922.52
536.72	40048.91
536.89	40095.72
537.06	39880.39
537.23	40163.59
537.40	40156.57
537.57	40367.22
537.74	40055.93
537.91	40528.72
538.08	40598.93
538.25	40278.28
538.42	40847.03
538.59	40669.15
538.75	40566.16
538.92	41010.87
539.09	41097.47
539.26	40460.84
539.43	40690.21
539.60	41329.18
539.77	41109.17
539.94	41415.78
540.11	41287.05
540.28	41354.93
540.44	41261.30
540.61	41038.95
540.78	40879.80
540.95	41610.04
541.12	41027.25
541.29	41219.17
541.46	41254.28
541.62	41794.95
541.79	42017.30
541.96	41427.48
542.13	41673.24
542.30	41312.80
542.47	41659.20
542.63	41668.56
542.80	42057.09
542.97	42234.97
543.14	42501.79
543.31	42403.49
543.48	41839.42
543.64	42548.60
543.81	42494.77
543.98	42827.12
544.15	42546.26
544.32	42518.17
544.48	42801.38
544.65	42890.32
544.82	42284.12
544.99	42784.99
545.16	43442.68
545.32	42799.04
545.49	43000.32
545.66	43398.21
545.83	42752.23
546.00	42944.15
546.16	42843.51
546.33	42518.17
546.50	42700.73
546.67	43309.27
546.83	42873.93
547.00	43271.82
547.17	42660.94
547.34	43093.94
547.50	43456.73
547.67	43388.85
547.84	43564.39
548.00	43400.55
548.17	43756.32
548.34	43496.52
548.51	43702.48
548.67	43636.95
548.84	43510.56
549.01	43548.01
549.18	43817.17
549.34	44037.18
549.51	44121.44
549.68	43915.47
549.84	43615.88
550.01	44027.82
550.18	43693.12
550.34	43772.70
550.51	44128.46
550.68	43948.24
550.84	43810.15
551.01	44079.31
551.18	44285.28
551.34	43938.88
551.51	44542.74
551.68	44046.54
551.84	44472.52
552.01	43889.73
552.18	44425.71
552.34	44374.22
552.51	44027.82
552.68	44399.96
552.84	44369.54
553.01	44231.44
553.18	44425.71
553.34	45104.46
553.51	44430.39
553.67	44491.24
553.84	44732.32
554.01	44823.60
554.17	44858.71
554.34	44917.22
554.51	44872.75
554.67	45057.65
554.84	44980.42
555.00	44603.59
555.17	45315.11
555.33	44935.95
555.50	44886.79
555.67	45258.94
555.83	45361.92
556.00	45191.06
556.16	45778.54
556.33	45413.41
556.50	45343.20
556.66	45530.44
556.83	45092.76
556.99	44996.80
557.16	45652.15
557.32	45984.51
557.49	45661.51
557.65	45333.84
557.82	45736.41
557.98	45268.30
558.15	45092.76
558.32	46101.53
558.48	45574.91
558.65	45631.08
558.81	45694.28
558.98	45230.85
559.14	45727.05
559.31	45514.06
559.47	45844.07
559.64	45471.93
559.80	45975.14
559.97	45916.63
560.13	45897.91
560.30	45909.61
560.46	46295.80
560.63	46120.26
560.79	45963.44
560.96	45930.67
561.12	45610.02
561.29	46092.17
561.45	45949.40
561.61	45989.19
561.78	46115.58
561.94	46068.76
562.11	45771.52
562.27	46298.14
562.44	46120.26
562.60	46333.24
562.77	46347.29
562.93	45993.87
563.10	46349.63
563.26	46298.14
563.42	46787.31
563.59	46127.28
563.75	46473.68
563.92	46471.34
564.08	46110.89
564.24	46539.21
564.41	46422.19
564.57	46213.88
564.74	46117.92
564.90	46415.16
565.07	46457.29
565.23	46344.95
565.39	46314.52
565.56	46817.74
565.72	46363.67
565.88	46618.79
566.05	46588.36
566.21	46632.83
566.38	46635.17
566.54	46155.36
566.70	46581.34
566.87	46511.13
567.03	46658.58
567.19	46754.54
567.36	46834.12
567.52	46351.97
567.68	46944.12
567.85	46953.49
568.01	46976.89
568.17	46981.57
568.34	46461.97
568.50	46747.52
568.66	46618.79
568.83	46796.67
568.99	46902.00
569.15	46637.51
569.32	46965.19
569.48	46756.88
569.64	47353.72
569.81	46756.88
569.97	47337.33
570.13	47201.58
570.30	46955.83
570.46	46789.65
570.62	46953.49
570.78	46913.70
570.95	46630.49
571.11	46834.12
571.27	46806.03
571.43	46983.91
571.60	46960.51
571.76	46892.63
571.92	46909.02
572.09	46909.02
572.25	47466.06
572.41	46801.35
572.57	46946.47
572.74	47756.29
572.90	46913.70
573.06	47208.61
573.22	47421.59
573.38	47295.21
573.55	47442.66
573.71	47379.46
573.87	47061.15
574.03	47136.05
574.20	47709.48
574.36	47386.49
574.52	47435.64
574.68	47297.55
574.84	47320.95
575.01	47433.30
575.17	47533.94
575.33	47641.60
575.49	47210.95
575.65	47405.21
575.82	47402.87
575.98	46990.94
576.14	47791.40
576.30	47894.38
576.46	47524.58
576.62	47344.36
576.79	47526.92
576.95	47562.03
577.11	47019.02
577.27	47657.99
577.43	47412.23
577.59	47337.33
577.75	47559.69
577.92	47260.10
578.08	47599.47
578.24	47636.92
578.40	47585.43
578.56	47707.14
578.72	47372.44
578.88	47723.52
579.04	47323.29
579.21	47557.35
579.37	47449.68
579.53	47821.83
579.69	47063.49
579.85	47519.90
580.01	47454.36
580.17	47489.47
580.33	47224.99
580.49	47494.15
580.65	47817.14
580.82	47402.87
580.98	47276.48
581.14	47463.72
581.30	47873.32
581.46	47185.20
581.62	47459.04
581.78	47246.05
581.94	47566.71
582.10	47299.89
582.26	47466.06
582.42	47742.25
582.58	47676.71
582.74	47622.88
582.90	47796.08
583.06	47679.05
583.22	47721.18
583.38	47657.99
583.54	47875.66
583.70	47709.48
583.86	48020.77
584.02	48048.86
584.18	48032.47
584.34	47749.27
584.50	48048.86
584.66	47765.65
584.82	47332.65
584.98	47714.16
585.14	48224.40
585.30	47721.18
585.46	48114.39
585.62	47892.04
585.78	47892.04
585.94	47639.26
586.10	47531.60
586.26	47566.71
586.42	47210.95
586.58	47973.96
586.74	48025.45
586.90	47854.59
587.06	47751.61
587.22	48175.25
587.38	47950.56
587.54	48170.57
587.70	48144.82
587.86	48303.98
588.02	47976.30
588.18	47950.56
588.34	47948.21
588.49	48081.63
588.65	47590.11
588.81	47976.30
588.97	48119.07
589.13	47725.86
589.29	47929.49
589.45	48189.29
589.61	47714.16
589.77	48128.44
589.93	48088.65
590.08	48025.45
