SpectraSuite Data File
++++++++++++++++++++++++++++++++++++
Date: Fri Oct 25 11:26:00 EDT 2013
User: price-jones
Dark Spectrum Present: No
Reference Spectrum Present: No
Number of Sampled Component Spectra: 1
Spectrometers: USB2+H05261
Integration Time (usec): 100000 (USB2+H05261)
Spectra Averaged: 1 (USB2+H05261)
Boxcar Smoothing: 0 (USB2+H05261)
Correct for Electrical Dark: No (USB2+H05261)
Strobe/Lamp Enabled: No (USB2+H05261)
Correct for Detector Non-linearity: No (USB2+H05261)
Correct for Stray Light: No (USB2+H05261)
Number of Pixels in Processed Spectrum: 2048
>>>>>Begin Processed Spectral Data<<<<<
365.73	154.48
365.92	154.48
366.12	154.48
366.32	182.56
366.52	196.60
366.72	177.88
366.91	95.96
367.11	241.08
367.31	156.82
367.51	114.69
367.70	142.77
367.90	105.32
368.10	201.29
368.30	191.92
368.49	100.64
368.69	159.16
368.89	79.58
369.09	170.86
369.28	203.63
369.48	182.56
369.68	203.63
369.87	168.52
370.07	217.67
370.27	250.44
370.47	285.55
370.66	517.26
370.86	592.16
371.06	741.95
371.25	704.50
371.45	620.24
371.65	662.37
371.84	706.84
372.04	739.61
372.24	739.61
372.44	706.84
372.63	711.52
372.83	734.93
373.03	692.80
373.22	809.83
373.42	786.42
373.62	826.21
373.81	727.91
374.01	821.53
374.21	802.80
374.40	826.21
374.60	765.36
374.79	784.08
374.99	896.43
375.19	835.57
375.38	847.27
375.58	854.30
375.78	805.14
375.97	847.27
376.17	940.90
376.37	966.64
376.56	915.15
376.76	847.27
376.95	875.36
377.15	877.70
377.35	947.92
377.54	947.92
377.74	985.37
377.93	903.45
378.13	873.02
378.33	952.60
378.52	954.94
378.72	954.94
378.91	896.43
379.11	940.90
379.31	959.62
379.50	957.28
379.70	968.98
379.89	950.26
380.09	898.77
380.28	978.34
380.48	1041.54
380.68	1001.75
380.87	947.92
381.07	1011.11
381.26	1069.62
381.46	968.98
381.65	950.26
381.85	1032.18
382.04	987.71
382.24	961.96
382.43	1078.99
382.63	1153.88
382.83	1137.50
383.02	1100.05
383.22	1228.78
383.41	1107.07
383.61	1071.97
383.80	1118.78
384.00	1046.22
384.19	1224.10
384.39	1137.50
384.58	1050.90
384.78	1123.46
384.97	1179.63
385.17	1153.88
385.36	1221.76
385.56	1172.61
385.75	1102.39
385.95	1177.29
386.14	1212.40
386.34	1100.05
386.53	1240.48
386.72	1256.87
386.92	1249.85
387.11	1191.33
387.31	1280.27
387.50	1238.14
387.70	1231.12
387.89	1210.06
388.09	1268.57
388.28	1273.25
388.48	1350.49
388.67	1357.51
388.86	1350.49
389.06	1343.47
389.25	1324.74
389.45	1348.15
389.64	1380.92
389.84	1383.26
390.03	1439.43
390.22	1446.45
390.42	1380.92
390.61	1467.52
390.81	1397.30
391.00	1448.79
391.19	1495.60
391.39	1444.11
391.58	1516.67
391.78	1409.00
391.97	1511.99
392.16	1416.02
392.36	1544.75
392.55	1481.56
392.75	1519.01
392.94	1561.14
393.13	1568.16
393.33	1519.01
393.52	1568.16
393.71	1610.29
393.91	1734.34
394.10	1619.65
394.29	1591.56
394.49	1661.78
394.68	1661.78
394.88	1710.93
395.07	1619.65
395.26	1710.93
395.46	1673.48
395.65	1614.97
395.84	1661.78
396.04	1863.07
396.23	1739.02
396.42	1664.12
396.62	1741.36
396.81	1809.23
397.00	1748.38
397.19	1895.83
397.39	1764.76
397.58	1809.23
397.77	1900.52
397.97	1823.28
398.16	1926.26
398.35	1863.07
398.55	1898.17
398.74	1874.77
398.93	1942.64
399.12	1933.28
399.32	1949.67
399.51	2052.65
399.70	2038.61
399.90	1933.28
400.09	1921.58
400.28	1998.82
400.47	2005.84
400.67	2003.50
400.86	2043.29
401.05	2001.16
401.24	2127.55
401.44	2101.80
401.63	2176.70
401.82	2176.70
402.01	2157.97
402.21	2169.68
402.40	2179.04
402.59	2157.97
402.78	2207.13
402.97	2253.94
403.17	2270.32
403.36	2251.60
403.55	2251.60
403.74	2401.39
403.93	2251.60
404.13	2242.23
404.32	2289.04
404.51	2455.22
404.70	2525.44
404.89	2511.39
405.09	2513.74
405.28	2396.71
405.47	2497.35
405.66	2490.33
405.85	2513.74
406.05	2457.56
406.24	2567.57
406.43	2607.36
406.62	2609.70
406.81	2527.78
407.00	2612.04
407.20	2583.95
407.39	2457.56
407.58	2747.79
407.77	2717.36
407.96	2736.09
408.15	2750.13
408.34	2738.43
408.54	2792.26
408.73	2703.32
408.92	2843.75
409.11	2829.71
409.30	2911.63
409.49	2860.13
409.68	2857.79
409.87	2949.08
410.07	2979.50
410.26	3014.61
410.45	3061.42
410.64	3038.02
410.83	3080.14
411.02	2998.23
411.21	3136.32
411.40	3141.00
411.59	3152.70
411.78	3105.89
411.98	3192.49
412.17	3316.54
412.36	3297.81
412.55	3382.07
412.74	3412.50
412.93	3194.83
413.12	3302.50
413.31	3506.12
413.50	3499.10
413.69	3555.27
413.88	3707.41
414.07	3529.53
414.26	3660.60
414.45	3609.11
414.64	3688.68
414.83	3733.15
415.02	3620.81
415.22	3784.65
415.41	3822.09
415.60	3838.48
415.79	3815.07
415.98	3960.19
416.17	3845.50
416.36	3882.95
416.55	3929.76
416.74	4032.74
416.93	4138.07
417.12	4018.70
417.31	4212.96
417.50	4355.74
417.69	4299.56
417.88	4322.97
418.07	4203.60
418.26	4308.93
418.45	4313.61
418.64	4564.04
418.83	4376.80
419.02	4440.00
419.21	4545.32
419.39	4468.08
419.58	4564.04
419.77	4444.68
419.96	4634.26
420.15	4638.94
420.34	4510.21
420.53	4662.35
420.72	4660.01
420.91	4753.63
421.10	4697.46
421.29	4685.75
421.48	4730.22
421.67	4751.29
421.86	4716.18
422.05	4725.54
422.24	4741.93
422.43	4947.89
422.61	5046.20
422.80	4985.34
422.99	5027.47
423.18	5088.32
423.37	4980.66
423.56	4912.78
423.75	5006.41
423.94	4837.89
424.13	4678.73
424.32	4856.61
424.50	5034.49
424.69	5128.11
424.88	5022.79
425.07	4964.28
425.26	4865.97
425.45	5041.51
425.64	4994.70
425.83	5228.76
426.01	5242.80
426.20	5114.07
426.39	4959.60
426.58	5144.50
426.77	5032.15
426.96	5210.03
427.15	5191.31
427.33	5226.42
427.52	5233.44
427.71	5203.01
427.90	5261.52
428.09	5441.75
428.28	5362.17
428.46	5472.17
428.65	5247.48
428.84	5591.54
429.03	5455.79
429.22	5238.12
429.40	5362.17
429.59	5451.11
429.78	5329.40
429.97	5390.25
430.16	5556.43
430.34	5593.88
430.53	5860.70
430.72	5769.42
430.91	5734.31
431.10	5696.86
431.28	5851.34
431.47	5823.25
431.66	5802.19
431.85	5753.04
432.03	5977.73
432.22	5926.24
432.41	5944.96
432.60	5951.98
432.79	5916.87
432.97	5959.00
433.16	5933.26
433.35	5940.28
433.54	6228.17
433.72	6111.14
433.91	6162.63
434.10	6111.14
434.28	6157.95
434.47	6291.36
434.66	6223.48
434.85	6335.83
435.03	6399.02
435.22	6195.40
435.41	6373.28
435.59	6326.47
435.78	6340.51
435.97	6455.20
436.16	6434.13
436.34	6574.56
436.53	6326.47
436.72	6579.25
436.90	6420.09
437.09	6649.46
437.28	6246.89
437.46	6623.72
437.65	6665.85
437.84	6663.51
438.02	6806.28
438.21	6569.88
438.40	6612.01
438.58	7061.40
438.77	7157.36
438.96	7016.93
439.14	7101.19
439.33	7272.04
439.52	7178.42
439.70	7178.42
439.89	7442.90
440.08	7368.01
440.26	7262.68
440.45	7276.73
440.63	7588.02
440.82	7669.94
441.01	7489.71
441.19	7611.42
441.38	7662.91
441.57	7728.45
441.75	7702.70
441.94	7978.89
442.12	8114.64
442.31	8126.34
442.50	8072.51
442.68	8095.91
442.87	7957.82
443.05	8028.04
443.24	8416.57
443.43	8198.90
443.61	8205.92
443.80	8325.29
443.98	8035.06
444.17	7857.18
444.35	8107.62
444.54	8369.76
444.73	8311.24
444.91	8297.20
445.10	8355.71
445.28	8278.47
445.47	8486.78
445.65	8374.44
445.84	8489.12
446.02	8376.78
446.21	8404.86
446.39	8461.04
446.58	8477.42
446.77	8423.59
446.95	8255.07
447.14	8517.21
447.32	8470.40
447.51	8606.15
447.69	8411.89
447.88	8383.80
448.06	8524.23
448.25	8641.26
448.43	8617.85
448.62	8613.17
448.80	8594.45
448.99	8500.83
449.17	8650.62
449.36	8657.64
449.54	8760.63
449.73	8833.18
449.91	8805.10
450.10	8954.89
450.28	9312.99
450.46	9170.22
450.65	9069.58
450.83	8847.22
451.02	8971.27
451.20	9217.03
451.39	9350.44
451.57	9163.20
451.76	9158.52
451.94	9238.09
452.13	9329.38
452.31	9327.03
452.49	9301.29
452.68	9406.61
452.86	9275.54
453.05	9486.19
453.23	9561.09
453.42	9476.83
453.60	9284.91
453.78	9493.21
453.97	9383.21
454.15	9411.29
454.34	9434.70
454.52	9654.71
454.70	9753.01
454.89	9708.54
455.07	9645.35
455.26	10087.71
455.44	10181.33
455.62	9865.36
455.81	9706.20
455.99	9902.81
456.17	10216.44
456.36	10008.13
456.54	10125.16
456.73	10249.21
456.91	10363.89
457.09	10253.89
457.28	10700.93
457.46	10394.32
457.64	10675.18
457.83	10427.09
458.01	10394.32
458.19	10899.87
458.38	10501.98
458.56	10665.82
458.74	10857.75
458.93	10932.64
459.11	10705.61
459.29	10874.13
459.48	10752.42
459.66	10846.04
459.84	10808.59
460.03	11281.38
460.21	10839.02
460.39	11047.33
460.57	11052.01
460.76	10939.66
460.94	11262.66
461.12	11126.91
461.31	11033.29
461.49	11239.25
461.67	11232.23
461.85	11580.97
462.04	11520.12
462.22	11613.74
462.40	11623.10
462.59	11452.24
462.77	11328.19
462.95	11709.70
463.13	11513.10
463.32	11510.75
463.50	11602.04
463.68	11925.03
463.86	12009.29
464.05	11777.58
464.23	11777.58
464.41	11861.84
464.59	11613.74
464.78	11936.73
464.96	12070.14
465.14	11737.79
465.32	11971.84
465.50	12154.40
465.69	11946.09
465.87	12147.38
466.05	12077.16
466.23	12105.25
466.41	12163.76
466.60	12451.65
466.78	12390.80
466.96	12226.96
467.14	12250.36
467.32	12652.94
467.51	12582.72
467.69	12156.74
467.87	12432.93
468.05	12519.53
468.23	12498.46
468.41	12325.26
468.60	12533.57
468.78	12727.83
468.96	12568.68
469.14	12821.45
469.32	12950.18
469.50	12411.86
469.69	13137.43
469.87	12882.31
470.05	13125.72
470.23	13074.23
470.41	13242.75
470.59	13135.09
470.77	12879.97
470.95	13048.49
471.14	13532.98
471.32	13235.73
471.50	13525.96
471.68	13451.06
471.86	13902.78
472.04	13678.09
472.22	14061.94
472.40	13635.96
472.58	13788.10
472.77	13762.35
472.95	14146.20
473.13	14520.68
473.31	13884.06
473.49	14026.83
473.67	14181.31
473.85	14132.15
474.03	14478.55
474.21	14560.47
474.39	14855.38
474.57	14883.47
474.75	14885.81
474.93	14834.32
475.12	15080.07
475.30	15456.90
475.48	15157.31
475.66	15225.18
475.84	15201.78
476.02	15379.66
476.20	15412.43
476.38	15253.27
476.56	16170.76
476.74	16100.55
476.92	15686.27
477.10	15934.37
477.28	16079.48
477.46	16198.85
477.64	16390.77
477.82	16629.51
478.00	16730.15
478.18	16578.01
478.36	16982.93
478.54	17156.13
478.72	17177.19
478.90	17521.25
479.08	17607.85
479.26	17678.07
479.44	17790.41
479.62	17549.34
479.80	17848.93
479.98	18300.65
480.16	18347.46
480.34	18134.47
480.52	18464.49
480.70	18745.35
480.88	18293.63
481.06	18663.43
481.24	18906.85
481.41	18803.86
481.59	19520.07
481.77	19311.76
481.95	19601.99
482.13	19927.32
482.31	19704.97
482.49	20147.33
482.67	20053.71
482.85	20517.14
483.03	20704.38
483.21	20823.75
483.39	21006.31
483.57	20854.17
483.74	21078.86
483.92	21598.46
484.10	21081.21
484.28	21696.77
484.46	22068.91
484.64	22464.46
484.82	21745.92
485.00	22099.34
485.18	22707.88
485.35	23009.81
485.53	22883.42
485.71	22953.63
485.89	23328.12
486.07	23239.18
486.25	23468.55
486.43	23445.15
486.61	23726.01
486.78	24037.30
486.96	24243.27
487.14	24655.20
487.32	24884.58
487.50	24741.80
487.68	24987.56
487.85	25207.57
488.03	25476.73
488.21	25813.77
488.39	25778.66
488.57	25921.43
488.75	26120.38
488.92	26253.79
489.10	26831.90
489.28	26677.43
489.46	27351.50
489.64	27304.69
489.81	27498.95
489.99	27505.98
490.17	27718.96
490.35	28189.41
490.53	28292.40
490.70	28320.48
490.88	28219.84
491.06	28982.85
491.24	28999.24
491.41	29303.51
491.59	29394.79
491.77	29261.38
491.95	29472.03
492.13	29996.31
492.30	30015.03
492.48	29844.17
492.66	29802.04
492.84	30349.73
493.01	30883.37
493.19	30682.08
493.37	30848.26
493.54	30766.34
493.72	31660.43
493.90	31241.47
494.08	31405.31
494.25	32020.87
494.43	32378.97
494.61	32004.49
494.79	32996.87
494.96	32538.13
495.14	32741.75
495.32	33167.73
495.49	33408.81
495.67	33411.15
495.85	33310.50
496.02	33713.08
496.20	34225.65
496.38	34155.44
496.55	34136.71
496.73	34857.60
496.91	34642.27
497.09	34792.06
497.26	34710.14
497.44	35213.36
497.62	35297.62
497.79	36009.14
497.97	35550.40
498.14	35833.60
498.32	36201.07
498.50	36187.02
498.67	36367.24
498.85	36311.07
499.03	36821.31
499.20	36589.59
499.38	36584.91
499.56	36818.97
499.73	37455.59
499.91	37570.28
500.08	37572.62
500.26	37357.29
500.44	37762.20
500.61	37776.25
500.79	37975.19
500.97	37787.95
501.14	38375.42
501.32	38223.29
501.49	38714.80
501.67	38824.81
501.84	38602.46
502.02	38909.07
502.20	39229.72
502.37	39489.52
502.55	38972.26
502.72	39608.89
502.90	39367.81
503.07	39821.87
503.25	39899.11
503.43	39908.47
503.60	40233.81
503.78	39831.24
503.95	40612.98
504.13	40114.44
504.30	40788.52
504.48	40900.86
504.65	40627.02
504.83	40954.69
505.01	41322.16
505.18	41392.37
505.36	41483.66
505.53	40917.25
505.71	41778.56
505.88	42078.15
506.06	41584.30
506.23	42377.74
506.41	41593.66
506.58	41766.86
506.76	42073.47
506.93	42639.88
507.11	42314.55
507.28	42637.54
507.46	42686.69
507.63	43063.52
507.81	43384.17
507.98	42880.95
508.16	43107.99
508.33	43536.30
508.50	43409.92
508.68	43812.49
508.85	44133.14
509.03	43697.80
509.20	44027.82
509.38	44524.01
509.55	44402.30
509.73	44615.29
509.90	44734.66
510.08	44533.37
510.25	44414.01
510.42	44811.90
510.60	45031.91
510.77	45078.72
510.95	45530.44
511.12	45062.33
511.30	45074.04
511.47	45228.51
511.64	45841.73
511.82	45815.99
511.99	45500.01
512.17	45584.27
512.34	45921.31
512.51	46398.78
512.69	46607.09
512.86	46256.01
513.04	46689.01
513.21	46768.58
513.38	46719.43
513.56	46916.04
513.73	46738.16
513.90	46808.37
514.08	46948.81
514.25	47416.91
514.43	47601.82
514.60	47454.36
514.77	47484.79
514.95	47812.46
515.12	47405.21
515.29	47604.16
515.47	47866.30
515.64	48374.19
515.81	47739.91
515.99	48090.99
516.16	48519.31
516.33	48112.05
516.51	48467.81
516.68	48542.71
516.85	48474.84
517.03	49003.80
517.20	48645.69
517.37	48767.40
517.54	48968.69
517.72	49088.06
517.89	48966.35
518.06	49237.85
518.24	49275.30
518.41	48877.41
518.58	49422.75
518.75	48896.13
518.93	49708.30
519.10	49736.38
519.27	49635.74
519.45	49642.76
519.62	49900.22
519.79	49916.61
519.96	50007.89
520.14	50127.25
520.31	50110.87
520.48	50586.00
520.65	50351.94
520.83	50688.98
521.00	50829.41
521.17	50356.63
521.34	50583.66
521.52	50707.71
521.69	50775.58
521.86	51131.34
522.03	51222.62
522.20	51224.96
522.38	51482.42
522.55	51199.22
522.72	51571.36
522.89	51208.58
523.07	51554.98
523.24	51421.57
523.41	51459.02
523.58	51522.21
523.75	51704.77
523.92	51702.43
524.10	51779.67
524.27	52222.03
524.44	52051.17
524.61	52175.22
524.78	51899.04
524.96	52207.99
525.13	52032.45
525.30	52491.19
525.47	52753.33
525.64	52516.94
525.81	52329.70
525.98	52732.27
526.16	52818.87
526.33	52528.64
526.50	52907.81
526.67	52804.83
526.84	52797.80
527.01	52914.83
527.18	53176.97
527.36	52769.72
527.53	53085.69
527.70	53338.47
527.87	53223.78
528.04	53254.21
528.21	53460.18
528.38	53251.87
528.55	53371.24
528.72	53305.70
528.89	53471.88
529.07	53200.38
529.24	53460.18
529.41	53759.76
529.58	53745.72
529.75	53656.78
529.92	53614.65
530.09	53918.92
530.26	53822.96
530.43	54148.29
530.60	53855.73
530.77	53822.96
530.94	54241.92
531.11	53766.79
531.28	53907.22
531.46	54232.55
531.63	54244.26
531.80	54138.93
531.97	54237.23
532.14	54588.31
532.31	54380.01
532.48	54604.70
532.65	54813.01
532.82	54248.94
532.99	54710.02
533.16	54401.07
533.33	54560.23
533.50	54878.54
533.67	54801.30
533.84	54892.58
534.01	54944.08
534.18	54824.71
534.35	55323.24
534.52	55079.83
534.69	55133.66
534.86	55281.11
535.03	54955.78
535.20	55154.72
535.37	55299.84
535.54	55309.20
535.71	55290.48
535.88	55320.90
536.05	55407.50
536.22	55807.73
536.38	55674.32
536.55	55735.18
536.72	55522.19
536.89	55358.35
537.06	55606.45
537.23	55845.18
537.40	55643.90
537.57	55611.13
537.74	55564.32
537.91	55800.71
538.08	55707.09
538.25	55901.36
538.42	56060.51
538.59	56109.66
538.75	55962.21
538.92	56137.75
539.09	56137.75
539.26	56072.21
539.43	56027.74
539.60	56406.91
539.77	56350.74
539.94	56540.32
540.11	56343.72
540.28	56261.80
540.44	56376.48
540.61	56332.01
540.78	56179.88
540.95	56491.17
541.12	56399.89
541.29	56685.43
541.46	56378.82
541.62	56662.03
541.79	56657.35
541.96	56507.55
542.13	56542.66
542.30	56575.43
542.47	56779.06
542.63	56839.91
542.80	57043.54
542.97	57195.67
543.14	57202.69
543.31	57240.14
543.48	57036.51
543.64	57396.96
543.81	57261.21
543.98	57233.12
544.15	57340.78
544.32	57469.51
544.48	57579.52
544.65	57296.31
544.82	57387.60
544.99	57223.76
545.16	57485.90
545.32	57448.45
545.49	57904.85
545.66	57750.38
545.83	57502.28
546.00	57883.79
546.16	57598.24
546.33	57446.11
546.50	57446.11
546.67	57752.72
546.83	57291.63
547.00	57656.76
547.17	57748.04
547.34	57855.70
547.50	57944.64
547.67	57865.06
547.84	57986.77
548.00	58155.29
548.17	58326.15
548.34	58054.65
548.51	58178.70
548.67	58377.64
548.84	57935.28
549.01	57937.62
549.18	58092.10
549.34	58277.00
549.51	58138.91
549.68	58520.41
549.84	58482.97
550.01	58298.06
550.18	58258.27
550.34	58347.21
550.51	58422.11
550.68	58501.69
550.84	58206.78
551.01	58305.09
551.18	58583.61
551.34	58478.28
551.51	58614.04
551.68	58450.20
551.84	58609.35
552.01	58569.57
552.18	58480.63
552.34	58475.94
552.51	58698.30
552.68	58628.08
552.84	58798.94
553.01	58953.41
553.18	58710.00
553.34	58873.84
553.51	58632.76
553.67	58859.79
553.84	58995.54
554.01	59098.53
554.17	58885.54
554.34	59037.67
554.51	58873.84
554.67	58990.86
554.84	59044.69
555.00	58866.81
555.17	58981.50
555.33	59051.72
555.50	59002.56
555.67	58834.05
555.83	58913.62
556.00	58976.82
556.16	59339.60
556.33	59281.09
556.50	59304.49
556.66	59327.90
556.83	59222.58
556.99	59178.10
557.16	59639.19
557.32	59456.63
557.49	59489.40
557.65	59128.95
557.82	59475.35
557.98	59351.30
558.15	59550.25
558.32	59421.52
558.48	59395.77
558.65	59381.73
558.81	59260.02
558.98	59496.42
559.14	59515.14
559.31	59599.40
559.47	59774.94
559.64	59735.15
559.80	59791.33
559.97	59592.38
560.13	59819.41
560.30	59760.90
560.46	59770.26
560.63	59770.26
560.79	59657.91
560.96	60104.96
561.12	59800.69
561.29	59709.41
561.45	59723.45
561.61	59920.05
561.78	60030.06
561.94	59716.43
562.11	60107.30
562.27	59845.16
562.44	59957.50
562.60	59847.50
562.77	59931.76
562.93	59779.62
563.10	60137.72
563.26	59620.47
563.42	60198.58
563.59	60018.36
563.75	59704.73
563.92	60023.04
564.08	59990.27
564.24	60032.40
564.41	60135.38
564.57	60259.43
564.74	60247.73
564.90	59990.27
565.07	59999.63
565.23	60116.66
565.39	60095.60
565.56	60322.63
565.72	60149.43
565.88	60205.60
566.05	60158.79
566.21	60067.51
566.38	60233.69
566.54	60221.98
566.70	60556.68
566.87	60601.15
567.03	60207.94
567.19	60460.72
567.36	60217.30
567.52	60406.89
567.68	60601.15
567.85	60423.27
568.01	60514.55
568.17	60095.60
568.34	60367.10
568.50	60381.14
568.66	60210.28
568.83	60472.42
568.99	60254.75
569.15	60210.28
569.32	60598.81
569.48	60481.78
569.64	60540.30
569.81	60254.75
569.97	60364.76
570.13	60341.35
570.30	60526.25
570.46	60554.34
570.62	60596.47
570.78	60430.29
570.95	60505.19
571.11	60512.21
571.27	60437.31
571.43	60458.38
571.60	60598.81
571.76	60580.09
571.92	60624.56
572.09	60570.72
572.25	60568.38
572.41	60493.49
572.57	60734.56
572.74	60619.88
572.90	60512.21
573.06	60573.06
573.22	60800.10
573.38	60582.43
573.55	60470.08
573.71	60809.46
573.87	60575.40
574.03	60687.75
574.20	60704.13
574.36	60584.77
574.52	60706.47
574.68	60851.59
574.84	60753.29
575.01	60608.17
575.17	60711.16
575.33	60577.75
575.49	60542.64
575.65	60772.01
575.82	60844.57
575.98	60772.01
576.14	61137.13
576.30	60905.42
576.46	60933.51
576.62	60900.74
576.79	60729.88
576.95	60739.24
577.11	60748.60
577.27	60949.89
577.43	60977.98
577.59	60865.63
577.75	60676.05
577.92	60514.55
578.08	60863.29
578.24	60870.31
578.40	60980.32
578.56	60942.87
578.72	60992.02
578.88	60945.21
579.04	61078.62
579.21	60987.34
579.37	61059.90
579.53	60903.08
579.69	60563.70
579.85	60615.19
580.01	60842.23
580.17	60807.12
580.33	61048.19
580.49	60996.70
580.65	60999.04
580.82	60942.87
580.98	60802.44
581.14	60954.57
581.30	60975.64
581.46	60938.19
581.62	60865.63
581.78	60863.29
581.94	60942.87
582.10	60769.67
582.26	60973.30
582.42	60945.21
582.58	60846.91
582.74	60774.35
582.90	60947.55
583.06	60914.78
583.22	60636.26
583.38	60945.21
583.54	60966.27
583.70	60989.68
583.86	60917.12
584.02	60882.02
584.18	61034.15
584.34	60968.61
584.50	61034.15
584.66	60851.59
584.82	60879.67
584.98	61050.53
585.14	61244.80
585.30	61048.19
585.46	60973.30
585.62	60837.54
585.78	61277.57
585.94	60928.83
586.10	60940.53
586.26	61130.11
586.42	61059.90
586.58	61148.84
586.74	61041.17
586.90	61087.98
587.06	60968.61
587.22	61277.57
587.38	60870.31
587.54	61176.92
587.70	61331.40
587.86	61144.16
588.02	60931.17
588.18	61251.82
588.34	60807.12
588.49	61048.19
