SpectraSuite Data File
++++++++++++++++++++++++++++++++++++
Date: Fri Oct 25 11:26:26 EDT 2013
User: price-jones
Dark Spectrum Present: No
Reference Spectrum Present: No
Number of Sampled Component Spectra: 1
Spectrometers: USB2+H05261
Integration Time (usec): 100000 (USB2+H05261)
Spectra Averaged: 1 (USB2+H05261)
Boxcar Smoothing: 0 (USB2+H05261)
Correct for Electrical Dark: No (USB2+H05261)
Strobe/Lamp Enabled: No (USB2+H05261)
Correct for Detector Non-linearity: No (USB2+H05261)
Correct for Stray Light: No (USB2+H05261)
Number of Pixels in Processed Spectrum: 2048
>>>>>Begin Processed Spectral Data<<<<<
365.73	252.78
365.92	252.78
366.12	252.78
366.32	212.99
366.52	173.20
366.72	163.84
366.91	95.96
367.11	102.98
367.31	131.07
367.51	163.84
367.70	161.50
367.90	198.95
368.10	187.24
368.30	112.35
368.49	91.28
368.69	163.84
368.89	210.65
369.09	107.66
369.28	180.22
369.48	205.97
369.68	177.88
369.87	163.84
370.07	194.26
370.27	210.65
370.47	362.78
370.66	573.43
370.86	594.50
371.06	650.67
371.25	795.78
371.45	622.58
371.65	720.88
371.84	641.31
372.04	657.69
372.24	699.82
372.44	760.67
372.63	763.01
372.83	788.76
373.03	821.53
373.22	706.84
373.42	760.67
373.62	713.86
373.81	760.67
374.01	833.23
374.21	854.30
374.40	826.21
374.60	772.38
374.79	875.36
374.99	791.10
375.19	858.98
375.38	861.32
375.58	819.19
375.78	849.61
375.97	866.00
376.17	961.96
376.37	1025.15
376.56	947.92
376.76	882.38
376.95	830.89
377.15	945.58
377.35	856.64
377.54	915.15
377.74	933.87
377.93	889.40
378.13	898.77
378.33	945.58
378.52	957.28
378.72	922.17
378.91	903.45
379.11	1006.43
379.31	931.53
379.50	964.30
379.70	1004.09
379.89	919.83
380.09	905.79
380.28	1020.47
380.48	1032.18
380.68	1006.43
380.87	997.07
381.07	1088.35
381.26	1064.94
381.46	976.00
381.65	1069.62
381.85	1041.54
382.04	1043.88
382.24	1069.62
382.43	1022.81
382.63	1004.09
382.83	1048.56
383.02	1029.84
383.22	1109.41
383.41	1027.50
383.61	1142.18
383.80	1076.65
384.00	1158.57
384.19	1043.88
384.39	1219.42
384.58	1121.12
384.78	1111.75
384.97	1228.78
385.17	1205.38
385.36	1128.14
385.56	1158.57
385.75	1179.63
385.95	1200.69
386.14	1327.08
386.34	1200.69
386.53	1167.93
386.72	1214.74
386.92	1252.19
387.11	1275.59
387.31	1247.51
387.50	1172.61
387.70	1219.42
387.89	1226.44
388.09	1266.23
388.28	1174.95
388.48	1245.16
388.67	1179.63
388.86	1294.32
389.06	1331.76
389.25	1390.28
389.45	1296.66
389.64	1329.42
389.84	1320.06
390.03	1350.49
390.22	1411.34
390.42	1420.71
390.61	1404.32
390.81	1423.05
391.00	1430.07
391.19	1437.09
391.39	1376.24
391.58	1504.96
391.78	1427.73
391.97	1462.83
392.16	1533.05
392.36	1514.33
392.55	1542.41
392.75	1540.07
392.94	1462.83
393.13	1495.60
393.33	1631.35
393.52	1570.50
393.71	1596.25
393.91	1565.82
394.10	1563.48
394.29	1621.99
394.49	1561.14
394.68	1563.48
394.88	1619.65
395.07	1666.46
395.26	1605.61
395.46	1624.33
395.65	1715.61
395.84	1650.08
396.04	1750.72
396.23	1722.63
396.42	1778.81
396.62	1755.40
396.81	1741.36
397.00	1846.68
397.19	1937.96
397.39	1834.98
397.58	1977.75
397.77	1823.28
397.97	1860.73
398.16	1842.00
398.35	1842.00
398.55	1844.34
398.74	1757.74
398.93	1898.17
399.12	1933.28
399.32	1977.75
399.51	1898.17
399.70	2090.10
399.90	1912.22
400.09	1961.37
400.28	2029.24
400.47	2008.18
400.67	2026.90
400.86	2071.37
401.05	2101.80
401.24	2054.99
401.44	2157.97
401.63	2202.44
401.82	2111.16
402.01	2181.38
402.21	2150.95
402.40	2134.57
402.59	2160.31
402.78	2162.66
402.97	2303.09
403.17	2242.23
403.36	2228.19
403.55	2249.25
403.74	2310.11
403.93	2361.60
404.13	2291.38
404.32	2380.32
404.51	2375.64
404.70	2504.37
404.89	2476.29
405.09	2471.61
405.28	2476.29
405.47	2450.54
405.66	2490.33
405.85	2434.16
406.05	2443.52
406.24	2509.05
406.43	2464.58
406.62	2743.11
406.81	2605.02
407.00	2651.83
407.20	2541.82
407.39	2602.68
407.58	2665.87
407.77	2686.94
407.96	2649.49
408.15	2658.85
408.34	2696.30
408.54	2825.03
408.73	2700.98
408.92	2778.22
409.11	2768.85
409.30	2881.20
409.49	2904.60
409.68	2864.82
409.87	2953.76
410.07	2949.08
410.26	2944.39
410.45	2967.80
410.64	2888.22
410.83	3028.65
411.02	3094.19
411.21	3176.11
411.40	3096.53
411.59	3169.09
411.78	3080.14
411.98	3183.13
412.17	3281.43
412.36	3262.71
412.55	3407.82
412.74	3363.35
412.93	3274.41
413.12	3258.03
413.31	3613.79
413.50	3440.59
413.69	3428.88
413.88	3660.60
414.07	3618.47
414.26	3630.17
414.45	3637.19
414.64	3581.02
414.83	3747.20
415.02	3857.20
415.22	3859.54
415.41	3920.40
415.60	3810.39
415.79	3859.54
415.98	3988.27
416.17	3906.35
416.36	3843.16
416.55	4133.39
416.74	4063.17
416.93	4168.49
417.12	4018.70
417.31	4109.98
417.50	4126.36
417.69	4203.60
417.88	4063.17
418.07	4299.56
418.26	4222.33
418.45	4355.74
418.64	4571.07
418.83	4444.68
419.02	4299.56
419.21	4456.38
419.39	4557.02
419.58	4517.23
419.77	4442.34
419.96	4528.94
420.15	4411.91
420.34	4559.36
420.53	4531.28
420.72	4547.66
420.91	4791.08
421.10	4667.03
421.29	4734.90
421.48	4760.65
421.67	4812.14
421.86	4786.40
422.05	4805.12
422.24	4772.35
422.43	4844.91
422.61	4868.31
422.80	4924.49
422.99	5022.79
423.18	5032.15
423.37	4961.94
423.56	5020.45
423.75	5125.77
423.94	4919.81
424.13	4648.30
424.32	4704.48
424.50	5055.56
424.69	5029.81
424.88	5018.11
425.07	4929.17
425.26	4798.10
425.45	4910.44
425.64	4830.87
425.83	4954.91
426.01	5057.90
426.20	5011.09
426.39	4971.30
426.58	4997.04
426.77	5011.09
426.96	5029.81
427.15	5132.79
427.33	5123.43
427.52	5130.45
427.71	5357.49
427.90	5144.50
428.09	5352.81
428.28	5238.12
428.46	5217.05
428.65	5343.44
428.84	5451.11
429.03	5504.94
429.22	5238.12
429.40	5387.91
429.59	5385.57
429.78	5277.91
429.97	5294.29
430.16	5472.17
430.34	5518.98
430.53	5626.65
430.72	5893.47
430.91	5530.69
431.10	5533.03
431.28	5572.82
431.47	5724.95
431.66	6005.81
431.85	5617.29
432.03	5757.72
432.22	5973.05
432.41	5771.76
432.60	5902.83
432.79	5741.33
432.97	5930.92
433.16	6029.22
433.35	5966.03
433.54	6094.76
433.72	6012.84
433.91	6181.35
434.10	6080.71
434.28	6008.16
434.47	6132.20
434.66	6197.74
434.85	6216.46
435.03	6171.99
435.22	6239.87
435.41	6319.45
435.59	6258.59
435.78	6246.89
435.97	6541.80
436.16	6197.74
436.34	6604.99
436.53	6214.12
436.72	6487.96
436.90	6422.43
437.09	6562.86
437.28	6382.64
437.46	6726.70
437.65	6602.65
437.84	6665.85
438.02	6658.82
438.21	6654.14
438.40	6576.91
438.58	6853.09
438.77	7129.27
438.96	6995.86
439.14	7084.80
439.33	7126.93
439.52	7297.79
439.70	7269.70
439.89	7260.34
440.08	7171.40
440.26	7466.31
440.45	7473.33
440.63	7452.27
440.82	7482.69
441.01	7454.61
441.19	7721.43
441.38	7688.66
441.57	7489.71
441.75	7646.53
441.94	8025.70
442.12	7911.01
442.31	7992.93
442.50	8142.72
442.68	7789.30
442.87	8105.28
443.05	7927.39
443.24	8318.26
443.43	8112.30
443.61	8086.55
443.80	8458.70
443.98	7999.95
444.17	7817.39
444.35	8002.29
444.54	8418.91
444.73	8025.70
444.91	8252.73
445.10	8432.95
445.28	8266.77
445.47	8163.79
445.65	8344.01
445.84	8456.36
446.02	8477.42
446.21	8163.79
446.39	8365.07
446.58	8353.37
446.77	8540.61
446.95	8322.94
447.14	8313.58
447.32	8477.42
447.51	8341.67
447.69	8416.57
447.88	8601.47
448.06	8582.74
448.25	8287.84
448.43	8451.67
448.62	8489.12
448.80	8344.01
448.99	8510.19
449.17	8634.24
449.36	8613.17
449.54	8786.37
449.73	8856.59
449.91	9118.73
450.10	8905.74
450.28	8856.59
450.46	8987.66
450.65	8898.72
450.83	9006.38
451.02	9029.79
451.20	9109.36
451.39	9401.93
451.57	9060.21
451.76	9008.72
451.94	9193.62
452.13	9195.96
452.31	9252.14
452.49	9226.39
452.68	9280.22
452.86	9231.07
453.05	9453.42
453.23	9591.52
453.42	9121.07
453.60	9291.93
453.78	9659.39
453.97	9408.95
454.15	9476.83
454.34	9561.09
454.52	9497.89
454.70	9753.01
454.89	9565.77
455.07	9841.95
455.26	9661.73
455.44	10015.15
455.62	9778.76
455.81	9727.27
455.99	10115.80
456.17	9956.64
456.36	9806.84
456.54	10094.73
456.73	10120.48
456.91	10551.14
457.09	10328.78
457.28	10466.88
457.46	10094.73
457.64	10319.42
457.83	10485.60
458.01	10401.34
458.19	10581.56
458.38	10391.98
458.56	10644.76
458.74	10633.05
458.93	10534.75
459.11	10565.18
459.29	10806.25
459.48	10918.60
459.66	10611.99
459.84	10841.36
460.03	10939.66
460.21	10923.28
460.39	10878.81
460.57	11049.67
460.76	11009.88
460.94	11119.89
461.12	11293.08
461.31	11129.25
461.49	11091.80
461.67	11094.14
461.85	11232.23
462.04	11295.43
462.22	11667.57
462.40	11552.88
462.59	11503.73
462.77	11321.17
462.95	11473.31
463.13	11410.11
463.32	11639.48
463.50	11651.19
463.68	12011.63
463.86	11705.02
464.05	11393.73
464.23	11580.97
464.41	11829.07
464.59	11580.97
464.78	12011.63
464.96	11990.56
465.14	11700.34
465.32	11948.43
465.50	11772.89
465.69	11906.31
465.87	12072.48
466.05	12039.72
466.23	12060.78
466.41	11995.25
466.60	12695.07
466.78	11957.80
466.96	12046.74
467.14	12423.56
467.32	12306.54
467.51	12608.47
467.69	12280.79
467.87	12383.77
468.05	12475.06
468.23	12404.84
468.41	12449.31
468.60	12601.44
468.78	12674.00
468.96	12475.06
469.14	12599.10
469.32	12889.33
469.50	12416.54
469.69	12809.75
469.87	12975.93
470.05	13025.08
470.23	12987.63
470.41	12959.55
470.59	13268.50
470.77	13359.78
470.95	13081.25
471.14	13334.03
471.32	13195.94
471.50	13472.12
471.68	13603.19
471.86	13645.32
472.04	13446.38
472.22	14068.96
472.40	13664.05
472.58	13612.56
472.77	14099.39
472.95	14097.05
473.13	14420.04
473.31	14001.08
473.49	13977.68
473.67	14008.11
473.85	14279.61
474.03	14616.65
474.21	14677.50
474.39	14595.58
474.57	14848.36
474.75	14679.84
474.93	14761.76
475.12	14820.27
475.30	15197.10
475.48	14782.82
475.66	15201.78
475.84	15206.46
476.02	15124.54
476.20	15307.10
476.38	15470.94
476.56	15903.94
476.74	15702.65
476.92	15573.92
477.10	15386.68
477.28	16215.23
477.46	16173.10
477.64	16133.31
477.82	16238.64
478.00	16648.23
478.18	16205.87
478.36	16837.81
478.54	17123.36
478.72	16826.11
478.90	17326.99
479.08	17579.76
479.26	17645.30
479.44	17675.73
479.62	17509.55
479.80	17799.77
479.98	18040.85
480.16	18373.21
480.34	18312.35
480.52	18473.85
480.70	18384.91
480.88	18190.64
481.06	18820.25
481.24	18918.55
481.41	19000.47
481.59	19051.96
481.77	19023.87
481.95	19501.34
482.13	19281.33
482.31	19833.70
482.49	19850.08
482.67	20105.20
482.85	20339.26
483.03	20390.75
483.21	20692.68
483.39	21057.80
483.57	20872.90
483.74	20940.77
483.92	21387.82
484.10	21434.63
484.28	21729.53
484.46	22258.49
484.64	22087.64
484.82	21771.66
485.00	22122.74
485.18	22822.56
485.35	22963.00
485.53	22398.93
485.71	22843.63
485.89	23634.73
486.07	23185.35
486.25	23405.36
486.43	23814.95
486.61	23625.37
486.78	23520.04
486.96	23950.70
487.14	24067.73
487.32	24060.71
487.50	24566.26
487.68	24940.75
487.85	25223.95
488.03	25413.54
488.21	25685.04
488.39	25312.89
488.57	25949.52
488.75	25972.92
488.92	26066.55
489.10	26656.36
489.28	26499.55
489.46	26838.92
489.64	27014.46
489.81	27405.33
489.99	27662.79
490.17	27229.79
490.35	27878.12
490.53	28322.82
490.70	28123.88
490.88	27964.72
491.06	28545.17
491.24	28610.71
491.41	28629.43
491.59	28886.89
491.77	29294.14
491.95	29507.13
492.13	29628.84
492.30	29886.30
492.48	29790.34
492.66	29926.09
492.84	30288.87
493.01	30267.81
493.19	30221.00
493.37	30993.37
493.54	31091.68
493.72	31398.29
493.90	31388.92
494.08	31505.95
494.25	31599.57
494.43	31948.31
494.61	32116.83
494.79	32453.87
494.96	32449.19
495.14	32378.97
495.32	33064.75
495.49	33181.77
495.67	33057.73
495.85	33195.82
496.02	33394.76
496.20	34281.83
496.38	34050.11
496.55	33605.41
496.73	34644.61
496.91	34330.98
497.09	34401.19
497.26	34904.41
497.44	34684.40
497.62	35220.38
497.79	35676.79
497.97	35215.70
498.14	35709.55
498.32	35997.44
498.50	35950.63
498.67	36252.56
498.85	36456.18
499.03	36664.49
499.20	36708.96
499.38	36348.52
499.56	36348.52
499.73	36928.97
499.91	37446.23
500.08	37488.36
500.26	37198.13
500.44	37406.44
500.61	37523.47
500.79	37663.90
500.97	37794.97
501.14	38333.29
501.32	38483.09
501.49	38345.00
501.67	38501.81
501.84	39014.39
502.02	39079.92
502.20	38993.32
502.37	39379.51
502.55	38932.47
502.72	39360.79
502.90	39875.71
503.07	39381.85
503.25	39416.96
503.43	39274.19
503.60	39746.98
503.78	40069.97
503.95	40069.97
504.13	39803.15
504.30	40753.41
504.48	40210.40
504.65	40685.53
504.83	40828.30
505.01	41261.30
505.18	41078.74
505.36	41677.92
505.53	41132.57
505.71	41567.91
505.88	41563.23
506.06	41378.33
506.23	42017.30
506.41	41205.13
506.58	41640.47
506.76	41961.12
506.93	42557.96
507.11	41935.38
507.28	42373.06
507.46	42330.93
507.63	42883.30
507.81	43140.75
507.98	42857.55
508.16	42902.02
508.33	43246.08
508.50	43117.35
508.68	43559.71
508.85	43456.73
509.03	43430.98
509.20	43938.88
509.38	44414.01
509.55	44088.67
509.73	43782.06
509.90	44332.09
510.08	44224.42
510.25	44573.16
510.42	44664.44
510.60	45083.40
510.77	45352.56
510.95	44989.78
511.12	44678.49
511.30	44615.29
511.47	45165.32
511.64	45310.43
511.82	45914.29
511.99	45649.81
512.17	45881.52
512.34	45631.08
512.51	46333.24
512.69	46094.51
512.86	45942.38
513.04	46258.35
513.21	46213.88
513.38	46305.16
513.56	46607.09
513.73	46700.71
513.90	46841.14
514.08	46859.87
514.25	47370.10
514.43	47004.98
514.60	47140.73
514.77	47274.14
514.95	47040.09
515.12	47407.55
515.29	47622.88
515.47	47791.40
515.64	48072.26
515.81	47746.93
515.99	48266.53
516.16	48273.55
516.33	48416.32
516.51	48072.26
516.68	48275.89
516.85	48266.53
517.03	48626.97
517.20	49017.84
517.37	48374.19
517.54	48212.70
517.72	48697.19
517.89	48996.77
518.06	48872.73
518.24	49237.85
518.41	48891.45
518.58	48994.43
518.75	48954.64
518.93	49347.86
519.10	49233.17
519.27	49404.03
519.45	49085.72
519.62	49914.26
519.79	49439.14
519.96	49593.61
520.14	49900.22
520.31	49731.70
520.48	50370.67
520.65	49792.56
520.83	50277.05
521.00	50391.73
521.17	50361.31
521.34	50342.58
521.52	50490.04
521.69	50782.60
521.86	51131.34
522.03	51061.13
522.20	50930.06
522.38	51065.81
522.55	51065.81
522.72	51009.64
522.89	51187.52
523.07	51117.30
523.24	51236.67
523.41	51405.19
523.58	51262.41
523.75	51597.11
523.92	51489.45
524.10	51522.21
524.27	51730.52
524.44	51887.34
524.61	51765.63
524.78	52137.77
524.96	51920.10
525.13	52154.16
525.30	52329.70
525.47	52055.85
525.64	52088.62
525.81	52479.49
525.98	52458.43
526.16	52231.40
526.33	52474.81
526.50	52699.50
526.67	52170.54
526.84	52669.08
527.01	52554.39
527.18	52776.74
527.36	52711.20
527.53	52767.38
527.70	53064.63
527.87	53036.54
528.04	52996.75
528.21	53263.57
528.38	53347.83
528.55	53539.75
528.72	53368.90
528.89	53277.61
529.07	53373.58
529.24	53645.08
529.41	53638.06
529.58	53441.45
529.75	53731.68
529.92	53319.74
530.09	53701.25
530.26	53647.42
530.43	53813.60
530.60	53694.23
530.77	53638.06
530.94	53998.50
531.11	53963.39
531.28	54068.72
531.46	54251.28
531.63	54183.40
531.80	54185.74
531.97	54148.29
532.14	54466.61
532.31	54557.89
532.48	54230.21
532.65	54649.17
532.82	54431.50
532.99	54607.04
533.16	54534.48
533.33	54667.89
533.50	54635.13
533.67	54585.97
533.84	54525.12
534.01	54635.13
534.18	54754.49
534.35	54901.95
534.52	54986.21
534.69	54972.16
534.86	55044.72
535.03	55002.59
535.20	55100.89
535.37	55168.77
535.54	55358.35
535.71	55257.71
535.88	55318.56
536.05	55458.99
536.22	55674.32
536.38	55456.65
536.55	55529.21
536.72	55442.61
536.89	55379.42
537.06	55276.43
537.23	55604.11
537.40	55147.70
537.57	55505.80
537.74	55454.31
537.91	55941.14
538.08	56030.08
538.25	55522.19
538.42	55971.57
538.59	55718.79
538.75	55915.40
538.92	55774.97
539.09	55985.61
539.26	55980.93
539.43	55819.44
539.60	56114.34
539.77	56224.35
539.94	56442.02
540.11	56233.71
540.28	56315.63
540.44	56083.92
540.61	56109.66
540.78	56121.37
540.95	56196.26
541.12	56090.94
541.29	56643.30
541.46	56477.13
541.62	56259.46
541.79	56449.04
541.96	56072.21
542.13	56493.51
542.30	56453.72
542.47	56598.83
542.63	56985.02
542.80	56762.67
542.97	56952.26
543.14	57066.94
543.31	56917.15
543.48	57041.20
543.64	57249.50
543.81	57139.50
543.98	56975.66
544.15	57062.26
544.32	57205.03
544.48	57457.81
544.65	57099.71
544.82	57230.78
544.99	57282.27
545.16	57195.67
545.32	57401.64
545.49	57684.84
545.66	57663.78
545.83	57364.19
546.00	57481.22
546.16	57425.04
546.33	57237.80
546.50	57333.76
546.67	57647.39
546.83	57301.00
547.00	57574.84
547.17	57528.03
547.34	57825.28
547.50	57715.27
547.67	58005.50
547.84	57846.34
548.00	57836.98
548.17	58035.92
548.34	57939.96
548.51	58138.91
548.67	58054.65
548.84	58014.86
549.01	58066.35
549.18	57855.70
549.34	58145.93
549.51	58092.10
549.68	58363.60
549.84	58225.51
550.01	58328.49
550.18	57916.56
550.34	58234.87
550.51	58597.65
550.68	58251.25
550.84	57965.71
551.01	58391.68
551.18	58239.55
551.34	58281.68
551.51	58356.58
551.68	58665.53
551.84	58319.13
552.01	58347.21
552.18	58396.37
552.34	58485.31
552.51	58475.94
552.68	58438.50
552.84	58473.60
553.01	58721.70
553.18	58583.61
553.34	58637.44
553.51	58698.30
553.67	58831.71
553.84	58883.20
554.01	58705.32
554.17	58700.64
554.34	59114.91
554.51	58848.09
554.67	59032.99
554.84	58695.95
555.00	58930.01
555.17	59028.31
555.33	58789.58
555.50	58887.88
555.67	58817.66
555.83	58759.15
556.00	59072.78
556.16	59140.66
556.33	58974.48
556.50	59206.19
556.66	59126.61
556.83	59063.42
556.99	59171.08
557.16	59456.63
557.32	59489.40
557.49	59433.22
557.65	59423.86
557.82	59194.49
557.98	59002.56
558.15	59409.82
558.32	59325.56
558.48	59283.43
558.65	59367.69
558.81	59463.65
558.98	59449.61
559.14	59311.52
559.31	59538.55
559.47	59423.86
559.64	59501.10
559.80	59793.67
559.97	59676.64
560.13	59292.79
560.30	59487.06
560.46	59688.34
560.63	59664.94
560.79	59601.74
560.96	59739.83
561.12	59634.51
561.29	59618.13
561.45	59814.73
561.61	59728.13
561.78	59473.01
561.94	59721.11
562.11	59489.40
562.27	59798.35
562.44	59936.44
562.60	59980.91
562.77	59686.00
562.93	59676.64
563.10	59774.94
563.26	59856.86
563.42	60119.00
563.59	59894.31
563.75	59765.58
563.92	59765.58
564.08	59772.60
564.24	59987.93
564.41	60081.55
564.57	59948.14
564.74	60135.38
564.90	59957.50
565.07	60006.65
565.23	60179.85
565.39	60016.02
565.56	60009.00
565.72	60184.54
565.88	59999.63
566.05	60072.19
566.21	60051.12
566.38	59882.61
566.54	60198.58
566.70	60200.92
566.87	60119.00
567.03	59938.78
567.19	60331.99
567.36	60093.25
567.52	60170.49
567.68	60257.09
567.85	60175.17
568.01	60243.05
568.17	60186.88
568.34	60207.94
568.50	60158.79
568.66	60207.94
568.83	60343.69
568.99	60357.74
569.15	60287.52
569.32	60226.66
569.48	60161.13
569.64	60420.93
569.81	60278.16
569.97	60163.47
570.13	60313.26
570.30	60020.70
570.46	60341.35
570.62	60306.24
570.78	60392.84
570.95	60313.26
571.11	60430.29
571.27	60320.29
571.43	60467.74
571.60	60493.49
571.76	60346.03
571.92	60608.17
572.09	60203.26
572.25	60552.00
572.41	60315.61
572.57	60547.32
572.74	60537.96
572.90	60514.55
573.06	60537.96
573.22	60575.40
573.38	60264.11
573.55	60392.84
573.71	60654.98
573.87	60533.28
574.03	60357.74
574.20	60617.53
574.36	60514.55
574.52	60654.98
574.68	60554.34
574.84	60673.71
575.01	60713.50
575.17	60521.57
575.33	60364.76
575.49	60385.82
575.65	60505.19
575.82	60694.77
575.98	60685.41
576.14	60816.48
576.30	60575.40
576.46	60603.49
576.62	60509.87
576.79	60638.60
576.95	60472.42
577.11	60561.36
577.27	60662.00
577.43	60678.39
577.59	60750.94
577.75	60631.58
577.92	60505.19
578.08	60573.06
578.24	60622.22
578.40	60809.46
578.56	60643.28
578.72	60804.78
578.88	60863.29
579.04	60874.99
579.21	60814.14
579.37	60715.84
579.53	60769.67
579.69	60474.76
579.85	60622.22
580.01	60596.47
580.17	60615.19
580.33	60676.05
580.49	60704.13
580.65	60767.33
580.82	60760.31
580.98	60659.66
581.14	60498.17
581.30	60783.71
581.46	60863.29
581.62	60931.17
581.78	60556.68
581.94	60851.59
582.10	60760.31
582.26	60865.63
582.42	60896.06
582.58	60678.39
582.74	60839.89
582.90	60795.42
583.06	60715.84
583.22	60676.05
583.38	60954.57
583.54	60797.76
583.70	60956.91
583.86	60924.14
584.02	60795.42
584.18	61071.60
584.34	60956.91
584.50	60872.65
584.66	60774.35
584.82	60687.75
584.98	60891.38
585.14	60931.17
585.30	60669.03
585.46	60942.87
585.62	60783.71
585.78	60884.36
585.94	60650.30
586.10	60893.72
586.26	60849.25
586.42	60952.23
586.58	60821.16
586.74	60956.91
586.90	60788.39
587.06	60786.05
587.22	60947.55
587.38	60966.27
587.54	61066.92
587.70	61123.09
587.86	60910.10
588.02	61029.47
588.18	61102.03
588.34	60842.23
