SpectraSuite Data File
++++++++++++++++++++++++++++++++++++
Date: Fri Oct 25 11:23:09 EDT 2013
User: price-jones
Dark Spectrum Present: No
Reference Spectrum Present: No
Number of Sampled Component Spectra: 1
Spectrometers: USB2+H05261
Integration Time (usec): 100000 (USB2+H05261)
Spectra Averaged: 1 (USB2+H05261)
Boxcar Smoothing: 0 (USB2+H05261)
Correct for Electrical Dark: No (USB2+H05261)
Strobe/Lamp Enabled: No (USB2+H05261)
Correct for Detector Non-linearity: No (USB2+H05261)
Correct for Stray Light: No (USB2+H05261)
Number of Pixels in Processed Spectrum: 2048
>>>>>Begin Processed Spectral Data<<<<<
365.73	257.46
365.92	257.46
366.12	257.46
366.32	175.54
366.52	112.35
366.72	142.77
366.91	191.92
367.11	110.01
367.31	70.22
367.51	177.88
367.70	63.19
367.90	145.11
368.10	142.77
368.30	163.84
368.49	121.71
368.69	163.84
368.89	81.92
369.09	147.45
369.28	128.73
369.48	110.01
369.68	149.79
369.87	152.13
370.07	182.56
370.27	163.84
370.47	280.86
370.66	594.50
370.86	636.63
371.06	608.54
371.25	657.69
371.45	671.73
371.65	631.94
371.84	748.97
372.04	648.33
372.24	695.14
372.44	748.97
372.63	720.88
372.83	732.59
373.03	763.01
373.22	744.29
373.42	695.14
373.62	760.67
373.81	727.91
374.01	814.51
374.21	821.53
374.40	753.65
374.60	800.46
374.79	777.06
374.99	805.14
375.19	908.13
375.38	800.46
375.58	716.20
375.78	798.12
375.97	917.49
376.17	905.79
376.37	896.43
376.56	898.77
376.76	875.36
376.95	884.72
377.15	908.13
377.35	959.62
377.54	929.19
377.74	919.83
377.93	861.32
378.13	926.85
378.33	915.15
378.52	868.34
378.72	1041.54
378.91	950.26
379.11	940.90
379.31	891.74
379.50	940.90
379.70	985.37
379.89	940.90
380.09	912.81
380.28	1008.77
380.48	1015.79
380.68	1050.90
380.87	924.51
381.07	1071.97
381.26	1041.54
381.46	1004.09
381.65	961.96
381.85	1062.60
382.04	1036.86
382.24	1008.77
382.43	1039.20
382.63	1027.50
382.83	1041.54
383.02	1043.88
383.22	1153.88
383.41	1100.05
383.61	1078.99
383.80	1083.67
384.00	1048.56
384.19	1104.73
384.39	1116.44
384.58	1067.28
384.78	1184.31
384.97	1128.14
385.17	1149.20
385.36	1160.91
385.56	1123.46
385.75	1233.46
385.95	1203.04
386.14	1235.80
386.34	1217.08
386.53	1233.46
386.72	1177.29
386.92	1231.12
387.11	1235.80
387.31	1153.88
387.50	1226.44
387.70	1210.06
387.89	1256.87
388.09	1247.51
388.28	1451.13
388.48	1317.72
388.67	1320.06
388.86	1348.15
389.06	1259.21
389.25	1334.11
389.45	1289.64
389.64	1364.53
389.84	1399.64
390.03	1385.60
390.22	1378.58
390.42	1378.58
390.61	1310.70
390.81	1432.41
391.00	1357.51
391.19	1474.54
391.39	1362.19
391.58	1460.49
391.78	1380.92
391.97	1554.12
392.16	1413.68
392.36	1593.90
392.55	1551.78
392.75	1624.33
392.94	1584.54
393.13	1551.78
393.33	1544.75
393.52	1507.30
393.71	1500.28
393.91	1586.88
394.10	1586.88
394.29	1696.89
394.49	1549.43
394.68	1558.80
394.88	1652.42
395.07	1776.47
395.26	1621.99
395.46	1640.72
395.65	1776.47
395.84	1764.76
396.04	1673.48
396.23	1746.04
396.42	1795.19
396.62	1886.47
396.81	1797.53
397.00	1755.40
397.19	1760.08
397.39	1769.44
397.58	1886.47
397.77	1760.08
397.97	1856.04
398.16	1834.98
398.35	1907.54
398.55	1912.22
398.74	1940.30
398.93	1928.60
399.12	1928.60
399.32	1935.62
399.51	2022.22
399.70	1921.58
399.90	2043.29
400.09	1961.37
400.28	2045.63
400.47	1991.80
400.67	2146.27
400.86	2108.82
401.05	2073.71
401.24	2188.40
401.44	2076.06
401.63	2057.33
401.82	2120.53
402.01	2146.27
402.21	2113.50
402.40	2193.08
402.59	2143.93
402.78	2200.10
402.97	2298.41
403.17	2361.60
403.36	2211.81
403.55	2242.23
403.74	2345.22
403.93	2345.22
404.13	2459.90
404.32	2352.24
404.51	2291.38
404.70	2495.01
404.89	2331.17
405.09	2471.61
405.28	2448.20
405.47	2534.80
405.66	2506.71
405.85	2443.52
406.05	2448.20
406.24	2518.42
406.43	2635.44
406.62	2663.53
406.81	2712.68
407.00	2541.82
407.20	2640.12
407.39	2595.65
407.58	2693.96
407.77	2761.83
407.96	2766.51
408.15	2846.09
408.34	2825.03
408.54	2881.20
408.73	2822.69
408.92	2911.63
409.11	2890.56
409.30	2942.05
409.49	2890.56
409.68	3045.04
409.87	2935.03
410.07	3014.61
410.26	3105.89
410.45	2970.14
410.64	3159.72
410.83	3213.56
411.02	3082.49
411.21	3173.77
411.40	3110.57
411.59	3183.13
411.78	3197.17
411.98	3276.75
412.17	3248.66
412.36	3229.94
412.55	3459.31
412.74	3421.86
412.93	3353.99
413.12	3384.41
413.31	3449.95
413.50	3513.14
413.69	3576.34
413.88	3698.05
414.07	3693.37
414.26	3747.20
414.45	3786.99
414.64	3765.92
414.83	3721.45
415.02	3794.01
415.22	3990.61
415.41	3918.06
415.60	3904.01
415.79	3817.41
415.98	3964.87
416.17	4030.40
416.36	4077.21
416.55	4149.77
416.74	4093.60
416.93	4133.39
417.12	4135.73
417.31	4280.84
417.50	4355.74
417.69	4308.93
417.88	4264.46
418.07	4334.67
418.26	4318.29
418.45	4322.97
418.64	4613.20
418.83	4386.16
419.02	4365.10
419.21	4496.17
419.39	4573.41
419.58	4395.53
419.77	4456.38
419.96	4599.15
420.15	4629.58
420.34	4718.52
420.53	4606.17
420.72	4746.61
420.91	4650.64
421.10	4681.07
421.29	4863.63
421.48	4648.30
421.67	4898.74
421.86	4695.11
422.05	4814.48
422.24	4870.65
422.43	4905.76
422.61	5027.47
422.80	4980.66
422.99	4938.53
423.18	4997.04
423.37	5004.07
423.56	4968.96
423.75	4814.48
423.94	4805.12
424.13	4667.03
424.32	4819.16
424.50	5034.49
424.69	5275.57
424.88	5188.97
425.07	5156.20
425.26	4868.31
425.45	4945.55
425.64	4952.57
425.83	4945.55
426.01	5046.20
426.20	5069.60
426.39	4973.64
426.58	4983.00
426.77	5034.49
426.96	5172.58
427.15	5174.92
427.33	5359.83
427.52	5212.37
427.71	5160.88
427.90	5303.65
428.09	5301.31
428.28	5453.45
428.46	5448.77
428.65	5547.07
428.84	5535.37
429.03	5476.85
429.22	5313.02
429.40	5561.11
429.59	5511.96
429.78	5315.36
429.97	5416.00
430.16	5523.66
430.34	5769.42
430.53	5727.29
430.72	5717.93
430.91	5640.69
431.10	5774.10
431.28	5741.33
431.47	5790.49
431.66	5893.47
431.85	5797.51
432.03	6008.16
432.22	5961.34
432.41	6113.48
432.60	5984.75
432.79	6076.03
432.97	6106.46
433.16	6043.26
433.35	6026.88
433.54	6019.86
433.72	6232.85
433.91	6094.76
434.10	6118.16
434.28	6104.12
434.47	6305.40
434.66	6305.40
434.85	6314.77
435.03	6265.61
435.22	6181.35
435.41	6487.96
435.59	6431.79
435.78	6413.07
435.97	6455.20
436.16	6574.56
436.34	6487.96
436.53	6537.12
436.72	6719.68
436.90	6562.86
437.09	6782.87
437.28	6422.43
437.46	6813.30
437.65	6825.00
437.84	7007.56
438.02	6668.19
438.21	6738.40
438.40	6752.45
438.58	7178.42
438.77	7049.69
438.96	7054.37
439.14	7204.17
439.33	7375.03
439.52	7250.98
439.70	7318.86
439.89	7410.14
440.08	7440.56
440.26	7658.23
440.45	7470.99
440.63	7372.69
440.82	7527.16
441.01	7562.27
441.19	7735.47
441.38	7831.43
441.57	7833.77
441.75	7892.29
441.94	8016.33
442.12	8128.68
442.31	7960.16
442.50	8283.16
442.68	8053.78
442.87	8133.36
443.05	8065.49
443.24	8336.99
443.43	8269.11
443.61	8334.65
443.80	8451.67
443.98	8006.97
444.17	7747.17
444.35	8287.84
444.54	8542.96
444.73	8360.39
444.91	8489.12
445.10	8400.18
445.28	8390.82
445.47	8369.76
445.65	8449.33
445.84	8599.13
446.02	8524.23
446.21	8493.80
446.39	8198.90
446.58	8606.15
446.77	8648.28
446.95	8465.72
447.14	8622.53
447.32	8486.78
447.51	8564.02
447.69	8528.91
447.88	8608.49
448.06	8585.08
448.25	8507.85
448.43	8690.41
448.62	8716.16
448.80	8549.98
448.99	8882.33
449.17	8858.93
449.36	8645.94
449.54	9025.11
449.73	8910.42
449.91	9048.51
450.10	8997.02
450.28	9130.43
450.46	9128.09
450.65	9200.65
450.83	8964.25
451.02	9221.71
451.20	9359.80
451.39	9310.65
451.57	9142.13
451.76	9280.22
451.94	9394.91
452.13	9369.16
452.31	9202.99
452.49	9249.80
452.68	9453.42
452.86	9549.39
453.05	9631.30
453.23	9551.73
453.42	9537.68
453.60	9493.21
453.78	9612.58
453.97	9593.86
454.15	9584.49
454.34	9521.30
454.52	9841.95
454.70	9872.38
454.89	9947.28
455.07	9926.21
455.26	9809.19
455.44	10141.54
455.62	10188.35
455.81	10003.45
455.99	10410.70
456.17	10125.16
456.36	10134.52
456.54	10307.72
456.73	10312.40
456.91	10431.77
457.09	10565.18
457.28	10553.48
457.46	10209.42
457.64	10593.26
457.83	10546.45
458.01	10429.43
458.19	10927.96
458.38	10665.82
458.56	10897.53
458.74	10930.30
458.93	10888.17
459.11	10942.00
459.29	10743.06
459.48	11021.58
459.66	10895.19
459.84	10869.45
460.03	11133.93
460.21	11002.86
460.39	11169.04
460.57	11253.30
460.76	11255.64
460.94	11304.79
461.12	11316.49
461.31	11349.26
461.49	11115.20
461.67	11480.33
461.85	11597.35
462.04	11398.41
462.22	11674.59
462.40	11592.67
462.59	11557.57
462.77	11555.22
462.95	11751.83
463.13	11613.74
463.32	11690.98
463.50	11709.70
463.68	11798.64
463.86	12032.69
464.05	11609.06
464.23	11899.28
464.41	11892.26
464.59	11943.75
464.78	12219.94
464.96	12131.00
465.14	11992.90
465.32	12131.00
465.50	12299.52
465.69	12332.28
465.87	12112.27
466.05	12224.62
466.23	12425.90
466.41	12603.78
466.60	12788.69
466.78	12191.85
466.96	12404.84
467.14	12280.79
467.32	12458.67
467.51	12720.81
467.69	12358.03
467.87	12369.73
468.05	12638.89
468.23	12489.10
468.41	12587.40
468.60	12781.67
468.78	12837.84
468.96	12662.30
469.14	12952.52
469.32	13011.04
469.50	12793.37
469.69	13156.15
469.87	13280.20
470.05	13130.41
470.23	13198.28
470.41	13331.69
470.59	13406.59
470.77	13252.11
470.95	13270.84
471.14	13820.86
471.32	13474.46
471.50	13703.84
471.68	13713.20
471.86	14003.43
472.04	13891.08
472.22	14176.62
472.40	13958.96
472.58	13858.31
472.77	13965.98
472.95	14310.04
473.13	14597.92
473.31	14258.54
473.49	14190.67
473.67	14286.63
473.85	14541.75
474.03	14895.17
474.21	14747.72
474.39	14841.34
474.57	14937.30
474.75	15140.93
474.93	15171.35
475.12	15253.27
475.30	15356.25
475.48	15204.12
475.66	15232.21
475.84	15276.68
476.02	15468.60
476.20	15529.45
476.38	15925.00
476.56	16301.83
476.74	16039.69
476.92	16381.41
477.10	16037.35
477.28	16329.92
477.46	16369.71
477.64	16601.42
477.82	16606.10
478.00	17240.39
478.18	16875.26
478.36	16802.71
478.54	17263.79
478.72	17341.03
478.90	17755.30
479.08	17881.69
479.26	17832.54
479.44	17930.84
479.62	18223.41
479.80	18190.64
479.98	18415.34
480.16	19068.34
480.34	18307.67
480.52	19124.52
480.70	19152.60
480.88	18464.49
481.06	19136.22
481.24	19262.61
481.41	19112.81
481.59	19386.66
481.77	19260.27
481.95	19695.61
482.13	20027.96
482.31	19800.93
482.49	20435.22
482.67	20233.93
482.85	20657.57
483.03	20924.39
483.21	20940.77
483.39	21097.59
483.57	21130.36
483.74	21223.98
483.92	21352.71
484.10	21579.74
484.28	21986.99
484.46	22127.42
484.64	22232.75
484.82	22302.96
485.00	22546.38
485.18	22689.15
485.35	23435.78
485.53	22733.62
485.71	22953.63
485.89	23623.03
486.07	23199.39
486.25	23548.13
486.43	23683.88
486.61	24065.39
486.78	24046.66
486.96	24336.89
487.14	24844.79
487.32	25118.63
487.50	24952.45
487.68	25298.85
487.85	25575.03
488.03	25598.44
488.21	26057.18
488.39	26260.81
488.57	26529.97
488.75	26583.80
488.92	26738.28
489.10	26719.56
489.28	26778.07
489.46	27592.58
489.64	27300.01
489.81	28107.49
489.99	27812.59
490.17	27803.22
490.35	28481.98
490.53	28617.73
490.70	28533.47
490.88	28666.88
491.06	29420.53
491.24	29137.33
491.41	29493.09
491.59	29603.10
491.77	29565.65
491.95	30061.84
492.13	30059.50
492.30	30113.33
492.48	30565.06
492.66	30668.04
492.84	30389.52
493.01	30948.90
493.19	30778.04
493.37	31098.70
493.54	31522.34
493.72	31805.54
493.90	31697.88
494.08	32063.00
494.25	32486.64
494.43	32180.03
494.61	32620.05
494.79	32884.53
494.96	32856.44
495.14	32954.74
495.32	33596.05
495.49	33640.52
495.67	33441.57
495.85	33935.43
496.02	34045.43
496.20	34117.99
496.38	33998.62
496.55	34567.37
496.73	35168.89
496.91	34794.40
497.09	35276.55
497.26	35133.78
497.44	35356.13
497.62	35531.67
497.79	36100.42
497.97	35634.66
498.14	36507.68
498.32	36439.80
498.50	36584.91
498.67	36999.19
498.85	36968.76
499.03	37329.20
499.20	37209.84
499.38	37387.72
499.56	37340.91
499.73	37769.22
499.91	37876.89
500.08	38188.18
500.26	37743.48
500.44	37916.68
500.61	38022.00
500.79	37940.08
500.97	38583.73
501.14	39199.29
501.32	38967.58
501.49	38932.47
501.67	39082.27
501.84	39400.58
502.02	39108.01
502.20	39445.05
502.37	39636.97
502.55	39749.32
502.72	39959.97
502.90	40116.78
503.07	40081.67
503.25	40098.06
503.43	40285.30
503.60	40570.85
503.78	40343.81
503.95	40800.22
504.13	40837.67
504.30	40889.16
504.48	40854.05
504.65	41361.95
504.83	41553.87
505.01	41434.50
505.18	41446.21
505.36	42167.09
505.53	41729.41
505.71	41956.44
505.88	42323.91
506.06	41825.37
506.23	42078.15
506.41	42003.25
506.58	42490.09
506.76	42857.55
506.93	43271.82
507.11	42770.95
507.28	42747.54
507.46	43152.46
507.63	43346.72
507.81	43697.80
507.98	43283.53
508.16	43622.90
508.33	43494.18
508.50	43416.94
508.68	44147.18
508.85	44655.08
509.03	44430.39
509.20	44573.16
509.38	45022.54
509.55	44900.84
509.73	44512.31
509.90	45162.98
510.08	44994.46
510.25	44807.22
510.42	45305.75
510.60	45282.34
510.77	46026.63
510.95	45984.51
511.12	45467.25
511.30	45397.03
511.47	46246.65
511.64	46141.32
511.82	46457.29
511.99	46106.21
512.17	46677.30
512.34	46433.89
512.51	46501.76
512.69	47026.04
512.86	46506.44
513.04	46848.16
513.21	46820.08
513.38	47028.38
513.56	47105.62
513.73	47657.99
513.90	47334.99
514.08	47456.70
514.25	47632.24
514.43	48016.09
514.60	47945.87
514.77	47681.39
514.95	48259.51
515.12	48296.95
515.29	48509.94
515.47	48275.89
515.64	48498.24
515.81	47999.71
515.99	48652.72
516.16	48804.85
516.33	48802.51
516.51	49357.22
516.68	48898.47
516.85	48877.41
517.03	49123.16
517.20	49254.23
517.37	49275.30
517.54	49310.41
517.72	49151.25
517.89	49647.44
518.06	49570.21
518.24	49799.58
518.41	49579.57
518.58	50199.81
518.75	50012.57
518.93	49579.57
519.10	49808.94
519.27	50101.51
519.45	50014.91
519.62	50216.19
519.79	50277.05
519.96	50373.01
520.14	50864.52
520.31	50578.98
520.48	50621.11
520.65	50532.17
520.83	50983.89
521.00	51344.33
521.17	50763.88
521.34	50997.93
521.52	51157.09
521.69	51154.75
521.86	51650.94
522.03	51381.78
522.20	51814.78
522.38	51742.22
522.55	51676.69
522.72	51475.40
522.89	51709.46
523.07	52013.73
523.24	51686.05
523.41	52009.04
523.58	51980.96
523.75	52142.45
523.92	51723.50
524.10	52245.44
524.27	52392.89
524.44	52425.66
524.61	52285.23
524.78	52577.79
524.96	52587.16
525.13	52516.94
525.30	52954.62
525.47	52872.70
525.64	52853.98
525.81	52690.14
525.98	52989.73
526.16	53148.88
526.33	53066.97
526.50	53317.40
526.67	52898.45
526.84	53186.33
527.01	53167.61
527.18	53141.86
527.36	53216.76
527.53	53371.24
527.70	53581.88
527.87	53640.40
528.04	53422.73
528.21	53399.32
528.38	53656.78
528.55	53724.66
528.72	53509.33
528.89	53687.21
529.07	53832.32
529.24	53645.08
529.41	53977.43
529.58	53958.71
529.75	53897.86
529.92	54274.68
530.09	54019.56
530.26	54042.97
530.43	54464.27
530.60	54096.80
530.77	54028.93
530.94	54216.17
531.11	54188.08
531.28	54597.68
531.46	54773.22
531.63	54508.74
531.80	54550.87
531.97	54630.44
532.14	54787.26
532.31	54623.42
532.48	54939.39
532.65	55243.66
532.82	54445.54
532.99	54981.52
533.16	54745.13
533.33	55075.15
533.50	55356.01
533.67	55124.30
533.84	55227.28
534.01	55356.01
534.18	55178.13
534.35	55531.55
534.52	55461.33
534.69	55480.06
534.86	55461.33
535.03	55522.19
535.20	55484.74
535.37	55688.37
535.54	55639.22
535.71	55735.18
535.88	55838.16
536.05	55746.88
536.22	55391.12
536.38	55980.93
536.55	55849.86
536.72	55884.97
536.89	56119.02
537.06	55819.44
537.23	55999.66
537.40	55566.66
537.57	56137.75
537.74	56231.37
537.91	56224.35
538.08	56229.03
538.25	56257.12
538.42	56133.07
538.59	56329.67
538.75	56369.46
538.92	56196.26
539.09	56399.89
539.26	56563.73
539.43	56334.35
539.60	56673.73
539.77	56442.02
539.94	56970.98
540.11	56718.20
540.28	57010.77
540.44	56605.86
540.61	56793.10
540.78	56795.44
540.95	56800.12
541.12	56552.02
541.29	56631.60
541.46	56659.69
541.62	56985.02
541.79	56797.78
541.96	56800.12
542.13	56896.08
542.30	57062.26
542.47	57202.69
542.63	57031.83
542.80	57141.84
542.97	57235.46
543.14	57602.92
543.31	57521.01
543.48	57490.58
543.64	57752.72
543.81	57626.33
543.98	57600.58
544.15	57736.34
544.32	57799.53
544.48	57855.70
544.65	57715.27
544.82	57631.01
544.99	57586.54
545.16	57612.29
545.32	57633.35
545.49	57741.02
545.66	57853.36
545.83	57932.94
546.00	57848.68
546.16	57977.41
546.33	57858.04
546.50	57858.04
546.67	57958.69
546.83	57921.24
547.00	57965.71
547.17	58031.24
547.34	57733.99
547.50	58267.64
547.67	58330.83
547.84	58141.25
548.00	58340.19
548.17	58518.07
548.34	58361.26
548.51	58494.67
548.67	58351.90
548.84	58482.97
549.01	58096.78
549.18	58473.60
549.34	58482.97
549.51	58284.02
549.68	58749.79
549.84	58616.38
550.01	58543.82
550.18	58485.31
550.34	58843.41
550.51	58878.52
550.68	58735.74
550.84	58410.41
551.01	58766.17
551.18	58890.22
551.34	58852.77
551.51	58742.77
551.68	58747.45
551.84	58733.40
552.01	58616.38
552.18	58782.55
552.34	58892.56
552.51	58873.84
552.68	58674.89
552.84	58738.08
553.01	59138.32
553.18	59063.42
553.34	58915.96
553.51	58829.37
553.67	59241.30
553.84	59264.70
554.01	59054.06
554.17	59159.38
554.34	59152.36
554.51	59304.49
554.67	59386.41
554.84	59304.49
555.00	59047.04
555.17	59217.89
555.33	59419.18
555.50	59054.06
555.67	59194.49
555.83	59327.90
556.00	59428.54
556.16	59587.70
556.33	59437.90
556.50	59512.80
556.66	59669.62
556.83	59299.81
556.99	59807.71
557.16	59765.58
557.32	59744.51
557.49	59992.61
557.65	59688.34
557.82	59561.95
557.98	59571.32
558.15	59505.78
558.32	59985.59
558.48	59625.15
558.65	59643.87
558.81	59650.89
558.98	59676.64
559.14	59732.81
559.31	59882.61
559.47	59964.52
559.64	59784.30
559.80	60011.34
559.97	60018.36
560.13	59819.41
560.30	60011.34
560.46	60104.96
560.63	60182.19
560.79	60074.53
560.96	59955.16
561.12	60060.49
561.29	60076.87
561.45	60076.87
561.61	60065.17
561.78	59915.37
561.94	59924.74
562.11	60011.34
562.27	59875.58
562.44	59983.25
562.60	60275.82
562.77	60282.84
562.93	60163.47
563.10	60310.92
563.26	60200.92
563.42	60374.12
563.59	60224.32
563.75	60261.77
563.92	60313.26
564.08	60275.82
564.24	60245.39
564.41	60402.21
564.57	60381.14
564.74	60205.60
564.90	60416.25
565.07	60334.33
565.23	60264.11
565.39	60411.57
565.56	60287.52
565.72	60303.90
565.88	60537.96
566.05	60303.90
566.21	60416.25
566.38	60388.16
566.54	60589.45
566.70	60636.26
566.87	60720.52
567.03	60512.21
567.19	60734.56
567.36	60512.21
567.52	60385.82
567.68	60697.11
567.85	60559.02
568.01	60519.23
568.17	60474.76
568.34	60612.85
568.50	60612.85
568.66	60439.65
568.83	60587.11
568.99	60528.59
569.15	60624.56
569.32	60533.28
569.48	60526.25
569.64	60788.39
569.81	60683.07
569.97	60537.96
570.13	60708.82
570.30	60757.97
570.46	60858.61
570.62	60638.60
570.78	60896.06
570.95	60680.73
571.11	60825.84
571.27	60839.89
571.43	60715.84
571.60	60985.00
571.76	60720.52
571.92	60872.65
572.09	60839.89
572.25	60874.99
572.41	60760.31
572.57	61034.15
572.74	60996.70
572.90	60739.24
573.06	60842.23
573.22	60809.46
573.38	60750.94
573.55	60891.38
573.71	61254.16
573.87	60786.05
574.03	60779.03
574.20	60905.42
574.36	60954.57
574.52	60903.08
574.68	61109.05
574.84	61254.16
575.01	60954.57
575.17	60849.25
575.33	60893.72
575.49	60865.63
575.65	61024.79
575.82	60968.61
575.98	61020.11
576.14	61172.24
576.30	61176.92
576.46	60872.65
576.62	61003.72
576.79	60898.40
576.95	60786.05
577.11	61020.11
577.27	61279.91
577.43	61080.96
577.59	61109.05
577.75	61104.37
577.92	60706.47
578.08	60830.52
578.24	60999.04
578.40	61041.17
578.56	61169.90
578.72	61104.37
578.88	61251.82
579.04	61146.50
579.21	61270.54
579.37	61371.19
579.53	61331.40
579.69	60977.98
579.85	60900.74
580.01	61233.10
580.17	61029.47
580.33	61144.16
580.49	61205.01
580.65	60961.59
580.82	61186.28
580.98	60917.12
581.14	60851.59
581.30	61279.91
581.46	60945.21
581.62	61214.37
581.78	61268.20
581.94	61052.87
582.10	61050.53
582.26	61186.28
582.42	60980.32
582.58	61141.81
582.74	61193.31
582.90	61102.03
583.06	61158.20
583.22	61289.27
583.38	61359.48
583.54	61095.00
583.70	61076.28
583.86	61310.33
584.02	61048.19
584.18	61050.53
584.34	61258.84
584.50	61104.37
584.66	61057.56
584.82	61043.51
584.98	61401.61
585.14	61223.73
585.30	61179.26
585.46	61298.63
585.62	61254.16
585.78	61286.93
585.94	61212.03
586.10	61176.92
586.26	61209.69
586.42	61310.33
586.58	61240.12
586.74	61270.54
586.90	61167.56
587.06	61116.07
587.22	61296.29
587.38	61488.21
587.54	61474.17
587.70	61450.77
587.86	61277.57
588.02	61375.87
588.18	61343.10
588.34	61387.57
