SpectraSuite Data File
++++++++++++++++++++++++++++++++++++
Date: Fri Oct 25 11:23:10 EDT 2013
User: price-jones
Dark Spectrum Present: No
Reference Spectrum Present: No
Number of Sampled Component Spectra: 1
Spectrometers: USB2+H05261
Integration Time (usec): 100000 (USB2+H05261)
Spectra Averaged: 1 (USB2+H05261)
Boxcar Smoothing: 0 (USB2+H05261)
Correct for Electrical Dark: No (USB2+H05261)
Strobe/Lamp Enabled: No (USB2+H05261)
Correct for Detector Non-linearity: No (USB2+H05261)
Correct for Stray Light: No (USB2+H05261)
Number of Pixels in Processed Spectrum: 2048
>>>>>Begin Processed Spectral Data<<<<<
365.73	210.65
365.92	210.65
366.12	210.65
366.32	182.56
366.52	135.75
366.72	135.75
366.91	0.00
367.11	102.98
367.31	81.92
367.51	140.43
367.70	121.71
367.90	161.50
368.10	74.90
368.30	98.30
368.49	100.64
368.69	100.64
368.89	156.82
369.09	145.11
369.28	161.50
369.48	170.86
369.68	203.63
369.87	149.79
370.07	236.39
370.27	252.78
370.47	292.57
370.66	535.98
370.86	657.69
371.06	650.67
371.25	667.05
371.45	678.76
371.65	723.23
371.84	746.63
372.04	662.37
372.24	723.23
372.44	732.59
372.63	781.74
372.83	784.08
373.03	734.93
373.22	770.04
373.42	760.67
373.62	765.36
373.81	688.12
374.01	807.48
374.21	779.40
374.40	791.10
374.60	933.87
374.79	777.06
374.99	765.36
375.19	688.12
375.38	781.74
375.58	861.32
375.78	774.72
375.97	898.77
376.17	866.00
376.37	795.78
376.56	866.00
376.76	847.27
376.95	847.27
377.15	821.53
377.35	957.28
377.54	854.30
377.74	856.64
377.93	847.27
378.13	858.98
378.33	922.17
378.52	950.26
378.72	912.81
378.91	968.98
379.11	880.04
379.31	929.19
379.50	940.90
379.70	936.21
379.89	987.71
380.09	992.39
380.28	901.11
380.48	994.73
380.68	994.73
380.87	1057.92
381.07	1048.56
381.26	1020.47
381.46	952.60
381.65	1032.18
381.85	1032.18
382.04	1069.62
382.24	1081.33
382.43	1174.95
382.63	1104.73
382.83	1067.28
383.02	1149.20
383.22	1121.12
383.41	1132.82
383.61	1064.94
383.80	1149.20
384.00	1151.54
384.19	1125.80
384.39	1146.86
384.58	1118.78
384.78	1144.52
384.97	1156.22
385.17	1128.14
385.36	1163.25
385.56	1219.42
385.75	1146.86
385.95	1221.76
386.14	1156.22
386.34	1212.40
386.53	1266.23
386.72	1275.59
386.92	1291.98
387.11	1261.55
387.31	1214.74
387.50	1252.19
387.70	1282.61
387.89	1308.36
388.09	1224.10
388.28	1296.66
388.48	1270.91
388.67	1299.00
388.86	1334.11
389.06	1387.94
389.25	1394.96
389.45	1327.08
389.64	1331.76
389.84	1352.83
390.03	1437.09
390.22	1359.85
390.42	1364.53
390.61	1479.22
390.81	1399.64
391.00	1387.94
391.19	1434.75
391.39	1509.65
391.58	1467.52
391.78	1497.94
391.97	1549.43
392.16	1554.12
392.36	1523.69
392.55	1460.49
392.75	1591.56
392.94	1469.86
393.13	1495.60
393.33	1493.26
393.52	1526.03
393.71	1511.99
393.91	1708.59
394.10	1605.61
394.29	1612.63
394.49	1561.14
394.68	1626.67
394.88	1572.84
395.07	1713.27
395.26	1727.32
395.46	1675.82
395.65	1734.34
395.84	1696.89
396.04	1823.28
396.23	1764.76
396.42	1825.62
396.62	1781.15
396.81	1764.76
397.00	1781.15
397.19	1741.36
397.39	1813.92
397.58	1842.00
397.77	1874.77
397.97	1846.68
398.16	1802.21
398.35	1874.77
398.55	1867.75
398.74	1928.60
398.93	1893.49
399.12	1846.68
399.32	1870.09
399.51	1884.13
399.70	2073.71
399.90	2036.27
400.09	1956.69
400.28	1977.75
400.47	2064.35
400.67	2216.49
400.86	2083.08
401.05	2150.95
401.24	2040.95
401.44	2162.66
401.63	2087.76
401.82	2143.93
402.01	2113.50
402.21	2251.60
402.40	2193.08
402.59	2242.23
402.78	2157.97
402.97	2265.64
403.17	2314.79
403.36	2211.81
403.55	2361.60
403.74	2370.96
403.93	2279.68
404.13	2441.18
404.32	2361.60
404.51	2272.66
404.70	2385.01
404.89	2436.50
405.09	2567.57
405.28	2513.74
405.47	2490.33
405.66	2413.09
405.85	2637.78
406.05	2523.10
406.24	2445.86
406.43	2586.29
406.62	2647.15
406.81	2745.45
407.00	2679.91
407.20	2614.38
407.39	2679.91
407.58	2703.32
407.77	2780.56
407.96	2799.28
408.15	2682.25
408.34	2633.10
408.54	2771.19
408.73	2820.35
408.92	2860.13
409.11	2780.56
409.30	2888.22
409.49	3021.63
409.68	2974.82
409.87	3005.25
410.07	2930.35
410.26	3038.02
410.45	3007.59
410.64	3040.36
410.83	3101.21
411.02	3054.40
411.21	3222.92
411.40	3110.57
411.59	3342.28
411.78	3197.17
411.98	3225.26
412.17	3269.73
412.36	3424.20
412.55	3213.56
412.74	3398.46
412.93	3576.34
413.12	3435.91
413.31	3644.21
413.50	3609.11
413.69	3482.72
413.88	3559.95
414.07	3684.00
414.26	3733.15
414.45	3719.11
414.64	3496.76
414.83	3744.86
415.02	3754.22
415.22	3981.25
415.41	3838.48
415.60	3911.04
415.79	3997.64
415.98	4119.34
416.17	4016.36
416.36	4072.53
416.55	4095.94
416.74	4170.83
416.93	4058.49
417.12	4196.58
417.31	4201.26
417.50	4187.22
417.69	4255.09
417.88	4372.12
418.07	4245.73
418.26	4266.80
418.45	4528.94
418.64	4512.55
418.83	4524.26
419.02	4461.06
419.21	4517.23
419.39	4500.85
419.58	4573.41
419.77	4423.61
419.96	4542.98
420.15	4678.73
420.34	4720.86
420.53	4578.09
420.72	4732.56
420.91	4868.31
421.10	4774.69
421.29	4915.12
421.48	4777.03
421.67	4685.75
421.86	4765.33
422.05	4746.61
422.24	4826.18
422.43	4915.12
422.61	4936.19
422.80	5013.43
422.99	4961.94
423.18	4990.02
423.37	4952.57
423.56	4959.60
423.75	4821.50
423.94	4847.25
424.13	4669.37
424.32	4770.01
424.50	5027.47
424.69	5198.33
424.88	5095.35
425.07	5097.69
425.26	4734.90
425.45	4936.19
425.64	5102.37
425.83	5025.13
426.01	5071.94
426.20	5018.11
426.39	5146.84
426.58	5071.94
426.77	5109.39
426.96	5355.15
427.15	5289.61
427.33	5252.16
427.52	5160.88
427.71	5348.12
427.90	5352.81
428.09	5521.32
428.28	5444.09
428.46	5427.70
428.65	5324.72
428.84	5582.18
429.03	5575.16
429.22	5324.72
429.40	5563.45
429.59	5551.75
429.78	5322.38
429.97	5275.57
430.16	5607.92
430.34	5547.07
430.53	5767.08
430.72	5643.03
430.91	5738.99
431.10	5563.45
431.28	5748.36
431.47	5841.98
431.66	5760.06
431.85	5923.90
432.03	5954.32
432.22	6064.33
432.41	5942.62
432.60	6040.92
432.79	5951.98
432.97	5980.07
433.16	6108.80
433.35	5893.47
433.54	6134.54
433.72	6284.34
433.91	6209.44
434.10	6225.82
434.28	6150.93
434.47	6223.48
434.66	6186.04
434.85	6333.49
435.03	6282.00
435.22	6188.38
435.41	6436.47
435.59	6382.64
435.78	6558.18
435.97	6492.65
436.16	6490.31
436.34	6499.67
436.53	6506.69
436.72	6661.16
436.90	6471.58
437.09	6759.47
437.28	6431.79
437.46	6703.29
437.65	6600.31
437.84	6815.64
438.02	6836.70
438.21	6906.92
438.40	6729.04
438.58	7213.53
438.77	7321.20
438.96	7054.37
439.14	7206.51
439.33	7148.00
439.52	7208.85
439.70	7250.98
439.89	7293.11
440.08	7489.71
440.26	7232.26
440.45	7438.22
440.63	7510.78
440.82	7714.41
441.01	7571.63
441.19	7719.09
441.38	7777.60
441.57	7742.49
441.75	7810.37
441.94	8049.10
442.12	7990.59
442.31	8257.41
442.50	8138.04
442.68	8006.97
442.87	8021.02
443.05	7885.26
443.24	8264.43
443.43	8269.11
443.61	8297.20
443.80	8542.96
443.98	8184.85
444.17	7939.10
444.35	8367.42
444.54	8432.95
444.73	8264.43
444.91	8374.44
445.10	8458.70
445.28	8339.33
445.47	8430.61
445.65	8514.87
445.84	8547.64
446.02	8442.31
446.21	8442.31
446.39	8461.04
446.58	8652.96
446.77	8596.79
446.95	8236.35
447.14	8557.00
447.32	8589.77
447.51	8554.66
447.69	8744.24
447.88	8608.49
448.06	8622.53
448.25	8784.03
448.43	8510.19
448.62	8596.79
448.80	8578.06
448.99	8671.68
449.17	8772.33
449.36	8615.51
449.54	8786.37
449.73	8987.66
449.91	8929.14
450.10	9123.41
450.28	9207.67
450.46	9174.90
450.65	9320.01
450.83	9074.26
451.02	9137.45
451.20	9514.28
451.39	9413.63
451.57	9092.98
451.76	9270.86
451.94	9263.84
452.13	9322.35
452.31	9350.44
452.49	9284.91
452.68	9411.29
452.86	9413.63
453.05	9423.00
453.23	9647.69
453.42	9612.58
453.60	9474.49
453.78	9727.27
453.97	9528.32
454.15	9577.47
454.34	9528.32
454.52	9687.48
454.70	9912.17
454.89	9905.15
455.07	9930.89
455.26	10059.62
455.44	10061.96
455.62	10043.24
455.81	10078.35
455.99	10223.46
456.17	10146.22
456.36	10073.67
456.54	10153.24
456.73	10293.68
456.91	10562.84
457.09	10443.47
457.28	10537.09
457.46	10317.08
457.64	10714.97
457.83	10616.67
458.01	10640.08
458.19	10747.74
458.38	10635.39
458.56	10808.59
458.74	10836.68
458.93	10796.89
459.11	10832.00
459.29	10988.82
459.48	10717.31
459.66	10995.84
459.84	11056.69
460.03	11169.04
460.21	11215.85
460.39	10979.45
460.57	11309.47
460.76	11110.52
460.94	11405.43
461.12	11393.73
461.31	11428.84
461.49	11145.63
461.67	11309.47
461.85	11473.31
462.04	11655.87
462.22	11592.67
462.40	11875.88
462.59	11810.34
462.77	11618.42
462.95	11751.83
463.13	11538.84
463.32	11754.17
463.50	11948.43
463.68	11793.96
463.86	12032.69
464.05	11875.88
464.23	11646.51
464.41	11903.96
464.59	11997.59
464.78	11978.86
464.96	12652.94
465.14	12058.44
465.32	12119.29
465.50	12325.26
465.69	12299.52
465.87	12241.00
466.05	12395.48
466.23	12402.50
466.41	12271.43
466.60	12711.45
466.78	12414.20
466.96	12446.97
467.14	12173.13
467.32	12318.24
467.51	12779.32
467.69	12320.58
467.87	12489.10
468.05	12655.28
468.23	12531.23
468.41	12594.42
468.60	12835.50
468.78	12868.27
468.96	12521.87
469.14	13046.15
469.32	13083.59
469.50	12872.95
469.69	13455.74
469.87	13149.13
470.05	13348.08
470.23	13207.64
470.41	13394.89
470.59	13408.93
470.77	13392.55
470.95	13364.46
471.14	13591.49
471.32	13266.16
471.50	13661.71
471.68	13570.43
471.86	13788.10
472.04	13884.06
472.22	14410.68
472.40	13841.93
472.58	13891.08
472.77	14232.80
472.95	14148.54
473.13	14569.83
473.31	14211.73
473.49	14504.30
473.67	14574.52
473.85	14445.79
474.03	14977.09
474.21	14806.23
474.39	14934.96
474.57	14792.19
474.75	14949.00
474.93	15150.29
475.12	15016.88
475.30	15288.38
475.48	15461.58
475.66	15428.81
475.84	15461.58
476.02	15435.83
476.20	15580.95
476.38	16042.03
476.56	15992.88
476.74	16252.68
476.92	16194.17
477.10	16137.99
477.28	16290.13
477.46	16170.76
477.64	16650.57
477.82	16924.41
478.00	17095.27
478.18	16737.17
478.36	16870.58
478.54	17376.14
478.72	17542.32
478.90	17614.87
479.08	17493.16
479.26	17717.86
479.44	18038.51
479.62	18207.03
479.80	18174.26
479.98	18307.67
480.16	18661.09
480.34	18637.69
480.52	18567.47
480.70	19009.83
480.88	18380.23
481.06	18939.62
481.24	19164.31
481.41	19426.45
481.59	19704.97
481.77	19683.91
481.95	19789.23
482.13	20072.43
482.31	20037.33
482.49	20795.66
482.67	20070.09
482.85	20615.44
483.03	20613.10
483.21	21123.33
483.39	21317.60
483.57	21092.91
483.74	21589.10
483.92	21619.53
484.10	21525.91
484.28	21788.05
484.46	22214.02
484.64	22483.19
484.82	21986.99
485.00	22735.96
485.18	22944.27
485.35	23197.05
485.53	23136.20
485.71	23405.36
485.89	23660.48
486.07	23723.67
486.25	23814.95
486.43	23758.78
486.61	23821.97
486.78	24299.44
486.96	24620.10
487.14	24655.20
487.32	25078.84
487.50	25357.36
487.68	25125.65
487.85	25469.71
488.03	25902.71
488.21	26244.43
488.39	25993.99
488.57	26342.73
488.75	26735.94
488.92	26717.22
489.10	27351.50
489.28	27140.85
489.46	27337.46
489.64	27229.79
489.81	27871.10
489.99	27913.23
490.17	28360.27
490.35	28500.70
490.53	28526.45
490.70	28484.32
490.88	28376.66
491.06	29013.28
491.24	29244.99
491.41	29422.87
491.59	29635.86
491.77	29528.20
491.95	29652.25
492.13	30050.14
492.30	30532.29
492.48	30045.46
492.66	30918.48
492.84	30515.90
493.01	31302.32
493.19	30635.27
493.37	31515.31
493.54	31384.24
493.72	31821.92
493.90	31634.68
494.08	31803.20
494.25	32355.57
494.43	32652.81
494.61	32723.03
494.79	32900.91
494.96	32851.76
495.14	32985.17
495.32	33448.60
495.49	33404.13
495.67	33507.11
495.85	34293.53
496.02	34319.28
496.20	34164.80
496.38	33989.26
496.55	34293.53
496.73	35353.79
496.91	34731.21
497.09	35651.04
497.26	34991.01
497.44	35098.67
497.62	35576.14
497.79	35887.43
497.97	35679.13
498.14	36840.03
498.32	36165.96
498.50	36533.42
498.67	37067.06
498.85	36840.03
499.03	37137.28
499.20	37163.03
499.38	37469.64
499.56	37589.00
499.73	37551.56
499.91	37549.21
500.08	38146.05
500.26	37926.04
500.44	38038.39
500.61	38281.80
500.79	38244.35
500.97	38457.34
501.14	38916.09
501.32	38983.96
501.49	39037.80
501.67	39016.73
501.84	39370.15
502.02	39454.41
502.20	39599.52
502.37	39615.91
502.55	39758.68
502.72	39793.79
502.90	40084.01
503.07	39686.12
503.25	40371.90
503.43	40423.39
503.60	40287.64
503.78	40304.02
503.95	40884.48
504.13	40903.20
504.30	40961.72
504.48	40844.69
504.65	41549.19
504.83	41240.24
505.01	41701.32
505.18	41591.32
505.36	41965.81
505.53	41656.85
505.71	41659.20
505.88	42120.28
506.06	42674.99
506.23	42323.91
506.41	42096.88
506.58	42574.34
506.76	42700.73
506.93	42679.67
507.11	42719.46
507.28	42813.08
507.46	43330.34
507.63	43232.04
507.81	43861.64
507.98	43400.55
508.16	43697.80
508.33	43903.77
508.50	43838.23
508.68	43704.82
508.85	44828.28
509.03	44051.22
509.20	44446.77
509.38	44814.24
509.55	44891.48
509.73	44949.99
509.90	44835.30
510.08	45179.36
510.25	45289.37
510.42	45209.79
510.60	45478.95
510.77	45762.15
510.95	45890.88
511.12	45544.48
511.30	46038.34
511.47	45975.14
511.64	45783.22
511.82	46012.59
511.99	46209.20
512.17	46117.92
512.34	46330.90
512.51	46941.78
512.69	47047.11
512.86	46780.29
513.04	46927.74
513.21	46944.12
513.38	47232.01
513.56	47564.37
513.73	47192.22
513.90	47426.28
514.08	47281.16
514.25	47910.77
514.43	48046.52
514.60	47573.73
514.77	47749.27
514.95	48034.81
515.12	48079.28
515.29	47861.61
515.47	48130.78
515.64	48641.01
515.81	48378.87
515.99	48762.72
516.16	48718.25
516.33	48786.13
516.51	49043.59
516.68	49074.01
516.85	49062.31
517.03	49535.10
517.20	49464.88
517.37	49069.33
517.54	49048.27
517.72	49375.94
517.89	49607.65
518.06	49801.92
518.24	49532.76
518.41	49734.04
518.58	49844.05
518.75	49471.90
518.93	50052.36
519.10	50078.10
519.27	50071.08
519.45	50279.39
519.62	50719.41
519.79	50436.20
519.96	50183.43
520.14	50461.95
520.31	50684.30
520.48	50951.12
520.65	50969.85
520.83	51114.96
521.00	50904.31
521.17	50892.61
521.34	50955.80
521.52	51325.61
521.69	51510.51
521.86	51442.63
522.03	51594.77
522.20	51625.20
522.38	51934.15
522.55	51866.27
522.72	51917.76
522.89	51756.27
523.07	51966.91
523.24	51955.21
523.41	52191.61
523.58	51917.76
523.75	52406.94
523.92	52020.75
524.10	52200.97
524.27	52657.37
524.44	52392.89
524.61	52739.29
524.78	52561.41
524.96	52722.91
525.13	52552.05
525.30	52919.51
525.47	52949.94
525.64	52942.92
525.81	52898.45
525.98	53272.93
526.16	53059.94
526.33	53179.31
526.50	53401.66
526.67	53148.88
526.84	53462.52
527.01	53137.18
527.18	53160.59
527.36	53464.86
527.53	53588.91
527.70	53769.13
527.87	53659.12
528.04	53712.95
528.21	53715.29
528.38	53394.64
528.55	53914.24
528.72	53661.46
528.89	53584.22
529.07	53638.06
529.24	53619.33
529.41	54005.52
529.58	53701.25
529.75	54197.44
529.92	53947.01
530.09	54003.18
530.26	54459.58
530.43	54391.71
530.60	54014.88
530.77	54354.26
530.94	54363.62
531.11	54457.24
531.28	54595.34
531.46	54618.74
531.63	54466.61
531.80	54639.81
531.97	54937.05
532.14	54859.82
532.31	54548.53
532.48	54794.28
532.65	54887.90
532.82	54883.22
532.99	55044.72
533.16	54979.18
533.33	55409.84
533.50	55334.95
533.67	55110.25
533.84	54923.01
534.01	55061.10
534.18	55302.18
534.35	55622.83
534.52	55545.59
534.69	55606.45
534.86	55618.15
535.03	55498.78
535.20	55601.77
535.37	55522.19
535.54	55601.77
535.71	55491.76
535.88	55812.41
536.05	56163.50
536.22	55777.31
536.38	55910.72
536.55	55686.03
536.72	55774.97
536.89	55732.84
537.06	55760.92
537.23	56203.28
537.40	55868.59
537.57	56207.97
537.74	55943.48
537.91	56491.17
538.08	56053.49
538.25	55920.08
538.42	56044.13
538.59	56647.99
538.75	56264.14
538.92	56442.02
539.09	56645.65
539.26	56320.31
539.43	56563.73
539.60	56636.28
539.77	56692.46
539.94	56722.88
540.11	56746.29
540.28	56659.69
540.44	56479.47
540.61	56774.37
540.78	56633.94
540.95	56765.01
541.12	56846.93
541.29	56844.59
541.46	56917.15
541.62	56715.86
541.79	57106.73
541.96	56577.77
542.13	56856.29
542.30	57015.45
542.47	57085.67
542.63	57034.17
542.80	57258.87
542.97	57291.63
543.14	57436.75
543.31	57441.43
543.48	57422.70
543.64	57682.50
543.81	57602.92
543.98	57762.08
544.15	57766.76
544.32	57708.25
544.48	57825.28
544.65	57448.45
544.82	57696.55
544.99	57352.49
545.16	57799.53
545.32	57757.40
545.49	57982.09
545.66	58073.37
545.83	58089.76
546.00	58094.44
546.16	57935.28
546.33	57668.46
546.50	57673.14
546.67	57958.69
546.83	57836.98
547.00	58209.12
547.17	58028.90
547.34	58141.25
547.50	58447.86
547.67	58291.04
547.84	58113.16
548.00	58354.24
548.17	58632.76
548.34	58412.75
548.51	58403.39
548.67	58389.34
548.84	58429.13
549.01	58309.77
549.18	58457.22
549.34	58333.17
549.51	58550.84
549.68	58632.76
549.84	58630.42
550.01	58838.73
550.18	58543.82
550.34	58782.55
550.51	58890.22
550.68	58815.32
550.84	58417.43
551.01	58766.17
551.18	58721.70
551.34	58808.30
551.51	58862.13
551.68	58864.47
551.84	58798.94
552.01	58639.78
552.18	58941.71
552.34	58805.96
552.51	59121.93
552.68	58864.47
552.84	58740.42
553.01	59192.15
553.18	58927.67
553.34	58897.24
553.51	58948.73
553.67	59180.45
553.84	59072.78
554.01	59398.12
554.17	59367.69
554.34	59344.28
554.51	59168.74
554.67	59297.47
554.84	59175.76
555.00	59285.77
555.17	59042.35
555.33	59571.32
555.50	59348.96
555.67	59419.18
555.83	59128.95
556.00	59377.05
556.16	59723.45
556.33	59423.86
556.50	59367.69
556.66	59831.11
556.83	59377.05
556.99	59557.27
557.16	59753.88
557.32	59793.67
557.49	59833.46
557.65	59503.44
557.82	59447.27
557.98	59859.20
558.15	59494.08
558.32	59756.22
558.48	59625.15
558.65	59765.58
558.81	59880.27
558.98	59791.33
559.14	59948.14
559.31	59983.25
559.47	59969.21
559.64	59973.89
559.80	60046.44
559.97	60060.49
560.13	59798.35
560.30	60137.72
560.46	60027.72
560.63	60048.78
560.79	59983.25
560.96	60065.17
561.12	60032.40
561.29	60170.49
561.45	60280.50
561.61	60030.06
561.78	60238.37
561.94	60217.30
562.11	60137.72
562.27	60212.62
562.44	60266.45
562.60	60271.14
562.77	60205.60
562.93	59889.63
563.10	60348.37
563.26	60250.07
563.42	60477.10
563.59	60282.84
563.75	60254.75
563.92	60488.80
564.08	60039.42
564.24	60486.46
564.41	60374.12
564.57	60477.10
564.74	60446.68
564.90	60437.31
565.07	60385.82
565.23	60336.67
565.39	60196.24
565.56	60301.56
565.72	60566.04
565.88	60582.43
566.05	60542.64
566.21	60519.23
566.38	60423.27
566.54	60680.73
566.70	60673.71
566.87	60568.38
567.03	60465.40
567.19	60664.35
567.36	60397.52
567.52	60343.69
567.68	60779.03
567.85	60526.25
568.01	60509.87
568.17	60493.49
568.34	60790.73
568.50	60594.13
568.66	60584.77
568.83	60685.41
568.99	60533.28
569.15	60662.00
569.32	60704.13
569.48	60547.32
569.64	60753.29
569.81	60537.96
569.97	60683.07
570.13	60821.16
570.30	60725.20
570.46	60872.65
570.62	60816.48
570.78	60779.03
570.95	60582.43
571.11	61076.28
571.27	60694.77
571.43	60886.70
571.60	61092.66
571.76	60669.03
571.92	60849.25
572.09	60713.50
572.25	61120.75
572.41	60795.42
572.57	60800.10
572.74	61001.38
572.90	60982.66
573.06	61139.47
573.22	60853.93
573.38	60746.26
573.55	61031.81
573.71	61031.81
573.87	60907.76
574.03	60757.97
574.20	60872.65
574.36	60863.29
574.52	60994.36
574.68	60940.53
574.84	61083.30
575.01	61041.17
575.17	61015.43
575.33	61162.88
575.49	60900.74
575.65	60992.02
575.82	60996.70
575.98	61050.53
576.14	61160.54
576.30	61258.84
576.46	60753.29
576.62	60865.63
576.79	61052.87
576.95	60858.61
577.11	61165.22
577.27	61205.01
577.43	61219.05
577.59	60809.46
577.75	61076.28
577.92	60837.54
578.08	61125.43
578.24	61165.22
578.40	61113.73
578.56	61109.05
578.72	60970.96
578.88	61162.88
579.04	61256.50
579.21	61090.32
579.37	61038.83
579.53	61352.46
579.69	60949.89
579.85	61013.08
580.01	61071.60
580.17	60996.70
580.33	61249.48
580.49	61249.48
580.65	61429.70
580.82	61087.98
580.98	61174.58
581.14	60963.93
581.30	61045.85
581.46	61179.26
581.62	61247.14
581.78	61003.72
581.94	61254.16
582.10	61221.39
582.26	61200.33
582.42	61123.09
582.58	61263.52
582.74	61190.97
582.90	61429.70
583.06	61240.12
583.22	61045.85
583.38	61130.11
583.54	61137.13
583.70	61212.03
583.86	61307.99
584.02	61151.18
584.18	61200.33
584.34	60992.02
584.50	61406.30
584.66	61139.47
584.82	60832.86
584.98	61296.29
585.14	61160.54
585.30	61106.71
585.46	61195.65
585.62	61172.24
585.78	61506.94
585.94	61305.65
586.10	61212.03
586.26	61298.63
586.42	61420.34
586.58	61396.93
586.74	61109.05
586.90	61319.70
587.06	61247.14
587.22	61525.66
587.38	61399.27
587.54	61481.19
587.70	61467.15
587.86	61450.77
588.02	61298.63
588.18	61516.30
588.34	61214.37
588.49	61219.05
