SpectraSuite Data File
++++++++++++++++++++++++++++++++++++
Date: Fri Oct 25 11:34:16 EDT 2013
User: price-jones
Dark Spectrum Present: No
Reference Spectrum Present: No
Number of Sampled Component Spectra: 1
Spectrometers: USB2+H05261
Integration Time (usec): 100000 (USB2+H05261)
Spectra Averaged: 1 (USB2+H05261)
Boxcar Smoothing: 0 (USB2+H05261)
Correct for Electrical Dark: No (USB2+H05261)
Strobe/Lamp Enabled: No (USB2+H05261)
Correct for Detector Non-linearity: No (USB2+H05261)
Correct for Stray Light: No (USB2+H05261)
Number of Pixels in Processed Spectrum: 2048
>>>>>Begin Processed Spectral Data<<<<<
365.73	248.10
365.92	248.10
366.12	248.10
366.32	241.08
366.52	201.29
366.72	177.88
366.91	201.29
367.11	196.60
367.31	138.09
367.51	166.18
367.70	145.11
367.90	175.54
368.10	203.63
368.30	126.39
368.49	198.95
368.69	175.54
368.89	173.20
369.09	273.84
369.28	191.92
369.48	182.56
369.68	196.60
369.87	208.31
370.07	283.20
370.27	238.73
370.47	304.27
370.66	496.19
370.86	517.26
371.06	533.64
371.25	585.13
371.45	608.54
371.65	613.22
371.84	573.43
372.04	545.34
372.24	610.88
372.44	589.82
372.63	667.05
372.83	594.50
373.03	615.56
373.22	599.18
373.42	622.58
373.62	571.09
373.81	622.58
374.01	685.78
374.21	688.12
374.40	624.92
374.60	641.31
374.79	641.31
374.99	702.16
375.19	636.63
375.38	734.93
375.58	657.69
375.78	739.61
375.97	671.73
376.17	678.76
376.37	695.14
376.56	727.91
376.76	683.44
376.95	713.86
377.15	692.80
377.35	641.31
377.54	601.52
377.74	648.33
377.93	676.41
378.13	674.07
378.33	746.63
378.52	695.14
378.72	667.05
378.91	692.80
379.11	685.78
379.31	720.88
379.50	732.59
379.70	760.67
379.89	755.99
380.09	671.73
380.28	767.70
380.48	711.52
380.68	692.80
380.87	718.54
381.07	770.04
381.26	716.20
381.46	847.27
381.65	713.86
381.85	774.72
382.04	741.95
382.24	716.20
382.43	704.50
382.63	760.67
382.83	697.48
383.02	809.83
383.22	772.38
383.41	793.44
383.61	753.65
383.80	723.23
384.00	723.23
384.19	781.74
384.39	732.59
384.58	737.27
384.78	821.53
384.97	786.42
385.17	863.66
385.36	830.89
385.56	819.19
385.75	751.31
385.95	805.14
386.14	891.74
386.34	868.34
386.53	777.06
386.72	866.00
386.92	873.02
387.11	884.72
387.31	856.64
387.50	802.80
387.70	889.40
387.89	861.32
388.09	880.04
388.28	968.98
388.48	875.36
388.67	908.13
388.86	912.81
389.06	952.60
389.25	971.32
389.45	922.17
389.64	987.71
389.84	938.55
390.03	901.11
390.22	919.83
390.42	940.90
390.61	933.87
390.81	873.02
391.00	1022.81
391.19	917.49
391.39	1006.43
391.58	1043.88
391.78	1036.86
391.97	1011.11
392.16	1027.50
392.36	978.34
392.55	1039.20
392.75	1055.58
392.94	976.00
393.13	1039.20
393.33	1053.24
393.52	947.92
393.71	1064.94
393.91	1034.52
394.10	1057.92
394.29	1018.13
394.49	1069.62
394.68	1132.82
394.88	1144.52
395.07	1090.69
395.26	1064.94
395.46	1203.04
395.65	1165.59
395.84	1221.76
396.04	1174.95
396.23	1097.71
396.42	1135.16
396.62	1125.80
396.81	1196.01
397.00	1158.57
397.19	1193.67
397.39	1205.38
397.58	1252.19
397.77	1165.59
397.97	1184.31
398.16	1210.06
398.35	1331.76
398.55	1210.06
398.74	1231.12
398.93	1329.42
399.12	1207.72
399.32	1284.95
399.51	1270.91
399.70	1380.92
399.90	1366.87
400.09	1315.38
400.28	1401.98
400.47	1336.45
400.67	1416.02
400.86	1284.95
401.05	1303.68
401.24	1352.83
401.44	1427.73
401.63	1406.66
401.82	1420.71
402.01	1423.05
402.21	1427.73
402.40	1416.02
402.59	1453.47
402.78	1441.77
402.97	1474.54
403.17	1500.28
403.36	1423.05
403.55	1516.67
403.74	1561.14
403.93	1488.58
404.13	1502.62
404.32	1617.31
404.51	1565.82
404.70	1654.76
404.89	1540.07
405.09	1678.16
405.28	1668.80
405.47	1659.44
405.66	1605.61
405.85	1699.23
406.05	1624.33
406.24	1722.63
406.43	1694.55
406.62	1750.72
406.81	1743.70
407.00	1727.32
407.20	1732.00
407.39	1750.72
407.58	1682.85
407.77	1790.51
407.96	1788.17
408.15	1863.07
408.34	1844.34
408.54	1870.09
408.73	1776.47
408.92	1984.77
409.11	1849.02
409.30	1832.64
409.49	1874.77
409.68	2026.90
409.87	1954.35
410.07	1935.62
410.26	1963.71
410.45	2050.31
410.64	2001.16
410.83	2099.46
411.02	2122.87
411.21	2097.12
411.40	2097.12
411.59	2057.33
411.78	1982.43
411.98	2008.18
412.17	2118.18
412.36	2162.66
412.55	2277.34
412.74	2284.36
412.93	2216.49
413.12	2188.40
413.31	2401.39
413.50	2305.43
413.69	2415.43
413.88	2436.50
414.07	2338.20
414.26	2480.97
414.45	2380.32
414.64	2385.01
414.83	2572.25
415.02	2595.65
415.22	2583.95
415.41	2682.25
415.60	2532.46
415.79	2520.76
415.98	2593.31
416.17	2731.41
416.36	2532.46
416.55	2649.49
416.74	2719.70
416.93	2724.38
417.12	2822.69
417.31	2792.26
417.50	2789.92
417.69	2958.44
417.88	2932.69
418.07	2916.31
418.26	2939.71
418.45	2782.90
418.64	2913.97
418.83	2967.80
419.02	2998.23
419.21	3059.08
419.39	3030.99
419.58	2862.48
419.77	3063.76
419.96	3096.53
420.15	3155.04
420.34	2974.82
420.53	3030.99
420.72	3073.12
420.91	3054.40
421.10	3122.27
421.29	3318.88
421.48	3187.81
421.67	3176.11
421.86	3260.37
422.05	3236.96
422.24	3187.81
422.43	3286.11
422.61	3236.96
422.80	3358.67
422.99	3227.60
423.18	3255.69
423.37	3417.18
423.56	3454.63
423.75	3377.39
423.94	3283.77
424.13	3066.10
424.32	3002.91
424.50	3328.24
424.69	3342.28
424.88	3393.78
425.07	3176.11
425.26	3279.09
425.45	3281.43
425.64	3372.71
425.83	3424.20
426.01	3365.69
426.20	3400.80
426.39	3365.69
426.58	3304.84
426.77	3361.01
426.96	3496.76
427.15	3389.10
427.33	3536.55
427.52	3421.86
427.71	3487.40
427.90	3311.86
428.09	3536.55
428.28	3578.68
428.46	3611.45
428.65	3667.62
428.84	3728.47
429.03	3707.41
429.22	3613.79
429.40	3653.58
429.59	3555.27
429.78	3555.27
429.97	3529.53
430.16	3655.92
430.34	3700.39
430.53	3672.30
430.72	3712.09
430.91	3927.42
431.10	3789.33
431.28	3824.44
431.47	3852.52
431.66	3840.82
431.85	3859.54
432.03	3957.85
432.22	3946.14
432.41	4016.36
432.60	3969.55
432.79	4042.11
432.97	3934.44
433.16	3845.50
433.35	3943.80
433.54	3983.59
433.72	4081.89
433.91	4084.23
434.10	4149.77
434.28	4018.70
434.47	4217.65
434.66	4044.45
434.85	4344.03
435.03	4124.02
435.22	4145.09
435.41	4290.20
435.59	4252.75
435.78	4292.54
435.97	4344.03
436.16	4191.90
436.34	4297.22
436.53	4315.95
436.72	4367.44
436.90	4313.61
437.09	4325.31
437.28	4222.33
437.46	4386.16
437.65	4376.80
437.84	4388.50
438.02	4449.36
438.21	4505.53
438.40	4463.40
438.58	4547.66
438.77	4617.88
438.96	4704.48
439.14	4802.78
439.33	4800.44
439.52	4681.07
439.70	4788.74
439.89	4849.59
440.08	4898.74
440.26	4952.57
440.45	4805.12
440.63	4901.08
440.82	5004.07
441.01	4915.12
441.19	4968.96
441.38	5008.75
441.57	5097.69
441.75	4994.70
441.94	5305.99
442.12	5310.68
442.31	5172.58
442.50	5097.69
442.68	5221.74
442.87	5249.82
443.05	5315.36
443.24	5385.57
443.43	5432.38
443.61	5397.28
443.80	5481.53
443.98	5263.86
444.17	5144.50
444.35	5320.04
444.54	5570.48
444.73	5481.53
444.91	5338.76
445.10	5661.76
445.28	5540.05
445.47	5364.51
445.65	5413.66
445.84	5467.49
446.02	5607.92
446.21	5455.79
446.39	5352.81
446.58	5631.33
446.77	5526.00
446.95	5497.92
447.14	5490.90
447.32	5657.07
447.51	5687.50
447.69	5547.07
447.88	5500.26
448.06	5610.26
448.25	5673.46
448.43	5591.54
448.62	5547.07
448.80	5717.93
448.99	5713.25
449.17	5544.73
449.36	5596.22
449.54	5825.59
449.73	5928.58
449.91	5937.94
450.10	5771.76
450.28	5762.40
450.46	5916.87
450.65	5834.96
450.83	5919.21
451.02	5830.27
451.20	6045.60
451.39	5998.79
451.57	5937.94
451.76	5909.85
451.94	6031.56
452.13	6211.78
452.31	5980.07
452.49	5998.79
452.68	6104.12
452.86	6122.84
453.05	6083.05
453.23	6293.70
453.42	6214.12
453.60	6012.84
453.78	6134.54
453.97	6160.29
454.15	6169.65
454.34	6303.06
454.52	6356.90
454.70	6296.04
454.89	6438.81
455.07	6455.20
455.26	6352.21
455.44	6502.01
455.62	6469.24
455.81	6403.71
455.99	6366.26
456.17	6562.86
456.36	6537.12
456.54	6576.91
456.73	6707.98
456.91	6820.32
457.09	6988.84
457.28	6717.34
457.46	6642.44
457.64	6794.58
457.83	6967.77
458.01	6586.27
458.19	7000.54
458.38	6839.05
458.56	6932.67
458.74	7052.03
458.93	7164.38
459.11	6937.35
459.29	6967.77
459.48	7129.27
459.66	7073.10
459.84	7045.01
460.03	7197.15
460.21	7148.00
460.39	7286.09
460.57	7279.07
460.76	7222.89
460.94	7307.15
461.12	7332.90
461.31	7176.08
461.49	7136.29
461.67	7449.93
461.85	7424.18
462.04	7300.13
462.22	7978.89
462.40	7522.48
462.59	7302.47
462.77	7356.30
462.95	7599.72
463.13	7426.52
463.32	7606.74
463.50	7705.04
463.68	7552.91
463.86	7693.34
464.05	7634.83
464.23	7520.14
464.41	7644.19
464.59	7543.55
464.78	7840.79
464.96	7805.69
465.14	7702.70
465.32	7782.28
465.50	7950.80
465.69	7793.98
465.87	7714.41
466.05	7777.60
466.23	7866.54
466.41	7749.51
466.60	8060.80
466.78	7791.64
466.96	7861.86
467.14	8046.76
467.32	7953.14
467.51	7964.84
467.69	7765.90
467.87	8100.59
468.05	8095.91
468.23	7981.23
468.41	8063.15
468.60	8257.41
468.78	8145.06
468.96	8063.15
469.14	8175.49
469.32	8470.40
469.50	8308.90
469.69	8470.40
469.87	8332.31
470.05	8344.01
470.23	8414.23
470.41	8461.04
470.59	8557.00
470.77	8451.67
470.95	8542.96
471.14	8762.97
471.32	8608.49
471.50	8828.50
471.68	8723.18
471.86	8800.41
472.04	8809.78
472.22	8875.31
472.40	8720.84
472.58	8971.27
472.77	9013.40
472.95	9144.47
473.13	9500.23
473.31	9050.85
473.49	9231.07
473.67	9238.09
473.85	9172.56
474.03	9249.80
474.21	9575.13
474.39	9345.76
474.57	9511.94
474.75	9668.75
474.93	9593.86
475.12	9593.86
475.30	9823.23
475.48	9441.72
475.66	9610.24
475.84	9540.02
476.02	9792.80
476.20	9909.83
476.38	10260.91
476.56	10008.13
476.74	10244.52
476.92	10092.39
477.10	10136.86
477.28	10190.69
477.46	10134.52
477.64	10279.63
477.82	10518.37
478.00	10998.18
478.18	10808.59
478.36	10958.39
478.54	11077.76
478.72	10958.39
478.90	11143.29
479.08	11197.12
479.26	11377.34
479.44	11190.10
479.62	11342.24
479.80	11733.11
479.98	11480.33
480.16	11885.24
480.34	11562.25
480.52	11768.21
480.70	11962.48
480.88	11779.92
481.06	11733.11
481.24	11969.50
481.41	12233.98
481.59	12175.47
481.77	12395.48
481.95	12425.90
482.13	12535.91
482.31	12521.87
482.49	12847.20
482.67	12926.78
482.85	12987.63
483.03	13305.95
483.21	13399.57
483.39	13209.98
483.57	13064.87
483.74	13591.49
483.92	13731.92
484.10	13303.60
484.28	13687.45
484.46	14071.30
484.64	14338.12
484.82	13926.19
485.00	14164.92
485.18	14354.51
485.35	14518.34
485.53	14441.11
485.71	14656.43
485.89	14916.23
486.07	14705.59
486.25	14813.25
486.43	15159.65
486.61	15129.22
486.78	15393.70
486.96	15147.95
487.14	15587.97
487.32	15735.42
487.50	15721.38
487.68	15925.00
487.85	16006.92
488.03	16189.49
488.21	16383.75
488.39	16423.54
488.57	16669.30
488.75	16805.05
488.92	16622.48
489.10	16994.63
489.28	17289.54
489.46	16950.16
489.64	17069.53
489.81	17444.01
489.99	17411.25
490.17	17497.84
490.35	17568.06
490.53	17792.75
490.70	18054.89
490.88	18104.04
491.06	18483.21
491.24	18277.24
491.41	18293.63
491.59	18574.49
491.77	18569.81
491.95	18792.16
492.13	18721.95
492.30	18963.02
492.48	18881.10
492.66	19197.07
492.84	19140.90
493.01	19412.40
493.19	19403.04
493.37	19356.23
493.54	19833.70
493.72	19857.10
493.90	19960.09
494.08	20032.65
494.25	20362.66
494.43	20357.98
494.61	20311.17
494.79	20561.61
494.96	20634.16
495.14	20467.98
495.32	21085.89
495.49	20936.09
495.67	21165.46
495.85	21205.25
496.02	21591.44
496.20	21561.02
496.38	21874.65
496.55	21619.53
496.73	21907.41
496.91	21968.27
497.09	22066.57
497.26	22036.14
497.44	22078.27
497.62	22204.66
497.79	22539.36
497.97	22609.58
498.14	22745.33
498.32	22878.74
498.50	22663.41
498.67	23246.20
498.85	22895.12
499.03	23213.43
499.20	23063.64
499.38	23648.77
499.56	23548.13
499.73	23686.22
499.91	23845.38
500.08	23843.04
500.26	23601.96
500.44	23697.92
500.61	23838.36
500.79	24072.41
500.97	23971.77
501.14	24240.93
501.32	24477.32
501.49	24395.40
501.67	24650.52
501.84	24737.12
502.02	24170.71
502.20	24875.21
502.37	24793.29
502.55	24453.92
502.72	24933.73
502.90	25188.85
503.07	25212.25
503.25	25118.63
503.43	25249.70
503.60	25142.03
503.78	25596.10
503.95	25418.22
504.13	25696.74
504.30	25773.98
504.48	25696.74
504.65	26080.59
504.83	26066.55
505.01	26167.19
505.18	26223.36
505.36	26443.37
505.53	26560.40
505.71	26415.29
505.88	26239.75
506.06	26246.77
506.23	26511.25
506.41	26827.22
506.58	26890.41
506.76	26714.87
506.93	27260.22
507.11	26883.39
507.28	26967.65
507.46	27267.24
507.63	27381.93
507.81	27435.76
507.98	27496.61
508.16	27505.98
508.33	27700.24
508.50	27557.47
508.68	27695.56
508.85	28229.20
509.03	27573.85
509.20	28025.57
509.38	28301.76
509.55	27964.72
509.73	28208.14
509.90	28521.77
510.08	28346.23
510.25	28601.35
510.42	28517.09
510.60	28634.11
510.77	28620.07
510.95	28807.31
511.12	28907.96
511.30	28393.04
511.47	28851.78
511.64	29048.39
511.82	29443.94
511.99	29221.59
512.17	29387.77
512.34	29347.98
512.51	29614.80
512.69	29926.09
512.86	29617.14
513.04	30331.00
513.21	29654.59
513.38	29635.86
513.56	30174.19
513.73	29607.78
513.90	30101.63
514.08	30087.59
514.25	30347.39
514.43	30459.73
514.60	30572.08
514.77	30932.52
514.95	30576.76
515.12	30771.02
515.29	30604.84
515.47	30829.54
515.64	31098.70
515.81	30562.72
515.99	30934.86
516.16	31288.28
516.33	31442.76
516.51	31189.98
516.68	31323.39
516.85	31321.05
517.03	31906.18
517.20	31487.23
517.37	31250.83
517.54	31866.39
517.72	31716.60
517.89	31948.31
518.06	31859.37
518.24	31948.31
518.41	31789.16
518.58	31861.71
518.75	31955.33
518.93	32486.64
519.10	32025.55
519.27	32376.63
519.45	32123.85
519.62	32814.31
519.79	32491.32
519.96	32275.99
520.14	32659.84
520.31	32233.86
520.48	32811.97
520.65	32790.91
520.83	33104.54
521.00	33109.22
521.17	33331.57
521.34	33174.75
521.52	33120.92
521.69	33415.83
521.86	33291.78
522.03	33383.06
522.20	33591.37
522.38	33876.91
522.55	33652.22
522.72	33692.01
522.89	33848.83
523.07	34848.24
523.24	34047.77
523.41	34061.82
523.58	33897.98
523.75	34286.51
523.92	34244.38
524.10	34260.76
524.27	34127.35
524.44	34354.38
524.61	34529.92
524.78	34244.38
524.96	34689.08
525.13	34497.16
525.30	35136.12
525.47	34904.41
525.64	34614.18
525.81	35351.45
525.98	35206.34
526.16	34747.59
526.33	35108.04
526.50	35491.88
526.67	34677.38
526.84	35225.06
527.01	35054.20
527.18	35339.75
527.36	35526.99
527.53	35356.13
527.70	35515.29
527.87	35983.40
528.04	35625.29
528.21	35573.80
528.38	35620.61
528.55	35910.84
528.72	35967.01
528.89	36325.11
529.07	36009.14
529.24	35728.28
529.41	36278.30
529.58	35964.67
529.75	36093.40
529.92	36346.18
530.09	36231.49
530.26	36247.88
530.43	36563.85
530.60	36268.94
530.77	36730.03
530.94	36538.10
531.11	36481.93
531.28	36889.18
531.46	36664.49
531.63	36596.62
531.80	36891.52
531.97	37027.28
532.14	36868.12
532.31	36964.08
532.48	37062.38
532.65	37221.54
532.82	37268.35
532.99	37401.76
533.16	36809.61
533.33	37387.72
533.50	37546.87
533.67	37230.90
533.84	37198.13
534.01	37928.38
534.18	37404.10
534.35	38040.73
534.52	37549.21
534.69	37715.39
534.86	37933.06
535.03	37537.51
535.20	37794.97
535.37	38066.47
535.54	38419.89
535.71	38132.01
535.88	38017.32
536.05	38300.53
536.22	38440.96
536.38	38412.87
536.55	38356.70
536.72	38279.46
536.89	38363.72
537.06	38490.11
537.23	38646.93
537.40	38499.47
537.57	38398.83
537.74	38871.62
537.91	38890.34
538.08	38813.10
538.25	38508.83
538.42	38768.63
538.59	38792.04
538.75	38707.78
538.92	39093.97
539.09	39332.70
539.26	39129.08
539.43	39316.32
539.60	39325.68
539.77	39285.89
539.94	39445.05
540.11	39477.82
540.28	39304.62
540.44	39632.29
540.61	39599.52
540.78	39175.89
540.95	39840.60
541.12	39519.95
541.29	39608.89
541.46	39510.58
541.62	39643.99
541.79	40257.21
541.96	39363.13
542.13	39779.74
542.30	40004.44
542.47	39693.15
542.63	39690.80
542.80	39880.39
542.97	40463.18
543.14	40631.70
543.31	40222.11
543.48	39931.88
543.64	40868.09
543.81	40676.17
543.98	40954.69
544.15	40580.21
544.32	40891.50
544.48	41240.24
544.65	40893.84
544.82	40762.77
544.99	40715.96
545.16	41134.92
545.32	41006.19
545.49	40926.61
545.66	41153.64
545.83	41312.80
546.00	41570.25
546.16	41029.59
546.33	40755.75
546.50	40921.93
546.67	41804.31
546.83	40748.73
547.00	41408.76
547.17	40793.20
547.34	41406.42
547.50	41581.96
547.67	41581.96
547.84	41476.63
548.00	41572.60
548.17	41778.56
548.34	41787.92
548.51	42082.83
548.67	41483.66
548.84	41937.72
549.01	41315.14
549.18	42050.06
549.34	41851.12
549.51	41926.02
549.68	42234.97
549.84	42171.77
550.01	42232.63
550.18	42103.90
550.34	41911.97
550.51	42094.53
550.68	42080.49
550.84	41832.39
551.01	42738.18
551.18	42050.06
551.34	42197.52
551.51	42326.25
551.68	42225.60
551.84	42082.83
552.01	42462.00
552.18	42396.46
552.34	42164.75
552.51	42974.58
552.68	42408.17
552.84	42536.90
553.01	42766.27
553.18	42452.64
553.34	42717.12
553.51	42693.71
553.67	42841.17
553.84	42873.93
554.01	42855.21
554.17	42946.49
554.34	43335.02
554.51	42639.88
554.67	43515.24
554.84	43229.69
555.00	43061.18
555.17	42990.96
555.33	43246.08
555.50	42904.36
555.67	43215.65
555.83	42897.34
556.00	43157.14
556.16	43758.66
556.33	43407.58
556.50	43480.13
556.66	43447.36
556.83	43152.46
556.99	43817.17
557.16	43821.85
557.32	43655.67
557.49	43882.70
557.65	43234.38
557.82	43428.64
557.98	43681.42
558.15	43599.50
558.32	43161.82
558.48	43482.47
558.65	43805.47
558.81	43749.29
558.98	43592.48
559.14	43555.03
559.31	43395.87
559.47	43721.21
559.64	43962.28
559.80	43824.19
559.97	44123.78
560.13	44322.72
560.30	44091.01
560.46	44081.65
560.63	44201.02
560.79	43601.84
560.96	44327.41
561.12	44095.69
561.29	44287.62
561.45	44348.47
561.61	43936.54
561.78	44186.97
561.94	44388.26
562.11	44091.01
562.27	44348.47
562.44	44605.93
562.60	44430.39
562.77	44350.81
562.93	44123.78
563.10	44547.42
563.26	44280.60
563.42	44964.03
563.59	44498.26
563.75	44406.98
563.92	44512.31
564.08	44189.31
564.24	44830.62
564.41	44430.39
564.57	44739.34
564.74	44657.42
564.90	44669.12
565.07	44755.72
565.23	44786.15
565.39	44746.36
565.56	44634.02
565.72	44863.39
565.88	44498.26
566.05	44411.67
566.21	44519.33
566.38	45191.06
566.54	45450.86
566.70	44669.12
566.87	44980.42
567.03	44282.94
567.19	44744.02
567.36	44708.91
567.52	44790.83
567.68	45170.00
567.85	44945.31
568.01	44802.53
568.17	44896.16
568.34	44910.20
568.50	45174.68
568.66	44737.00
568.83	44706.57
568.99	44748.70
569.15	45214.47
569.32	45155.96
569.48	44921.90
569.64	45287.03
569.81	45317.45
569.97	45155.96
570.13	45467.25
570.30	44924.24
570.46	44942.97
570.62	44994.46
570.78	45010.84
570.95	44882.11
571.11	45345.54
571.27	45148.93
571.43	44783.81
571.60	44978.07
571.76	45067.02
571.92	45298.73
572.09	44999.14
572.25	44964.03
572.41	45045.95
572.57	45212.13
572.74	45610.02
572.90	45343.20
573.06	45050.63
573.22	45127.87
573.38	45471.93
573.55	45598.32
573.71	45701.30
573.87	45497.67
574.03	45226.17
574.20	45876.84
574.36	45296.39
574.52	45677.90
574.68	45240.21
574.84	45579.59
575.01	45350.22
575.17	45354.90
575.33	45350.22
575.49	45301.07
575.65	45495.33
575.82	45738.75
575.98	45406.39
576.14	45991.53
576.30	45539.80
576.46	45572.57
576.62	45392.35
576.79	45551.51
576.95	44945.31
577.11	45434.48
577.27	45364.26
577.43	45488.31
577.59	45373.63
577.75	45464.91
577.92	45397.03
578.08	45184.04
578.24	45237.87
578.40	45806.62
578.56	45975.14
578.72	45631.08
578.88	45844.07
579.04	45413.41
579.21	45837.05
579.37	46033.66
579.53	45965.78
579.69	45425.12
579.85	45532.78
580.01	45785.56
580.17	45188.72
580.33	45724.71
580.49	45631.08
580.65	45923.65
580.82	45853.44
580.98	45713.00
581.14	45427.46
581.30	46075.79
581.46	45535.12
581.62	45310.43
581.78	45490.65
581.94	45783.22
582.10	45380.65
582.26	45708.32
582.42	45705.98
582.58	45918.97
582.74	45446.18
582.90	45792.58
583.06	45844.07
583.22	45771.52
583.38	45500.01
583.54	45839.39
583.70	45745.77
583.86	46026.63
584.02	45525.76
584.18	45888.54
584.34	45984.51
584.50	46366.01
584.66	46014.93
584.82	45778.54
584.98	46146.00
585.14	46351.97
585.30	45808.96
585.46	46080.47
585.62	45977.48
585.78	45713.00
585.94	45818.33
586.10	46003.23
586.26	45523.42
586.42	46258.35
586.58	46050.04
586.74	46010.25
586.90	45626.40
587.06	45413.41
587.22	46248.99
587.38	45949.40
587.54	45928.33
587.70	46237.28
587.86	46087.49
588.02	46190.47
588.18	45675.55
588.34	45954.08
588.49	46169.41
588.65	46071.10
588.81	45921.31
588.97	45970.46
589.13	45911.95
589.29	46340.27
589.45	46361.33
589.61	46017.27
589.77	46183.45
589.93	46248.99
590.08	46169.41
