SpectraSuite Data File
++++++++++++++++++++++++++++++++++++
Date: Fri Oct 25 11:26:14 EDT 2013
User: price-jones
Dark Spectrum Present: No
Reference Spectrum Present: No
Number of Sampled Component Spectra: 1
Spectrometers: USB2+H05261
Integration Time (usec): 100000 (USB2+H05261)
Spectra Averaged: 1 (USB2+H05261)
Boxcar Smoothing: 0 (USB2+H05261)
Correct for Electrical Dark: No (USB2+H05261)
Strobe/Lamp Enabled: No (USB2+H05261)
Correct for Detector Non-linearity: No (USB2+H05261)
Correct for Stray Light: No (USB2+H05261)
Number of Pixels in Processed Spectrum: 2048
>>>>>Begin Processed Spectral Data<<<<<
365.73	212.99
365.92	212.99
366.12	212.99
366.32	124.05
366.52	175.54
366.72	128.73
366.91	140.43
367.11	196.60
367.31	159.16
367.51	161.50
367.70	126.39
367.90	182.56
368.10	180.22
368.30	259.80
368.49	145.11
368.69	170.86
368.89	161.50
369.09	140.43
369.28	191.92
369.48	145.11
369.68	133.41
369.87	156.82
370.07	234.05
370.27	154.48
370.47	313.63
370.66	526.62
370.86	695.14
371.06	660.03
371.25	730.25
371.45	629.60
371.65	716.20
371.84	678.76
372.04	699.82
372.24	709.18
372.44	699.82
372.63	770.04
372.83	802.80
373.03	835.57
373.22	744.29
373.42	732.59
373.62	781.74
373.81	774.72
374.01	847.27
374.21	798.12
374.40	849.61
374.60	821.53
374.79	840.25
374.99	882.38
375.19	889.40
375.38	851.96
375.58	842.59
375.78	809.83
375.97	936.21
376.17	912.81
376.37	887.06
376.56	830.89
376.76	908.13
376.95	875.36
377.15	863.66
377.35	880.04
377.54	849.61
377.74	917.49
377.93	919.83
378.13	940.90
378.33	896.43
378.52	926.85
378.72	1001.75
378.91	912.81
379.11	945.58
379.31	1020.47
379.50	931.53
379.70	1029.84
379.89	1001.75
380.09	877.70
380.28	987.71
380.48	959.62
380.68	959.62
380.87	1008.77
381.07	1020.47
381.26	1107.07
381.46	1006.43
381.65	980.68
381.85	1104.73
382.04	1020.47
382.24	1081.33
382.43	973.66
382.63	999.41
382.83	1093.03
383.02	1088.35
383.22	1139.84
383.41	1097.71
383.61	1097.71
383.80	1167.93
384.00	1128.14
384.19	1109.41
384.39	1123.46
384.58	1156.22
384.78	1191.33
384.97	1160.91
385.17	1102.39
385.36	1128.14
385.56	1174.95
385.75	1191.33
385.95	1205.38
386.14	1186.65
386.34	1217.08
386.53	1137.50
386.72	1273.25
386.92	1261.55
387.11	1231.12
387.31	1322.40
387.50	1256.87
387.70	1224.10
387.89	1273.25
388.09	1273.25
388.28	1303.68
388.48	1366.87
388.67	1289.64
388.86	1252.19
389.06	1366.87
389.25	1198.35
389.45	1341.13
389.64	1366.87
389.84	1289.64
390.03	1387.94
390.22	1383.26
390.42	1334.11
390.61	1383.26
390.81	1394.96
391.00	1430.07
391.19	1404.32
391.39	1467.52
391.58	1509.65
391.78	1373.89
391.97	1394.96
392.16	1439.43
392.36	1596.25
392.55	1509.65
392.75	1589.22
392.94	1533.05
393.13	1514.33
393.33	1528.37
393.52	1528.37
393.71	1504.96
393.91	1579.86
394.10	1584.54
394.29	1605.61
394.49	1619.65
394.68	1652.42
394.88	1621.99
395.07	1689.87
395.26	1720.29
395.46	1729.66
395.65	1689.87
395.84	1778.81
396.04	1795.19
396.23	1792.85
396.42	1741.36
396.62	1783.49
396.81	1818.60
397.00	1732.00
397.19	1799.87
397.39	1849.02
397.58	1802.21
397.77	1727.32
397.97	1811.57
398.16	1860.73
398.35	1874.77
398.55	1860.73
398.74	1830.30
398.93	1977.75
399.12	1863.07
399.32	1874.77
399.51	1877.11
399.70	2073.71
399.90	1926.26
400.09	1977.75
400.28	1872.43
400.47	2040.95
400.67	2026.90
400.86	2066.69
401.05	2129.89
401.24	2106.48
401.44	2024.56
401.63	2181.38
401.82	2099.46
402.01	2054.99
402.21	2136.91
402.40	2244.57
402.59	2197.76
402.78	2165.00
402.97	2202.44
403.17	2275.00
403.36	2291.38
403.55	2366.28
403.74	2305.43
403.93	2310.11
404.13	2279.68
404.32	2396.71
404.51	2452.88
404.70	2413.09
404.89	2399.05
405.09	2422.45
405.28	2392.03
405.47	2502.03
405.66	2537.14
405.85	2422.45
406.05	2506.71
406.24	2527.78
406.43	2593.31
406.62	2747.79
406.81	2644.81
407.00	2630.76
407.20	2579.27
407.39	2581.61
407.58	2656.51
407.77	2733.75
407.96	2644.81
408.15	2745.45
408.34	2684.59
408.54	2782.90
408.73	2766.51
408.92	2766.51
409.11	2813.32
409.30	2839.07
409.49	2820.35
409.68	2918.65
409.87	2808.64
410.07	2911.63
410.26	2960.78
410.45	2899.92
410.64	2974.82
410.83	3021.63
411.02	3176.11
411.21	3262.71
411.40	3035.67
411.59	3136.32
411.78	3042.70
411.98	3187.81
412.17	3241.64
412.36	3220.58
412.55	3361.01
412.74	3335.26
412.93	3389.10
413.12	3307.18
413.31	3552.93
413.50	3506.12
413.69	3403.14
413.88	3515.48
414.07	3611.45
414.26	3655.92
414.45	3648.90
414.64	3688.68
414.83	3669.96
415.02	3754.22
415.22	3801.03
415.41	3812.73
415.60	4030.40
415.79	3889.97
415.98	3871.25
416.17	3974.23
416.36	3957.85
416.55	3946.14
416.74	3899.33
416.93	4072.53
417.12	4159.13
417.31	4105.30
417.50	4030.40
417.69	4203.60
417.88	4278.50
418.07	4264.46
418.26	4168.49
418.45	4386.16
418.64	4440.00
418.83	4334.67
419.02	4463.40
419.21	4507.87
419.39	4257.43
419.58	4573.41
419.77	4484.47
419.96	4528.94
420.15	4552.34
420.34	4622.56
420.53	4678.73
420.72	4652.98
420.91	4606.17
421.10	4678.73
421.29	4767.67
421.48	4622.56
421.67	4755.97
421.86	4744.27
422.05	4994.70
422.24	4758.31
422.43	4826.18
422.61	4919.81
422.80	4837.89
422.99	4861.29
423.18	4926.83
423.37	4945.55
423.56	4795.76
423.75	4865.97
423.94	4950.23
424.13	4641.28
424.32	4816.82
424.50	4992.36
424.69	5121.09
424.88	5036.83
425.07	5006.41
425.26	4805.12
425.45	4980.66
425.64	4985.34
425.83	4924.49
426.01	4994.70
426.20	5027.47
426.39	5156.20
426.58	5071.94
426.77	4973.64
426.96	4992.36
427.15	5114.07
427.33	5252.16
427.52	5231.10
427.71	5116.41
427.90	5191.31
428.09	5235.78
428.28	5369.19
428.46	5320.04
428.65	5313.02
428.84	5434.72
429.03	5526.00
429.22	5387.91
429.40	5366.85
429.59	5376.21
429.78	5277.91
429.97	5277.91
430.16	5434.72
430.34	5439.40
430.53	5565.79
430.72	5724.95
430.91	5680.48
431.10	5549.41
431.28	5654.73
431.47	5891.13
431.66	5811.55
431.85	5785.80
432.03	6024.54
432.22	6010.50
432.41	5877.09
432.60	5998.79
432.79	5851.34
432.97	5963.68
433.16	6026.88
433.35	5991.77
433.54	6031.56
433.72	6200.08
433.91	6094.76
434.10	6190.72
434.28	6036.24
434.47	6321.79
434.66	6235.19
434.85	6319.45
435.03	6246.89
435.22	6260.93
435.41	6422.43
435.59	6317.11
435.78	6394.34
435.97	6445.84
436.16	6326.47
436.34	6298.38
436.53	6576.91
436.72	6614.35
436.90	6494.99
437.09	6633.08
437.28	6342.85
437.46	6516.05
437.65	6602.65
437.84	6581.59
438.02	6773.51
438.21	6588.61
438.40	6633.08
438.58	6588.61
438.77	6942.03
438.96	6782.87
439.14	7133.95
439.33	7112.89
439.52	7187.79
439.70	7178.42
439.89	7431.20
440.08	7410.14
440.26	7375.03
440.45	7543.55
440.63	7494.40
440.82	7616.10
441.01	7566.95
441.19	7618.44
441.38	7688.66
441.57	7590.36
441.75	7571.63
441.94	7730.79
442.12	7911.01
442.31	7817.39
442.50	8067.83
442.68	7824.41
442.87	7861.86
443.05	8102.93
443.24	8133.36
443.43	7988.25
443.61	8072.51
443.80	8416.57
443.98	8063.15
444.17	7833.77
444.35	8013.99
444.54	8463.38
444.73	8217.62
444.91	8252.73
445.10	8404.86
445.28	8271.45
445.47	8400.18
445.65	8201.24
445.84	8226.98
446.02	8486.78
446.21	8259.75
446.39	8294.86
446.58	8414.23
446.77	8416.57
446.95	8229.32
447.14	8477.42
447.32	8571.04
447.51	8395.50
447.69	8461.04
447.88	8437.63
448.06	8479.76
448.25	8416.57
448.43	8606.15
448.62	8442.31
448.80	8552.32
448.99	8564.02
449.17	8685.73
449.36	8631.90
449.54	8842.54
449.73	8922.12
449.91	8959.57
450.10	9006.38
450.28	9027.45
450.46	8889.35
450.65	8987.66
450.83	9064.89
451.02	8915.10
451.20	9188.94
451.39	9034.47
451.57	9116.39
451.76	9142.13
451.94	9249.80
452.13	9280.22
452.31	9128.09
452.49	9083.62
452.68	9359.80
452.86	9245.12
453.05	9345.76
453.23	9525.98
453.42	9348.10
453.60	9289.59
453.78	9415.98
453.97	9376.19
454.15	9561.09
454.34	9476.83
454.52	9745.99
454.70	9839.61
454.89	9554.07
455.07	9675.77
455.26	9837.27
455.44	9844.29
455.62	10078.35
455.81	9865.36
455.99	9947.28
456.17	10045.58
456.36	9956.64
456.54	10265.59
456.73	10370.91
456.91	10235.16
457.09	10335.81
457.28	10480.92
457.46	10354.53
457.64	10707.95
457.83	10471.56
458.01	10186.01
458.19	10553.48
458.38	10530.07
458.56	10626.03
458.74	10445.81
458.93	10445.81
459.11	10555.82
459.29	10691.57
459.48	10857.75
459.66	10569.86
459.84	10911.58
460.03	11007.54
460.21	10965.41
460.39	10965.41
460.57	11040.31
460.76	11314.15
460.94	11101.16
461.12	11150.31
461.31	11159.67
461.49	11382.03
461.67	11059.03
461.85	11396.07
462.04	11314.15
462.22	11578.63
462.40	11269.68
462.59	11351.60
462.77	11323.51
462.95	11580.97
463.13	11466.28
463.32	11709.70
463.50	11758.85
463.68	11693.32
463.86	11768.21
464.05	11473.31
464.23	11529.48
464.41	11803.32
464.59	11632.46
464.78	12049.08
464.96	11885.24
465.14	11681.61
465.32	11889.92
465.50	12093.55
465.69	11906.31
465.87	11962.48
466.05	12018.65
466.23	12325.26
466.41	12156.74
466.60	12517.18
466.78	12025.67
466.96	12081.85
467.14	12229.30
467.32	12109.93
467.51	12580.38
467.69	12060.78
467.87	12325.26
468.05	12699.75
468.23	12355.69
468.41	12290.15
468.60	12554.63
468.78	12662.30
468.96	12358.03
469.14	12681.02
469.32	12809.75
469.50	12634.21
469.69	12940.82
469.87	12905.71
470.05	12985.29
470.23	13156.15
470.41	13020.40
470.59	13369.14
470.77	13071.89
470.95	13057.85
471.14	13528.30
471.32	13027.42
471.50	13437.02
471.68	13652.34
471.86	13558.72
472.04	13635.96
472.22	13919.17
472.40	13694.47
472.58	13958.96
472.77	14155.56
472.95	14083.00
473.13	14511.32
473.31	13944.91
473.49	14155.56
473.67	14085.34
473.85	14448.13
474.03	14422.38
474.21	14705.59
474.39	14602.60
474.57	14455.15
474.75	15009.86
474.93	15372.64
475.12	14738.35
475.30	14890.49
475.48	14855.38
475.66	14956.02
475.84	14988.79
476.02	15185.40
476.20	15307.10
476.38	15602.01
476.56	15697.97
476.74	15489.67
476.92	15786.91
477.10	15463.92
477.28	15915.64
477.46	15826.70
477.64	16278.43
477.82	16423.54
478.00	16657.59
478.18	16688.02
478.36	17041.44
478.54	16823.77
478.72	17233.36
478.90	17128.04
479.08	17310.60
479.26	17610.19
479.44	17937.87
479.62	17898.08
479.80	18349.80
479.98	18050.21
480.16	18415.34
480.34	18265.54
480.52	18506.62
480.70	18595.56
480.88	18480.87
481.06	18618.96
481.24	18647.05
481.41	18916.21
481.59	19468.58
481.77	19290.70
481.95	19711.99
482.13	19812.63
482.31	19747.10
482.49	20147.33
482.67	20037.33
482.85	20386.07
483.03	20563.95
483.21	20744.17
483.39	20821.41
483.57	20561.61
483.74	21085.89
483.92	21291.85
484.10	21010.99
484.28	21451.01
484.46	21942.52
484.64	22019.76
484.82	21991.67
485.00	22382.54
485.18	22097.00
485.35	22848.31
485.53	22609.58
485.71	22670.43
485.89	23484.94
486.07	23309.40
486.25	23311.74
486.43	23384.29
486.61	24004.53
486.78	23798.57
486.96	24236.25
487.14	24372.00
487.32	24758.19
487.50	25015.65
487.68	24627.12
487.85	25315.23
488.03	25242.68
488.21	25511.84
488.39	25544.61
488.57	25914.41
488.75	25879.30
488.92	25886.32
489.10	26342.73
489.28	26909.14
489.46	27124.47
489.64	26874.03
489.81	27686.20
489.99	27330.44
490.17	27328.10
490.35	27859.40
490.53	27882.80
490.70	28273.67
490.88	27742.37
491.06	28608.37
491.24	28856.46
491.41	28507.72
491.59	28945.41
491.77	29167.76
491.95	29551.60
492.13	29434.58
492.30	29883.96
492.48	30148.44
492.66	29996.31
492.84	30387.18
493.01	30286.53
493.19	30352.07
493.37	30443.35
493.54	30817.83
493.72	31112.74
493.90	31323.39
494.08	31845.33
494.25	31920.23
494.43	31988.10
494.61	32161.30
494.79	32381.31
494.96	32383.65
495.14	32507.70
495.32	32465.57
495.49	33069.43
495.67	33031.98
495.85	33383.06
496.02	33476.68
496.20	33666.27
496.38	34101.61
496.55	34204.59
496.73	34452.69
496.91	34270.12
497.09	34588.44
497.26	34515.88
497.44	34668.02
497.62	35054.20
497.79	35480.18
497.97	35175.91
498.14	35597.21
498.32	35646.36
498.50	35798.49
498.67	36290.01
498.85	36711.30
499.03	36407.03
499.20	36301.71
499.38	36545.12
499.56	36589.59
499.73	36818.97
499.91	37057.70
500.08	37230.90
500.26	37130.26
500.44	37270.69
500.61	37741.14
500.79	37188.77
500.97	37912.00
501.14	38387.13
501.32	38405.85
501.49	38445.64
501.67	38848.21
501.84	38876.30
502.02	38911.41
502.20	38778.00
502.37	38836.51
502.55	39154.82
502.72	39494.20
502.90	38967.58
503.07	39178.23
503.25	39662.72
503.43	39370.15
503.60	39723.57
503.78	40102.74
503.95	39889.75
504.13	39934.22
504.30	40470.20
504.48	40666.81
504.65	40502.97
504.83	40463.18
505.01	41221.52
505.18	41151.30
505.36	41017.89
505.53	40945.33
505.71	41151.30
505.88	41762.18
506.06	41373.65
506.23	41776.22
506.41	41471.95
506.58	41715.37
506.76	42286.46
506.93	42799.04
507.11	41956.44
507.28	42588.39
507.46	42490.09
507.63	42684.35
507.81	42920.74
507.98	42583.71
508.16	43154.80
508.33	42646.90
508.50	43122.03
508.68	43351.40
508.85	43775.04
509.03	43735.25
509.20	44144.84
509.38	44081.65
509.55	44268.89
509.73	44282.94
509.90	44367.20
510.08	44638.70
510.25	44273.57
510.42	44711.25
510.60	44751.04
510.77	45137.23
510.95	45078.72
511.12	45237.87
511.30	45282.34
511.47	45172.34
511.64	45450.86
511.82	45542.14
511.99	45326.81
512.17	45434.48
512.34	45738.75
512.51	46452.61
512.69	46298.14
512.86	46050.04
513.04	46564.96
513.21	46454.95
513.38	46749.86
513.56	46735.82
513.73	46696.03
513.90	46670.28
514.08	46525.17
514.25	47129.03
514.43	47236.69
514.60	47182.86
514.77	46504.10
514.95	47454.36
515.12	47374.78
515.29	47618.20
515.47	47702.46
515.64	47672.03
515.81	47564.37
515.99	47978.64
516.16	48315.68
516.33	47976.30
516.51	48516.96
516.68	47716.50
516.85	48395.26
517.03	48753.36
517.20	48928.90
517.37	48348.45
517.54	48631.65
517.72	48608.25
517.89	48900.81
518.06	48816.55
518.24	49024.86
518.41	49062.31
518.58	48912.52
518.75	48952.30
518.93	49418.07
519.10	48823.58
519.27	49813.62
519.45	49605.31
519.62	49778.51
519.79	49818.30
519.96	49544.46
520.14	49830.01
520.31	49638.08
520.48	50108.53
520.65	50045.33
520.83	50113.21
521.00	50398.76
521.17	50195.13
521.34	50031.29
521.52	50588.34
521.69	50646.85
521.86	50794.31
522.03	51014.32
522.20	51255.39
522.38	51332.63
522.55	51019.00
522.72	51192.20
522.89	50873.88
523.07	51405.19
523.24	51150.07
523.41	51337.31
523.58	51199.22
523.75	51444.98
523.92	51276.46
524.10	51686.05
524.27	51828.82
524.44	51725.84
524.61	52343.74
524.78	52076.92
524.96	51861.59
525.13	52048.83
525.30	52067.56
525.47	52453.75
525.64	52385.87
525.81	52453.75
525.98	52219.69
526.16	52416.30
526.33	52317.99
526.50	52912.49
526.67	52418.64
526.84	52554.39
527.01	52750.99
527.18	52917.17
527.36	52556.73
527.53	52797.80
527.70	53375.92
527.87	53172.29
528.04	52877.38
528.21	53301.02
528.38	53312.72
528.55	53530.39
528.72	53359.53
528.89	53268.25
529.07	53378.26
529.24	53254.21
529.41	53635.72
529.58	53490.60
529.75	53525.71
529.92	53712.95
530.09	53537.41
530.26	53724.66
530.43	53813.60
530.60	53277.61
530.77	53822.96
530.94	53518.69
531.11	54010.20
531.28	53968.07
531.46	54054.67
531.63	54237.23
531.80	53865.09
531.97	54085.10
532.14	54401.07
532.31	54071.06
532.48	54267.66
532.65	54377.67
532.82	54117.87
532.99	54286.39
533.16	54361.28
533.33	54525.12
533.50	54724.07
533.67	54663.21
533.84	54761.51
534.01	54901.95
534.18	54724.07
534.35	55136.00
534.52	54600.02
534.69	55175.79
534.86	55136.00
535.03	55220.26
535.20	55093.87
535.37	55203.88
535.54	55121.96
535.71	55290.48
535.88	55189.83
536.05	55227.28
536.22	55332.60
536.38	55435.59
536.55	55440.27
536.72	55009.61
536.89	55327.92
537.06	55409.84
537.23	55227.28
537.40	55414.52
537.57	55599.43
537.74	55718.79
537.91	56011.36
538.08	55880.29
538.25	55454.31
538.42	55767.94
538.59	55840.50
538.75	55842.84
538.92	55650.92
539.09	55810.07
539.26	56002.00
539.43	56130.73
539.60	56072.21
539.77	56128.39
539.94	56303.93
540.11	55887.31
540.28	56252.44
540.44	56334.35
540.61	56245.41
540.78	56016.04
540.95	56353.08
541.12	56329.67
541.29	56186.90
541.46	56411.59
541.62	56566.07
541.79	56411.59
541.96	56301.59
542.13	56591.81
542.30	56374.14
542.47	56669.05
542.63	56640.96
542.80	56718.20
542.97	57038.86
543.14	56907.79
543.31	57085.67
543.48	57080.98
543.64	57303.34
543.81	57097.37
543.98	57120.77
544.15	57284.61
544.32	57113.75
544.48	57411.00
544.65	57181.63
544.82	57350.15
544.99	57027.15
545.16	57301.00
545.32	56989.70
545.49	57733.99
545.66	57750.38
545.83	57350.15
546.00	57764.42
546.16	57354.83
546.33	57277.59
546.50	57415.68
546.67	57598.24
546.83	57296.31
547.00	57605.26
547.17	57631.01
547.34	57558.45
547.50	57778.46
547.67	57958.69
547.84	57780.81
548.00	57663.78
548.17	57984.43
548.34	57855.70
548.51	58003.16
548.67	58010.18
548.84	58089.76
549.01	57970.39
549.18	58052.31
549.34	57944.64
549.51	58157.63
549.68	58122.52
549.84	58281.68
550.01	58300.40
550.18	58099.12
550.34	58298.06
550.51	58218.49
550.68	58522.76
550.84	58010.18
551.01	58520.41
551.18	58405.73
551.34	58459.56
551.51	58293.38
551.68	58569.57
551.84	58539.14
552.01	58272.32
552.18	58560.20
552.34	58291.04
552.51	58557.86
552.68	58309.77
552.84	58562.54
553.01	58698.30
553.18	58611.70
553.34	58581.27
553.51	58646.80
553.67	58548.50
553.84	58777.87
554.01	59044.69
554.17	58951.07
554.34	59025.97
554.51	58908.94
554.67	58969.80
554.84	58773.19
555.00	58735.74
555.17	58901.92
555.33	58901.92
555.50	58698.30
555.67	58618.72
555.83	58588.29
556.00	58997.88
556.16	59372.37
556.33	59047.04
556.50	58955.75
556.66	59292.79
556.83	58925.33
556.99	59384.07
557.16	59447.27
557.32	59454.29
557.49	59306.83
557.65	59100.87
557.82	59302.15
557.98	59025.97
558.15	59557.27
558.32	59395.77
558.48	59346.62
558.65	59222.58
558.81	59442.59
558.98	59545.57
559.14	59379.39
559.31	59512.80
559.47	59725.79
559.64	59519.82
559.80	59629.83
559.97	59601.74
560.13	59461.31
560.30	59536.21
560.46	59599.40
560.63	59655.57
560.79	59636.85
560.96	59744.51
561.12	59695.36
561.29	59678.98
561.45	59786.64
561.61	59826.43
561.78	59693.02
561.94	59648.55
562.11	59496.42
562.27	59653.23
562.44	59877.93
562.60	59835.80
562.77	59838.14
562.93	59585.36
563.10	60130.70
563.26	59723.45
563.42	59849.84
563.59	59636.85
563.75	59744.51
563.92	59898.99
564.08	59915.37
564.24	60074.53
564.41	60016.02
564.57	59943.46
564.74	59861.54
564.90	60147.09
565.07	59891.97
565.23	60027.72
565.39	60025.38
565.56	59962.18
565.72	60081.55
565.88	59831.11
566.05	60097.94
566.21	59882.61
566.38	60109.64
566.54	60137.72
566.70	60203.26
566.87	60287.52
567.03	59999.63
567.19	60168.15
567.36	60308.58
567.52	60109.64
567.68	60343.69
567.85	60184.54
568.01	60294.54
568.17	59980.91
568.34	60282.84
568.50	59997.29
568.66	60203.26
568.83	60378.80
568.99	60179.85
569.15	60353.05
569.32	60207.94
569.48	60210.28
569.64	60285.18
569.81	60154.11
569.97	60292.20
570.13	60142.41
570.30	60133.04
570.46	60388.16
570.62	60404.55
570.78	60378.80
570.95	60339.01
571.11	60420.93
571.27	60350.71
571.43	60217.30
571.60	60589.45
571.76	60322.63
571.92	60514.55
572.09	60486.46
572.25	60413.91
572.41	60369.44
572.57	60652.64
572.74	60828.18
572.90	60395.18
573.06	60425.61
573.22	60423.27
573.38	60381.14
573.55	60502.85
573.71	60692.43
573.87	60413.91
574.03	60411.57
574.20	60615.19
574.36	60537.96
574.52	60654.98
574.68	60486.46
574.84	60566.04
575.01	60601.15
575.17	60615.19
575.33	60479.44
575.49	60582.43
575.65	60753.29
575.82	60755.63
575.98	60694.77
576.14	60786.05
576.30	60652.64
576.46	60488.80
576.62	60612.85
576.79	60516.89
576.95	60547.32
577.11	60666.69
577.27	60741.58
577.43	60662.00
577.59	60526.25
577.75	60608.17
577.92	60528.59
578.08	60554.34
578.24	60722.86
578.40	60788.39
578.56	60786.05
578.72	60566.04
578.88	60832.86
579.04	61003.72
579.21	60669.03
579.37	60921.80
579.53	60851.59
579.69	60369.44
579.85	60638.60
580.01	60474.76
580.17	60493.49
580.33	60722.86
580.49	60645.62
580.65	60811.80
580.82	60647.96
580.98	60587.11
581.14	60692.43
581.30	60889.04
581.46	60713.50
581.62	60910.10
581.78	60671.37
581.94	60851.59
582.10	60867.97
582.26	60896.06
582.42	60673.71
582.58	60676.05
582.74	60842.23
582.90	60942.87
583.06	60903.08
583.22	60725.20
583.38	60779.03
583.54	60781.37
583.70	60626.90
583.86	60879.67
584.02	60748.60
584.18	60985.00
584.34	60671.37
584.50	60774.35
584.66	60856.27
584.82	60715.84
584.98	61008.40
585.14	61010.74
585.30	60839.89
585.46	60961.59
585.62	60877.33
585.78	60947.55
585.94	60610.51
586.10	60793.07
586.26	60692.43
586.42	60828.18
586.58	60844.57
586.74	60912.44
586.90	60800.10
587.06	60910.10
587.22	60825.84
587.38	60786.05
587.54	60961.59
587.70	60942.87
587.86	60970.96
588.02	60865.63
588.18	61151.18
588.34	60886.70
588.49	60842.23
