SpectraSuite Data File
++++++++++++++++++++++++++++++++++++
Date: Fri Oct 25 10:44:53 EDT 2013
User: price-jones
Dark Spectrum Present: No
Reference Spectrum Present: No
Number of Sampled Component Spectra: 1
Spectrometers: USB2+H05261
Integration Time (usec): 100000 (USB2+H05261)
Spectra Averaged: 1 (USB2+H05261)
Boxcar Smoothing: 0 (USB2+H05261)
Correct for Electrical Dark: No (USB2+H05261)
Strobe/Lamp Enabled: No (USB2+H05261)
Correct for Detector Non-linearity: No (USB2+H05261)
Correct for Stray Light: No (USB2+H05261)
Number of Pixels in Processed Spectrum: 2048
>>>>>Begin Processed Spectral Data<<<<<
365.73	180.22
365.92	180.22
366.12	180.22
366.32	56.17
366.52	79.58
366.72	25.75
366.91	79.58
367.11	0.00
367.31	84.26
367.51	35.11
367.70	0.00
367.90	84.26
368.10	16.38
368.30	46.81
368.49	93.62
368.69	63.19
368.89	67.88
369.09	56.17
369.28	58.51
369.48	7.02
369.68	74.90
369.87	163.84
370.07	156.82
370.27	65.54
370.47	124.05
370.66	351.08
370.86	421.30
371.06	388.53
371.25	503.22
371.45	444.70
371.65	479.81
371.84	435.34
372.04	491.51
372.24	500.87
372.44	491.51
372.63	484.49
372.83	484.49
373.03	498.53
373.22	449.38
373.42	505.56
373.62	521.94
373.81	596.84
374.01	491.51
374.21	610.88
374.40	571.09
374.60	535.98
374.79	533.64
374.99	533.64
375.19	545.34
375.38	587.47
375.58	521.94
375.78	557.05
375.97	636.63
376.17	580.45
376.37	608.54
376.56	524.28
376.76	580.45
376.95	496.19
377.15	566.41
377.35	601.52
377.54	613.22
377.74	564.07
377.93	568.75
378.13	603.86
378.33	601.52
378.52	678.76
378.72	655.35
378.91	638.97
379.11	564.07
379.31	613.22
379.50	603.86
379.70	636.63
379.89	718.54
380.09	601.52
380.28	608.54
380.48	741.95
380.68	641.31
380.87	610.88
381.07	610.88
381.26	746.63
381.46	711.52
381.65	713.86
381.85	734.93
382.04	702.16
382.24	720.88
382.43	667.05
382.63	709.18
382.83	627.26
383.02	767.70
383.22	704.50
383.41	793.44
383.61	702.16
383.80	856.64
384.00	695.14
384.19	734.93
384.39	755.99
384.58	763.01
384.78	718.54
384.97	751.31
385.17	760.67
385.36	730.25
385.56	695.14
385.75	753.65
385.95	678.76
386.14	781.74
386.34	833.23
386.53	730.25
386.72	730.25
386.92	835.57
387.11	800.46
387.31	763.01
387.50	856.64
387.70	793.44
387.89	840.25
388.09	854.30
388.28	802.80
388.48	753.65
388.67	896.43
388.86	828.55
389.06	777.06
389.25	854.30
389.45	922.17
389.64	877.70
389.84	896.43
390.03	943.24
390.22	882.38
390.42	912.81
390.61	823.87
390.81	966.64
391.00	952.60
391.19	1008.77
391.39	950.26
391.58	936.21
391.78	945.58
391.97	985.37
392.16	922.17
392.36	966.64
392.55	971.32
392.75	957.28
392.94	844.93
393.13	966.64
393.33	924.51
393.52	985.37
393.71	1034.52
393.91	957.28
394.10	1027.50
394.29	1074.31
394.49	1074.31
394.68	1151.54
394.88	1149.20
395.07	1160.91
395.26	1130.48
395.46	1093.03
395.65	1146.86
395.84	1233.46
396.04	1247.51
396.23	1076.65
396.42	1055.58
396.62	1156.22
396.81	1114.10
397.00	1109.41
397.19	1184.31
397.39	1275.59
397.58	1315.38
397.77	1303.68
397.97	1268.57
398.16	1268.57
398.35	1303.68
398.55	1217.08
398.74	1252.19
398.93	1282.61
399.12	1378.58
399.32	1263.89
399.51	1212.40
399.70	1423.05
399.90	1310.70
400.09	1404.32
400.28	1446.45
400.47	1357.51
400.67	1359.85
400.86	1423.05
401.05	1418.36
401.24	1397.30
401.44	1495.60
401.63	1497.94
401.82	1507.30
402.01	1425.39
402.21	1516.67
402.40	1570.50
402.59	1455.81
402.78	1575.18
402.97	1530.71
403.17	1511.99
403.36	1572.84
403.55	1631.35
403.74	1692.21
403.93	1624.33
404.13	1858.39
404.32	1643.06
404.51	1624.33
404.70	1720.29
404.89	1654.76
405.09	1799.87
405.28	1734.34
405.47	1736.68
405.66	1788.17
405.85	1647.74
406.05	1755.40
406.24	1750.72
406.43	1856.04
406.62	1827.96
406.81	1830.30
407.00	1757.74
407.20	1905.20
407.39	1895.83
407.58	1832.64
407.77	1909.88
407.96	1926.26
408.15	2008.18
408.34	1987.11
408.54	1987.11
408.73	2005.84
408.92	2064.35
409.11	2019.88
409.30	2101.80
409.49	1973.07
409.68	2064.35
409.87	2026.90
410.07	2197.76
410.26	2143.93
410.45	2108.82
410.64	2165.00
410.83	2242.23
411.02	2195.42
411.21	2387.35
411.40	2190.74
411.59	2333.51
411.78	2244.57
411.98	2265.64
412.17	2298.41
412.36	2361.60
412.55	2321.81
412.74	2497.35
412.93	2436.50
413.12	2473.95
413.31	2553.52
413.50	2434.16
413.69	2537.14
413.88	2480.97
414.07	2590.97
414.26	2555.86
414.45	2504.37
414.64	2560.55
414.83	2679.91
415.02	2602.68
415.22	2738.43
415.41	2761.83
415.60	2736.09
415.79	2850.77
415.98	2860.13
416.17	2808.64
416.36	2818.00
416.55	2918.65
416.74	2913.97
416.93	2925.67
417.12	2897.58
417.31	3035.67
417.50	3075.46
417.69	3096.53
417.88	3112.91
418.07	3070.78
418.26	3019.29
418.45	3066.10
418.64	3087.17
418.83	3166.74
419.02	3197.17
419.21	3176.11
419.39	3302.50
419.58	3089.51
419.77	3220.58
419.96	3279.09
420.15	3215.90
420.34	3204.19
420.53	3503.78
420.72	3445.27
420.91	3410.16
421.10	3356.33
421.29	3487.40
421.48	3475.70
421.67	3501.44
421.86	3487.40
422.05	3396.12
422.24	3433.57
422.43	3433.57
422.61	3459.31
422.80	3583.36
422.99	3534.21
423.18	3529.53
423.37	3520.17
423.56	3475.70
423.75	3501.44
423.94	3604.42
424.13	3274.41
424.32	3349.31
424.50	3641.87
424.69	3676.98
424.88	3754.22
425.07	3574.00
425.26	3585.70
425.45	3431.23
425.64	3503.78
425.83	3459.31
426.01	3564.64
426.20	3599.74
426.39	3520.17
426.58	3564.64
426.77	3574.00
426.96	3569.32
427.15	3515.48
427.33	3747.20
427.52	3669.96
427.71	3742.52
427.90	3894.65
428.09	3688.68
428.28	3770.60
428.46	3676.98
428.65	3779.97
428.84	3859.54
429.03	3868.91
429.22	3786.99
429.40	3875.93
429.59	3812.73
429.78	3604.42
429.97	3630.17
430.16	3721.45
430.34	3803.37
430.53	3768.26
430.72	3777.62
430.91	3852.52
431.10	4067.85
431.28	4086.58
431.47	4212.96
431.66	4210.62
431.85	4098.28
432.03	4091.26
432.22	4320.63
432.41	4112.32
432.60	4227.01
432.79	4102.96
432.97	4287.86
433.16	4320.63
433.35	4227.01
433.54	4189.56
433.72	4334.67
433.91	4311.27
434.10	4407.23
434.28	4344.03
434.47	4344.03
434.66	4344.03
434.85	4482.13
435.03	4418.93
435.22	4404.89
435.41	4535.96
435.59	4519.57
435.78	4566.39
435.97	4617.88
436.16	4578.09
436.34	4702.14
436.53	4571.07
436.72	4643.62
436.90	4578.09
437.09	4819.16
437.28	4643.62
437.46	4748.95
437.65	4662.35
437.84	4690.43
438.02	4856.61
438.21	4720.86
438.40	4692.77
438.58	4873.00
438.77	4840.23
438.96	4887.04
439.14	4992.36
439.33	5046.20
439.52	5121.09
439.70	5146.84
439.89	5142.16
440.08	5203.01
440.26	5212.37
440.45	5074.28
440.63	5207.69
440.82	5425.36
441.01	5413.66
441.19	5364.51
441.38	5540.05
441.57	5441.75
441.75	5514.30
441.94	5556.43
442.12	5460.47
442.31	5671.12
442.50	5748.36
442.68	5654.73
442.87	5664.10
443.05	5547.07
443.24	5699.20
443.43	5755.38
443.61	5664.10
443.80	5928.58
443.98	5694.52
444.17	5668.78
444.35	5851.34
444.54	6054.97
444.73	5741.33
444.91	5860.70
445.10	5755.38
445.28	5804.53
445.47	5748.36
445.65	5755.38
445.84	5916.87
446.02	5909.85
446.21	5776.44
446.39	5825.59
446.58	6101.78
446.77	5949.64
446.95	5806.87
447.14	6057.31
447.32	6008.16
447.51	6012.84
447.69	5877.09
447.88	6038.58
448.06	5944.96
448.25	5951.98
448.43	6115.82
448.62	6026.88
448.80	6193.06
448.99	6183.70
449.17	6314.77
449.36	6200.08
449.54	6265.61
449.73	6324.13
449.91	6354.55
450.10	6469.24
450.28	6434.13
450.46	6384.98
450.65	6441.15
450.83	6471.58
451.02	6490.31
451.20	6392.00
451.39	6427.11
451.57	6394.34
451.76	6298.38
451.94	6406.05
452.13	6513.71
452.31	6457.54
452.49	6541.80
452.68	6492.65
452.86	6476.26
453.05	6555.84
453.23	6576.91
453.42	6670.53
453.60	6637.76
453.78	6733.72
453.97	6647.12
454.15	6609.67
454.34	6902.24
454.52	6836.70
454.70	6752.45
454.89	6827.34
455.07	6766.49
455.26	6827.34
455.44	7101.19
455.62	7002.88
455.81	6808.62
455.99	7080.12
456.17	6808.62
456.36	7016.93
456.54	7180.76
456.73	7152.68
456.91	7190.13
457.09	7204.17
457.28	7375.03
457.46	7152.68
457.64	7452.27
457.83	7353.96
458.01	7346.94
458.19	7412.48
458.38	7344.60
458.56	7499.08
458.74	7559.93
458.93	7578.65
459.11	7536.52
459.29	7550.57
459.48	7588.02
459.66	7473.33
459.84	7419.50
460.03	7777.60
460.21	7646.53
460.39	7637.17
460.57	7765.90
460.76	7969.52
460.94	7777.60
461.12	7953.14
461.31	7793.98
461.49	7831.43
461.67	7796.32
461.85	7985.91
462.04	7988.25
462.22	8074.85
462.40	8198.90
462.59	8114.64
462.77	8072.51
462.95	8013.99
463.13	8112.30
463.32	8243.37
463.50	8255.07
463.68	8049.10
463.86	8336.99
464.05	8215.28
464.23	8044.42
464.41	8255.07
464.59	8124.00
464.78	8278.47
464.96	8098.25
465.14	8168.47
465.32	8493.80
465.50	8423.59
465.69	8540.61
465.87	8292.52
466.05	8428.27
466.23	8177.83
466.41	8400.18
466.60	8542.96
466.78	8482.10
466.96	8603.81
467.14	8547.64
467.32	8561.68
467.51	8505.51
467.69	8468.06
467.87	8650.62
468.05	8526.57
468.23	8683.39
468.41	8535.93
468.60	8580.40
468.78	8676.37
468.96	8723.18
469.14	8894.04
469.32	8959.57
469.50	8667.00
469.69	8868.29
469.87	8816.80
470.05	8999.36
470.23	9015.74
470.41	8802.75
470.59	9092.98
470.77	9029.79
470.95	9200.65
471.14	9266.18
471.32	9114.05
471.50	9385.55
471.68	9399.59
471.86	9366.82
472.04	9432.36
472.22	9537.68
472.40	9345.76
472.58	9423.00
472.77	9521.30
472.95	9731.95
473.13	9708.54
473.31	9769.40
473.49	9696.84
473.67	9680.46
473.85	9745.99
474.03	10029.20
474.21	10015.15
474.39	10078.35
474.57	9956.64
474.75	10094.73
474.93	10171.97
475.12	10249.21
475.30	10127.50
475.48	10310.06
475.66	10410.70
475.84	10406.02
476.02	10487.94
476.20	10422.41
476.38	10757.10
476.56	10888.17
476.74	10670.50
476.92	10724.33
477.10	10862.43
477.28	10876.47
477.46	10850.72
477.64	11201.80
477.82	11143.29
478.00	11489.69
478.18	11463.94
478.36	11662.89
478.54	11515.44
478.72	11597.35
478.90	11800.98
479.08	11892.26
479.26	11992.90
479.44	11964.82
479.62	12086.53
479.80	12126.32
479.98	12252.70
480.16	12624.85
480.34	12280.79
480.52	12428.24
480.70	12407.18
480.88	12442.29
481.06	12709.11
481.24	12645.91
481.41	12910.40
481.59	13167.85
481.77	13275.52
481.95	13151.47
482.13	13137.43
482.31	13327.01
482.49	13657.03
482.67	13664.05
482.85	13715.54
483.03	13790.44
483.21	13898.10
483.39	13968.32
483.57	14017.47
483.74	14141.52
483.92	14185.99
484.10	14059.60
484.28	14424.72
484.46	14871.76
484.64	14899.85
484.82	14640.05
485.00	14934.96
485.18	14848.36
485.35	15124.54
485.53	15328.17
485.71	15124.54
485.89	15337.53
486.07	15241.57
486.25	15557.54
486.43	15536.48
486.61	15531.80
486.78	15686.27
486.96	15922.66
487.14	16116.93
487.32	16142.67
487.50	16528.86
487.68	16713.77
487.85	16760.58
488.03	16999.31
488.21	17095.27
488.39	16861.22
488.57	17345.71
488.75	17373.80
488.92	17682.75
489.10	17827.86
489.28	17823.18
489.46	18104.04
489.64	18075.96
489.81	18389.59
489.99	18539.38
490.17	18644.71
490.35	18981.74
490.53	18855.36
490.70	18759.39
490.88	18803.86
491.06	19037.92
491.24	18899.83
491.41	19098.77
491.59	19325.80
491.77	19206.44
491.95	19367.93
492.13	19733.06
492.30	19932.00
492.48	19920.30
492.66	20042.01
492.84	19880.51
493.01	20439.90
493.19	20320.53
493.37	20631.82
493.54	20435.22
493.72	20718.42
493.90	20727.78
494.08	21142.06
494.25	21186.53
494.43	21762.30
494.61	21542.29
494.79	21415.90
494.96	21511.86
495.14	21645.27
495.32	21598.46
495.49	21986.99
495.67	22085.30
495.85	22302.96
496.02	22295.94
496.20	22845.97
496.38	22469.14
496.55	22583.83
496.73	22965.34
496.91	22801.50
497.09	22958.31
497.26	23056.62
497.44	23063.64
497.62	23091.73
497.79	23442.81
497.97	23351.52
498.14	23634.73
498.32	23475.57
498.50	23828.99
498.67	23962.40
498.85	23976.45
499.03	24634.14
499.20	24215.18
499.38	24184.76
499.56	24229.23
499.73	24423.49
499.91	24479.66
500.08	24393.06
500.26	24367.32
500.44	24702.01
500.61	24772.23
500.79	25085.86
500.97	25104.59
501.14	25612.48
501.32	25230.98
501.49	24849.47
501.67	25296.51
501.84	25352.68
502.02	25773.98
502.20	25584.40
502.37	26005.69
502.55	25891.01
502.72	26202.30
502.90	26267.83
503.07	26012.71
503.25	26237.41
503.43	26359.11
503.60	26139.10
503.78	26197.62
503.95	26499.55
504.13	26665.72
504.30	26684.45
504.48	26883.39
504.65	26902.12
504.83	26972.33
505.01	26913.82
505.18	27166.60
505.36	27307.03
505.53	27302.35
505.71	27367.88
505.88	27672.15
506.06	27365.54
506.23	27564.49
506.41	27386.61
506.58	27562.15
506.76	27580.87
506.93	27988.13
507.11	27992.81
507.28	28063.02
507.46	28147.28
507.63	28072.39
507.81	28135.58
507.98	28304.10
508.16	28158.99
508.33	28379.00
508.50	28369.63
508.68	29097.54
508.85	29362.02
509.03	28968.81
509.20	28912.64
509.38	29029.66
509.55	29317.55
509.73	28800.29
509.90	29160.73
510.08	29645.23
510.25	28924.34
510.42	29383.09
510.60	29575.01
510.77	29799.70
510.95	29890.98
511.12	29383.09
511.30	29958.86
511.47	30089.93
511.64	30253.76
511.82	30164.82
511.99	30506.54
512.17	30068.86
512.34	29778.64
512.51	30347.39
512.69	30719.53
512.86	30469.09
513.04	30679.74
513.21	30756.98
513.38	30824.86
513.56	30747.62
513.73	30668.04
513.90	30843.58
514.08	30785.07
514.25	31175.94
514.43	30803.79
514.60	31054.23
514.77	31236.79
514.95	31606.59
515.12	31594.89
515.29	31440.42
515.47	31527.02
515.64	31630.00
515.81	31690.85
515.99	31697.88
516.16	32135.56
516.33	31222.75
516.51	31936.61
516.68	31873.42
516.85	31622.98
517.03	31379.56
517.20	32325.14
517.37	32098.11
517.54	32811.97
517.72	32552.17
517.89	31988.10
518.06	32294.71
518.24	31887.46
518.41	32163.64
518.58	32510.04
518.75	32320.46
518.93	32931.34
519.10	32723.03
519.27	32755.80
519.45	33144.33
519.62	32975.81
519.79	33200.50
519.96	33062.41
520.14	33544.56
520.31	32893.89
520.48	33350.29
520.65	33331.57
520.83	33720.10
521.00	33914.36
521.17	33612.43
521.34	33930.75
521.52	33954.15
521.69	33930.75
521.86	34059.48
522.03	34047.77
522.20	34185.86
522.38	34012.66
522.55	33923.72
522.72	34323.96
522.89	34588.44
523.07	34202.25
523.24	34515.88
523.41	34403.53
523.58	34235.02
523.75	34902.07
523.92	34972.28
524.10	35274.21
524.27	35079.95
524.44	35072.93
524.61	35208.68
524.78	35557.42
524.96	35168.89
525.13	35494.22
525.30	35864.03
525.47	35709.55
525.64	35498.91
525.81	35351.45
525.98	35742.32
526.16	35594.87
526.33	35456.78
526.50	35697.85
526.67	35367.84
526.84	35660.40
527.01	35124.42
527.18	35718.92
527.36	35955.31
527.53	36172.98
527.70	36240.86
527.87	36367.24
528.04	36252.56
528.21	36411.71
528.38	36147.23
528.55	36463.21
528.72	36414.05
528.89	36540.44
529.07	36463.21
529.24	36290.01
529.41	36430.44
529.58	36446.82
529.75	36610.66
529.92	36811.95
530.09	37106.85
530.26	36884.50
530.43	36779.18
530.60	37001.53
530.77	36800.24
530.94	36989.83
531.11	37378.36
531.28	37057.70
531.46	37427.51
531.63	37006.21
531.80	37345.59
531.97	37141.96
532.14	37315.16
532.31	37153.66
532.48	37296.44
532.65	37830.08
532.82	37251.97
532.99	37769.22
533.16	37638.15
533.33	37773.91
533.50	38122.65
533.67	38047.75
533.84	37687.31
534.01	37769.22
534.18	37741.14
534.35	38103.92
534.52	38143.71
534.69	38141.37
534.86	38162.43
535.03	38253.72
535.20	38752.25
535.37	38719.48
535.54	38752.25
535.71	38628.20
535.88	38391.81
536.05	38562.67
536.22	38546.28
536.38	38253.72
536.55	38653.95
536.72	38691.40
536.89	38120.31
537.06	38614.16
537.23	38747.57
537.40	38672.67
537.57	38883.32
537.74	38831.83
537.91	39330.36
538.08	39002.69
538.25	39068.22
538.42	39072.90
538.59	39119.71
538.75	39108.01
538.92	39079.92
539.09	39180.57
539.26	39426.32
539.43	39213.34
539.60	39330.36
539.77	38965.24
539.94	39138.44
540.11	39124.40
540.28	39456.75
540.44	39618.25
540.61	39035.45
540.78	39599.52
540.95	39112.69
541.12	39072.90
541.29	39655.70
541.46	39388.88
541.62	39929.54
541.79	39966.99
541.96	39590.16
542.13	40081.67
542.30	39866.34
542.47	39543.35
542.63	39903.79
542.80	40051.25
542.97	40491.27
543.14	40708.94
543.31	40884.48
543.48	40149.55
543.64	41069.38
543.81	41284.71
543.98	41113.85
544.15	40708.94
544.32	40856.39
544.48	40907.88
544.65	40533.40
544.82	40847.03
544.99	40444.46
545.16	41155.98
545.32	40907.88
545.49	41258.96
545.66	41258.96
545.83	41106.83
546.00	41015.55
546.16	41488.34
546.33	40863.41
546.50	40697.24
546.67	41179.39
546.83	40912.56
547.00	41081.08
547.17	40889.16
547.34	41446.21
547.50	41181.73
547.67	41865.16
547.84	41422.80
548.00	41600.68
548.17	41771.54
548.34	41277.69
548.51	41830.05
548.67	41968.15
548.84	41942.40
549.01	41743.45
549.18	41223.86
549.34	41748.14
549.51	41567.91
549.68	41830.05
549.84	41741.11
550.01	42319.23
550.18	41876.86
550.34	41989.21
550.51	41706.01
550.68	42007.94
550.84	42258.37
551.01	42005.59
551.18	41867.50
551.34	42436.25
551.51	42185.82
551.68	42134.32
551.84	42527.53
552.01	42377.74
552.18	42160.07
552.34	41872.18
552.51	42169.43
552.68	41888.57
552.84	42775.63
553.01	42464.34
553.18	42548.60
553.34	42534.56
553.51	42398.80
553.67	42454.98
553.84	42728.82
554.01	43005.00
554.17	42623.50
554.34	42946.49
554.51	42670.31
554.67	42836.48
554.84	43030.75
555.00	42431.57
555.17	42525.19
555.33	42583.71
555.50	42831.80
555.67	42834.14
555.83	43068.20
556.00	42726.48
556.16	43339.70
556.33	42930.11
556.50	42614.13
556.66	43255.44
556.83	42885.64
556.99	43356.08
557.16	43798.44
557.32	43445.02
557.49	43051.81
557.65	42890.32
557.82	43634.61
557.98	43276.51
558.15	43257.78
558.32	43229.69
558.48	43393.53
558.65	43562.05
558.81	42974.58
558.98	43171.18
559.14	43171.18
559.31	42855.21
559.47	43658.01
559.64	43363.11
559.80	43482.47
559.97	43356.08
560.13	43051.81
560.30	43402.89
560.46	43164.16
560.63	44023.14
560.79	43945.90
560.96	43775.04
561.12	43573.75
561.29	43604.18
561.45	43466.09
561.61	43845.26
561.78	43508.22
561.94	43510.56
562.11	43173.52
562.27	43587.80
562.44	43697.80
562.60	43702.48
562.77	43969.30
562.93	43615.88
563.10	44168.25
563.26	43662.69
563.42	43746.95
563.59	43587.80
563.75	43445.02
563.92	43915.47
564.08	44081.65
564.24	44346.13
564.41	43585.46
564.57	43866.32
564.74	43854.62
564.90	43995.05
565.07	44346.13
565.23	43660.35
565.39	43629.93
565.56	44037.18
565.72	44013.77
565.88	43683.76
566.05	44266.55
566.21	44144.84
566.38	44048.88
566.54	44179.95
566.70	44231.44
566.87	44430.39
567.03	44119.10
567.19	44369.54
567.36	44126.12
567.52	44133.14
567.68	44208.04
567.85	44133.14
568.01	44088.67
568.17	43856.96
568.34	44404.64
568.50	44116.76
568.66	43796.10
568.83	43896.75
568.99	44058.24
569.15	43655.67
569.32	43978.67
569.48	43812.49
569.64	44416.35
569.81	44175.27
569.97	44247.83
570.13	44535.71
570.30	44245.49
570.46	44067.61
570.62	44086.33
570.78	43470.77
570.95	44032.50
571.11	44175.27
571.27	44032.50
571.43	43695.46
571.60	43730.57
571.76	43906.11
571.92	44638.70
572.09	44163.57
572.25	44662.10
572.41	44313.36
572.57	44706.57
572.74	44619.97
572.90	44231.44
573.06	44009.09
573.22	44119.10
573.38	44332.09
573.55	44224.42
573.71	44418.69
573.87	44629.34
574.03	44554.44
574.20	44545.08
574.36	44811.90
574.52	44505.29
574.68	44165.91
574.84	44601.25
575.01	44402.30
575.17	44385.92
575.33	43959.94
575.49	44304.00
575.65	44388.26
575.82	44044.20
575.98	44561.46
576.14	45008.50
576.30	44802.53
576.46	44531.03
576.62	44046.54
576.79	44634.02
576.95	44055.90
577.11	44718.28
577.27	44629.34
577.43	44161.23
577.59	44624.65
577.75	44142.50
577.92	43847.60
578.08	44217.40
578.24	44140.16
578.40	44144.84
578.56	44257.19
578.72	44547.42
578.88	44601.25
579.04	44355.49
579.21	44713.59
579.37	44257.19
579.53	44458.48
579.69	44034.84
579.85	44612.95
580.01	44896.16
580.17	44844.66
580.33	44580.18
580.49	44795.51
580.65	44598.91
580.82	44540.39
580.98	43981.01
581.14	44369.54
581.30	44865.73
581.46	44638.70
581.62	44814.24
581.78	44404.64
581.94	44531.03
582.10	44582.52
582.26	44762.75
582.42	44711.25
582.58	44488.90
582.74	44722.96
582.90	44690.19
583.06	44697.21
583.22	44706.57
583.38	44657.42
583.54	44842.32
583.70	44832.96
583.86	44699.55
584.02	44498.26
584.18	44877.43
584.34	44863.39
584.50	44582.52
584.66	44547.42
584.82	44538.05
584.98	45048.29
585.14	45022.54
585.30	44521.67
585.46	44928.92
585.62	44526.35
585.78	44268.89
585.94	44257.19
586.10	44343.79
586.26	44250.17
586.42	44753.38
586.58	44722.96
586.74	44645.72
586.90	44346.13
587.06	44629.34
587.22	44971.05
587.38	44306.34
587.54	44603.59
587.70	44788.49
587.86	44720.62
588.02	44725.30
588.18	44961.69
588.34	44502.95
588.49	44861.05
588.65	44079.31
588.81	44264.21
588.97	44458.48
589.13	44409.32
589.29	44594.23
589.45	44472.52
589.61	44587.21
589.77	44800.19
589.93	45064.67
590.08	44940.63
590.24	44847.00
