SpectraSuite Data File
++++++++++++++++++++++++++++++++++++
Date: Fri Oct 25 11:23:26 EDT 2013
User: price-jones
Dark Spectrum Present: No
Reference Spectrum Present: No
Number of Sampled Component Spectra: 1
Spectrometers: USB2+H05261
Integration Time (usec): 100000 (USB2+H05261)
Spectra Averaged: 1 (USB2+H05261)
Boxcar Smoothing: 0 (USB2+H05261)
Correct for Electrical Dark: No (USB2+H05261)
Strobe/Lamp Enabled: No (USB2+H05261)
Correct for Detector Non-linearity: No (USB2+H05261)
Correct for Stray Light: No (USB2+H05261)
Number of Pixels in Processed Spectrum: 2048
>>>>>Begin Processed Spectral Data<<<<<
365.73	163.84
365.92	163.84
366.12	163.84
366.32	77.24
366.52	135.75
366.72	177.88
366.91	128.73
367.11	105.32
367.31	117.03
367.51	121.71
367.70	112.35
367.90	133.41
368.10	112.35
368.30	149.79
368.49	88.94
368.69	91.28
368.89	149.79
369.09	145.11
369.28	100.64
369.48	46.81
369.68	159.16
369.87	138.09
370.07	220.01
370.27	266.82
370.47	280.86
370.66	543.00
370.86	575.77
371.06	662.37
371.25	704.50
371.45	582.79
371.65	688.12
371.84	671.73
372.04	718.54
372.24	734.93
372.44	702.16
372.63	760.67
372.83	671.73
373.03	835.57
373.22	702.16
373.42	739.61
373.62	716.20
373.81	772.38
374.01	763.01
374.21	861.32
374.40	772.38
374.60	837.91
374.79	844.93
374.99	795.78
375.19	908.13
375.38	844.93
375.58	898.77
375.78	837.91
375.97	915.15
376.17	889.40
376.37	887.06
376.56	858.98
376.76	866.00
376.95	851.96
377.15	840.25
377.35	861.32
377.54	882.38
377.74	816.85
377.93	929.19
378.13	908.13
378.33	938.55
378.52	917.49
378.72	905.79
378.91	990.05
379.11	919.83
379.31	945.58
379.50	915.15
379.70	1025.15
379.89	924.51
380.09	917.49
380.28	926.85
380.48	912.81
380.68	973.66
380.87	999.41
381.07	990.05
381.26	1118.78
381.46	971.32
381.65	1088.35
381.85	999.41
382.04	1041.54
382.24	1074.31
382.43	1067.28
382.63	980.68
382.83	1027.50
383.02	1071.97
383.22	1034.52
383.41	1029.84
383.61	1181.97
383.80	1172.61
384.00	1174.95
384.19	1174.95
384.39	1135.16
384.58	1116.44
384.78	1116.44
384.97	1114.10
385.17	1081.33
385.36	1240.48
385.56	1057.92
385.75	1149.20
385.95	1146.86
386.14	1196.01
386.34	1156.22
386.53	1153.88
386.72	1259.21
386.92	1240.48
387.11	1231.12
387.31	1277.93
387.50	1203.04
387.70	1249.85
387.89	1214.74
388.09	1284.95
388.28	1217.08
388.48	1331.76
388.67	1355.17
388.86	1336.45
389.06	1296.66
389.25	1383.26
389.45	1411.34
389.64	1315.38
389.84	1343.47
390.03	1437.09
390.22	1427.73
390.42	1399.64
390.61	1355.17
390.81	1369.21
391.00	1495.60
391.19	1455.81
391.39	1409.00
391.58	1472.20
391.78	1486.24
391.97	1413.68
392.16	1486.24
392.36	1570.50
392.55	1666.46
392.75	1540.07
392.94	1521.35
393.13	1483.90
393.33	1469.86
393.52	1528.37
393.71	1575.18
393.91	1612.63
394.10	1626.67
394.29	1572.84
394.49	1612.63
394.68	1638.38
394.88	1563.48
395.07	1743.70
395.26	1685.19
395.46	1671.14
395.65	1643.06
395.84	1741.36
396.04	1792.85
396.23	1713.27
396.42	1820.94
396.62	1839.66
396.81	1806.89
397.00	1846.68
397.19	1760.08
397.39	1804.55
397.58	1724.97
397.77	1809.23
397.97	1846.68
398.16	1783.49
398.35	1994.14
398.55	2017.54
398.74	1909.88
398.93	1937.96
399.12	1975.41
399.32	1874.77
399.51	1949.67
399.70	1921.58
399.90	1933.28
400.09	1944.99
400.28	1975.41
400.47	2113.50
400.67	1991.80
400.86	2139.25
401.05	2008.18
401.24	2139.25
401.44	2157.97
401.63	2347.56
401.82	2118.18
402.01	2071.37
402.21	2064.35
402.40	2253.94
402.59	2209.47
402.78	2087.76
402.97	2186.06
403.17	2183.72
403.36	2282.02
403.55	2310.11
403.74	2406.07
403.93	2403.73
404.13	2380.32
404.32	2249.25
404.51	2307.77
404.70	2387.35
404.89	2492.67
405.09	2420.11
405.28	2455.22
405.47	2532.46
405.66	2537.14
405.85	2459.90
406.05	2317.13
406.24	2576.93
406.43	2525.44
406.62	2492.67
406.81	2708.00
407.00	2523.10
407.20	2609.70
407.39	2609.70
407.58	2761.83
407.77	2731.41
407.96	2750.13
408.15	2775.88
408.34	2738.43
408.54	2715.02
408.73	2775.88
408.92	2860.13
409.11	2960.78
409.30	2850.77
409.49	2928.01
409.68	2909.29
409.87	2885.88
410.07	3150.36
410.26	2949.08
410.45	2918.65
410.64	2977.16
410.83	3030.99
411.02	3049.72
411.21	3098.87
411.40	3061.42
411.59	3239.30
411.78	3206.53
411.98	3143.34
412.17	3361.01
412.36	3328.24
412.55	3468.67
412.74	3421.86
412.93	3316.54
413.12	3276.75
413.31	3602.08
413.50	3520.17
413.69	3459.31
413.88	3627.83
414.07	3700.39
414.26	3667.62
414.45	3686.34
414.64	3716.77
414.83	3714.43
415.02	3803.37
415.22	3845.50
415.41	3857.20
415.60	4056.15
415.79	3829.12
415.98	3981.25
416.17	3927.42
416.36	3964.87
416.55	4004.66
416.74	4117.00
416.93	3995.29
417.12	4154.45
417.31	4337.01
417.50	4166.15
417.69	4353.40
417.88	4278.50
418.07	4278.50
418.26	4332.33
418.45	4311.27
418.64	4559.36
418.83	4550.00
419.02	4344.03
419.21	4648.30
419.39	4475.10
419.58	4400.21
419.77	4550.00
419.96	4718.52
420.15	4645.96
420.34	4566.39
420.53	4753.63
420.72	4643.62
420.91	4692.77
421.10	4800.44
421.29	4950.23
421.48	4748.95
421.67	4840.23
421.86	4781.71
422.05	4933.85
422.24	4828.53
422.43	4837.89
422.61	5008.75
422.80	5085.98
422.99	4968.96
423.18	4908.10
423.37	5027.47
423.56	4856.61
423.75	4997.04
423.94	4798.10
424.13	4526.60
424.32	4685.75
424.50	5095.35
424.69	5085.98
424.88	4964.28
425.07	5062.58
425.26	4922.15
425.45	5029.81
425.64	4858.95
425.83	4983.00
426.01	5055.56
426.20	5078.96
426.39	4952.57
426.58	5142.16
426.77	4945.55
426.96	5200.67
427.15	5114.07
427.33	5245.14
427.52	5083.64
427.71	5167.90
427.90	5149.18
428.09	5350.46
428.28	5420.68
428.46	5277.91
428.65	5303.65
428.84	5467.49
429.03	5596.22
429.22	5301.31
429.40	5621.97
429.59	5540.05
429.78	5345.78
429.97	5125.77
430.16	5657.07
430.34	5696.86
430.53	5717.93
430.72	5640.69
430.91	5631.33
431.10	5703.89
431.28	5832.62
431.47	5844.32
431.66	5888.79
431.85	5692.18
432.03	5846.66
432.22	6085.39
432.41	6024.54
432.60	5860.70
432.79	6066.67
432.97	6167.31
433.16	6061.99
433.35	5867.72
433.54	6104.12
433.72	6136.88
433.91	6033.90
434.10	6225.82
434.28	6164.97
434.47	6183.70
434.66	6230.51
434.85	6445.84
435.03	6375.62
435.22	6253.91
435.41	6455.20
435.59	6464.56
435.78	6555.84
435.97	6443.49
436.16	6455.20
436.34	6492.65
436.53	6626.06
436.72	6698.61
436.90	6406.05
437.09	6778.19
437.28	6509.03
437.46	6672.87
437.65	6747.76
437.84	6693.93
438.02	6736.06
438.21	6642.44
438.40	6712.66
438.58	7087.14
438.77	6974.80
438.96	6979.48
439.14	7103.53
439.33	7314.17
439.52	7272.04
439.70	7215.87
439.89	7276.73
440.08	7496.74
440.26	7503.76
440.45	7297.79
440.63	7485.03
440.82	7740.15
441.01	7665.25
441.19	7581.00
441.38	7590.36
441.57	7911.01
441.75	7716.75
441.94	7918.03
442.12	7971.86
442.31	8025.70
442.50	8131.02
442.68	8063.15
442.87	8245.71
443.05	8304.22
443.24	8198.90
443.43	8287.84
443.61	8297.20
443.80	8465.72
443.98	8046.76
444.17	7894.63
444.35	8297.20
444.54	8465.72
444.73	8517.21
444.91	8421.25
445.10	8493.80
445.28	8400.18
445.47	8245.71
445.65	8418.91
445.84	8615.51
446.02	8526.57
446.21	8489.12
446.39	8430.61
446.58	8425.93
446.77	8573.38
446.95	8430.61
447.14	8451.67
447.32	8645.94
447.51	8631.90
447.69	8596.79
447.88	8681.05
448.06	8400.18
448.25	8711.47
448.43	8683.39
448.62	8807.44
448.80	8657.64
448.99	8613.17
449.17	8622.53
449.36	8662.32
449.54	8791.05
449.73	9018.08
449.91	9018.08
450.10	8802.75
450.28	9104.68
450.46	9074.26
450.65	9151.49
450.83	9324.69
451.02	9109.36
451.20	9369.16
451.39	9226.39
451.57	9207.67
451.76	9322.35
451.94	9261.50
452.13	9497.89
452.31	9139.79
452.49	9202.99
452.68	9413.63
452.86	9366.82
453.05	9551.73
453.23	9462.79
453.42	9446.40
453.60	9401.93
453.78	9806.84
453.97	9706.20
454.15	9561.09
454.34	9633.64
454.52	9792.80
454.70	9689.82
454.89	9830.25
455.07	9870.04
455.26	9914.51
455.44	10015.15
455.62	9893.44
455.81	9989.41
455.99	9980.04
456.17	10228.14
456.36	10319.42
456.54	10239.84
456.73	10171.97
456.91	10565.18
457.09	10541.77
457.28	10878.81
457.46	10303.04
457.64	10455.17
457.83	10501.98
458.01	10490.28
458.19	10817.96
458.38	10635.39
458.56	10785.19
458.74	10553.48
458.93	10738.38
459.11	10745.40
459.29	10869.45
459.48	10911.58
459.66	10813.28
459.84	10946.69
460.03	11171.38
460.21	11030.94
460.39	10995.84
460.57	11084.78
460.76	11169.04
460.94	11229.89
461.12	11480.33
461.31	10979.45
461.49	11199.46
461.67	11342.24
461.85	11475.65
462.04	11276.70
462.22	11538.84
462.40	11847.79
462.59	11548.20
462.77	11646.51
462.95	11573.95
463.13	11679.27
463.32	11690.98
463.50	11789.28
463.68	11836.09
463.86	12030.35
464.05	11674.59
464.23	11679.27
464.41	11999.93
464.59	11824.39
464.78	12182.49
464.96	12002.27
465.14	12046.74
465.32	11939.07
465.50	12145.04
465.69	12243.34
465.87	12184.83
466.05	12135.68
466.23	12280.79
466.41	12241.00
466.60	12856.56
466.78	12327.60
466.96	12049.08
467.14	12437.61
467.32	12549.95
467.51	12692.73
467.69	12044.40
467.87	12472.71
468.05	12952.52
468.23	12465.69
468.41	12662.30
468.60	12718.47
468.78	12830.82
468.96	12695.07
469.14	12788.69
469.32	13224.03
469.50	12891.67
469.69	13018.06
469.87	13022.74
470.05	13350.42
470.23	13188.92
470.41	13221.69
470.59	13341.05
470.77	13338.71
470.95	13392.55
471.14	13479.15
471.32	13249.77
471.50	13792.78
471.68	13642.98
471.86	13525.96
472.04	13741.29
472.22	14303.01
472.40	13909.80
472.58	13895.76
472.77	14354.51
472.95	14436.42
473.13	14909.21
473.31	14178.97
473.49	14169.60
473.67	13949.59
473.85	14373.23
474.03	14597.92
474.21	14558.13
474.39	14946.66
474.57	14597.92
474.75	15000.49
474.93	15166.67
475.12	14874.10
475.30	15101.14
475.48	15066.03
475.66	15178.37
475.84	15229.87
476.02	15459.24
476.20	15470.94
476.38	15864.15
476.56	16156.72
476.74	16027.99
476.92	16065.44
477.10	16086.50
477.28	16278.43
477.46	16456.31
477.64	16556.95
477.82	16524.18
478.00	17205.28
478.18	16788.66
478.36	16875.26
478.54	17137.40
478.72	17493.16
478.90	17371.46
479.08	17804.46
479.26	17928.50
479.44	17916.80
479.62	17933.18
479.80	17996.38
479.98	18291.29
480.16	18380.23
480.34	18494.91
480.52	18691.52
480.70	18604.92
480.88	18614.28
481.06	18780.46
481.24	19044.94
481.41	19082.39
481.59	19229.84
481.77	19618.37
481.95	19456.87
482.13	19604.33
482.31	19906.26
482.49	20278.40
482.67	20439.90
482.85	20610.76
483.03	20718.42
483.21	20610.76
483.39	21067.16
483.57	21238.02
483.74	21338.66
483.92	21528.25
484.10	21596.12
484.28	21930.82
484.46	22026.78
484.64	22464.46
484.82	22307.65
485.00	22691.49
485.18	22860.01
485.35	22796.82
485.53	23115.13
485.71	23257.90
485.89	23662.82
486.07	23449.83
486.25	23353.87
486.43	23562.17
486.61	24084.11
486.78	24271.36
486.96	24596.69
487.14	24952.45
487.32	24872.87
487.50	25097.56
487.68	25125.65
487.85	25579.71
488.03	25844.20
488.21	26017.40
488.39	25902.71
488.57	26616.57
488.75	26235.06
488.92	26597.85
489.10	27222.77
489.28	27304.69
489.46	27391.29
489.64	26998.08
489.81	27857.06
489.99	27817.27
490.17	27756.41
490.35	27967.06
490.53	28278.35
490.70	28407.08
490.88	28252.61
491.06	28748.80
491.24	29312.87
491.41	28788.59
491.59	29745.87
491.77	29429.90
491.95	29596.07
492.13	29979.92
492.30	30150.78
492.48	30061.84
492.66	30370.79
492.84	30476.12
493.01	31180.62
493.19	31377.22
493.37	31229.77
493.54	31487.23
493.72	31873.42
493.90	31777.45
494.08	32018.53
494.25	32236.20
494.43	32650.47
494.61	32266.63
494.79	32575.58
494.96	32741.75
495.14	32870.48
495.32	33141.99
495.49	33301.14
495.67	33869.89
495.85	33773.93
496.02	33825.42
496.20	34263.10
496.38	34239.70
496.55	34029.05
496.73	35051.86
496.91	34759.30
497.09	34965.26
497.26	35306.98
497.44	35342.09
497.62	35702.53
497.79	36065.31
497.97	35723.60
498.14	36081.70
498.32	35985.74
498.50	36271.28
498.67	36713.64
498.85	36451.50
499.03	36964.08
499.20	37188.77
499.38	36617.68
499.56	37518.79
499.73	37397.08
499.91	37617.09
500.08	37708.37
500.26	37663.90
500.44	38136.69
500.61	38396.49
500.79	38122.65
500.97	38345.00
501.14	38738.21
501.32	38953.54
501.49	38869.28
501.67	38611.82
501.84	39309.30
502.02	38817.78
502.20	39302.28
502.37	39571.44
502.55	39777.40
502.72	39672.08
502.90	39906.13
503.07	39929.54
503.25	39873.37
503.43	39992.73
503.60	40037.20
503.78	40292.32
503.95	40566.16
504.13	40662.13
504.30	41001.50
504.48	40783.83
504.65	40882.14
504.83	41275.35
505.01	41235.56
505.18	41399.40
505.36	41998.57
505.53	41549.19
505.71	41368.97
505.88	41694.30
506.06	41291.73
506.23	42408.17
506.41	42312.20
506.58	42532.22
506.76	42581.37
506.93	42639.88
507.11	42658.60
507.28	42703.07
507.46	43133.73
507.63	43379.49
507.81	43594.82
507.98	43234.38
508.16	43302.25
508.33	43803.13
508.50	43725.89
508.68	43746.95
508.85	44350.81
509.03	44158.89
509.20	43868.66
509.38	44727.64
509.55	44456.14
509.73	44940.63
509.90	45045.95
510.08	45045.95
510.25	44797.85
510.42	44776.79
510.60	45399.37
510.77	44891.48
510.95	45619.38
511.12	45448.52
511.30	45434.48
511.47	45764.49
511.64	46309.84
511.82	45834.71
511.99	46082.81
512.17	46340.27
512.34	46281.75
512.51	46586.02
512.69	46398.78
512.86	46375.37
513.04	47007.32
513.21	46880.93
513.38	47330.31
513.56	46946.47
513.73	47133.71
513.90	47107.96
514.08	47192.22
514.25	47419.25
514.43	47461.38
514.60	47826.51
514.77	47592.45
514.95	48098.01
515.12	47798.42
515.29	47962.26
515.47	48278.23
515.64	48456.11
515.81	48259.51
515.99	48051.20
516.16	48353.13
516.33	48334.40
516.51	48633.99
516.68	48729.95
516.85	48437.39
517.03	49265.94
517.20	48783.79
517.37	48987.41
517.54	49155.93
517.72	49006.14
517.89	49155.93
518.06	49193.38
518.24	49682.55
518.41	49446.16
518.58	49670.85
518.75	49731.70
518.93	49656.81
519.10	49717.66
519.27	49867.45
519.45	50225.56
519.62	50541.53
519.79	50426.84
519.96	50143.64
520.14	50314.50
520.31	50452.59
520.48	50738.13
520.65	50761.54
520.83	50813.03
521.00	50791.97
521.17	50883.25
521.34	50885.59
521.52	51035.38
521.69	51194.54
521.86	51353.69
522.03	51557.32
522.20	51395.82
522.38	51730.52
522.55	51849.89
522.72	51480.08
522.89	51554.98
523.07	52215.01
523.24	51892.02
523.41	51763.29
523.58	51828.82
523.75	51964.57
523.92	51870.95
524.10	52034.79
524.27	52102.67
524.44	52507.58
524.61	52102.67
524.78	52580.13
524.96	52449.06
525.13	52371.83
525.30	52994.41
525.47	53088.03
525.64	52830.57
525.81	52666.73
525.98	53024.84
526.16	52949.94
526.33	53083.35
526.50	53073.99
526.67	52825.89
526.84	53102.07
527.01	52938.24
527.18	53228.46
527.36	52996.75
527.53	53029.52
527.70	53291.66
527.87	53886.15
528.04	53577.20
528.21	53598.27
528.38	53525.71
528.55	53757.42
528.72	53593.59
528.89	53673.16
529.07	53642.74
529.24	53794.87
529.41	54057.01
529.58	54012.54
529.75	53652.10
529.92	53923.60
530.09	54120.21
530.26	53923.60
530.43	54174.04
530.60	54010.20
530.77	53991.48
530.94	54506.40
531.11	54174.04
531.28	54522.78
531.46	54635.13
531.63	54356.60
531.80	54506.40
531.97	54656.19
532.14	54703.00
532.31	54712.36
532.48	54880.88
532.65	54585.97
532.82	54550.87
532.99	55128.98
533.16	54798.96
533.33	55196.85
533.50	55260.05
533.67	55007.27
533.84	54925.35
534.01	55061.10
534.18	55189.83
534.35	55409.84
534.52	55124.30
534.69	55316.22
534.86	55437.93
535.03	55255.37
535.20	55297.50
535.37	55480.06
535.54	55664.96
535.71	55334.95
535.88	55901.36
536.05	55501.12
536.22	55985.61
536.38	55667.30
536.55	55688.37
536.72	55833.48
536.89	55636.87
537.06	55812.41
537.23	56037.11
537.40	55920.08
537.57	55781.99
537.74	55863.91
537.91	56294.56
538.08	56081.58
538.25	56109.66
538.42	55920.08
538.59	56392.87
538.75	56245.41
538.92	56123.71
539.09	56266.48
539.26	56280.52
539.43	56390.53
539.60	56404.57
539.77	56287.54
539.94	56664.37
540.11	56631.60
540.28	56477.13
540.44	56463.08
540.61	56666.71
540.78	56603.52
540.95	56505.21
541.12	56596.49
541.29	56671.39
541.46	56669.05
541.62	56711.18
541.79	56884.38
541.96	56505.21
542.13	56807.14
542.30	56942.89
542.47	57031.83
542.63	57118.43
542.80	57329.08
542.97	57172.27
543.14	57389.94
543.31	57340.78
543.48	57186.31
543.64	57694.21
543.81	57485.90
543.98	57537.39
544.15	57478.88
544.32	57542.07
544.48	57748.04
544.65	57418.02
544.82	57539.73
544.99	57396.96
545.16	57638.03
545.32	57696.55
545.49	57879.11
545.66	58103.80
545.83	57853.36
546.00	57710.59
546.16	57642.71
546.33	57801.87
546.50	57621.65
546.67	57792.51
546.83	57841.66
547.00	58136.57
547.17	57977.41
547.34	57855.70
547.50	58014.86
547.67	58169.33
547.84	58152.95
548.00	58145.93
548.17	58361.26
548.34	58365.94
548.51	58225.51
548.67	58408.07
548.84	58340.19
549.01	58152.95
549.18	58447.86
549.34	58585.95
549.51	58459.56
549.68	58447.86
549.84	58796.60
550.01	58712.34
550.18	58447.86
550.34	58674.89
550.51	58695.95
550.68	58489.99
550.84	58681.91
551.01	58691.27
551.18	58705.32
551.34	58649.14
551.51	58639.78
551.68	58777.87
551.84	58740.42
552.01	58660.85
552.18	59000.22
552.34	58635.10
552.51	58946.39
552.68	58784.90
552.84	58836.39
553.01	58990.86
553.18	58951.07
553.34	59063.42
553.51	58922.99
553.67	59061.08
553.84	59257.68
554.01	59025.97
554.17	59217.89
554.34	59028.31
554.51	59082.14
554.67	59351.30
554.84	59154.70
555.00	59220.23
555.17	59054.06
555.33	59238.96
555.50	59189.81
555.67	59267.05
555.83	59025.97
556.00	59262.36
556.16	59405.14
556.33	59283.43
556.50	59480.03
556.66	59620.47
556.83	59147.68
556.99	59498.76
557.16	59515.14
557.32	59561.95
557.49	59882.61
557.65	59341.94
557.82	59592.38
557.98	59536.21
558.15	59611.10
558.32	59732.81
558.48	59646.21
558.65	59608.76
558.81	59632.17
558.98	59599.40
559.14	59845.16
559.31	59987.93
559.47	59772.60
559.64	59831.11
559.80	59941.12
559.97	59814.73
560.13	59931.76
560.30	59842.82
560.46	60076.87
560.63	60018.36
560.79	60135.38
560.96	60020.70
561.12	59945.80
561.29	60001.97
561.45	59803.03
561.61	59992.61
561.78	59985.59
561.94	60060.49
562.11	60128.36
562.27	60121.34
562.44	60163.47
562.60	60327.31
562.77	60140.07
562.93	59894.31
563.10	60151.77
563.26	60069.85
563.42	60528.59
563.59	60055.81
563.75	60392.84
563.92	60236.03
564.08	60168.15
564.24	60374.12
564.41	60360.08
564.57	60331.99
564.74	60439.65
564.90	60219.64
565.07	60341.35
565.23	60287.52
565.39	60301.56
565.56	60275.82
565.72	60303.90
565.88	60371.78
566.05	60268.79
566.21	60523.91
566.38	60245.39
566.54	60537.96
566.70	60725.20
566.87	60575.40
567.03	60334.33
567.19	60467.74
567.36	60617.53
567.52	60502.85
567.68	60556.68
567.85	60683.07
568.01	60486.46
568.17	60413.91
568.34	60584.77
568.50	60671.37
568.66	60477.10
568.83	60530.93
568.99	60406.89
569.15	60474.76
569.32	60659.66
569.48	60523.91
569.64	60830.52
569.81	60694.77
569.97	60453.70
570.13	60519.23
570.30	60610.51
570.46	60654.98
570.62	60580.09
570.78	60640.94
570.95	60708.82
571.11	60711.16
571.27	60467.74
571.43	60427.95
571.60	60797.76
571.76	60699.45
571.92	60893.72
572.09	60734.56
572.25	60608.17
572.41	60753.29
572.57	60973.30
572.74	60966.27
572.90	60746.26
573.06	60603.49
573.22	60676.05
573.38	60811.80
573.55	60835.20
573.71	60893.72
573.87	60949.89
574.03	60603.49
574.20	60905.42
574.36	60757.97
574.52	60809.46
574.68	61038.83
574.84	61043.51
575.01	60697.11
575.17	60783.71
575.33	60835.20
575.49	60779.03
575.65	60779.03
575.82	60917.12
575.98	60985.00
576.14	61106.71
576.30	60818.82
576.46	61055.21
576.62	60757.97
576.79	60942.87
576.95	60835.20
577.11	60849.25
577.27	60994.36
577.43	61069.26
577.59	60912.44
577.75	60851.59
577.92	60903.08
578.08	60818.82
578.24	60809.46
578.40	61249.48
578.56	61132.45
578.72	60928.83
578.88	61073.94
579.04	61219.05
579.21	61291.61
579.37	61104.37
579.53	60928.83
579.69	60980.32
579.85	60989.68
580.01	61116.07
580.17	60821.16
580.33	60952.23
580.49	61230.75
580.65	61071.60
580.82	60973.30
580.98	61059.90
581.14	60779.03
581.30	61113.73
581.46	61050.53
581.62	61165.22
581.78	61160.54
581.94	61106.71
582.10	61017.77
582.26	61127.77
582.42	60973.30
582.58	61153.52
582.74	60877.33
582.90	60992.02
583.06	60999.04
583.22	60900.74
583.38	61064.58
583.54	61125.43
583.70	60926.49
583.86	61130.11
584.02	60954.57
584.18	61146.50
584.34	61118.41
584.50	61214.37
584.66	61013.08
584.82	60788.39
584.98	61219.05
585.14	61235.44
585.30	61015.43
585.46	61099.68
585.62	61200.33
585.78	61305.65
585.94	61078.62
586.10	61029.47
586.26	61315.01
586.42	61123.09
586.58	61226.07
586.74	61073.94
586.90	61134.79
587.06	61205.01
587.22	61240.12
587.38	60977.98
587.54	61336.08
587.70	61492.89
587.86	61375.87
588.02	61123.09
588.18	61352.46
588.34	61228.41
588.49	61123.09
