SpectraSuite Data File
++++++++++++++++++++++++++++++++++++
Date: Fri Oct 25 10:48:29 EDT 2013
User: price-jones
Dark Spectrum Present: No
Reference Spectrum Present: No
Number of Sampled Component Spectra: 1
Spectrometers: USB2+H05261
Integration Time (usec): 100000 (USB2+H05261)
Spectra Averaged: 1 (USB2+H05261)
Boxcar Smoothing: 0 (USB2+H05261)
Correct for Electrical Dark: No (USB2+H05261)
Strobe/Lamp Enabled: No (USB2+H05261)
Correct for Detector Non-linearity: No (USB2+H05261)
Correct for Stray Light: No (USB2+H05261)
Number of Pixels in Processed Spectrum: 2048
>>>>>Begin Processed Spectral Data<<<<<
365.73	133.41
365.92	133.41
366.12	133.41
366.32	53.83
366.52	42.13
366.72	100.64
366.91	49.15
367.11	84.26
367.31	91.28
367.51	39.79
367.70	56.17
367.90	67.88
368.10	23.41
368.30	60.85
368.49	110.01
368.69	23.41
368.89	88.94
369.09	39.79
369.28	23.41
369.48	65.54
369.68	11.70
369.87	79.58
370.07	119.37
370.27	154.48
370.47	208.31
370.66	379.17
370.86	470.45
371.06	479.81
371.25	491.51
371.45	470.45
371.65	477.47
371.84	554.71
372.04	528.96
372.24	463.43
372.44	554.71
372.63	517.26
372.83	580.45
373.03	545.34
373.22	486.83
373.42	484.49
373.62	585.13
373.81	587.47
374.01	657.69
374.21	484.49
374.40	482.15
374.60	699.82
374.79	638.97
374.99	571.09
375.19	650.67
375.38	631.94
375.58	601.52
375.78	692.80
375.97	692.80
376.17	711.52
376.37	592.16
376.56	660.03
376.76	723.23
376.95	596.84
377.15	653.01
377.35	657.69
377.54	692.80
377.74	608.54
377.93	648.33
378.13	690.46
378.33	650.67
378.52	678.76
378.72	699.82
378.91	753.65
379.11	685.78
379.31	690.46
379.50	711.52
379.70	720.88
379.89	662.37
380.09	664.71
380.28	744.29
380.48	732.59
380.68	765.36
380.87	636.63
381.07	690.46
381.26	819.19
381.46	664.71
381.65	702.16
381.85	643.65
382.04	730.25
382.24	702.16
382.43	788.76
382.63	723.23
382.83	704.50
383.02	688.12
383.22	760.67
383.41	695.14
383.61	725.57
383.80	786.42
384.00	851.96
384.19	755.99
384.39	917.49
384.58	755.99
384.78	767.70
384.97	791.10
385.17	849.61
385.36	795.78
385.56	802.80
385.75	847.27
385.95	863.66
386.14	938.55
386.34	866.00
386.53	814.51
386.72	919.83
386.92	880.04
387.11	877.70
387.31	851.96
387.50	917.49
387.70	847.27
387.89	884.72
388.09	891.74
388.28	889.40
388.48	849.61
388.67	903.45
388.86	968.98
389.06	964.30
389.25	1071.97
389.45	971.32
389.64	1018.13
389.84	976.00
390.03	1015.79
390.22	1076.65
390.42	978.34
390.61	1071.97
390.81	983.02
391.00	1109.41
391.19	1064.94
391.39	1128.14
391.58	1046.22
391.78	1109.41
391.97	1088.35
392.16	1036.86
392.36	1015.79
392.55	1090.69
392.75	1083.67
392.94	1053.24
393.13	1025.15
393.33	1071.97
393.52	1160.91
393.71	1083.67
393.91	1184.31
394.10	1095.37
394.29	1245.16
394.49	1174.95
394.68	1282.61
394.88	1275.59
395.07	1165.59
395.26	1345.81
395.46	1219.42
395.65	1235.80
395.84	1207.72
396.04	1235.80
396.23	1336.45
396.42	1214.74
396.62	1170.27
396.81	1221.76
397.00	1184.31
397.19	1235.80
397.39	1409.00
397.58	1397.30
397.77	1469.86
397.97	1425.39
398.16	1462.83
398.35	1526.03
398.55	1528.37
398.74	1516.67
398.93	1565.82
399.12	1584.54
399.32	1479.22
399.51	1535.39
399.70	1636.03
399.90	1523.69
400.09	1563.48
400.28	1671.14
400.47	1696.89
400.67	1703.91
400.86	1650.08
401.05	1729.66
401.24	1734.34
401.44	1760.08
401.63	1664.12
401.82	1671.14
402.01	1813.92
402.21	1734.34
402.40	1783.49
402.59	1673.48
402.78	1710.93
402.97	1811.57
403.17	1811.57
403.36	1762.42
403.55	1830.30
403.74	1975.41
403.93	1947.33
404.13	1961.37
404.32	1961.37
404.51	1935.62
404.70	1954.35
404.89	1898.17
405.09	2001.16
405.28	2022.22
405.47	1984.77
405.66	1870.09
405.85	1949.67
406.05	2036.27
406.24	2040.95
406.43	2024.56
406.62	2040.95
406.81	2249.25
407.00	2099.46
407.20	2036.27
407.39	2017.54
407.58	2172.02
407.77	2209.47
407.96	2314.79
408.15	2197.76
408.34	2335.85
408.54	2300.75
408.73	2260.96
408.92	2328.83
409.11	2377.98
409.30	2263.30
409.49	2193.08
409.68	2352.24
409.87	2422.45
410.07	2331.17
410.26	2359.26
410.45	2349.90
410.64	2492.67
410.83	2530.12
411.02	2626.08
411.21	2569.91
411.40	2562.89
411.59	2583.95
411.78	2583.95
411.98	2626.08
412.17	2593.31
412.36	2712.68
412.55	2675.23
412.74	2757.15
412.93	2794.60
413.12	2574.59
413.31	2935.03
413.50	2850.77
413.69	2878.86
413.88	2829.71
414.07	2890.56
414.26	2939.71
414.45	2916.31
414.64	2998.23
414.83	3131.64
415.02	3098.87
415.22	3138.66
415.41	3155.04
415.60	3138.66
415.79	3180.79
415.98	3349.31
416.17	3272.07
416.36	3288.45
416.55	3368.03
416.74	3262.71
416.93	3243.98
417.12	3419.52
417.31	3370.37
417.50	3325.90
417.69	3478.04
417.88	3515.48
418.07	3440.59
418.26	3405.48
418.45	3529.53
418.64	3632.51
418.83	3620.81
419.02	3716.77
419.21	3651.24
419.39	3583.36
419.58	3592.72
419.77	3527.19
419.96	3606.77
420.15	3782.31
420.34	3705.07
420.53	3686.34
420.72	3826.78
420.91	3763.58
421.10	3978.91
421.29	3805.71
421.48	3871.25
421.67	3992.95
421.86	3770.60
422.05	3843.16
422.24	3822.09
422.43	3744.86
422.61	3932.10
422.80	4025.72
422.99	4063.17
423.18	3992.95
423.37	3981.25
423.56	3995.29
423.75	3929.76
423.94	3845.50
424.13	3676.98
424.32	3901.67
424.50	3978.91
424.69	3941.46
424.88	3985.93
425.07	4067.85
425.26	3985.93
425.45	4007.00
425.64	4007.00
425.83	4056.15
426.01	4016.36
426.20	3920.40
426.39	4102.96
426.58	4009.34
426.77	3911.04
426.96	4058.49
427.15	4021.04
427.33	4056.15
427.52	4077.21
427.71	4297.22
427.90	4159.13
428.09	4222.33
428.28	4241.05
428.46	4142.75
428.65	4299.56
428.84	4236.37
429.03	4245.73
429.22	4056.15
429.40	4156.79
429.59	4231.69
429.78	3946.14
429.97	3978.91
430.16	4128.70
430.34	4252.75
430.53	4168.49
430.72	4212.96
430.91	4212.96
431.10	4512.55
431.28	4674.05
431.47	4582.77
431.66	4695.11
431.85	4545.32
432.03	4566.39
432.22	4713.84
432.41	4634.26
432.60	4753.63
432.79	4753.63
432.97	4706.82
433.16	4667.03
433.35	4585.11
433.54	4634.26
433.72	4781.71
433.91	4695.11
434.10	4744.27
434.28	4730.22
434.47	4802.78
434.66	4971.30
434.85	4975.98
435.03	5004.07
435.22	4975.98
435.41	5217.05
435.59	5160.88
435.78	5139.82
435.97	5266.21
436.16	5207.69
436.34	5135.14
436.53	5184.29
436.72	5247.48
436.90	5172.58
437.09	5275.57
437.28	5135.14
437.46	5107.05
437.65	5116.41
437.84	5317.70
438.02	5170.24
438.21	5245.14
438.40	5331.74
438.58	5411.32
438.77	5383.23
438.96	5474.51
439.14	5706.23
439.33	5575.16
439.52	5682.82
439.70	5701.54
439.89	5715.59
440.08	5708.57
440.26	5727.29
440.45	5799.85
440.63	6033.90
440.82	6022.20
441.01	6136.88
441.19	6162.63
441.38	6085.39
441.57	6050.28
441.75	6258.59
441.94	6366.26
442.12	6459.88
442.31	6214.12
442.50	6340.51
442.68	6204.76
442.87	6232.85
443.05	6476.26
443.24	6548.82
443.43	6541.80
443.61	6506.69
443.80	6787.55
443.98	6403.71
444.17	6361.58
444.35	6586.27
444.54	6874.15
444.73	6644.78
444.91	6499.67
445.10	6424.77
445.28	6513.71
445.47	6429.45
445.65	6413.07
445.84	6633.08
446.02	6675.21
446.21	6665.85
446.39	6562.86
446.58	6612.01
446.77	6698.61
446.95	6551.16
447.14	6717.34
447.32	6782.87
447.51	6604.99
447.69	6583.93
447.88	6675.21
448.06	6672.87
448.25	6773.51
448.43	6787.55
448.62	6703.29
448.80	6909.26
448.99	6834.36
449.17	6909.26
449.36	6848.41
449.54	7073.10
449.73	7096.50
449.91	7155.02
450.10	7222.89
450.28	7344.60
450.46	7265.02
450.65	7213.53
450.83	7286.09
451.02	7197.15
451.20	7258.00
451.39	7304.81
451.57	7225.23
451.76	7133.95
451.94	7279.07
452.13	7339.92
452.31	7325.88
452.49	7070.76
452.68	7297.79
452.86	7286.09
453.05	7276.73
453.23	7676.96
453.42	7438.22
453.60	7389.07
453.78	7456.95
453.97	7456.95
454.15	7583.34
454.34	7555.25
454.52	7812.71
454.70	7559.93
454.89	7641.85
455.07	7625.47
455.26	7733.13
455.44	7873.56
455.62	7611.42
455.81	7878.24
455.99	7901.65
456.17	7892.29
456.36	7850.16
456.54	8086.55
456.73	7927.39
456.91	8194.22
457.09	8128.68
457.28	8205.92
457.46	8255.07
457.64	8341.67
457.83	8124.00
458.01	8070.17
458.19	8222.30
458.38	8318.26
458.56	8430.61
458.74	8430.61
458.93	8315.92
459.11	8344.01
459.29	8287.84
459.48	8482.10
459.66	8421.25
459.84	8418.91
460.03	8746.58
460.21	8641.26
460.39	8617.85
460.57	8498.49
460.76	8624.87
460.94	8734.88
461.12	8851.91
461.31	8678.71
461.49	8837.86
461.67	8751.26
461.85	9102.34
462.04	8952.55
462.22	9380.87
462.40	8856.59
462.59	8964.25
462.77	8753.60
462.95	8971.27
463.13	8924.46
463.32	8971.27
463.50	9165.54
463.68	9109.36
463.86	9074.26
464.05	8943.19
464.23	9011.06
464.41	9373.85
464.59	8889.35
464.78	9324.69
464.96	9137.45
465.14	9179.58
465.32	9116.39
465.50	9205.33
465.69	9291.93
465.87	9327.03
466.05	9291.93
466.23	9572.79
466.41	9217.03
466.60	9373.85
466.78	9109.36
466.96	9437.04
467.14	9420.66
467.32	9434.70
467.51	9516.62
467.69	9205.33
467.87	9420.66
468.05	9680.46
468.23	9621.94
468.41	9408.95
468.60	9563.43
468.78	9762.37
468.96	9558.75
469.14	9783.44
469.32	9823.23
469.50	9638.33
469.69	9827.91
469.87	9912.17
470.05	9970.68
470.23	9909.83
470.41	9781.10
470.59	10015.15
470.77	9970.68
470.95	10047.92
471.14	10202.40
471.32	10237.50
471.50	10200.05
471.68	10345.17
471.86	10476.24
472.04	10349.85
472.22	10567.52
472.40	10099.41
472.58	10590.92
472.77	10600.29
472.95	10750.08
473.13	11166.70
473.31	10789.87
473.49	10607.31
473.67	10740.72
473.85	10576.88
474.03	11047.33
474.21	10918.60
474.39	11197.12
474.57	11255.64
474.75	11269.68
474.93	11370.32
475.12	11222.87
475.30	11339.90
475.48	11311.81
475.66	11360.96
475.84	11499.05
476.02	11485.01
476.20	11468.62
476.38	11564.59
476.56	12023.33
476.74	12077.16
476.92	11800.98
477.10	11796.30
477.28	12194.19
477.46	12243.34
477.64	12503.14
477.82	12489.10
478.00	12837.84
478.18	12746.56
478.36	12805.07
478.54	12751.24
478.72	12987.63
478.90	13125.72
479.08	13224.03
479.26	13130.41
479.44	13076.57
479.62	13170.19
479.80	13530.64
479.98	13514.25
480.16	13799.80
480.34	13926.19
480.52	14073.64
480.70	13900.44
480.88	13811.50
481.06	13907.46
481.24	14143.86
481.41	14471.53
481.59	14359.19
481.77	14562.81
481.95	14452.81
482.13	14668.14
482.31	14398.98
482.49	14960.70
482.67	15126.88
482.85	15126.88
483.03	15410.09
483.21	15274.34
483.39	15475.62
483.57	15594.99
483.74	15641.80
483.92	15704.99
484.10	15644.14
484.28	15730.74
484.46	16367.37
484.64	16709.08
484.82	16233.96
485.00	16360.34
485.18	16496.10
485.35	16442.26
485.53	16475.03
485.71	16133.31
485.89	16606.10
486.07	16751.21
486.25	17050.80
486.43	16971.22
486.61	17076.55
486.78	17465.08
486.96	17495.50
487.14	17907.44
487.32	18047.87
487.50	18064.25
487.68	18314.69
487.85	18647.05
488.03	18831.95
488.21	18735.99
488.39	18972.38
488.57	18925.57
488.75	19101.11
488.92	19073.03
489.10	19770.51
489.28	19646.46
489.46	19974.13
489.64	19667.52
489.81	20201.16
489.99	20439.90
490.17	20631.82
490.35	20414.15
490.53	20460.96
490.70	21032.05
490.88	20683.31
491.06	20842.47
491.24	20980.56
491.41	20802.68
491.59	20952.48
491.77	21027.37
491.95	21413.56
492.13	21617.19
492.30	21659.32
492.48	21678.04
492.66	21811.45
492.84	22085.30
493.01	22106.36
493.19	22045.51
493.37	22644.68
493.54	22827.24
493.72	22637.66
493.90	22735.96
494.08	23335.14
494.25	23555.15
494.43	23314.08
494.61	23690.90
494.79	23583.24
494.96	23688.56
495.14	23613.66
495.32	24051.34
495.49	24159.01
495.67	24276.04
495.85	24177.73
496.02	24437.53
496.20	24608.39
496.38	24659.88
496.55	24919.68
496.73	25055.43
496.91	24994.58
497.09	25465.03
497.26	25256.72
497.44	25446.30
497.62	25380.77
497.79	25694.40
497.97	25511.84
498.14	25748.23
498.32	25790.36
498.50	25759.94
498.67	26047.82
498.85	26185.91
499.03	26284.22
499.20	26321.66
499.38	26487.84
499.56	26778.07
499.73	26670.40
499.91	26728.92
500.08	27019.14
500.26	26913.82
500.44	26665.72
500.61	26941.91
500.79	27150.21
500.97	27297.67
501.14	27625.34
501.32	27723.65
501.49	27260.22
501.67	27611.30
501.84	27761.09
502.02	27571.51
502.20	27681.52
502.37	28168.35
502.55	27936.63
502.72	28306.44
502.90	28472.62
503.07	28381.34
503.25	28545.17
503.43	28463.25
503.60	28568.58
503.78	28397.72
503.95	28554.54
504.13	29022.64
504.30	29118.60
504.48	29277.76
504.65	29523.52
504.83	29366.70
505.01	29575.01
505.18	29472.03
505.36	29694.38
505.53	29722.46
505.71	29984.60
505.88	30150.78
506.06	29525.86
506.23	29582.03
506.41	30118.01
506.58	30583.78
506.76	29928.43
506.93	30525.27
507.11	30270.15
507.28	30513.56
507.46	30412.92
507.63	30270.15
507.81	30443.35
507.98	30340.36
508.16	30829.54
508.33	30874.01
508.50	31180.62
508.68	30951.24
508.85	31255.51
509.03	31236.79
509.20	31379.56
509.38	31569.15
509.55	31768.09
509.73	31482.55
509.90	31857.03
510.08	31805.54
510.25	31882.78
510.42	31885.12
510.60	32009.17
510.77	32252.58
510.95	32203.43
511.12	32268.97
511.30	32540.47
511.47	32713.67
511.64	32669.20
511.82	32720.69
511.99	32833.04
512.17	33111.56
512.34	32692.60
512.51	33024.96
512.69	33039.00
512.86	33359.66
513.04	33366.68
513.21	33453.28
513.38	33317.53
513.56	33340.93
513.73	33350.29
513.90	33591.37
514.08	33652.22
514.25	33441.57
514.43	33661.58
514.60	33635.84
514.77	33708.40
514.95	34192.89
515.12	33993.94
515.29	34366.09
515.47	34946.54
515.64	34710.14
515.81	34110.97
515.99	34286.51
516.16	33612.43
516.33	33769.25
516.51	34239.70
516.68	34017.35
516.85	33830.10
517.03	34387.15
517.20	34534.60
517.37	34412.90
517.54	34911.43
517.72	34768.66
517.89	34305.23
518.06	34572.05
518.24	34703.12
518.41	34733.55
518.58	35019.10
518.75	35012.07
518.93	35337.41
519.10	35297.62
519.27	35658.06
519.45	35370.18
519.62	35637.00
519.79	36175.32
519.96	36055.95
520.14	36048.93
520.31	35531.67
520.48	36205.75
520.65	35864.03
520.83	36477.25
521.00	36561.51
521.17	36353.20
521.34	36645.77
521.52	36788.54
521.69	37085.79
521.86	36765.14
522.03	36671.51
522.20	36795.56
522.38	36987.49
522.55	36943.02
522.72	37123.24
522.89	36779.18
523.07	37235.58
523.24	36928.97
523.41	37256.65
523.58	37525.81
523.75	37792.63
523.92	37511.77
524.10	37736.46
524.27	37462.61
524.44	37202.82
524.61	38426.92
524.78	37993.92
524.96	37801.99
525.13	37979.87
525.30	38590.75
525.47	38171.80
525.64	38244.35
525.81	38389.47
525.98	38047.75
526.16	37710.71
526.33	37563.26
526.50	38340.32
526.67	37584.32
526.84	38356.70
527.01	37900.29
527.18	38291.16
527.36	38607.14
527.53	38733.53
527.70	39456.75
527.87	38892.68
528.04	38735.87
528.21	39218.02
528.38	39016.73
528.55	39576.12
528.72	39328.02
528.89	39812.51
529.07	39147.80
529.24	39690.80
529.41	39349.09
529.58	39409.94
529.75	39049.50
529.92	39281.21
530.09	39599.52
530.26	40037.20
530.43	39543.35
530.60	39562.08
530.77	39754.00
530.94	40416.37
531.11	40371.90
531.28	40301.68
531.46	40240.83
531.63	39885.07
531.80	39899.11
531.97	40123.80
532.14	39962.31
532.31	39718.89
532.48	39985.71
532.65	40196.36
532.82	40535.74
532.99	40229.13
533.16	39931.88
533.33	40453.82
533.50	40545.10
533.67	40524.04
533.84	40172.96
534.01	40727.66
534.18	40500.63
534.35	40889.16
534.52	41221.52
534.69	40961.72
534.86	41057.68
535.03	40786.18
535.20	41373.65
535.37	41319.82
535.54	41308.11
535.71	40603.61
535.88	41315.14
536.05	41221.52
536.22	41556.21
536.38	41319.82
536.55	41198.11
536.72	41109.17
536.89	41041.29
537.06	40999.16
537.23	41619.41
537.40	41984.53
537.57	41832.39
537.74	41626.43
537.91	42286.46
538.08	41918.99
538.25	41947.08
538.42	41544.51
538.59	42094.53
538.75	41500.04
538.92	41530.47
539.09	42089.85
539.26	41930.70
539.43	41827.71
539.60	41895.59
539.77	42167.09
539.94	41900.27
540.11	41921.34
540.28	42005.59
540.44	42424.55
540.61	42160.07
540.78	41811.33
540.95	42644.56
541.12	42103.90
541.29	42373.06
541.46	42515.83
541.62	42749.88
541.79	42682.01
541.96	42440.93
542.13	42220.92
542.30	42380.08
542.47	42841.17
542.63	42586.05
542.80	43026.07
542.97	42941.81
543.14	43187.56
543.31	43374.81
543.48	43374.81
543.64	43330.34
543.81	43388.85
543.98	43313.95
544.15	43625.25
544.32	43454.39
544.48	43702.48
544.65	43199.27
544.82	43576.09
544.99	43019.05
545.16	43782.06
545.32	43545.67
545.49	44098.03
545.66	43517.58
545.83	43665.03
546.00	44177.61
546.16	43981.01
546.33	43957.60
546.50	43342.04
546.67	43775.04
546.83	43138.41
547.00	43938.88
547.17	43686.10
547.34	43992.71
547.50	44175.27
547.67	44168.25
547.84	44156.55
548.00	44444.43
548.17	44397.62
548.34	44165.91
548.51	44671.46
548.67	44392.94
548.84	44622.31
549.01	44547.42
549.18	44037.18
549.34	43983.35
549.51	44839.98
549.68	44807.22
549.84	44837.64
550.01	45031.91
550.18	44690.19
550.34	44463.16
550.51	44397.62
550.68	44360.17
550.84	44484.22
551.01	44577.84
551.18	44367.20
551.34	44793.17
551.51	44753.38
551.68	44992.12
551.84	45123.19
552.01	44760.40
552.18	44891.48
552.34	44435.07
552.51	44868.07
552.68	45043.61
552.84	45172.34
553.01	45174.68
553.18	45212.13
553.34	44999.14
553.51	44935.95
553.67	45099.78
553.84	45474.27
554.01	45694.28
554.17	45439.16
554.34	45675.55
554.51	45382.99
554.67	45509.38
554.84	45603.00
555.00	45160.64
555.17	45516.40
555.33	45841.73
555.50	45385.33
555.67	45539.80
555.83	45256.60
556.00	45659.17
556.16	46246.65
556.33	45673.21
556.50	45462.57
556.66	45357.24
556.83	45787.90
556.99	45708.32
557.16	46075.79
557.32	45612.36
557.49	45659.17
557.65	45813.65
557.82	45731.73
557.98	45617.04
558.15	45481.29
558.32	45483.63
558.48	45925.99
558.65	45972.80
558.81	45720.02
558.98	45886.20
559.14	45652.15
559.31	46057.06
559.47	45638.11
559.64	45989.19
559.80	46328.56
559.97	46298.14
560.13	45476.61
560.30	45904.93
560.46	46007.91
560.63	46302.82
560.79	46087.49
560.96	46295.80
561.12	45986.85
561.29	45731.73
561.45	45713.00
561.61	45572.57
561.78	46330.90
561.94	45958.76
562.11	46569.64
562.27	45991.53
562.44	45923.65
562.60	46412.82
562.77	46777.95
562.93	45935.35
563.10	46546.23
563.26	46291.12
563.42	46745.18
563.59	46630.49
563.75	46211.54
563.92	46450.27
564.08	46323.88
564.24	46548.57
564.41	46213.88
564.57	46017.27
564.74	46305.16
564.90	46209.20
565.07	46277.07
565.23	46616.45
565.39	46157.70
565.56	46380.06
565.72	46319.20
565.88	46117.92
566.05	46728.80
566.21	46244.30
566.38	46717.09
566.54	46637.51
566.70	47021.36
566.87	46717.09
567.03	46370.69
567.19	47182.86
567.36	46721.77
567.52	46319.20
567.68	46412.82
567.85	47026.04
568.01	46188.13
568.17	46422.19
568.34	46333.24
568.50	46820.08
568.66	45649.81
568.83	46766.24
568.99	46417.50
569.15	46555.60
569.32	46478.36
569.48	46445.59
569.64	46581.34
569.81	46686.67
569.97	46433.89
570.13	46522.83
570.30	46733.48
570.46	46286.43
570.62	46197.49
570.78	46443.25
570.95	46248.99
571.11	47072.85
571.27	46579.00
571.43	46419.84
571.60	46548.57
571.76	46721.77
571.92	46763.90
572.09	46808.37
572.25	46780.29
572.41	46796.67
572.57	46920.72
572.74	47203.92
572.90	46820.08
573.06	46539.21
573.22	46754.54
573.38	47168.82
573.55	46852.84
573.71	46284.09
573.87	47168.82
574.03	46436.23
574.20	46834.12
574.36	46738.16
574.52	46791.99
574.68	47213.29
574.84	46316.86
575.01	46916.04
575.17	46845.82
575.33	46373.03
575.49	46508.79
575.65	47136.05
575.82	47180.52
575.98	47023.70
576.14	47028.38
576.30	46728.80
576.46	46490.06
576.62	46784.97
576.79	46958.17
576.95	45937.69
577.11	46705.39
577.27	46719.43
577.43	47002.64
577.59	46464.32
577.75	46890.29
577.92	46424.53
578.08	46464.32
578.24	46340.27
578.40	46780.29
578.56	46698.37
578.72	46983.91
578.88	46939.44
579.04	46649.22
579.21	46829.44
579.37	46745.18
579.53	46672.62
579.69	46642.20
579.85	46960.51
580.01	46976.89
580.17	46967.53
580.33	47019.02
580.49	46852.84
580.65	47110.30
580.82	46522.83
580.98	47131.37
581.14	46726.46
581.30	47103.28
581.46	46600.07
581.62	47159.45
581.78	47065.83
581.94	47494.15
582.10	47058.81
582.26	47126.69
582.42	46782.63
582.58	46754.54
582.74	46773.27
582.90	47180.52
583.06	47033.07
583.22	46923.06
583.38	47203.92
583.54	47093.92
583.70	46906.68
583.86	46579.00
584.02	46623.47
584.18	47100.94
584.34	46850.50
584.50	46838.80
584.66	46894.97
584.82	47075.19
584.98	47122.01
585.14	47079.88
585.30	46890.29
585.46	46656.24
585.62	46850.50
585.78	46766.24
585.94	46487.72
586.10	46534.53
586.26	46902.00
586.42	46953.49
586.58	47168.82
586.74	46862.21
586.90	46548.57
587.06	47166.48
587.22	47468.40
587.38	46466.66
587.54	47124.35
587.70	47292.86
587.86	46707.73
588.02	46808.37
588.18	47154.77
588.34	47098.60
588.49	46543.89
588.65	46227.92
588.81	46604.75
588.97	46817.74
589.13	46469.00
589.29	46632.83
589.45	46705.39
589.61	47037.75
589.77	47061.15
589.93	47100.94
