SpectraSuite Data File
++++++++++++++++++++++++++++++++++++
Date: Fri Oct 25 11:25:15 EDT 2013
User: price-jones
Dark Spectrum Present: No
Reference Spectrum Present: No
Number of Sampled Component Spectra: 1
Spectrometers: USB2+H05261
Integration Time (usec): 100000 (USB2+H05261)
Spectra Averaged: 1 (USB2+H05261)
Boxcar Smoothing: 0 (USB2+H05261)
Correct for Electrical Dark: No (USB2+H05261)
Strobe/Lamp Enabled: No (USB2+H05261)
Correct for Detector Non-linearity: No (USB2+H05261)
Correct for Stray Light: No (USB2+H05261)
Number of Pixels in Processed Spectrum: 2048
>>>>>Begin Processed Spectral Data<<<<<
365.73	297.25
365.92	297.25
366.12	297.25
366.32	173.20
366.52	147.45
366.72	114.69
366.91	121.71
367.11	152.13
367.31	107.66
367.51	81.92
367.70	100.64
367.90	121.71
368.10	128.73
368.30	128.73
368.49	28.09
368.69	212.99
368.89	119.37
369.09	149.79
369.28	212.99
369.48	114.69
369.68	156.82
369.87	222.35
370.07	217.67
370.27	266.82
370.47	315.97
370.66	552.37
370.86	617.90
371.06	592.16
371.25	613.22
371.45	690.46
371.65	653.01
371.84	641.31
372.04	643.65
372.24	657.69
372.44	741.95
372.63	702.16
372.83	770.04
373.03	732.59
373.22	737.27
373.42	748.97
373.62	786.42
373.81	699.82
374.01	683.44
374.21	821.53
374.40	873.02
374.60	837.91
374.79	765.36
374.99	828.55
375.19	793.44
375.38	868.34
375.58	842.59
375.78	940.90
375.97	945.58
376.17	873.02
376.37	851.96
376.56	866.00
376.76	863.66
376.95	828.55
377.15	884.72
377.35	940.90
377.54	887.06
377.74	945.58
377.93	889.40
378.13	980.68
378.33	964.30
378.52	1015.79
378.72	915.15
378.91	938.55
379.11	847.27
379.31	905.79
379.50	901.11
379.70	887.06
379.89	983.02
380.09	882.38
380.28	938.55
380.48	1050.90
380.68	1067.28
380.87	973.66
381.07	987.71
381.26	959.62
381.46	1015.79
381.65	1020.47
381.85	1081.33
382.04	1114.10
382.24	1109.41
382.43	1097.71
382.63	1067.28
382.83	1114.10
383.02	1076.65
383.22	1200.69
383.41	1088.35
383.61	1039.20
383.80	1060.26
384.00	1032.18
384.19	1158.57
384.39	1095.37
384.58	1149.20
384.78	1174.95
384.97	1121.12
385.17	1144.52
385.36	1172.61
385.56	1188.99
385.75	1160.91
385.95	1170.27
386.14	1172.61
386.34	1128.14
386.53	1235.80
386.72	1224.10
386.92	1214.74
387.11	1188.99
387.31	1289.64
387.50	1277.93
387.70	1219.42
387.89	1287.29
388.09	1273.25
388.28	1226.44
388.48	1226.44
388.67	1362.19
388.86	1331.76
389.06	1275.59
389.25	1242.82
389.45	1373.89
389.64	1348.15
389.84	1348.15
390.03	1320.06
390.22	1359.85
390.42	1299.00
390.61	1411.34
390.81	1423.05
391.00	1469.86
391.19	1451.13
391.39	1404.32
391.58	1404.32
391.78	1425.39
391.97	1462.83
392.16	1434.75
392.36	1451.13
392.55	1521.35
392.75	1418.36
392.94	1490.92
393.13	1519.01
393.33	1542.41
393.52	1530.71
393.71	1551.78
393.91	1568.16
394.10	1547.09
394.29	1497.94
394.49	1554.12
394.68	1577.52
394.88	1666.46
395.07	1605.61
395.26	1668.80
395.46	1614.97
395.65	1678.16
395.84	1818.60
396.04	1849.02
396.23	1799.87
396.42	1746.04
396.62	1746.04
396.81	1870.09
397.00	1734.34
397.19	1722.63
397.39	1781.15
397.58	1837.32
397.77	1741.36
397.97	1877.11
398.16	1790.51
398.35	1921.58
398.55	1893.49
398.74	1947.33
398.93	1849.02
399.12	1870.09
399.32	1851.36
399.51	1877.11
399.70	2022.22
399.90	1961.37
400.09	1998.82
400.28	2017.54
400.47	1975.41
400.67	2019.88
400.86	2003.50
401.05	2111.16
401.24	2010.52
401.44	2062.01
401.63	2165.00
401.82	2043.29
402.01	2069.03
402.21	2129.89
402.40	2230.53
402.59	2263.30
402.78	2134.57
402.97	2228.19
403.17	2333.51
403.36	2139.25
403.55	2310.11
403.74	2249.25
403.93	2279.68
404.13	2307.77
404.32	2221.17
404.51	2349.90
404.70	2408.41
404.89	2401.39
405.09	2527.78
405.28	2602.68
405.47	2490.33
405.66	2464.58
405.85	2548.84
406.05	2509.05
406.24	2499.69
406.43	2450.54
406.62	2605.02
406.81	2623.74
407.00	2590.97
407.20	2588.63
407.39	2663.53
407.58	2754.81
407.77	2796.94
407.96	2745.45
408.15	2740.77
408.34	2668.21
408.54	2803.96
408.73	2754.81
408.92	2822.69
409.11	2839.07
409.30	3005.25
409.49	2967.80
409.68	2899.92
409.87	2883.54
410.07	2916.31
410.26	3023.97
410.45	3009.93
410.64	3138.66
410.83	3096.53
411.02	3143.34
411.21	3014.61
411.40	3042.70
411.59	3068.44
411.78	3084.83
411.98	3234.62
412.17	3171.43
412.36	3279.09
412.55	3248.66
412.74	3283.77
412.93	3396.12
413.12	3307.18
413.31	3506.12
413.50	3328.24
413.69	3361.01
413.88	3478.04
414.07	3442.93
414.26	3597.40
414.45	3555.27
414.64	3744.86
414.83	3819.75
415.02	3707.41
415.22	3836.14
415.41	3775.28
415.60	3733.15
415.79	3829.12
415.98	3978.91
416.17	3857.20
416.36	3922.74
416.55	4018.70
416.74	4023.38
416.93	4051.47
417.12	4070.19
417.31	4184.88
417.50	4203.60
417.69	4259.78
417.88	4152.11
418.07	4280.84
418.26	4332.33
418.45	4283.18
418.64	4500.85
418.83	4458.72
419.02	4362.76
419.21	4404.89
419.39	4397.87
419.58	4339.35
419.77	4388.50
419.96	4390.84
420.15	4615.54
420.34	4603.83
420.53	4692.77
420.72	4638.94
420.91	4732.56
421.10	4732.56
421.29	4809.80
421.48	4468.08
421.67	4758.31
421.86	4788.74
422.05	4758.31
422.24	4812.14
422.43	4952.57
422.61	4821.50
422.80	4952.57
422.99	4709.16
423.18	4880.02
423.37	5025.13
423.56	4936.19
423.75	4842.57
423.94	4755.97
424.13	4795.76
424.32	4671.71
424.50	4997.04
424.69	5074.28
424.88	5156.20
425.07	5013.43
425.26	4912.78
425.45	4929.17
425.64	4758.31
425.83	5015.77
426.01	5081.30
426.20	4849.59
426.39	5074.28
426.58	5048.54
426.77	4915.12
426.96	4990.02
427.15	5008.75
427.33	5027.47
427.52	5067.26
427.71	5350.46
427.90	5266.21
428.09	5146.84
428.28	5294.29
428.46	5261.52
428.65	5481.53
428.84	5549.41
429.03	5488.56
429.22	5280.25
429.40	5451.11
429.59	5465.15
429.78	5191.31
429.97	5219.39
430.16	5355.15
430.34	5481.53
430.53	5575.16
430.72	5689.84
430.91	5591.54
431.10	5530.69
431.28	5528.35
431.47	5696.86
431.66	5825.59
431.85	5797.51
432.03	5907.51
432.22	5708.57
432.41	5790.49
432.60	5795.17
432.79	5837.30
432.97	5977.73
433.16	6085.39
433.35	6015.18
433.54	5977.73
433.72	6054.97
433.91	6132.20
434.10	6181.35
434.28	5947.30
434.47	5968.37
434.66	6195.40
434.85	6223.48
435.03	6310.08
435.22	6118.16
435.41	6464.56
435.59	6422.43
435.78	6368.60
435.97	6443.49
436.16	6487.96
436.34	6450.52
436.53	6497.33
436.72	6656.48
436.90	6431.79
437.09	6560.52
437.28	6597.97
437.46	6513.71
437.65	6642.44
437.84	6698.61
438.02	6436.47
438.21	6918.62
438.40	6609.67
438.58	6920.96
438.77	6944.37
438.96	6853.09
439.14	7068.42
439.33	7220.55
439.52	7206.51
439.70	7250.98
439.89	7213.53
440.08	7405.46
440.26	7140.97
440.45	7339.92
440.63	7403.11
440.82	7698.02
441.01	7267.36
441.19	7529.50
441.38	7625.47
441.57	7620.78
441.75	7836.11
441.94	7777.60
442.12	7934.42
442.31	7761.22
442.50	8028.04
442.68	7964.84
442.87	7894.63
443.05	8035.06
443.24	8308.90
443.43	7824.41
443.61	8107.62
443.80	8276.13
443.98	7906.33
444.17	7651.21
444.35	8259.75
444.54	8278.47
444.73	8336.99
444.91	8116.98
445.10	8271.45
445.28	8339.33
445.47	8367.42
445.65	8189.53
445.84	8416.57
446.02	8418.91
446.21	8341.67
446.39	8215.28
446.58	8404.86
446.77	8339.33
446.95	8189.53
447.14	8156.77
447.32	8505.51
447.51	8184.85
447.69	8376.78
447.88	8510.19
448.06	8266.77
448.25	8397.84
448.43	8554.66
448.62	8425.93
448.80	8608.49
448.99	8451.67
449.17	8777.01
449.36	8533.59
449.54	8503.17
449.73	9006.38
449.91	8882.33
450.10	8997.02
450.28	8889.35
450.46	9081.28
450.65	9076.60
450.83	8875.31
451.02	8901.06
451.20	8957.23
451.39	9062.55
451.57	8875.31
451.76	9004.04
451.94	8882.33
452.13	9259.16
452.31	9109.36
452.49	9167.88
452.68	9357.46
452.86	9247.46
453.05	9378.53
453.23	9291.93
453.42	9327.03
453.60	9238.09
453.78	9542.36
453.97	9364.48
454.15	9385.55
454.34	9376.19
454.52	9593.86
454.70	9764.72
454.89	9619.60
455.07	9584.49
455.26	9771.74
455.44	9926.21
455.62	9727.27
455.81	9785.78
455.99	9912.17
456.17	9998.77
456.36	10076.01
456.54	10129.84
456.73	10256.23
456.91	10672.84
457.09	10317.08
457.28	10506.66
457.46	10150.90
457.64	10452.83
457.83	10429.43
458.01	10387.30
458.19	10682.20
458.38	10424.75
458.56	10581.56
458.74	10743.06
458.93	10523.05
459.11	10738.38
459.29	10597.95
459.48	10602.63
459.66	10595.61
459.84	10855.40
460.03	10960.73
460.21	10899.87
460.39	10677.52
460.57	10937.32
460.76	11133.93
460.94	11232.23
461.12	11112.86
461.31	11239.25
461.49	10806.25
461.67	11187.76
461.85	11208.83
462.04	11246.27
462.22	11676.93
462.40	11442.88
462.59	11384.37
462.77	11412.45
462.95	11372.66
463.13	11623.10
463.32	11524.80
463.50	11492.03
463.68	11632.46
463.86	11730.76
464.05	11545.86
464.23	11744.81
464.41	11861.84
464.59	11379.68
464.78	12063.12
464.96	11854.81
465.14	11672.25
465.32	11915.67
465.50	11988.22
465.69	12042.06
465.87	12042.06
466.05	11950.78
466.23	12105.25
466.41	12070.14
466.60	12308.88
466.78	11925.03
466.96	11850.13
467.14	12194.19
467.32	12311.22
467.51	12318.24
467.69	12088.87
467.87	12252.70
468.05	12575.70
468.23	12407.18
468.41	12367.39
468.60	12463.35
468.78	12634.21
468.96	12547.61
469.14	12638.89
469.32	12919.76
469.50	12479.74
469.69	12622.51
469.87	12975.93
470.05	13107.00
470.23	12912.74
470.41	13111.68
470.59	13137.43
470.77	13043.81
470.95	13060.19
471.14	13495.53
471.32	12908.05
471.50	13502.55
471.68	13312.97
471.86	13640.64
472.04	13537.66
472.22	13809.16
472.40	13736.60
472.58	13467.44
472.77	13722.56
472.95	13832.57
473.13	14471.53
473.31	13975.34
473.49	14303.01
473.67	14080.66
473.85	14185.99
474.03	14717.29
474.21	14298.33
474.39	14635.37
474.57	14782.82
474.75	14590.90
474.93	14846.02
475.12	14881.13
475.30	14939.64
475.48	14986.45
475.66	14867.08
475.84	15166.67
476.02	15489.67
476.20	15145.61
476.38	15508.39
476.56	15695.63
476.74	15768.19
476.92	15585.63
477.10	15597.33
477.28	16088.84
477.46	15950.75
477.64	16301.83
477.82	16573.33
478.00	17296.56
478.18	16741.85
478.36	16826.11
478.54	16968.88
478.72	17027.40
478.90	17193.58
479.08	17296.56
479.26	17263.79
479.44	17895.74
479.62	17776.37
479.80	17685.09
479.98	18134.47
480.16	18511.30
480.34	18347.46
480.52	18539.38
480.70	18349.80
480.88	18244.48
481.06	18387.25
481.24	18623.64
481.41	18808.54
481.59	19407.72
481.77	19014.51
481.95	19377.30
482.13	19702.63
482.31	19367.93
482.49	19950.73
482.67	19882.85
482.85	20210.53
483.03	20130.95
483.21	20631.82
483.39	20833.11
483.57	20521.82
483.74	21062.48
483.92	20922.05
484.10	20776.94
484.28	21186.53
484.46	22239.77
484.64	22029.12
484.82	21675.70
485.00	22195.30
485.18	22537.02
485.35	22785.12
485.53	22661.07
485.71	22953.63
485.89	23510.68
486.07	23019.17
486.25	23145.56
486.43	23215.77
486.61	23777.50
486.78	23789.20
486.96	24140.29
487.14	24596.69
487.32	24154.33
487.50	24882.24
487.68	24685.63
487.85	24891.60
488.03	25404.17
488.21	25788.02
488.39	25310.55
488.57	25708.44
488.75	26199.96
488.92	26031.44
489.10	26572.10
489.28	26345.07
489.46	26981.70
489.64	26544.02
489.81	27550.45
489.99	27278.94
490.17	27185.32
490.35	28056.00
490.53	28233.88
490.70	28114.52
490.88	28093.45
491.06	28802.63
491.24	29043.71
491.41	28795.61
491.59	28727.74
491.77	29273.08
491.95	29490.75
492.13	29118.60
492.30	29923.75
492.48	29804.38
492.66	29895.66
492.84	30291.21
493.01	30389.52
493.19	29780.98
493.37	30724.21
493.54	30988.69
493.72	31002.74
493.90	30948.90
494.08	31555.10
494.25	31426.37
494.43	31967.04
494.61	32060.66
494.79	32123.85
494.96	32388.33
495.14	32458.55
495.32	32580.26
495.49	32858.78
495.67	32744.09
495.85	33500.09
496.02	33322.21
496.20	33858.19
496.38	34089.90
496.55	34031.39
496.73	34698.44
496.91	34167.14
497.09	34686.74
497.26	34572.05
497.44	34506.52
497.62	34644.61
497.79	35435.71
497.97	35178.25
498.14	35803.17
498.32	35648.70
498.50	36084.04
498.67	36491.29
498.85	35990.42
499.03	36538.10
499.20	36320.43
499.38	36402.35
499.56	36730.03
499.73	37017.91
499.91	36734.71
500.08	37055.36
500.26	37120.90
500.44	37364.31
500.61	37729.44
500.79	37677.94
500.97	37954.13
501.14	38139.03
501.32	38078.18
501.49	38492.45
501.67	38476.07
501.84	38639.90
502.02	38424.57
502.20	38663.31
502.37	39065.88
502.55	38808.42
502.72	38986.30
502.90	39112.69
503.07	38974.60
503.25	39072.90
503.43	39845.28
503.60	39866.34
503.78	39882.73
503.95	40004.44
504.13	40282.96
504.30	40453.82
504.48	40481.91
504.65	40332.11
504.83	40706.60
505.01	41195.77
505.18	40877.46
505.36	41577.28
505.53	41053.00
505.71	41310.46
505.88	41265.99
506.06	41174.70
506.23	41347.90
506.41	41509.40
506.58	41551.53
506.76	41687.28
506.93	42513.49
507.11	41998.57
507.28	42267.73
507.46	42087.51
507.63	42265.39
507.81	42838.83
507.98	42588.39
508.16	42705.41
508.33	43079.90
508.50	43929.51
508.68	43189.91
508.85	43742.27
509.03	42909.04
509.20	43505.88
509.38	43779.72
509.55	44016.11
509.73	43992.71
509.90	44713.59
510.08	44161.23
510.25	43983.35
510.42	44210.38
510.60	44435.07
510.77	45083.40
510.95	45549.17
511.12	44615.29
511.30	44854.03
511.47	45649.81
511.64	45553.85
511.82	46225.58
511.99	45675.55
512.17	45441.50
512.34	45481.29
512.51	46017.27
512.69	46218.56
512.86	46195.15
513.04	46513.47
513.21	46148.34
513.38	46358.99
513.56	46590.70
513.73	46553.26
513.90	46703.05
514.08	46429.21
514.25	47047.11
514.43	47091.58
514.60	47021.36
514.77	46948.81
514.95	47655.65
515.12	47327.97
515.29	47337.33
515.47	47714.16
515.64	47800.76
515.81	47772.67
515.99	47786.72
516.16	48184.61
516.33	47711.82
516.51	48966.35
516.68	48144.82
516.85	48332.06
517.03	48727.61
517.20	48678.46
517.37	48444.41
517.54	48566.12
517.72	48563.78
517.89	49050.61
518.06	49160.61
518.24	48816.55
518.41	49034.22
518.58	48954.64
518.75	49172.31
518.93	49113.80
519.10	49099.76
519.27	49181.68
519.45	49287.00
519.62	49366.58
519.79	49598.29
519.96	49450.84
520.14	50092.15
520.31	49563.18
520.48	49954.05
520.65	50115.55
520.83	50279.39
521.00	50199.81
521.17	50347.26
521.34	50394.07
521.52	50478.33
521.69	50602.38
521.86	50827.07
522.03	50901.97
522.20	50981.55
522.38	51063.47
522.55	51065.81
522.72	51257.73
522.89	51199.22
523.07	51498.81
523.24	51210.92
523.41	51358.38
523.58	51515.19
523.75	51578.39
523.92	51522.21
524.10	51779.67
524.27	51608.81
524.44	51468.38
524.61	51737.54
524.78	51721.16
524.96	51807.76
525.13	51955.21
525.30	52273.52
525.47	52605.88
525.64	52168.20
525.81	52182.24
525.98	52259.48
526.16	52659.71
526.33	52245.44
526.50	52699.50
526.67	52760.36
526.84	52533.32
527.01	52559.07
527.18	52800.15
527.36	52783.76
527.53	52865.68
527.70	53359.53
527.87	53312.72
528.04	53102.07
528.21	53336.13
528.38	53097.39
528.55	53422.73
528.72	53230.80
528.89	53308.04
529.07	53270.59
529.24	53361.87
529.41	53691.89
529.58	53193.36
529.75	53338.47
529.92	53497.62
530.09	53605.29
530.26	53820.62
530.43	53577.20
530.60	53511.67
530.77	53792.53
530.94	53682.53
531.11	53560.82
531.28	53909.56
531.46	54192.76
531.63	54209.15
531.80	53970.41
531.97	54307.45
532.14	54337.88
532.31	54190.42
532.48	54361.28
532.65	54354.26
532.82	54398.73
532.99	54452.56
533.16	54492.35
533.33	54759.17
533.50	54583.63
533.67	54473.63
533.84	54534.48
534.01	54848.11
534.18	54672.57
534.35	54988.55
534.52	54906.63
534.69	54986.21
534.86	55014.29
535.03	54632.78
535.20	54850.45
535.37	55285.79
535.54	55124.30
535.71	54855.14
535.88	55299.84
536.05	55356.01
536.22	55458.99
536.38	55491.76
536.55	55173.45
536.72	55253.03
536.89	55084.51
537.06	55449.63
537.23	55386.44
537.40	55363.03
537.57	55405.16
537.74	55580.70
537.91	55578.36
538.08	55676.66
538.25	55554.96
538.42	55700.07
538.59	55606.45
538.75	55814.76
538.92	55873.27
539.09	56048.81
539.26	55936.46
539.43	55943.48
539.60	56240.73
539.77	56076.90
539.94	56193.92
540.11	56100.30
540.28	56231.37
540.44	56397.55
540.61	56086.26
540.78	56154.13
540.95	56348.40
541.12	56016.04
541.29	56430.32
541.46	56446.70
541.62	56231.37
541.79	56512.23
541.96	56353.08
542.13	56425.64
542.30	56477.13
542.47	56587.13
542.63	56559.05
542.80	56528.62
542.97	56863.32
543.14	56940.55
543.31	56734.59
543.48	56999.07
543.64	57415.68
543.81	57169.93
543.98	57013.11
544.15	57153.54
544.32	57214.40
544.48	57354.83
544.65	57078.64
544.82	57240.14
544.99	57282.27
545.16	57375.89
545.32	57296.31
545.49	57539.73
545.66	57415.68
545.83	57359.51
546.00	57495.26
546.16	57329.08
546.33	57368.87
546.50	57312.70
546.67	57509.30
546.83	57205.03
547.00	57858.04
547.17	57455.47
547.34	57558.45
547.50	57717.61
547.67	57954.00
547.84	57694.21
548.00	57979.75
548.17	58138.91
548.34	58031.24
548.51	58145.93
548.67	58106.14
548.84	57928.26
549.01	57839.32
549.18	58005.50
549.34	57972.73
549.51	58209.12
549.68	58279.34
549.84	58253.59
550.01	58234.87
550.18	57937.62
550.34	58354.24
550.51	58281.68
550.68	58284.02
550.84	58019.54
551.01	58454.88
551.18	58152.95
551.34	58319.13
551.51	58396.37
551.68	58330.83
551.84	58410.41
552.01	58340.19
552.18	58405.73
552.34	58560.20
552.51	58450.20
552.68	58265.30
552.84	58539.14
553.01	58698.30
553.18	58534.46
553.34	58710.00
553.51	58532.12
553.67	58738.08
553.84	58796.60
554.01	58876.18
554.17	58773.19
554.34	58768.51
554.51	58700.64
554.67	58920.65
554.84	58719.36
555.00	58714.68
555.17	58698.30
555.33	58838.73
555.50	58768.51
555.67	58967.46
555.83	58892.56
556.00	58857.45
556.16	59105.55
556.33	59178.10
556.50	59032.99
556.66	59025.97
556.83	59044.69
556.99	59213.21
557.16	59402.80
557.32	59290.45
557.49	59465.99
557.65	59217.89
557.82	59290.45
557.98	59234.28
558.15	59297.47
558.32	59358.33
558.48	59278.75
558.65	59126.61
558.81	59393.43
558.98	59222.58
559.14	59267.05
559.31	59435.56
559.47	59442.59
559.64	59318.54
559.80	59496.42
559.97	59599.40
560.13	59323.22
560.30	59391.09
560.46	59449.61
560.63	59746.86
560.79	59746.86
560.96	59674.30
561.12	59646.21
561.29	59915.37
561.45	59660.26
561.61	59678.98
561.78	59641.53
561.94	59601.74
562.11	59700.04
562.27	59625.15
562.44	59650.89
562.60	60046.44
562.77	59763.24
562.93	59489.40
563.10	59980.91
563.26	59875.58
563.42	59938.78
563.59	59978.57
563.75	59634.51
563.92	59674.30
564.08	59793.67
564.24	59882.61
564.41	60130.70
564.57	59854.52
564.74	59863.88
564.90	59985.59
565.07	59929.42
565.23	59978.57
565.39	59992.61
565.56	59971.55
565.72	59821.75
565.88	60018.36
566.05	59999.63
566.21	59934.10
566.38	60004.31
566.54	60095.60
566.70	60128.36
566.87	60121.34
567.03	59931.76
567.19	60430.29
567.36	60147.09
567.52	60025.38
567.68	60245.39
567.85	60214.96
568.01	60299.22
568.17	59870.90
568.34	60259.43
568.50	59959.84
568.66	60156.45
568.83	60299.22
568.99	60149.43
569.15	60446.68
569.32	60336.67
569.48	60205.60
569.64	60369.44
569.81	60177.51
569.97	60210.28
570.13	60495.83
570.30	60102.62
570.46	60378.80
570.62	60250.07
570.78	60444.33
570.95	60317.95
571.11	60348.37
571.27	60432.63
571.43	60301.56
571.60	60425.61
571.76	60205.60
571.92	60420.93
572.09	60472.42
572.25	60460.72
572.41	60287.52
572.57	60472.42
572.74	60676.05
572.90	60350.71
573.06	60289.86
573.22	60474.76
573.38	60535.62
573.55	60523.91
573.71	60715.84
573.87	60224.32
574.03	60189.22
574.20	60615.19
574.36	60509.87
574.52	60645.62
574.68	60580.09
574.84	60713.50
575.01	60584.77
575.17	60423.27
575.33	60533.28
575.49	60371.78
575.65	60519.23
575.82	60619.88
575.98	60570.72
576.14	60708.82
576.30	60797.76
576.46	60587.11
576.62	60601.15
576.79	60519.23
576.95	60413.91
577.11	60802.44
577.27	60676.05
577.43	60767.33
577.59	60566.04
577.75	60568.38
577.92	60493.49
578.08	60477.10
578.24	60706.47
578.40	60647.96
578.56	60729.88
578.72	60561.36
578.88	60949.89
579.04	60825.84
579.21	60781.37
579.37	60605.83
579.53	60755.63
579.69	60502.85
579.85	60549.66
580.01	60537.96
580.17	60608.17
580.33	60704.13
580.49	60720.52
580.65	60676.05
580.82	60743.92
580.98	60502.85
581.14	60449.02
581.30	60825.84
581.46	60617.53
581.62	60715.84
581.78	60729.88
581.94	60647.96
582.10	60793.07
582.26	60750.94
582.42	60743.92
582.58	60718.18
582.74	60863.29
582.90	60743.92
583.06	60970.96
583.22	60528.59
583.38	60725.20
583.54	60755.63
583.70	60912.44
583.86	60690.09
584.02	60685.41
584.18	60956.91
584.34	60722.86
584.50	60760.31
584.66	60650.30
584.82	60664.35
584.98	60921.80
585.14	60807.12
585.30	60676.05
585.46	60882.02
585.62	60783.71
585.78	60886.70
585.94	60858.61
586.10	60924.14
586.26	60512.21
586.42	60823.50
586.58	61020.11
586.74	60999.04
586.90	60722.86
587.06	60863.29
587.22	61069.26
587.38	60921.80
587.54	61092.66
587.70	61216.71
587.86	60940.53
588.02	60865.63
588.18	61048.19
588.34	60872.65
588.49	60903.08
