SpectraSuite Data File
++++++++++++++++++++++++++++++++++++
Date: Fri Oct 25 10:47:26 EDT 2013
User: price-jones
Dark Spectrum Present: No
Reference Spectrum Present: No
Number of Sampled Component Spectra: 1
Spectrometers: USB2+H05261
Integration Time (usec): 100000 (USB2+H05261)
Spectra Averaged: 1 (USB2+H05261)
Boxcar Smoothing: 0 (USB2+H05261)
Correct for Electrical Dark: No (USB2+H05261)
Strobe/Lamp Enabled: No (USB2+H05261)
Correct for Detector Non-linearity: No (USB2+H05261)
Correct for Stray Light: No (USB2+H05261)
Number of Pixels in Processed Spectrum: 2048
>>>>>Begin Processed Spectral Data<<<<<
365.73	145.11
365.92	145.11
366.12	145.11
366.32	77.24
366.52	44.47
366.72	0.00
366.91	2.34
367.11	4.68
367.31	9.36
367.51	21.06
367.70	100.64
367.90	58.51
368.10	72.56
368.30	102.98
368.49	46.81
368.69	25.75
368.89	58.51
369.09	9.36
369.28	63.19
369.48	72.56
369.68	117.03
369.87	79.58
370.07	159.16
370.27	133.41
370.47	255.12
370.66	461.09
370.86	402.57
371.06	393.21
371.25	489.17
371.45	402.57
371.65	449.38
371.84	428.32
372.04	475.13
372.24	461.09
372.44	470.45
372.63	489.17
372.83	477.47
373.03	526.62
373.22	442.36
373.42	510.24
373.62	468.11
373.81	496.19
374.01	603.86
374.21	493.85
374.40	486.83
374.60	571.09
374.79	468.11
374.99	519.60
375.19	514.92
375.38	528.96
375.58	592.16
375.78	606.20
375.97	585.13
376.17	695.14
376.37	514.92
376.56	620.24
376.76	676.41
376.95	535.98
377.15	683.44
377.35	657.69
377.54	608.54
377.74	603.86
377.93	559.39
378.13	655.35
378.33	606.20
378.52	585.13
378.72	517.26
378.91	671.73
379.11	568.75
379.31	603.86
379.50	631.94
379.70	620.24
379.89	613.22
380.09	617.90
380.28	613.22
380.48	669.39
380.68	671.73
380.87	620.24
381.07	716.20
381.26	624.92
381.46	660.03
381.65	631.94
381.85	667.05
382.04	685.78
382.24	730.25
382.43	645.99
382.63	641.31
382.83	606.20
383.02	770.04
383.22	660.03
383.41	760.67
383.61	734.93
383.80	727.91
384.00	655.35
384.19	688.12
384.39	706.84
384.58	725.57
384.78	760.67
384.97	695.14
385.17	748.97
385.36	753.65
385.56	737.27
385.75	760.67
385.95	741.95
386.14	770.04
386.34	734.93
386.53	784.08
386.72	814.51
386.92	788.76
387.11	814.51
387.31	793.44
387.50	844.93
387.70	819.19
387.89	739.61
388.09	835.57
388.28	821.53
388.48	748.97
388.67	880.04
388.86	833.23
389.06	814.51
389.25	884.72
389.45	877.70
389.64	884.72
389.84	868.34
390.03	905.79
390.22	866.00
390.42	894.08
390.61	861.32
390.81	901.11
391.00	973.66
391.19	910.47
391.39	905.79
391.58	945.58
391.78	990.05
391.97	971.32
392.16	985.37
392.36	957.28
392.55	1004.09
392.75	987.71
392.94	990.05
393.13	847.27
393.33	1004.09
393.52	1081.33
393.71	966.64
393.91	994.73
394.10	1015.79
394.29	1050.90
394.49	1020.47
394.68	1057.92
394.88	1128.14
395.07	1109.41
395.26	1121.12
395.46	1107.07
395.65	1137.50
395.84	1076.65
396.04	1069.62
396.23	1160.91
396.42	1053.24
396.62	1139.84
396.81	1149.20
397.00	1104.73
397.19	1151.54
397.39	1179.63
397.58	1212.40
397.77	1174.95
397.97	1263.89
398.16	1254.53
398.35	1331.76
398.55	1357.51
398.74	1355.17
398.93	1315.38
399.12	1306.02
399.32	1355.17
399.51	1282.61
399.70	1348.15
399.90	1366.87
400.09	1301.34
400.28	1432.41
400.47	1392.62
400.67	1441.77
400.86	1441.77
401.05	1383.26
401.24	1416.02
401.44	1399.64
401.63	1577.52
401.82	1432.41
402.01	1441.77
402.21	1507.30
402.40	1570.50
402.59	1540.07
402.78	1500.28
402.97	1497.94
403.17	1610.29
403.36	1619.65
403.55	1586.88
403.74	1657.10
403.93	1596.25
404.13	1605.61
404.32	1706.25
404.51	1650.08
404.70	1657.10
404.89	1589.22
405.09	1799.87
405.28	1750.72
405.47	1589.22
405.66	1776.47
405.85	1727.32
406.05	1750.72
406.24	1849.02
406.43	1781.15
406.62	1750.72
406.81	1907.54
407.00	1806.89
407.20	1797.53
407.39	1853.70
407.58	1888.81
407.77	1879.45
407.96	1935.62
408.15	1970.73
408.34	1944.99
408.54	2047.97
408.73	1987.11
408.92	2017.54
409.11	2040.95
409.30	2036.27
409.49	2047.97
409.68	2069.03
409.87	2073.71
410.07	2054.99
410.26	2120.53
410.45	2017.54
410.64	2062.01
410.83	2108.82
411.02	2202.44
411.21	2282.02
411.40	2232.87
411.59	2286.70
411.78	2370.96
411.98	2300.75
412.17	2321.81
412.36	2317.13
412.55	2300.75
412.74	2499.69
412.93	2462.24
413.12	2422.45
413.31	2555.86
413.50	2562.89
413.69	2459.90
413.88	2457.56
414.07	2672.89
414.26	2651.83
414.45	2565.23
414.64	2668.21
414.83	2551.18
415.02	2654.17
415.22	2708.00
415.41	2710.34
415.60	2679.91
415.79	2803.96
415.98	2796.94
416.17	2825.03
416.36	2724.38
416.55	2822.69
416.74	2874.18
416.93	2855.45
417.12	3077.80
417.31	2946.73
417.50	2890.56
417.69	3056.74
417.88	3183.13
418.07	2963.12
418.26	3070.78
418.45	2960.78
418.64	3166.74
418.83	3126.96
419.02	3073.12
419.21	3255.69
419.39	3213.56
419.58	3082.49
419.77	3126.96
419.96	3251.00
420.15	3316.54
420.34	3309.52
420.53	3239.30
420.72	3442.93
420.91	3267.39
421.10	3424.20
421.29	3485.06
421.48	3248.66
421.67	3407.82
421.86	3330.58
422.05	3379.73
422.24	3293.13
422.43	3377.39
422.61	3417.18
422.80	3529.53
422.99	3492.08
423.18	3471.01
423.37	3569.32
423.56	3555.27
423.75	3417.18
423.94	3487.40
424.13	3300.16
424.32	3311.86
424.50	3438.25
424.69	3585.70
424.88	3651.24
425.07	3524.85
425.26	3496.76
425.45	3520.17
425.64	3496.76
425.83	3543.57
426.01	3569.32
426.20	3550.59
426.39	3503.78
426.58	3618.47
426.77	3571.66
426.96	3599.74
427.15	3571.66
427.33	3667.62
427.52	3576.34
427.71	3772.94
427.90	3618.47
428.09	3798.69
428.28	3571.66
428.46	3707.41
428.65	3747.20
428.84	3756.56
429.03	3908.69
429.22	3784.65
429.40	3730.81
429.59	3705.07
429.78	3627.83
429.97	3695.71
430.16	3714.43
430.34	3808.05
430.53	3770.60
430.72	3918.06
430.91	3833.80
431.10	3948.48
431.28	4009.34
431.47	4095.94
431.66	4191.90
431.85	3983.59
432.03	4138.07
432.22	4231.69
432.41	4194.24
432.60	4257.43
432.79	4259.78
432.97	4297.22
433.16	4208.28
433.35	4072.53
433.54	4273.82
433.72	4264.46
433.91	4149.77
434.10	4346.37
434.28	4294.88
434.47	4358.08
434.66	4404.89
434.85	4435.32
435.03	4507.87
435.22	4339.35
435.41	4498.51
435.59	4559.36
435.78	4540.64
435.97	4470.42
436.16	4496.17
436.34	4540.64
436.53	4498.51
436.72	4737.24
436.90	4573.41
437.09	4554.68
437.28	4498.51
437.46	4472.76
437.65	4765.33
437.84	4571.07
438.02	4620.22
438.21	4615.54
438.40	4727.88
438.58	4833.21
438.77	4865.97
438.96	4819.16
439.14	4987.68
439.33	4933.85
439.52	5186.63
439.70	4985.34
439.89	5158.54
440.08	5100.03
440.26	5151.52
440.45	5085.98
440.63	5111.73
440.82	5177.26
441.01	5156.20
441.19	5207.69
441.38	5406.64
441.57	5502.60
441.75	5298.97
441.94	5490.90
442.12	5593.88
442.31	5598.56
442.50	5570.48
442.68	5568.13
442.87	5626.65
443.05	5554.09
443.24	5678.14
443.43	5720.27
443.61	5811.55
443.80	5879.43
443.98	5554.09
444.17	5544.73
444.35	5816.23
444.54	5757.72
444.73	5837.30
444.91	5818.57
445.10	5753.04
445.28	5830.27
445.47	5785.80
445.65	5692.18
445.84	5841.98
446.02	5837.30
446.21	5874.74
446.39	5858.36
446.58	5799.85
446.77	5959.00
446.95	6001.13
447.14	5792.83
447.32	6097.10
447.51	5895.81
447.69	5879.43
447.88	5879.43
448.06	6047.94
448.25	5909.85
448.43	6005.81
448.62	6087.73
448.80	5874.74
448.99	6076.03
449.17	6073.69
449.36	6050.28
449.54	6279.66
449.73	6225.82
449.91	6319.45
450.10	6345.19
450.28	6293.70
450.46	6225.82
450.65	6375.62
450.83	6555.84
451.02	6413.07
451.20	6251.57
451.39	6179.01
451.57	6431.79
451.76	6263.27
451.94	6523.07
452.13	6546.48
452.31	6279.66
452.49	6335.83
452.68	6492.65
452.86	6604.99
453.05	6340.51
453.23	6705.63
453.42	6256.25
453.60	6392.00
453.78	6644.78
453.97	6544.14
454.15	6717.34
454.34	6499.67
454.52	6691.59
454.70	6640.10
454.89	6754.79
455.07	6640.10
455.26	6789.89
455.44	7026.29
455.62	6817.98
455.81	6949.05
455.99	7026.29
456.17	7045.01
456.36	6949.05
456.54	7012.24
456.73	7075.44
456.91	7213.53
457.09	7164.38
457.28	7358.64
457.46	7101.19
457.64	7241.62
457.83	7143.32
458.01	7255.66
458.19	7309.49
458.38	7248.64
458.56	7372.69
458.74	7421.84
458.93	7466.31
459.11	7449.93
459.29	7414.82
459.48	7485.03
459.66	7550.57
459.84	7651.21
460.03	7548.23
460.21	7538.87
460.39	7501.42
460.57	7496.74
460.76	7744.83
460.94	7775.26
461.12	7763.56
461.31	7604.40
461.49	7604.40
461.67	7679.30
461.85	7939.10
462.04	7632.49
462.22	8280.82
462.40	8074.85
462.59	7913.35
462.77	8098.25
462.95	8112.30
463.13	7927.39
463.32	7833.77
463.50	8051.44
463.68	8159.11
463.86	8058.46
464.05	8147.40
464.23	8044.42
464.41	8112.30
464.59	8109.96
464.78	8250.39
464.96	7985.91
465.14	8276.13
465.32	8229.32
465.50	8390.82
465.69	8381.46
465.87	8215.28
466.05	8198.90
466.23	8154.43
466.41	8217.62
466.60	8407.20
466.78	8435.29
466.96	8479.76
467.14	8454.02
467.32	8472.74
467.51	8650.62
467.69	8159.11
467.87	8376.78
468.05	8566.36
468.23	8463.38
468.41	8327.63
468.60	8535.93
468.78	8674.03
468.96	8510.19
469.14	8652.96
469.32	8816.80
469.50	8566.36
469.69	8741.90
469.87	8737.22
470.05	8802.75
470.23	8973.61
470.41	8830.84
470.59	8821.48
470.77	8959.57
470.95	8837.86
471.14	9144.47
471.32	9046.17
471.50	8917.44
471.68	9174.90
471.86	9413.63
472.04	9364.48
472.22	9509.60
472.40	9177.24
472.58	9151.49
472.77	9348.10
472.95	9458.10
473.13	9696.84
473.31	9617.26
473.49	9451.08
473.67	9598.54
473.85	9638.33
474.03	9661.73
474.21	9827.91
474.39	9790.46
474.57	9816.21
474.75	10090.05
474.93	10031.54
475.12	10047.92
475.30	10118.14
475.48	10033.88
475.66	10094.73
475.84	10043.24
476.02	10258.57
476.20	10415.38
476.38	10647.10
476.56	10736.04
476.74	10848.38
476.92	10602.63
477.10	10740.72
477.28	10876.47
477.46	10911.58
477.64	10956.05
477.82	11117.54
478.00	11309.47
478.18	11438.20
478.36	11438.20
478.54	11545.86
478.72	11524.80
478.90	11461.60
479.08	11763.53
479.26	11803.32
479.44	11810.34
479.62	12056.10
479.80	11962.48
479.98	12290.15
480.16	12191.85
480.34	12217.60
480.52	12535.91
480.70	12299.52
480.88	12107.59
481.06	12465.69
481.24	12699.75
481.41	12784.01
481.59	13050.83
481.77	13114.02
481.95	13174.88
482.13	13083.59
482.31	13212.32
482.49	13385.52
482.67	13434.68
482.85	13399.57
483.03	13771.71
483.21	13797.46
483.39	14153.22
483.57	14026.83
483.74	14033.85
483.92	13973.00
484.10	13956.61
484.28	14260.88
484.46	14516.00
484.64	15101.14
484.82	14335.78
485.00	14593.24
485.18	14839.00
485.35	15365.62
485.53	14654.09
485.71	14785.16
485.89	15105.82
486.07	15091.77
486.25	15171.35
486.43	15379.66
486.61	15742.44
486.78	15875.85
486.96	15999.90
487.14	16166.08
487.32	16084.16
487.50	16383.75
487.68	16753.55
487.85	16704.40
488.03	16968.88
488.21	17249.75
488.39	16987.61
488.57	16987.61
488.75	17205.28
488.92	17352.73
489.10	17500.19
489.28	17699.13
489.46	17886.37
489.64	17830.20
489.81	18171.92
489.99	18202.35
490.17	18345.12
490.35	18537.04
490.53	18427.04
490.70	18551.09
490.88	18902.17
491.06	19262.61
491.24	19152.60
491.41	18972.38
491.59	19126.86
491.77	19445.17
491.95	19400.70
492.13	19428.79
492.30	19756.46
492.48	19548.15
492.66	19932.00
492.84	20154.35
493.01	20381.38
493.19	20121.59
493.37	20348.62
493.54	20276.06
493.72	21062.48
493.90	20643.52
494.08	20938.43
494.25	20945.45
494.43	21287.17
494.61	20842.47
494.79	20947.79
494.96	21345.69
495.14	21312.92
495.32	21846.56
495.49	21977.63
495.67	21710.81
495.85	22335.73
496.02	22225.73
496.20	22202.32
496.38	22384.88
496.55	22354.46
496.73	22972.36
496.91	22607.23
497.09	23232.16
497.26	22991.08
497.44	22628.30
497.62	22916.19
497.79	23192.37
497.97	23410.04
498.14	23601.96
498.32	23536.43
498.50	23316.42
498.67	24046.66
498.85	23971.77
499.03	23934.32
499.20	24109.86
499.38	24044.32
499.56	24140.29
499.73	24252.63
499.91	24404.77
500.08	24650.52
500.26	24610.73
500.44	24753.51
500.61	24472.64
500.79	24690.31
500.97	24657.54
501.14	25343.32
501.32	25378.43
501.49	25015.65
501.67	24926.71
501.84	25317.57
502.02	25350.34
502.20	25289.49
502.37	25671.00
502.55	25495.46
502.72	25867.60
502.90	25869.94
503.07	25970.58
503.25	26061.87
503.43	26216.34
503.60	26237.41
503.78	26281.88
503.95	26066.55
504.13	26462.10
504.30	26508.91
504.48	26492.52
504.65	26747.64
504.83	27105.74
505.01	26867.01
505.18	27229.79
505.36	27459.16
505.53	27070.64
505.71	27475.55
505.88	27468.53
506.06	26859.99
506.23	27431.08
506.41	27187.66
506.58	27089.36
506.76	27381.93
506.93	27859.40
507.11	27630.02
507.28	27927.27
507.46	27835.99
507.63	28212.82
507.81	28018.55
507.98	28027.92
508.16	28247.93
508.33	28168.35
508.50	28056.00
508.68	28559.22
508.85	28442.19
509.03	28268.99
509.20	28992.22
509.38	29001.58
509.55	29216.91
509.73	29130.31
509.90	29029.66
510.08	28671.56
510.25	28844.76
510.42	29134.99
510.60	29570.33
510.77	29741.19
510.95	29633.52
511.12	29345.64
511.30	30050.14
511.47	30185.89
511.64	30073.54
511.82	29865.24
511.99	29727.14
512.17	30279.51
512.34	29813.74
512.51	30157.80
512.69	30190.57
512.86	30609.53
513.04	30595.48
513.21	30668.04
513.38	30059.50
513.56	30494.84
513.73	30661.02
513.90	30731.23
514.08	30450.37
514.25	30665.70
514.43	30787.41
514.60	30625.91
514.77	30874.01
514.95	31363.18
515.12	30850.60
515.29	31424.03
515.47	31337.43
515.64	31658.09
515.81	31831.29
515.99	31555.10
516.16	31417.01
516.33	31899.16
516.51	31721.28
516.68	31503.61
516.85	31353.82
517.03	31466.16
517.20	31765.75
517.37	32020.87
517.54	32378.97
517.72	32259.60
517.89	32023.21
518.06	32119.17
518.24	32102.79
518.41	31852.35
518.58	32165.98
518.75	32641.11
518.93	32673.88
519.10	32573.24
519.27	32772.18
519.45	32472.59
519.62	33090.49
519.79	33411.15
519.96	33134.96
520.14	33331.57
520.31	32889.21
520.48	33397.10
520.65	33127.94
520.83	33589.03
521.00	33476.68
521.17	33244.97
521.34	33422.85
521.52	33806.70
521.69	33713.08
521.86	33947.13
522.03	33961.17
522.20	33986.92
522.38	34307.57
522.55	34239.70
522.72	34422.26
522.89	34398.85
523.07	33912.02
523.24	34565.03
523.41	34490.13
523.58	34426.94
523.75	34906.75
523.92	34866.96
524.10	35005.05
524.27	34754.61
524.44	34546.31
524.61	34955.90
524.78	35306.98
524.96	34871.64
525.13	34873.98
525.30	35335.07
525.47	35592.53
525.64	35168.89
525.81	35651.04
525.98	35449.75
526.16	35555.08
526.33	34960.58
526.50	35880.41
526.67	35206.34
526.84	35594.87
527.01	35124.42
527.18	35447.41
527.36	36114.47
527.53	35943.61
527.70	36123.83
527.87	35964.67
528.04	36128.51
528.21	35775.09
528.38	35796.15
528.55	36652.79
528.72	36170.64
528.89	36655.13
529.07	36488.95
529.24	36187.02
529.41	36191.70
529.58	36554.49
529.75	36507.68
529.92	36680.88
530.09	36348.52
530.26	36910.25
530.43	36814.29
530.60	36776.84
530.77	36854.08
530.94	36868.12
531.11	36779.18
531.28	36964.08
531.46	36968.76
531.63	37380.70
531.80	36985.15
531.97	37308.14
532.14	37123.24
532.31	36692.58
532.48	37404.10
532.65	37682.62
532.82	37486.02
532.99	37596.03
533.16	37050.68
533.33	37670.92
533.50	37895.61
533.67	37481.34
533.84	37457.93
534.01	37780.93
534.18	37652.20
534.35	38085.20
534.52	37626.45
534.69	38061.79
534.86	37745.82
535.03	37968.17
535.20	38314.57
535.37	38588.41
535.54	38333.29
535.71	38286.48
535.88	38485.43
536.05	37956.47
536.22	38459.68
536.38	38492.45
536.55	38490.11
536.72	38604.80
536.89	38220.95
537.06	38394.15
537.23	38588.41
537.40	38796.72
537.57	38714.80
537.74	38904.38
537.91	39005.03
538.08	39056.52
538.25	38880.98
538.42	38614.16
538.59	39082.27
538.75	38609.48
538.92	39302.28
539.09	39222.70
539.26	39393.56
539.43	38630.54
539.60	39281.21
539.77	39290.57
539.94	39379.51
540.11	39313.98
540.28	39557.39
540.44	39636.97
540.61	39374.83
540.78	39140.78
540.95	39463.77
541.12	39021.41
541.29	39599.52
541.46	39421.64
541.62	39969.33
541.79	40177.64
541.96	39152.48
542.13	39323.34
542.30	39838.26
542.47	39744.64
542.63	39791.45
542.80	40088.70
542.97	39845.28
543.14	40339.13
543.31	40189.34
543.48	40638.72
543.64	40737.02
543.81	40573.19
543.98	40786.18
544.15	40554.46
544.32	40830.65
544.48	41141.94
544.65	40931.29
544.82	41254.28
544.99	40133.17
545.16	40891.50
545.32	40753.41
545.49	40905.54
545.66	41053.00
545.83	41352.58
546.00	41350.24
546.16	41347.90
546.33	40933.63
546.50	40730.00
546.67	40687.87
546.83	40044.23
547.00	41268.33
547.17	41118.53
547.34	41221.52
547.50	41237.90
547.67	41584.30
547.84	40964.06
548.00	41563.23
548.17	41635.79
548.34	41617.07
548.51	41668.56
548.67	41542.17
548.84	41797.29
549.01	41361.95
549.18	41490.68
549.34	41567.91
549.51	41799.63
549.68	41722.39
549.84	42134.32
550.01	41986.87
550.18	42181.13
550.34	42019.64
550.51	41954.10
550.68	42061.77
550.84	41677.92
551.01	42010.28
551.18	41989.21
551.34	41869.84
551.51	41869.84
551.68	42293.48
551.84	42487.74
552.01	41752.82
552.18	42314.55
552.34	42281.78
552.51	42218.58
552.68	42323.91
552.84	42216.24
553.01	42445.62
553.18	42464.34
553.34	42557.96
553.51	42302.84
553.67	42213.90
553.84	42916.06
554.01	42356.67
554.17	42586.05
554.34	43023.73
554.51	42742.86
554.67	42946.49
554.84	43014.37
555.00	42981.60
555.17	42572.00
555.33	43042.45
555.50	42735.84
555.67	42693.71
555.83	42831.80
556.00	42820.10
556.16	43330.34
556.33	43079.90
556.50	42745.20
556.66	43599.50
556.83	42993.30
556.99	42974.58
557.16	43274.16
557.32	42974.58
557.49	42850.53
557.65	42775.63
557.82	43131.39
557.98	43084.58
558.15	42925.42
558.32	43023.73
558.48	43129.05
558.65	42937.13
558.81	43358.42
558.98	43487.15
559.14	43313.95
559.31	43494.18
559.47	43351.40
559.64	43840.57
559.80	43732.91
559.97	43433.32
560.13	43274.16
560.30	43517.58
560.46	43402.89
560.63	43571.41
560.79	43756.32
560.96	43515.24
561.12	43426.30
561.29	43580.78
561.45	44030.16
561.61	43768.02
561.78	43363.11
561.94	43098.62
562.11	43681.42
562.27	43276.51
562.44	43800.79
562.60	43847.60
562.77	43714.19
562.93	43772.70
563.10	44128.46
563.26	43817.17
563.42	44002.07
563.59	43526.94
563.75	43828.87
563.92	43964.62
564.08	43814.83
564.24	43917.81
564.41	44179.95
564.57	43931.86
564.74	43978.67
564.90	44163.57
565.07	43732.91
565.23	43950.58
565.39	43679.08
565.56	44067.61
565.72	43562.05
565.88	43435.66
566.05	43592.48
566.21	43494.18
566.38	43805.47
566.54	43938.88
566.70	44083.99
566.87	44212.72
567.03	43833.55
567.19	44151.87
567.36	44126.12
567.52	43990.37
567.68	43955.26
567.85	44509.97
568.01	44215.06
568.17	43978.67
568.34	44102.71
568.50	44165.91
568.66	43683.76
568.83	44109.74
568.99	43789.08
569.15	43899.09
569.32	44275.91
569.48	43512.90
569.64	44268.89
569.81	44334.43
569.97	44177.61
570.13	44151.87
570.30	44210.38
570.46	43742.27
570.62	43606.52
570.78	43751.63
570.95	43658.01
571.11	44278.25
571.27	44301.66
571.43	44154.21
571.60	44488.90
571.76	44009.09
571.92	43922.49
572.09	44488.90
572.25	44357.83
572.41	44453.79
572.57	44655.08
572.74	44561.46
572.90	44435.07
573.06	44271.23
573.22	44406.98
573.38	43948.24
573.55	44243.15
573.71	44388.26
573.87	44322.72
574.03	44238.47
574.20	44364.85
574.36	44137.82
574.52	44495.92
574.68	44535.71
574.84	44528.69
575.01	44512.31
575.17	44346.13
575.33	44254.85
575.49	44355.49
575.65	44772.11
575.82	44631.68
575.98	44835.30
576.14	44966.37
576.30	44601.25
576.46	44666.78
576.62	44201.02
576.79	44645.72
576.95	43749.29
577.11	44353.15
577.27	44676.15
577.43	44353.15
577.59	44634.02
577.75	44931.26
577.92	44266.55
578.08	44186.97
578.24	44488.90
578.40	44282.94
578.56	44622.31
578.72	44566.14
578.88	44411.67
579.04	44830.62
579.21	44753.38
579.37	44837.64
579.53	44432.73
579.69	44425.71
579.85	44542.74
580.01	44428.05
580.17	44414.01
580.33	44875.09
580.49	44978.07
580.65	44664.44
580.82	44797.85
580.98	44325.07
581.14	44575.50
581.30	44449.11
581.46	44608.27
581.62	44491.24
581.78	44472.52
581.94	44961.69
582.10	44872.75
582.26	44879.77
582.42	44514.65
582.58	44828.28
582.74	44339.11
582.90	44170.59
583.06	45069.36
583.22	44708.91
583.38	45195.74
583.54	44807.22
583.70	44435.07
583.86	44858.71
584.02	44498.26
584.18	44545.08
584.34	44619.97
584.50	44673.81
584.66	44442.09
584.82	44570.82
584.98	44947.65
585.14	44912.54
585.30	44737.00
585.46	44521.67
585.62	44612.95
585.78	44715.93
585.94	44044.20
586.10	44554.44
586.26	44470.18
586.42	44458.48
586.58	45069.36
586.74	44954.67
586.90	44224.42
587.06	44631.68
587.22	45158.30
587.38	44140.16
587.54	45106.80
587.70	45202.77
587.86	44856.37
588.02	44919.56
588.18	45034.25
588.34	44531.03
588.49	44626.99
588.65	44186.97
588.81	44589.55
588.97	44236.12
589.13	44837.64
589.29	44418.69
589.45	44847.00
589.61	45069.36
589.77	45249.58
589.93	44928.92
590.08	44507.63
590.24	44706.57
