SpectraSuite Data File
++++++++++++++++++++++++++++++++++++
Date: Fri Oct 25 10:47:02 EDT 2013
User: price-jones
Dark Spectrum Present: No
Reference Spectrum Present: No
Number of Sampled Component Spectra: 1
Spectrometers: USB2+H05261
Integration Time (usec): 100000 (USB2+H05261)
Spectra Averaged: 1 (USB2+H05261)
Boxcar Smoothing: 0 (USB2+H05261)
Correct for Electrical Dark: No (USB2+H05261)
Strobe/Lamp Enabled: No (USB2+H05261)
Correct for Detector Non-linearity: No (USB2+H05261)
Correct for Stray Light: No (USB2+H05261)
Number of Pixels in Processed Spectrum: 2048
>>>>>Begin Processed Spectral Data<<<<<
365.73	145.11
365.92	145.11
366.12	145.11
366.32	18.72
366.52	0.00
366.72	14.04
366.91	56.17
367.11	23.41
367.31	9.36
367.51	60.85
367.70	35.11
367.90	86.60
368.10	93.62
368.30	21.06
368.49	95.96
368.69	0.00
368.89	35.11
369.09	25.75
369.28	51.49
369.48	124.05
369.68	100.64
369.87	133.41
370.07	88.94
370.27	140.43
370.47	191.92
370.66	365.12
370.86	411.93
371.06	423.64
371.25	510.24
371.45	477.47
371.65	524.28
371.84	472.79
372.04	477.47
372.24	526.62
372.44	454.06
372.63	521.94
372.83	533.64
373.03	461.09
373.22	580.45
373.42	575.77
373.62	533.64
373.81	559.39
374.01	554.71
374.21	535.98
374.40	547.69
374.60	636.63
374.79	528.96
374.99	482.15
375.19	599.18
375.38	620.24
375.58	629.60
375.78	543.00
375.97	580.45
376.17	601.52
376.37	540.66
376.56	564.07
376.76	657.69
376.95	620.24
377.15	638.97
377.35	664.71
377.54	535.98
377.74	645.99
377.93	622.58
378.13	734.93
378.33	704.50
378.52	655.35
378.72	566.41
378.91	716.20
379.11	636.63
379.31	664.71
379.50	564.07
379.70	638.97
379.89	681.10
380.09	571.09
380.28	641.31
380.48	608.54
380.68	748.97
380.87	643.65
381.07	568.75
381.26	678.76
381.46	671.73
381.65	627.26
381.85	657.69
382.04	657.69
382.24	744.29
382.43	744.29
382.63	671.73
382.83	690.46
383.02	791.10
383.22	755.99
383.41	645.99
383.61	620.24
383.80	746.63
384.00	706.84
384.19	706.84
384.39	704.50
384.58	793.44
384.78	748.97
384.97	746.63
385.17	758.33
385.36	713.86
385.56	702.16
385.75	732.59
385.95	816.85
386.14	905.79
386.34	734.93
386.53	798.12
386.72	823.87
386.92	847.27
387.11	784.08
387.31	835.57
387.50	772.38
387.70	800.46
387.89	819.19
388.09	854.30
388.28	844.93
388.48	830.89
388.67	954.94
388.86	957.28
389.06	966.64
389.25	931.53
389.45	968.98
389.64	929.19
389.84	936.21
390.03	882.38
390.22	966.64
390.42	966.64
390.61	929.19
390.81	992.39
391.00	1008.77
391.19	1050.90
391.39	1018.13
391.58	973.66
391.78	964.30
391.97	957.28
392.16	936.21
392.36	950.26
392.55	957.28
392.75	940.90
392.94	898.77
393.13	976.00
393.33	961.96
393.52	1020.47
393.71	1170.27
393.91	1053.24
394.10	1104.73
394.29	1006.43
394.49	1149.20
394.68	1069.62
394.88	1083.67
395.07	1149.20
395.26	1109.41
395.46	1165.59
395.65	1172.61
395.84	1083.67
396.04	1167.93
396.23	1144.52
396.42	1104.73
396.62	1179.63
396.81	1135.16
397.00	1107.07
397.19	1336.45
397.39	1247.51
397.58	1282.61
397.77	1341.13
397.97	1357.51
398.16	1203.04
398.35	1228.78
398.55	1320.06
398.74	1336.45
398.93	1399.64
399.12	1291.98
399.32	1446.45
399.51	1371.55
399.70	1458.15
399.90	1483.90
400.09	1495.60
400.28	1416.02
400.47	1418.36
400.67	1509.65
400.86	1423.05
401.05	1526.03
401.24	1589.22
401.44	1540.07
401.63	1596.25
401.82	1549.43
402.01	1582.20
402.21	1605.61
402.40	1652.42
402.59	1612.63
402.78	1650.08
402.97	1568.16
403.17	1577.52
403.36	1619.65
403.55	1675.82
403.74	1696.89
403.93	1757.74
404.13	1736.68
404.32	1741.36
404.51	1713.27
404.70	1717.95
404.89	1732.00
405.09	1788.17
405.28	1790.51
405.47	1746.04
405.66	1893.49
405.85	1778.81
406.05	1806.89
406.24	1851.36
406.43	1842.00
406.62	1888.81
406.81	1902.86
407.00	1930.94
407.20	1771.79
407.39	1842.00
407.58	1963.71
407.77	2069.03
407.96	2057.33
408.15	2064.35
408.34	2047.97
408.54	2031.58
408.73	2092.44
408.92	2036.27
409.11	2134.57
409.30	2183.72
409.49	2045.63
409.68	2059.67
409.87	2155.63
410.07	2108.82
410.26	2101.80
410.45	2253.94
410.64	2209.47
410.83	2253.94
411.02	2286.70
411.21	2324.15
411.40	2471.61
411.59	2511.39
411.78	2352.24
411.98	2312.45
412.17	2368.62
412.36	2370.96
412.55	2504.37
412.74	2459.90
412.93	2509.05
413.12	2487.99
413.31	2722.04
413.50	2588.63
413.69	2630.76
413.88	2682.25
414.07	2628.42
414.26	2574.59
414.45	2736.09
414.64	2661.19
414.83	2787.58
415.02	2712.68
415.22	2843.75
415.41	3042.70
415.60	2904.60
415.79	3016.95
415.98	3007.59
416.17	2951.42
416.36	3094.19
416.55	3012.27
416.74	3000.57
416.93	2991.20
417.12	3049.72
417.31	3063.76
417.50	3061.42
417.69	3176.11
417.88	3155.04
418.07	3117.59
418.26	3148.02
418.45	3122.27
418.64	3286.11
418.83	3178.45
419.02	3297.81
419.21	3412.50
419.39	3297.81
419.58	3260.37
419.77	3335.26
419.96	3403.14
420.15	3447.61
420.34	3452.29
420.53	3421.86
420.72	3571.66
420.91	3541.23
421.10	3611.45
421.29	3440.59
421.48	3527.19
421.67	3501.44
421.86	3449.95
422.05	3581.02
422.24	3449.95
422.43	3569.32
422.61	3648.90
422.80	3648.90
422.99	3644.21
423.18	3740.18
423.37	3754.22
423.56	3588.04
423.75	3630.17
423.94	3688.68
424.13	3555.27
424.32	3531.87
424.50	3709.75
424.69	3571.66
424.88	3662.94
425.07	3665.28
425.26	3613.79
425.45	3559.95
425.64	3838.48
425.83	3574.00
426.01	3761.24
426.20	3740.18
426.39	3730.81
426.58	3651.24
426.77	3611.45
426.96	3772.94
427.15	3698.05
427.33	3707.41
427.52	3716.77
427.71	3789.33
427.90	3822.09
428.09	3932.10
428.28	3868.91
428.46	3962.53
428.65	3880.61
428.84	3925.08
429.03	4147.43
429.22	3772.94
429.40	3946.14
429.59	3920.40
429.78	3845.50
429.97	3737.84
430.16	3857.20
430.34	3796.35
430.53	4025.72
430.72	3833.80
430.91	3990.61
431.10	3962.53
431.28	4182.54
431.47	4201.26
431.66	4311.27
431.85	4182.54
432.03	4337.01
432.22	4224.67
432.41	4241.05
432.60	4348.72
432.79	4374.46
432.97	4369.78
433.16	4402.55
433.35	4325.31
433.54	4411.91
433.72	4344.03
433.91	4484.47
434.10	4493.83
434.28	4442.34
434.47	4554.68
434.66	4564.04
434.85	4559.36
435.03	4629.58
435.22	4671.71
435.41	4634.26
435.59	4564.04
435.78	4725.54
435.97	4720.86
436.16	4695.11
436.34	4835.55
436.53	4765.33
436.72	4791.08
436.90	4751.29
437.09	4777.03
437.28	4861.29
437.46	4816.82
437.65	4908.10
437.84	5004.07
438.02	4877.68
438.21	4868.31
438.40	4767.67
438.58	4966.62
438.77	4983.00
438.96	5203.01
439.14	5334.08
439.33	5224.08
439.52	5177.26
439.70	5153.86
439.89	5238.12
440.08	5125.77
440.26	5284.93
440.45	5406.64
440.63	5310.68
440.82	5497.92
441.01	5514.30
441.19	5547.07
441.38	5682.82
441.57	5554.09
441.75	5645.37
441.94	5610.26
442.12	5678.14
442.31	5951.98
442.50	5841.98
442.68	5816.23
442.87	5919.21
443.05	5914.53
443.24	5963.68
443.43	5926.24
443.61	5947.30
443.80	5989.43
443.98	5923.90
444.17	5771.76
444.35	5902.83
444.54	6090.07
444.73	6183.70
444.91	6010.50
445.10	6010.50
445.28	6061.99
445.47	5923.90
445.65	5930.92
445.84	6073.69
446.02	5984.75
446.21	6008.16
446.39	6010.50
446.58	6328.81
446.77	6263.27
446.95	5905.17
447.14	6174.33
447.32	6228.17
447.51	6218.80
447.69	6242.21
447.88	6300.72
448.06	6143.91
448.25	6099.44
448.43	6363.92
448.62	6228.17
448.80	6291.36
448.99	6480.94
449.17	6274.98
449.36	6286.68
449.54	6403.71
449.73	6422.43
449.91	6541.80
450.10	6658.82
450.28	6544.14
450.46	6588.61
450.65	6597.97
450.83	6752.45
451.02	6747.76
451.20	6696.27
451.39	6703.29
451.57	6494.99
451.76	6459.88
451.94	6691.59
452.13	6909.26
452.31	6722.02
452.49	6590.95
452.68	6604.99
452.86	6731.38
453.05	6656.48
453.23	6927.99
453.42	6789.89
453.60	6595.63
453.78	6920.96
453.97	6740.74
454.15	6937.35
454.34	6773.51
454.52	6909.26
454.70	6899.90
454.89	7019.27
455.07	7026.29
455.26	7068.42
455.44	7091.82
455.62	7110.55
455.81	7360.98
455.99	7105.87
456.17	7232.26
456.36	7272.04
456.54	7372.69
456.73	7407.80
456.91	7522.48
457.09	7447.58
457.28	7637.17
457.46	7538.87
457.64	7527.16
457.83	7499.08
458.01	7581.00
458.19	7492.05
458.38	7480.35
458.56	7726.11
458.74	7719.09
458.93	7571.63
459.11	7925.05
459.29	7538.87
459.48	7801.01
459.66	7627.81
459.84	7932.08
460.03	7887.61
460.21	7941.44
460.39	7793.98
460.57	7903.99
460.76	7934.42
460.94	8126.34
461.12	7962.50
461.31	8006.97
461.49	8028.04
461.67	7941.44
461.85	8067.83
462.04	8184.85
462.22	8704.45
462.40	8142.72
462.59	8116.98
462.77	8255.07
462.95	8212.94
463.13	8198.90
463.32	8257.41
463.50	8381.46
463.68	8301.88
463.86	8273.79
464.05	8432.95
464.23	8430.61
464.41	8575.72
464.59	8241.03
464.78	8671.68
464.96	8493.80
465.14	8472.74
465.32	8652.96
465.50	8608.49
465.69	8685.73
465.87	8533.59
466.05	8699.77
466.23	8407.20
466.41	8479.76
466.60	8652.96
466.78	8402.52
466.96	8725.52
467.14	8489.12
467.32	8648.28
467.51	8734.88
467.69	8655.30
467.87	8655.30
468.05	9006.38
468.23	8931.48
468.41	8774.67
468.60	8987.66
468.78	8879.99
468.96	8938.51
469.14	9102.34
469.32	9156.18
469.50	8879.99
469.69	9104.68
469.87	9170.22
470.05	9074.26
470.23	9188.94
470.41	9378.53
470.59	9448.74
470.77	9334.06
470.95	9357.46
471.14	9465.13
471.32	9174.90
471.50	9441.72
471.68	9504.92
471.86	9713.22
472.04	9696.84
472.22	9987.07
472.40	9643.01
472.58	9745.99
472.77	9680.46
472.95	9914.51
473.13	10193.03
473.31	9874.72
473.49	9884.08
473.67	9982.38
473.85	10076.01
474.03	10176.65
474.21	10139.20
474.39	10265.59
474.57	10197.71
474.75	10281.97
474.93	10506.66
475.12	10195.37
475.30	10668.16
475.48	10588.58
475.66	10668.16
475.84	10462.19
476.02	10740.72
476.20	10757.10
476.38	10878.81
476.56	11279.04
476.74	10918.60
476.92	11239.25
477.10	10801.57
477.28	11180.74
477.46	11169.04
477.64	11276.70
477.82	11573.95
478.00	11463.94
478.18	11726.08
478.36	11651.19
478.54	11679.27
478.72	11833.75
478.90	11866.52
479.08	11943.75
479.26	12334.62
479.44	12308.88
479.62	12383.77
479.80	12592.08
479.98	12547.61
480.16	12664.64
480.34	12798.05
480.52	12671.66
480.70	12903.37
480.88	12840.18
481.06	12826.14
481.24	13013.38
481.41	13343.39
481.59	13540.00
481.77	13385.52
481.95	13509.57
482.13	13666.39
482.31	13731.92
482.49	14092.37
482.67	13914.48
482.85	14115.77
483.03	14202.37
483.21	14452.81
483.39	14251.52
483.57	14401.32
483.74	14630.69
483.92	14506.64
484.10	14611.96
484.28	14963.04
484.46	15066.03
484.64	15580.95
484.82	14754.74
485.00	15342.21
485.18	15522.43
485.35	15386.68
485.53	15372.64
485.71	15342.21
485.89	15658.18
486.07	15527.11
486.25	15405.41
486.43	15782.23
486.61	16133.31
486.78	16409.50
486.96	16549.93
487.14	16655.25
487.32	16704.40
487.50	17027.40
487.68	17139.74
487.85	17095.27
488.03	17558.70
488.21	17652.32
488.39	17298.90
488.57	17678.07
488.75	17816.16
488.92	18354.48
489.10	18221.07
489.28	18218.73
489.46	18022.12
489.64	18520.66
489.81	19091.75
489.99	18775.78
490.17	19023.87
490.35	19351.55
490.53	19227.50
490.70	19112.81
490.88	19206.44
491.06	19728.38
491.24	19517.73
491.41	19314.10
491.59	19730.72
491.77	19791.57
491.95	19896.89
492.13	20224.57
492.30	20353.30
492.48	20563.95
492.66	20510.11
492.84	20411.81
493.01	20968.86
493.19	20505.43
493.37	21081.21
493.54	21008.65
493.72	20975.88
493.90	21130.36
494.08	21427.60
494.25	21846.56
494.43	21982.31
494.61	22036.14
494.79	21879.33
494.96	21940.18
495.14	22115.72
495.32	22319.35
495.49	22443.40
495.67	22445.74
495.85	22710.22
496.02	22677.45
496.20	22794.48
496.38	23168.96
496.55	23007.47
496.73	23501.32
496.91	23400.68
497.09	23419.40
497.26	23510.68
497.44	23573.88
497.62	23864.10
497.79	24077.09
497.97	23814.95
498.14	24271.36
498.32	24489.03
498.50	23971.77
498.67	24453.92
498.85	24357.96
499.03	24933.73
499.20	24842.45
499.38	24800.32
499.56	25125.65
499.73	25008.62
499.91	25092.88
500.08	25357.36
500.26	25153.74
500.44	25535.24
500.61	25336.30
500.79	25525.88
500.97	25436.94
501.14	25823.13
501.32	25624.18
501.49	25521.20
501.67	25748.23
501.84	25961.22
502.02	26120.38
502.20	26759.34
502.37	26586.15
502.55	26494.86
502.72	26382.52
502.90	26754.66
503.07	26609.55
503.25	27007.44
503.43	26415.29
503.60	27021.48
503.78	27094.04
503.95	26911.48
504.13	26789.77
504.30	27070.64
504.48	27414.69
504.65	27227.45
504.83	27349.16
505.01	27721.30
505.18	27557.47
505.36	28025.57
505.53	27896.85
505.71	28367.29
505.88	28016.21
506.06	28212.82
506.23	28238.56
506.41	28009.19
506.58	28491.34
506.76	28603.69
506.93	28783.91
507.11	28254.95
507.28	28739.44
507.46	28432.83
507.63	28545.17
507.81	29055.41
507.98	28659.86
508.16	28933.70
508.33	29039.03
508.50	29401.81
508.68	29034.35
508.85	29303.51
509.03	29502.45
509.20	29701.40
509.38	29551.60
509.55	29963.54
509.73	30038.44
509.90	29560.97
510.08	29942.47
510.25	29947.15
510.42	30438.67
510.60	30015.03
510.77	30569.74
510.95	30534.63
511.12	30433.99
511.30	30632.93
511.47	30719.53
511.64	30841.24
511.82	30543.99
511.99	30632.93
512.17	30888.05
512.34	30895.07
512.51	31002.74
512.69	31157.21
512.86	31229.77
513.04	31585.53
513.21	31257.85
513.38	31290.62
513.56	31281.26
513.73	31468.50
513.90	31887.46
514.08	31292.96
514.25	31718.94
514.43	32091.09
514.60	31679.15
514.77	31798.52
514.95	32191.73
515.12	31833.63
515.29	32411.74
515.47	32559.19
515.64	32280.67
515.81	32196.41
515.99	31962.36
516.16	32507.70
516.33	32226.84
516.51	32423.44
516.68	32142.58
516.85	32252.58
517.03	32311.10
517.20	32856.44
517.37	32526.42
517.54	33205.18
517.72	32940.70
517.89	32732.39
518.06	32980.49
518.24	32788.56
518.41	32568.55
518.58	32765.16
518.75	33022.62
518.93	33144.33
519.10	33785.63
519.27	33233.27
519.45	33523.49
519.62	33809.04
519.79	34078.20
519.96	34047.77
520.14	34068.84
520.31	33900.32
520.48	34087.56
520.65	34029.05
520.83	34394.17
521.00	34291.19
521.17	34274.80
521.34	34071.18
521.52	34213.95
521.69	34366.09
521.86	35014.41
522.03	34611.84
522.20	34457.37
522.38	34714.83
522.55	34955.90
522.72	35035.48
522.89	35124.42
523.07	34665.67
523.24	34885.68
523.41	35096.33
523.58	35243.79
523.75	35711.89
523.92	35278.89
524.10	35360.81
524.27	35952.97
524.44	35716.58
524.61	35583.16
524.78	36013.82
524.96	35840.62
525.13	36266.60
525.30	36383.63
525.47	36467.89
525.64	36538.10
525.81	36357.88
525.98	36041.91
526.16	36472.57
526.33	36325.11
526.50	36524.06
526.67	35971.69
526.84	36397.67
527.01	36219.79
527.18	36687.90
527.36	36311.07
527.53	37015.57
527.70	37144.30
527.87	36519.38
528.04	37118.56
528.21	36971.10
528.38	36952.38
528.55	37071.75
528.72	37589.00
528.89	37963.49
529.07	37305.80
529.24	37434.53
529.41	37230.90
529.58	37083.45
529.75	36973.44
529.92	37598.37
530.09	37820.72
530.26	38026.68
530.43	37818.38
530.60	37624.11
530.77	37921.36
530.94	38010.30
531.11	38089.88
531.28	37638.15
531.46	37668.58
531.63	38106.26
531.80	37848.80
531.97	38108.60
532.14	38014.98
532.31	37804.33
532.48	38333.29
532.65	38068.81
532.82	38092.22
532.99	38340.32
533.16	37916.68
533.33	38431.60
533.50	38518.20
533.67	38665.65
533.84	38401.17
534.01	38675.01
534.18	38497.13
534.35	38813.10
534.52	38822.47
534.69	38721.82
534.86	39075.24
535.03	38925.45
535.20	39089.29
535.37	39126.74
535.54	39255.46
535.71	39604.20
535.88	39119.71
536.05	39002.69
536.22	39313.98
536.38	39536.33
536.55	39313.98
536.72	39257.81
536.89	39374.83
537.06	39374.83
537.23	39660.38
537.40	39140.78
537.57	39868.69
537.74	39763.36
537.91	39821.87
538.08	39566.76
538.25	39751.66
538.42	40081.67
538.59	39924.86
538.75	39573.78
538.92	40091.04
539.09	39772.72
539.26	40091.04
539.43	40189.34
539.60	40114.44
539.77	39744.64
539.94	40058.27
540.11	40016.14
540.28	40086.36
540.44	39798.47
540.61	40119.12
540.78	39976.35
540.95	40250.19
541.12	40170.61
541.29	40484.25
541.46	40175.30
541.62	40306.37
541.79	40652.76
541.96	40442.12
542.13	40495.95
542.30	40561.48
542.47	40474.88
542.63	40905.54
542.80	40423.39
542.97	41277.69
543.14	41109.17
543.31	41177.04
543.48	41493.02
543.64	41483.66
543.81	41310.46
543.98	41715.37
544.15	41343.22
544.32	41364.29
544.48	41989.21
544.65	41638.13
544.82	41607.70
544.99	41443.87
545.16	42143.69
545.32	41352.58
545.49	41900.27
545.66	41879.21
545.83	41816.01
546.00	42389.44
546.16	42040.70
546.33	41654.51
546.50	41378.33
546.67	41811.33
546.83	41518.76
547.00	42096.88
547.17	41904.95
547.34	41923.68
547.50	42511.15
547.67	42377.74
547.84	42209.22
548.00	42490.09
548.17	42663.28
548.34	41982.19
548.51	42529.87
548.67	42852.87
548.84	42653.92
549.01	42520.51
549.18	42092.19
549.34	42307.52
549.51	42375.40
549.68	42780.31
549.84	42295.82
550.01	42986.28
550.18	42403.49
550.34	42593.07
550.51	42672.65
550.68	42796.70
550.84	42267.73
551.01	42614.13
551.18	42525.19
551.34	42682.01
551.51	43065.86
551.68	43037.77
551.84	43103.31
552.01	43047.13
552.18	43058.84
552.34	42405.83
552.51	43117.35
552.68	43051.81
552.84	43555.03
553.01	43302.25
553.18	43023.73
553.34	43311.61
553.51	43051.81
553.67	42967.55
553.84	43533.96
554.01	43648.65
554.17	43988.03
554.34	43718.87
554.51	43239.06
554.67	43583.12
554.84	43318.64
555.00	43601.84
555.17	43817.17
555.33	43765.68
555.50	43674.40
555.67	43723.55
555.83	43711.84
556.00	43915.47
556.16	44430.39
556.33	43679.08
556.50	43337.36
556.66	43894.41
556.83	43597.16
556.99	43950.58
557.16	43704.82
557.32	43945.90
557.49	43892.07
557.65	43552.69
557.82	44046.54
557.98	44072.29
558.15	43674.40
558.32	44030.16
558.48	44039.52
558.65	44079.31
558.81	43550.35
558.98	44009.09
559.14	43849.94
559.31	44114.42
559.47	43777.38
559.64	44383.58
559.80	44341.45
559.97	43910.79
560.13	44573.16
560.30	44360.17
560.46	44528.69
560.63	44329.75
560.79	44460.82
560.96	44509.97
561.12	44421.03
561.29	44161.23
561.45	44013.77
561.61	44002.07
561.78	44311.02
561.94	44245.49
562.11	44655.08
562.27	44563.80
562.44	44315.70
562.60	44430.39
562.77	44446.77
562.93	44594.23
563.10	44488.90
563.26	44624.65
563.42	44603.59
563.59	44786.15
563.75	44666.78
563.92	44839.98
564.08	44397.62
564.24	44449.11
564.41	44425.71
564.57	44671.46
564.74	44774.45
564.90	45319.79
565.07	44432.73
565.23	44804.88
565.39	44596.57
565.56	44959.35
565.72	44554.44
565.88	44198.68
566.05	44545.08
566.21	44601.25
566.38	44481.88
566.54	44509.97
566.70	45123.19
566.87	45450.86
567.03	44917.22
567.19	45116.17
567.36	44697.21
567.52	44893.82
567.68	44734.66
567.85	44622.31
568.01	44868.07
568.17	45013.18
568.34	44825.94
568.50	44715.93
568.66	44507.63
568.83	44940.63
568.99	44516.99
569.15	44814.24
569.32	45153.62
569.48	44903.18
569.64	45408.73
569.81	45265.96
569.97	44807.22
570.13	44910.20
570.30	44776.79
570.46	44582.52
570.62	44566.14
570.78	44641.04
570.95	44734.66
571.11	45078.72
571.27	45048.29
571.43	44800.19
571.60	45244.90
571.76	45116.17
571.92	44751.04
572.09	44825.94
572.25	44732.32
572.41	44931.26
572.57	45088.08
572.74	45476.61
572.90	45083.40
573.06	45357.24
573.22	45237.87
573.38	45048.29
573.55	44900.84
573.71	45074.04
573.87	44842.32
574.03	44807.22
574.20	45226.17
574.36	45036.59
574.52	45244.90
574.68	45144.25
574.84	45043.61
575.01	45062.33
575.17	45132.55
575.33	44917.22
575.49	44641.04
575.65	45481.29
575.82	45359.58
575.98	45329.16
576.14	45556.19
576.30	45420.44
576.46	45090.42
576.62	45116.17
576.79	44655.08
576.95	44999.14
577.11	45198.09
577.27	45301.07
577.43	45301.07
577.59	45195.74
577.75	45291.71
577.92	44727.64
578.08	45347.88
578.24	44957.01
578.40	45172.34
578.56	45500.01
578.72	44645.72
578.88	45366.60
579.04	45301.07
579.21	45415.76
579.37	45059.99
579.53	45265.96
579.69	45139.57
579.85	45095.10
580.01	45696.62
580.17	45392.35
580.33	45347.88
580.49	45151.27
580.65	45511.72
580.82	45132.55
580.98	45170.00
581.14	45200.43
581.30	44903.18
581.46	45160.64
581.62	45378.31
581.78	45504.70
581.94	45815.99
582.10	45095.10
582.26	45125.53
582.42	45446.18
582.58	45361.92
582.74	45081.06
582.90	45137.23
583.06	45467.25
583.22	45434.48
583.38	45724.71
583.54	45460.23
583.70	45312.77
583.86	45031.91
584.02	44839.98
584.18	45528.10
584.34	45207.45
584.50	45333.84
584.66	45247.24
584.82	45434.48
584.98	45610.02
585.14	45579.59
585.30	45188.72
585.46	45736.41
585.62	45167.66
585.78	45404.05
585.94	44854.03
586.10	45244.90
586.26	45392.35
586.42	45172.34
586.58	45453.20
586.74	45188.72
586.90	45230.85
587.06	44982.76
587.22	45736.41
587.38	45324.47
587.54	45914.29
587.70	45572.57
587.86	45928.33
588.02	45820.67
588.18	45673.21
588.34	45755.13
588.49	45038.93
588.65	44875.09
588.81	45191.06
588.97	45069.36
589.13	45488.31
589.29	45228.51
589.45	45382.99
589.61	45743.43
589.77	45624.06
589.93	45425.12
590.08	45921.31
590.24	45832.37
