SpectraSuite Data File
++++++++++++++++++++++++++++++++++++
Date: Fri Oct 25 11:23:41 EDT 2013
User: price-jones
Dark Spectrum Present: No
Reference Spectrum Present: No
Number of Sampled Component Spectra: 1
Spectrometers: USB2+H05261
Integration Time (usec): 100000 (USB2+H05261)
Spectra Averaged: 1 (USB2+H05261)
Boxcar Smoothing: 0 (USB2+H05261)
Correct for Electrical Dark: No (USB2+H05261)
Strobe/Lamp Enabled: No (USB2+H05261)
Correct for Detector Non-linearity: No (USB2+H05261)
Correct for Stray Light: No (USB2+H05261)
Number of Pixels in Processed Spectrum: 2048
>>>>>Begin Processed Spectral Data<<<<<
365.73	231.71
365.92	231.71
366.12	231.71
366.32	173.20
366.52	121.71
366.72	154.48
366.91	112.35
367.11	124.05
367.31	107.66
367.51	163.84
367.70	100.64
367.90	161.50
368.10	135.75
368.30	177.88
368.49	177.88
368.69	173.20
368.89	163.84
369.09	177.88
369.28	147.45
369.48	147.45
369.68	124.05
369.87	168.52
370.07	243.42
370.27	175.54
370.47	365.12
370.66	585.13
370.86	613.22
371.06	624.92
371.25	711.52
371.45	610.88
371.65	636.63
371.84	690.46
372.04	608.54
372.24	650.67
372.44	716.20
372.63	770.04
372.83	795.78
373.03	765.36
373.22	805.14
373.42	786.42
373.62	716.20
373.81	791.10
374.01	753.65
374.21	772.38
374.40	823.87
374.60	765.36
374.79	833.23
374.99	847.27
375.19	854.30
375.38	774.72
375.58	875.36
375.78	898.77
375.97	873.02
376.17	940.90
376.37	805.14
376.56	950.26
376.76	837.91
376.95	828.55
377.15	837.91
377.35	922.17
377.54	926.85
377.74	866.00
377.93	912.81
378.13	905.79
378.33	875.36
378.52	938.55
378.72	877.70
378.91	947.92
379.11	898.77
379.31	884.72
379.50	938.55
379.70	971.32
379.89	983.02
380.09	894.08
380.28	983.02
380.48	1020.47
380.68	933.87
380.87	905.79
381.07	1081.33
381.26	999.41
381.46	1032.18
381.65	1011.11
381.85	1050.90
382.04	983.02
382.24	1116.44
382.43	1071.97
382.63	1036.86
382.83	968.98
383.02	1139.84
383.22	1069.62
383.41	1093.03
383.61	1062.60
383.80	1083.67
384.00	1170.27
384.19	1116.44
384.39	1102.39
384.58	1137.50
384.78	1144.52
384.97	1102.39
385.17	1149.20
385.36	1226.44
385.56	1226.44
385.75	1259.21
385.95	1153.88
386.14	1228.78
386.34	1268.57
386.53	1233.46
386.72	1210.06
386.92	1200.69
387.11	1207.72
387.31	1186.65
387.50	1252.19
387.70	1247.51
387.89	1366.87
388.09	1310.70
388.28	1184.31
388.48	1153.88
388.67	1317.72
388.86	1291.98
389.06	1217.08
389.25	1434.75
389.45	1380.92
389.64	1376.24
389.84	1364.53
390.03	1390.28
390.22	1425.39
390.42	1294.32
390.61	1390.28
390.81	1401.98
391.00	1516.67
391.19	1355.17
391.39	1366.87
391.58	1514.33
391.78	1371.55
391.97	1511.99
392.16	1502.62
392.36	1507.30
392.55	1593.90
392.75	1582.20
392.94	1519.01
393.13	1668.80
393.33	1462.83
393.52	1533.05
393.71	1600.93
393.91	1530.71
394.10	1586.88
394.29	1603.27
394.49	1659.44
394.68	1685.19
394.88	1533.05
395.07	1624.33
395.26	1729.66
395.46	1722.63
395.65	1732.00
395.84	1706.25
396.04	1762.42
396.23	1760.08
396.42	1823.28
396.62	1760.08
396.81	1767.10
397.00	1668.80
397.19	1856.04
397.39	1825.62
397.58	1834.98
397.77	1884.13
397.97	1781.15
398.16	1872.43
398.35	1781.15
398.55	1839.66
398.74	1888.81
398.93	1806.89
399.12	1954.35
399.32	1928.60
399.51	2059.67
399.70	2001.16
399.90	1944.99
400.09	2029.24
400.28	2001.16
400.47	1949.67
400.67	2010.52
400.86	2125.21
401.05	2113.50
401.24	2150.95
401.44	2188.40
401.63	2214.15
401.82	2155.63
402.01	2160.31
402.21	2246.91
402.40	2129.89
402.59	2174.36
402.78	2253.94
402.97	2319.47
403.17	2342.88
403.36	2356.92
403.55	2216.49
403.74	2380.32
403.93	2387.35
404.13	2251.60
404.32	2340.54
404.51	2368.62
404.70	2415.43
404.89	2389.69
405.09	2525.44
405.28	2527.78
405.47	2452.88
405.66	2476.29
405.85	2509.05
406.05	2583.95
406.24	2464.58
406.43	2607.36
406.62	2670.55
406.81	2726.72
407.00	2715.02
407.20	2572.25
407.39	2541.82
407.58	2750.13
407.77	2663.53
407.96	2780.56
408.15	2782.90
408.34	2736.09
408.54	2803.96
408.73	2818.00
408.92	2820.35
409.11	2881.20
409.30	2902.26
409.49	2890.56
409.68	3000.57
409.87	2977.16
410.07	2995.89
410.26	3035.67
410.45	2960.78
410.64	3038.02
410.83	2998.23
411.02	3028.65
411.21	3089.51
411.40	3026.31
411.59	3138.66
411.78	3171.43
411.98	3143.34
412.17	3243.98
412.36	3321.22
412.55	3393.78
412.74	3485.06
412.93	3372.71
413.12	3361.01
413.31	3618.47
413.50	3571.66
413.69	3407.82
413.88	3702.73
414.07	3684.00
414.26	3660.60
414.45	3695.71
414.64	3644.21
414.83	3667.62
415.02	3747.20
415.22	3859.54
415.41	3981.25
415.60	3854.86
415.79	3941.46
415.98	3981.25
416.17	4011.68
416.36	4072.53
416.55	4032.74
416.74	4060.83
416.93	3969.55
417.12	4117.00
417.31	4119.34
417.50	4259.78
417.69	4351.06
417.88	4117.00
418.07	4161.47
418.26	4339.35
418.45	4444.68
418.64	4634.26
418.83	4390.84
419.02	4498.51
419.21	4592.13
419.39	4526.60
419.58	4463.40
419.77	4425.95
419.96	4667.03
420.15	4657.67
420.34	4718.52
420.53	4648.30
420.72	4669.37
420.91	4643.62
421.10	4744.27
421.29	4837.89
421.48	4676.39
421.67	4812.14
421.86	4833.21
422.05	4744.27
422.24	4774.69
422.43	4805.12
422.61	4833.21
422.80	4978.32
422.99	4898.74
423.18	4968.96
423.37	5036.83
423.56	4767.67
423.75	4992.36
423.94	4788.74
424.13	4734.90
424.32	4762.99
424.50	4968.96
424.69	5001.72
424.88	5102.37
425.07	4931.51
425.26	5034.49
425.45	4858.95
425.64	4924.49
425.83	5025.13
426.01	5008.75
426.20	4973.64
426.39	5041.51
426.58	4975.98
426.77	5097.69
426.96	5095.35
427.15	5097.69
427.33	5071.94
427.52	5327.06
427.71	5268.55
427.90	5226.42
428.09	5350.46
428.28	5376.21
428.46	5397.28
428.65	5317.70
428.84	5636.01
429.03	5523.66
429.22	5324.72
429.40	5490.90
429.59	5610.26
429.78	5317.70
429.97	5247.48
430.16	5518.98
430.34	5717.93
430.53	5570.48
430.72	5631.33
430.91	5563.45
431.10	5643.03
431.28	5731.97
431.47	5724.95
431.66	5912.19
431.85	5881.77
432.03	5940.28
432.22	5926.24
432.41	5977.73
432.60	5891.13
432.79	5937.94
432.97	5982.41
433.16	6057.31
433.35	6038.58
433.54	6209.44
433.72	6080.71
433.91	6036.24
434.10	6202.42
434.28	6017.52
434.47	6129.86
434.66	6324.13
434.85	6267.95
435.03	6361.58
435.22	6356.90
435.41	6665.85
435.59	6532.44
435.78	6420.09
435.97	6579.25
436.16	6310.08
436.34	6579.25
436.53	6541.80
436.72	6654.14
436.90	6392.00
437.09	6752.45
437.28	6558.18
437.46	6588.61
437.65	6499.67
437.84	6881.18
438.02	6799.26
438.21	6792.23
438.40	6703.29
438.58	6846.07
438.77	7040.33
438.96	6890.54
439.14	7166.72
439.33	7194.81
439.52	7304.81
439.70	7173.74
439.89	7281.41
440.08	7566.95
440.26	7339.92
440.45	7311.83
440.63	7499.08
440.82	7566.95
441.01	7620.78
441.19	7573.97
441.38	7595.04
441.57	7770.58
441.75	7667.60
441.94	7999.95
442.12	7964.84
442.31	7913.35
442.50	8060.80
442.68	7971.86
442.87	8138.04
443.05	8236.35
443.24	8304.22
443.43	8189.53
443.61	8210.60
443.80	8561.68
443.98	8222.30
444.17	7744.83
444.35	8234.00
444.54	8435.29
444.73	8475.08
444.91	8271.45
445.10	8318.26
445.28	8222.30
445.47	8259.75
445.65	8463.38
445.84	8454.02
446.02	8571.04
446.21	8374.44
446.39	8369.76
446.58	8683.39
446.77	8549.98
446.95	8409.54
447.14	8411.89
447.32	8608.49
447.51	8557.00
447.69	8531.25
447.88	8496.14
448.06	8430.61
448.25	8482.10
448.43	8713.81
448.62	8505.51
448.80	8657.64
448.99	8669.34
449.17	8629.56
449.36	8568.70
449.54	8910.42
449.73	8910.42
449.91	8912.76
450.10	8894.04
450.28	9046.17
450.46	9109.36
450.65	8926.80
450.83	9193.62
451.02	9097.66
451.20	9308.31
451.39	9102.34
451.57	9315.33
451.76	9100.00
451.94	9090.64
452.13	9352.78
452.31	9202.99
452.49	9205.33
452.68	9671.09
452.86	9472.15
453.05	9411.29
453.23	9645.35
453.42	9563.43
453.60	9294.27
453.78	9582.15
453.97	9441.72
454.15	9516.62
454.34	9441.72
454.52	9954.30
454.70	9750.67
454.89	9863.02
455.07	9891.10
455.26	10064.30
455.44	9921.53
455.62	9956.64
455.81	10125.16
455.99	10164.95
456.17	9963.66
456.36	10146.22
456.54	10314.74
456.73	10281.97
456.91	10399.00
457.09	10494.96
457.28	10555.82
457.46	10354.53
457.64	10677.52
457.83	10853.06
458.01	10457.51
458.19	10738.38
458.38	10511.35
458.56	10614.33
458.74	10850.72
458.93	10672.84
459.11	10759.44
459.29	10677.52
459.48	11073.07
459.66	10843.70
459.84	10764.12
460.03	11164.36
460.21	11103.50
460.39	11108.18
460.57	10993.50
460.76	11096.48
460.94	11082.44
461.12	11370.32
461.31	11290.74
461.49	11087.12
461.67	11108.18
461.85	11424.15
462.04	11255.64
462.22	11548.20
462.40	11618.42
462.59	11655.87
462.77	11477.99
462.95	11857.15
463.13	11669.91
463.32	11662.89
463.50	11803.32
463.68	11929.71
463.86	11843.11
464.05	11803.32
464.23	11808.00
464.41	11843.11
464.59	11885.24
464.78	12086.53
464.96	12098.23
465.14	11913.33
465.32	12334.62
465.50	11992.90
465.69	12140.36
465.87	12145.04
466.05	12442.29
466.23	12049.08
466.41	12196.53
466.60	12320.58
466.78	12180.15
466.96	12180.15
467.14	12119.29
467.32	12559.31
467.51	12580.38
467.69	12161.42
467.87	12425.90
468.05	12592.08
468.23	12430.59
468.41	12400.16
468.60	12549.95
468.78	12737.20
468.96	12601.44
469.14	12926.78
469.32	12833.16
469.50	12940.82
469.69	13102.32
469.87	13055.51
470.05	13359.78
470.23	13167.85
470.41	13500.21
470.59	13378.50
470.77	13172.54
470.95	13315.31
471.14	13411.27
471.32	12961.89
471.50	13556.38
471.68	13689.79
471.86	13619.58
472.04	13682.77
472.22	14164.92
472.40	13914.48
472.58	13806.82
472.77	13860.65
472.95	14171.94
473.13	14569.83
473.31	14293.65
473.49	14185.99
473.67	14083.00
473.85	14321.74
474.03	14752.40
474.21	14614.30
474.39	14815.59
474.57	14499.62
474.75	14998.15
474.93	15269.66
475.12	15281.36
475.30	15288.38
475.48	15159.65
475.66	15262.63
475.84	15075.39
476.02	15325.83
476.20	15419.45
476.38	15936.71
476.56	15805.64
476.74	15777.55
476.92	15915.64
477.10	15833.72
477.28	16332.26
477.46	16219.91
477.64	16739.51
477.82	16563.97
478.00	17067.19
478.18	17104.64
478.36	16987.61
478.54	17167.83
478.72	17439.33
478.90	17640.62
479.08	17703.81
479.26	17659.34
479.44	17949.57
479.62	18057.23
479.80	18312.35
479.98	18466.83
480.16	18677.48
480.34	18518.32
480.52	18658.75
480.70	18616.62
480.88	18403.63
481.06	18944.30
481.24	18890.46
481.41	19278.99
481.59	19438.15
481.77	19660.50
481.95	19508.37
482.13	19948.39
482.31	19910.94
482.49	20301.81
482.67	20264.36
482.85	20449.26
483.03	20725.44
483.21	20697.36
483.39	21123.33
483.57	20699.70
483.74	21256.75
483.92	21448.67
484.10	21254.40
484.28	21696.77
484.46	22307.65
484.64	22455.10
484.82	22382.54
485.00	22731.28
485.18	22979.38
485.35	23192.37
485.53	22838.95
485.71	23049.60
485.89	23669.84
486.07	23566.85
486.25	23393.65
486.43	23777.50
486.61	23578.56
486.78	24477.32
486.96	24678.61
487.14	24889.26
487.32	24631.80
487.50	25500.14
487.68	24840.11
487.85	25584.40
488.03	25759.94
488.21	25823.13
488.39	26185.91
488.57	26209.32
488.75	26146.12
488.92	26518.27
489.10	26965.31
489.28	26871.69
489.46	27115.11
489.64	27213.41
489.81	27709.60
489.99	27395.97
490.17	27700.24
490.35	28332.18
490.53	27957.70
490.70	28271.33
490.88	28570.92
491.06	28837.74
491.24	28945.41
491.41	29392.45
491.59	29579.69
491.77	29347.98
491.95	29839.49
492.13	30010.35
492.30	30108.65
492.48	30197.59
492.66	30408.24
492.84	29944.81
493.01	31175.94
493.19	30745.28
493.37	31000.40
493.54	30976.99
493.72	31653.40
493.90	31697.88
494.08	31910.86
494.25	32308.76
494.43	32327.48
494.61	32701.96
494.79	32432.80
494.96	32531.11
495.14	32697.28
495.32	33490.73
495.49	33263.69
495.67	33092.83
495.85	33486.04
496.02	34209.27
496.20	33640.52
496.38	34113.31
496.55	33979.90
496.73	35068.25
496.91	34440.98
497.09	34991.01
497.26	35229.74
497.44	34909.09
497.62	35723.60
497.79	35985.74
497.97	35314.00
498.14	36257.24
498.32	36493.63
498.50	36432.78
498.67	36870.46
498.85	36800.24
499.03	36769.82
499.20	36912.59
499.38	37074.09
499.56	36940.68
499.73	37071.75
499.91	37399.42
500.08	37986.89
500.26	37581.98
500.44	37773.91
500.61	37937.74
500.79	38340.32
500.97	38218.61
501.14	38726.50
501.32	39033.11
501.49	38579.05
501.67	38808.42
501.84	39147.80
502.02	38602.46
502.20	39571.44
502.37	39597.18
502.55	39391.22
502.72	39693.15
502.90	40051.25
503.07	39583.14
503.25	39789.11
503.43	39952.94
503.60	40620.00
503.78	40161.25
503.95	40669.15
504.13	40744.05
504.30	40950.01
504.48	40495.95
504.65	40807.24
504.83	40926.61
505.01	41823.03
505.18	41493.02
505.36	42199.86
505.53	41364.29
505.71	41467.27
505.88	42178.79
506.06	41668.56
506.23	42291.14
506.41	42225.60
506.58	42529.87
506.76	42277.10
506.93	42281.78
507.11	42895.00
507.28	42581.37
507.46	42674.99
507.63	43187.56
507.81	43463.75
507.98	43243.74
508.16	43196.93
508.33	43580.78
508.50	43440.34
508.68	43650.99
508.85	43875.68
509.03	44285.28
509.20	44156.55
509.38	44540.39
509.55	44439.75
509.73	44376.56
509.90	44914.88
510.08	44507.63
510.25	44769.77
510.42	45177.02
510.60	45394.69
510.77	45254.26
510.95	45670.87
511.12	45038.93
511.30	45031.91
511.47	45294.05
511.64	45436.82
511.82	45766.84
511.99	45516.40
512.17	46450.27
512.34	45621.72
512.51	46363.67
512.69	46506.44
512.86	46590.70
513.04	47009.66
513.21	46838.80
513.38	46925.40
513.56	47068.17
513.73	46796.67
513.90	46911.36
514.08	46752.20
514.25	47288.18
514.43	47536.28
514.60	47782.04
514.77	47775.02
514.95	48025.45
515.12	47903.74
515.29	47723.52
515.47	48128.44
515.64	48233.76
515.81	48278.23
515.99	48428.02
516.16	48439.73
516.33	48413.98
516.51	49069.33
516.68	48512.28
516.85	48652.72
517.03	49052.95
517.20	49181.68
517.37	48870.39
517.54	49265.94
517.72	49083.37
517.89	49202.74
518.06	49375.94
518.24	49574.89
518.41	49088.06
518.58	49584.25
518.75	49188.70
518.93	49659.15
519.10	49544.46
519.27	49874.48
519.45	49752.77
519.62	50525.14
519.79	50171.72
519.96	50064.06
520.14	50052.36
520.31	49904.90
520.48	50520.46
520.65	50499.40
520.83	50726.43
521.00	50925.38
521.17	50862.18
521.34	50770.90
521.52	50817.71
521.69	50798.99
521.86	51311.56
522.03	51309.22
522.20	51231.99
522.38	51627.54
522.55	51791.37
522.72	51428.59
522.89	51538.60
523.07	51791.37
523.24	51627.54
523.41	51849.89
523.58	51774.99
523.75	52009.04
523.92	51957.55
524.10	52030.11
524.27	52095.64
524.44	51882.66
524.61	52107.35
524.78	52088.62
524.96	52425.66
525.13	52435.02
525.30	52584.82
525.47	52875.04
525.64	52732.27
525.81	52870.36
525.98	52640.99
526.16	52797.80
526.33	52875.04
526.50	53045.90
526.67	52739.29
526.84	53165.27
527.01	52713.55
527.18	53139.52
527.36	53151.23
527.53	53219.10
527.70	53619.33
527.87	53516.35
528.04	53212.08
528.21	53544.44
528.38	53331.45
528.55	53759.76
528.72	53385.28
528.89	53483.58
529.07	53404.00
529.24	53645.08
529.41	53886.15
529.58	53778.49
529.75	53867.43
529.92	53886.15
530.09	53818.28
530.26	54101.48
530.43	54028.93
530.60	53942.33
530.77	53801.89
530.94	53984.46
531.11	54021.90
531.28	54319.15
531.46	54335.54
531.63	54415.11
531.80	54157.66
531.97	54511.08
532.14	54644.49
532.31	54504.06
532.48	54525.12
532.65	54693.64
532.82	54475.97
532.99	54749.81
533.16	54550.87
533.33	54962.80
533.50	55110.25
533.67	54735.77
533.84	54698.32
534.01	55042.38
534.18	54976.84
534.35	55571.34
534.52	55302.18
534.69	55234.30
534.86	55569.00
535.03	55374.73
535.20	55585.38
535.37	55627.51
535.54	55657.94
535.71	55304.52
535.88	55447.29
536.05	55646.24
536.22	55786.67
536.38	55854.54
536.55	55807.73
536.72	55704.75
536.89	55461.33
537.06	55587.72
537.23	55770.28
537.40	55552.62
537.57	55936.46
537.74	55859.23
537.91	56067.53
538.08	55861.57
538.25	55760.92
538.42	56100.30
538.59	56254.78
538.75	55985.61
538.92	56119.02
539.09	56467.76
539.26	56217.33
539.43	56104.98
539.60	56025.40
539.77	56327.33
539.94	56708.84
540.11	56364.78
540.28	56432.66
540.44	56570.75
540.61	56622.24
540.78	56350.74
540.95	56523.94
541.12	56563.73
541.29	56374.14
541.46	56526.28
541.62	56671.39
541.79	56725.22
541.96	56423.29
542.13	56856.29
542.30	56835.23
542.47	56879.70
542.63	56900.76
542.80	57064.60
542.97	57282.27
543.14	57293.97
543.31	57371.21
543.48	57160.56
543.64	57715.27
543.81	57642.71
543.98	57298.65
544.15	57457.81
544.32	57513.98
544.48	57844.00
544.65	57549.09
544.82	57490.58
544.99	57296.31
545.16	57591.22
545.32	57553.77
545.49	57773.78
545.66	57832.30
545.83	57570.16
546.00	57834.64
546.16	57614.63
546.33	57743.36
546.50	57771.44
546.67	57764.42
546.83	57380.57
547.00	57888.47
547.17	57804.21
547.34	57804.21
547.50	58319.13
547.67	58078.05
547.84	58204.44
548.00	58094.44
548.17	58155.29
548.34	58127.20
548.51	58288.70
548.67	58323.81
548.84	58401.05
549.01	58117.84
549.18	58335.51
549.34	58272.32
549.51	58440.84
549.68	58560.20
549.84	58431.47
550.01	58745.11
550.18	58398.71
550.34	58412.75
550.51	58398.71
550.68	58506.37
550.84	58398.71
551.01	58597.65
551.18	58555.52
551.34	58492.33
551.51	58714.68
551.68	58642.12
551.84	58623.40
552.01	58508.71
552.18	58742.77
552.34	58569.57
552.51	58728.72
552.68	58763.83
552.84	58719.36
553.01	58944.05
553.18	58801.28
553.34	59058.74
553.51	58801.28
553.67	58892.56
553.84	58930.01
554.01	58944.05
554.17	58979.16
554.34	59021.29
554.51	59058.74
554.67	59215.55
554.84	59016.61
555.00	59037.67
555.17	59086.82
555.33	59086.82
555.50	58937.03
555.67	59217.89
555.83	59281.09
556.00	59154.70
556.16	59554.93
556.33	59220.23
556.50	59180.45
556.66	59409.82
556.83	59320.88
556.99	59632.17
557.16	59803.03
557.32	59660.26
557.49	59744.51
557.65	59501.10
557.82	59433.22
557.98	59512.80
558.15	59615.79
558.32	59611.10
558.48	59442.59
558.65	59568.97
558.81	59543.23
558.98	59590.04
559.14	59695.36
559.31	59779.62
559.47	59819.41
559.64	59922.40
559.80	59700.04
559.97	59814.73
560.13	59629.83
560.30	59824.09
560.46	59903.67
560.63	59908.35
560.79	59821.75
560.96	59896.65
561.12	60046.44
561.29	59812.39
561.45	59931.76
561.61	59849.84
561.78	59767.92
561.94	59980.91
562.11	59994.95
562.27	59973.89
562.44	60011.34
562.60	60224.32
562.77	60111.98
562.93	60011.34
563.10	60271.14
563.26	59786.64
563.42	60285.18
563.59	59873.24
563.75	59990.27
563.92	60133.04
564.08	60027.72
564.24	60416.25
564.41	59999.63
564.57	60285.18
564.74	60186.88
564.90	60425.61
565.07	60238.37
565.23	60189.22
565.39	60280.50
565.56	60247.73
565.72	60238.37
565.88	60308.58
566.05	60254.75
566.21	60409.23
566.38	60292.20
566.54	60353.05
566.70	60390.50
566.87	60631.58
567.03	60294.54
567.19	60399.86
567.36	60257.09
567.52	60388.16
567.68	60678.39
567.85	60528.59
568.01	60481.78
568.17	60423.27
568.34	60589.45
568.50	60544.98
568.66	60343.69
568.83	60434.97
568.99	60472.42
569.15	60502.85
569.32	60570.72
569.48	60378.80
569.64	60701.79
569.81	60671.37
569.97	60229.01
570.13	60507.53
570.30	60530.93
570.46	60603.49
570.62	60603.49
570.78	60671.37
570.95	60481.78
571.11	60828.18
571.27	60385.82
571.43	60615.19
571.60	60797.76
571.76	60683.07
571.92	60706.47
572.09	60727.54
572.25	60802.44
572.41	60781.37
572.57	60694.77
572.74	60851.59
572.90	60729.88
573.06	60692.43
573.22	60610.51
573.38	60638.60
573.55	60975.64
573.71	60837.54
573.87	60669.03
574.03	60617.53
574.20	60694.77
574.36	60570.72
574.52	60828.18
574.68	60790.73
574.84	60933.51
575.01	60793.07
575.17	60823.50
575.33	60849.25
575.49	60757.97
575.65	60874.99
575.82	60678.39
575.98	60795.42
576.14	60966.27
576.30	60839.89
576.46	60753.29
576.62	60839.89
576.79	60779.03
576.95	60893.72
577.11	60638.60
577.27	61017.77
577.43	61006.06
577.59	60910.10
577.75	60573.06
577.92	61057.56
578.08	60809.46
578.24	60921.80
578.40	60823.50
578.56	61066.92
578.72	60900.74
578.88	60917.12
579.04	61139.47
579.21	60872.65
579.37	60996.70
579.53	61144.16
579.69	60858.61
579.85	60926.49
580.01	61085.64
580.17	60851.59
580.33	61052.87
580.49	60921.80
580.65	61193.31
580.82	60999.04
580.98	60872.65
581.14	60992.02
581.30	61083.30
581.46	60860.95
581.62	60942.87
581.78	60896.06
581.94	61111.39
582.10	61024.79
582.26	61085.64
582.42	60912.44
582.58	61001.38
582.74	60956.91
582.90	60917.12
583.06	60963.93
583.22	61080.96
583.38	61064.58
583.54	61230.75
583.70	60982.66
583.86	61219.05
584.02	60914.78
584.18	61045.85
584.34	61123.09
584.50	60966.27
584.66	60989.68
584.82	60961.59
584.98	61268.20
585.14	61116.07
585.30	61087.98
585.46	61249.48
585.62	61146.50
585.78	61169.90
585.94	60956.91
586.10	61221.39
586.26	61263.52
586.42	61244.80
586.58	61190.97
586.74	61064.58
586.90	61036.49
587.06	60921.80
587.22	61010.74
587.38	61212.03
587.54	61179.26
587.70	61307.99
587.86	61329.06
588.02	61052.87
588.18	61193.31
588.34	61298.63
588.49	61247.14
