SpectraSuite Data File
++++++++++++++++++++++++++++++++++++
Date: Fri Oct 25 10:48:21 EDT 2013
User: price-jones
Dark Spectrum Present: No
Reference Spectrum Present: No
Number of Sampled Component Spectra: 1
Spectrometers: USB2+H05261
Integration Time (usec): 100000 (USB2+H05261)
Spectra Averaged: 1 (USB2+H05261)
Boxcar Smoothing: 0 (USB2+H05261)
Correct for Electrical Dark: No (USB2+H05261)
Strobe/Lamp Enabled: No (USB2+H05261)
Correct for Detector Non-linearity: No (USB2+H05261)
Correct for Stray Light: No (USB2+H05261)
Number of Pixels in Processed Spectrum: 2048
>>>>>Begin Processed Spectral Data<<<<<
365.73	95.96
365.92	95.96
366.12	95.96
366.32	46.81
366.52	4.68
366.72	56.17
366.91	9.36
367.11	86.60
367.31	46.81
367.51	0.00
367.70	56.17
367.90	60.85
368.10	18.72
368.30	60.85
368.49	84.26
368.69	95.96
368.89	67.88
369.09	30.43
369.28	58.51
369.48	74.90
369.68	25.75
369.87	147.45
370.07	138.09
370.27	159.16
370.47	224.69
370.66	400.23
370.86	435.34
371.06	477.47
371.25	404.91
371.45	484.49
371.65	531.30
371.84	461.09
372.04	533.64
372.24	545.34
372.44	526.62
372.63	514.92
372.83	582.79
373.03	500.87
373.22	500.87
373.42	512.58
373.62	538.32
373.81	631.94
374.01	613.22
374.21	634.29
374.40	538.32
374.60	559.39
374.79	613.22
374.99	589.82
375.19	615.56
375.38	650.67
375.58	676.41
375.78	606.20
375.97	685.78
376.17	587.47
376.37	627.26
376.56	617.90
376.76	554.71
376.95	615.56
377.15	606.20
377.35	718.54
377.54	688.12
377.74	702.16
377.93	676.41
378.13	716.20
378.33	716.20
378.52	720.88
378.72	671.73
378.91	702.16
379.11	599.18
379.31	662.37
379.50	716.20
379.70	784.08
379.89	730.25
380.09	727.91
380.28	793.44
380.48	720.88
380.68	725.57
380.87	765.36
381.07	671.73
381.26	767.70
381.46	732.59
381.65	781.74
381.85	774.72
382.04	688.12
382.24	765.36
382.43	664.71
382.63	765.36
382.83	674.07
383.02	746.63
383.22	741.95
383.41	833.23
383.61	774.72
383.80	767.70
384.00	753.65
384.19	784.08
384.39	866.00
384.58	912.81
384.78	856.64
384.97	793.44
385.17	795.78
385.36	884.72
385.56	765.36
385.75	833.23
385.95	875.36
386.14	849.61
386.34	866.00
386.53	896.43
386.72	884.72
386.92	882.38
387.11	905.79
387.31	957.28
387.50	880.04
387.70	840.25
387.89	847.27
388.09	884.72
388.28	877.70
388.48	877.70
388.67	957.28
388.86	959.62
389.06	1027.50
389.25	1067.28
389.45	1046.22
389.64	976.00
389.84	1022.81
390.03	978.34
390.22	1050.90
390.42	1015.79
390.61	1020.47
390.81	1048.56
391.00	1177.29
391.19	1074.31
391.39	1083.67
391.58	1071.97
391.78	1198.35
391.97	1121.12
392.16	1027.50
392.36	1069.62
392.55	1006.43
392.75	1048.56
392.94	1076.65
393.13	990.05
393.33	987.71
393.52	1111.75
393.71	1203.04
393.91	1179.63
394.10	1163.25
394.29	1240.48
394.49	1146.86
394.68	1245.16
394.88	1296.66
395.07	1308.36
395.26	1245.16
395.46	1327.08
395.65	1336.45
395.84	1294.32
396.04	1275.59
396.23	1238.14
396.42	1186.65
396.62	1212.40
396.81	1146.86
397.00	1170.27
397.19	1296.66
397.39	1441.77
397.58	1455.81
397.77	1441.77
397.97	1490.92
398.16	1399.64
398.35	1554.12
398.55	1556.46
398.74	1579.86
398.93	1544.75
399.12	1561.14
399.32	1537.73
399.51	1631.35
399.70	1568.16
399.90	1706.25
400.09	1657.10
400.28	1633.69
400.47	1633.69
400.67	1722.63
400.86	1682.85
401.05	1720.29
401.24	1668.80
401.44	1790.51
401.63	1734.34
401.82	1696.89
402.01	1760.08
402.21	1668.80
402.40	1799.87
402.59	1750.72
402.78	1792.85
402.97	1870.09
403.17	1783.49
403.36	2015.20
403.55	1961.37
403.74	1886.47
403.93	1914.56
404.13	1891.15
404.32	1846.68
404.51	1975.41
404.70	1884.13
404.89	1837.32
405.09	1961.37
405.28	2043.29
405.47	2078.40
405.66	2019.88
405.85	2047.97
406.05	2062.01
406.24	2031.58
406.43	2078.40
406.62	2132.23
406.81	2090.10
407.00	2033.93
407.20	2066.69
407.39	2092.44
407.58	2190.74
407.77	2258.62
407.96	2214.15
408.15	2303.09
408.34	2193.08
408.54	2235.21
408.73	2265.64
408.92	2408.41
409.11	2307.77
409.30	2380.32
409.49	2380.32
409.68	2373.30
409.87	2380.32
410.07	2361.60
410.26	2462.24
410.45	2452.88
410.64	2548.84
410.83	2679.91
411.02	2520.76
411.21	2658.85
411.40	2548.84
411.59	2656.51
411.78	2612.04
411.98	2677.57
412.17	2677.57
412.36	2703.32
412.55	2761.83
412.74	2810.98
412.93	2808.64
413.12	2780.56
413.31	2942.05
413.50	2820.35
413.69	2909.29
413.88	3045.04
414.07	3002.91
414.26	2967.80
414.45	2951.42
414.64	3110.57
414.83	2953.76
415.02	3052.06
415.22	3040.36
415.41	3260.37
415.60	3091.85
415.79	3218.24
415.98	3368.03
416.17	3239.30
416.36	3321.22
416.55	3178.45
416.74	3281.43
416.93	3361.01
417.12	3239.30
417.31	3286.11
417.50	3428.88
417.69	3583.36
417.88	3473.36
418.07	3496.76
418.26	3478.04
418.45	3592.72
418.64	3662.94
418.83	3665.28
419.02	3536.55
419.21	3686.34
419.39	3810.39
419.58	3763.58
419.77	3646.55
419.96	3719.11
420.15	3744.86
420.34	3791.67
420.53	4004.66
420.72	3927.42
420.91	3845.50
421.10	3943.80
421.29	3939.12
421.48	3983.59
421.67	4002.32
421.86	3988.27
422.05	3943.80
422.24	3838.48
422.43	3817.41
422.61	3960.19
422.80	4109.98
422.99	3992.95
423.18	3983.59
423.37	4182.54
423.56	3995.29
423.75	3974.23
423.94	3946.14
424.13	3782.31
424.32	3934.44
424.50	4056.15
424.69	4093.60
424.88	4149.77
425.07	4074.87
425.26	3960.19
425.45	3962.53
425.64	4128.70
425.83	4170.83
426.01	4105.30
426.20	4030.40
426.39	4173.18
426.58	4117.00
426.77	4124.02
426.96	4063.17
427.15	4037.42
427.33	4201.26
427.52	4248.07
427.71	4198.92
427.90	4304.25
428.09	4243.39
428.28	4238.71
428.46	4271.48
428.65	4124.02
428.84	4315.95
429.03	4416.59
429.22	4161.47
429.40	4348.72
429.59	4191.90
429.78	4149.77
429.97	4091.26
430.16	4166.15
430.34	4189.56
430.53	4390.84
430.72	4243.39
430.91	4318.29
431.10	4514.89
431.28	4545.32
431.47	4692.77
431.66	4512.55
431.85	4559.36
432.03	4770.01
432.22	4685.75
432.41	4861.29
432.60	4798.10
432.79	4854.27
432.97	4990.02
433.16	4688.09
433.35	4706.82
433.54	4720.86
433.72	4704.48
433.91	4805.12
434.10	4856.61
434.28	4655.33
434.47	4849.59
434.66	4957.25
434.85	4973.64
435.03	4959.60
435.22	5074.28
435.41	5076.62
435.59	5252.16
435.78	5282.59
435.97	5298.97
436.16	5163.22
436.34	5111.73
436.53	5280.25
436.72	5224.08
436.90	5259.18
437.09	5313.02
437.28	5184.29
437.46	5420.68
437.65	5214.71
437.84	5266.21
438.02	5184.29
438.21	5343.44
438.40	5242.80
438.58	5556.43
438.77	5610.26
438.96	5430.04
439.14	5579.84
439.33	5790.49
439.52	5762.40
439.70	5764.74
439.89	5689.84
440.08	5834.96
440.26	5617.29
440.45	5736.65
440.63	5994.11
440.82	5994.11
441.01	6003.47
441.19	5935.60
441.38	6143.91
441.57	5994.11
441.75	6221.14
441.94	6466.90
442.12	6445.84
442.31	6471.58
442.50	6450.52
442.68	6527.75
442.87	6457.54
443.05	6366.26
443.24	6382.64
443.43	6490.31
443.61	6455.20
443.80	6724.36
443.98	6406.05
444.17	6417.75
444.35	6656.48
444.54	6679.89
444.73	6612.01
444.91	6565.20
445.10	6726.70
445.28	6534.78
445.47	6710.32
445.65	6527.75
445.84	6572.22
446.02	6722.02
446.21	6642.44
446.39	6677.55
446.58	6813.30
446.77	6675.21
446.95	6497.33
447.14	6874.15
447.32	6906.92
447.51	6827.34
447.69	6946.71
447.88	6878.83
448.06	7033.31
448.25	6586.27
448.43	6768.83
448.62	6937.35
448.80	6806.28
448.99	6979.48
449.17	7028.63
449.36	6991.18
449.54	7206.51
449.73	7150.34
449.91	7255.66
450.10	7246.30
450.28	7295.45
450.46	7375.03
450.65	7143.32
450.83	7342.26
451.02	7293.11
451.20	7431.20
451.39	7377.37
451.57	7541.21
451.76	7297.79
451.94	7370.35
452.13	7358.64
452.31	7550.57
452.49	7288.43
452.68	7419.50
452.86	7241.62
453.05	7384.39
453.23	7496.74
453.42	7389.07
453.60	7555.25
453.78	7503.76
453.97	7419.50
454.15	7531.84
454.34	7569.29
454.52	7688.66
454.70	7641.85
454.89	7920.37
455.07	7672.28
455.26	7655.89
455.44	7793.98
455.62	7550.57
455.81	7911.01
455.99	7868.88
456.17	7985.91
456.36	8053.78
456.54	8121.66
456.73	8056.12
456.91	8355.71
457.09	8297.20
457.28	8496.14
457.46	8006.97
457.64	8259.75
457.83	8180.17
458.01	8147.40
458.19	8472.74
458.38	8299.54
458.56	8421.25
458.74	8271.45
458.93	8519.55
459.11	8355.71
459.29	8409.54
459.48	8271.45
459.66	8608.49
459.84	8624.87
460.03	8784.03
460.21	8711.47
460.39	8662.32
460.57	8573.38
460.76	8758.28
460.94	8596.79
461.12	8774.67
461.31	8938.51
461.49	8933.82
461.67	8748.92
461.85	8777.01
462.04	8870.63
462.22	9350.44
462.40	9240.44
462.59	8954.89
462.77	9078.94
462.95	9207.67
463.13	9020.42
463.32	9008.72
463.50	9153.84
463.68	9071.92
463.86	9193.62
464.05	9041.49
464.23	9074.26
464.41	9217.03
464.59	9081.28
464.78	9252.14
464.96	9263.84
465.14	9188.94
465.32	9341.08
465.50	9371.50
465.69	9408.95
465.87	9142.13
466.05	9245.12
466.23	9294.27
466.41	9336.40
466.60	9476.83
466.78	9303.63
466.96	9296.61
467.14	9488.53
467.32	9591.52
467.51	9699.18
467.69	9408.95
467.87	9570.45
468.05	9643.01
468.23	9682.80
468.41	9563.43
468.60	9671.09
468.78	9722.59
468.96	9680.46
469.14	9944.94
469.32	9949.62
469.50	9710.88
469.69	9921.53
469.87	10092.39
470.05	10050.26
470.23	9736.63
470.41	9996.43
470.59	10157.92
470.77	9977.70
470.95	10150.90
471.14	10260.91
471.32	10113.45
471.50	10490.28
471.68	10668.16
471.86	10438.79
472.04	10616.67
472.22	10654.12
472.40	10478.58
472.58	10640.08
472.77	10523.05
472.95	10824.98
473.13	11087.12
473.31	10560.50
473.49	10747.74
473.67	10897.53
473.85	10930.30
474.03	10974.77
474.21	11157.33
474.39	11295.43
474.57	11344.58
474.75	11524.80
474.93	11300.11
475.12	11159.67
475.30	11433.52
475.48	11445.22
475.66	11300.11
475.84	11407.77
476.02	11536.50
476.20	11555.22
476.38	11850.13
476.56	12030.35
476.74	11950.78
476.92	11997.59
477.10	12116.95
477.28	12416.54
477.46	12224.62
477.64	12620.17
477.82	12601.44
478.00	12713.79
478.18	12732.51
478.36	12807.41
478.54	12739.54
478.72	13083.59
478.90	13090.62
479.08	13418.29
479.26	13472.12
479.44	13586.81
479.62	13312.97
479.80	13465.10
479.98	13554.04
480.16	13916.83
480.34	13750.65
480.52	14160.24
480.70	13816.18
480.88	13893.42
481.06	14354.51
481.24	14380.25
481.41	14401.32
481.59	14703.25
481.77	14782.82
481.95	14668.14
482.13	14691.54
482.31	14813.25
482.49	15101.14
482.67	15279.02
482.85	14984.11
483.03	15332.85
483.21	15683.93
483.39	15819.68
483.57	15569.24
483.74	15889.90
483.92	15887.56
484.10	16042.03
484.28	16173.10
484.46	16259.70
484.64	16718.45
484.82	16339.28
485.00	16432.90
485.18	17018.04
485.35	16863.56
485.53	16248.00
485.71	16510.14
485.89	17029.74
486.07	16631.85
486.25	17064.85
486.43	17074.21
486.61	17338.69
486.78	17605.51
486.96	17715.51
487.14	18190.64
487.32	17834.88
487.50	18225.75
487.68	18480.87
487.85	18689.18
488.03	18780.46
488.21	18738.33
488.39	18890.46
488.57	19119.84
488.75	19199.41
488.92	19463.90
489.10	19520.07
489.28	19480.28
489.46	20154.35
489.64	20086.48
489.81	20624.80
489.99	20559.27
490.17	20566.29
490.35	20362.66
490.53	20842.47
490.70	20760.55
490.88	20978.22
491.06	21167.80
491.24	21291.85
491.41	21137.38
491.59	21476.76
491.77	21303.56
491.95	21577.40
492.13	21507.18
492.30	22419.99
492.48	22298.28
492.66	22040.82
492.84	22108.70
493.01	22534.68
493.19	22230.41
493.37	22513.61
493.54	23033.21
493.72	22998.10
493.90	23110.45
494.08	23063.64
494.25	23651.11
494.43	23613.66
494.61	23669.84
494.79	23772.82
494.96	23763.46
495.14	23871.12
495.32	23784.52
495.49	24292.42
495.67	24269.01
495.85	24580.31
496.02	24615.41
496.20	24739.46
496.38	24900.96
496.55	24907.98
496.73	25619.50
496.91	24828.40
497.09	25369.07
497.26	25511.84
497.44	25404.17
497.62	25891.01
497.79	25986.97
497.97	25762.28
498.14	26089.95
498.32	26122.72
498.50	26101.65
498.67	26256.13
498.85	26555.72
499.03	26684.45
499.20	26621.25
499.38	27026.17
499.56	26979.36
499.73	27051.91
499.91	27117.45
500.08	27241.50
500.26	27012.12
500.44	27164.26
500.61	27353.84
500.79	27496.61
500.97	27344.48
501.14	27517.68
501.32	27707.26
501.49	27915.57
501.67	28205.80
501.84	28004.51
502.02	27709.60
502.20	28290.06
502.37	28315.80
502.55	28390.70
502.72	28851.78
502.90	28772.21
503.07	28364.95
503.25	28587.30
503.43	28519.43
503.60	28474.96
503.78	28662.20
503.95	28673.90
504.13	29067.11
504.30	29336.27
504.48	28919.66
504.65	29373.72
504.83	29701.40
505.01	30099.29
505.18	29783.32
505.36	30057.16
505.53	29998.65
505.71	30061.84
505.88	30195.25
506.06	29769.27
506.23	30211.64
506.41	30190.57
506.58	30848.26
506.76	30527.61
506.93	30864.64
507.11	30354.41
507.28	30534.63
507.46	30642.29
507.63	30494.84
507.81	30815.49
507.98	31096.36
508.16	30785.07
508.33	31194.66
508.50	31311.69
508.68	31077.63
508.85	31622.98
509.03	31686.17
509.20	31648.72
509.38	32074.70
509.55	31789.16
509.73	32130.87
509.90	32168.32
510.08	32170.66
510.25	32081.72
510.42	32151.94
510.60	32648.13
510.77	32268.97
510.95	32423.44
511.12	32470.25
511.30	32540.47
511.47	32980.49
511.64	32884.53
511.82	33149.01
511.99	32950.06
512.17	32746.44
512.34	33001.55
512.51	33228.59
512.69	33104.54
512.86	33486.04
513.04	33467.32
513.21	33589.03
513.38	33493.07
513.56	33680.31
513.73	33488.38
513.90	33745.84
514.08	33631.16
514.25	33720.10
514.43	33500.09
514.60	34005.64
514.77	33809.04
514.95	34279.49
515.12	34281.83
515.29	34508.86
515.47	34527.58
515.64	34366.09
515.81	34410.56
515.99	34132.03
516.16	34345.02
516.33	34080.54
516.51	34033.73
516.68	33429.87
516.85	33923.72
517.03	34433.96
517.20	34550.99
517.37	34738.23
517.54	34995.69
517.72	34389.49
517.89	34644.61
518.06	34703.12
518.24	34979.31
518.41	34623.54
518.58	35026.12
518.75	35044.84
518.93	35599.55
519.10	35220.38
519.27	35779.77
519.45	35559.76
519.62	35931.90
519.79	35782.11
519.96	36161.28
520.14	36161.28
520.31	35552.74
520.48	36369.58
520.65	36369.58
520.83	36439.80
521.00	36783.86
521.17	36847.05
521.34	36608.32
521.52	36723.01
521.69	36811.95
521.86	37251.97
522.03	37048.34
522.20	36781.52
522.38	37343.25
522.55	37467.30
522.72	37268.35
522.89	37071.75
523.07	37329.20
523.24	37493.04
523.41	37425.17
523.58	37177.07
523.75	38124.99
523.92	37912.00
524.10	38375.42
524.27	37801.99
524.44	38096.90
524.61	38117.96
524.78	38061.79
524.96	38506.49
525.13	38176.48
525.30	38597.77
525.47	39005.03
525.64	38377.76
525.81	38576.71
525.98	38218.61
526.16	37977.53
526.33	37809.01
526.50	38218.61
526.67	37457.93
526.84	38309.89
527.01	38113.28
527.18	38354.36
527.36	38700.76
527.53	39187.59
527.70	39353.77
527.87	39323.34
528.04	39264.83
528.21	39119.71
528.38	39239.08
528.55	39751.66
528.72	39452.07
528.89	40020.82
529.07	39529.31
529.24	39332.70
529.41	39709.53
529.58	39615.91
529.75	39505.90
529.92	39716.55
530.09	39639.31
530.26	39613.57
530.43	40116.78
530.60	39793.79
530.77	39859.32
530.94	40355.52
531.11	39859.32
531.28	40561.48
531.46	40451.48
531.63	40292.32
531.80	39835.92
531.97	40264.24
532.14	39959.97
532.31	40009.12
532.48	40154.23
532.65	40573.19
532.82	40528.72
532.99	40467.86
533.16	40477.22
533.33	40776.81
533.50	40730.00
533.67	41228.54
533.84	40666.81
534.01	40896.18
534.18	41036.61
534.35	41095.13
534.52	40774.47
534.69	41120.87
534.86	41329.18
535.03	40844.69
535.20	41102.15
535.37	41390.03
535.54	41808.99
535.71	41596.00
535.88	41799.63
536.05	41490.68
536.22	41680.26
536.38	41050.66
536.55	41598.34
536.72	41659.20
536.89	41308.11
537.06	41631.11
537.23	41380.67
537.40	41773.88
537.57	41865.16
537.74	41825.37
537.91	42204.54
538.08	41883.89
538.25	41860.48
538.42	41703.67
538.59	42590.73
538.75	41816.01
538.92	42799.04
539.09	42405.83
539.26	42223.26
539.43	42085.17
539.60	42520.51
539.77	42129.64
539.94	41926.02
540.11	42312.20
540.28	42012.62
540.44	42574.34
540.61	42653.92
540.78	42040.70
540.95	42763.93
541.12	42337.95
541.29	42595.41
541.46	42820.10
541.62	42499.45
541.79	42326.25
541.96	42930.11
542.13	42635.20
542.30	42803.72
542.47	43299.91
542.63	43178.20
542.80	43042.45
542.97	43243.74
543.14	43215.65
543.31	43393.53
543.48	43613.54
543.64	43826.53
543.81	43599.50
543.98	43922.49
544.15	43749.29
544.32	43711.84
544.48	43995.05
544.65	43709.50
544.82	43601.84
544.99	43711.84
545.16	43866.32
545.32	43531.62
545.49	43887.39
545.66	44189.31
545.83	44067.61
546.00	44601.25
546.16	43931.86
546.33	43941.22
546.50	43461.41
546.67	43962.28
546.83	43660.35
547.00	44025.48
547.17	44364.85
547.34	43793.76
547.50	43796.10
547.67	44477.20
547.84	44332.09
548.00	43983.35
548.17	44414.01
548.34	44514.65
548.51	44823.60
548.67	44643.38
548.84	44865.73
549.01	44811.90
549.18	44196.34
549.34	45031.91
549.51	44509.97
549.68	44882.11
549.84	44729.98
550.01	44947.65
550.18	44605.93
550.34	44734.66
550.51	44704.23
550.68	44870.41
550.84	44446.77
551.01	44690.19
551.18	45104.46
551.34	45013.18
551.51	44933.60
551.68	44891.48
551.84	45422.78
552.01	45057.65
552.18	45085.74
552.34	44744.02
552.51	45177.02
552.68	44825.94
552.84	45390.01
553.01	45612.36
553.18	45312.77
553.34	45275.32
553.51	45193.40
553.67	45450.86
553.84	45698.96
554.01	45542.14
554.17	45909.61
554.34	45628.74
554.51	45343.20
554.67	45364.26
554.84	45907.27
555.00	45511.72
555.17	45490.65
555.33	45921.31
555.50	45600.66
555.67	45790.24
555.83	45731.73
556.00	45549.17
556.16	46181.11
556.33	45745.77
556.50	45612.36
556.66	45631.08
556.83	45677.90
556.99	45675.55
557.16	45970.46
557.32	45813.65
557.49	45935.35
557.65	45591.30
557.82	45677.90
557.98	45806.62
558.15	45766.84
558.32	46305.16
558.48	45900.25
558.65	45827.69
558.81	45794.92
558.98	45928.33
559.14	46031.32
559.31	45858.12
559.47	45762.15
559.64	46157.70
559.80	46075.79
559.97	46529.85
560.13	45844.07
560.30	46323.88
560.46	46270.05
560.63	46256.01
560.79	46714.75
560.96	46461.97
561.12	46597.73
561.29	46256.01
561.45	46281.75
561.61	45694.28
561.78	46267.71
561.94	46202.18
562.11	46274.73
562.27	46424.53
562.44	46256.01
562.60	46377.72
562.77	46284.09
562.93	46532.19
563.10	46452.61
563.26	46464.32
563.42	46394.10
563.59	46476.02
563.75	46253.67
563.92	47079.88
564.08	46646.88
564.24	46740.50
564.41	46674.96
564.57	46370.69
564.74	46576.66
564.90	46721.77
565.07	46735.82
565.23	46773.27
565.39	46244.30
565.56	46579.00
565.72	46003.23
565.88	46803.69
566.05	46274.73
566.21	46197.49
566.38	46588.36
566.54	46586.02
566.70	46710.07
566.87	46904.34
567.03	46813.05
567.19	47112.64
567.36	46873.91
567.52	46609.43
567.68	46969.87
567.85	46291.12
568.01	46487.72
568.17	46370.69
568.34	46787.31
568.50	46667.94
568.66	46686.67
568.83	46813.05
568.99	46321.54
569.15	46738.16
569.32	46965.19
569.48	46871.57
569.64	46962.85
569.81	46543.89
569.97	46342.61
570.13	46979.23
570.30	46333.24
570.46	46586.02
570.62	46562.62
570.78	46216.22
570.95	46909.02
571.11	47257.76
571.27	46564.96
571.43	46696.03
571.60	46660.92
571.76	46691.35
571.92	46684.33
572.09	47112.64
572.25	46637.51
572.41	47004.98
572.57	46887.95
572.74	47206.26
572.90	46909.02
573.06	47056.47
573.22	47051.79
573.38	46995.62
573.55	47044.77
573.71	46887.95
573.87	46904.34
574.03	46789.65
574.20	46782.63
574.36	46904.34
574.52	46967.53
574.68	46422.19
574.84	46958.17
575.01	47000.30
575.17	47122.01
575.33	46686.67
575.49	47100.94
575.65	47217.97
575.82	47330.31
575.98	46990.94
576.14	46955.83
576.30	46841.14
576.46	46646.88
576.62	47353.72
576.79	46642.20
576.95	46529.85
577.11	46801.35
577.27	46759.22
577.43	47295.21
577.59	47147.75
577.75	46852.84
577.92	46604.75
578.08	46354.31
578.24	46300.48
578.40	46600.07
578.56	47079.88
578.72	46937.10
578.88	46806.03
579.04	47222.65
579.21	46939.44
579.37	46883.27
579.53	46801.35
579.69	46681.98
579.85	47136.05
580.01	46796.67
580.17	46960.51
580.33	46799.01
580.49	47374.78
580.65	47079.88
580.82	46815.40
580.98	47398.19
581.14	46782.63
581.30	46862.21
581.46	46920.72
581.62	47367.76
581.78	47086.90
581.94	47496.49
582.10	47119.66
582.26	47063.49
582.42	47014.34
582.58	47309.25
582.74	46955.83
582.90	47295.21
583.06	47278.82
583.22	47196.90
583.38	47475.43
583.54	47171.16
583.70	47306.91
583.86	47189.88
584.02	46780.29
584.18	47159.45
584.34	47152.43
584.50	47512.88
584.66	47346.70
584.82	46944.12
584.98	47026.04
585.14	47030.72
585.30	47093.92
585.46	47440.32
585.62	46934.76
585.78	47007.32
585.94	46752.20
586.10	47215.63
586.26	46768.58
586.42	47201.58
586.58	47704.80
586.74	47292.86
586.90	46927.74
587.06	47035.41
587.22	47241.37
587.38	46515.81
587.54	46808.37
587.70	47320.95
587.86	47290.52
588.02	47302.23
588.18	47400.53
588.34	47288.18
588.49	46801.35
588.65	46660.92
588.81	46747.52
588.97	46834.12
589.13	46810.71
589.29	46747.52
589.45	46656.24
589.61	47028.38
589.77	47215.63
589.93	47009.66
