SpectraSuite Data File
++++++++++++++++++++++++++++++++++++
Date: Fri Oct 25 11:25:06 EDT 2013
User: price-jones
Dark Spectrum Present: No
Reference Spectrum Present: No
Number of Sampled Component Spectra: 1
Spectrometers: USB2+H05261
Integration Time (usec): 100000 (USB2+H05261)
Spectra Averaged: 1 (USB2+H05261)
Boxcar Smoothing: 0 (USB2+H05261)
Correct for Electrical Dark: No (USB2+H05261)
Strobe/Lamp Enabled: No (USB2+H05261)
Correct for Detector Non-linearity: No (USB2+H05261)
Correct for Stray Light: No (USB2+H05261)
Number of Pixels in Processed Spectrum: 2048
>>>>>Begin Processed Spectral Data<<<<<
365.73	243.42
365.92	243.42
366.12	243.42
366.32	107.66
366.52	88.94
366.72	159.16
366.91	210.65
367.11	189.58
367.31	138.09
367.51	138.09
367.70	128.73
367.90	98.30
368.10	191.92
368.30	177.88
368.49	121.71
368.69	124.05
368.89	175.54
369.09	105.32
369.28	191.92
369.48	166.18
369.68	187.24
369.87	184.90
370.07	196.60
370.27	191.92
370.47	311.29
370.66	578.11
370.86	519.60
371.06	681.10
371.25	681.10
371.45	655.35
371.65	669.39
371.84	657.69
372.04	706.84
372.24	777.06
372.44	655.35
372.63	706.84
372.83	688.12
373.03	786.42
373.22	734.93
373.42	760.67
373.62	791.10
373.81	753.65
374.01	779.40
374.21	795.78
374.40	786.42
374.60	873.02
374.79	718.54
374.99	800.46
375.19	837.91
375.38	875.36
375.58	840.25
375.78	887.06
375.97	835.57
376.17	868.34
376.37	898.77
376.56	863.66
376.76	828.55
376.95	744.29
377.15	919.83
377.35	884.72
377.54	877.70
377.74	924.51
377.93	957.28
378.13	915.15
378.33	957.28
378.52	919.83
378.72	1008.77
378.91	912.81
379.11	978.34
379.31	931.53
379.50	931.53
379.70	1015.79
379.89	1050.90
380.09	861.32
380.28	968.98
380.48	980.68
380.68	999.41
380.87	943.24
381.07	1048.56
381.26	1018.13
381.46	994.73
381.65	1078.99
381.85	1011.11
382.04	919.83
382.24	997.07
382.43	1109.41
382.63	1006.43
382.83	1078.99
383.02	1088.35
383.22	1111.75
383.41	1128.14
383.61	1146.86
383.80	1196.01
384.00	1123.46
384.19	1158.57
384.39	1121.12
384.58	1165.59
384.78	1172.61
384.97	1203.04
385.17	1144.52
385.36	1146.86
385.56	1128.14
385.75	1184.31
385.95	1217.08
386.14	1196.01
386.34	1116.44
386.53	1219.42
386.72	1210.06
386.92	1306.02
387.11	1306.02
387.31	1242.82
387.50	1207.72
387.70	1242.82
387.89	1245.16
388.09	1294.32
388.28	1203.04
388.48	1313.04
388.67	1343.47
388.86	1306.02
389.06	1280.27
389.25	1284.95
389.45	1242.82
389.64	1394.96
389.84	1345.81
390.03	1399.64
390.22	1341.13
390.42	1310.70
390.61	1350.49
390.81	1299.00
391.00	1416.02
391.19	1444.11
391.39	1453.47
391.58	1465.18
391.78	1551.78
391.97	1462.83
392.16	1432.41
392.36	1490.92
392.55	1472.20
392.75	1544.75
392.94	1619.65
393.13	1488.58
393.33	1474.54
393.52	1570.50
393.71	1636.03
393.91	1582.20
394.10	1593.90
394.29	1603.27
394.49	1596.25
394.68	1610.29
394.88	1614.97
395.07	1629.01
395.26	1661.78
395.46	1706.25
395.65	1614.97
395.84	1799.87
396.04	1713.27
396.23	1699.23
396.42	1757.74
396.62	1689.87
396.81	1757.74
397.00	1785.83
397.19	1792.85
397.39	1764.76
397.58	1844.34
397.77	1795.19
397.97	1837.32
398.16	1895.83
398.35	1933.28
398.55	1872.43
398.74	1959.03
398.93	1940.30
399.12	1912.22
399.32	1825.62
399.51	1891.15
399.70	1968.39
399.90	1973.07
400.09	1996.48
400.28	1996.48
400.47	2076.06
400.67	2083.08
400.86	2078.40
401.05	2052.65
401.24	2083.08
401.44	2125.21
401.63	2036.27
401.82	2125.21
402.01	2235.21
402.21	2139.25
402.40	2132.23
402.59	2094.78
402.78	2275.00
402.97	2118.18
403.17	2183.72
403.36	2300.75
403.55	2258.62
403.74	2349.90
403.93	2310.11
404.13	2448.20
404.32	2352.24
404.51	2459.90
404.70	2326.49
404.89	2331.17
405.09	2464.58
405.28	2464.58
405.47	2352.24
405.66	2445.86
405.85	2576.93
406.05	2490.33
406.24	2588.63
406.43	2715.02
406.62	2597.99
406.81	2675.23
407.00	2516.08
407.20	2597.99
407.39	2736.09
407.58	2693.96
407.77	2691.62
407.96	2759.49
408.15	2661.19
408.34	2700.98
408.54	2752.47
408.73	2729.06
408.92	2736.09
409.11	2932.69
409.30	2946.73
409.49	2876.52
409.68	3012.27
409.87	2888.22
410.07	2977.16
410.26	3077.80
410.45	2878.86
410.64	3005.25
410.83	3080.14
411.02	3098.87
411.21	3096.53
411.40	3204.19
411.59	3038.02
411.78	3082.49
411.98	3194.83
412.17	3169.09
412.36	3269.73
412.55	3361.01
412.74	3435.91
412.93	3337.60
413.12	3349.31
413.31	3492.08
413.50	3557.61
413.69	3482.72
413.88	3522.51
414.07	3548.25
414.26	3538.89
414.45	3681.66
414.64	3691.02
414.83	3744.86
415.02	3674.64
415.22	3815.07
415.41	3861.88
415.60	3845.50
415.79	3854.86
415.98	3985.93
416.17	3999.98
416.36	3768.26
416.55	3864.22
416.74	3957.85
416.93	4060.83
417.12	4154.45
417.31	4301.90
417.50	4294.88
417.69	4241.05
417.88	4337.01
418.07	4187.22
418.26	4374.46
418.45	4287.86
418.64	4484.47
418.83	4423.61
419.02	4397.87
419.21	4564.04
419.39	4566.39
419.58	4393.19
419.77	4498.51
419.96	4655.33
420.15	4557.02
420.34	4596.81
420.53	4521.92
420.72	4629.58
420.91	4634.26
421.10	4751.29
421.29	4798.10
421.48	4638.94
421.67	4777.03
421.86	4784.06
422.05	4702.14
422.24	4739.58
422.43	4777.03
422.61	4887.04
422.80	5004.07
422.99	4929.17
423.18	5046.20
423.37	4919.81
423.56	5050.88
423.75	4814.48
423.94	4779.37
424.13	4573.41
424.32	4678.73
424.50	4950.23
424.69	4901.08
424.88	4978.32
425.07	4901.08
425.26	4880.02
425.45	4990.02
425.64	5001.72
425.83	4828.53
426.01	5193.65
426.20	5025.13
426.39	5006.41
426.58	4924.49
426.77	5090.67
426.96	4959.60
427.15	5081.30
427.33	5167.90
427.52	5160.88
427.71	5275.57
427.90	5245.14
428.09	5430.04
428.28	5399.62
428.46	5465.15
428.65	5322.38
428.84	5413.66
429.03	5439.40
429.22	5188.97
429.40	5516.64
429.59	5366.85
429.78	5305.99
429.97	5249.82
430.16	5472.17
430.34	5547.07
430.53	5659.42
430.72	5664.10
430.91	5701.54
431.10	5497.92
431.28	5657.07
431.47	5792.83
431.66	5736.65
431.85	5619.63
432.03	5984.75
432.22	5926.24
432.41	5921.56
432.60	5874.74
432.79	6078.37
432.97	6104.12
433.16	5856.02
433.35	5881.77
433.54	5968.37
433.72	6085.39
433.91	6043.26
434.10	6169.65
434.28	6132.20
434.47	6200.08
434.66	6188.38
434.85	6296.04
435.03	6319.45
435.22	6155.61
435.41	6609.67
435.59	6494.99
435.78	6438.81
435.97	6448.18
436.16	6382.64
436.34	6396.68
436.53	6370.94
436.72	6707.98
436.90	6392.00
437.09	6766.49
437.28	6523.07
437.46	6438.81
437.65	6686.91
437.84	6740.74
438.02	6722.02
438.21	6539.46
438.40	6530.09
438.58	6939.69
438.77	6970.12
438.96	6916.28
439.14	7063.74
439.33	7199.49
439.52	7028.63
439.70	7133.95
439.89	7515.46
440.08	7255.66
440.26	7274.38
440.45	7323.54
440.63	7316.51
440.82	7475.67
441.01	7393.75
441.19	7412.48
441.38	7585.68
441.57	7934.42
441.75	7798.66
441.94	7906.33
442.12	7805.69
442.31	8067.83
442.50	8077.19
442.68	7885.26
442.87	8152.09
443.05	8133.36
443.24	8126.34
443.43	7981.23
443.61	8212.94
443.80	8325.29
443.98	7985.91
444.17	7784.62
444.35	8112.30
444.54	8400.18
444.73	8159.11
444.91	8266.77
445.10	8299.54
445.28	8386.14
445.47	8250.39
445.65	8131.02
445.84	8376.78
446.02	8332.31
446.21	8285.50
446.39	8336.99
446.58	8486.78
446.77	8559.34
446.95	8336.99
447.14	8334.65
447.32	8374.44
447.51	8454.02
447.69	8351.03
447.88	8526.57
448.06	8456.36
448.25	8517.21
448.43	8603.81
448.62	8521.89
448.80	8622.53
448.99	8737.22
449.17	8903.40
449.36	8608.49
449.54	8915.10
449.73	8793.39
449.91	8879.99
450.10	9011.06
450.28	8887.01
450.46	9118.73
450.65	8973.61
450.83	9095.32
451.02	8997.02
451.20	9263.84
451.39	9174.90
451.57	9130.43
451.76	9200.65
451.94	9114.05
452.13	9252.14
452.31	9259.16
452.49	9188.94
452.68	9376.19
452.86	9373.85
453.05	9441.72
453.23	9479.17
453.42	9256.82
453.60	9565.77
453.78	9631.30
453.97	9322.35
454.15	9259.16
454.34	9219.37
454.52	9671.09
454.70	9518.96
454.89	9568.11
455.07	9692.16
455.26	9848.97
455.44	9923.87
455.62	9846.63
455.81	9799.82
455.99	9888.76
456.17	9947.28
456.36	10008.13
456.54	10169.63
456.73	10242.18
456.91	10347.51
457.09	10326.44
457.28	10377.94
457.46	10230.48
457.64	10544.11
457.83	10609.65
458.01	10548.79
458.19	10581.56
458.38	10586.24
458.56	10801.57
458.74	10537.09
458.93	10752.42
459.11	10649.44
459.29	10736.04
459.48	10885.83
459.66	10726.68
459.84	10834.34
460.03	11190.10
460.21	11070.73
460.39	10895.19
460.57	10801.57
460.76	11026.26
460.94	11222.87
461.12	11176.06
461.31	11220.53
461.49	11187.76
461.67	11112.86
461.85	11417.13
462.04	11222.87
462.22	11861.84
462.40	11522.46
462.59	11400.75
462.77	11410.11
462.95	11477.99
463.13	11646.51
463.32	11765.87
463.50	11604.38
463.68	11749.49
463.86	11782.26
464.05	11447.56
464.23	11840.77
464.41	11967.16
464.59	11719.06
464.78	11981.20
464.96	12154.40
465.14	11957.80
465.32	11847.79
465.50	12039.72
465.69	12142.70
465.87	12271.43
466.05	11822.05
466.23	11936.73
466.41	12184.83
466.60	12648.26
466.78	12255.04
466.96	12063.12
467.14	12100.57
467.32	12404.84
467.51	12510.16
467.69	12025.67
467.87	12451.65
468.05	12383.77
468.23	12622.51
468.41	12388.46
468.60	12353.35
468.78	12720.81
468.96	12627.19
469.14	12755.92
469.32	13151.47
469.50	12571.02
469.69	12915.08
469.87	12737.20
470.05	12886.99
470.23	13081.25
470.41	13228.71
470.59	13135.09
470.77	13050.83
470.95	13076.57
471.14	13591.49
471.32	13081.25
471.50	13699.16
471.68	13439.36
471.86	13813.84
472.04	13352.76
472.22	13935.55
472.40	13678.09
472.58	13729.58
472.77	13748.31
472.95	14176.62
473.13	14417.70
473.31	13839.59
473.49	14195.35
473.67	14101.73
473.85	14251.52
474.03	14534.73
474.21	14588.56
474.39	14981.77
474.57	14647.07
474.75	14991.13
474.93	15115.18
475.12	14848.36
475.30	15026.24
475.48	15028.58
475.66	15241.57
475.84	15037.94
476.02	15332.85
476.20	15290.72
476.38	15730.74
476.56	15878.19
476.74	15990.54
476.92	15679.25
477.10	15810.32
477.28	16215.23
477.46	16353.32
477.64	16161.40
477.82	16659.93
478.00	16760.58
478.18	16769.94
478.36	16711.42
478.54	17036.76
478.72	16943.14
478.90	17324.65
479.08	17736.58
479.26	17380.82
479.44	17664.02
479.62	17874.67
479.80	18087.66
479.98	17930.84
480.16	18686.84
480.34	18295.97
480.52	18375.55
480.70	18361.50
480.88	18356.82
481.06	18506.62
481.24	18640.03
481.41	18885.78
481.59	19286.01
481.77	19468.58
481.95	19601.99
482.13	19690.93
482.31	19716.67
482.49	20226.91
482.67	19894.55
482.85	20311.17
483.03	20582.67
483.21	20985.24
483.39	21003.97
483.57	20720.76
483.74	20933.75
483.92	21376.11
484.10	21064.82
484.28	21912.10
484.46	22174.24
484.64	21942.52
484.82	21912.10
485.00	22118.06
485.18	22836.61
485.35	22953.63
485.53	22757.03
485.71	22930.23
485.89	23550.47
486.07	23253.22
486.25	23246.20
486.43	23702.61
486.61	23559.83
486.78	23964.75
486.96	24175.39
487.14	24559.24
487.32	24636.48
487.50	24732.44
487.68	24982.88
487.85	25186.50
488.03	25511.84
488.21	25671.00
488.39	25818.45
488.57	25785.68
488.75	26139.10
488.92	26366.13
489.10	26485.50
489.28	26782.75
489.46	26904.46
489.64	27061.27
489.81	27398.31
489.99	27412.35
490.17	27782.16
490.35	27978.76
490.53	27714.28
490.70	28151.96
490.88	28254.95
491.06	28624.75
491.24	28959.45
491.41	28893.91
491.59	28877.53
491.77	28922.00
491.95	29404.15
492.13	29795.02
492.30	29888.64
492.48	29797.36
492.66	29898.00
492.84	30244.40
493.01	30651.66
493.19	31028.48
493.37	31033.16
493.54	31009.76
493.72	31199.34
493.90	31318.71
494.08	31534.04
494.25	31658.09
494.43	32105.13
494.61	32416.42
494.79	31978.74
494.96	32603.66
495.14	32093.43
495.32	33123.26
495.49	32987.51
495.67	32919.63
495.85	33432.21
496.02	33553.92
496.20	33846.49
496.38	33958.83
496.55	33907.34
496.73	34356.72
496.91	34586.10
497.09	34696.10
497.26	34766.32
497.44	35250.81
497.62	35166.55
497.79	35306.98
497.97	35463.80
498.14	35943.61
498.32	35798.49
498.50	36114.47
498.67	36659.81
498.85	36498.31
499.03	36362.56
499.20	36512.36
499.38	36821.31
499.56	37263.67
499.73	36854.08
499.91	37591.34
500.08	37565.60
500.26	37296.44
500.44	37336.23
500.61	37792.63
500.79	37851.14
500.97	38260.74
501.14	38572.03
501.32	37909.66
501.49	38960.56
501.67	38670.33
501.84	39201.63
502.02	38726.50
502.20	39054.18
502.37	38890.34
502.55	38829.49
502.72	39302.28
502.90	39489.52
503.07	39585.48
503.25	39283.55
503.43	39908.47
503.60	40074.65
503.78	39966.99
503.95	40339.13
504.13	40362.54
504.30	41034.27
504.48	40353.18
504.65	40624.68
504.83	40982.78
505.01	40835.33
505.18	40994.48
505.36	41380.67
505.53	41109.17
505.71	41406.42
505.88	41776.22
506.06	41504.72
506.23	41846.44
506.41	41436.84
506.58	42003.25
506.76	41949.42
506.93	42607.11
507.11	42649.24
507.28	42323.91
507.46	42663.28
507.63	42829.46
507.81	42820.10
507.98	42906.70
508.16	42995.64
508.33	43370.13
508.50	43824.19
508.68	43398.21
508.85	44016.11
509.03	43711.84
509.20	43833.55
509.38	44158.89
509.55	44608.27
509.73	44437.41
509.90	44456.14
510.08	44580.18
510.25	44680.83
510.42	44659.76
510.60	45191.06
510.77	45010.84
510.95	45249.58
511.12	45050.63
511.30	45418.10
511.47	45174.68
511.64	45635.77
511.82	45792.58
511.99	45680.24
512.17	45921.31
512.34	45860.46
512.51	46113.23
512.69	46487.72
512.86	46344.95
513.04	46808.37
513.21	46759.22
513.38	46728.80
513.56	46808.37
513.73	46672.62
513.90	46630.49
514.08	46649.22
514.25	47531.60
514.43	47232.01
514.60	47227.33
514.77	47753.95
514.95	47466.06
515.12	47124.35
515.29	47292.86
515.47	47426.28
515.64	47941.19
515.81	47533.94
515.99	47852.25
516.16	48299.30
516.33	48229.08
516.51	48367.17
516.68	48140.14
516.85	48327.38
517.03	48905.49
517.20	49048.27
517.37	49020.18
517.54	48821.23
517.72	48547.39
517.89	48552.07
518.06	49399.35
518.24	49106.78
518.41	48886.77
518.58	48992.09
518.75	49294.02
518.93	49305.73
519.10	49406.37
519.27	49759.79
519.45	49481.27
519.62	49879.16
519.79	49574.89
519.96	50007.89
520.14	50230.24
520.31	49935.33
520.48	50515.78
520.65	50218.53
520.83	50461.95
521.00	50630.47
521.17	50419.82
521.34	50679.62
521.52	50918.35
521.69	50667.92
521.86	50639.83
522.03	51096.24
522.20	51229.65
522.38	50941.76
522.55	51096.24
522.72	51253.05
522.89	51255.39
523.07	51742.22
523.24	51145.39
523.41	51419.23
523.58	51374.76
523.75	51913.08
523.92	51585.41
524.10	51718.82
524.27	51980.96
524.44	51920.10
524.61	51800.74
524.78	52158.84
524.96	51826.48
525.13	52191.61
525.30	52207.99
525.47	52236.08
525.64	52505.24
525.81	52460.77
525.98	52648.01
526.16	52254.80
526.33	52364.81
526.50	52952.28
526.67	52781.42
526.84	52996.75
527.01	52853.98
527.18	52748.65
527.36	52917.17
527.53	53228.46
527.70	53333.79
527.87	53045.90
528.04	53034.20
528.21	53333.79
528.38	53200.38
528.55	53455.50
528.72	53434.43
528.89	53432.09
529.07	53219.10
529.24	53357.19
529.41	53436.77
529.58	53373.58
529.75	53598.27
529.92	53787.85
530.09	53666.14
530.26	53738.70
530.43	53799.55
530.60	53748.06
530.77	53675.51
530.94	53914.24
531.11	53794.87
531.28	53921.26
531.46	54185.74
531.63	54183.40
531.80	54169.36
531.97	54237.23
532.14	54548.53
532.31	54019.56
532.48	54609.38
532.65	54536.82
532.82	54440.86
532.99	54651.51
533.16	54459.58
533.33	54834.07
533.50	54834.07
533.67	54733.43
533.84	54747.47
534.01	54639.81
534.18	54899.61
534.35	54911.31
534.52	54990.89
534.69	55262.39
534.86	55161.75
535.03	54738.11
535.20	54915.99
535.37	55112.59
535.54	55348.99
535.71	55208.56
535.88	55124.30
536.05	55440.27
536.22	55524.53
536.38	55704.75
536.55	55461.33
536.72	55597.09
536.89	55402.82
537.06	55412.18
537.23	55618.15
537.40	55466.02
537.57	55611.13
537.74	55721.13
537.91	56013.70
538.08	55852.20
538.25	55599.43
538.42	55655.60
538.59	56128.39
538.75	55994.98
538.92	56034.77
539.09	56168.18
539.26	56058.17
539.43	55803.05
539.60	56170.52
539.77	56112.00
539.94	56460.74
540.11	56308.61
540.28	56451.38
540.44	56189.24
540.61	56278.18
540.78	56423.29
540.95	56439.68
541.12	56266.48
541.29	56278.18
541.46	56406.91
541.62	56662.03
541.79	56718.20
541.96	56285.20
542.13	56516.92
542.30	56697.14
542.47	56647.99
542.63	56835.23
542.80	56961.62
542.97	56989.70
543.14	57052.90
543.31	57109.07
543.48	57083.33
543.64	57474.20
543.81	57467.17
543.98	57254.18
544.15	57450.79
544.32	57088.01
544.48	57364.19
544.65	57286.95
544.82	57176.95
544.99	57361.85
545.16	57322.06
545.32	57350.15
545.49	57668.46
545.66	57595.90
545.83	57785.49
546.00	57670.80
546.16	57619.31
546.33	57401.64
546.50	57102.05
546.67	57726.97
546.83	57481.22
547.00	57755.06
547.17	57743.36
547.34	57755.06
547.50	57844.00
547.67	58213.80
547.84	57748.04
548.00	57982.09
548.17	58169.33
548.34	57932.94
548.51	58122.52
548.67	58202.10
548.84	57986.77
549.01	58038.26
549.18	58237.21
549.34	58232.53
549.51	58286.36
549.68	58429.13
549.84	58145.93
550.01	58326.15
550.18	58211.46
550.34	58267.64
550.51	58300.40
550.68	58410.41
550.84	58204.44
551.01	58487.65
551.18	58515.73
551.34	58721.70
551.51	58567.23
551.68	58478.28
551.84	58384.66
552.01	58403.39
552.18	58511.05
552.34	58319.13
552.51	58585.95
552.68	58468.92
552.84	58679.57
553.01	58969.80
553.18	58574.25
553.34	59037.67
553.51	58574.25
553.67	58735.74
553.84	58857.45
554.01	59100.87
554.17	58922.99
554.34	58918.31
554.51	58953.41
554.67	59224.92
554.84	58822.34
555.00	58995.54
555.17	58932.35
555.33	58908.94
555.50	59049.38
555.67	58913.62
555.83	58969.80
556.00	58979.16
556.16	59192.15
556.33	59065.76
556.50	59217.89
556.66	59327.90
556.83	59295.13
556.99	59276.41
557.16	59463.65
557.32	59475.35
557.49	59409.82
557.65	59379.39
557.82	59351.30
557.98	59147.68
558.15	59402.80
558.32	59311.52
558.48	59306.83
558.65	59564.29
558.81	59461.31
558.98	59320.88
559.14	59416.84
559.31	59643.87
559.47	59702.38
559.64	59419.18
559.80	59618.13
559.97	59723.45
560.13	59660.26
560.30	59613.44
560.46	59653.23
560.63	59737.49
560.79	59676.64
560.96	59819.41
561.12	59639.19
561.29	59730.47
561.45	59597.06
561.61	59784.30
561.78	59796.01
561.94	59632.17
562.11	59709.41
562.27	59884.95
562.44	59971.55
562.60	59814.73
562.77	59908.35
562.93	59838.14
563.10	60135.38
563.26	59742.17
563.42	60212.62
563.59	59833.46
563.75	59845.16
563.92	59964.52
564.08	59805.37
564.24	60198.58
564.41	59903.67
564.57	59990.27
564.74	60128.36
564.90	59955.16
565.07	60111.98
565.23	59917.71
565.39	60126.02
565.56	60119.00
565.72	60168.15
565.88	59929.42
566.05	59891.97
566.21	60065.17
566.38	60149.43
566.54	60322.63
566.70	60453.70
566.87	60357.74
567.03	59994.95
567.19	60336.67
567.36	60231.35
567.52	60381.14
567.68	60608.17
567.85	60367.10
568.01	60275.82
568.17	60097.94
568.34	60500.51
568.50	60219.64
568.66	60418.59
568.83	60331.99
568.99	60299.22
569.15	60210.28
569.32	60547.32
569.48	60374.12
569.64	60320.29
569.81	60411.57
569.97	60081.55
570.13	60285.18
570.30	60280.50
570.46	60317.95
570.62	60282.84
570.78	60240.71
570.95	60423.27
571.11	60512.21
571.27	60439.65
571.43	60458.38
571.60	60589.45
571.76	60472.42
571.92	60769.67
572.09	60406.89
572.25	60453.70
572.41	60535.62
572.57	60292.20
572.74	60577.75
572.90	60596.47
573.06	60509.87
573.22	60521.57
573.38	60498.17
573.55	60495.83
573.71	60427.95
573.87	60575.40
574.03	60650.30
574.20	60638.60
574.36	60701.79
574.52	60638.60
574.68	60643.28
574.84	60662.00
575.01	60807.12
575.17	60638.60
575.33	60573.06
575.49	60715.84
575.65	60624.56
575.82	60821.16
575.98	60596.47
576.14	60814.14
576.30	60809.46
576.46	60701.79
576.62	60690.09
576.79	60774.35
576.95	60533.28
577.11	60800.10
577.27	60903.08
577.43	60900.74
577.59	60659.66
577.75	60715.84
577.92	60608.17
578.08	60776.69
578.24	60818.82
578.40	60839.89
578.56	60795.42
578.72	60750.94
578.88	60865.63
579.04	60982.66
579.21	60802.44
579.37	61006.06
579.53	60963.93
579.69	60509.87
579.85	60755.63
580.01	60825.84
580.17	60640.94
580.33	60818.82
580.49	60919.46
580.65	61013.08
580.82	60587.11
580.98	60753.29
581.14	60793.07
581.30	60959.25
581.46	60860.95
581.62	60877.33
581.78	60662.00
581.94	60811.80
582.10	60889.04
582.26	61027.13
582.42	60961.59
582.58	60877.33
582.74	60697.11
582.90	60926.49
583.06	60954.57
583.22	60807.12
583.38	61057.56
583.54	61099.68
583.70	60973.30
583.86	60977.98
584.02	60764.99
584.18	60954.57
584.34	60921.80
584.50	60877.33
584.66	60837.54
584.82	60884.36
584.98	61029.47
585.14	60963.93
585.30	60898.40
585.46	60935.85
585.62	61052.87
585.78	61106.71
585.94	60741.58
586.10	60776.69
586.26	61013.08
586.42	60970.96
586.58	61027.13
586.74	60860.95
586.90	60977.98
587.06	60809.46
587.22	61057.56
587.38	60942.87
587.54	60879.67
587.70	61291.61
587.86	61020.11
588.02	60910.10
588.18	61071.60
588.34	60912.44
588.49	61013.08
