SpectraSuite Data File
++++++++++++++++++++++++++++++++++++
Date: Fri Oct 25 10:47:50 EDT 2013
User: price-jones
Dark Spectrum Present: No
Reference Spectrum Present: No
Number of Sampled Component Spectra: 1
Spectrometers: USB2+H05261
Integration Time (usec): 100000 (USB2+H05261)
Spectra Averaged: 1 (USB2+H05261)
Boxcar Smoothing: 0 (USB2+H05261)
Correct for Electrical Dark: No (USB2+H05261)
Strobe/Lamp Enabled: No (USB2+H05261)
Correct for Detector Non-linearity: No (USB2+H05261)
Correct for Stray Light: No (USB2+H05261)
Number of Pixels in Processed Spectrum: 2048
>>>>>Begin Processed Spectral Data<<<<<
365.73	142.77
365.92	142.77
366.12	142.77
366.32	126.39
366.52	77.24
366.72	16.38
366.91	72.56
367.11	88.94
367.31	4.68
367.51	58.51
367.70	93.62
367.90	32.77
368.10	42.13
368.30	63.19
368.49	0.00
368.69	77.24
368.89	86.60
369.09	74.90
369.28	107.66
369.48	79.58
369.68	107.66
369.87	86.60
370.07	58.51
370.27	110.01
370.47	194.26
370.66	360.44
370.86	451.72
371.06	500.87
371.25	411.93
371.45	465.77
371.65	465.77
371.84	418.96
372.04	421.30
372.24	428.32
372.44	510.24
372.63	468.11
372.83	538.32
373.03	430.66
373.22	470.45
373.42	444.70
373.62	465.77
373.81	538.32
374.01	575.77
374.21	545.34
374.40	566.41
374.60	521.94
374.79	498.53
374.99	566.41
375.19	505.56
375.38	566.41
375.58	648.33
375.78	578.11
375.97	589.82
376.17	648.33
376.37	657.69
376.56	631.94
376.76	655.35
376.95	620.24
377.15	624.92
377.35	585.13
377.54	601.52
377.74	636.63
377.93	636.63
378.13	674.07
378.33	617.90
378.52	608.54
378.72	636.63
378.91	664.71
379.11	587.47
379.31	587.47
379.50	533.64
379.70	540.66
379.89	648.33
380.09	674.07
380.28	667.05
380.48	648.33
380.68	615.56
380.87	636.63
381.07	627.26
381.26	718.54
381.46	699.82
381.65	746.63
381.85	695.14
382.04	709.18
382.24	699.82
382.43	648.33
382.63	676.41
382.83	671.73
383.02	669.39
383.22	702.16
383.41	720.88
383.61	725.57
383.80	692.80
384.00	777.06
384.19	739.61
384.39	706.84
384.58	760.67
384.78	718.54
384.97	734.93
385.17	660.03
385.36	765.36
385.56	758.33
385.75	777.06
385.95	734.93
386.14	854.30
386.34	777.06
386.53	774.72
386.72	791.10
386.92	802.80
387.11	758.33
387.31	770.04
387.50	837.91
387.70	760.67
387.89	805.14
388.09	786.42
388.28	772.38
388.48	823.87
388.67	847.27
388.86	924.51
389.06	854.30
389.25	901.11
389.45	903.45
389.64	1025.15
389.84	1039.20
390.03	985.37
390.22	910.47
390.42	945.58
390.61	912.81
390.81	964.30
391.00	994.73
391.19	1018.13
391.39	978.34
391.58	1006.43
391.78	1034.52
391.97	999.41
392.16	994.73
392.36	1004.09
392.55	910.47
392.75	966.64
392.94	891.74
393.13	917.49
393.33	889.40
393.52	1095.37
393.71	1048.56
393.91	1022.81
394.10	997.07
394.29	1025.15
394.49	943.24
394.68	1104.73
394.88	1050.90
395.07	1097.71
395.26	1086.01
395.46	1177.29
395.65	1219.42
395.84	1247.51
396.04	1188.99
396.23	1121.12
396.42	1149.20
396.62	1184.31
396.81	1139.84
397.00	1207.72
397.19	1238.14
397.39	1144.52
397.58	1254.53
397.77	1254.53
397.97	1249.85
398.16	1198.35
398.35	1378.58
398.55	1273.25
398.74	1373.89
398.93	1411.34
399.12	1313.04
399.32	1294.32
399.51	1366.87
399.70	1455.81
399.90	1383.26
400.09	1416.02
400.28	1366.87
400.47	1486.24
400.67	1490.92
400.86	1401.98
401.05	1483.90
401.24	1406.66
401.44	1490.92
401.63	1423.05
401.82	1462.83
402.01	1467.52
402.21	1537.73
402.40	1607.95
402.59	1556.46
402.78	1472.20
402.97	1549.43
403.17	1661.78
403.36	1540.07
403.55	1619.65
403.74	1568.16
403.93	1577.52
404.13	1589.22
404.32	1582.20
404.51	1689.87
404.70	1703.91
404.89	1743.70
405.09	1806.89
405.28	1797.53
405.47	1804.55
405.66	1703.91
405.85	1753.06
406.05	1678.16
406.24	1827.96
406.43	1739.02
406.62	1921.58
406.81	1961.37
407.00	1799.87
407.20	1776.47
407.39	1788.17
407.58	1886.47
407.77	1947.33
407.96	1935.62
408.15	2005.84
408.34	1954.35
408.54	2050.31
408.73	1987.11
408.92	1980.09
409.11	2120.53
409.30	2038.61
409.49	2076.06
409.68	2106.48
409.87	2015.20
410.07	2120.53
410.26	2094.78
410.45	2094.78
410.64	2143.93
410.83	2174.36
411.02	2230.53
411.21	2291.38
411.40	2326.49
411.59	2352.24
411.78	2333.51
411.98	2326.49
412.17	2263.30
412.36	2331.17
412.55	2471.61
412.74	2401.39
412.93	2321.81
413.12	2305.43
413.31	2581.61
413.50	2509.05
413.69	2499.69
413.88	2719.70
414.07	2457.56
414.26	2471.61
414.45	2677.57
414.64	2736.09
414.83	2588.63
415.02	2705.66
415.22	2736.09
415.41	2782.90
415.60	2836.73
415.79	2899.92
415.98	2736.09
416.17	2967.80
416.36	2885.88
416.55	2918.65
416.74	3021.63
416.93	2904.60
417.12	3021.63
417.31	2862.48
417.50	2920.99
417.69	3061.42
417.88	3183.13
418.07	3096.53
418.26	3023.97
418.45	3194.83
418.64	3204.19
418.83	3208.87
419.02	3143.34
419.21	3243.98
419.39	3272.07
419.58	3178.45
419.77	3159.72
419.96	3234.62
420.15	3337.60
420.34	3269.73
420.53	3407.82
420.72	3449.95
420.91	3363.35
421.10	3421.86
421.29	3440.59
421.48	3363.35
421.67	3478.04
421.86	3258.03
422.05	3389.10
422.24	3346.97
422.43	3459.31
422.61	3473.36
422.80	3382.07
422.99	3433.57
423.18	3452.29
423.37	3611.45
423.56	3550.59
423.75	3433.57
423.94	3400.80
424.13	3318.88
424.32	3461.65
424.50	3445.27
424.69	3578.68
424.88	3655.92
425.07	3522.51
425.26	3452.29
425.45	3599.74
425.64	3574.00
425.83	3557.61
426.01	3597.40
426.20	3569.32
426.39	3630.17
426.58	3541.23
426.77	3618.47
426.96	3719.11
427.15	3648.90
427.33	3693.37
427.52	3669.96
427.71	3775.28
427.90	3688.68
428.09	3719.11
428.28	3714.43
428.46	3943.80
428.65	3852.52
428.84	3894.65
429.03	3854.86
429.22	3815.07
429.40	3733.15
429.59	3889.97
429.78	3761.24
429.97	3751.88
430.16	3723.79
430.34	3847.84
430.53	3840.82
430.72	3840.82
430.91	3939.12
431.10	3871.25
431.28	4074.87
431.47	4070.19
431.66	4234.03
431.85	4037.42
432.03	4196.58
432.22	4299.56
432.41	4294.88
432.60	4184.88
432.79	4219.99
432.97	4367.44
433.16	4381.48
433.35	4379.14
433.54	4287.86
433.72	4184.88
433.91	4358.08
434.10	4395.53
434.28	4325.31
434.47	4348.72
434.66	4484.47
434.85	4589.79
435.03	4526.60
435.22	4294.88
435.41	4550.00
435.59	4671.71
435.78	4449.36
435.97	4664.69
436.16	4564.04
436.34	4634.26
436.53	4599.15
436.72	4868.31
436.90	4622.56
437.09	4643.62
437.28	4648.30
437.46	4575.75
437.65	4681.07
437.84	4718.52
438.02	4671.71
438.21	4805.12
438.40	4814.48
438.58	4821.50
438.77	4987.68
438.96	4791.08
439.14	5043.85
439.33	4985.34
439.52	5043.85
439.70	5039.17
439.89	5029.81
440.08	5282.59
440.26	5153.86
440.45	5275.57
440.63	5247.48
440.82	5238.12
441.01	5460.47
441.19	5310.68
441.38	5493.24
441.57	5561.11
441.75	5472.17
441.94	5631.33
442.12	5596.22
442.31	5661.76
442.50	5837.30
442.68	5563.45
442.87	5703.89
443.05	5654.73
443.24	5830.27
443.43	5973.05
443.61	5818.57
443.80	6017.52
443.98	5617.29
444.17	5668.78
444.35	5783.46
444.54	5982.41
444.73	5905.17
444.91	5884.11
445.10	5921.56
445.28	5935.60
445.47	5802.19
445.65	5722.61
445.84	5830.27
446.02	5884.11
446.21	5968.37
446.39	5834.96
446.58	5820.91
446.77	6043.26
446.95	5914.53
447.14	5820.91
447.32	6036.24
447.51	6111.14
447.69	5916.87
447.88	5884.11
448.06	5930.92
448.25	5956.66
448.43	6029.22
448.62	6085.39
448.80	6040.92
448.99	6202.42
449.17	6164.97
449.36	6057.31
449.54	6169.65
449.73	6270.30
449.91	6406.05
450.10	6347.53
450.28	6422.43
450.46	6359.24
450.65	6354.55
450.83	6387.32
451.02	6431.79
451.20	6691.59
451.39	6471.58
451.57	6382.64
451.76	6408.39
451.94	6445.84
452.13	6628.40
452.31	6492.65
452.49	6534.78
452.68	6525.41
452.86	6537.12
453.05	6574.56
453.23	6642.44
453.42	6560.52
453.60	6534.78
453.78	6689.25
453.97	6581.59
454.15	6715.00
454.34	6523.07
454.52	6827.34
454.70	6745.42
454.89	6829.68
455.07	6768.83
455.26	6740.74
455.44	6848.41
455.62	6953.73
455.81	7000.54
455.99	7019.27
456.17	6984.16
456.36	6967.77
456.54	7030.97
456.73	7115.23
456.91	7384.39
457.09	7403.11
457.28	7445.24
457.46	7227.57
457.64	7482.69
457.83	7248.64
458.01	7328.22
458.19	7438.22
458.38	7307.15
458.56	7578.65
458.74	7407.80
458.93	7503.76
459.11	7342.26
459.29	7557.59
459.48	7789.30
459.66	7482.69
459.84	7770.58
460.03	7882.92
460.21	7749.51
460.39	7655.89
460.57	7709.72
460.76	7777.60
460.94	7688.66
461.12	7808.03
461.31	7861.86
461.49	7742.49
461.67	7742.49
461.85	8051.44
462.04	7953.14
462.22	8437.63
462.40	8175.49
462.59	7976.55
462.77	8119.32
462.95	8037.40
463.13	8231.66
463.32	8067.83
463.50	8397.84
463.68	8243.37
463.86	8114.64
464.05	7999.95
464.23	8191.88
464.41	8308.90
464.59	7995.27
464.78	8327.63
464.96	8418.91
465.14	8210.60
465.32	8168.47
465.50	8234.00
465.69	8365.07
465.87	8449.33
466.05	8259.75
466.23	8332.31
466.41	8360.39
466.60	8486.78
466.78	8435.29
466.96	8369.76
467.14	8418.91
467.32	8578.06
467.51	8559.34
467.69	8390.82
467.87	8470.40
468.05	8582.74
468.23	8629.56
468.41	8559.34
468.60	8585.08
468.78	8594.45
468.96	8711.47
469.14	8638.92
469.32	8730.20
469.50	8542.96
469.69	8805.10
469.87	8992.34
470.05	8966.59
470.23	9043.83
470.41	9090.64
470.59	9027.45
470.77	9027.45
470.95	9160.86
471.14	9322.35
471.32	8973.61
471.50	9334.06
471.68	9453.42
471.86	9245.12
472.04	9338.74
472.22	9521.30
472.40	9287.25
472.58	9345.76
472.77	9586.83
472.95	9645.35
473.13	9902.81
473.31	9668.75
473.49	9645.35
473.67	9671.09
473.85	9605.56
474.03	9961.32
474.21	9776.42
474.39	9944.94
474.57	9872.38
474.75	10099.41
474.93	10157.92
475.12	10150.90
475.30	10073.67
475.48	10164.95
475.66	10384.96
475.84	10303.04
476.02	10544.11
476.20	10431.77
476.38	10583.90
476.56	10871.79
476.74	10747.74
476.92	10696.25
477.10	10780.51
477.28	10876.47
477.46	11124.57
477.64	11070.73
477.82	11243.93
478.00	11461.60
478.18	11454.58
478.36	11445.22
478.54	11653.53
478.72	11566.93
478.90	11662.89
479.08	11850.13
479.26	11819.71
479.44	11939.07
479.62	11997.59
479.80	12016.31
479.98	12306.54
480.16	12456.33
480.34	12325.26
480.52	12472.71
480.70	12594.42
480.88	12320.58
481.06	12652.94
481.24	12528.89
481.41	12999.34
481.59	13090.62
481.77	13139.77
481.95	13380.84
482.13	13352.76
482.31	13036.78
482.49	13668.73
482.67	13703.84
482.85	13500.21
483.03	13832.57
483.21	14136.84
483.39	14033.85
483.57	13921.51
483.74	14277.27
483.92	14232.80
484.10	14256.20
484.28	14794.53
484.46	14665.80
484.64	15056.67
484.82	14508.98
485.00	14719.63
485.18	14860.06
485.35	15295.40
485.53	14965.39
485.71	14974.75
485.89	15276.68
486.07	15318.81
486.25	15482.64
486.43	15569.24
486.61	15594.99
486.78	15850.11
486.96	15939.05
487.14	16645.89
487.32	16311.19
487.50	16673.98
487.68	16615.46
487.85	16828.45
488.03	17062.51
488.21	17212.30
488.39	17268.47
488.57	17224.00
488.75	17378.48
488.92	17586.79
489.10	17682.75
489.28	17752.96
489.46	17898.08
489.64	18167.24
489.81	18602.58
489.99	18565.13
490.17	18686.84
490.35	18829.61
490.53	18593.22
490.70	18679.82
490.88	18663.43
491.06	19487.30
491.24	19087.07
491.41	19124.52
491.59	19126.86
491.77	19321.12
491.95	19520.07
492.13	19864.13
492.30	20205.84
492.48	19971.79
492.66	20107.54
492.84	20390.75
493.01	20360.32
493.19	19779.87
493.37	20357.98
493.54	20662.25
493.72	20669.27
493.90	20884.60
494.08	20985.24
494.25	21181.85
494.43	21179.51
494.61	21509.52
494.79	21542.29
494.96	21273.13
495.14	21113.97
495.32	21778.68
495.49	21876.99
495.67	21860.60
495.85	21961.25
496.02	22309.99
496.20	22731.28
496.38	22340.41
496.55	22511.27
496.73	23192.37
496.91	22607.23
497.09	22867.03
497.26	22930.23
497.44	23101.09
497.62	23044.91
497.79	23489.62
497.97	23026.19
498.14	23510.68
498.32	23817.29
498.50	23545.79
498.67	24034.96
498.85	23786.86
499.03	24212.84
499.20	24341.57
499.38	24175.39
499.56	24311.14
499.73	24542.86
499.91	24795.64
500.08	24610.73
500.26	24503.07
500.44	24559.24
500.61	24915.00
500.79	24748.82
500.97	24849.47
501.14	25493.12
501.32	25362.04
501.49	25212.25
501.67	25036.71
501.84	25759.94
502.02	25771.64
502.20	25876.96
502.37	25685.04
502.55	26192.94
502.72	25844.20
502.90	26073.57
503.07	25706.10
503.25	26033.78
503.43	26157.83
503.60	26176.55
503.78	26302.94
503.95	26132.08
504.13	26541.68
504.30	26611.89
504.48	26637.64
504.65	27016.80
504.83	27080.00
505.01	27082.34
505.18	26984.04
505.36	27435.76
505.53	27431.08
505.71	27386.61
505.88	27768.12
506.06	26946.59
506.23	27704.92
506.41	27374.91
506.58	27639.39
506.76	27922.59
506.93	28126.22
507.11	27735.35
507.28	27779.82
507.46	27564.49
507.63	28177.71
507.81	28243.24
507.98	28507.72
508.16	28531.13
508.33	28294.74
508.50	28563.90
508.68	28746.46
508.85	28877.53
509.03	29078.82
509.20	28999.24
509.38	29125.63
509.55	28936.04
509.73	29563.31
509.90	29223.93
510.08	28940.72
510.25	29099.88
510.42	29467.34
510.60	29474.37
510.77	29296.49
510.95	29940.13
511.12	29432.24
511.30	29605.44
511.47	30174.19
511.64	29811.40
511.82	30195.25
511.99	30265.47
512.17	30127.38
512.34	30607.19
512.51	30380.15
512.69	30752.30
512.86	30630.59
513.04	30768.68
513.21	30815.49
513.38	30822.51
513.56	30831.88
513.73	30426.96
513.90	31089.34
514.08	30733.57
514.25	31051.89
514.43	31028.48
514.60	31037.84
514.77	31288.28
514.95	31601.91
515.12	31379.56
515.29	31550.42
515.47	31660.43
515.64	31995.12
515.81	31517.65
515.99	31590.21
516.16	32091.09
516.33	31821.92
516.51	32144.92
516.68	31370.20
516.85	31627.66
517.03	31838.31
517.20	32023.21
517.37	32084.06
517.54	32622.39
517.72	32425.78
517.89	32496.00
518.06	32205.77
518.24	32004.49
518.41	32144.92
518.58	32285.35
518.75	32617.71
518.93	32938.36
519.10	32872.82
519.27	32903.25
519.45	33420.51
519.62	33200.50
519.79	32968.79
519.96	33282.42
520.14	33472.00
520.31	33312.84
520.48	33266.03
520.65	33322.21
520.83	33652.22
521.00	33689.67
521.17	33984.58
521.34	34101.61
521.52	33696.69
521.69	34232.68
521.86	33954.15
522.03	34178.84
522.20	34052.45
522.38	34455.03
522.55	34326.30
522.72	34132.03
522.89	34401.19
523.07	34373.11
523.24	34448.00
523.41	34504.18
523.58	34668.02
523.75	35026.12
523.92	34866.96
524.10	35035.48
524.27	35075.27
524.44	35379.54
524.61	35400.60
524.78	34998.03
524.96	35143.14
525.13	35597.21
525.30	35531.67
525.47	35171.23
525.64	35325.71
525.81	35751.68
525.98	35562.10
526.16	35470.82
526.33	35494.22
526.50	35655.72
526.67	35543.38
526.84	35306.98
527.01	35351.45
527.18	35803.17
527.36	36086.38
527.53	35908.50
527.70	36329.80
527.87	36432.78
528.04	36264.26
528.21	36451.50
528.38	36144.89
528.55	36460.87
528.72	36137.87
528.89	36631.72
529.07	36533.42
529.24	36847.05
529.41	36828.33
529.58	36573.21
529.75	36879.82
529.92	36762.79
530.09	36706.62
530.26	37214.52
530.43	37060.04
530.60	36790.88
530.77	37298.78
530.94	37467.30
531.11	37179.41
531.28	37551.56
531.46	37425.17
531.63	37544.53
531.80	37427.51
531.97	37464.96
532.14	37614.75
532.31	36823.65
532.48	37525.81
532.65	37794.97
532.82	37237.92
532.99	37352.61
533.16	37598.37
533.33	37558.58
533.50	37895.61
533.67	38143.71
533.84	37263.67
534.01	38225.63
534.18	37876.89
534.35	37900.29
534.52	38010.30
534.69	38312.23
534.86	38288.82
535.03	38047.75
535.20	38836.51
535.37	38745.23
535.54	38689.06
535.71	38464.36
535.88	38656.29
536.05	38440.96
536.22	38569.69
536.38	38829.49
536.55	38602.46
536.72	38459.68
536.89	38815.44
537.06	38445.64
537.23	38785.02
537.40	38490.11
537.57	38864.60
537.74	39194.61
537.91	39278.87
538.08	39044.82
538.25	39168.87
538.42	39302.28
538.59	39475.48
538.75	38969.92
538.92	39016.73
539.09	39150.14
539.26	39278.87
539.43	39295.25
539.60	39466.11
539.77	39648.68
539.94	39414.62
540.11	39428.66
540.28	39473.13
540.44	39232.06
540.61	39665.06
540.78	39281.21
540.95	39749.32
541.12	39676.76
541.29	39957.63
541.46	39711.87
541.62	40013.80
541.79	39885.07
541.96	39981.03
542.13	39852.30
542.30	40294.66
542.47	40065.29
542.63	40170.61
542.80	40165.93
542.97	40708.94
543.14	40800.22
543.31	40744.05
543.48	40566.16
543.64	41202.79
543.81	40744.05
543.98	40624.68
544.15	40634.04
544.32	41198.11
544.48	41258.96
544.65	40774.47
544.82	40905.54
544.99	40353.18
545.16	40776.81
545.32	40964.06
545.49	41181.73
545.66	41200.45
545.83	41172.36
546.00	41399.40
546.16	41198.11
546.33	41060.02
546.50	40472.54
546.67	41081.08
546.83	40795.54
547.00	41104.49
547.17	41303.43
547.34	41085.76
547.50	41570.25
547.67	41607.70
547.84	41813.67
548.00	42080.49
548.17	41935.38
548.34	41801.97
548.51	41429.82
548.67	41738.77
548.84	41958.78
549.01	41963.46
549.18	41539.83
549.34	41851.12
549.51	42071.13
549.68	42162.41
549.84	42330.93
550.01	42216.24
550.18	41855.80
550.34	41951.76
550.51	42349.65
550.68	42066.45
550.84	41588.98
551.01	41993.89
551.18	42178.79
551.34	41975.17
551.51	42361.36
551.68	42504.13
551.84	42525.19
552.01	42153.05
552.18	42036.02
552.34	42134.32
552.51	42469.02
552.68	42204.54
552.84	42813.08
553.01	42424.55
553.18	42705.41
553.34	42377.74
553.51	42553.28
553.67	42766.27
553.84	42693.71
554.01	42677.33
554.17	42782.65
554.34	42923.08
554.51	43136.07
554.67	43316.29
554.84	43093.94
555.00	42993.30
555.17	42674.99
555.33	42777.97
555.50	42859.89
555.67	43082.24
555.83	42522.85
556.00	43189.91
556.16	43835.89
556.33	42663.28
556.50	43306.93
556.66	43419.28
556.83	43093.94
556.99	43311.61
557.16	43587.80
557.32	43503.54
557.49	43187.56
557.65	43620.56
557.82	42899.68
557.98	43049.47
558.15	43419.28
558.32	43175.86
558.48	43435.66
558.65	43386.51
558.81	43515.24
558.98	43288.21
559.14	43655.67
559.31	43447.36
559.47	43756.32
559.64	44030.16
559.80	44002.07
559.97	43819.51
560.13	43604.18
560.30	43381.83
560.46	43976.33
560.63	43555.03
560.79	43915.47
560.96	43873.34
561.12	43552.69
561.29	43735.25
561.45	43484.81
561.61	43899.09
561.78	43924.83
561.94	43435.66
562.11	43599.50
562.27	43337.36
562.44	43494.18
562.60	43737.59
562.77	43985.69
562.93	43777.38
563.10	44002.07
563.26	43615.88
563.42	43714.19
563.59	43922.49
563.75	43646.31
563.92	44179.95
564.08	44275.91
564.24	44004.41
564.41	44512.31
564.57	43899.09
564.74	44378.90
564.90	43810.15
565.07	44194.00
565.23	43913.13
565.39	43803.13
565.56	44201.02
565.72	43468.43
565.88	44177.61
566.05	44456.14
566.21	44294.64
566.38	44411.67
566.54	44205.70
566.70	44320.38
566.87	44765.09
567.03	44418.69
567.19	44683.17
567.36	44315.70
567.52	43920.15
567.68	44416.35
567.85	44442.09
568.01	44505.29
568.17	44563.80
568.34	44500.61
568.50	44105.06
568.66	43763.34
568.83	44418.69
568.99	43889.73
569.15	44194.00
569.32	44158.89
569.48	43973.98
569.64	44741.68
569.81	44196.34
569.97	44589.55
570.13	44292.30
570.30	44348.47
570.46	44282.94
570.62	44102.71
570.78	43878.02
570.95	44034.84
571.11	44617.63
571.27	44397.62
571.43	44491.24
571.60	45120.85
571.76	44704.23
571.92	44329.75
572.09	44282.94
572.25	44481.88
572.41	44531.03
572.57	44636.36
572.74	44978.07
572.90	44802.53
573.06	44629.34
573.22	44313.36
573.38	44524.01
573.55	44374.22
573.71	44332.09
573.87	44500.61
574.03	44268.89
574.20	44715.93
574.36	44421.03
574.52	44741.68
574.68	44821.26
574.84	44786.15
575.01	44591.89
575.17	44446.77
575.33	44245.49
575.49	44229.10
575.65	44879.77
575.82	45031.91
575.98	44542.74
576.14	44776.79
576.30	44947.65
576.46	44428.05
576.62	44222.08
576.79	44809.56
576.95	44589.55
577.11	44762.75
577.27	44641.04
577.43	44772.11
577.59	44774.45
577.75	45319.79
577.92	44729.98
578.08	44545.08
578.24	44055.90
578.40	44439.75
578.56	44486.56
578.72	44774.45
578.88	44603.59
579.04	44392.94
579.21	44823.60
579.37	44371.88
579.53	44959.35
579.69	44332.09
579.85	44797.85
580.01	44781.47
580.17	44615.29
580.33	45130.21
580.49	45294.05
580.65	44746.36
580.82	45034.25
580.98	44376.56
581.14	44732.32
581.30	45247.24
581.46	44999.14
581.62	44648.06
581.78	45059.99
581.94	44971.05
582.10	44659.76
582.26	44786.15
582.42	44816.58
582.58	44938.29
582.74	44898.50
582.90	44713.59
583.06	44952.33
583.22	45099.78
583.38	45326.81
583.54	44975.73
583.70	44755.72
583.86	44636.36
584.02	44357.83
584.18	44577.84
584.34	44851.69
584.50	45123.19
584.66	44949.99
584.82	44811.90
584.98	44926.58
585.14	44879.77
585.30	44725.30
585.46	45067.02
585.62	44266.55
585.78	44722.96
585.94	44746.36
586.10	44289.96
586.26	44245.49
586.42	44645.72
586.58	44861.05
586.74	44638.70
586.90	44683.17
587.06	44741.68
587.22	44662.10
587.38	44648.06
587.54	45247.24
587.70	45144.25
587.86	45029.57
588.02	44671.46
588.18	45305.75
588.34	45221.49
588.49	45141.91
588.65	44659.76
588.81	44608.27
588.97	44514.65
589.13	44369.54
589.29	44737.00
589.45	45343.20
589.61	45158.30
589.77	45333.84
589.93	44952.33
590.08	44964.03
590.24	45116.17
