SpectraSuite Data File
++++++++++++++++++++++++++++++++++++
Date: Fri Oct 25 10:43:43 EDT 2013
User: price-jones
Dark Spectrum Present: No
Reference Spectrum Present: No
Number of Sampled Component Spectra: 1
Spectrometers: USB2+H05261
Integration Time (usec): 100000 (USB2+H05261)
Spectra Averaged: 1 (USB2+H05261)
Boxcar Smoothing: 0 (USB2+H05261)
Correct for Electrical Dark: No (USB2+H05261)
Strobe/Lamp Enabled: No (USB2+H05261)
Correct for Detector Non-linearity: No (USB2+H05261)
Correct for Stray Light: No (USB2+H05261)
Number of Pixels in Processed Spectrum: 2048
>>>>>Begin Processed Spectral Data<<<<<
365.73	168.52
365.92	168.52
366.12	168.52
366.32	2.34
366.52	0.00
366.72	0.00
366.91	32.77
367.11	0.00
367.31	0.00
367.51	23.41
367.70	95.96
367.90	58.51
368.10	0.00
368.30	0.00
368.49	0.00
368.69	37.45
368.89	30.43
369.09	77.24
369.28	49.15
369.48	72.56
369.68	63.19
369.87	91.28
370.07	114.69
370.27	182.56
370.47	180.22
370.66	367.46
370.86	425.98
371.06	451.72
371.25	554.71
371.45	456.40
371.65	503.22
371.84	456.40
372.04	435.34
372.24	411.93
372.44	489.17
372.63	512.58
372.83	538.32
373.03	449.38
373.22	484.49
373.42	421.30
373.62	507.90
373.81	554.71
374.01	627.26
374.21	533.64
374.40	568.75
374.60	650.67
374.79	535.98
374.99	564.07
375.19	519.60
375.38	585.13
375.58	650.67
375.78	692.80
375.97	650.67
376.17	641.31
376.37	599.18
376.56	535.98
376.76	587.47
376.95	566.41
377.15	617.90
377.35	638.97
377.54	636.63
377.74	606.20
377.93	667.05
378.13	662.37
378.33	636.63
378.52	608.54
378.72	573.43
378.91	664.71
379.11	571.09
379.31	653.01
379.50	657.69
379.70	695.14
379.89	657.69
380.09	650.67
380.28	634.29
380.48	713.86
380.68	695.14
380.87	606.20
381.07	664.71
381.26	702.16
381.46	746.63
381.65	690.46
381.85	767.70
382.04	725.57
382.24	741.95
382.43	699.82
382.63	730.25
382.83	634.29
383.02	674.07
383.22	753.65
383.41	699.82
383.61	828.55
383.80	779.40
384.00	706.84
384.19	786.42
384.39	723.23
384.58	770.04
384.78	791.10
384.97	842.59
385.17	744.29
385.36	809.83
385.56	779.40
385.75	861.32
385.95	835.57
386.14	875.36
386.34	788.76
386.53	866.00
386.72	873.02
386.92	868.34
387.11	861.32
387.31	889.40
387.50	954.94
387.70	882.38
387.89	800.46
388.09	840.25
388.28	849.61
388.48	959.62
388.67	901.11
388.86	849.61
389.06	931.53
389.25	889.40
389.45	1004.09
389.64	929.19
389.84	1048.56
390.03	999.41
390.22	999.41
390.42	1034.52
390.61	1004.09
390.81	929.19
391.00	954.94
391.19	1041.54
391.39	1090.69
391.58	1048.56
391.78	1118.78
391.97	1067.28
392.16	1036.86
392.36	1100.05
392.55	1008.77
392.75	985.37
392.94	992.39
393.13	1025.15
393.33	992.39
393.52	983.02
393.71	1135.16
393.91	1102.39
394.10	1170.27
394.29	1212.40
394.49	1121.12
394.68	1153.88
394.88	1144.52
395.07	1238.14
395.26	1235.80
395.46	1095.37
395.65	1226.44
395.84	1235.80
396.04	1214.74
396.23	1291.98
396.42	1224.10
396.62	1132.82
396.81	1224.10
397.00	1228.78
397.19	1277.93
397.39	1306.02
397.58	1387.94
397.77	1352.83
397.97	1418.36
398.16	1458.15
398.35	1437.09
398.55	1427.73
398.74	1549.43
398.93	1533.05
399.12	1481.56
399.32	1404.32
399.51	1465.18
399.70	1537.73
399.90	1467.52
400.09	1568.16
400.28	1542.41
400.47	1514.33
400.67	1603.27
400.86	1621.99
401.05	1575.18
401.24	1626.67
401.44	1678.16
401.63	1750.72
401.82	1720.29
402.01	1717.95
402.21	1736.68
402.40	1724.97
402.59	1727.32
402.78	1631.35
402.97	1722.63
403.17	1879.45
403.36	1844.34
403.55	1781.15
403.74	1865.41
403.93	1851.36
404.13	1980.09
404.32	1809.23
404.51	1935.62
404.70	1818.60
404.89	2047.97
405.09	2019.88
405.28	2017.54
405.47	1926.26
405.66	1982.43
405.85	2050.31
406.05	2022.22
406.24	2122.87
406.43	1984.77
406.62	2038.61
406.81	2090.10
407.00	2050.31
407.20	1980.09
407.39	2092.44
407.58	2113.50
407.77	2218.83
407.96	2291.38
408.15	2326.49
408.34	2223.51
408.54	2251.60
408.73	2335.85
408.92	2286.70
409.11	2361.60
409.30	2253.94
409.49	2284.36
409.68	2279.68
409.87	2275.00
410.07	2417.77
410.26	2373.30
410.45	2464.58
410.64	2382.67
410.83	2445.86
411.02	2480.97
411.21	2630.76
411.40	2574.59
411.59	2480.97
411.78	2705.66
411.98	2663.53
412.17	2605.02
412.36	2626.08
412.55	2616.72
412.74	2717.36
412.93	2743.11
413.12	2726.72
413.31	3002.91
413.50	2850.77
413.69	2799.28
413.88	2939.71
414.07	2855.45
414.26	2984.18
414.45	2991.20
414.64	2930.35
414.83	2998.23
415.02	2857.79
415.22	3073.12
415.41	3199.51
415.60	3108.23
415.79	3192.49
415.98	3220.58
416.17	3253.34
416.36	3176.11
416.55	3157.38
416.74	3281.43
416.93	3218.24
417.12	3262.71
417.31	3243.98
417.50	3290.79
417.69	3576.34
417.88	3342.28
418.07	3414.84
418.26	3463.99
418.45	3487.40
418.64	3674.64
418.83	3527.19
419.02	3595.06
419.21	3599.74
419.39	3569.32
419.58	3492.08
419.77	3524.85
419.96	3590.38
420.15	3801.03
420.34	3735.50
420.53	3770.60
420.72	3887.63
420.91	3796.35
421.10	3838.48
421.29	3911.04
421.48	3801.03
421.67	3911.04
421.86	3719.11
422.05	3676.98
422.24	3779.97
422.43	3770.60
422.61	3714.43
422.80	3871.25
422.99	3873.59
423.18	4014.02
423.37	4032.74
423.56	3927.42
423.75	3843.16
423.94	3866.56
424.13	3784.65
424.32	3934.44
424.50	3948.48
424.69	3976.57
424.88	4002.32
425.07	3922.74
425.26	3871.25
425.45	3845.50
425.64	3971.89
425.83	3992.95
426.01	3992.95
426.20	4098.28
426.39	4044.45
426.58	3955.51
426.77	3913.38
426.96	4053.81
427.15	3999.98
427.33	4070.19
427.52	3969.55
427.71	4210.62
427.90	4210.62
428.09	4236.37
428.28	4182.54
428.46	4133.39
428.65	4135.73
428.84	4285.52
429.03	4344.03
429.22	4161.47
429.40	4124.02
429.59	4182.54
429.78	3927.42
429.97	3978.91
430.16	4025.72
430.34	4227.01
430.53	4287.86
430.72	4170.83
430.91	4121.68
431.10	4365.10
431.28	4524.26
431.47	4655.33
431.66	4634.26
431.85	4479.79
432.03	4638.94
432.22	4631.92
432.41	4533.62
432.60	4755.97
432.79	4751.29
432.97	4748.95
433.16	4816.82
433.35	4627.24
433.54	4690.43
433.72	4622.56
433.91	4716.18
434.10	4793.42
434.28	4826.18
434.47	4777.03
434.66	4940.87
434.85	4915.12
435.03	5055.56
435.22	5093.01
435.41	5064.92
435.59	5064.92
435.78	5076.62
435.97	5235.78
436.16	5195.99
436.34	5158.54
436.53	5111.73
436.72	5301.31
436.90	5064.92
437.09	5198.33
437.28	4987.68
437.46	5294.29
437.65	5310.68
437.84	5184.29
438.02	5123.43
438.21	5362.17
438.40	5153.86
438.58	5416.00
438.77	5249.82
438.96	5327.06
439.14	5598.56
439.33	5575.16
439.52	5612.60
439.70	5708.57
439.89	5628.99
440.08	5687.50
440.26	5556.43
440.45	5617.29
440.63	5802.19
440.82	5935.60
441.01	6050.28
441.19	5977.73
441.38	6139.23
441.57	6176.67
441.75	6118.16
441.94	6422.43
442.12	6427.11
442.31	6274.98
442.50	6375.62
442.68	6274.98
442.87	6354.55
443.05	6272.64
443.24	6520.73
443.43	6342.85
443.61	6345.19
443.80	6707.98
443.98	6392.00
444.17	6193.06
444.35	6459.88
444.54	6574.56
444.73	6595.63
444.91	6616.69
445.10	6434.13
445.28	6520.73
445.47	6200.08
445.65	6494.99
445.84	6562.86
446.02	6537.12
446.21	6492.65
446.39	6513.71
446.58	6642.44
446.77	6771.17
446.95	6539.46
447.14	6682.23
447.32	6726.70
447.51	6733.72
447.69	6813.30
447.88	6778.19
448.06	6722.02
448.25	6640.10
448.43	6731.38
448.62	6883.52
448.80	6693.93
448.99	6988.84
449.17	6761.81
449.36	6796.92
449.54	7112.89
449.73	7047.35
449.91	6848.41
450.10	7148.00
450.28	7098.84
450.46	7227.57
450.65	7213.53
450.83	7180.76
451.02	7454.61
451.20	7344.60
451.39	7236.94
451.57	7321.20
451.76	7133.95
451.94	7234.60
452.13	7325.88
452.31	7449.93
452.49	7091.82
452.68	7393.75
452.86	7077.78
453.05	7194.81
453.23	7353.96
453.42	7410.14
453.60	7344.60
453.78	7545.89
453.97	7279.07
454.15	7396.09
454.34	7400.77
454.52	7449.93
454.70	7391.41
454.89	7517.80
455.07	7777.60
455.26	7538.87
455.44	7857.18
455.62	7611.42
455.81	7662.91
455.99	7740.15
456.17	7892.29
456.36	7765.90
456.54	8091.23
456.73	7892.29
456.91	7943.78
457.09	8114.64
457.28	8229.32
457.46	7911.01
457.64	8234.00
457.83	8145.06
458.01	7880.58
458.19	8042.08
458.38	8049.10
458.56	8339.33
458.74	8205.92
458.93	8135.70
459.11	8390.82
459.29	8140.38
459.48	8397.84
459.66	8325.29
459.84	8393.16
460.03	8547.64
460.21	8489.12
460.39	8362.73
460.57	8334.65
460.76	8439.97
460.94	8624.87
461.12	8617.85
461.31	8535.93
461.49	8608.49
461.67	8624.87
461.85	9095.32
462.04	8905.74
462.22	9439.38
462.40	8870.63
462.59	8835.52
462.77	9032.13
462.95	8912.76
463.13	8844.88
463.32	8940.85
463.50	9046.17
463.68	9041.49
463.86	8959.57
464.05	8865.95
464.23	8961.91
464.41	8910.42
464.59	8758.28
464.78	9123.41
464.96	9132.77
465.14	9083.62
465.32	9275.54
465.50	9287.25
465.69	9523.64
465.87	9195.96
466.05	9123.41
466.23	9214.69
466.41	9109.36
466.60	9448.74
466.78	9200.65
466.96	9188.94
467.14	9458.10
467.32	9427.68
467.51	9542.36
467.69	9233.41
467.87	9277.88
468.05	9397.25
468.23	9467.47
468.41	9659.39
468.60	9540.02
468.78	9715.56
468.96	9460.45
469.14	9769.40
469.32	9788.12
469.50	9605.56
469.69	9909.83
469.87	9863.02
470.05	9823.23
470.23	9900.47
470.41	10001.11
470.59	9996.43
470.77	10019.83
470.95	9991.75
471.14	10125.16
471.32	9949.62
471.50	10265.59
471.68	10256.23
471.86	10354.53
472.04	10303.04
472.22	10633.05
472.40	10090.05
472.58	10167.29
472.77	10303.04
472.95	10335.81
473.13	10794.55
473.31	10567.52
473.49	10399.00
473.67	10663.48
473.85	10621.35
474.03	10953.71
474.21	10888.17
474.39	11026.26
474.57	11044.99
474.75	11257.98
474.93	11246.27
475.12	11410.11
475.30	11087.12
475.48	11328.19
475.66	11281.38
475.84	11405.43
476.02	11466.28
476.20	11440.54
476.38	11686.29
476.56	11857.15
476.74	11791.62
476.92	11918.01
477.10	11857.15
477.28	12116.95
477.46	12133.34
477.64	12145.04
477.82	12343.99
478.00	12540.59
478.18	12556.97
478.36	12704.43
478.54	12664.64
478.72	12629.53
478.90	12659.96
479.08	13062.53
479.26	13130.41
479.44	13163.17
479.62	13135.09
479.80	13444.04
479.98	13376.16
480.16	13741.29
480.34	13369.14
480.52	13696.82
480.70	14024.49
480.88	13486.17
481.06	13811.50
481.24	14111.09
481.41	14169.60
481.59	14457.49
481.77	14672.82
481.95	14307.69
482.13	14736.01
482.31	14642.39
482.49	14773.46
482.67	14796.87
482.85	15049.64
483.03	15470.94
483.21	15449.88
483.39	15318.81
483.57	15335.19
483.74	15510.73
483.92	15674.57
484.10	15585.63
484.28	15887.56
484.46	16156.72
484.64	16376.73
484.82	15990.54
485.00	16250.34
485.18	16435.24
485.35	16493.76
485.53	16145.02
485.71	16093.52
485.89	16685.68
486.07	16381.41
486.25	16751.21
486.43	17078.89
486.61	17001.65
486.78	17432.31
486.96	17336.35
487.14	17879.35
487.32	17727.22
487.50	18244.48
487.68	18225.75
487.85	18375.55
488.03	18590.88
488.21	18546.40
488.39	18698.54
488.57	18541.72
488.75	18808.54
488.92	19232.18
489.10	19192.39
489.28	19557.52
489.46	19812.63
489.64	19953.07
489.81	20503.09
489.99	20257.34
490.17	20210.53
490.35	20334.57
490.53	20423.51
490.70	20332.23
490.88	20332.23
491.06	21113.97
491.24	20954.82
491.41	20870.56
491.59	20812.04
491.77	21090.57
491.95	20980.56
492.13	21303.56
492.30	21413.56
492.48	21898.05
492.66	21759.96
492.84	21745.92
493.01	22204.66
493.19	21851.24
493.37	22237.43
493.54	22281.90
493.72	22614.26
493.90	22733.62
494.08	22953.63
494.25	23302.37
494.43	23138.54
494.61	23370.25
494.79	23487.28
494.96	23756.44
495.14	23882.83
495.32	23721.33
495.49	23908.57
495.67	23798.57
495.85	24212.84
496.02	24283.06
496.20	24587.33
496.38	24313.48
496.55	24376.68
496.73	25242.68
496.91	24713.72
497.09	24837.76
497.26	25242.68
497.44	25106.93
497.62	25186.50
497.79	25340.98
497.97	25153.74
498.14	25628.87
498.32	25661.63
498.50	25336.30
498.67	26122.72
498.85	26239.75
499.03	26092.29
499.20	26405.92
499.38	26426.99
499.56	26398.90
499.73	26284.22
499.91	26691.47
500.08	26583.80
500.26	26923.18
500.44	26651.68
500.61	27194.68
500.79	26579.12
500.97	26909.14
501.14	27168.94
501.32	26902.12
501.49	27122.13
501.67	27297.67
501.84	27484.91
502.02	27395.97
502.20	27632.36
502.37	27866.42
502.55	27803.22
502.72	28053.66
502.90	27892.16
503.07	27861.74
503.25	28004.51
503.43	28098.13
503.60	28011.53
503.78	27985.79
503.95	28119.20
504.13	28442.19
504.30	28559.22
504.48	28835.40
504.65	28776.89
504.83	29116.26
505.01	28900.94
505.18	29181.80
505.36	29504.79
505.53	29418.19
505.71	29715.44
505.88	29422.87
506.06	29668.63
506.23	29729.48
506.41	29514.16
506.58	29984.60
506.76	29479.05
506.93	30019.71
507.11	30066.52
507.28	30178.87
507.46	30061.84
507.63	30340.36
507.81	30164.82
507.98	30127.38
508.16	30668.04
508.33	30518.25
508.50	30803.79
508.68	30789.75
508.85	30761.66
509.03	30684.42
509.20	31367.86
509.38	31402.97
509.55	31402.97
509.73	31147.85
509.90	31896.82
510.08	31229.77
510.25	31381.90
510.42	31372.54
510.60	32011.51
510.77	32072.36
510.95	31674.47
511.12	31899.16
511.30	31995.12
511.47	32573.24
511.64	32598.98
511.82	32491.32
511.99	32175.34
512.17	32032.57
512.34	32357.91
512.51	32421.10
512.69	32608.34
512.86	32856.44
513.04	32816.65
513.21	33022.62
513.38	32739.41
513.56	32713.67
513.73	32818.99
513.90	32737.07
514.08	33216.88
514.25	33546.90
514.43	33191.14
514.60	33401.79
514.77	33373.70
514.95	33764.57
515.12	33706.05
515.29	33453.28
515.47	33762.23
515.64	34167.14
515.81	33703.71
515.99	33745.84
516.16	33820.74
516.33	34134.37
516.51	33951.81
516.68	33324.55
516.85	33050.70
517.03	33514.13
517.20	34015.01
517.37	34345.02
517.54	34717.17
517.72	34204.59
517.89	34033.73
518.06	34321.62
518.24	34265.44
518.41	34071.18
518.58	34387.15
518.75	34033.73
518.93	35086.97
519.10	34675.04
519.27	34923.13
519.45	34960.58
519.62	35519.97
519.79	35590.19
519.96	35299.96
520.14	35402.94
520.31	35023.78
520.48	35512.95
520.65	35943.61
520.83	36105.10
521.00	36074.68
521.17	35765.73
521.34	35810.20
521.52	36549.81
521.69	36416.40
521.86	36503.00
522.03	36451.50
522.20	36034.89
522.38	36327.45
522.55	36231.49
522.72	36540.44
522.89	36645.77
523.07	36645.77
523.24	36582.57
523.41	37139.62
523.58	36659.81
523.75	37134.94
523.92	36938.33
524.10	37017.91
524.27	37376.01
524.44	37263.67
524.61	37266.01
524.78	37670.92
524.96	37574.96
525.13	37493.04
525.30	37600.71
525.47	37858.17
525.64	37572.62
525.81	37450.91
525.98	37441.55
526.16	37312.82
526.33	37179.41
526.50	37530.49
526.67	37148.98
526.84	37177.07
527.01	37312.82
527.18	37827.74
527.36	38087.54
527.53	38284.14
527.70	38422.23
527.87	38010.30
528.04	38237.33
528.21	38263.08
528.38	38658.63
528.55	39023.75
528.72	38682.03
528.89	39225.04
529.07	38883.32
529.24	38733.53
529.41	39014.39
529.58	38918.43
529.75	38726.50
529.92	39161.84
530.09	39203.97
530.26	39468.45
530.43	39402.92
530.60	38866.94
530.77	39138.44
530.94	39854.64
531.11	39533.99
531.28	39196.95
531.46	39938.90
531.63	39599.52
531.80	39363.13
531.97	39264.83
532.14	39262.49
532.31	38909.07
532.48	39442.71
532.65	40025.50
532.82	39920.18
532.99	39655.70
533.16	39538.67
533.33	39777.40
533.50	40175.30
533.67	40198.70
533.84	40151.89
534.01	39739.96
534.18	40163.59
534.35	40615.32
534.52	39765.70
534.69	40615.32
534.86	40495.95
535.03	40336.79
535.20	40762.77
535.37	41240.24
535.54	41209.81
535.71	40509.99
535.88	40662.13
536.05	40575.53
536.22	41045.97
536.38	40830.65
536.55	40254.87
536.72	40711.28
536.89	40327.43
537.06	40851.71
537.23	41256.62
537.40	40730.00
537.57	41256.62
537.74	41069.38
537.91	41401.74
538.08	41240.24
538.25	40980.44
538.42	41034.27
538.59	41624.09
538.75	40891.50
538.92	41097.47
539.09	41546.85
539.26	41275.35
539.43	41439.18
539.60	41331.52
539.77	41106.83
539.94	41270.67
540.11	41312.80
540.28	41563.23
540.44	41429.82
540.61	41521.10
540.78	41563.23
540.95	41532.81
541.12	41380.67
541.29	41860.48
541.46	41914.31
541.62	41722.39
541.79	42071.13
541.96	41734.09
542.13	41654.51
542.30	41830.05
542.47	42347.31
542.63	41694.30
542.80	42263.05
542.97	42548.60
543.14	42546.26
543.31	42653.92
543.48	42761.59
543.64	43012.02
543.81	42974.58
543.98	42597.75
544.15	42679.67
544.32	42990.96
544.48	43054.15
544.65	42763.93
544.82	42850.53
544.99	42763.93
545.16	42520.51
545.32	42995.64
545.49	43330.34
545.66	43379.49
545.83	43213.31
546.00	43077.56
546.16	43264.80
546.33	42855.21
546.50	42960.53
546.67	43026.07
546.83	42770.95
547.00	43208.63
547.17	43157.14
547.34	43131.39
547.50	43196.93
547.67	43606.52
547.84	43194.59
548.00	43761.00
548.17	43990.37
548.34	44182.29
548.51	44013.77
548.67	43831.21
548.84	43852.28
549.01	44002.07
549.18	43735.25
549.34	43660.35
549.51	43728.23
549.68	43913.13
549.84	44126.12
550.01	44079.31
550.18	44013.77
550.34	43571.41
550.51	43997.39
550.68	43756.32
550.84	43351.40
551.01	43770.36
551.18	43969.30
551.34	43990.37
551.51	44531.03
551.68	44296.98
551.84	44760.40
552.01	44002.07
552.18	44023.14
552.34	44222.08
552.51	44226.76
552.68	44133.14
552.84	44198.68
553.01	44584.86
553.18	44318.04
553.34	44622.31
553.51	44362.51
553.67	44615.29
553.84	44849.35
554.01	45162.98
554.17	44760.40
554.34	44748.70
554.51	44704.23
554.67	44526.35
554.84	44699.55
555.00	44580.18
555.17	44615.29
555.33	44659.76
555.50	44797.85
555.67	44727.64
555.83	44416.35
556.00	44570.82
556.16	45155.96
556.33	44985.10
556.50	45071.70
556.66	45153.62
556.83	44662.10
556.99	44528.69
557.16	45130.21
557.32	45045.95
557.49	45483.63
557.65	45036.59
557.82	45434.48
557.98	45415.76
558.15	44882.11
558.32	45148.93
558.48	45099.78
558.65	44832.96
558.81	44973.39
558.98	45102.12
559.14	45003.82
559.31	45003.82
559.47	45287.03
559.64	45518.74
559.80	45305.75
559.97	45427.46
560.13	45207.45
560.30	45291.71
560.46	45361.92
560.63	45216.81
560.79	45605.34
560.96	45640.45
561.12	45116.17
561.29	45420.44
561.45	45390.01
561.61	45020.20
561.78	45284.68
561.94	45057.65
562.11	45368.94
562.27	45230.85
562.44	45918.97
562.60	45830.03
562.77	45731.73
562.93	45689.60
563.10	45652.15
563.26	45443.84
563.42	45872.16
563.59	45209.79
563.75	45764.49
563.92	45947.06
564.08	45851.09
564.24	46270.05
564.41	46092.17
564.57	45380.65
564.74	45801.94
564.90	45638.11
565.07	45979.82
565.23	45851.09
565.39	45668.53
565.56	46085.15
565.72	45141.91
565.88	45773.86
566.05	45343.20
566.21	45572.57
566.38	45687.26
566.54	45495.33
566.70	45907.27
566.87	45921.31
567.03	46447.93
567.19	46059.40
567.36	46141.32
567.52	46078.13
567.68	45895.56
567.85	45577.25
568.01	45729.39
568.17	45539.80
568.34	46000.89
568.50	46017.27
568.66	46047.70
568.83	45958.76
568.99	45834.71
569.15	45954.08
569.32	45298.73
569.48	46028.98
569.64	46195.15
569.81	45586.61
569.97	45961.10
570.13	45741.09
570.30	45528.10
570.46	45441.50
570.62	45738.75
570.78	45572.57
570.95	44893.82
571.11	46087.49
571.27	45722.37
571.43	45823.01
571.60	45965.78
571.76	46071.10
571.92	45652.15
572.09	46150.68
572.25	45956.42
572.41	46230.26
572.57	46108.55
572.74	46127.28
572.90	45897.91
573.06	45900.25
573.22	45925.99
573.38	46375.37
573.55	45942.38
573.71	46335.59
573.87	46033.66
574.03	46183.45
574.20	45815.99
574.36	46129.62
574.52	45949.40
574.68	46178.77
574.84	46066.42
575.01	45970.46
575.17	45860.46
575.33	45949.40
575.49	46220.90
575.65	46314.52
575.82	46211.54
575.98	45895.56
576.14	46183.45
576.30	46021.95
576.46	46108.55
576.62	46043.02
576.79	46005.57
576.95	45448.52
577.11	46057.06
577.27	46045.36
577.43	46213.88
577.59	45806.62
577.75	45806.62
577.92	45790.24
578.08	45710.66
578.24	45839.39
578.40	45902.59
578.56	46256.01
578.72	45986.85
578.88	46469.00
579.04	46333.24
579.21	45701.30
579.37	45677.90
579.53	46085.15
579.69	46012.59
579.85	45947.06
580.01	45921.31
580.17	46181.11
580.33	46410.48
580.49	46440.91
580.65	46113.23
580.82	45858.12
580.98	45844.07
581.14	46108.55
581.30	46007.91
581.46	46614.11
581.62	46010.25
581.78	46064.08
581.94	46625.81
582.10	46092.17
582.26	46335.59
582.42	45993.87
582.58	46253.67
582.74	45954.08
582.90	46085.15
583.06	46258.35
583.22	45858.12
583.38	46522.83
583.54	46459.63
583.70	46204.52
583.86	46251.33
584.02	46040.68
584.18	45963.44
584.34	46028.98
584.50	46642.20
584.66	46195.15
584.82	46038.34
584.98	46251.33
585.14	46167.07
585.30	46043.02
585.46	46429.21
585.62	46103.87
585.78	46227.92
585.94	45893.22
586.10	45696.62
586.26	45998.55
586.42	46300.48
586.58	46382.40
586.74	46047.70
586.90	46174.09
587.06	46284.09
587.22	46323.88
587.38	46567.30
587.54	46213.88
587.70	46373.03
587.86	46279.41
588.02	46160.05
588.18	46279.41
588.34	46160.05
588.49	45879.18
588.65	45113.83
588.81	46026.63
588.97	46040.68
589.13	45460.23
589.29	46167.07
589.45	45778.54
589.61	46241.96
589.77	46447.93
589.93	46494.74
590.08	46660.92
