SpectraSuite Data File
++++++++++++++++++++++++++++++++++++
Date: Fri Oct 25 10:47:07 EDT 2013
User: price-jones
Dark Spectrum Present: No
Reference Spectrum Present: No
Number of Sampled Component Spectra: 1
Spectrometers: USB2+H05261
Integration Time (usec): 100000 (USB2+H05261)
Spectra Averaged: 1 (USB2+H05261)
Boxcar Smoothing: 0 (USB2+H05261)
Correct for Electrical Dark: No (USB2+H05261)
Strobe/Lamp Enabled: No (USB2+H05261)
Correct for Detector Non-linearity: No (USB2+H05261)
Correct for Stray Light: No (USB2+H05261)
Number of Pixels in Processed Spectrum: 2048
>>>>>Begin Processed Spectral Data<<<<<
365.73	159.16
365.92	159.16
366.12	159.16
366.32	39.79
366.52	39.79
366.72	65.54
366.91	42.13
367.11	46.81
367.31	0.00
367.51	37.45
367.70	39.79
367.90	105.32
368.10	30.43
368.30	23.41
368.49	0.00
368.69	32.77
368.89	72.56
369.09	51.49
369.28	0.00
369.48	88.94
369.68	74.90
369.87	98.30
370.07	98.30
370.27	88.94
370.47	107.66
370.66	383.85
370.86	365.12
371.06	388.53
371.25	456.40
371.45	393.21
371.65	489.17
371.84	486.83
372.04	407.25
372.24	425.98
372.44	489.17
372.63	510.24
372.83	486.83
373.03	524.28
373.22	496.19
373.42	547.69
373.62	521.94
373.81	510.24
374.01	561.73
374.21	484.49
374.40	524.28
374.60	571.09
374.79	524.28
374.99	526.62
375.19	610.88
375.38	545.34
375.58	575.77
375.78	571.09
375.97	617.90
376.17	610.88
376.37	585.13
376.56	636.63
376.76	564.07
376.95	638.97
377.15	634.29
377.35	638.97
377.54	606.20
377.74	671.73
377.93	538.32
378.13	615.56
378.33	634.29
378.52	554.71
378.72	629.60
378.91	606.20
379.11	587.47
379.31	601.52
379.50	629.60
379.70	634.29
379.89	660.03
380.09	603.86
380.28	653.01
380.48	674.07
380.68	667.05
380.87	655.35
381.07	688.12
381.26	692.80
381.46	655.35
381.65	676.41
381.85	643.65
382.04	720.88
382.24	699.82
382.43	678.76
382.63	578.11
382.83	629.60
383.02	667.05
383.22	711.52
383.41	669.39
383.61	711.52
383.80	739.61
384.00	753.65
384.19	685.78
384.39	739.61
384.58	676.41
384.78	753.65
384.97	800.46
385.17	690.46
385.36	763.01
385.56	744.29
385.75	718.54
385.95	779.40
386.14	814.51
386.34	791.10
386.53	826.21
386.72	730.25
386.92	770.04
387.11	781.74
387.31	795.78
387.50	809.83
387.70	791.10
387.89	828.55
388.09	833.23
388.28	896.43
388.48	802.80
388.67	868.34
388.86	788.76
389.06	791.10
389.25	994.73
389.45	917.49
389.64	964.30
389.84	875.36
390.03	849.61
390.22	863.66
390.42	933.87
390.61	947.92
390.81	929.19
391.00	987.71
391.19	1050.90
391.39	1027.50
391.58	992.39
391.78	980.68
391.97	997.07
392.16	915.15
392.36	980.68
392.55	954.94
392.75	999.41
392.94	933.87
393.13	1022.81
393.33	870.68
393.52	903.45
393.71	973.66
393.91	1025.15
394.10	1006.43
394.29	971.32
394.49	1046.22
394.68	1048.56
394.88	1181.97
395.07	1076.65
395.26	1109.41
395.46	1121.12
395.65	1146.86
395.84	1123.46
396.04	1200.69
396.23	1137.50
396.42	1107.07
396.62	1097.71
396.81	1132.82
397.00	1254.53
397.19	1081.33
397.39	1142.18
397.58	1196.01
397.77	1165.59
397.97	1275.59
398.16	1263.89
398.35	1205.38
398.55	1240.48
398.74	1294.32
398.93	1331.76
399.12	1196.01
399.32	1336.45
399.51	1350.49
399.70	1350.49
399.90	1345.81
400.09	1371.55
400.28	1423.05
400.47	1359.85
400.67	1390.28
400.86	1465.18
401.05	1409.00
401.24	1476.88
401.44	1434.75
401.63	1437.09
401.82	1420.71
402.01	1476.88
402.21	1582.20
402.40	1490.92
402.59	1469.86
402.78	1624.33
402.97	1575.18
403.17	1607.95
403.36	1507.30
403.55	1514.33
403.74	1575.18
403.93	1591.56
404.13	1551.78
404.32	1610.29
404.51	1673.48
404.70	1659.44
404.89	1652.42
405.09	1671.14
405.28	1715.61
405.47	1666.46
405.66	1760.08
405.85	1816.26
406.05	1671.14
406.24	1746.04
406.43	1764.76
406.62	1867.75
406.81	1774.13
407.00	1778.81
407.20	1837.32
407.39	1764.76
407.58	1867.75
407.77	1844.34
407.96	1867.75
408.15	1898.17
408.34	1860.73
408.54	2003.50
408.73	1923.92
408.92	1998.82
409.11	2078.40
409.30	2026.90
409.49	2012.86
409.68	1942.64
409.87	2080.74
410.07	2033.93
410.26	2017.54
410.45	2031.58
410.64	2071.37
410.83	2200.10
411.02	2125.21
411.21	2197.76
411.40	2188.40
411.59	2305.43
411.78	2253.94
411.98	2214.15
412.17	2277.34
412.36	2317.13
412.55	2312.45
412.74	2375.64
412.93	2424.80
413.12	2441.18
413.31	2499.69
413.50	2464.58
413.69	2335.85
413.88	2593.31
414.07	2612.04
414.26	2574.59
414.45	2590.97
414.64	2518.42
414.83	2588.63
415.02	2698.64
415.22	2738.43
415.41	2796.94
415.60	2747.79
415.79	2778.22
415.98	2857.79
416.17	2745.45
416.36	2787.58
416.55	2785.24
416.74	2848.43
416.93	2782.90
417.12	2939.71
417.31	2928.01
417.50	2939.71
417.69	3021.63
417.88	2979.50
418.07	3110.57
418.26	3119.93
418.45	2958.44
418.64	3183.13
418.83	3164.40
419.02	3101.21
419.21	3243.98
419.39	3208.87
419.58	3152.70
419.77	3035.67
419.96	3098.87
420.15	3211.22
420.34	3236.96
420.53	3321.22
420.72	3311.86
420.91	3295.47
421.10	3323.56
421.29	3332.92
421.48	3325.90
421.67	3356.33
421.86	3234.62
422.05	3346.97
422.24	3253.34
422.43	3365.69
422.61	3442.93
422.80	3400.80
422.99	3456.97
423.18	3456.97
423.37	3578.68
423.56	3466.33
423.75	3473.36
423.94	3466.33
424.13	3258.03
424.32	3379.73
424.50	3466.33
424.69	3658.26
424.88	3543.57
425.07	3403.14
425.26	3487.40
425.45	3363.35
425.64	3461.65
425.83	3534.21
426.01	3478.04
426.20	3536.55
426.39	3571.66
426.58	3463.99
426.77	3449.95
426.96	3541.23
427.15	3613.79
427.33	3522.51
427.52	3679.32
427.71	3684.00
427.90	3503.78
428.09	3627.83
428.28	3751.88
428.46	3784.65
428.65	3728.47
428.84	3639.53
429.03	3698.05
429.22	3595.06
429.40	3782.31
429.59	3702.73
429.78	3630.17
429.97	3688.68
430.16	3751.88
430.34	3634.85
430.53	3889.97
430.72	3808.05
430.91	3929.76
431.10	3941.46
431.28	4016.36
431.47	4074.87
431.66	4245.73
431.85	4156.79
432.03	4067.85
432.22	4201.26
432.41	4124.02
432.60	4145.09
432.79	4154.45
432.97	4234.03
433.16	4234.03
433.35	4194.24
433.54	4332.33
433.72	4271.48
433.91	4203.60
434.10	4280.84
434.28	4243.39
434.47	4283.18
434.66	4423.61
434.85	4369.78
435.03	4383.82
435.22	4383.82
435.41	4631.92
435.59	4449.36
435.78	4348.72
435.97	4685.75
436.16	4613.20
436.34	4491.49
436.53	4456.38
436.72	4531.28
436.90	4390.84
437.09	4664.69
437.28	4514.89
437.46	4465.74
437.65	4587.45
437.84	4730.22
438.02	4589.79
438.21	4706.82
438.40	4528.94
438.58	4777.03
438.77	4891.72
438.96	4856.61
439.14	4975.98
439.33	4908.10
439.52	4978.32
439.70	5036.83
439.89	5078.96
440.08	5107.05
440.26	4950.23
440.45	5132.79
440.63	5121.09
440.82	5228.76
441.01	5214.71
441.19	5174.92
441.38	5329.40
441.57	5317.70
441.75	5373.87
441.94	5423.02
442.12	5467.49
442.31	5558.77
442.50	5582.18
442.68	5650.05
442.87	5493.24
443.05	5731.97
443.24	5741.33
443.43	5600.90
443.61	5530.69
443.80	5820.91
443.98	5572.82
444.17	5481.53
444.35	5701.54
444.54	5738.99
444.73	5687.50
444.91	5806.87
445.10	5734.31
445.28	5724.95
445.47	5668.78
445.65	5727.29
445.84	5795.17
446.02	5706.23
446.21	5783.46
446.39	5774.10
446.58	5832.62
446.77	5806.87
446.95	5675.80
447.14	5856.02
447.32	5851.34
447.51	5935.60
447.69	5891.13
447.88	5778.78
448.06	5949.64
448.25	5951.98
448.43	5781.12
448.62	5926.24
448.80	5858.36
448.99	6066.67
449.17	6090.07
449.36	5951.98
449.54	6087.73
449.73	6132.20
449.91	6253.91
450.10	6307.74
450.28	6321.79
450.46	6167.31
450.65	6244.55
450.83	6321.79
451.02	6312.42
451.20	6509.03
451.39	6436.47
451.57	6373.28
451.76	6181.35
451.94	6345.19
452.13	6462.22
452.31	6420.09
452.49	6354.55
452.68	6413.07
452.86	6284.34
453.05	6621.38
453.23	6567.54
453.42	6427.11
453.60	6492.65
453.78	6502.01
453.97	6654.14
454.15	6544.14
454.34	6602.65
454.52	6677.55
454.70	6707.98
454.89	6817.98
455.07	6698.61
455.26	6693.93
455.44	6902.24
455.62	6869.47
455.81	6965.43
455.99	7035.65
456.17	6942.03
456.36	6899.90
456.54	7012.24
456.73	6984.16
456.91	7157.36
457.09	7126.93
457.28	7272.04
457.46	7084.80
457.64	7236.94
457.83	7337.58
458.01	7089.48
458.19	7389.07
458.38	7190.13
458.56	7227.57
458.74	7447.58
458.93	7428.86
459.11	7389.07
459.29	7297.79
459.48	7527.16
459.66	7391.41
459.84	7503.76
460.03	7538.87
460.21	7599.72
460.39	7606.74
460.57	7534.18
460.76	7648.87
460.94	7648.87
461.12	7669.94
461.31	7625.47
461.49	7686.32
461.67	7611.42
461.85	7824.41
462.04	7545.89
462.22	8308.90
462.40	7796.32
462.59	7964.84
462.77	7843.14
462.95	7943.78
463.13	7903.99
463.32	7803.35
463.50	8039.74
463.68	8056.12
463.86	7971.86
464.05	8044.42
464.23	7803.35
464.41	8072.51
464.59	7967.18
464.78	8102.93
464.96	8088.89
465.14	8116.98
465.32	8273.79
465.50	8290.18
465.69	8318.26
465.87	8182.51
466.05	8184.85
466.23	8142.72
466.41	8353.37
466.60	8554.66
466.78	8290.18
466.96	8280.82
467.14	8365.07
467.32	8498.49
467.51	8250.39
467.69	8109.96
467.87	8542.96
468.05	8685.73
468.23	8472.74
468.41	8442.31
468.60	8489.12
468.78	8521.89
468.96	8533.59
469.14	8613.17
469.32	8889.35
469.50	8388.48
469.69	8695.09
469.87	8760.63
470.05	8985.32
470.23	8772.33
470.41	9071.92
470.59	8959.57
470.77	8823.82
470.95	8980.64
471.14	9060.21
471.32	8872.97
471.50	9193.62
471.68	9240.44
471.86	9249.80
472.04	9186.60
472.22	9423.00
472.40	9174.90
472.58	9315.33
472.77	9315.33
472.95	9600.88
473.13	9598.54
473.31	9317.67
473.49	9275.54
473.67	9509.60
473.85	9741.31
474.03	9757.69
474.21	9996.43
474.39	9813.87
474.57	9703.86
474.75	9961.32
474.93	10164.95
475.12	10111.11
475.30	10228.14
475.48	10050.26
475.66	10162.61
475.84	10171.97
476.02	10354.53
476.20	10113.45
476.38	10553.48
476.56	10619.01
476.74	10569.86
476.92	10422.41
477.10	10619.01
477.28	10892.85
477.46	10822.64
477.64	11042.65
477.82	10939.66
478.00	11225.21
478.18	11372.66
478.36	11204.14
478.54	11375.00
478.72	11616.08
478.90	11819.71
479.08	11726.08
479.26	11740.13
479.44	11786.94
479.62	11861.84
479.80	12072.48
479.98	12079.50
480.16	12241.00
480.34	12290.15
480.52	12421.22
480.70	12468.03
480.88	12053.76
481.06	12243.34
481.24	12360.37
481.41	12533.57
481.59	13025.08
481.77	13067.21
481.95	12947.84
482.13	12947.84
482.31	12978.27
482.49	13537.66
482.67	13394.89
482.85	13355.10
483.03	13275.52
483.21	13804.48
483.39	13736.60
483.57	13888.74
483.74	13886.40
483.92	14059.60
484.10	13989.38
484.28	14480.89
484.46	14633.03
484.64	14738.35
484.82	14370.89
485.00	14693.88
485.18	15103.48
485.35	15112.84
485.53	14839.00
485.71	14719.63
485.89	15002.83
486.07	15051.99
486.25	14892.83
486.43	15410.09
486.61	15721.38
486.78	15805.64
486.96	15484.98
487.14	16042.03
487.32	15920.32
487.50	16327.58
487.68	16453.97
487.85	16645.89
488.03	16793.34
488.21	16863.56
488.39	16975.91
488.57	17064.85
488.75	17500.19
488.92	17579.76
489.10	17277.83
489.28	17610.19
489.46	17647.64
489.64	17886.37
489.81	17774.03
489.99	18260.86
490.17	18405.97
490.35	18513.64
490.53	18312.35
490.70	18801.52
490.88	18609.60
491.06	19012.17
491.24	18937.27
491.41	18878.76
491.59	19054.30
491.77	19077.71
491.95	19281.33
492.13	19213.46
492.30	19463.90
492.48	19854.76
492.66	19798.59
492.84	20034.99
493.01	19873.49
493.19	20250.32
493.37	20580.33
493.54	20432.88
493.72	20353.30
493.90	20442.24
494.08	20713.74
494.25	20900.98
494.43	20917.37
494.61	20900.98
494.79	21160.78
494.96	21043.76
495.14	21359.73
495.32	21530.59
495.49	21715.49
495.67	21631.23
495.85	21614.85
496.02	22160.19
496.20	21968.27
496.38	21830.18
496.55	21977.63
496.73	22778.09
496.91	22427.01
497.09	22602.55
497.26	22817.88
497.44	22705.54
497.62	23178.33
497.79	23103.43
497.97	22948.95
498.14	23447.49
498.32	23381.95
498.50	23541.11
498.67	23293.01
498.85	23939.00
499.03	23782.18
499.20	23702.61
499.38	23798.57
499.56	24030.28
499.73	23929.64
499.91	24318.17
500.08	24095.82
500.26	24231.57
500.44	24421.15
500.61	24409.45
500.79	24542.86
500.97	24491.37
501.14	24545.20
501.32	24795.64
501.49	25064.80
501.67	24996.92
501.84	25219.27
502.02	25104.59
502.20	25305.87
502.37	25781.00
502.55	25338.64
502.72	25310.55
502.90	25486.09
503.07	25661.63
503.25	25542.27
503.43	25628.87
503.60	26096.97
503.78	25972.92
503.95	25858.24
504.13	26412.95
504.30	26382.52
504.48	26253.79
504.65	26918.50
504.83	26555.72
505.01	26869.35
505.18	26684.45
505.36	26787.43
505.53	26962.97
505.71	26890.41
505.88	27002.76
506.06	26841.26
506.23	27122.13
506.41	27246.18
506.58	27351.50
506.76	27491.93
506.93	27751.73
507.11	27428.74
507.28	27536.40
507.46	27414.69
507.63	27634.71
507.81	28161.33
507.98	27852.38
508.16	27878.12
508.33	28063.02
508.50	28037.28
508.68	28245.58
508.85	28091.11
509.03	28762.84
509.20	28589.64
509.38	28390.70
509.55	28739.44
509.73	28802.63
509.90	28884.55
510.08	28868.17
510.25	28833.06
510.42	28950.09
510.60	29252.02
510.77	28952.43
510.95	29532.88
511.12	29184.14
511.30	29329.25
511.47	29935.45
511.64	29682.67
511.82	29942.47
511.99	29738.85
512.17	29764.59
512.34	29610.12
512.51	30270.15
512.69	30000.99
512.86	30099.29
513.04	30167.16
513.21	30558.03
513.38	30354.41
513.56	30881.03
513.73	30389.52
513.90	30810.81
514.08	30520.59
514.25	30707.83
514.43	30459.73
514.60	31005.08
514.77	30644.63
514.95	31065.93
515.12	31042.53
515.29	31255.51
515.47	31435.74
515.64	31548.08
515.81	31363.18
515.99	30787.41
516.16	31550.42
516.33	31255.51
516.51	31772.77
516.68	31662.77
516.85	31108.06
517.03	31529.36
517.20	31749.37
517.37	31646.38
517.54	31974.06
517.72	31981.08
517.89	31831.29
518.06	31718.94
518.24	32109.81
518.41	31971.72
518.58	32400.04
518.75	32165.98
518.93	32840.06
519.10	32215.13
519.27	32659.84
519.45	32196.41
519.62	33200.50
519.79	32847.08
519.96	33013.26
520.14	33312.84
520.31	32879.85
520.48	33137.30
520.65	33322.21
520.83	33102.20
521.00	33668.61
521.17	33530.51
521.34	33474.34
521.52	33907.34
521.69	33518.81
521.86	33855.85
522.03	33748.18
522.20	33902.66
522.38	34068.84
522.55	34445.66
522.72	33916.70
522.89	33830.10
523.07	34120.33
523.24	33787.97
523.41	34518.22
523.58	34625.89
523.75	34637.59
523.92	34576.73
524.10	34684.40
524.27	34768.66
524.44	34799.08
524.61	34597.80
524.78	35166.55
524.96	35449.75
525.13	34883.34
525.30	35164.21
525.47	35131.44
525.64	35140.80
525.81	35424.01
525.98	35150.17
526.16	35201.66
526.33	34873.98
526.50	35814.88
526.67	34998.03
526.84	35255.49
527.01	35239.11
527.18	35264.85
527.36	35606.57
527.53	35590.19
527.70	35983.40
527.87	35903.82
528.04	35992.76
528.21	35880.41
528.38	36320.43
528.55	36297.03
528.72	36313.41
528.89	36605.98
529.07	36252.56
529.24	35688.49
529.41	35992.76
529.58	36243.20
529.75	36385.97
529.92	36723.01
530.09	36481.93
530.26	36545.12
530.43	36479.59
530.60	36411.71
530.77	36727.69
530.94	36449.16
531.11	36390.65
531.28	36622.36
531.46	36849.39
531.63	37053.02
531.80	37055.36
531.97	36828.33
532.14	36547.47
532.31	36830.67
532.48	37083.45
532.65	37338.57
532.82	37593.68
532.99	37340.91
533.16	36809.61
533.33	37460.27
533.50	37668.58
533.67	37680.28
533.84	36715.98
534.01	37603.05
534.18	37869.87
534.35	37912.00
534.52	37743.48
534.69	37837.10
534.86	37778.59
535.03	37750.50
535.20	37830.08
535.37	38141.37
535.54	38380.10
535.71	38356.70
535.88	38440.96
536.05	38183.50
536.22	38155.41
536.38	38085.20
536.55	37874.55
536.72	38419.89
536.89	38232.65
537.06	37851.14
537.23	38291.16
537.40	38328.61
537.57	38436.28
537.74	38494.79
537.91	38892.68
538.08	38609.48
538.25	38639.90
538.42	38637.56
538.59	39206.31
538.75	38740.55
538.92	39005.03
539.09	39321.00
539.26	39054.18
539.43	39084.61
539.60	39035.45
539.77	38731.18
539.94	39171.21
540.11	39431.01
540.28	38895.02
540.44	39206.31
540.61	39192.27
540.78	38890.34
540.95	39215.68
541.12	39016.73
541.29	39082.27
541.46	39632.29
541.62	39541.01
541.79	39763.36
541.96	39267.17
542.13	39538.67
542.30	39847.62
542.47	39732.93
542.63	39580.80
542.80	39356.11
542.97	40243.17
543.14	40495.95
543.31	40044.23
543.48	40147.21
543.64	40802.56
543.81	40350.84
543.98	40084.01
544.15	40715.96
544.32	40788.52
544.48	40718.30
544.65	40360.20
544.82	40306.37
544.99	40060.61
545.16	40648.08
545.32	40580.21
545.49	40823.62
545.66	40673.83
545.83	40697.24
546.00	40975.76
546.16	41078.74
546.33	40767.45
546.50	40620.00
546.67	41228.54
546.83	40425.73
547.00	40751.07
547.17	40935.97
547.34	40744.05
547.50	40727.66
547.67	41055.34
547.84	41127.89
548.00	40870.43
548.17	41254.28
548.34	41535.15
548.51	41596.00
548.67	41207.47
548.84	41385.35
549.01	41265.99
549.18	41319.82
549.34	41778.56
549.51	41797.29
549.68	41418.12
549.84	41816.01
550.01	41493.02
550.18	41411.10
550.34	41514.08
550.51	41104.49
550.68	41305.77
550.84	41549.19
551.01	41734.09
551.18	41652.17
551.34	41656.85
551.51	41930.70
551.68	41888.57
551.84	42117.94
552.01	41876.86
552.18	42389.44
552.34	41750.48
552.51	42164.75
552.68	42258.37
552.84	41991.55
553.01	42586.05
553.18	42071.13
553.34	41902.61
553.51	42216.24
553.67	41968.15
553.84	42607.11
554.01	42878.61
554.17	42546.26
554.34	42820.10
554.51	42733.50
554.67	42307.52
554.84	42408.17
555.00	42766.27
555.17	42024.32
555.33	42066.45
555.50	42705.41
555.67	42792.01
555.83	42684.35
556.00	42679.67
556.16	43138.41
556.33	42930.11
556.50	42979.26
556.66	42721.80
556.83	42401.14
556.99	42660.94
557.16	42972.24
557.32	43346.72
557.49	42983.94
557.65	42534.56
557.82	42768.61
557.98	42766.27
558.15	43328.00
558.32	43122.03
558.48	43124.37
558.65	43063.52
558.81	42667.97
558.98	43131.39
559.14	43510.56
559.31	43042.45
559.47	43241.40
559.64	43164.16
559.80	43035.43
559.97	43129.05
560.13	42864.57
560.30	43030.75
560.46	43129.05
560.63	43124.37
560.79	43281.19
560.96	43533.96
561.12	43498.86
561.29	43342.04
561.45	43442.68
561.61	43323.32
561.78	43538.65
561.94	43129.05
562.11	43381.83
562.27	43388.85
562.44	43381.83
562.60	43440.34
562.77	43892.07
562.93	43480.13
563.10	43833.55
563.26	43313.95
563.42	43381.83
563.59	43335.02
563.75	43379.49
563.92	43847.60
564.08	43531.62
564.24	43863.98
564.41	43765.68
564.57	43969.30
564.74	43856.96
564.90	43702.48
565.07	43924.83
565.23	44023.14
565.39	43842.92
565.56	43620.56
565.72	43416.94
565.88	43742.27
566.05	43653.33
566.21	43695.46
566.38	43711.84
566.54	43704.82
566.70	44016.11
566.87	44423.37
567.03	44119.10
567.19	43941.22
567.36	43882.70
567.52	43725.89
567.68	44072.29
567.85	43803.13
568.01	44149.53
568.17	43768.02
568.34	44091.01
568.50	43854.62
568.66	44495.92
568.83	44257.19
568.99	43803.13
569.15	43782.06
569.32	44126.12
569.48	43632.27
569.64	43852.28
569.81	44114.42
569.97	44083.99
570.13	44062.93
570.30	43978.67
570.46	43636.95
570.62	43803.13
570.78	44053.56
570.95	44245.49
571.11	44140.16
571.27	44308.68
571.43	44107.40
571.60	44072.29
571.76	44201.02
571.92	43608.86
572.09	44016.11
572.25	44367.20
572.41	44509.97
572.57	43992.71
572.74	44762.75
572.90	44158.89
573.06	44161.23
573.22	43973.98
573.38	43821.85
573.55	44067.61
573.71	44584.86
573.87	44091.01
574.03	43627.59
574.20	43976.33
574.36	43931.86
574.52	44430.39
574.68	44254.85
574.84	44184.63
575.01	43931.86
575.17	44196.34
575.33	44126.12
575.49	44320.38
575.65	44687.85
575.82	44875.09
575.98	44334.43
576.14	44463.16
576.30	44460.82
576.46	44360.17
576.62	44179.95
576.79	44009.09
576.95	44069.95
577.11	44350.81
577.27	44367.20
577.43	44163.57
577.59	44088.67
577.75	44470.18
577.92	43812.49
578.08	43962.28
578.24	43910.79
578.40	44683.17
578.56	44177.61
578.72	44671.46
578.88	44502.95
579.04	44741.68
579.21	44217.40
579.37	44360.17
579.53	44048.88
579.69	44205.70
579.85	44154.21
580.01	44378.90
580.17	44486.56
580.33	44666.78
580.49	44760.40
580.65	44694.87
580.82	44697.21
580.98	44170.59
581.14	44107.40
581.30	44650.40
581.46	44306.34
581.62	44608.27
581.78	44746.36
581.94	44774.45
582.10	44350.81
582.26	44378.90
582.42	44416.35
582.58	44402.30
582.74	44865.73
582.90	44320.38
583.06	44589.55
583.22	44266.55
583.38	44701.89
583.54	44538.05
583.70	44460.82
583.86	44357.83
584.02	44055.90
584.18	44669.12
584.34	44549.76
584.50	44561.46
584.66	44486.56
584.82	44100.37
584.98	45083.40
585.14	44238.47
585.30	44914.88
585.46	44018.46
585.62	44236.12
585.78	44343.79
585.94	44011.43
586.10	44320.38
586.26	44559.12
586.42	44325.07
586.58	44903.18
586.74	44655.08
586.90	44683.17
587.06	44130.80
587.22	44926.58
587.38	44671.46
587.54	44858.71
587.70	44507.63
587.86	44896.16
588.02	44477.20
588.18	44737.00
588.34	44701.89
588.49	44744.02
588.65	44285.28
588.81	44119.10
588.97	44491.24
589.13	44186.97
589.29	44425.71
589.45	44409.32
589.61	44713.59
589.77	45104.46
589.93	44711.25
590.08	44832.96
590.24	44795.51
590.40	44945.31
