SpectraSuite Data File
++++++++++++++++++++++++++++++++++++
Date: Fri Oct 25 11:26:01 EDT 2013
User: price-jones
Dark Spectrum Present: No
Reference Spectrum Present: No
Number of Sampled Component Spectra: 1
Spectrometers: USB2+H05261
Integration Time (usec): 100000 (USB2+H05261)
Spectra Averaged: 1 (USB2+H05261)
Boxcar Smoothing: 0 (USB2+H05261)
Correct for Electrical Dark: No (USB2+H05261)
Strobe/Lamp Enabled: No (USB2+H05261)
Correct for Detector Non-linearity: No (USB2+H05261)
Correct for Stray Light: No (USB2+H05261)
Number of Pixels in Processed Spectrum: 2048
>>>>>Begin Processed Spectral Data<<<<<
365.73	264.48
365.92	264.48
366.12	264.48
366.32	180.22
366.52	156.82
366.72	161.50
366.91	147.45
367.11	77.24
367.31	138.09
367.51	152.13
367.70	142.77
367.90	95.96
368.10	131.07
368.30	149.79
368.49	133.41
368.69	170.86
368.89	168.52
369.09	147.45
369.28	173.20
369.48	189.58
369.68	210.65
369.87	182.56
370.07	128.73
370.27	224.69
370.47	435.34
370.66	613.22
370.86	615.56
371.06	634.29
371.25	664.71
371.45	685.78
371.65	678.76
371.84	655.35
372.04	692.80
372.24	727.91
372.44	720.88
372.63	753.65
372.83	744.29
373.03	732.59
373.22	793.44
373.42	751.31
373.62	732.59
373.81	718.54
374.01	882.38
374.21	784.08
374.40	847.27
374.60	816.85
374.79	800.46
374.99	770.04
375.19	819.19
375.38	835.57
375.58	842.59
375.78	828.55
375.97	908.13
376.17	943.24
376.37	793.44
376.56	849.61
376.76	866.00
376.95	858.98
377.15	875.36
377.35	870.68
377.54	891.74
377.74	800.46
377.93	894.08
378.13	875.36
378.33	990.05
378.52	889.40
378.72	912.81
378.91	954.94
379.11	1025.15
379.31	966.64
379.50	1039.20
379.70	1008.77
379.89	968.98
380.09	926.85
380.28	940.90
380.48	987.71
380.68	976.00
380.87	999.41
381.07	985.37
381.26	976.00
381.46	1088.35
381.65	1008.77
381.85	1008.77
382.04	1107.07
382.24	1100.05
382.43	1057.92
382.63	1013.45
382.83	990.05
383.02	1083.67
383.22	1121.12
383.41	1097.71
383.61	1053.24
383.80	1184.31
384.00	1158.57
384.19	1135.16
384.39	1125.80
384.58	1137.50
384.78	1191.33
384.97	1149.20
385.17	1149.20
385.36	1135.16
385.56	1121.12
385.75	1100.05
385.95	1203.04
386.14	1231.12
386.34	1144.52
386.53	1245.16
386.72	1233.46
386.92	1270.91
387.11	1317.72
387.31	1256.87
387.50	1313.04
387.70	1266.23
387.89	1221.76
388.09	1329.42
388.28	1303.68
388.48	1263.89
388.67	1294.32
388.86	1392.62
389.06	1306.02
389.25	1263.89
389.45	1345.81
389.64	1385.60
389.84	1352.83
390.03	1437.09
390.22	1432.41
390.42	1411.34
390.61	1362.19
390.81	1444.11
391.00	1467.52
391.19	1474.54
391.39	1383.26
391.58	1453.47
391.78	1430.07
391.97	1603.27
392.16	1504.96
392.36	1448.79
392.55	1603.27
392.75	1465.18
392.94	1537.73
393.13	1516.67
393.33	1568.16
393.52	1612.63
393.71	1565.82
393.91	1570.50
394.10	1636.03
394.29	1621.99
394.49	1640.72
394.68	1692.21
394.88	1636.03
395.07	1626.67
395.26	1671.14
395.46	1645.40
395.65	1720.29
395.84	1619.65
396.04	1706.25
396.23	1701.57
396.42	1699.23
396.62	1792.85
396.81	1706.25
397.00	1783.49
397.19	1785.83
397.39	1788.17
397.58	1846.68
397.77	1792.85
397.97	1956.69
398.16	1839.66
398.35	1877.11
398.55	1877.11
398.74	1921.58
398.93	1994.14
399.12	1994.14
399.32	1853.70
399.51	1933.28
399.70	1970.73
399.90	1984.77
400.09	2008.18
400.28	1966.05
400.47	2001.16
400.67	2038.61
400.86	2033.93
401.05	2106.48
401.24	2162.66
401.44	2120.53
401.63	2167.34
401.82	2125.21
402.01	2162.66
402.21	2115.84
402.40	2204.78
402.59	2195.42
402.78	2246.91
402.97	2249.25
403.17	2251.60
403.36	2221.17
403.55	2275.00
403.74	2338.20
403.93	2310.11
404.13	2310.11
404.32	2342.88
404.51	2387.35
404.70	2485.65
404.89	2277.34
405.09	2546.50
405.28	2497.35
405.47	2434.16
405.66	2607.36
405.85	2532.46
406.05	2647.15
406.24	2499.69
406.43	2541.82
406.62	2682.25
406.81	2705.66
407.00	2576.93
407.20	2619.06
407.39	2546.50
407.58	2712.68
407.77	2773.53
407.96	2752.47
408.15	2832.05
408.34	2651.83
408.54	2717.36
408.73	2782.90
408.92	2827.37
409.11	2960.78
409.30	2892.90
409.49	2904.60
409.68	2841.41
409.87	2909.29
410.07	3073.12
410.26	3084.83
410.45	2991.20
410.64	2979.50
410.83	2972.48
411.02	3117.59
411.21	3222.92
411.40	3236.96
411.59	3260.37
411.78	3180.79
411.98	3141.00
412.17	3225.26
412.36	3290.79
412.55	3365.69
412.74	3421.86
412.93	3335.26
413.12	3328.24
413.31	3499.10
413.50	3538.89
413.69	3435.91
413.88	3590.38
414.07	3510.80
414.26	3651.24
414.45	3674.64
414.64	3637.19
414.83	3791.67
415.02	3714.43
415.22	3871.25
415.41	3789.33
415.60	3896.99
415.79	3831.46
415.98	3964.87
416.17	3901.67
416.36	3796.35
416.55	3932.10
416.74	4079.55
416.93	3971.89
417.12	3946.14
417.31	4147.43
417.50	4262.12
417.69	4217.65
417.88	4297.22
418.07	4219.99
418.26	4210.62
418.45	4245.73
418.64	4423.61
418.83	4367.44
419.02	4353.40
419.21	4400.21
419.39	4491.49
419.58	4498.51
419.77	4514.89
419.96	4470.42
420.15	4772.35
420.34	4631.92
420.53	4683.41
420.72	4746.61
420.91	4681.07
421.10	4770.01
421.29	4655.33
421.48	4606.17
421.67	4774.69
421.86	4695.11
422.05	4711.50
422.24	4781.71
422.43	4842.57
422.61	4968.96
422.80	4980.66
422.99	4975.98
423.18	4880.02
423.37	4924.49
423.56	4901.08
423.75	4858.95
423.94	4924.49
424.13	4559.36
424.32	4802.78
424.50	5069.60
424.69	5118.75
424.88	5076.62
425.07	4994.70
425.26	4973.64
425.45	4936.19
425.64	4980.66
425.83	5011.09
426.01	5104.71
426.20	5027.47
426.39	5085.98
426.58	5039.17
426.77	5008.75
426.96	5064.92
427.15	5224.08
427.33	5158.54
427.52	5074.28
427.71	5355.15
427.90	5081.30
428.09	5331.74
428.28	5266.21
428.46	5495.58
428.65	5359.83
428.84	5563.45
429.03	5607.92
429.22	5369.19
429.40	5624.31
429.59	5462.81
429.78	5460.47
429.97	5287.27
430.16	5343.44
430.34	5558.77
430.53	5664.10
430.72	5706.23
430.91	5554.09
431.10	5675.80
431.28	5619.63
431.47	5769.42
431.66	5933.26
431.85	5820.91
432.03	5975.39
432.22	5959.00
432.41	5954.32
432.60	5893.47
432.79	5987.09
432.97	6008.16
433.16	6010.50
433.35	5764.74
433.54	5923.90
433.72	6190.72
433.91	5982.41
434.10	6183.70
434.28	6300.72
434.47	6284.34
434.66	6214.12
434.85	6314.77
435.03	6324.13
435.22	6300.72
435.41	6296.04
435.59	6359.24
435.78	6499.67
435.97	6574.56
436.16	6415.41
436.34	6317.11
436.53	6476.26
436.72	6738.40
436.90	6469.24
437.09	6658.82
437.28	6459.88
437.46	6574.56
437.65	6541.80
437.84	6675.21
438.02	6691.59
438.21	6778.19
438.40	6785.21
438.58	6951.39
438.77	7052.03
438.96	7037.99
439.14	7157.36
439.33	7138.63
439.52	7075.44
439.70	7269.70
439.89	7239.28
440.08	7316.51
440.26	7281.41
440.45	7410.14
440.63	7377.37
440.82	7623.12
441.01	7417.16
441.19	7789.30
441.38	7728.45
441.57	7597.38
441.75	7618.44
441.94	7847.82
442.12	7850.16
442.31	7854.84
442.50	7936.76
442.68	8056.12
442.87	8032.72
443.05	8088.89
443.24	8168.47
443.43	8084.21
443.61	8332.31
443.80	8407.20
443.98	7964.84
444.17	7803.35
444.35	8126.34
444.54	8379.12
444.73	8109.96
444.91	8294.86
445.10	8346.35
445.28	8341.67
445.47	8283.16
445.65	8201.24
445.84	8456.36
446.02	8329.97
446.21	8395.50
446.39	8269.11
446.58	8407.20
446.77	8346.35
446.95	8252.73
447.14	8432.95
447.32	8699.77
447.51	8500.83
447.69	8479.76
447.88	8540.61
448.06	8414.23
448.25	8404.86
448.43	8603.81
448.62	8437.63
448.80	8659.98
448.99	8554.66
449.17	8596.79
449.36	8587.43
449.54	8847.22
449.73	8898.72
449.91	8973.61
450.10	8926.80
450.28	9043.83
450.46	9048.51
450.65	9226.39
450.83	9177.24
451.02	9055.53
451.20	9100.00
451.39	9067.24
451.57	9200.65
451.76	9001.70
451.94	9114.05
452.13	9425.34
452.31	9184.26
452.49	9076.60
452.68	9263.84
452.86	9343.42
453.05	9453.42
453.23	9568.11
453.42	9303.63
453.60	9404.27
453.78	9493.21
453.97	9350.44
454.15	9535.34
454.34	9404.27
454.52	9652.37
454.70	9774.08
454.89	9694.50
455.07	9825.57
455.26	9778.76
455.44	9837.27
455.62	9783.44
455.81	9891.10
455.99	9982.38
456.17	10003.45
456.36	10057.28
456.54	10118.14
456.73	10162.61
456.91	10548.79
457.09	10417.72
457.28	10487.94
457.46	10305.38
457.64	10403.68
457.83	10602.63
458.01	10443.47
458.19	10640.08
458.38	10555.82
458.56	10771.15
458.74	10541.77
458.93	10736.04
459.11	10607.31
459.29	10600.29
459.48	10832.00
459.66	10864.77
459.84	10813.28
460.03	10958.39
460.21	10836.68
460.39	10967.75
460.57	10822.64
460.76	11030.94
460.94	11044.99
461.12	11206.48
461.31	11164.36
461.49	11082.44
461.67	11094.14
461.85	11351.60
462.04	11384.37
462.22	11976.52
462.40	11714.38
462.59	11644.17
462.77	11552.88
462.95	11676.93
463.13	11463.94
463.32	11602.04
463.50	11866.52
463.68	11796.30
463.86	11641.82
464.05	11637.14
464.23	11501.39
464.41	11815.02
464.59	11824.39
464.78	11999.93
464.96	11866.52
465.14	11838.43
465.32	11747.15
465.50	12011.63
465.69	12091.21
465.87	11946.09
466.05	11985.88
466.23	12161.42
466.41	12210.57
466.60	12589.74
466.78	11866.52
466.96	12138.02
467.14	12205.89
467.32	12461.01
467.51	12425.90
467.69	12093.55
467.87	12418.88
468.05	12510.16
468.23	12432.93
468.41	12259.73
468.60	12681.02
468.78	12624.85
468.96	12744.22
469.14	12786.35
469.32	12943.16
469.50	12716.13
469.69	12826.14
469.87	12879.97
470.05	13102.32
470.23	13153.81
470.41	13139.77
470.59	13167.85
470.77	13165.51
470.95	13373.82
471.14	13392.55
471.32	13092.96
471.50	13448.72
471.68	13479.15
471.86	13668.73
472.04	13802.14
472.22	14251.52
472.40	13589.15
472.58	13912.14
472.77	13996.40
472.95	14164.92
473.13	14445.79
473.31	13919.17
473.49	14090.02
473.67	14005.77
473.85	14307.69
474.03	14541.75
474.21	14794.53
474.39	14703.25
474.57	14445.79
474.75	14743.03
474.93	14972.41
475.12	14782.82
475.30	14904.53
475.48	14803.89
475.66	15187.74
475.84	15101.14
476.02	15536.48
476.20	15349.23
476.38	15735.42
476.56	15976.50
476.74	15896.92
476.92	15929.69
477.10	15707.34
477.28	15990.54
477.46	16112.25
477.64	16177.78
477.82	16559.29
478.00	16816.75
478.18	16737.17
478.36	16781.64
478.54	17018.04
478.72	17334.01
478.90	17263.79
479.08	17268.47
479.26	17685.09
479.44	17774.03
479.62	17757.64
479.80	17862.97
479.98	17919.14
480.16	18431.72
480.34	18253.84
480.52	18515.98
480.70	18752.37
480.88	18434.06
481.06	18623.64
481.24	18560.45
481.41	19026.21
481.59	19339.85
481.77	19311.76
481.95	19840.72
482.13	19597.31
482.31	19445.17
482.49	20011.58
482.67	20044.35
482.85	20533.52
483.03	20514.80
483.21	20915.03
483.39	20835.45
483.57	20641.18
483.74	21050.78
483.92	21418.24
484.10	21181.85
484.28	21603.14
484.46	22036.14
484.64	22265.52
484.82	21785.71
485.00	22434.03
485.18	22466.80
485.35	22618.94
485.53	22649.36
485.71	23154.92
485.89	23311.74
486.07	23042.57
486.25	23304.71
486.43	23410.04
486.61	23887.51
486.78	23805.59
486.96	24030.28
487.14	24439.87
487.32	24142.63
487.50	24975.86
487.68	25034.37
487.85	25170.12
488.03	25502.48
488.21	25900.37
488.39	25369.07
488.57	26043.14
488.75	26326.35
488.92	26284.22
489.10	26895.10
489.28	26501.89
489.46	26962.97
489.64	26864.67
489.81	27573.85
489.99	27527.04
490.17	27901.53
490.35	27929.61
490.53	28610.71
490.70	28224.52
490.88	28166.01
491.06	28671.56
491.24	28652.84
491.41	29167.76
491.59	29296.49
491.77	29614.80
491.95	29432.24
492.13	29589.05
492.30	29958.86
492.48	30008.01
492.66	30160.14
492.84	30682.08
493.01	31035.50
493.19	30389.52
493.37	30930.18
493.54	31115.08
493.72	31484.89
493.90	31431.05
494.08	31683.83
494.25	31852.35
494.43	31974.06
494.61	31988.10
494.79	32397.70
494.96	32294.71
495.14	32676.22
495.32	33195.82
495.49	33106.88
495.67	33422.85
495.85	33638.18
496.02	33694.35
496.20	34000.96
496.38	33914.36
496.55	34244.38
496.73	34684.40
496.91	34328.64
497.09	34576.73
497.26	34899.73
497.44	34934.84
497.62	34946.54
497.79	35967.01
497.97	35611.25
498.14	35784.45
498.32	35864.03
498.50	36091.06
498.67	36313.41
498.85	36341.50
499.03	36755.77
499.20	36510.02
499.38	36580.23
499.56	36933.65
499.73	36802.58
499.91	37371.33
500.08	37296.44
500.26	37228.56
500.44	37717.73
500.61	37586.66
500.79	37684.97
500.97	37886.25
501.14	38408.19
501.32	38623.52
501.49	38218.61
501.67	38403.51
501.84	38799.06
502.02	38588.41
502.20	38663.31
502.37	39253.12
502.55	39494.20
502.72	39756.34
502.90	39763.36
503.07	39494.20
503.25	39880.39
503.43	39480.16
503.60	40187.00
503.78	40002.10
503.95	40060.61
504.13	40198.70
504.30	40570.85
504.48	40346.15
504.65	40509.99
504.83	40570.85
505.01	41811.33
505.18	41340.88
505.36	41436.84
505.53	41305.77
505.71	41240.24
505.88	41532.81
506.06	41378.33
506.23	41778.56
506.41	42038.36
506.58	41911.97
506.76	42401.14
506.93	42529.87
507.11	42401.14
507.28	42869.25
507.46	42513.49
507.63	42754.57
507.81	43105.65
507.98	42684.35
508.16	42885.64
508.33	43061.18
508.50	43608.86
508.68	43894.41
508.85	43812.49
509.03	43660.35
509.20	44060.58
509.38	44186.97
509.55	44418.69
509.73	44442.09
509.90	44711.25
510.08	44451.45
510.25	44776.79
510.42	44460.82
510.60	45193.40
510.77	45188.72
510.95	45329.16
511.12	44982.76
511.30	45024.89
511.47	45427.46
511.64	45530.44
511.82	45411.07
511.99	45691.94
512.17	45820.67
512.34	46054.72
512.51	46227.92
512.69	46211.54
512.86	46485.38
513.04	46700.71
513.21	46452.61
513.38	46677.30
513.56	46550.91
513.73	46822.42
513.90	46927.74
514.08	46801.35
514.25	47227.33
514.43	47379.46
514.60	47133.71
514.77	47456.70
514.95	47423.93
515.12	47339.68
515.29	47592.45
515.47	47782.04
515.64	47948.21
515.81	47674.37
515.99	47791.40
516.16	48500.58
516.33	48107.37
516.51	48421.00
516.68	48332.06
516.85	48505.26
517.03	48521.65
517.20	48762.72
517.37	49003.80
517.54	49116.14
517.72	48633.99
517.89	49062.31
518.06	49066.99
518.24	49319.77
518.41	49343.17
518.58	49514.03
518.75	48947.62
518.93	49242.53
519.10	49366.58
519.27	49432.11
519.45	49918.95
519.62	49745.75
519.79	49940.01
519.96	49865.11
520.14	50286.41
520.31	50026.61
520.48	50160.02
520.65	50075.76
520.83	50326.20
521.00	50457.27
521.17	50473.65
521.34	50483.01
521.52	50756.86
521.69	50614.08
521.86	50960.48
522.03	50887.93
522.20	51276.46
522.38	51309.22
522.55	51398.16
522.72	51491.79
522.89	51210.92
523.07	51751.59
523.24	51419.23
523.41	51538.60
523.58	51562.00
523.75	51866.27
523.92	51559.66
524.10	51779.67
524.27	51803.08
524.44	52133.09
524.61	52004.36
524.78	51889.68
524.96	51824.14
525.13	52055.85
525.30	52334.38
525.47	52516.94
525.64	52460.77
525.81	52460.77
525.98	52556.73
526.16	52507.58
526.33	52750.99
526.50	53134.84
526.67	52383.53
526.84	52722.91
527.01	52622.26
527.18	52774.40
527.36	52910.15
527.53	53132.50
527.70	53233.14
527.87	53572.52
528.04	53127.82
528.21	53277.61
528.38	53301.02
528.55	53434.43
528.72	53223.78
528.89	53350.17
529.07	53282.30
529.24	53485.92
529.41	53530.39
529.58	53338.47
529.75	53750.40
529.92	53792.53
530.09	53787.85
530.26	53846.36
530.43	53986.80
530.60	53829.98
530.77	53553.80
530.94	53909.56
531.11	53829.98
531.28	54120.21
531.46	54115.53
531.63	54117.87
531.80	54372.99
531.97	54241.92
532.14	54482.99
532.31	54347.24
532.48	54473.63
532.65	54574.27
532.82	54623.42
532.99	54827.05
533.16	54475.97
533.33	54829.39
533.50	54649.17
533.67	54752.15
533.84	54490.01
534.01	54724.07
534.18	54803.64
534.35	54885.56
534.52	54843.43
534.69	55072.81
534.86	55419.20
535.03	55007.27
535.20	55103.23
535.37	55412.18
535.54	55304.52
535.71	55194.51
535.88	55599.43
536.05	55246.00
536.22	55557.30
536.38	55407.50
536.55	55309.20
536.72	55412.18
536.89	55337.29
537.06	55608.79
537.23	55863.91
537.40	55461.33
537.57	55669.64
537.74	55746.88
537.91	56060.51
538.08	56037.11
538.25	55945.83
538.42	55810.07
538.59	56207.97
538.75	55749.22
538.92	56051.15
539.09	56212.65
539.26	55997.32
539.43	55927.10
539.60	56133.07
539.77	56062.85
539.94	56406.91
540.11	56222.01
540.28	56320.31
540.44	56360.10
540.61	56638.62
540.78	56470.11
540.95	56182.22
541.12	56437.34
541.29	56301.59
541.46	56250.09
541.62	56746.29
541.79	56647.99
541.96	56360.10
542.13	56603.52
542.30	56573.09
542.47	57024.81
542.63	56762.67
542.80	56816.50
542.97	56690.12
543.14	57382.91
543.31	57162.90
543.48	56996.73
543.64	57249.50
543.81	57338.44
543.98	57113.75
544.15	57352.49
544.32	57483.56
544.48	57579.52
544.65	57216.74
544.82	57488.24
544.99	57188.65
545.16	57474.20
545.32	57368.87
545.49	57579.52
545.66	57708.25
545.83	57382.91
546.00	57633.35
546.16	57457.81
546.33	57581.86
546.50	57560.79
546.67	57785.49
546.83	57319.72
547.00	57715.27
547.17	57743.36
547.34	57612.29
547.50	57806.55
547.67	57752.72
547.84	57869.75
548.00	58141.25
548.17	58141.25
548.34	57893.15
548.51	58017.20
548.67	58202.10
548.84	57794.85
549.01	57848.68
549.18	58138.91
549.34	58110.82
549.51	58220.83
549.68	58253.59
549.84	58408.07
550.01	58319.13
550.18	58262.96
550.34	58440.84
550.51	58293.38
550.68	58351.90
550.84	58300.40
551.01	58527.44
551.18	58424.45
551.34	58436.16
551.51	58468.92
551.68	58555.52
551.84	58403.39
552.01	58330.83
552.18	58419.77
552.34	58473.60
552.51	58443.18
552.68	58534.46
552.84	58529.78
553.01	58686.59
553.18	58599.99
553.34	58714.68
553.51	58567.23
553.67	58478.28
553.84	58738.08
554.01	59056.40
554.17	58796.60
554.34	58866.81
554.51	58768.51
554.67	58901.92
554.84	58901.92
555.00	59063.42
555.17	58883.20
555.33	58820.00
555.50	58944.05
555.67	59002.56
555.83	58834.05
556.00	59180.45
556.16	59121.93
556.33	59063.42
556.50	59147.68
556.66	59334.92
556.83	59096.19
556.99	59372.37
557.16	59421.52
557.32	59648.55
557.49	59568.97
557.65	59320.88
557.82	59344.28
557.98	59309.18
558.15	59196.83
558.32	59306.83
558.48	59316.20
558.65	59480.03
558.81	59540.89
558.98	59475.35
559.14	59508.12
559.31	59707.07
559.47	59573.66
559.64	59583.02
559.80	59683.66
559.97	59817.07
560.13	59505.78
560.30	59568.97
560.46	59798.35
560.63	59716.43
560.79	59805.37
560.96	59746.86
561.12	59866.22
561.29	59730.47
561.45	59833.46
561.61	59758.56
561.78	59758.56
561.94	59660.26
562.11	59578.34
562.27	60011.34
562.44	59866.22
562.60	59945.80
562.77	59950.48
562.93	59849.84
563.10	59913.03
563.26	59758.56
563.42	60086.23
563.59	59917.71
563.75	59877.93
563.92	59786.64
564.08	59901.33
564.24	60072.19
564.41	60114.32
564.57	60238.37
564.74	60266.45
564.90	60055.81
565.07	60032.40
565.23	60053.47
565.39	59889.63
565.56	60231.35
565.72	60081.55
565.88	60058.15
566.05	59966.87
566.21	60119.00
566.38	60025.38
566.54	60280.50
566.70	60355.39
566.87	60404.55
567.03	60009.00
567.19	60329.65
567.36	60158.79
567.52	60397.52
567.68	60437.31
567.85	60374.12
568.01	60350.71
568.17	60060.49
568.34	60479.44
568.50	60341.35
568.66	60310.92
568.83	60556.68
568.99	60500.51
569.15	60395.18
569.32	60605.83
569.48	60147.09
569.64	60285.18
569.81	60395.18
569.97	60233.69
570.13	60451.36
570.30	60097.94
570.46	60355.39
570.62	60603.49
570.78	60577.75
570.95	60390.50
571.11	60570.72
571.27	60505.19
571.43	60446.68
571.60	60746.26
571.76	60591.79
571.92	60615.19
572.09	60566.04
572.25	60516.89
572.41	60523.91
572.57	60671.37
572.74	60676.05
572.90	60636.26
573.06	60552.00
573.22	60753.29
573.38	60463.06
573.55	60612.85
573.71	60669.03
573.87	60662.00
574.03	60636.26
574.20	60650.30
574.36	60580.09
574.52	60704.13
574.68	60622.22
574.84	60736.90
575.01	60729.88
575.17	60640.94
575.33	60512.21
575.49	60671.37
575.65	60568.38
575.82	60715.84
575.98	60603.49
576.14	61090.32
576.30	60767.33
576.46	60701.79
576.62	60732.22
576.79	60701.79
576.95	60666.69
577.11	60615.19
577.27	60662.00
577.43	60856.27
577.59	60568.38
577.75	60694.77
577.92	60657.32
578.08	60809.46
578.24	60713.50
578.40	61029.47
578.56	60797.76
578.72	60687.75
578.88	60949.89
579.04	61036.49
579.21	60804.78
579.37	60996.70
579.53	60912.44
579.69	60528.59
579.85	60722.86
580.01	60853.93
580.17	60720.52
580.33	60795.42
580.49	61045.85
580.65	60755.63
580.82	60907.76
580.98	60882.02
581.14	60748.60
581.30	60945.21
581.46	60912.44
581.62	60781.37
581.78	60692.43
581.94	60863.29
582.10	60870.31
582.26	60830.52
582.42	60757.97
582.58	60781.37
582.74	60793.07
582.90	60748.60
583.06	60786.05
583.22	60589.45
583.38	60903.08
583.54	60891.38
583.70	61010.74
583.86	61048.19
584.02	60685.41
584.18	61158.20
584.34	60882.02
584.50	60987.34
584.66	60851.59
584.82	60743.92
584.98	60980.32
585.14	61006.06
585.30	60945.21
585.46	61169.90
585.62	61006.06
585.78	61130.11
585.94	60844.57
586.10	60956.91
586.26	61113.73
586.42	61071.60
586.58	61165.22
586.74	61087.98
586.90	60987.34
587.06	61038.83
587.22	61242.46
587.38	60858.61
587.54	61258.84
587.70	61240.12
587.86	61139.47
588.02	60928.83
588.18	61041.17
588.34	61050.53
588.49	60947.55
