SpectraSuite Data File
++++++++++++++++++++++++++++++++++++
Date: Fri Oct 25 11:26:30 EDT 2013
User: price-jones
Dark Spectrum Present: No
Reference Spectrum Present: No
Number of Sampled Component Spectra: 1
Spectrometers: USB2+H05261
Integration Time (usec): 100000 (USB2+H05261)
Spectra Averaged: 1 (USB2+H05261)
Boxcar Smoothing: 0 (USB2+H05261)
Correct for Electrical Dark: No (USB2+H05261)
Strobe/Lamp Enabled: No (USB2+H05261)
Correct for Detector Non-linearity: No (USB2+H05261)
Correct for Stray Light: No (USB2+H05261)
Number of Pixels in Processed Spectrum: 2048
>>>>>Begin Processed Spectral Data<<<<<
365.73	252.78
365.92	252.78
366.12	252.78
366.32	166.18
366.52	259.80
366.72	84.26
366.91	175.54
367.11	140.43
367.31	163.84
367.51	187.24
367.70	126.39
367.90	189.58
368.10	194.26
368.30	222.35
368.49	149.79
368.69	252.78
368.89	112.35
369.09	180.22
369.28	166.18
369.48	156.82
369.68	163.84
369.87	217.67
370.07	245.76
370.27	278.52
370.47	320.65
370.66	564.07
370.86	615.56
371.06	650.67
371.25	657.69
371.45	688.12
371.65	704.50
371.84	683.44
372.04	709.18
372.24	755.99
372.44	741.95
372.63	704.50
372.83	737.27
373.03	734.93
373.22	788.76
373.42	744.29
373.62	795.78
373.81	807.48
374.01	760.67
374.21	753.65
374.40	772.38
374.60	795.78
374.79	837.91
374.99	847.27
375.19	861.32
375.38	821.53
375.58	772.38
375.78	844.93
375.97	858.98
376.17	968.98
376.37	870.68
376.56	781.74
376.76	870.68
376.95	854.30
377.15	929.19
377.35	772.38
377.54	999.41
377.74	866.00
377.93	917.49
378.13	858.98
378.33	917.49
378.52	910.47
378.72	882.38
378.91	933.87
379.11	978.34
379.31	931.53
379.50	976.00
379.70	915.15
379.89	1004.09
380.09	999.41
380.28	954.94
380.48	873.02
380.68	924.51
380.87	954.94
381.07	994.73
381.26	1069.62
381.46	1041.54
381.65	1029.84
381.85	1027.50
382.04	1057.92
382.24	1123.46
382.43	1015.79
382.63	1074.31
382.83	1069.62
383.02	1048.56
383.22	1144.52
383.41	1071.97
383.61	1118.78
383.80	1238.14
384.00	1109.41
384.19	1174.95
384.39	1128.14
384.58	1100.05
384.78	1093.03
384.97	1184.31
385.17	1144.52
385.36	1128.14
385.56	1217.08
385.75	1163.25
385.95	1088.35
386.14	1196.01
386.34	1179.63
386.53	1210.06
386.72	1266.23
386.92	1280.27
387.11	1270.91
387.31	1198.35
387.50	1191.33
387.70	1287.29
387.89	1345.81
388.09	1310.70
388.28	1174.95
388.48	1284.95
388.67	1306.02
388.86	1306.02
389.06	1294.32
389.25	1434.75
389.45	1355.17
389.64	1289.64
389.84	1331.76
390.03	1418.36
390.22	1359.85
390.42	1350.49
390.61	1465.18
390.81	1432.41
391.00	1418.36
391.19	1462.83
391.39	1413.68
391.58	1462.83
391.78	1416.02
391.97	1458.15
392.16	1455.81
392.36	1497.94
392.55	1460.49
392.75	1458.15
392.94	1549.43
393.13	1526.03
393.33	1420.71
393.52	1547.09
393.71	1558.80
393.91	1565.82
394.10	1516.67
394.29	1516.67
394.49	1521.35
394.68	1596.25
394.88	1689.87
395.07	1689.87
395.26	1603.27
395.46	1617.31
395.65	1678.16
395.84	1666.46
396.04	1802.21
396.23	1680.50
396.42	1724.97
396.62	1717.95
396.81	1708.59
397.00	1764.76
397.19	1743.70
397.39	1834.98
397.58	1795.19
397.77	1802.21
397.97	1757.74
398.16	1757.74
398.35	1865.41
398.55	1827.96
398.74	1909.88
398.93	1895.83
399.12	1928.60
399.32	1940.30
399.51	1858.39
399.70	2052.65
399.90	2052.65
400.09	1926.26
400.28	2059.67
400.47	1942.64
400.67	2139.25
400.86	2043.29
401.05	2052.65
401.24	2143.93
401.44	2015.20
401.63	2160.31
401.82	2172.02
402.01	2118.18
402.21	2230.53
402.40	2139.25
402.59	2132.23
402.78	2190.74
402.97	2200.10
403.17	2246.91
403.36	2169.68
403.55	2455.22
403.74	2310.11
403.93	2333.51
404.13	2361.60
404.32	2349.90
404.51	2230.53
404.70	2387.35
404.89	2349.90
405.09	2431.82
405.28	2532.46
405.47	2424.80
405.66	2438.84
405.85	2626.08
406.05	2417.77
406.24	2579.27
406.43	2581.61
406.62	2518.42
406.81	2586.29
407.00	2633.10
407.20	2562.89
407.39	2630.76
407.58	2698.64
407.77	2782.90
407.96	2691.62
408.15	2705.66
408.34	2743.11
408.54	2874.18
408.73	2705.66
408.92	2869.50
409.11	2775.88
409.30	2862.48
409.49	2876.52
409.68	2871.84
409.87	2944.39
410.07	2988.86
410.26	2923.33
410.45	2995.89
410.64	3014.61
410.83	3042.70
411.02	3141.00
411.21	3087.17
411.40	3105.89
411.59	3332.92
411.78	3136.32
411.98	3185.47
412.17	3150.36
412.36	3255.69
412.55	3314.20
412.74	3386.76
412.93	3269.73
413.12	3349.31
413.31	3492.08
413.50	3445.27
413.69	3417.18
413.88	3747.20
414.07	3604.42
414.26	3644.21
414.45	3602.08
414.64	3665.28
414.83	3651.24
415.02	3838.48
415.22	3798.69
415.41	3939.12
415.60	3815.07
415.79	3896.99
415.98	3983.59
416.17	3925.08
416.36	3892.31
416.55	4018.70
416.74	4007.00
416.93	4147.43
417.12	3992.95
417.31	4156.79
417.50	4051.47
417.69	4210.62
417.88	4159.13
418.07	4390.84
418.26	4219.99
418.45	4255.09
418.64	4533.62
418.83	4397.87
419.02	4428.29
419.21	4498.51
419.39	4496.17
419.58	4510.21
419.77	4430.63
419.96	4542.98
420.15	4627.24
420.34	4500.85
420.53	4650.64
420.72	4575.75
420.91	4699.80
421.10	4877.68
421.29	4870.65
421.48	4662.35
421.67	4704.48
421.86	4758.31
422.05	4678.73
422.24	4821.50
422.43	4793.42
422.61	4997.04
422.80	4842.57
422.99	4940.87
423.18	4858.95
423.37	4947.89
423.56	4844.91
423.75	4880.02
423.94	4863.63
424.13	4510.21
424.32	5093.01
424.50	4880.02
424.69	4952.57
424.88	5158.54
425.07	4931.51
425.26	5109.39
425.45	5029.81
425.64	4877.68
425.83	4957.25
426.01	5132.79
426.20	4978.32
426.39	5041.51
426.58	4987.68
426.77	5121.09
426.96	5020.45
427.15	5020.45
427.33	5172.58
427.52	5191.31
427.71	5231.10
427.90	5238.12
428.09	5343.44
428.28	5369.19
428.46	5324.72
428.65	5294.29
428.84	5584.52
429.03	5502.60
429.22	5373.87
429.40	5460.47
429.59	5430.04
429.78	5217.05
429.97	5284.93
430.16	5472.17
430.34	5568.13
430.53	5820.91
430.72	5476.85
430.91	5481.53
431.10	5636.01
431.28	5839.64
431.47	5755.38
431.66	5753.04
431.85	5717.93
432.03	5785.80
432.22	5774.10
432.41	5956.66
432.60	5900.49
432.79	5947.30
432.97	6050.28
433.16	5944.96
433.35	5898.15
433.54	6090.07
433.72	6083.05
433.91	5987.09
434.10	6256.25
434.28	6118.16
434.47	6242.21
434.66	6092.41
434.85	6317.11
435.03	6384.98
435.22	6296.04
435.41	6384.98
435.59	6314.77
435.78	6431.79
435.97	6424.77
436.16	6441.15
436.34	6326.47
436.53	6604.99
436.72	6663.51
436.90	6422.43
437.09	6544.14
437.28	6480.94
437.46	6729.04
437.65	6619.04
437.84	6693.93
438.02	6675.21
438.21	6722.02
438.40	6457.54
438.58	7035.65
438.77	6850.75
438.96	6956.07
439.14	7073.10
439.33	7143.32
439.52	7148.00
439.70	7241.62
439.89	7449.93
440.08	7400.77
440.26	7389.07
440.45	7356.30
440.63	7405.46
440.82	7644.19
441.01	7398.43
441.19	7501.42
441.38	7777.60
441.57	7700.36
441.75	7796.32
441.94	7948.46
442.12	7941.44
442.31	8131.02
442.50	7995.27
442.68	7873.56
442.87	8100.59
443.05	8074.85
443.24	8086.55
443.43	8112.30
443.61	8072.51
443.80	8393.16
443.98	7903.99
444.17	7779.94
444.35	8156.77
444.54	8280.82
444.73	8173.15
444.91	8226.98
445.10	8205.92
445.28	8360.39
445.47	8271.45
445.65	8435.29
445.84	8500.83
446.02	8339.33
446.21	8477.42
446.39	8341.67
446.58	8454.02
446.77	8557.00
446.95	8315.92
447.14	8252.73
447.32	8407.20
447.51	8423.59
447.69	8430.61
447.88	8533.59
448.06	8262.09
448.25	8704.45
448.43	8706.79
448.62	8454.02
448.80	8578.06
448.99	8594.45
449.17	8709.13
449.36	8620.19
449.54	8688.07
449.73	8973.61
449.91	8968.93
450.10	8945.53
450.28	9001.70
450.46	9088.30
450.65	8784.03
450.83	9137.45
451.02	9170.22
451.20	9055.53
451.39	9109.36
451.57	9170.22
451.76	8980.64
451.94	9041.49
452.13	9301.29
452.31	9383.21
452.49	9210.01
452.68	9308.31
452.86	9104.68
453.05	9423.00
453.23	9483.85
453.42	9322.35
453.60	9308.31
453.78	9401.93
453.97	9385.55
454.15	9537.68
454.34	9420.66
454.52	9650.03
454.70	9645.35
454.89	9741.31
455.07	9631.30
455.26	9727.27
455.44	9958.98
455.62	9863.02
455.81	9963.66
455.99	9970.68
456.17	10186.01
456.36	9994.09
456.54	10134.52
456.73	10333.47
456.91	10221.12
457.09	10403.68
457.28	10494.96
457.46	10387.30
457.64	10490.28
457.83	10487.94
458.01	10403.68
458.19	10815.62
458.38	10490.28
458.56	10703.27
458.74	10743.06
458.93	10698.59
459.11	10590.92
459.29	10696.25
459.48	10597.95
459.66	10579.22
459.84	10675.18
460.03	10984.13
460.21	10705.61
460.39	10684.55
460.57	10995.84
460.76	10974.77
460.94	11274.36
461.12	11033.29
461.31	10953.71
461.49	11269.68
461.67	10911.58
461.85	11316.49
462.04	11236.91
462.22	11375.00
462.40	11384.37
462.59	11318.83
462.77	11342.24
462.95	11637.14
463.13	11536.50
463.32	11463.94
463.50	11688.64
463.68	11695.66
463.86	11920.35
464.05	11494.37
464.23	11688.64
464.41	11730.76
464.59	11737.79
464.78	12095.89
464.96	11749.49
465.14	11922.69
465.32	12002.27
465.50	12088.87
465.69	12355.69
465.87	11939.07
466.05	12032.69
466.23	12105.25
466.41	12196.53
466.60	12402.50
466.78	12201.21
466.96	12301.86
467.14	12114.61
467.32	12374.41
467.51	12535.91
467.69	12334.62
467.87	12430.59
468.05	12554.63
468.23	12297.17
468.41	12306.54
468.60	12437.61
468.78	12657.62
468.96	12400.16
469.14	12409.52
469.32	12613.15
469.50	12753.58
469.69	13156.15
469.87	13036.78
470.05	12996.99
470.23	13118.70
470.41	13263.82
470.59	13359.78
470.77	13217.01
470.95	13011.04
471.14	13444.04
471.32	13013.38
471.50	13570.43
471.68	13495.53
471.86	13666.39
472.04	13640.64
472.22	13926.19
472.40	13481.49
472.58	13930.87
472.77	14024.49
472.95	13914.48
473.13	14211.73
473.31	13790.44
473.49	13858.31
473.67	14047.90
473.85	14111.09
474.03	14705.59
474.21	14534.73
474.39	14714.95
474.57	14761.76
474.75	14738.35
474.93	15215.82
475.12	14932.62
475.30	15157.31
475.48	15094.11
475.66	15012.20
475.84	15063.69
476.02	15452.22
476.20	15424.13
476.38	15367.96
476.56	15852.45
476.74	15770.53
476.92	15716.70
477.10	15807.98
477.28	15868.83
477.46	16070.12
477.64	16421.20
477.82	16594.40
478.00	16828.45
478.18	16692.70
478.36	16816.75
478.54	17123.36
478.72	16889.31
478.90	17547.00
479.08	17462.74
479.26	17558.70
479.44	17617.21
479.62	17664.02
479.80	17965.95
479.98	17914.46
480.16	18183.62
480.34	18197.67
480.52	18408.31
480.70	18441.08
480.88	18424.70
481.06	18462.15
481.24	18808.54
481.41	18913.87
481.59	19391.34
481.77	19580.92
481.95	19363.25
482.13	19711.99
482.31	19667.52
482.49	20051.37
482.67	19969.45
482.85	20444.58
483.03	20477.35
483.21	20610.76
483.39	20407.13
483.57	20854.17
483.74	21174.83
483.92	21099.93
484.10	20900.98
484.28	21785.71
484.46	21846.56
484.64	22195.30
484.82	21844.22
485.00	22466.80
485.18	22663.41
485.35	22642.34
485.53	22918.53
485.71	22672.77
485.89	23213.43
486.07	23012.15
486.25	23171.30
486.43	23707.29
486.61	23754.10
486.78	23934.32
486.96	24259.65
487.14	24421.15
487.32	24320.51
487.50	24577.97
487.68	24662.22
487.85	25069.48
488.03	25429.92
488.21	25502.48
488.39	25898.03
488.57	26134.42
488.75	26160.17
488.92	26401.24
489.10	26897.44
489.28	26494.86
489.46	26984.04
489.64	26829.56
489.81	27213.41
489.99	27564.49
490.17	27548.11
490.35	27971.74
490.53	28093.45
490.70	28444.53
490.88	28077.07
491.06	28678.58
491.24	28837.74
491.41	28854.12
491.59	29060.09
491.77	28952.43
491.95	29277.76
492.13	29488.41
492.30	29563.31
492.48	29734.17
492.66	30127.38
492.84	30356.75
493.01	30558.03
493.19	30677.40
493.37	30703.15
493.54	31276.58
493.72	31466.16
493.90	31079.97
494.08	31435.74
494.25	31620.64
494.43	31646.38
494.61	31992.78
494.79	32205.77
494.96	32472.59
495.14	32517.06
495.32	33102.20
495.49	33287.10
495.67	32854.10
495.85	33228.59
496.02	33404.13
496.20	33731.80
496.38	33663.93
496.55	33813.72
496.73	34628.23
496.91	34300.55
497.09	34953.56
497.26	34937.18
497.44	35012.07
497.62	35166.55
497.79	35552.74
497.97	35426.35
498.14	36062.97
498.32	35920.20
498.50	36074.68
498.67	36423.42
498.85	36086.38
499.03	36444.48
499.20	36416.40
499.38	36926.63
499.56	36903.23
499.73	36854.08
499.91	37324.52
500.08	37766.88
500.26	37560.92
500.44	37237.92
500.61	37736.46
500.79	37752.84
500.97	38094.56
501.14	37965.83
501.32	38675.01
501.49	38213.93
501.67	38185.84
501.84	38253.72
502.02	38916.09
502.20	38644.59
502.37	39313.98
502.55	38998.01
502.72	38899.70
502.90	39379.51
503.07	39138.44
503.25	39503.56
503.43	39782.09
503.60	39793.79
503.78	40058.27
503.95	40168.27
504.13	40037.20
504.30	40353.18
504.48	39931.88
504.65	40612.98
504.83	41048.32
505.01	40973.42
505.18	40746.39
505.36	41481.31
505.53	41165.34
505.71	41483.66
505.88	41649.83
506.06	41413.44
506.23	41385.35
506.41	41284.71
506.58	41621.75
506.76	41937.72
506.93	41977.51
507.11	42440.93
507.28	42115.60
507.46	42043.04
507.63	42794.36
507.81	42714.78
507.98	42890.32
508.16	42412.85
508.33	43412.26
508.50	43608.86
508.68	43154.80
508.85	43611.20
509.03	43384.17
509.20	43381.83
509.38	43971.64
509.55	43852.28
509.73	44177.61
509.90	44275.91
510.08	44142.50
510.25	44381.24
510.42	44430.39
510.60	44783.81
510.77	44655.08
510.95	45280.00
511.12	45104.46
511.30	45022.54
511.47	45713.00
511.64	45361.92
511.82	45677.90
511.99	45631.08
512.17	45755.13
512.34	45509.38
512.51	46471.34
512.69	46162.39
512.86	46220.90
513.04	46581.34
513.21	46279.41
513.38	46459.63
513.56	46642.20
513.73	46452.61
513.90	47070.51
514.08	46726.46
514.25	46890.29
514.43	47028.38
514.60	47222.65
514.77	46803.69
514.95	47379.46
515.12	47423.93
515.29	47285.84
515.47	47824.17
515.64	47770.33
515.81	47519.90
515.99	47760.97
516.16	48048.86
516.33	48238.44
516.51	48421.00
516.68	48257.17
516.85	48069.92
517.03	48671.44
517.20	48729.95
517.37	48404.62
517.54	48481.86
517.72	48566.12
517.89	48935.92
518.06	49130.19
518.24	49216.78
518.41	49186.36
518.58	49200.40
518.75	48959.33
518.93	49607.65
519.10	49359.56
519.27	49434.45
519.45	49492.97
519.62	49598.29
519.79	50026.61
519.96	49607.65
520.14	50288.75
520.31	49673.19
520.48	50155.34
520.65	50206.83
520.83	50183.43
521.00	50768.56
521.17	50483.01
521.34	50167.04
521.52	50988.57
521.69	50478.33
521.86	50829.41
522.03	50834.10
522.20	50857.50
522.38	51648.60
522.55	51157.09
522.72	51278.80
522.89	51213.26
523.07	51683.71
523.24	51147.73
523.41	51723.50
523.58	51564.34
523.75	51786.69
523.92	51466.04
524.10	51679.03
524.27	52196.29
524.44	51826.48
524.61	52105.01
524.78	52048.83
524.96	52296.93
525.13	52140.11
525.30	52156.50
525.47	52191.61
525.64	52329.70
525.81	52404.59
525.98	52453.75
526.16	52509.92
526.33	52261.82
526.50	52832.91
526.67	52519.28
526.84	52802.49
527.01	52367.15
527.18	52580.13
527.36	52676.10
527.53	53088.03
527.70	52985.05
527.87	53375.92
528.04	53085.69
528.21	53429.75
528.38	53181.65
528.55	53209.74
528.72	53333.79
528.89	53457.84
529.07	53076.33
529.24	53432.09
529.41	53652.10
529.58	53602.95
529.75	53439.11
529.92	53502.31
530.09	53666.14
530.26	53741.04
530.43	53862.75
530.60	53675.51
530.77	53684.87
530.94	53923.60
531.11	53801.89
531.28	53757.42
531.46	53989.14
531.63	53979.78
531.80	54087.44
531.97	53799.55
532.14	54241.92
532.31	54232.55
532.48	54401.07
532.65	54452.56
532.82	54225.53
532.99	54380.01
533.16	54438.52
533.33	54550.87
533.50	54745.13
533.67	54740.45
533.84	54707.68
534.01	54791.94
534.18	54719.38
534.35	55082.17
534.52	54885.56
534.69	54937.05
534.86	55203.88
535.03	54880.88
535.20	55121.96
535.37	54997.91
535.54	55180.47
535.71	55145.36
535.88	55316.22
536.05	55269.41
536.22	55194.51
536.38	55442.61
536.55	55430.91
536.72	55503.46
536.89	55423.89
537.06	55351.33
537.23	55756.24
537.40	55473.04
537.57	55655.60
537.74	55697.73
537.91	55735.18
538.08	55664.96
538.25	55952.85
538.42	55861.57
538.59	56018.38
538.75	55833.48
538.92	55927.10
539.09	55880.29
539.26	56175.20
539.43	55994.98
539.60	56343.72
539.77	56182.22
539.94	56217.33
540.11	56254.78
540.28	56142.43
540.44	56161.15
540.61	56418.61
540.78	56109.66
540.95	56306.27
541.12	56418.61
541.29	56491.17
541.46	56357.76
541.62	56442.02
541.79	56505.21
541.96	56360.10
542.13	56575.43
542.30	56530.96
542.47	56694.80
542.63	56676.07
542.80	56860.97
542.97	56851.61
543.14	56896.08
543.31	57198.01
543.48	57190.99
543.64	57315.04
543.81	57212.06
543.98	57382.91
544.15	57109.07
544.32	57183.97
544.48	57551.43
544.65	57284.61
544.82	57303.34
544.99	57099.71
545.16	57326.74
545.32	57188.65
545.49	57481.22
545.66	57731.65
545.83	57565.48
546.00	57710.59
546.16	57432.07
546.33	57361.85
546.50	57190.99
546.67	57666.12
546.83	57261.21
547.00	57759.74
547.17	57525.69
547.34	57872.09
547.50	57691.86
547.67	57982.09
547.84	57712.93
548.00	58045.29
548.17	58122.52
548.34	57881.45
548.51	58169.33
548.67	58131.89
548.84	58080.39
549.01	57989.11
549.18	58012.52
549.34	58033.58
549.51	58047.63
549.68	58267.64
549.84	58347.21
550.01	58286.36
550.18	58042.95
550.34	58466.58
550.51	58251.25
550.68	58108.48
550.84	58141.25
551.01	58391.68
551.18	58218.49
551.34	58403.39
551.51	58309.77
551.68	58478.28
551.84	58305.09
552.01	58351.90
552.18	58492.33
552.34	58382.32
552.51	58597.65
552.68	58494.67
552.84	58471.26
553.01	58719.36
553.18	58759.15
553.34	58836.39
553.51	58562.54
553.67	58719.36
553.84	58747.45
554.01	58789.58
554.17	58752.13
554.34	58805.96
554.51	58700.64
554.67	58990.86
554.84	58922.99
555.00	58941.71
555.17	59025.97
555.33	59061.08
555.50	58852.77
555.67	58941.71
555.83	58815.32
556.00	58965.12
556.16	59302.15
556.33	59075.12
556.50	59257.68
556.66	59274.07
556.83	58944.05
556.99	59243.64
557.16	59274.07
557.32	59407.48
557.49	59409.82
557.65	59299.81
557.82	59140.66
557.98	59309.18
558.15	59370.03
558.32	59103.21
558.48	59255.34
558.65	59386.41
558.81	59517.48
558.98	59187.47
559.14	59470.67
559.31	59580.68
559.47	59543.23
559.64	59550.25
559.80	59372.37
559.97	59608.76
560.13	59620.47
560.30	59447.27
560.46	59545.57
560.63	59697.70
560.79	59653.23
560.96	59463.65
561.12	59625.15
561.29	59653.23
561.45	59788.98
561.61	59877.93
561.78	59690.68
561.94	59578.34
562.11	59742.17
562.27	59725.79
562.44	59704.73
562.60	60130.70
562.77	59653.23
562.93	59587.70
563.10	59833.46
563.26	59508.12
563.42	60168.15
563.59	59756.22
563.75	59751.54
563.92	59805.37
564.08	59831.11
564.24	59964.52
564.41	60013.68
564.57	60072.19
564.74	59856.86
564.90	60086.23
565.07	60039.42
565.23	59952.82
565.39	60186.88
565.56	60158.79
565.72	60130.70
565.88	60067.51
566.05	60179.85
566.21	60032.40
566.38	60154.11
566.54	60041.76
566.70	60254.75
566.87	60104.96
567.03	60133.04
567.19	60395.18
567.36	60177.51
567.52	60161.13
567.68	60392.84
567.85	60350.71
568.01	60341.35
568.17	60247.73
568.34	60439.65
568.50	60254.75
568.66	60250.07
568.83	60184.54
568.99	60189.22
569.15	60245.39
569.32	60161.13
569.48	60320.29
569.64	60268.79
569.81	60362.42
569.97	60037.08
570.13	60376.46
570.30	60001.97
570.46	60399.86
570.62	60449.02
570.78	60521.57
570.95	60367.10
571.11	60484.12
571.27	60095.60
571.43	60430.29
571.60	60425.61
571.76	60507.53
571.92	60603.49
572.09	60427.95
572.25	60507.53
572.41	60217.30
572.57	60362.42
572.74	60554.34
572.90	60388.16
573.06	60516.89
573.22	60488.80
573.38	60453.70
573.55	60587.11
573.71	60788.39
573.87	60563.70
574.03	60367.10
574.20	60727.54
574.36	60542.64
574.52	60720.52
574.68	60732.22
574.84	60617.53
575.01	60654.98
575.17	60694.77
575.33	60638.60
575.49	60479.44
575.65	60566.04
575.82	60760.31
575.98	60456.04
576.14	60830.52
576.30	60561.36
576.46	60575.40
576.62	60537.96
576.79	60657.32
576.95	60355.39
577.11	60566.04
577.27	60563.70
577.43	60673.71
577.59	60533.28
577.75	60549.66
577.92	60397.52
578.08	60659.66
578.24	60739.24
578.40	60856.27
578.56	60928.83
578.72	60647.96
578.88	60896.06
579.04	60889.04
579.21	60664.35
579.37	60849.25
579.53	60598.81
579.69	60631.58
579.85	60767.33
580.01	60453.70
580.17	60739.24
580.33	60654.98
580.49	60732.22
580.65	60760.31
580.82	60830.52
580.98	60645.62
581.14	60814.14
581.30	60938.19
581.46	60734.56
581.62	60610.51
581.78	60589.45
581.94	60725.20
582.10	60781.37
582.26	60739.24
582.42	60654.98
582.58	60823.50
582.74	60919.46
582.90	60720.52
583.06	60858.61
583.22	60486.46
583.38	60940.53
583.54	60671.37
583.70	60816.48
583.86	60832.86
584.02	60788.39
584.18	60863.29
584.34	60884.36
584.50	60643.28
584.66	60734.56
584.82	60694.77
584.98	61118.41
585.14	60788.39
585.30	60949.89
585.46	61001.38
585.62	60788.39
585.78	60973.30
585.94	60542.64
586.10	60879.67
586.26	60992.02
586.42	61041.17
586.58	61120.75
586.74	61097.34
586.90	60886.70
587.06	61045.85
587.22	61062.24
587.38	60846.91
587.54	61123.09
587.70	61064.58
587.86	61015.43
588.02	60963.93
588.18	60982.66
588.34	60889.04
588.49	61109.05
