SpectraSuite Data File
++++++++++++++++++++++++++++++++++++
Date: Fri Oct 25 10:43:47 EDT 2013
User: price-jones
Dark Spectrum Present: No
Reference Spectrum Present: No
Number of Sampled Component Spectra: 1
Spectrometers: USB2+H05261
Integration Time (usec): 100000 (USB2+H05261)
Spectra Averaged: 1 (USB2+H05261)
Boxcar Smoothing: 0 (USB2+H05261)
Correct for Electrical Dark: No (USB2+H05261)
Strobe/Lamp Enabled: No (USB2+H05261)
Correct for Detector Non-linearity: No (USB2+H05261)
Correct for Stray Light: No (USB2+H05261)
Number of Pixels in Processed Spectrum: 2048
>>>>>Begin Processed Spectral Data<<<<<
365.73	166.18
365.92	166.18
366.12	166.18
366.32	16.38
366.52	42.13
366.72	39.79
366.91	0.00
367.11	88.94
367.31	25.75
367.51	9.36
367.70	72.56
367.90	65.54
368.10	37.45
368.30	21.06
368.49	16.38
368.69	0.00
368.89	37.45
369.09	25.75
369.28	91.28
369.48	117.03
369.68	112.35
369.87	84.26
370.07	53.83
370.27	142.77
370.47	152.13
370.66	308.95
370.86	369.80
371.06	491.51
371.25	423.64
371.45	437.68
371.65	411.93
371.84	449.38
372.04	418.96
372.24	433.00
372.44	500.87
372.63	496.19
372.83	430.66
373.03	505.56
373.22	533.64
373.42	468.11
373.62	550.03
373.81	550.03
374.01	482.15
374.21	493.85
374.40	468.11
374.60	573.43
374.79	519.60
374.99	510.24
375.19	561.73
375.38	585.13
375.58	657.69
375.78	573.43
375.97	662.37
376.17	653.01
376.37	519.60
376.56	585.13
376.76	582.79
376.95	596.84
377.15	706.84
377.35	699.82
377.54	655.35
377.74	629.60
377.93	685.78
378.13	650.67
378.33	629.60
378.52	624.92
378.72	760.67
378.91	671.73
379.11	690.46
379.31	594.50
379.50	613.22
379.70	638.97
379.89	690.46
380.09	711.52
380.28	683.44
380.48	734.93
380.68	645.99
380.87	669.39
381.07	671.73
381.26	676.41
381.46	678.76
381.65	653.01
381.85	730.25
382.04	727.91
382.24	678.76
382.43	734.93
382.63	629.60
382.83	678.76
383.02	713.86
383.22	709.18
383.41	676.41
383.61	781.74
383.80	739.61
384.00	767.70
384.19	798.12
384.39	826.21
384.58	660.03
384.78	835.57
384.97	821.53
385.17	795.78
385.36	833.23
385.56	800.46
385.75	758.33
385.95	840.25
386.14	847.27
386.34	800.46
386.53	882.38
386.72	833.23
386.92	936.21
387.11	875.36
387.31	830.89
387.50	802.80
387.70	840.25
387.89	851.96
388.09	910.47
388.28	877.70
388.48	826.21
388.67	833.23
388.86	922.17
389.06	933.87
389.25	1034.52
389.45	959.62
389.64	985.37
389.84	1060.26
390.03	1011.11
390.22	940.90
390.42	1029.84
390.61	978.34
390.81	992.39
391.00	966.64
391.19	1088.35
391.39	999.41
391.58	1036.86
391.78	1036.86
391.97	994.73
392.16	1034.52
392.36	1074.31
392.55	999.41
392.75	1046.22
392.94	1034.52
393.13	1001.75
393.33	1008.77
393.52	1006.43
393.71	1090.69
393.91	1050.90
394.10	1090.69
394.29	1135.16
394.49	1184.31
394.68	1259.21
394.88	1205.38
395.07	1107.07
395.26	1158.57
395.46	1233.46
395.65	1177.29
395.84	1247.51
396.04	1210.06
396.23	1210.06
396.42	1097.71
396.62	1170.27
396.81	1186.65
397.00	1188.99
397.19	1228.78
397.39	1310.70
397.58	1448.79
397.77	1245.16
397.97	1514.33
398.16	1437.09
398.35	1420.71
398.55	1383.26
398.74	1469.86
398.93	1530.71
399.12	1425.39
399.32	1469.86
399.51	1500.28
399.70	1540.07
399.90	1528.37
400.09	1533.05
400.28	1617.31
400.47	1605.61
400.67	1568.16
400.86	1540.07
401.05	1757.74
401.24	1650.08
401.44	1633.69
401.63	1619.65
401.82	1739.02
402.01	1701.57
402.21	1797.53
402.40	1694.55
402.59	1659.44
402.78	1685.19
402.97	1732.00
403.17	1678.16
403.36	1762.42
403.55	1879.45
403.74	1900.52
403.93	1839.66
404.13	1760.08
404.32	1907.54
404.51	1935.62
404.70	1909.88
404.89	1860.73
405.09	1923.92
405.28	1954.35
405.47	1919.24
405.66	1987.11
405.85	1940.30
406.05	2029.24
406.24	1923.92
406.43	1998.82
406.62	1977.75
406.81	2125.21
407.00	2045.63
407.20	1977.75
407.39	2066.69
407.58	2132.23
407.77	2108.82
407.96	2132.23
408.15	2214.15
408.34	2160.31
408.54	2050.31
408.73	2263.30
408.92	2242.23
409.11	2293.72
409.30	2335.85
409.49	2305.43
409.68	2270.32
409.87	2263.30
410.07	2321.81
410.26	2366.28
410.45	2317.13
410.64	2356.92
410.83	2392.03
411.02	2492.67
411.21	2628.42
411.40	2661.19
411.59	2516.08
411.78	2548.84
411.98	2612.04
412.17	2623.74
412.36	2612.04
412.55	2654.17
412.74	2670.55
412.93	2668.21
413.12	2731.41
413.31	2860.13
413.50	2860.13
413.69	2890.56
413.88	2869.50
414.07	3007.59
414.26	2904.60
414.45	2855.45
414.64	3005.25
414.83	2935.03
415.02	2977.16
415.22	3049.72
415.41	2993.55
415.60	3040.36
415.79	3162.06
415.98	3279.09
416.17	3255.69
416.36	3332.92
416.55	3218.24
416.74	3304.84
416.93	3288.45
417.12	3318.88
417.31	3398.46
417.50	3297.81
417.69	3456.97
417.88	3302.50
418.07	3407.82
418.26	3304.84
418.45	3452.29
418.64	3592.72
418.83	3595.06
419.02	3566.98
419.21	3536.55
419.39	3543.57
419.58	3393.78
419.77	3592.72
419.96	3550.59
420.15	3581.02
420.34	3623.15
420.53	3665.28
420.72	3733.15
420.91	3812.73
421.10	3854.86
421.29	3822.09
421.48	3885.29
421.67	3906.35
421.86	3861.88
422.05	3819.75
422.24	3740.18
422.43	3770.60
422.61	3988.27
422.80	3810.39
422.99	3838.48
423.18	3822.09
423.37	3873.59
423.56	3782.31
423.75	3831.46
423.94	3875.93
424.13	3623.15
424.32	3613.79
424.50	3882.95
424.69	3913.38
424.88	3943.80
425.07	3852.52
425.26	3812.73
425.45	4011.68
425.64	3892.31
425.83	3911.04
426.01	3871.25
426.20	3999.98
426.39	3999.98
426.58	3861.88
426.77	3939.12
426.96	3915.72
427.15	3960.19
427.33	4070.19
427.52	3969.55
427.71	4074.87
427.90	4107.64
428.09	4077.21
428.28	4126.36
428.46	4194.24
428.65	4170.83
428.84	4175.52
429.03	4215.30
429.22	4044.45
429.40	4042.11
429.59	4056.15
429.78	3929.76
429.97	3782.31
430.16	4105.30
430.34	4063.17
430.53	4140.41
430.72	4205.94
430.91	4250.41
431.10	4241.05
431.28	4503.19
431.47	4620.22
431.66	4601.49
431.85	4493.83
432.03	4566.39
432.22	4641.28
432.41	4678.73
432.60	4575.75
432.79	4674.05
432.97	4676.39
433.16	4741.93
433.35	4594.47
433.54	4564.04
433.72	4606.17
433.91	4725.54
434.10	4629.58
434.28	4648.30
434.47	4713.84
434.66	4908.10
434.85	4858.95
435.03	4865.97
435.22	4748.95
435.41	4985.34
435.59	5102.37
435.78	5022.79
435.97	5172.58
436.16	5015.77
436.34	5081.30
436.53	5198.33
436.72	5027.47
436.90	5064.92
437.09	5142.16
437.28	5036.83
437.46	5172.58
437.65	5048.54
437.84	5217.05
438.02	5050.88
438.21	5116.41
438.40	5069.60
438.58	5256.84
438.77	5350.46
438.96	5203.01
439.14	5369.19
439.33	5542.39
439.52	5577.50
439.70	5549.41
439.89	5696.86
440.08	5809.21
440.26	5671.12
440.45	5617.29
440.63	5834.96
440.82	5916.87
441.01	5767.08
441.19	5973.05
441.38	6033.90
441.57	6092.41
441.75	6106.46
441.94	6148.59
442.12	6176.67
442.31	6239.87
442.50	6239.87
442.68	6321.79
442.87	6260.93
443.05	6195.40
443.24	6396.68
443.43	6317.11
443.61	6384.98
443.80	6644.78
443.98	6422.43
444.17	6282.00
444.35	6490.31
444.54	6548.82
444.73	6445.84
444.91	6289.02
445.10	6370.94
445.28	6253.91
445.47	6312.42
445.65	6127.52
445.84	6326.47
446.02	6523.07
446.21	6471.58
446.39	6675.21
446.58	6640.10
446.77	6384.98
446.95	6544.14
447.14	6469.24
447.32	6712.66
447.51	6616.69
447.69	6626.06
447.88	6630.74
448.06	6703.29
448.25	6689.25
448.43	6810.96
448.62	6729.04
448.80	6726.70
448.99	6817.98
449.17	6745.42
449.36	6679.89
449.54	6778.19
449.73	7136.29
449.91	6925.65
450.10	7033.31
450.28	7157.36
450.46	7162.04
450.65	7110.55
450.83	7045.01
451.02	7112.89
451.20	7101.19
451.39	7267.36
451.57	7061.40
451.76	7110.55
451.94	6993.52
452.13	7211.19
452.31	7016.93
452.49	7049.69
452.68	7166.72
452.86	7304.81
453.05	7049.69
453.23	7105.87
453.42	7131.61
453.60	7309.49
453.78	7487.37
453.97	7070.76
454.15	7218.21
454.34	7339.92
454.52	7496.74
454.70	7501.42
454.89	7391.41
455.07	7339.92
455.26	7702.70
455.44	7527.16
455.62	7681.64
455.81	7728.45
455.99	7742.49
456.17	7705.04
456.36	7758.88
456.54	7878.24
456.73	7588.02
456.91	7915.69
457.09	8128.68
457.28	8116.98
457.46	7899.31
457.64	8166.13
457.83	8081.87
458.01	7761.22
458.19	8023.36
458.38	8074.85
458.56	8039.74
458.74	8196.56
458.93	8219.96
459.11	8266.77
459.29	8379.12
459.48	8262.09
459.66	8198.90
459.84	8203.58
460.03	8304.22
460.21	8407.20
460.39	8355.71
460.57	8461.04
460.76	8379.12
460.94	8540.61
461.12	8423.59
461.31	8582.74
461.49	8753.60
461.67	8505.51
461.85	8561.68
462.04	8631.90
462.22	8795.73
462.40	8772.33
462.59	8786.37
462.77	8875.31
462.95	8868.29
463.13	8814.46
463.32	8894.04
463.50	8819.14
463.68	8912.76
463.86	8908.08
464.05	8882.33
464.23	8704.45
464.41	9118.73
464.59	8681.05
464.78	9043.83
464.96	9055.53
465.14	8805.10
465.32	9062.55
465.50	9036.81
465.69	9090.64
465.87	9245.12
466.05	9071.92
466.23	9156.18
466.41	9181.92
466.60	9212.35
466.78	9160.86
466.96	9179.58
467.14	9100.00
467.32	9654.71
467.51	9385.55
467.69	9048.51
467.87	9418.32
468.05	9554.07
468.23	9357.46
468.41	9390.23
468.60	9235.75
468.78	9685.14
468.96	9462.79
469.14	9825.57
469.32	9680.46
469.50	9268.52
469.69	9654.71
469.87	9685.14
470.05	9776.42
470.23	9991.75
470.41	9685.14
470.59	9874.72
470.77	9593.86
470.95	9713.22
471.14	10207.08
471.32	10003.45
471.50	9982.38
471.68	10237.50
471.86	10251.55
472.04	10160.27
472.22	10452.83
472.40	10223.46
472.58	10188.35
472.77	10363.89
472.95	10246.87
473.13	10721.99
473.31	10373.25
473.49	10286.65
473.67	10548.79
473.85	10806.25
474.03	10670.50
474.21	10686.89
474.39	11082.44
474.57	10913.92
474.75	10878.81
474.93	11002.86
475.12	10785.19
475.30	11094.14
475.48	11154.99
475.66	11084.78
475.84	11265.00
476.02	11454.58
476.20	11162.01
476.38	11463.94
476.56	11985.88
476.74	11730.76
476.92	11527.14
477.10	11770.55
477.28	11915.67
477.46	11929.71
477.64	12210.57
477.82	12196.53
478.00	12533.57
478.18	12236.32
478.36	12528.89
478.54	12634.21
478.72	12636.55
478.90	12903.37
479.08	12884.65
479.26	12919.76
479.44	13029.76
479.62	13214.66
479.80	13153.81
479.98	13462.76
480.16	13542.34
480.34	13331.69
480.52	13460.42
480.70	13687.45
480.88	13439.36
481.06	13734.26
481.24	13722.56
481.41	14209.39
481.59	14057.26
481.77	14193.01
481.95	14078.32
482.13	14319.40
482.31	14530.05
482.49	14871.76
482.67	14441.11
482.85	14661.12
483.03	14965.39
483.21	15133.90
483.39	15190.08
483.57	15030.92
483.74	15349.23
483.92	15566.90
484.10	15445.20
484.28	15728.40
484.46	16149.70
484.64	16196.51
484.82	15885.22
485.00	16056.08
485.18	16091.18
485.35	16240.98
485.53	16142.67
485.71	16013.95
485.89	16208.21
486.07	16470.35
486.25	16652.91
486.43	16879.94
486.61	16879.94
486.78	17132.72
486.96	17099.95
487.14	17614.87
487.32	17509.55
487.50	17788.07
487.68	17774.03
487.85	18221.07
488.03	18345.12
488.21	18408.31
488.39	18731.31
488.57	18532.36
488.75	18415.34
488.92	18991.11
489.10	19358.57
489.28	18951.32
489.46	19199.41
489.64	19482.62
489.81	19955.41
489.99	19824.34
490.17	20084.14
490.35	20049.03
490.53	20081.80
490.70	20521.82
490.88	20336.91
491.06	20671.61
491.24	20688.00
491.41	20367.34
491.59	20367.34
491.77	20493.73
491.95	20734.81
492.13	21116.31
492.30	21331.64
492.48	21282.49
492.66	21666.34
492.84	21556.33
493.01	21912.10
493.19	22031.46
493.37	22218.71
493.54	22202.32
493.72	22471.48
493.90	22359.14
494.08	22820.22
494.25	22717.24
494.43	22916.19
494.61	23056.62
494.79	23274.29
494.96	22918.53
495.14	23374.93
495.32	23372.59
495.49	23370.25
495.67	23693.24
495.85	23672.18
496.02	24224.54
496.20	24133.26
496.38	24285.40
496.55	24325.19
496.73	24783.93
496.91	24580.31
497.09	25013.31
497.26	24645.84
497.44	24868.19
497.62	24851.81
497.79	25104.59
497.97	24884.58
498.14	25050.75
498.32	25530.56
498.50	25453.33
498.67	25968.24
498.85	25741.21
499.03	26008.03
499.20	26216.34
499.38	25963.56
499.56	25958.88
499.73	26625.93
499.91	26300.60
500.08	26335.71
500.26	26015.05
500.44	26265.49
500.61	26251.45
500.79	26206.98
500.97	26529.97
501.14	27026.17
501.32	26787.43
501.49	26778.07
501.67	26906.80
501.84	27110.43
502.02	27541.08
502.20	27550.45
502.37	27407.67
502.55	27515.34
502.72	28025.57
502.90	27690.88
503.07	27819.61
503.25	27810.25
503.43	27875.78
503.60	27955.36
503.78	27697.90
503.95	28109.83
504.13	28446.87
504.30	28226.86
504.48	28222.18
504.65	28753.48
504.83	28587.30
505.01	29095.20
505.18	29109.24
505.36	29013.28
505.53	29160.73
505.71	29680.33
505.88	29577.35
506.06	29390.11
506.23	29518.84
506.41	29252.02
506.58	29553.94
506.76	29837.15
506.93	29771.61
507.11	29743.53
507.28	29443.94
507.46	29839.49
507.63	30029.07
507.81	29851.19
507.98	29668.63
508.16	30136.74
508.33	30169.51
508.50	30443.35
508.68	30803.79
508.85	30913.80
509.03	30553.35
509.20	31002.74
509.38	30864.64
509.55	30829.54
509.73	30930.18
509.90	31002.74
510.08	31227.43
510.25	31356.16
510.42	31412.33
510.60	31325.73
510.77	31374.88
510.95	31845.33
511.12	31641.70
511.30	31735.32
511.47	32048.96
511.64	31646.38
511.82	32095.77
511.99	32018.53
512.17	31737.66
512.34	32266.63
512.51	32542.81
512.69	32666.86
512.86	32636.43
513.04	32947.72
513.21	32622.39
513.38	32779.20
513.56	32259.60
513.73	32512.38
513.90	33207.52
514.08	33097.52
514.25	32765.16
514.43	32875.16
514.60	33003.89
514.77	33233.27
514.95	33603.07
515.12	33041.34
515.29	33113.90
515.47	33706.05
515.64	33715.42
515.81	33724.78
515.99	33699.03
516.16	33923.72
516.33	33160.71
516.51	33479.02
516.68	33219.22
516.85	32755.80
517.03	33123.26
517.20	34082.88
517.37	34066.50
517.54	34644.61
517.72	34003.30
517.89	33605.41
518.06	33942.45
518.24	33860.53
518.41	34085.22
518.58	34284.17
518.75	34525.24
518.93	34244.38
519.10	34260.76
519.27	34976.97
519.45	34932.50
519.62	34979.31
519.79	34558.01
519.96	34824.83
520.14	35086.97
520.31	34838.87
520.48	35218.04
520.65	35585.50
520.83	35178.25
521.00	35328.05
521.17	35402.94
521.34	35594.87
521.52	35730.62
521.69	36184.68
521.86	36275.96
522.03	36776.84
522.20	36107.44
522.38	35845.30
522.55	36154.26
522.72	36048.93
522.89	35910.84
523.07	36346.18
523.24	36332.14
523.41	36266.60
523.58	36507.68
523.75	36950.04
523.92	36582.57
524.10	36985.15
524.27	37254.31
524.44	36980.46
524.61	37371.33
524.78	36818.97
524.96	37109.19
525.13	37205.16
525.30	37378.36
525.47	37617.09
525.64	36992.17
525.81	37305.80
525.98	37333.89
526.16	36662.15
526.33	37326.86
526.50	37523.47
526.67	37216.86
526.84	37092.81
527.01	36816.63
527.18	37734.12
527.36	37560.92
527.53	37996.26
527.70	38562.67
527.87	38314.57
528.04	37670.92
528.21	38036.05
528.38	38429.26
528.55	38663.31
528.72	38354.36
528.89	38892.68
529.07	38436.28
529.24	38237.33
529.41	38646.93
529.58	38227.97
529.75	38335.63
529.92	39070.56
530.09	38930.13
530.26	38852.89
530.43	39070.56
530.60	38960.56
530.77	38698.42
530.94	39356.11
531.11	39564.42
531.28	39627.61
531.46	39538.67
531.63	39459.09
531.80	39061.20
531.97	39384.19
532.14	39262.49
532.31	39150.14
532.48	39185.25
532.65	39615.91
532.82	39470.79
532.99	39526.97
533.16	39349.09
533.33	39274.19
533.50	40165.93
533.67	39555.05
533.84	39405.26
534.01	39936.56
534.18	39555.05
534.35	40177.64
534.52	39899.11
534.69	40102.74
534.86	39931.88
535.03	40217.43
535.20	40533.40
535.37	40879.80
535.54	40460.84
535.71	40072.31
535.88	40540.42
536.05	40285.30
536.22	40622.34
536.38	40917.25
536.55	40275.94
536.72	40184.66
536.89	40165.93
537.06	40720.64
537.23	41045.97
537.40	40886.82
537.57	40409.35
537.74	40795.54
537.91	40945.33
538.08	41092.79
538.25	40645.74
538.42	41015.55
538.59	41273.01
538.75	40697.24
538.92	41359.61
539.09	41280.03
539.26	41057.68
539.43	41207.47
539.60	40971.08
539.77	40882.14
539.94	41312.80
540.11	41125.55
540.28	40947.67
540.44	41170.02
540.61	41572.60
540.78	41340.88
540.95	41177.04
541.12	41043.63
541.29	41687.28
541.46	41769.20
541.62	41930.70
541.79	41993.89
541.96	41207.47
542.13	41528.13
542.30	41846.44
542.47	41965.81
542.63	41893.25
542.80	41918.99
542.97	42305.18
543.14	42380.08
543.31	42483.06
543.48	42366.04
543.64	42550.94
543.81	42684.35
543.98	42974.58
544.15	42663.28
544.32	42824.78
544.48	43093.94
544.65	42841.17
544.82	42799.04
544.99	42490.09
545.16	42337.95
545.32	42672.65
545.49	43477.79
545.66	42923.08
545.83	42864.57
546.00	43002.66
546.16	42990.96
546.33	42930.11
546.50	42672.65
546.67	43185.22
546.83	42827.12
547.00	42827.12
547.17	42967.55
547.34	43002.66
547.50	43016.71
547.67	43473.11
547.84	43058.84
548.00	43264.80
548.17	43515.24
548.34	43538.65
548.51	43847.60
548.67	43330.34
548.84	43302.25
549.01	43416.94
549.18	43262.46
549.34	43728.23
549.51	43700.14
549.68	43636.95
549.84	43777.38
550.01	43606.52
550.18	43702.48
550.34	43555.03
550.51	43711.84
550.68	43812.49
550.84	43519.92
551.01	43934.20
551.18	43917.81
551.34	43681.42
551.51	44210.38
551.68	44095.69
551.84	44177.61
552.01	43674.40
552.18	44177.61
552.34	43849.94
552.51	44011.43
552.68	43861.64
552.84	44261.87
553.01	44446.77
553.18	43997.39
553.34	44383.58
553.51	43985.69
553.67	44378.90
553.84	44643.38
554.01	44547.42
554.17	44898.50
554.34	44582.52
554.51	44437.41
554.67	44737.00
554.84	44605.93
555.00	44395.28
555.17	44526.35
555.33	44446.77
555.50	44641.04
555.67	44435.07
555.83	44648.06
556.00	44591.89
556.16	45207.45
556.33	44678.49
556.50	44516.99
556.66	44699.55
556.83	44226.76
556.99	44884.45
557.16	45006.16
557.32	44755.72
557.49	45469.59
557.65	44603.59
557.82	44776.79
557.98	45174.68
558.15	44854.03
558.32	45020.20
558.48	44821.26
558.65	44732.32
558.81	44718.28
558.98	44655.08
559.14	44446.77
559.31	44938.29
559.47	45139.57
559.64	45109.14
559.80	45125.53
559.97	45195.74
560.13	44793.17
560.30	44989.78
560.46	45188.72
560.63	45270.64
560.79	45478.95
560.96	45120.85
561.12	45050.63
561.29	45031.91
561.45	45368.94
561.61	44935.95
561.78	44713.59
561.94	44919.56
562.11	44521.67
562.27	44793.17
562.44	45280.00
562.60	45633.42
562.77	45282.34
562.93	45078.72
563.10	45123.19
563.26	44945.31
563.42	45565.55
563.59	45184.04
563.75	45427.46
563.92	45368.94
564.08	45598.32
564.24	45670.87
564.41	45497.67
564.57	45340.86
564.74	44849.35
564.90	45343.20
565.07	45886.20
565.23	45130.21
565.39	45235.53
565.56	45448.52
565.72	45251.92
565.88	45233.19
566.05	45352.56
566.21	45483.63
566.38	45509.38
566.54	45387.67
566.70	45610.02
566.87	45900.25
567.03	45717.68
567.19	45727.05
567.36	45586.61
567.52	45968.12
567.68	45647.47
567.85	45673.21
568.01	45434.48
568.17	45588.95
568.34	46066.42
568.50	45652.15
568.66	45432.14
568.83	45542.14
568.99	45624.06
569.15	45640.45
569.32	45090.42
569.48	45390.01
569.64	45528.10
569.81	45860.46
569.97	45385.33
570.13	45801.94
570.30	45214.47
570.46	45270.64
570.62	45394.69
570.78	45090.42
570.95	45364.26
571.11	45937.69
571.27	45439.16
571.43	45516.40
571.60	45741.09
571.76	45603.00
571.92	45755.13
572.09	45790.24
572.25	45577.25
572.41	46036.00
572.57	45970.46
572.74	45986.85
572.90	45696.62
573.06	46129.62
573.22	45947.06
573.38	45963.44
573.55	45663.85
573.71	46033.66
573.87	45705.98
574.03	45844.07
574.20	45624.06
574.36	45977.48
574.52	46031.32
574.68	45682.58
574.84	46117.92
575.01	45595.98
575.17	45420.44
575.33	45750.45
575.49	45546.82
575.65	45993.87
575.82	45958.76
575.98	45586.61
576.14	46185.79
576.30	45680.24
576.46	45989.19
576.62	45593.64
576.79	45862.80
576.95	45399.37
577.11	46045.36
577.27	46092.17
577.43	45853.44
577.59	45783.22
577.75	45813.65
577.92	45322.13
578.08	45813.65
578.24	45345.54
578.40	46176.43
578.56	45951.74
578.72	45717.68
578.88	45991.53
579.04	46106.21
579.21	45425.12
579.37	45888.54
579.53	45911.95
579.69	45897.91
579.85	45921.31
580.01	45921.31
580.17	45710.66
580.33	45698.96
580.49	45799.60
580.65	45560.87
580.82	46005.57
580.98	45357.24
581.14	45977.48
581.30	46244.30
581.46	45532.78
581.62	45844.07
581.78	46071.10
581.94	46204.52
582.10	45991.53
582.26	46248.99
582.42	45986.85
582.58	46370.69
582.74	45968.12
582.90	46085.15
583.06	46195.15
583.22	45752.79
583.38	46197.49
583.54	46263.03
583.70	46665.60
583.86	46206.86
584.02	45752.79
584.18	46050.04
584.34	45830.03
584.50	45961.10
584.66	45792.58
584.82	46007.91
584.98	46115.58
585.14	45930.67
585.30	45748.11
585.46	46218.56
585.62	45717.68
585.78	45874.50
585.94	45553.85
586.10	46089.83
586.26	45956.42
586.42	46225.58
586.58	46082.81
586.74	46181.11
586.90	45436.82
587.06	46073.45
587.22	46096.85
587.38	45815.99
587.54	46134.30
587.70	46291.12
587.86	45727.05
588.02	46131.96
588.18	46195.15
588.34	45600.66
588.49	45378.31
588.65	45258.94
588.81	45422.78
588.97	45514.06
589.13	45214.47
589.29	45750.45
589.45	46043.02
589.61	45429.80
589.77	45989.19
589.93	46164.73
