SpectraSuite Data File
++++++++++++++++++++++++++++++++++++
Date: Fri Oct 25 11:26:42 EDT 2013
User: price-jones
Dark Spectrum Present: No
Reference Spectrum Present: No
Number of Sampled Component Spectra: 1
Spectrometers: USB2+H05261
Integration Time (usec): 100000 (USB2+H05261)
Spectra Averaged: 1 (USB2+H05261)
Boxcar Smoothing: 0 (USB2+H05261)
Correct for Electrical Dark: No (USB2+H05261)
Strobe/Lamp Enabled: No (USB2+H05261)
Correct for Detector Non-linearity: No (USB2+H05261)
Correct for Stray Light: No (USB2+H05261)
Number of Pixels in Processed Spectrum: 2048
>>>>>Begin Processed Spectral Data<<<<<
365.73	231.71
365.92	231.71
366.12	231.71
366.32	145.11
366.52	152.13
366.72	177.88
366.91	170.86
367.11	154.48
367.31	177.88
367.51	191.92
367.70	126.39
367.90	210.65
368.10	149.79
368.30	149.79
368.49	140.43
368.69	138.09
368.89	201.29
369.09	175.54
369.28	215.33
369.48	133.41
369.68	250.44
369.87	175.54
370.07	140.43
370.27	248.10
370.47	320.65
370.66	624.92
370.86	671.73
371.06	645.99
371.25	723.23
371.45	676.41
371.65	748.97
371.84	725.57
372.04	695.14
372.24	697.48
372.44	781.74
372.63	713.86
372.83	734.93
373.03	734.93
373.22	826.21
373.42	767.70
373.62	760.67
373.81	800.46
374.01	830.89
374.21	828.55
374.40	809.83
374.60	847.27
374.79	814.51
374.99	805.14
375.19	870.68
375.38	882.38
375.58	828.55
375.78	936.21
375.97	926.85
376.17	856.64
376.37	961.96
376.56	917.49
376.76	866.00
376.95	875.36
377.15	894.08
377.35	882.38
377.54	933.87
377.74	877.70
377.93	910.47
378.13	866.00
378.33	938.55
378.52	898.77
378.72	961.96
378.91	964.30
379.11	1013.45
379.31	926.85
379.50	990.05
379.70	1011.11
379.89	945.58
380.09	980.68
380.28	964.30
380.48	938.55
380.68	990.05
380.87	990.05
381.07	1025.15
381.26	1114.10
381.46	1064.94
381.65	1029.84
381.85	1069.62
382.04	1006.43
382.24	1053.24
382.43	1153.88
382.63	1067.28
382.83	1095.37
383.02	1184.31
383.22	1048.56
383.41	1088.35
383.61	1088.35
383.80	1107.07
384.00	1069.62
384.19	1125.80
384.39	1196.01
384.58	1116.44
384.78	1177.29
384.97	1179.63
385.17	1205.38
385.36	1249.85
385.56	1167.93
385.75	1196.01
385.95	1226.44
386.14	1235.80
386.34	1226.44
386.53	1247.51
386.72	1135.16
386.92	1226.44
387.11	1224.10
387.31	1315.38
387.50	1299.00
387.70	1245.16
387.89	1245.16
388.09	1390.28
388.28	1261.55
388.48	1299.00
388.67	1289.64
388.86	1261.55
389.06	1205.38
389.25	1411.34
389.45	1324.74
389.64	1322.40
389.84	1287.29
390.03	1387.94
390.22	1430.07
390.42	1385.60
390.61	1462.83
390.81	1376.24
391.00	1411.34
391.19	1455.81
391.39	1404.32
391.58	1441.77
391.78	1533.05
391.97	1500.28
392.16	1474.54
392.36	1561.14
392.55	1511.99
392.75	1509.65
392.94	1542.41
393.13	1544.75
393.33	1577.52
393.52	1643.06
393.71	1596.25
393.91	1626.67
394.10	1544.75
394.29	1636.03
394.49	1703.91
394.68	1736.68
394.88	1633.69
395.07	1689.87
395.26	1671.14
395.46	1682.85
395.65	1776.47
395.84	1764.76
396.04	1834.98
396.23	1788.17
396.42	1673.48
396.62	1743.70
396.81	1830.30
397.00	1748.38
397.19	1722.63
397.39	1790.51
397.58	1905.20
397.77	1802.21
397.97	1947.33
398.16	1870.09
398.35	1867.75
398.55	1839.66
398.74	1886.47
398.93	1930.94
399.12	2059.67
399.32	1961.37
399.51	1952.01
399.70	2062.01
399.90	2012.86
400.09	2054.99
400.28	2200.10
400.47	1956.69
400.67	2111.16
400.86	2078.40
401.05	2111.16
401.24	2125.21
401.44	2099.46
401.63	2188.40
401.82	2139.25
402.01	2148.61
402.21	2195.42
402.40	2244.57
402.59	2190.74
402.78	2244.57
402.97	2263.30
403.17	2244.57
403.36	2352.24
403.55	2363.94
403.74	2382.67
403.93	2455.22
404.13	2385.01
404.32	2478.63
404.51	2382.67
404.70	2476.29
404.89	2436.50
405.09	2558.21
405.28	2485.65
405.47	2509.05
405.66	2539.48
405.85	2497.35
406.05	2499.69
406.24	2637.78
406.43	2553.52
406.62	2612.04
406.81	2633.10
407.00	2523.10
407.20	2602.68
407.39	2562.89
407.58	2696.30
407.77	2724.38
407.96	2752.47
408.15	2803.96
408.34	2752.47
408.54	2768.85
408.73	2846.09
408.92	2836.73
409.11	2913.97
409.30	2813.32
409.49	3016.95
409.68	2862.48
409.87	2902.26
410.07	3014.61
410.26	3035.67
410.45	3068.44
410.64	3166.74
410.83	3141.00
411.02	3103.55
411.21	3148.02
411.40	3239.30
411.59	3269.73
411.78	3222.92
411.98	3269.73
412.17	3389.10
412.36	3412.50
412.55	3316.54
412.74	3412.50
412.93	3522.51
413.12	3368.03
413.31	3651.24
413.50	3370.37
413.69	3588.04
413.88	3655.92
414.07	3618.47
414.26	3665.28
414.45	3730.81
414.64	3742.52
414.83	3691.02
415.02	3868.91
415.22	3845.50
415.41	3744.86
415.60	3929.76
415.79	4072.53
415.98	4070.19
416.17	4053.81
416.36	3953.16
416.55	4030.40
416.74	3983.59
416.93	4044.45
417.12	4074.87
417.31	4145.09
417.50	4198.92
417.69	4315.95
417.88	4348.72
418.07	4315.95
418.26	4435.32
418.45	4386.16
418.64	4432.97
418.83	4503.19
419.02	4468.08
419.21	4599.15
419.39	4540.64
419.58	4500.85
419.77	4636.60
419.96	4575.75
420.15	4739.58
420.34	4695.11
420.53	4744.27
420.72	4589.79
420.91	4737.24
421.10	4887.04
421.29	4938.53
421.48	4823.84
421.67	4840.23
421.86	4940.87
422.05	4828.53
422.24	4882.36
422.43	4793.42
422.61	4992.36
422.80	5004.07
422.99	4961.94
423.18	4931.51
423.37	5100.03
423.56	4999.38
423.75	5048.54
423.94	4997.04
424.13	4587.45
424.32	4613.20
424.50	4952.57
424.69	5076.62
424.88	5181.95
425.07	4926.83
425.26	4894.06
425.45	5013.43
425.64	4950.23
425.83	4908.10
426.01	5018.11
426.20	5062.58
426.39	4873.00
426.58	4990.02
426.77	4980.66
426.96	5177.26
427.15	5090.67
427.33	5268.55
427.52	5207.69
427.71	5364.51
427.90	5256.84
428.09	5345.78
428.28	5392.59
428.46	5401.96
428.65	5455.79
428.84	5607.92
429.03	5631.33
429.22	5453.45
429.40	5387.91
429.59	5549.41
429.78	5401.96
429.97	5156.20
430.16	5579.84
430.34	5624.31
430.53	5666.44
430.72	5668.78
430.91	5610.26
431.10	5685.16
431.28	5846.66
431.47	5951.98
431.66	5860.70
431.85	5825.59
432.03	5947.30
432.22	6162.63
432.41	5998.79
432.60	6097.10
432.79	5902.83
432.97	6125.18
433.16	6052.63
433.35	5968.37
433.54	5975.39
433.72	6181.35
433.91	6064.33
434.10	6244.55
434.28	6132.20
434.47	6326.47
434.66	6235.19
434.85	6361.58
435.03	6469.24
435.22	6305.40
435.41	6438.81
435.59	6363.92
435.78	6502.01
435.97	6558.18
436.16	6480.94
436.34	6525.41
436.53	6569.88
436.72	6691.59
436.90	6682.23
437.09	6726.70
437.28	6663.51
437.46	6656.48
437.65	6614.35
437.84	6761.81
438.02	6867.13
438.21	6799.26
438.40	6663.51
438.58	6974.80
438.77	7129.27
438.96	7000.54
439.14	7190.13
439.33	7091.82
439.52	7262.68
439.70	7218.21
439.89	7337.58
440.08	7440.56
440.26	7363.33
440.45	7522.48
440.63	7524.82
440.82	7801.01
441.01	7581.00
441.19	7808.03
441.38	7728.45
441.57	7913.35
441.75	7756.54
441.94	7885.26
442.12	7953.14
442.31	7969.52
442.50	7939.10
442.68	8088.89
442.87	8037.40
443.05	8121.66
443.24	8351.03
443.43	8226.98
443.61	8407.20
443.80	8528.91
443.98	8086.55
444.17	7967.18
444.35	8175.49
444.54	8280.82
444.73	8100.59
444.91	8320.60
445.10	8507.85
445.28	8404.86
445.47	8182.51
445.65	8458.70
445.84	8397.84
446.02	8589.77
446.21	8528.91
446.39	8439.97
446.58	8517.21
446.77	8596.79
446.95	8379.12
447.14	8643.60
447.32	8863.61
447.51	8468.06
447.69	8423.59
447.88	8428.27
448.06	8397.84
448.25	8617.85
448.43	8610.83
448.62	8814.46
448.80	8613.17
448.99	8704.45
449.17	8828.50
449.36	8872.97
449.54	8870.63
449.73	8966.59
449.91	9020.42
450.10	8933.82
450.28	9238.09
450.46	8978.30
450.65	9170.22
450.83	8912.76
451.02	9053.19
451.20	9165.54
451.39	9296.61
451.57	9221.71
451.76	9104.68
451.94	9242.78
452.13	9287.25
452.31	9221.71
452.49	9308.31
452.68	9472.15
452.86	9401.93
453.05	9486.19
453.23	9451.08
453.42	9247.46
453.60	9563.43
453.78	9654.71
453.97	9535.34
454.15	9626.62
454.34	9308.31
454.52	9774.08
454.70	9703.86
454.89	9713.22
455.07	10080.69
455.26	10050.26
455.44	10050.26
455.62	9811.53
455.81	9970.68
455.99	10190.69
456.17	10242.18
456.36	10279.63
456.54	10314.74
456.73	10228.14
456.91	10616.67
457.09	10562.84
457.28	10731.36
457.46	10368.57
457.64	10530.07
457.83	10670.50
458.01	10546.45
458.19	10897.53
458.38	10633.05
458.56	10937.32
458.74	10937.32
458.93	10949.03
459.11	10834.34
459.29	10759.44
459.48	10712.63
459.66	10909.24
459.84	10988.82
460.03	11190.10
460.21	11023.92
460.39	11009.88
460.57	11140.95
460.76	11246.27
460.94	11211.17
461.12	11185.42
461.31	11255.64
461.49	11145.63
461.67	11162.01
461.85	11583.31
462.04	11283.72
462.22	11690.98
462.40	11482.67
462.59	11496.71
462.77	11527.14
462.95	11861.84
463.13	11641.82
463.32	11714.38
463.50	12004.61
463.68	11777.58
463.86	11950.78
464.05	11623.10
464.23	11707.36
464.41	11995.25
464.59	11688.64
464.78	12053.76
464.96	12109.93
465.14	11978.86
465.32	12325.26
465.50	12212.92
465.69	12159.08
465.87	12320.58
466.05	12252.70
466.23	12294.83
466.41	12463.35
466.60	12760.60
466.78	12301.86
466.96	12140.36
467.14	12465.69
467.32	12491.44
467.51	12475.06
467.69	12503.14
467.87	12610.81
468.05	12758.26
468.23	12421.22
468.41	12538.25
468.60	12585.06
468.78	12875.29
468.96	12779.32
469.14	12774.64
469.32	13233.39
469.50	12765.28
469.69	13095.30
469.87	13123.38
470.05	13104.66
470.23	13319.99
470.41	13153.81
470.59	13467.44
470.77	13132.75
470.95	13394.89
471.14	13781.07
471.32	13242.75
471.50	13458.08
471.68	13666.39
471.86	13696.82
472.04	13970.66
472.22	14164.92
472.40	13750.65
472.58	13923.85
472.77	14221.10
472.95	14148.54
473.13	14492.60
473.31	14162.58
473.49	14235.14
473.67	14370.89
473.85	14310.04
474.03	14555.79
474.21	14649.41
474.39	14878.79
474.57	14878.79
474.75	14984.11
474.93	14937.30
475.12	14611.96
475.30	15190.08
475.48	14974.75
475.66	15147.95
475.84	15150.29
476.02	15393.70
476.20	15405.41
476.38	15950.75
476.56	15948.41
476.74	16180.12
476.92	16180.12
477.10	15810.32
477.28	16388.43
477.46	16095.86
477.64	16271.40
477.82	16805.05
478.00	16882.28
478.18	16952.50
478.36	16858.88
478.54	17465.08
478.72	17422.95
478.90	17422.95
479.08	17708.49
479.26	17846.58
479.44	17715.51
479.62	18059.57
479.80	18225.75
479.98	18071.28
480.16	18743.01
480.34	18324.05
480.52	18633.00
480.70	18845.99
480.88	18518.32
481.06	18909.19
481.24	19140.90
481.41	19080.05
481.59	19185.37
481.77	19520.07
481.95	19501.34
482.13	19908.60
482.31	19742.42
482.49	20325.21
482.67	20329.89
482.85	20617.78
483.03	20465.64
483.21	20893.96
483.39	21083.55
483.57	20802.68
483.74	21266.11
483.92	21277.81
484.10	21605.49
484.28	21729.53
484.46	21713.15
484.64	22412.97
484.82	22235.09
485.00	22841.29
485.18	22911.50
485.35	23180.67
485.53	22560.42
485.71	22932.57
485.89	23426.42
486.07	23641.75
486.25	23796.23
486.43	23896.87
486.61	23974.11
486.78	24322.85
486.96	24325.19
487.14	24844.79
487.32	24425.83
487.50	25095.22
487.68	25027.35
487.85	25254.38
488.03	25979.95
488.21	26197.62
488.39	25895.69
488.57	26181.23
488.75	26410.60
488.92	26602.53
489.10	26679.77
489.28	26862.33
489.46	27578.53
489.64	26991.06
489.81	28201.11
489.99	27828.97
490.17	27803.22
490.35	28128.56
490.53	28542.83
490.70	28826.04
490.88	28446.87
491.06	28732.42
491.24	29144.35
491.41	29280.10
491.59	29504.79
491.77	29661.61
491.95	29642.88
492.13	30019.71
492.30	29883.96
492.48	30143.76
492.66	30288.87
492.84	30677.40
493.01	31119.76
493.19	30792.09
493.37	31243.81
493.54	31274.24
493.72	32048.96
493.90	31545.74
494.08	31796.18
494.25	32245.56
494.43	32102.79
494.61	32802.61
494.79	32971.13
494.96	32500.68
495.14	32898.57
495.32	33137.30
495.49	33167.73
495.67	33118.58
495.85	33715.42
496.02	33663.93
496.20	34071.18
496.38	34286.51
496.55	34572.05
496.73	34937.18
496.91	35154.85
497.09	35360.81
497.26	34710.14
497.44	35246.13
497.62	35510.61
497.79	35693.17
497.97	35737.64
498.14	36135.53
498.32	36334.48
498.50	36500.65
498.67	36858.76
498.85	36933.65
499.03	36753.43
499.20	36886.84
499.38	37020.25
499.56	37216.86
499.73	37305.80
499.91	37926.04
500.08	37603.05
500.26	38064.13
500.44	37596.03
500.61	37963.49
500.79	37958.81
500.97	38485.43
501.14	38864.60
501.32	38679.69
501.49	38656.29
501.67	38473.73
501.84	39452.07
502.02	39164.18
502.20	39108.01
502.37	39440.37
502.55	39262.49
502.72	39906.13
502.90	40058.27
503.07	40058.27
503.25	40257.21
503.43	40229.13
503.60	40268.92
503.78	40271.26
503.95	40697.24
504.13	40636.38
504.30	40910.22
504.48	40868.09
504.65	40837.67
504.83	41397.06
505.01	42124.96
505.18	41560.89
505.36	41720.05
505.53	41434.50
505.71	41921.34
505.88	42019.64
506.06	41621.75
506.23	42094.53
506.41	41741.11
506.58	42267.73
506.76	42590.73
506.93	42738.18
507.11	42370.72
507.28	42646.90
507.46	42522.85
507.63	43346.72
507.81	43124.37
507.98	43213.31
508.16	43409.92
508.33	43491.83
508.50	43721.21
508.68	43779.72
508.85	44168.25
509.03	43800.79
509.20	44175.27
509.38	44467.84
509.55	44566.14
509.73	44479.54
509.90	45027.23
510.08	44694.87
510.25	44865.73
510.42	44360.17
510.60	45027.23
510.77	45558.53
510.95	45851.09
511.12	45109.14
511.30	45366.60
511.47	45858.12
511.64	45736.41
511.82	45916.63
511.99	45785.56
512.17	46286.43
512.34	46054.72
512.51	46447.93
512.69	46518.15
512.86	46738.16
513.04	46789.65
513.21	47234.35
513.38	46871.57
513.56	46515.81
513.73	46873.91
513.90	47466.06
514.08	47445.00
514.25	47587.77
514.43	47618.20
514.60	47407.55
514.77	47515.22
514.95	47936.51
515.12	47950.56
515.29	47770.33
515.47	48051.20
515.64	47852.25
515.81	47978.64
515.99	48449.09
516.16	48823.58
516.33	48533.35
516.51	48800.17
516.68	48753.36
516.85	48411.64
517.03	49151.25
517.20	49186.36
517.37	48854.00
517.54	48884.43
517.72	49059.97
517.89	49228.49
518.06	49184.02
518.24	49696.59
518.41	49471.90
518.58	49553.82
518.75	49514.03
518.93	49670.85
519.10	49518.71
519.27	49792.56
519.45	49617.02
519.62	50288.75
519.79	50127.25
519.96	50260.66
520.14	50574.30
520.31	50234.92
520.48	50557.91
520.65	50930.06
520.83	50700.68
521.00	51098.58
521.17	50827.07
521.34	50939.42
521.52	50834.10
521.69	50864.52
521.86	50876.22
522.03	51269.43
522.20	51746.90
522.38	51538.60
522.55	51760.95
522.72	51428.59
522.89	51444.98
523.07	51796.06
523.24	51723.50
523.41	51753.93
523.58	51735.20
523.75	51803.08
523.92	51819.46
524.10	51849.89
524.27	52219.69
524.44	52030.11
524.61	52416.30
524.78	52287.57
524.96	52474.81
525.13	52299.27
525.30	52346.08
525.47	52580.13
525.64	52708.86
525.81	52814.19
525.98	53038.88
526.16	52458.43
526.33	52753.33
526.50	52982.71
526.67	52868.02
526.84	52992.07
527.01	52779.08
527.18	53162.93
527.36	53155.91
527.53	53066.97
527.70	53848.71
527.87	53518.69
528.04	53277.61
528.21	53485.92
528.38	53478.90
528.55	53666.14
528.72	53462.52
528.89	53684.87
529.07	53530.39
529.24	53766.79
529.41	54110.85
529.58	53996.16
529.75	53958.71
529.92	53979.78
530.09	54110.85
530.26	54349.58
530.43	54244.26
530.60	53923.60
530.77	54115.53
530.94	53956.37
531.11	54298.09
531.28	54461.93
531.46	54382.35
531.63	54475.97
531.80	54543.84
531.97	54576.61
532.14	54600.02
532.31	54429.16
532.48	54707.68
532.65	54946.42
532.82	54815.35
532.99	54719.38
533.16	54663.21
533.33	54752.15
533.50	55201.53
533.67	54887.90
533.84	54869.18
534.01	55325.58
534.18	55208.56
534.35	55367.71
534.52	55140.68
534.69	55217.92
534.86	55564.32
535.03	55543.25
535.20	55246.00
535.37	55477.72
535.54	55639.22
535.71	55599.43
535.88	55428.57
536.05	55849.86
536.22	55814.76
536.38	55756.24
536.55	55868.59
536.72	55613.47
536.89	55510.49
537.06	55913.06
537.23	56048.81
537.40	55620.49
537.57	55971.57
537.74	55758.58
537.91	56357.76
538.08	56116.68
538.25	56123.71
538.42	55824.12
538.59	56385.85
538.75	56140.09
538.92	56278.18
539.09	56643.30
539.26	56435.00
539.43	56355.42
539.60	56334.35
539.77	56472.45
539.94	56638.62
540.11	56458.40
540.28	56741.61
540.44	56694.80
540.61	56530.96
540.78	56552.02
540.95	56530.96
541.12	56704.16
541.29	56530.96
541.46	56687.78
541.62	56945.23
541.79	56828.21
541.96	56533.30
542.13	56996.73
542.30	56832.89
542.47	56933.53
542.63	57059.92
542.80	56858.63
542.97	57172.27
543.14	57399.30
543.31	57485.90
543.48	57380.57
543.64	57556.11
543.81	57516.32
543.98	57436.75
544.15	57593.56
544.32	57572.50
544.48	57806.55
544.65	57654.42
544.82	57572.50
544.99	57394.62
545.16	57556.11
545.32	57513.98
545.49	57895.49
545.66	57804.21
545.83	57832.30
546.00	57996.13
546.16	57832.30
546.33	57729.31
546.50	57544.41
546.67	58073.37
546.83	57509.30
547.00	57944.64
547.17	57839.32
547.34	58045.29
547.50	57963.37
547.67	58246.57
547.84	58197.42
548.00	58087.42
548.17	58202.10
548.34	58017.20
548.51	58127.20
548.67	58319.13
548.84	58365.94
549.01	58241.89
549.18	58209.12
549.34	58562.54
549.51	58513.39
549.68	58518.07
549.84	58410.41
550.01	58625.74
550.18	58384.66
550.34	58557.86
550.51	58461.90
550.68	58628.08
550.84	58513.39
551.01	58695.95
551.18	58686.59
551.34	58473.60
551.51	58621.06
551.68	58777.87
551.84	58663.19
552.01	58534.46
552.18	58721.70
552.34	58525.10
552.51	59007.25
552.68	58527.44
552.84	58733.40
553.01	59187.47
553.18	58852.77
553.34	59082.14
553.51	58939.37
553.67	59002.56
553.84	59011.93
554.01	59049.38
554.17	59091.51
554.34	59285.77
554.51	59119.59
554.67	59227.26
554.84	59079.80
555.00	59126.61
555.17	59199.17
555.33	59084.48
555.50	59227.26
555.67	59105.55
555.83	59267.05
556.00	59430.88
556.16	59388.75
556.33	59545.57
556.50	59505.78
556.66	59475.35
556.83	59253.00
556.99	59379.39
557.16	59543.23
557.32	59442.59
557.49	59760.90
557.65	59458.97
557.82	59391.09
557.98	59618.13
558.15	59536.21
558.32	59718.77
558.48	59526.84
558.65	59676.64
558.81	59725.79
558.98	59678.98
559.14	59718.77
559.31	59934.10
559.47	59760.90
559.64	59653.23
559.80	59461.31
559.97	59770.26
560.13	59597.06
560.30	59716.43
560.46	59952.82
560.63	59814.73
560.79	60069.85
560.96	60076.87
561.12	59971.55
561.29	59945.80
561.45	59999.63
561.61	59997.29
561.78	60074.53
561.94	59777.28
562.11	59908.35
562.27	60048.78
562.44	60093.25
562.60	60212.62
562.77	60247.73
562.93	59770.26
563.10	60390.50
563.26	60009.00
563.42	60292.20
563.59	60210.28
563.75	60116.66
563.92	60158.79
564.08	60163.47
564.24	60334.33
564.41	60154.11
564.57	60261.77
564.74	60357.74
564.90	60200.92
565.07	60163.47
565.23	60306.24
565.39	60121.34
565.56	60392.84
565.72	60172.83
565.88	60285.18
566.05	60254.75
566.21	60320.29
566.38	60404.55
566.54	60294.54
566.70	60453.70
566.87	60364.76
567.03	60573.06
567.19	60465.40
567.36	60369.44
567.52	60566.04
567.68	60657.32
567.85	60451.36
568.01	60542.64
568.17	60495.83
568.34	60690.09
568.50	60486.46
568.66	60481.78
568.83	60477.10
568.99	60343.69
569.15	60535.62
569.32	60488.80
569.48	60339.01
569.64	60741.58
569.81	60514.55
569.97	60430.29
570.13	60563.70
570.30	60519.23
570.46	60521.57
570.62	60678.39
570.78	60704.13
570.95	60626.90
571.11	60575.40
571.27	60537.96
571.43	60692.43
571.60	61029.47
571.76	60509.87
571.92	60725.20
572.09	60610.51
572.25	60774.35
572.41	60673.71
572.57	60781.37
572.74	60973.30
572.90	60575.40
573.06	60647.96
573.22	60699.45
573.38	60685.41
573.55	60722.86
573.71	60938.19
573.87	60748.60
574.03	60718.18
574.20	60928.83
574.36	60643.28
574.52	60823.50
574.68	60786.05
574.84	60818.82
575.01	60968.61
575.17	60622.22
575.33	60736.90
575.49	60729.88
575.65	60858.61
575.82	61059.90
575.98	60931.17
576.14	60973.30
576.30	61078.62
576.46	60804.78
576.62	60853.93
576.79	60874.99
576.95	60715.84
577.11	60793.07
577.27	60921.80
577.43	60963.93
577.59	60886.70
577.75	60882.02
577.92	60947.55
578.08	61001.38
578.24	60835.20
578.40	61120.75
578.56	60961.59
578.72	61062.24
578.88	60968.61
579.04	61099.68
579.21	61116.07
579.37	61226.07
579.53	60970.96
579.69	60886.70
579.85	60870.31
580.01	60935.85
580.17	60692.43
580.33	60800.10
580.49	61111.39
580.65	60910.10
580.82	61237.78
580.98	60767.33
581.14	60870.31
581.30	60954.57
581.46	60851.59
581.62	61134.79
581.78	61001.38
581.94	61125.43
582.10	61038.83
582.26	60977.98
582.42	60945.21
582.58	61099.68
582.74	61008.40
582.90	61195.65
583.06	60907.76
583.22	60910.10
583.38	60966.27
583.54	61251.82
583.70	61200.33
583.86	61066.92
584.02	60870.31
584.18	61167.56
584.34	61099.68
584.50	61167.56
584.66	60814.14
584.82	60968.61
584.98	61307.99
585.14	61275.22
585.30	61141.81
585.46	61226.07
585.62	61059.90
585.78	61099.68
585.94	61045.85
586.10	61183.94
586.26	61209.69
586.42	61146.50
586.58	61104.37
586.74	61202.67
586.90	61240.12
587.06	61092.66
587.22	61216.71
587.38	61247.14
587.54	61350.12
587.70	61214.37
587.86	61247.14
588.02	61055.21
588.18	61254.16
588.34	61059.90
