SpectraSuite Data File
++++++++++++++++++++++++++++++++++++
Date: Fri Oct 25 11:23:55 EDT 2013
User: price-jones
Dark Spectrum Present: No
Reference Spectrum Present: No
Number of Sampled Component Spectra: 1
Spectrometers: USB2+H05261
Integration Time (usec): 100000 (USB2+H05261)
Spectra Averaged: 1 (USB2+H05261)
Boxcar Smoothing: 0 (USB2+H05261)
Correct for Electrical Dark: No (USB2+H05261)
Strobe/Lamp Enabled: No (USB2+H05261)
Correct for Detector Non-linearity: No (USB2+H05261)
Correct for Stray Light: No (USB2+H05261)
Number of Pixels in Processed Spectrum: 2048
>>>>>Begin Processed Spectral Data<<<<<
365.73	234.05
365.92	234.05
366.12	234.05
366.32	177.88
366.52	121.71
366.72	196.60
366.91	138.09
367.11	187.24
367.31	163.84
367.51	119.37
367.70	112.35
367.90	142.77
368.10	128.73
368.30	161.50
368.49	126.39
368.69	147.45
368.89	121.71
369.09	147.45
369.28	184.90
369.48	173.20
369.68	191.92
369.87	145.11
370.07	201.29
370.27	222.35
370.47	299.59
370.66	547.69
370.86	582.79
371.06	650.67
371.25	678.76
371.45	695.14
371.65	706.84
371.84	610.88
372.04	660.03
372.24	697.48
372.44	751.31
372.63	777.06
372.83	739.61
373.03	770.04
373.22	758.33
373.42	725.57
373.62	779.40
373.81	753.65
374.01	863.66
374.21	819.19
374.40	882.38
374.60	833.23
374.79	847.27
374.99	814.51
375.19	821.53
375.38	826.21
375.58	887.06
375.78	889.40
375.97	770.04
376.17	938.55
376.37	772.38
376.56	842.59
376.76	833.23
376.95	826.21
377.15	912.81
377.35	877.70
377.54	891.74
377.74	915.15
377.93	877.70
378.13	992.39
378.33	905.79
378.52	938.55
378.72	887.06
378.91	938.55
379.11	983.02
379.31	987.71
379.50	926.85
379.70	1022.81
379.89	961.96
380.09	1025.15
380.28	987.71
380.48	997.07
380.68	980.68
380.87	999.41
381.07	1004.09
381.26	1053.24
381.46	1034.52
381.65	1022.81
381.85	945.58
382.04	1015.79
382.24	1020.47
382.43	1078.99
382.63	1090.69
382.83	1001.75
383.02	1015.79
383.22	1144.52
383.41	1083.67
383.61	1137.50
383.80	1172.61
384.00	1177.29
384.19	1153.88
384.39	1170.27
384.58	1170.27
384.78	1123.46
384.97	1128.14
385.17	1137.50
385.36	1196.01
385.56	1235.80
385.75	1181.97
385.95	1160.91
386.14	1067.28
386.34	1142.18
386.53	1214.74
386.72	1177.29
386.92	1181.97
387.11	1170.27
387.31	1144.52
387.50	1233.46
387.70	1170.27
387.89	1277.93
388.09	1310.70
388.28	1242.82
388.48	1254.53
388.67	1245.16
388.86	1315.38
389.06	1336.45
389.25	1392.62
389.45	1409.00
389.64	1352.83
389.84	1390.28
390.03	1299.00
390.22	1306.02
390.42	1331.76
390.61	1324.74
390.81	1343.47
391.00	1455.81
391.19	1423.05
391.39	1441.77
391.58	1446.45
391.78	1343.47
391.97	1444.11
392.16	1455.81
392.36	1509.65
392.55	1521.35
392.75	1593.90
392.94	1586.88
393.13	1598.59
393.33	1568.16
393.52	1511.99
393.71	1565.82
393.91	1657.10
394.10	1565.82
394.29	1624.33
394.49	1636.03
394.68	1640.72
394.88	1610.29
395.07	1652.42
395.26	1739.02
395.46	1638.38
395.65	1673.48
395.84	1788.17
396.04	1743.70
396.23	1743.70
396.42	1760.08
396.62	1692.21
396.81	1895.83
397.00	1694.55
397.19	1778.81
397.39	1820.94
397.58	1741.36
397.77	1799.87
397.97	1827.96
398.16	1849.02
398.35	1935.62
398.55	1940.30
398.74	1944.99
398.93	1921.58
399.12	1966.05
399.32	1912.22
399.51	1849.02
399.70	1973.07
399.90	1842.00
400.09	1982.43
400.28	2026.90
400.47	2031.58
400.67	2019.88
400.86	1963.71
401.05	2015.20
401.24	2207.13
401.44	2001.16
401.63	2118.18
401.82	2097.12
402.01	2104.14
402.21	2115.84
402.40	2218.83
402.59	2181.38
402.78	2232.87
402.97	2176.70
403.17	2132.23
403.36	2162.66
403.55	2319.47
403.74	2363.94
403.93	2349.90
404.13	2415.43
404.32	2300.75
404.51	2408.41
404.70	2429.48
404.89	2275.00
405.09	2466.92
405.28	2504.37
405.47	2462.24
405.66	2565.23
405.85	2583.95
406.05	2487.99
406.24	2595.65
406.43	2499.69
406.62	2693.96
406.81	2637.78
407.00	2562.89
407.20	2597.99
407.39	2724.38
407.58	2757.15
407.77	2691.62
407.96	2773.53
408.15	2860.13
408.34	2640.12
408.54	2808.64
408.73	2750.13
408.92	2862.48
409.11	2883.54
409.30	2902.26
409.49	2890.56
409.68	2904.60
409.87	2920.99
410.07	2970.14
410.26	3040.36
410.45	3014.61
410.64	3059.08
410.83	3066.10
411.02	3176.11
411.21	3155.04
411.40	3141.00
411.59	3215.90
411.78	3213.56
411.98	3166.74
412.17	3211.22
412.36	3241.64
412.55	3403.14
412.74	3400.80
412.93	3419.52
413.12	3344.63
413.31	3581.02
413.50	3489.74
413.69	3487.40
413.88	3576.34
414.07	3583.36
414.26	3709.75
414.45	3655.92
414.64	3789.33
414.83	3728.47
415.02	3679.32
415.22	3744.86
415.41	3829.12
415.60	3768.26
415.79	3946.14
415.98	3967.21
416.17	3936.78
416.36	4037.42
416.55	4030.40
416.74	4074.87
416.93	4074.87
417.12	4131.05
417.31	4154.45
417.50	4135.73
417.69	4269.14
417.88	4278.50
418.07	4301.90
418.26	4264.46
418.45	4341.69
418.64	4451.70
418.83	4451.70
419.02	4414.25
419.21	4568.73
419.39	4582.77
419.58	4498.51
419.77	4514.89
419.96	4589.79
420.15	4613.20
420.34	4468.08
420.53	4486.81
420.72	4765.33
420.91	4627.24
421.10	4882.36
421.29	4732.56
421.48	4737.24
421.67	4683.41
421.86	4685.75
422.05	4788.74
422.24	4793.42
422.43	4830.87
422.61	4863.63
422.80	4924.49
422.99	4957.25
423.18	4891.72
423.37	5036.83
423.56	4887.04
423.75	4940.87
423.94	4765.33
424.13	4617.88
424.32	4793.42
424.50	5015.77
424.69	5102.37
424.88	5034.49
425.07	5022.79
425.26	4980.66
425.45	5114.07
425.64	4919.81
425.83	5029.81
426.01	4903.42
426.20	5025.13
426.39	5053.22
426.58	5067.26
426.77	5004.07
426.96	5111.73
427.15	5116.41
427.33	5226.42
427.52	5083.64
427.71	5240.46
427.90	5214.71
428.09	5378.55
428.28	5376.21
428.46	5228.76
428.65	5469.83
428.84	5277.91
429.03	5507.28
429.22	5401.96
429.40	5540.05
429.59	5521.32
429.78	5387.91
429.97	5238.12
430.16	5465.15
430.34	5671.12
430.53	5788.14
430.72	5708.57
430.91	5680.48
431.10	5591.54
431.28	5701.54
431.47	5755.38
431.66	5933.26
431.85	5879.43
432.03	5874.74
432.22	6026.88
432.41	6036.24
432.60	5900.49
432.79	5891.13
432.97	6106.46
433.16	5975.39
433.35	5928.58
433.54	6106.46
433.72	6106.46
433.91	6202.42
434.10	6246.89
434.28	6183.70
434.47	6099.44
434.66	6179.01
434.85	6174.33
435.03	6410.73
435.22	6408.39
435.41	6415.41
435.59	6399.02
435.78	6579.25
435.97	6403.71
436.16	6452.86
436.34	6333.49
436.53	6354.55
436.72	6595.63
436.90	6434.13
437.09	6642.44
437.28	6483.28
437.46	6693.93
437.65	6684.57
437.84	6616.69
438.02	6656.48
438.21	6747.76
438.40	6719.68
438.58	6965.43
438.77	7091.82
438.96	7054.37
439.14	7105.87
439.33	7243.96
439.52	7119.91
439.70	7187.79
439.89	7234.60
440.08	7389.07
440.26	7360.98
440.45	7389.07
440.63	7674.62
440.82	7569.29
441.01	7426.52
441.19	7691.00
441.38	7557.59
441.57	7644.19
441.75	7770.58
441.94	7889.95
442.12	7854.84
442.31	7974.21
442.50	8023.36
442.68	8009.31
442.87	8032.72
443.05	8013.99
443.24	8329.97
443.43	8107.62
443.61	8224.64
443.80	8400.18
443.98	7992.93
444.17	8039.74
444.35	8212.94
444.54	8241.03
444.73	8135.70
444.91	8397.84
445.10	8360.39
445.28	8390.82
445.47	8425.93
445.65	8358.05
445.84	8421.25
446.02	8402.52
446.21	8374.44
446.39	8395.50
446.58	8545.30
446.77	8486.78
446.95	8248.05
447.14	8278.47
447.32	8622.53
447.51	8486.78
447.69	8238.69
447.88	8765.31
448.06	8472.74
448.25	8486.78
448.43	8634.24
448.62	8486.78
448.80	8540.61
448.99	8599.13
449.17	8894.04
449.36	8641.26
449.54	8833.18
449.73	8901.06
449.91	9064.89
450.10	8964.25
450.28	9153.84
450.46	9050.85
450.65	8931.48
450.83	9069.58
451.02	9004.04
451.20	9177.24
451.39	9153.84
451.57	9228.73
451.76	8997.02
451.94	9130.43
452.13	9352.78
452.31	9312.99
452.49	9242.78
452.68	9268.52
452.86	9231.07
453.05	9322.35
453.23	9371.50
453.42	9434.70
453.60	9341.08
453.78	9612.58
453.97	9385.55
454.15	9544.70
454.34	9362.14
454.52	9715.56
454.70	9827.91
454.89	9703.86
455.07	9841.95
455.26	9937.91
455.44	10038.56
455.62	9813.87
455.81	10010.47
455.99	10001.11
456.17	10057.28
456.36	10150.90
456.54	10139.20
456.73	10305.38
456.91	10281.97
457.09	10443.47
457.28	10394.32
457.46	10370.91
457.64	10511.35
457.83	10574.54
458.01	10532.41
458.19	10696.25
458.38	10363.89
458.56	10906.90
458.74	10808.59
458.93	10780.51
459.11	10626.03
459.29	10614.33
459.48	10853.06
459.66	10949.03
459.84	10934.98
460.03	11052.01
460.21	10911.58
460.39	10766.46
460.57	10927.96
460.76	11028.60
460.94	11410.11
461.12	11272.02
461.31	11283.72
461.49	10967.75
461.67	11243.93
461.85	11438.20
462.04	11286.06
462.22	11265.00
462.40	11672.25
462.59	11566.93
462.77	11489.69
462.95	11602.04
463.13	11468.62
463.32	11557.57
463.50	11910.99
463.68	11815.02
463.86	11887.58
464.05	11894.60
464.23	11793.96
464.41	11873.54
464.59	11637.14
464.78	12072.48
464.96	11988.22
465.14	11714.38
465.32	12224.62
465.50	12163.76
465.69	12058.44
465.87	12147.38
466.05	12194.19
466.23	12217.60
466.41	12081.85
466.60	12556.97
466.78	12231.64
466.96	12379.09
467.14	12320.58
467.32	12229.30
467.51	12594.42
467.69	12250.36
467.87	12437.61
468.05	12568.68
468.23	12451.65
468.41	12507.82
468.60	12578.04
468.78	12844.86
468.96	12716.13
469.14	12737.20
469.32	13135.09
469.50	12786.35
469.69	12950.18
469.87	13092.96
470.05	13240.41
470.23	13111.68
470.41	13046.15
470.59	13329.35
470.77	13186.58
470.95	13500.21
471.14	13455.74
471.32	13200.62
471.50	13523.62
471.68	13652.34
471.86	13767.03
472.04	13715.54
472.22	14143.86
472.40	13916.83
472.58	13706.18
472.77	14026.83
472.95	14169.60
473.13	14761.76
473.31	13935.55
473.49	13940.23
473.67	14391.95
473.85	14352.16
474.03	14473.87
474.21	14684.52
474.39	14808.57
474.57	14670.48
474.75	14672.82
474.93	14890.49
475.12	14834.32
475.30	15002.83
475.48	15096.46
475.66	15075.39
475.84	15365.62
476.02	15543.50
476.20	15262.63
476.38	15674.57
476.56	15772.87
476.74	15967.13
476.92	15903.94
477.10	15868.83
477.28	16215.23
477.46	16177.78
477.64	16329.92
477.82	16627.17
478.00	17048.46
478.18	16830.79
478.36	16779.30
478.54	17125.70
478.72	17324.65
478.90	17289.54
479.08	17497.84
479.26	17703.81
479.44	17666.36
479.62	17937.87
479.80	18029.15
479.98	18352.14
480.16	18855.36
480.34	18405.97
480.52	18635.35
480.70	18845.99
480.88	18668.11
481.06	18651.73
481.24	18820.25
481.41	19176.01
481.59	19058.98
481.77	19580.92
481.95	19707.31
482.13	19768.16
482.31	19667.52
482.49	20477.35
482.67	20205.84
482.85	20404.79
483.03	20732.47
483.21	20510.11
483.39	20774.60
483.57	21050.78
483.74	21095.25
483.92	21303.56
484.10	21303.56
484.28	21612.51
484.46	22246.79
484.64	22726.60
484.82	21692.08
485.00	22265.52
485.18	22661.07
485.35	23005.13
485.53	22651.70
485.71	23192.37
485.89	23543.45
486.07	23496.64
486.25	23278.97
486.43	23498.98
486.61	24093.47
486.78	23985.81
486.96	24245.61
487.14	24456.26
487.32	24732.44
487.50	24905.64
487.68	24987.56
487.85	25266.08
488.03	25553.97
488.21	25891.01
488.39	25701.42
488.57	26045.48
488.75	26134.42
488.92	26656.36
489.10	27035.53
489.28	27019.14
489.46	27456.82
489.64	27098.72
489.81	27725.99
489.99	27517.68
490.17	27711.94
490.35	28367.29
490.53	28301.76
490.70	28364.95
490.88	27857.06
491.06	29043.71
491.24	28840.08
491.41	29254.36
491.59	29118.60
491.77	29406.49
491.95	29352.66
492.13	29582.03
492.30	29720.12
492.48	29888.64
492.66	30323.98
492.84	30267.81
493.01	31063.59
493.19	30492.50
493.37	30792.09
493.54	30766.34
493.72	31129.12
493.90	31681.49
494.08	31812.56
494.25	31777.45
494.43	31910.86
494.61	32793.25
494.79	32629.41
494.96	32458.55
495.14	32861.12
495.32	33390.08
495.49	33092.83
495.67	33387.74
495.85	33553.92
496.02	33497.75
496.20	33944.79
496.38	34340.34
496.55	34139.05
496.73	34871.64
496.91	34834.19
497.09	34775.68
497.26	35054.20
497.44	34838.87
497.62	35662.74
497.79	35868.71
497.97	35505.93
498.14	36048.93
498.32	36371.92
498.50	35807.86
498.67	36800.24
498.85	36561.51
499.03	36891.52
499.20	36561.51
499.38	36767.48
499.56	37008.55
499.73	37223.88
499.91	37366.65
500.08	37652.20
500.26	37521.13
500.44	37612.41
500.61	37689.65
500.79	37762.20
500.97	38398.83
501.14	38672.67
501.32	38763.95
501.49	38745.23
501.67	38691.40
501.84	39075.24
502.02	38541.60
502.20	39091.63
502.37	39061.20
502.55	39564.42
502.72	39236.74
502.90	39550.37
503.07	39606.55
503.25	39908.47
503.43	39852.30
503.60	40505.31
503.78	40512.33
503.95	40348.50
504.13	40435.10
504.30	40627.02
504.48	40753.41
504.65	40891.50
504.83	40961.72
505.01	41518.76
505.18	41607.70
505.36	41865.16
505.53	41170.02
505.71	41572.60
505.88	41670.90
506.06	41312.80
506.23	41507.06
506.41	41911.97
506.58	41986.87
506.76	42082.83
506.93	42579.03
507.11	42438.59
507.28	42660.94
507.46	42845.85
507.63	42607.11
507.81	43140.75
507.98	43159.48
508.16	43260.12
508.33	43700.14
508.50	43548.01
508.68	43758.66
508.85	44399.96
509.03	43580.78
509.20	44198.68
509.38	44397.62
509.55	44863.39
509.73	44215.06
509.90	44687.85
510.08	44577.84
510.25	44755.72
510.42	45043.61
510.60	45174.68
510.77	45097.44
510.95	45743.43
511.12	45422.78
511.30	45530.44
511.47	45612.36
511.64	45862.80
511.82	46234.94
511.99	45984.51
512.17	46181.11
512.34	45806.62
512.51	46717.09
512.69	46340.27
512.86	46246.65
513.04	46674.96
513.21	46782.63
513.38	46864.55
513.56	46930.08
513.73	46801.35
513.90	47262.44
514.08	46871.57
514.25	46976.89
514.43	47473.09
514.60	47269.46
514.77	47423.93
514.95	47646.29
515.12	47931.83
515.29	47482.45
515.47	48257.17
515.64	48205.67
515.81	48140.14
515.99	48357.81
516.16	48477.18
516.33	48371.85
516.51	48858.68
516.68	48566.12
516.85	48236.10
517.03	48673.78
517.20	49095.08
517.37	48542.71
517.54	48746.34
517.72	49212.10
517.89	49331.47
518.06	49427.43
518.24	49219.13
518.41	49279.98
518.58	49638.08
518.75	49649.78
518.93	49546.80
519.10	49432.11
519.27	49794.90
519.45	49621.70
519.62	49935.33
519.79	50014.91
519.96	50078.10
520.14	50344.92
520.31	50504.08
520.48	50305.13
520.65	50373.01
520.83	50838.78
521.00	50937.08
521.17	50464.29
521.34	51035.38
521.52	50478.33
521.69	50859.84
521.86	51072.83
522.03	51264.75
522.20	51592.43
522.38	51646.26
522.55	51309.22
522.72	51648.60
522.89	51276.46
523.07	51608.81
523.24	51510.51
523.41	51657.96
523.58	51358.38
523.75	51964.57
523.92	51732.86
524.10	51807.76
524.27	51950.53
524.44	52413.96
524.61	52360.12
524.78	52390.55
524.96	52257.14
525.13	52264.16
525.30	52781.42
525.47	52435.02
525.64	52420.98
525.81	52727.59
525.98	52762.70
526.16	52538.01
526.33	52783.76
526.50	53020.16
526.67	52673.76
526.84	53034.20
527.01	52683.12
527.18	53071.65
527.36	52985.05
527.53	53284.64
527.70	53181.65
527.87	53095.05
528.04	53305.70
528.21	53591.25
528.38	53216.76
528.55	53595.93
528.72	53567.84
528.89	53485.92
529.07	53570.18
529.24	53413.37
529.41	53860.41
529.58	53598.27
529.75	53813.60
529.92	53984.46
530.09	53829.98
530.26	54347.24
530.43	54092.12
530.60	53689.55
530.77	53982.12
530.94	54368.30
531.11	53907.22
531.28	54218.51
531.46	54150.63
531.63	54337.88
531.80	54239.57
531.97	54511.08
532.14	54574.27
532.31	54267.66
532.48	54688.96
532.65	54775.56
532.82	54681.94
532.99	54464.27
533.16	54394.05
533.33	54937.05
533.50	54843.43
533.67	54712.36
533.84	54791.94
534.01	54981.52
534.18	55035.36
534.35	55143.02
534.52	54927.69
534.69	55234.30
534.86	55561.98
535.03	54843.43
535.20	55077.49
535.37	55255.37
535.54	55487.08
535.71	55117.28
535.88	55531.55
536.05	55608.79
536.22	55716.45
536.38	55604.11
536.55	55674.32
536.72	55426.23
536.89	55571.34
537.06	55657.94
537.23	55803.05
537.40	55538.57
537.57	55760.92
537.74	55824.12
537.91	55971.57
538.08	55987.95
538.25	55774.97
538.42	55957.53
538.59	56158.81
538.75	55646.24
538.92	56060.51
539.09	56214.99
539.26	55999.66
539.43	56247.75
539.60	56310.95
539.77	56315.63
539.94	56502.87
540.11	56474.79
540.28	56610.54
540.44	56444.36
540.61	56533.30
540.78	56453.72
540.95	56727.56
541.12	56568.41
541.29	56451.38
541.46	56446.70
541.62	56755.65
541.79	56678.41
541.96	56381.16
542.13	56828.21
542.30	56755.65
542.47	56942.89
542.63	56729.90
542.80	57045.88
542.97	57064.60
543.14	57207.37
543.31	56949.92
543.48	57389.94
543.64	57492.92
543.81	57441.43
543.98	57282.27
544.15	57361.85
544.32	57645.05
544.48	57539.73
544.65	57509.30
544.82	57350.15
544.99	57331.42
545.16	57481.22
545.32	57605.26
545.49	57738.68
545.66	57951.66
545.83	57666.12
546.00	57619.31
546.16	57605.26
546.33	57574.84
546.50	57612.29
546.67	57677.82
546.83	57476.54
547.00	57659.10
547.17	57794.85
547.34	57879.11
547.50	58061.67
547.67	58010.18
547.84	58251.25
548.00	58192.74
548.17	58239.55
548.34	58141.25
548.51	58314.45
548.67	58248.91
548.84	57982.09
549.01	58000.82
549.18	58028.90
549.34	58330.83
549.51	58370.62
549.68	58389.34
549.84	58370.62
550.01	58548.50
550.18	58759.15
550.34	58466.58
550.51	58649.14
550.68	58424.45
550.84	58265.30
551.01	58553.18
551.18	58536.80
551.34	58408.07
551.51	58681.91
551.68	58576.59
551.84	58506.37
552.01	58408.07
552.18	58691.27
552.34	58401.05
552.51	58742.77
552.68	58482.97
552.84	58541.48
553.01	58925.33
553.18	58815.32
553.34	58841.07
553.51	58705.32
553.67	58906.60
553.84	59040.01
554.01	58920.65
554.17	58944.05
554.34	58965.12
554.51	58864.47
554.67	59159.38
554.84	59213.21
555.00	59105.55
555.17	58967.46
555.33	59025.97
555.50	58962.78
555.67	59065.76
555.83	59009.59
556.00	59269.39
556.16	59477.69
556.33	59430.88
556.50	59227.26
556.66	59372.37
556.83	59374.71
556.99	59405.14
557.16	59494.08
557.32	59580.68
557.49	59578.34
557.65	59447.27
557.82	59433.22
557.98	59283.43
558.15	59325.56
558.32	59646.21
558.48	59519.82
558.65	59391.09
558.81	59358.33
558.98	59683.66
559.14	59779.62
559.31	59725.79
559.47	59594.72
559.64	59833.46
559.80	59615.79
559.97	59693.02
560.13	59606.42
560.30	59587.70
560.46	59709.41
560.63	59791.33
560.79	59868.56
560.96	59870.90
561.12	59887.29
561.29	59723.45
561.45	59833.46
561.61	59714.09
561.78	59838.14
561.94	59966.87
562.11	59812.39
562.27	59772.60
562.44	59861.54
562.60	60121.34
562.77	60130.70
562.93	59749.20
563.10	60116.66
563.26	59838.14
563.42	60252.41
563.59	59943.46
563.75	59929.42
563.92	60051.12
564.08	60076.87
564.24	60104.96
564.41	60104.96
564.57	60170.49
564.74	60327.31
564.90	60259.43
565.07	60051.12
565.23	60247.73
565.39	60257.09
565.56	60226.66
565.72	60303.90
565.88	60175.17
566.05	60123.68
566.21	60409.23
566.38	60214.96
566.54	60301.56
566.70	60514.55
566.87	60341.35
567.03	60156.45
567.19	60418.59
567.36	60331.99
567.52	60329.65
567.68	60509.87
567.85	60381.14
568.01	60465.40
568.17	60374.12
568.34	60161.13
568.50	60481.78
568.66	60322.63
568.83	60570.72
568.99	60329.65
569.15	60306.24
569.32	60383.48
569.48	60388.16
569.64	60554.34
569.81	60392.84
569.97	60350.71
570.13	60584.77
570.30	60392.84
570.46	60530.93
570.62	60573.06
570.78	60594.13
570.95	60467.74
571.11	60683.07
571.27	60605.83
571.43	60636.26
571.60	60617.53
571.76	60507.53
571.92	60734.56
572.09	60456.04
572.25	60453.70
572.41	60563.70
572.57	60640.94
572.74	60898.40
572.90	60498.17
573.06	60563.70
573.22	60882.02
573.38	60568.38
573.55	60647.96
573.71	60832.86
573.87	60671.37
574.03	60444.33
574.20	60727.54
574.36	60474.76
574.52	60825.84
574.68	60898.40
574.84	60692.43
575.01	61071.60
575.17	60659.66
575.33	60659.66
575.49	60774.35
575.65	60645.62
575.82	60683.07
575.98	60867.97
576.14	61048.19
576.30	60910.10
576.46	60676.05
576.62	60746.26
576.79	60633.92
576.95	60671.37
577.11	60989.68
577.27	60643.28
577.43	60743.92
577.59	60774.35
577.75	60809.46
577.92	60556.68
578.08	60851.59
578.24	60919.46
578.40	60945.21
578.56	60961.59
578.72	60942.87
578.88	61099.68
579.04	61090.32
579.21	61027.13
579.37	60966.27
579.53	61123.09
579.69	60708.82
579.85	60980.32
580.01	60898.40
580.17	60811.80
580.33	60980.32
580.49	61249.48
580.65	60903.08
580.82	60928.83
580.98	60739.24
581.14	60985.00
581.30	61104.37
581.46	60949.89
581.62	61127.77
581.78	60889.04
581.94	61069.26
582.10	60977.98
582.26	61041.17
582.42	60849.25
582.58	60947.55
582.74	60825.84
582.90	60961.59
583.06	61001.38
583.22	60886.70
583.38	61043.51
583.54	60877.33
583.70	61066.92
583.86	61249.48
584.02	60910.10
584.18	61125.43
584.34	60874.99
584.50	60797.76
584.66	60949.89
584.82	60884.36
584.98	61258.84
585.14	60879.67
585.30	60954.57
585.46	61104.37
585.62	61176.92
585.78	61221.39
585.94	60961.59
586.10	60963.93
586.26	60999.04
586.42	61214.37
586.58	61265.86
586.74	60963.93
586.90	60858.61
587.06	60807.12
587.22	61057.56
587.38	60926.49
587.54	61240.12
587.70	61326.72
587.86	61038.83
588.02	61095.00
588.18	61242.46
588.34	61209.69
