SpectraSuite Data File
++++++++++++++++++++++++++++++++++++
Date: Fri Oct 25 11:25:32 EDT 2013
User: price-jones
Dark Spectrum Present: No
Reference Spectrum Present: No
Number of Sampled Component Spectra: 1
Spectrometers: USB2+H05261
Integration Time (usec): 100000 (USB2+H05261)
Spectra Averaged: 1 (USB2+H05261)
Boxcar Smoothing: 0 (USB2+H05261)
Correct for Electrical Dark: No (USB2+H05261)
Strobe/Lamp Enabled: No (USB2+H05261)
Correct for Detector Non-linearity: No (USB2+H05261)
Correct for Stray Light: No (USB2+H05261)
Number of Pixels in Processed Spectrum: 2048
>>>>>Begin Processed Spectral Data<<<<<
365.73	250.44
365.92	250.44
366.12	250.44
366.32	159.16
366.52	140.43
366.72	163.84
366.91	77.24
367.11	142.77
367.31	154.48
367.51	102.98
367.70	182.56
367.90	182.56
368.10	140.43
368.30	91.28
368.49	121.71
368.69	154.48
368.89	161.50
369.09	215.33
369.28	180.22
369.48	177.88
369.68	163.84
369.87	210.65
370.07	184.90
370.27	227.03
370.47	346.40
370.66	587.47
370.86	648.33
371.06	685.78
371.25	660.03
371.45	784.08
371.65	702.16
371.84	667.05
372.04	716.20
372.24	655.35
372.44	676.41
372.63	763.01
372.83	746.63
373.03	781.74
373.22	798.12
373.42	723.23
373.62	758.33
373.81	805.14
374.01	816.85
374.21	793.44
374.40	800.46
374.60	875.36
374.79	763.01
374.99	847.27
375.19	863.66
375.38	924.51
375.58	816.85
375.78	809.83
375.97	875.36
376.17	905.79
376.37	891.74
376.56	875.36
376.76	880.04
376.95	898.77
377.15	931.53
377.35	926.85
377.54	945.58
377.74	833.23
377.93	905.79
378.13	908.13
378.33	961.96
378.52	945.58
378.72	966.64
378.91	938.55
379.11	990.05
379.31	950.26
379.50	971.32
379.70	1048.56
379.89	938.55
380.09	959.62
380.28	933.87
380.48	940.90
380.68	1008.77
380.87	954.94
381.07	968.98
381.26	1043.88
381.46	966.64
381.65	1083.67
381.85	1046.22
382.04	973.66
382.24	1100.05
382.43	1011.11
382.63	1029.84
382.83	1132.82
383.02	1036.86
383.22	1102.39
383.41	1102.39
383.61	1071.97
383.80	1090.69
384.00	1149.20
384.19	1125.80
384.39	1165.59
384.58	1109.41
384.78	1210.06
384.97	1137.50
385.17	1196.01
385.36	1205.38
385.56	1172.61
385.75	1217.08
385.95	1221.76
386.14	1123.46
386.34	1128.14
386.53	1163.25
386.72	1170.27
386.92	1217.08
387.11	1266.23
387.31	1313.04
387.50	1308.36
387.70	1327.08
387.89	1240.48
388.09	1167.93
388.28	1313.04
388.48	1343.47
388.67	1308.36
388.86	1341.13
389.06	1401.98
389.25	1399.64
389.45	1263.89
389.64	1249.85
389.84	1394.96
390.03	1373.89
390.22	1249.85
390.42	1371.55
390.61	1369.21
390.81	1329.42
391.00	1481.56
391.19	1437.09
391.39	1341.13
391.58	1444.11
391.78	1462.83
391.97	1572.84
392.16	1441.77
392.36	1596.25
392.55	1469.86
392.75	1465.18
392.94	1577.52
393.13	1472.20
393.33	1565.82
393.52	1488.58
393.71	1575.18
393.91	1549.43
394.10	1547.09
394.29	1568.16
394.49	1497.94
394.68	1675.82
394.88	1657.10
395.07	1577.52
395.26	1732.00
395.46	1664.12
395.65	1778.81
395.84	1678.16
396.04	1778.81
396.23	1668.80
396.42	1699.23
396.62	1722.63
396.81	1710.93
397.00	1724.97
397.19	1643.06
397.39	1802.21
397.58	1907.54
397.77	1827.96
397.97	1743.70
398.16	1846.68
398.35	1921.58
398.55	1891.15
398.74	1937.96
398.93	1944.99
399.12	1970.73
399.32	1837.32
399.51	1949.67
399.70	2003.50
399.90	1947.33
400.09	1989.46
400.28	1980.09
400.47	1977.75
400.67	2071.37
400.86	1984.77
401.05	1968.39
401.24	2073.71
401.44	2078.40
401.63	2087.76
401.82	2052.65
402.01	2139.25
402.21	2174.36
402.40	2211.81
402.59	2174.36
402.78	2321.81
402.97	2230.53
403.17	2282.02
403.36	2333.51
403.55	2249.25
403.74	2382.67
403.93	2319.47
404.13	2298.41
404.32	2363.94
404.51	2349.90
404.70	2303.09
404.89	2354.58
405.09	2513.74
405.28	2415.43
405.47	2544.16
405.66	2422.45
405.85	2593.31
406.05	2511.39
406.24	2452.88
406.43	2527.78
406.62	2623.74
406.81	2672.89
407.00	2513.74
407.20	2569.91
407.39	2480.97
407.58	2780.56
407.77	2562.89
407.96	2836.73
408.15	2614.38
408.34	2740.77
408.54	2775.88
408.73	2738.43
408.92	2757.15
409.11	2822.69
409.30	2946.73
409.49	2925.67
409.68	2881.20
409.87	3019.29
410.07	2991.20
410.26	2930.35
410.45	3012.27
410.64	3030.99
410.83	3084.83
411.02	3009.93
411.21	3061.42
411.40	3129.30
411.59	3143.34
411.78	3176.11
411.98	3063.76
412.17	3267.39
412.36	3328.24
412.55	3272.07
412.74	3442.93
412.93	3433.57
413.12	3283.77
413.31	3445.27
413.50	3382.07
413.69	3433.57
413.88	3501.44
414.07	3602.08
414.26	3562.30
414.45	3761.24
414.64	3831.46
414.83	3716.77
415.02	3852.52
415.22	3716.77
415.41	3761.24
415.60	3810.39
415.79	3929.76
415.98	3971.89
416.17	3955.51
416.36	3950.82
416.55	3794.01
416.74	3894.65
416.93	3983.59
417.12	4166.15
417.31	4147.43
417.50	4191.90
417.69	4297.22
417.88	4126.36
418.07	4182.54
418.26	4297.22
418.45	4273.82
418.64	4550.00
418.83	4358.08
419.02	4388.50
419.21	4299.56
419.39	4414.25
419.58	4374.46
419.77	4486.81
419.96	4493.83
420.15	4461.06
420.34	4617.88
420.53	4587.45
420.72	4592.13
420.91	4681.07
421.10	4807.46
421.29	4767.67
421.48	4643.62
421.67	4765.33
421.86	4781.71
422.05	4699.80
422.24	4645.96
422.43	4805.12
422.61	4816.82
422.80	4737.24
422.99	4924.49
423.18	4898.74
423.37	4994.70
423.56	4819.16
423.75	4842.57
423.94	4880.02
424.13	4667.03
424.32	4664.69
424.50	4992.36
424.69	5177.26
424.88	5153.86
425.07	4945.55
425.26	4882.36
425.45	4802.78
425.64	5013.43
425.83	4842.57
426.01	5078.96
426.20	5085.98
426.39	4954.91
426.58	4919.81
426.77	5186.63
426.96	5060.24
427.15	5163.22
427.33	5280.25
427.52	5186.63
427.71	5275.57
427.90	5198.33
428.09	5266.21
428.28	5294.29
428.46	5378.55
428.65	5320.04
428.84	5420.68
429.03	5514.30
429.22	5132.79
429.40	5359.83
429.59	5392.59
429.78	5284.93
429.97	5083.64
430.16	5507.28
430.34	5584.52
430.53	5715.59
430.72	5586.86
430.91	5563.45
431.10	5621.97
431.28	5610.26
431.47	5844.32
431.66	5776.44
431.85	5715.59
432.03	5994.11
432.22	6003.47
432.41	5989.43
432.60	5844.32
432.79	5956.66
432.97	5951.98
433.16	5980.07
433.35	5926.24
433.54	5935.60
433.72	6113.48
433.91	5973.05
434.10	6134.54
434.28	5951.98
434.47	6008.16
434.66	6167.31
434.85	6230.51
435.03	6291.36
435.22	6200.08
435.41	6361.58
435.59	6324.13
435.78	6368.60
435.97	6431.79
436.16	6403.71
436.34	6607.33
436.53	6590.95
436.72	6595.63
436.90	6506.69
437.09	6654.14
437.28	6333.49
437.46	6480.94
437.65	6766.49
437.84	6696.27
438.02	6675.21
438.21	6825.00
438.40	6729.04
438.58	6764.15
438.77	7016.93
438.96	6902.24
439.14	6963.09
439.33	7288.43
439.52	7250.98
439.70	7173.74
439.89	7309.49
440.08	7213.53
440.26	7377.37
440.45	7295.45
440.63	7466.31
440.82	7611.42
441.01	7321.20
441.19	7435.88
441.38	7489.71
441.57	7543.55
441.75	7875.90
441.94	7887.61
442.12	7751.85
442.31	7957.82
442.50	7978.89
442.68	7967.18
442.87	7885.26
443.05	7983.57
443.24	8238.69
443.43	7894.63
443.61	8210.60
443.80	8252.73
443.98	7927.39
444.17	7990.59
444.35	8079.53
444.54	8285.50
444.73	8414.23
444.91	8332.31
445.10	8201.24
445.28	8430.61
445.47	8161.45
445.65	8212.94
445.84	8531.25
446.02	8278.47
446.21	8421.25
446.39	8372.10
446.58	8299.54
446.77	8353.37
446.95	8102.93
447.14	8341.67
447.32	8358.05
447.51	8383.80
447.69	8381.46
447.88	8456.36
448.06	8409.54
448.25	8713.81
448.43	8631.90
448.62	8489.12
448.80	8552.32
448.99	8648.28
449.17	8772.33
449.36	8542.96
449.54	8718.50
449.73	8865.95
449.91	8922.12
450.10	8901.06
450.28	9041.49
450.46	8872.97
450.65	8933.82
450.83	8968.93
451.02	8924.46
451.20	9249.80
451.39	9018.08
451.57	9107.02
451.76	8791.05
451.94	9191.28
452.13	9387.89
452.31	9233.41
452.49	9142.13
452.68	9294.27
452.86	9221.71
453.05	9366.82
453.23	9401.93
453.42	9254.48
453.60	9270.86
453.78	9399.59
453.97	9240.44
454.15	9486.19
454.34	9430.02
454.52	9516.62
454.70	9444.06
454.89	9640.67
455.07	9806.84
455.26	9753.01
455.44	9977.70
455.62	9827.91
455.81	9839.61
455.99	9856.00
456.17	9968.34
456.36	9987.07
456.54	10150.90
456.73	10291.34
456.91	10399.00
457.09	10260.91
457.28	10476.24
457.46	10171.97
457.64	10389.64
457.83	10260.91
458.01	10562.84
458.19	10551.14
458.38	10527.73
458.56	10565.18
458.74	10520.71
458.93	10583.90
459.11	10560.50
459.29	10724.33
459.48	10855.40
459.66	10862.43
459.84	10651.78
460.03	11084.78
460.21	10782.85
460.39	10916.26
460.57	10717.31
460.76	10972.43
460.94	11066.05
461.12	10995.84
461.31	10909.24
461.49	11061.37
461.67	11194.78
461.85	11339.90
462.04	11096.48
462.22	11784.60
462.40	11513.10
462.59	11351.60
462.77	11349.26
462.95	11676.93
463.13	11438.20
463.32	11543.52
463.50	11576.29
463.68	11803.32
463.86	11707.36
464.05	11356.28
464.23	11555.22
464.41	11749.49
464.59	11595.01
464.78	12187.17
464.96	11819.71
465.14	11805.66
465.32	11882.90
465.50	12161.42
465.69	12011.63
465.87	12020.99
466.05	12109.93
466.23	12016.31
466.41	12287.81
466.60	12521.87
466.78	11770.55
466.96	12072.48
467.14	11943.75
467.32	12112.27
467.51	12411.86
467.69	12056.10
467.87	12407.18
468.05	12718.47
468.23	12360.37
468.41	12397.82
468.60	12564.00
468.78	12585.06
468.96	12491.44
469.14	12795.71
469.32	12994.65
469.50	12669.32
469.69	13071.89
469.87	13015.72
470.05	12805.07
470.23	13006.36
470.41	12896.35
470.59	13179.56
470.77	13259.13
470.95	13305.95
471.14	13130.41
471.32	13055.51
471.50	13397.23
471.68	13336.37
471.86	13666.39
472.04	13596.17
472.22	13795.12
472.40	13687.45
472.58	13837.25
472.77	14022.15
472.95	14064.28
473.13	14370.89
473.31	13914.48
473.49	13776.39
473.67	14073.64
473.85	14258.54
474.03	14541.75
474.21	14562.81
474.39	14649.41
474.57	14565.15
474.75	14829.63
474.93	14848.36
475.12	14916.23
475.30	14932.62
475.48	15009.86
475.66	15225.18
475.84	15096.46
476.02	15300.08
476.20	15463.92
476.38	15492.01
476.56	15524.77
476.74	15756.49
476.92	15726.06
477.10	15550.52
477.28	15943.73
477.46	15941.39
477.64	15845.43
477.82	16226.93
478.00	16879.94
478.18	16671.64
478.36	16858.88
478.54	17076.55
478.72	16996.97
478.90	16994.63
479.08	17226.34
479.26	17326.99
479.44	17556.36
479.62	17638.28
479.80	18052.55
479.98	18059.57
480.16	18298.31
480.34	18511.30
480.52	18494.91
480.70	18567.47
480.88	18115.75
481.06	18403.63
481.24	18291.29
481.41	19012.17
481.59	18960.68
481.77	19400.70
481.95	19330.48
482.13	19641.78
482.31	19803.27
482.49	19906.26
482.67	20156.69
482.85	20482.03
483.03	20514.80
483.21	20819.07
483.39	20524.16
483.57	20861.19
483.74	21252.06
483.92	21188.87
484.10	21146.74
484.28	21177.17
484.46	21888.69
484.64	22270.20
484.82	21851.24
485.00	22075.93
485.18	22752.35
485.35	22441.06
485.53	22745.33
485.71	23040.23
485.89	23061.30
486.07	23400.68
486.25	23288.33
486.43	23501.32
486.61	23484.94
486.78	23749.42
486.96	23770.48
487.14	24687.97
487.32	24252.63
487.50	24809.68
487.68	24912.66
487.85	25296.51
488.03	25109.27
488.21	25722.49
488.39	25385.45
488.57	25680.36
488.75	26316.98
488.92	26279.54
489.10	25951.86
489.28	26501.89
489.46	27255.54
489.64	26869.35
489.81	27033.19
489.99	27491.93
490.17	27599.60
490.35	27814.93
490.53	27913.23
490.70	28102.81
490.88	27936.63
491.06	28919.66
491.24	28692.63
491.41	28847.10
491.59	29249.67
491.77	29378.40
491.95	29221.59
492.13	29294.14
492.30	30143.76
492.48	29666.29
492.66	29890.98
492.84	30162.48
493.01	30441.01
493.19	30686.76
493.37	30895.07
493.54	30787.41
493.72	31302.32
493.90	31087.00
494.08	30969.97
494.25	31728.30
494.43	31920.23
494.61	31950.65
494.79	32205.77
494.96	31969.38
495.14	32582.60
495.32	32968.79
495.49	32706.65
495.67	33170.07
495.85	33493.07
496.02	33600.73
496.20	33619.46
496.38	33666.27
496.55	33907.34
496.73	34462.05
496.91	34319.28
497.09	34522.90
497.26	35016.75
497.44	34831.85
497.62	35014.41
497.79	35372.52
497.97	34937.18
498.14	35505.93
498.32	35573.80
498.50	36077.02
498.67	36184.68
498.85	36472.57
499.03	36236.17
499.20	36105.10
499.38	36748.75
499.56	36713.64
499.73	37277.71
499.91	37069.40
500.08	37528.15
500.26	37254.31
500.44	37373.67
500.61	37425.17
500.79	37565.60
500.97	37895.61
501.14	38204.56
501.32	38265.42
501.49	38328.61
501.67	38337.98
501.84	38939.49
502.02	38462.02
502.20	39058.86
502.37	38864.60
502.55	39033.11
502.72	39126.74
502.90	39367.81
503.07	39531.65
503.25	39931.88
503.43	39388.88
503.60	39721.23
503.78	39775.06
503.95	40308.71
504.13	40084.01
504.30	40395.31
504.48	40280.62
504.65	40758.09
504.83	40601.27
505.01	41205.13
505.18	40697.24
505.36	41310.46
505.53	41067.04
505.71	41537.49
505.88	41392.37
506.06	41408.76
506.23	41771.54
506.41	41478.97
506.58	41860.48
506.76	41797.29
506.93	42218.58
507.11	41830.05
507.28	41928.36
507.46	41993.89
507.63	42644.56
507.81	42707.76
507.98	42349.65
508.16	43023.73
508.33	42864.57
508.50	43182.88
508.68	43246.08
508.85	43917.81
509.03	43505.88
509.20	43592.48
509.38	43959.94
509.55	44081.65
509.73	44612.95
509.90	43964.62
510.08	44229.10
510.25	44273.57
510.42	44460.82
510.60	44406.98
510.77	44762.75
510.95	44907.86
511.12	44825.94
511.30	44533.37
511.47	44835.30
511.64	44893.82
511.82	45645.13
511.99	45153.62
512.17	45392.35
512.34	45467.25
512.51	46057.06
512.69	46445.59
512.86	46040.68
513.04	45935.35
513.21	46323.88
513.38	46295.80
513.56	46637.51
513.73	46059.40
513.90	47016.68
514.08	46583.68
514.25	46859.87
514.43	46986.25
514.60	47250.74
514.77	46850.50
514.95	47292.86
515.12	47028.38
515.29	47021.36
515.47	47793.74
515.64	47522.24
515.81	47250.74
515.99	47868.64
516.16	47952.90
516.33	48189.29
516.51	48334.40
516.68	47952.90
516.85	48299.30
517.03	48540.37
517.20	48832.94
517.37	48219.72
517.54	48531.01
517.72	48729.95
517.89	48903.15
518.06	49104.44
518.24	49027.20
518.41	49024.86
518.58	49240.19
518.75	49006.14
518.93	48994.43
519.10	49144.23
519.27	49127.84
519.45	49450.84
519.62	50199.81
519.79	49619.36
519.96	49680.21
520.14	49682.55
520.31	49722.34
520.48	49991.50
520.65	49935.33
520.83	50169.38
521.00	50213.85
521.17	50368.33
521.34	50541.53
521.52	50511.10
521.69	50920.70
521.86	50714.73
522.03	50478.33
522.20	51075.17
522.38	51206.24
522.55	51117.30
522.72	50986.23
522.89	50941.76
523.07	51353.69
523.24	51255.39
523.41	51402.85
523.58	51302.20
523.75	51756.27
523.92	51716.48
524.10	51608.81
524.27	51723.50
524.44	51657.96
524.61	51927.13
524.78	51863.93
524.96	51924.78
525.13	51875.63
525.30	52034.79
525.47	52470.13
525.64	52196.29
525.81	52406.94
525.98	52411.62
526.16	52420.98
526.33	52505.24
526.50	52694.82
526.67	52561.41
526.84	52535.66
527.01	52451.41
527.18	52547.37
527.36	52463.11
527.53	52830.57
527.70	52776.74
527.87	53158.25
528.04	53071.65
528.21	53380.60
528.38	53286.98
528.55	53357.19
528.72	53467.20
528.89	53265.91
529.07	53137.18
529.24	52893.77
529.41	53537.41
529.58	53574.86
529.75	53457.84
529.92	53616.99
530.09	53530.39
530.26	53492.94
530.43	53876.79
530.60	53727.00
530.77	53801.89
530.94	53783.17
531.11	53616.99
531.28	53778.49
531.46	53991.48
531.63	54066.38
531.80	54026.59
531.97	54188.08
532.14	54569.59
532.31	54358.94
532.48	54593.00
532.65	54368.30
532.82	54162.34
532.99	54466.61
533.16	54447.88
533.33	54543.84
533.50	54794.28
533.67	54585.97
533.84	54459.58
534.01	54684.28
534.18	54836.41
534.35	55238.98
534.52	54857.48
534.69	55058.76
534.86	54834.07
535.03	54827.05
535.20	55063.44
535.37	54948.76
535.54	55250.69
535.71	54752.15
535.88	55194.51
536.05	55346.65
536.22	55257.71
536.38	55569.00
536.55	55377.08
536.72	55515.17
536.89	55491.76
537.06	55299.84
537.23	55674.32
537.40	55473.04
537.57	55484.74
537.74	55566.66
537.91	55922.42
538.08	55707.09
538.25	55388.78
538.42	55632.19
538.59	55674.32
538.75	55796.03
538.92	55920.08
539.09	55941.14
539.26	55875.61
539.43	55957.53
539.60	56046.47
539.77	56130.73
539.94	56247.75
540.11	56083.92
540.28	56128.39
540.44	56163.50
540.61	56271.16
540.78	56128.39
540.95	56182.22
541.12	56374.14
541.29	56236.05
541.46	56395.21
541.62	56341.38
541.79	56640.96
541.96	56191.58
542.13	56399.89
542.30	56559.05
542.47	56685.43
542.63	56470.11
542.80	56753.31
542.97	56788.42
543.14	57050.56
543.31	56975.66
543.48	57200.35
543.64	57420.36
543.81	57279.93
543.98	57195.67
544.15	57202.69
544.32	57378.23
544.48	57198.01
544.65	57097.37
544.82	57116.09
544.99	57116.09
545.16	57436.75
545.32	57261.21
545.49	57689.52
545.66	57331.42
545.83	57347.81
546.00	57635.69
546.16	57336.10
546.33	57293.97
546.50	57183.97
546.67	57631.01
546.83	57406.32
547.00	57506.96
547.17	57551.43
547.34	57792.51
547.50	57724.63
547.67	57958.69
547.84	57886.13
548.00	57755.06
548.17	58106.14
548.34	57865.06
548.51	57989.11
548.67	58024.22
548.84	57904.85
549.01	57916.56
549.18	58042.95
549.34	57724.63
549.51	58188.06
549.68	58017.20
549.84	58176.36
550.01	58312.11
550.18	58258.27
550.34	58384.66
550.51	58436.16
550.68	58319.13
550.84	57989.11
551.01	58471.26
551.18	58511.05
551.34	58312.11
551.51	58401.05
551.68	58403.39
551.84	58267.64
552.01	58333.17
552.18	58433.81
552.34	58398.71
552.51	58564.88
552.68	58251.25
552.84	58522.76
553.01	58665.53
553.18	58695.95
553.34	58754.47
553.51	58679.57
553.67	58681.91
553.84	58780.21
554.01	58775.53
554.17	58810.64
554.34	58721.70
554.51	58784.90
554.67	58770.85
554.84	58721.70
555.00	58777.87
555.17	58820.00
555.33	58817.66
555.50	58688.93
555.67	58852.77
555.83	58576.59
556.00	59096.19
556.16	59105.55
556.33	58967.46
556.50	59082.14
556.66	59131.29
556.83	58805.96
556.99	59042.35
557.16	59248.32
557.32	59107.89
557.49	59447.27
557.65	59262.36
557.82	59161.72
557.98	59194.49
558.15	59267.05
558.32	59203.85
558.48	59250.66
558.65	59248.32
558.81	59278.75
558.98	59262.36
559.14	59531.53
559.31	59449.61
559.47	59681.32
559.64	59409.82
559.80	59571.32
559.97	59678.98
560.13	59522.16
560.30	59491.74
560.46	59484.72
560.63	59725.79
560.79	59494.08
560.96	59674.30
561.12	59723.45
561.29	59564.29
561.45	59599.40
561.61	59561.95
561.78	59653.23
561.94	59590.04
562.11	59707.07
562.27	59749.20
562.44	59765.58
562.60	60004.31
562.77	59779.62
562.93	59678.98
563.10	60111.98
563.26	59810.05
563.42	59971.55
563.59	59760.90
563.75	59945.80
563.92	59847.50
564.08	60027.72
564.24	59955.16
564.41	60154.11
564.57	60229.01
564.74	59924.74
564.90	60030.06
565.07	59824.09
565.23	59903.67
565.39	59936.44
565.56	60163.47
565.72	60114.32
565.88	59941.12
566.05	60133.04
566.21	60058.15
566.38	60107.30
566.54	60142.41
566.70	60088.57
566.87	59929.42
567.03	59891.97
567.19	60238.37
567.36	60168.15
567.52	60083.89
567.68	60339.01
567.85	59969.21
568.01	60072.19
568.17	60095.60
568.34	60163.47
568.50	60081.55
568.66	60385.82
568.83	60418.59
568.99	60247.73
569.15	60151.77
569.32	60254.75
569.48	60111.98
569.64	60205.60
569.81	60289.86
569.97	60186.88
570.13	60329.65
570.30	60128.36
570.46	60067.51
570.62	60303.90
570.78	60406.89
570.95	60076.87
571.11	60535.62
571.27	60299.22
571.43	60355.39
571.60	60498.17
571.76	60472.42
571.92	60409.23
572.09	60514.55
572.25	60432.63
572.41	60350.71
572.57	60383.48
572.74	60657.32
572.90	60385.82
573.06	60406.89
573.22	60259.43
573.38	60477.10
573.55	60516.89
573.71	60764.99
573.87	60460.72
574.03	60369.44
574.20	60561.36
574.36	60465.40
574.52	60364.76
574.68	60741.58
574.84	60783.71
575.01	60608.17
575.17	60327.31
575.33	60500.51
575.49	60547.32
575.65	60594.13
575.82	60509.87
575.98	60781.37
576.14	60818.82
576.30	60652.64
576.46	60460.72
576.62	60643.28
576.79	60673.71
576.95	60451.36
577.11	60650.30
577.27	60783.71
577.43	60643.28
577.59	60577.75
577.75	60505.19
577.92	60439.65
578.08	60715.84
578.24	60544.98
578.40	60704.13
578.56	60797.76
578.72	60750.94
578.88	60781.37
579.04	60952.23
579.21	60612.85
579.37	60877.33
579.53	60851.59
579.69	60378.80
579.85	60589.45
580.01	60640.94
580.17	60591.79
580.33	60839.89
580.49	60790.73
580.65	60746.26
580.82	60788.39
580.98	60584.77
581.14	60757.97
581.30	60772.01
581.46	60853.93
581.62	60748.60
581.78	60556.68
581.94	60874.99
582.10	60767.33
582.26	60643.28
582.42	60643.28
582.58	60671.37
582.74	60673.71
582.90	60594.13
583.06	60732.22
583.22	60727.54
583.38	60640.94
583.54	60753.29
583.70	60849.25
583.86	61027.13
584.02	60549.66
584.18	60900.74
584.34	60790.73
584.50	60608.17
584.66	60741.58
584.82	60556.68
584.98	60956.91
585.14	60905.42
585.30	60690.09
585.46	60947.55
585.62	60811.80
585.78	61034.15
585.94	60683.07
586.10	60811.80
586.26	60921.80
586.42	60860.95
586.58	60940.53
586.74	60704.13
586.90	60818.82
587.06	60708.82
587.22	60949.89
587.38	60849.25
587.54	60900.74
587.70	61020.11
587.86	61073.94
588.02	60860.95
588.18	60954.57
588.34	60867.97
588.49	60952.23
