SpectraSuite Data File
++++++++++++++++++++++++++++++++++++
Date: Fri Oct 25 11:25:58 EDT 2013
User: price-jones
Dark Spectrum Present: No
Reference Spectrum Present: No
Number of Sampled Component Spectra: 1
Spectrometers: USB2+H05261
Integration Time (usec): 100000 (USB2+H05261)
Spectra Averaged: 1 (USB2+H05261)
Boxcar Smoothing: 0 (USB2+H05261)
Correct for Electrical Dark: No (USB2+H05261)
Strobe/Lamp Enabled: No (USB2+H05261)
Correct for Detector Non-linearity: No (USB2+H05261)
Correct for Stray Light: No (USB2+H05261)
Number of Pixels in Processed Spectrum: 2048
>>>>>Begin Processed Spectral Data<<<<<
365.73	236.39
365.92	236.39
366.12	236.39
366.32	156.82
366.52	95.96
366.72	187.24
366.91	117.03
367.11	182.56
367.31	161.50
367.51	175.54
367.70	100.64
367.90	152.13
368.10	161.50
368.30	208.31
368.49	74.90
368.69	138.09
368.89	135.75
369.09	145.11
369.28	168.52
369.48	142.77
369.68	224.69
369.87	168.52
370.07	196.60
370.27	177.88
370.47	285.55
370.66	624.92
370.86	664.71
371.06	622.58
371.25	692.80
371.45	622.58
371.65	685.78
371.84	716.20
372.04	653.01
372.24	755.99
372.44	734.93
372.63	744.29
372.83	748.97
373.03	753.65
373.22	772.38
373.42	683.44
373.62	779.40
373.81	873.02
374.01	802.80
374.21	938.55
374.40	770.04
374.60	833.23
374.79	807.48
374.99	863.66
375.19	788.76
375.38	868.34
375.58	791.10
375.78	931.53
375.97	919.83
376.17	978.34
376.37	917.49
376.56	887.06
376.76	868.34
376.95	908.13
377.15	938.55
377.35	830.89
377.54	926.85
377.74	884.72
377.93	816.85
378.13	903.45
378.33	978.34
378.52	873.02
378.72	945.58
378.91	1004.09
379.11	961.96
379.31	903.45
379.50	847.27
379.70	873.02
379.89	952.60
380.09	952.60
380.28	1053.24
380.48	1057.92
380.68	936.21
380.87	980.68
381.07	1018.13
381.26	1032.18
381.46	994.73
381.65	1050.90
381.85	978.34
382.04	994.73
382.24	1032.18
382.43	1027.50
382.63	1060.26
382.83	1060.26
383.02	1097.71
383.22	1191.33
383.41	1062.60
383.61	1043.88
383.80	1086.01
384.00	1142.18
384.19	1165.59
384.39	1240.48
384.58	1104.73
384.78	1109.41
384.97	1137.50
385.17	1184.31
385.36	1142.18
385.56	1186.65
385.75	1132.82
385.95	1172.61
386.14	1266.23
386.34	1170.27
386.53	1172.61
386.72	1254.53
386.92	1252.19
387.11	1280.27
387.31	1245.16
387.50	1188.99
387.70	1275.59
387.89	1282.61
388.09	1303.68
388.28	1238.14
388.48	1277.93
388.67	1242.82
388.86	1289.64
389.06	1240.48
389.25	1327.08
389.45	1451.13
389.64	1373.89
389.84	1387.94
390.03	1348.15
390.22	1380.92
390.42	1308.36
390.61	1411.34
390.81	1420.71
391.00	1378.58
391.19	1434.75
391.39	1380.92
391.58	1444.11
391.78	1467.52
391.97	1441.77
392.16	1448.79
392.36	1472.20
392.55	1523.69
392.75	1465.18
392.94	1526.03
393.13	1598.59
393.33	1570.50
393.52	1551.78
393.71	1514.33
393.91	1605.61
394.10	1472.20
394.29	1624.33
394.49	1497.94
394.68	1650.08
394.88	1647.74
395.07	1774.13
395.26	1727.32
395.46	1715.61
395.65	1703.91
395.84	1694.55
396.04	1748.38
396.23	1797.53
396.42	1739.02
396.62	1788.17
396.81	1764.76
397.00	1769.44
397.19	1806.89
397.39	1799.87
397.58	1825.62
397.77	1858.39
397.97	1722.63
398.16	1858.39
398.35	1937.96
398.55	1884.13
398.74	1893.49
398.93	1914.56
399.12	1830.30
399.32	1851.36
399.51	1996.48
399.70	1984.77
399.90	2052.65
400.09	1975.41
400.28	2022.22
400.47	1998.82
400.67	2160.31
400.86	1963.71
401.05	2153.29
401.24	2094.78
401.44	2108.82
401.63	2153.29
401.82	2148.61
402.01	2106.48
402.21	2108.82
402.40	2197.76
402.59	2289.04
402.78	2244.57
402.97	2310.11
403.17	2289.04
403.36	2260.96
403.55	2279.68
403.74	2401.39
403.93	2424.80
404.13	2335.85
404.32	2366.28
404.51	2427.14
404.70	2480.97
404.89	2455.22
405.09	2457.56
405.28	2443.52
405.47	2476.29
405.66	2417.77
405.85	2429.48
406.05	2537.14
406.24	2534.80
406.43	2431.82
406.62	2597.99
406.81	2724.38
407.00	2579.27
407.20	2478.63
407.39	2621.40
407.58	2668.21
407.77	2710.34
407.96	2808.64
408.15	2766.51
408.34	2722.04
408.54	2794.60
408.73	2841.41
408.92	2736.09
409.11	2892.90
409.30	2757.15
409.49	2904.60
409.68	2839.07
409.87	2876.52
410.07	2963.12
410.26	3068.44
410.45	2984.18
410.64	3049.72
410.83	3138.66
411.02	3155.04
411.21	3229.94
411.40	3077.80
411.59	3222.92
411.78	3101.21
411.98	3166.74
412.17	3342.28
412.36	3304.84
412.55	3389.10
412.74	3384.41
412.93	3389.10
413.12	3297.81
413.31	3461.65
413.50	3475.70
413.69	3517.83
413.88	3506.12
414.07	3543.57
414.26	3644.21
414.45	3662.94
414.64	3644.21
414.83	3831.46
415.02	3765.92
415.22	3929.76
415.41	3887.63
415.60	3786.99
415.79	3861.88
415.98	3929.76
416.17	4042.11
416.36	4063.17
416.55	3950.82
416.74	4138.07
416.93	3955.51
417.12	4135.73
417.31	4074.87
417.50	4095.94
417.69	4301.90
417.88	4198.92
418.07	4301.90
418.26	4264.46
418.45	4325.31
418.64	4444.68
418.83	4311.27
419.02	4383.82
419.21	4535.96
419.39	4454.04
419.58	4397.87
419.77	4580.43
419.96	4589.79
420.15	4578.09
420.34	4587.45
420.53	4770.01
420.72	4526.60
420.91	4669.37
421.10	4716.18
421.29	4877.68
421.48	4760.65
421.67	4823.84
421.86	4821.50
422.05	4713.84
422.24	4891.72
422.43	4959.60
422.61	4940.87
422.80	5081.30
422.99	5011.09
423.18	4931.51
423.37	4973.64
423.56	4943.21
423.75	4851.93
423.94	4865.97
424.13	4578.09
424.32	4821.50
424.50	4919.81
424.69	5081.30
424.88	5174.92
425.07	4968.96
425.26	4940.87
425.45	4856.61
425.64	5029.81
425.83	5071.94
426.01	4924.49
426.20	4983.00
426.39	5071.94
426.58	5181.95
426.77	5137.48
426.96	4952.57
427.15	5139.82
427.33	5186.63
427.52	5181.95
427.71	5207.69
427.90	5069.60
428.09	5270.89
428.28	5394.93
428.46	5355.15
428.65	5352.81
428.84	5497.92
429.03	5458.13
429.22	5238.12
429.40	5549.41
429.59	5516.64
429.78	5331.74
429.97	5205.35
430.16	5577.50
430.34	5621.97
430.53	5572.82
430.72	5673.46
430.91	5605.58
431.10	5561.11
431.28	5785.80
431.47	5696.86
431.66	5811.55
431.85	5645.37
432.03	5825.59
432.22	5909.85
432.41	5898.15
432.60	5734.31
432.79	5668.78
432.97	5898.15
433.16	6019.86
433.35	5820.91
433.54	6043.26
433.72	6155.61
433.91	6118.16
434.10	6111.14
434.28	6181.35
434.47	6169.65
434.66	6263.27
434.85	6253.91
435.03	6218.80
435.22	6345.19
435.41	6588.61
435.59	6317.11
435.78	6565.20
435.97	6237.53
436.16	6513.71
436.34	6445.84
436.53	6478.60
436.72	6661.16
436.90	6417.75
437.09	6586.27
437.28	6525.41
437.46	6754.79
437.65	6633.08
437.84	6775.85
438.02	6661.16
438.21	6637.76
438.40	6679.89
438.58	6911.60
438.77	7056.72
438.96	6939.69
439.14	6925.65
439.33	7323.54
439.52	7265.02
439.70	7098.84
439.89	7279.07
440.08	7309.49
440.26	7279.07
440.45	7337.58
440.63	7520.14
440.82	7599.72
441.01	7492.05
441.19	7555.25
441.38	7695.68
441.57	7798.66
441.75	7777.60
441.94	8011.65
442.12	7777.60
442.31	7810.37
442.50	7892.29
442.68	7899.31
442.87	8124.00
443.05	8145.06
443.24	8257.41
443.43	8152.09
443.61	8065.49
443.80	8475.08
443.98	8095.91
444.17	7911.01
444.35	8028.04
444.54	8329.97
444.73	8454.02
444.91	8215.28
445.10	8322.94
445.28	8184.85
445.47	8238.69
445.65	8290.18
445.84	8547.64
446.02	8351.03
446.21	8683.39
446.39	8372.10
446.58	8505.51
446.77	8475.08
446.95	8196.56
447.14	8423.59
447.32	8493.80
447.51	8624.87
447.69	8409.54
447.88	8402.52
448.06	8603.81
448.25	8482.10
448.43	8496.14
448.62	8344.01
448.80	8510.19
448.99	8739.56
449.17	8732.54
449.36	8461.04
449.54	8819.14
449.73	9149.15
449.91	8798.07
450.10	8826.16
450.28	9062.55
450.46	9198.31
450.65	8870.63
450.83	9111.71
451.02	8849.57
451.20	9191.28
451.39	9139.79
451.57	9146.81
451.76	8793.39
451.94	9027.45
452.13	9123.41
452.31	9210.01
452.49	9130.43
452.68	9397.25
452.86	9195.96
453.05	9394.91
453.23	9413.63
453.42	9238.09
453.60	9217.03
453.78	9465.13
453.97	9301.29
454.15	9472.15
454.34	9383.21
454.52	9607.90
454.70	9614.92
454.89	9734.29
455.07	9767.06
455.26	9572.79
455.44	9701.52
455.62	9902.81
455.81	9797.48
455.99	10038.56
456.17	9937.91
456.36	9888.76
456.54	10040.90
456.73	10094.73
456.91	10719.65
457.09	10223.46
457.28	10637.73
457.46	10368.57
457.64	10604.97
457.83	10523.05
458.01	10335.81
458.19	10548.79
458.38	10541.77
458.56	10834.34
458.74	10647.10
458.93	10801.57
459.11	10906.90
459.29	10736.04
459.48	10736.04
459.66	10616.67
459.84	11023.92
460.03	10883.49
460.21	11007.54
460.39	10974.77
460.57	11208.83
460.76	11026.26
460.94	11220.53
461.12	11021.58
461.31	11080.10
461.49	11075.42
461.67	11164.36
461.85	11367.98
462.04	11269.68
462.22	11763.53
462.40	11618.42
462.59	11386.71
462.77	11318.83
462.95	11461.60
463.13	11625.44
463.32	11648.85
463.50	11676.93
463.68	11784.60
463.86	11915.67
464.05	11604.38
464.23	11658.21
464.41	11939.07
464.59	11690.98
464.78	12063.12
464.96	11941.41
465.14	11896.94
465.32	12191.85
465.50	12053.76
465.69	12088.87
465.87	12109.93
466.05	11901.62
466.23	12121.63
466.41	12372.07
466.60	12512.50
466.78	12145.04
466.96	12306.54
467.14	12173.13
467.32	12269.09
467.51	12496.12
467.69	12077.16
467.87	12259.73
468.05	12526.55
468.23	12341.64
468.41	12404.84
468.60	12580.38
468.78	12683.36
468.96	12587.40
469.14	13008.70
469.32	12905.71
469.50	12603.78
469.69	13114.02
469.87	13125.72
470.05	12844.86
470.23	13322.33
470.41	13008.70
470.59	13224.03
470.77	13137.43
470.95	13109.34
471.14	13511.91
471.32	13174.88
471.50	13242.75
471.68	13516.59
471.86	13511.91
472.04	13572.77
472.22	13593.83
472.40	13462.76
472.58	13785.76
472.77	14150.88
472.95	14038.53
473.13	14579.20
473.31	13708.52
473.49	14387.27
473.67	13745.97
473.85	14291.31
474.03	14450.47
474.21	14469.19
474.39	14892.83
474.57	14946.66
474.75	14665.80
474.93	14703.25
475.12	14960.70
475.30	15143.27
475.48	14899.85
475.66	15033.26
475.84	15129.22
476.02	15220.50
476.20	15351.57
476.38	15356.25
476.56	15873.51
476.74	15796.28
476.92	15829.04
477.10	15789.25
477.28	16479.71
477.46	15777.55
477.64	16168.42
477.82	16428.22
478.00	16961.86
478.18	16727.81
478.36	16830.79
478.54	16814.41
478.72	17188.89
478.90	17486.14
479.08	17619.55
479.26	17825.52
479.44	17376.14
479.62	17982.34
479.80	18080.64
479.98	18286.61
480.16	18572.15
480.34	18352.14
480.52	18434.06
480.70	18469.17
480.88	18394.27
481.06	18450.44
481.24	18939.62
481.41	18958.34
481.59	19185.37
481.77	19522.41
481.95	19538.79
482.13	19779.87
482.31	19255.59
482.49	20255.00
482.67	20135.63
482.85	20372.02
483.03	20709.06
483.21	20699.70
483.39	20842.47
483.57	20774.60
483.74	21212.28
483.92	21546.97
484.10	21085.89
484.28	21579.74
484.46	22192.96
484.64	22520.63
484.82	21862.94
485.00	22466.80
485.18	22771.07
485.35	22864.69
485.53	22675.11
485.71	22548.72
485.89	23365.57
486.07	23353.87
486.25	23384.29
486.43	23157.26
486.61	23726.01
486.78	24119.22
486.96	23941.34
487.14	24601.37
487.32	24786.27
487.50	24587.33
487.68	24919.68
487.85	25322.26
488.03	25331.62
488.21	25886.32
488.39	25509.50
488.57	26108.68
488.75	25844.20
488.92	26375.50
489.10	26616.57
489.28	26600.19
489.46	27044.89
489.64	27072.98
489.81	27592.58
489.99	27241.50
490.17	27463.85
490.35	28297.08
490.53	28173.03
490.70	28315.80
490.88	28121.54
491.06	29057.75
491.24	28638.80
491.41	29209.89
491.59	29123.29
491.77	29085.84
491.95	29497.77
492.13	29638.20
492.30	30000.99
492.48	30096.95
492.66	30433.99
492.84	29984.60
493.01	30703.15
493.19	30714.85
493.37	30958.27
493.54	31063.59
493.72	31297.64
493.90	31239.13
494.08	31744.69
494.25	32081.72
494.43	32109.81
494.61	32645.79
494.79	32163.64
494.96	32334.50
495.14	32748.78
495.32	33345.61
495.49	33230.93
495.67	33006.23
495.85	33582.01
496.02	33589.03
496.20	34258.42
496.38	34043.09
496.55	34185.86
496.73	34873.98
496.91	34380.13
497.09	35061.22
497.26	34923.13
497.44	34773.34
497.62	35285.92
497.79	35505.93
497.97	35461.46
498.14	36002.12
498.32	36100.42
498.50	35608.91
498.67	36418.74
498.85	36259.58
499.03	36587.25
499.20	36655.13
499.38	36533.42
499.56	36910.25
499.73	37273.03
499.91	37219.20
500.08	37397.08
500.26	37076.43
500.44	37280.05
500.61	37790.29
500.79	37940.08
500.97	38073.49
501.14	38761.61
501.32	38497.13
501.49	38267.76
501.67	38696.08
501.84	38698.42
502.02	38583.73
502.20	38789.70
502.37	39136.10
502.55	38766.29
502.72	39496.54
502.90	39859.32
503.07	39473.13
503.25	39885.07
503.43	39622.93
503.60	39709.53
503.78	40369.56
503.95	40069.97
504.13	40446.80
504.30	40055.93
504.48	40788.52
504.65	40304.02
504.83	41006.19
505.01	41069.38
505.18	41146.62
505.36	41139.60
505.53	40844.69
505.71	41677.92
505.88	41722.39
506.06	41668.56
506.23	41715.37
506.41	41275.35
506.58	41572.60
506.76	41818.35
506.93	42394.12
507.11	42150.71
507.28	42302.84
507.46	42576.69
507.63	42927.77
507.81	42799.04
507.98	43086.92
508.16	43220.33
508.33	43363.11
508.50	43594.82
508.68	43079.90
508.85	43847.60
509.03	43632.27
509.20	44006.75
509.38	44240.81
509.55	44509.97
509.73	44313.36
509.90	44629.34
510.08	44371.88
510.25	44634.02
510.42	44900.84
510.60	45064.67
510.77	45483.63
510.95	45563.21
511.12	44935.95
511.30	44987.44
511.47	45460.23
511.64	45329.16
511.82	45682.58
511.99	45535.12
512.17	46033.66
512.34	46082.81
512.51	46330.90
512.69	45958.76
512.86	46279.41
513.04	46265.37
513.21	46686.67
513.38	46923.06
513.56	47180.52
513.73	46590.70
513.90	47112.64
514.08	46637.51
514.25	47061.15
514.43	47412.23
514.60	47292.86
514.77	47014.34
514.95	47475.43
515.12	47089.24
515.29	47407.55
515.47	47601.82
515.64	47868.64
515.81	47660.33
515.99	48280.57
516.16	48467.81
516.33	47838.21
516.51	48294.61
516.68	48329.72
516.85	48430.36
517.03	48830.60
517.20	48779.10
517.37	48451.43
517.54	48882.09
517.72	48725.27
517.89	48870.39
518.06	49219.13
518.24	49235.51
518.41	49169.97
518.58	49399.35
518.75	49158.27
518.93	49626.38
519.10	49460.20
519.27	49689.57
519.45	49523.40
519.62	49897.88
519.79	50134.28
519.96	49890.86
520.14	50248.96
520.31	50071.08
520.48	50267.69
520.65	50225.56
520.83	50588.34
521.00	50529.83
521.17	50377.69
521.34	50600.04
521.52	50581.32
521.69	50749.84
521.86	50934.74
522.03	50759.20
522.20	51370.08
522.38	51330.29
522.55	51035.38
522.72	51505.83
522.89	51131.34
523.07	51461.36
523.24	51318.59
523.41	51384.12
523.58	51428.59
523.75	51847.55
523.92	51854.57
524.10	51849.89
524.27	51906.06
524.44	51964.57
524.61	52100.32
524.78	52116.71
524.96	52367.15
525.13	52130.75
525.30	52257.14
525.47	52556.73
525.64	52500.56
525.81	52425.66
525.98	52657.37
526.16	52746.31
526.33	52657.37
526.50	52917.17
526.67	52648.01
526.84	52758.02
527.01	53027.18
527.18	53010.79
527.36	52987.39
527.53	52851.64
527.70	53551.46
527.87	53237.83
528.04	53436.77
528.21	53057.60
528.38	53439.11
528.55	53380.60
528.72	53509.33
528.89	53141.86
529.07	53130.16
529.24	53586.57
529.41	53453.15
529.58	53684.87
529.75	53371.24
529.92	53729.34
530.09	53705.93
530.26	54021.90
530.43	53818.28
530.60	53518.69
530.77	53776.15
530.94	54272.34
531.11	53951.69
531.28	53837.00
531.46	54307.45
531.63	54368.30
531.80	54234.89
531.97	54152.97
532.14	54089.78
532.31	54438.52
532.48	54756.83
532.65	54536.82
532.82	54532.14
532.99	54525.12
533.16	54522.78
533.33	54827.05
533.50	54890.24
533.67	54735.77
533.84	54529.80
534.01	54719.38
534.18	54906.63
534.35	55079.83
534.52	55147.70
534.69	54866.84
534.86	55171.11
535.03	55054.08
535.20	55112.59
535.37	55327.92
535.54	55323.24
535.71	55058.76
535.88	55559.64
536.05	55283.45
536.22	55374.73
536.38	55657.94
536.55	55585.38
536.72	55454.31
536.89	55458.99
537.06	55409.84
537.23	55634.53
537.40	55295.16
537.57	55915.40
537.74	55639.22
537.91	55899.01
538.08	55845.18
538.25	55735.18
538.42	55772.63
538.59	56020.72
538.75	55838.16
538.92	55955.19
539.09	56058.17
539.26	55938.80
539.43	55985.61
539.60	56034.77
539.77	56212.65
539.94	56287.54
540.11	56435.00
540.28	56374.14
540.44	56327.33
540.61	56402.23
540.78	56423.29
540.95	56343.72
541.12	56449.04
541.29	56355.42
541.46	56608.20
541.62	56633.94
541.79	56619.90
541.96	56367.12
542.13	56676.07
542.30	56542.66
542.47	56814.16
542.63	56631.60
542.80	56877.36
542.97	57057.58
543.14	57167.58
543.31	57099.71
543.48	56966.30
543.64	57394.62
543.81	57134.82
543.98	57240.14
544.15	57336.10
544.32	57258.87
544.48	57315.04
544.65	57361.85
544.82	57490.58
544.99	57205.03
545.16	57207.37
545.32	57069.28
545.49	57612.29
545.66	57666.12
545.83	57476.54
546.00	57766.76
546.16	57668.46
546.33	57588.88
546.50	57553.77
546.67	57815.91
546.83	57411.00
547.00	57703.57
547.17	57539.73
547.34	57827.62
547.50	57939.96
547.67	58209.12
547.84	57900.17
548.00	57998.48
548.17	58096.78
548.34	57879.11
548.51	57923.58
548.67	58162.31
548.84	58071.03
549.01	58049.97
549.18	58089.76
549.34	58108.48
549.51	58223.17
549.68	58351.90
549.84	58391.68
550.01	58166.99
550.18	58185.72
550.34	58403.39
550.51	58253.59
550.68	58068.69
550.84	57968.05
551.01	58185.72
551.18	58515.73
551.34	58375.30
551.51	58429.13
551.68	58637.44
551.84	58497.01
552.01	58653.82
552.18	58618.72
552.34	58546.16
552.51	58614.04
552.68	58468.92
552.84	58585.95
553.01	58850.43
553.18	58773.19
553.34	58873.84
553.51	58663.19
553.67	58679.57
553.84	58834.05
554.01	59030.65
554.17	59100.87
554.34	58719.36
554.51	58915.96
554.67	59068.10
554.84	58831.71
555.00	59161.72
555.17	58794.26
555.33	58988.52
555.50	58754.47
555.67	58927.67
555.83	59044.69
556.00	58995.54
556.16	59341.94
556.33	59143.00
556.50	59398.12
556.66	59313.86
556.83	59231.94
556.99	59311.52
557.16	59547.91
557.32	59236.62
557.49	59529.19
557.65	59140.66
557.82	59269.39
557.98	59465.99
558.15	59440.24
558.32	59503.44
558.48	59388.75
558.65	59334.92
558.81	59473.01
558.98	59398.12
559.14	59653.23
559.31	59695.36
559.47	59606.42
559.64	59739.83
559.80	59732.81
559.97	59599.40
560.13	59491.74
560.30	59501.10
560.46	59578.34
560.63	59796.01
560.79	59611.10
560.96	59938.78
561.12	59788.98
561.29	59784.30
561.45	59917.71
561.61	59819.41
561.78	59711.75
561.94	59798.35
562.11	59868.56
562.27	59915.37
562.44	59992.61
562.60	59882.61
562.77	60016.02
562.93	59730.47
563.10	60156.45
563.26	59765.58
563.42	60083.89
563.59	59833.46
563.75	59882.61
563.92	59852.18
564.08	59917.71
564.24	60210.28
564.41	60004.31
564.57	60140.07
564.74	60004.31
564.90	60097.94
565.07	59976.23
565.23	59915.37
565.39	59985.59
565.56	60250.07
565.72	60013.68
565.88	60023.04
566.05	59884.95
566.21	60261.77
566.38	60065.17
566.54	60434.97
566.70	60329.65
566.87	60420.93
567.03	60086.23
567.19	60390.50
567.36	60161.13
567.52	60238.37
567.68	60383.48
567.85	60364.76
568.01	60287.52
568.17	60350.71
568.34	60226.66
568.50	60144.75
568.66	60378.80
568.83	60299.22
568.99	60231.35
569.15	60526.25
569.32	60217.30
569.48	60282.84
569.64	60467.74
569.81	60278.16
569.97	60273.48
570.13	60348.37
570.30	60348.37
570.46	60381.14
570.62	60357.74
570.78	60519.23
570.95	60596.47
571.11	60376.46
571.27	60229.01
571.43	60612.85
571.60	60505.19
571.76	60306.24
571.92	60774.35
572.09	60488.80
572.25	60514.55
572.41	60348.37
572.57	60559.02
572.74	60676.05
572.90	60568.38
573.06	60573.06
573.22	60821.16
573.38	60430.29
573.55	60659.66
573.71	60807.12
573.87	60512.21
574.03	60542.64
574.20	60736.90
574.36	60355.39
574.52	60547.32
574.68	60470.08
574.84	60699.45
575.01	60760.31
575.17	60755.63
575.33	60615.19
575.49	60467.74
575.65	60556.68
575.82	60680.73
575.98	60685.41
576.14	60914.78
576.30	60783.71
576.46	60762.65
576.62	60786.05
576.79	60671.37
576.95	60500.51
577.11	60734.56
577.27	60767.33
577.43	60886.70
577.59	60793.07
577.75	60640.94
577.92	60694.77
578.08	60605.83
578.24	60669.03
578.40	60912.44
578.56	60989.68
578.72	60720.52
578.88	60961.59
579.04	60849.25
579.21	60746.26
579.37	60767.33
579.53	60790.73
579.69	60425.61
579.85	60636.26
580.01	60788.39
580.17	60657.32
580.33	60842.23
580.49	60933.51
580.65	60994.36
580.82	60846.91
580.98	60786.05
581.14	60835.20
581.30	60966.27
581.46	60954.57
581.62	60919.46
581.78	60711.16
581.94	60928.83
582.10	60863.29
582.26	60786.05
582.42	60725.20
582.58	60783.71
582.74	60938.19
582.90	60900.74
583.06	60718.18
583.22	60566.04
583.38	60699.45
583.54	60814.14
583.70	60961.59
583.86	60963.93
584.02	60750.94
584.18	60949.89
584.34	60837.54
584.50	60999.04
584.66	60748.60
584.82	60891.38
584.98	61155.86
585.14	60851.59
585.30	60795.42
585.46	61057.56
585.62	60949.89
585.78	60963.93
585.94	60748.60
586.10	60900.74
586.26	61113.73
586.42	60839.89
586.58	60980.32
586.74	60851.59
586.90	60980.32
587.06	60987.34
587.22	60945.21
587.38	60865.63
587.54	61155.86
587.70	61207.35
587.86	60942.87
588.02	60898.40
588.18	61130.11
588.34	61020.11
588.49	61055.21
