SpectraSuite Data File
++++++++++++++++++++++++++++++++++++
Date: Fri Oct 25 10:44:22 EDT 2013
User: price-jones
Dark Spectrum Present: No
Reference Spectrum Present: No
Number of Sampled Component Spectra: 1
Spectrometers: USB2+H05261
Integration Time (usec): 100000 (USB2+H05261)
Spectra Averaged: 1 (USB2+H05261)
Boxcar Smoothing: 0 (USB2+H05261)
Correct for Electrical Dark: No (USB2+H05261)
Strobe/Lamp Enabled: No (USB2+H05261)
Correct for Detector Non-linearity: No (USB2+H05261)
Correct for Stray Light: No (USB2+H05261)
Number of Pixels in Processed Spectrum: 2048
>>>>>Begin Processed Spectral Data<<<<<
365.73	65.54
365.92	65.54
366.12	65.54
366.32	39.79
366.52	51.49
366.72	84.26
366.91	72.56
367.11	63.19
367.31	23.41
367.51	56.17
367.70	51.49
367.90	9.36
368.10	14.04
368.30	35.11
368.49	28.09
368.69	9.36
368.89	35.11
369.09	95.96
369.28	32.77
369.48	93.62
369.68	74.90
369.87	100.64
370.07	88.94
370.27	142.77
370.47	189.58
370.66	379.17
370.86	493.85
371.06	477.47
371.25	458.74
371.45	496.19
371.65	433.00
371.84	442.36
372.04	521.94
372.24	433.00
372.44	430.66
372.63	500.87
372.83	519.60
373.03	585.13
373.22	566.41
373.42	596.84
373.62	482.15
373.81	425.98
374.01	599.18
374.21	599.18
374.40	594.50
374.60	545.34
374.79	594.50
374.99	634.29
375.19	669.39
375.38	608.54
375.58	624.92
375.78	533.64
375.97	650.67
376.17	552.37
376.37	662.37
376.56	676.41
376.76	615.56
376.95	601.52
377.15	617.90
377.35	592.16
377.54	685.78
377.74	774.72
377.93	688.12
378.13	737.27
378.33	704.50
378.52	594.50
378.72	662.37
378.91	685.78
379.11	671.73
379.31	706.84
379.50	709.18
379.70	692.80
379.89	744.29
380.09	739.61
380.28	678.76
380.48	718.54
380.68	744.29
380.87	683.44
381.07	683.44
381.26	697.48
381.46	697.48
381.65	772.38
381.85	779.40
382.04	767.70
382.24	662.37
382.43	730.25
382.63	690.46
382.83	758.33
383.02	730.25
383.22	737.27
383.41	718.54
383.61	770.04
383.80	760.67
384.00	767.70
384.19	870.68
384.39	795.78
384.58	828.55
384.78	816.85
384.97	856.64
385.17	791.10
385.36	784.08
385.56	793.44
385.75	833.23
385.95	795.78
386.14	896.43
386.34	926.85
386.53	812.17
386.72	896.43
386.92	976.00
387.11	952.60
387.31	868.34
387.50	912.81
387.70	931.53
387.89	952.60
388.09	959.62
388.28	882.38
388.48	851.96
388.67	957.28
388.86	959.62
389.06	924.51
389.25	973.66
389.45	924.51
389.64	1004.09
389.84	978.34
390.03	1015.79
390.22	1086.01
390.42	1013.45
390.61	952.60
390.81	1104.73
391.00	1046.22
391.19	1074.31
391.39	1107.07
391.58	1104.73
391.78	1109.41
391.97	1036.86
392.16	1057.92
392.36	1123.46
392.55	1104.73
392.75	1088.35
392.94	1076.65
393.13	1018.13
393.33	1062.60
393.52	994.73
393.71	1214.74
393.91	1100.05
394.10	1170.27
394.29	1277.93
394.49	1210.06
394.68	1247.51
394.88	1245.16
395.07	1207.72
395.26	1252.19
395.46	1259.21
395.65	1284.95
395.84	1252.19
396.04	1254.53
396.23	1151.54
396.42	1170.27
396.62	1193.67
396.81	1322.40
397.00	1240.48
397.19	1275.59
397.39	1284.95
397.58	1486.24
397.77	1425.39
397.97	1481.56
398.16	1448.79
398.35	1467.52
398.55	1533.05
398.74	1521.35
398.93	1584.54
399.12	1577.52
399.32	1593.90
399.51	1540.07
399.70	1664.12
399.90	1591.56
400.09	1636.03
400.28	1685.19
400.47	1706.25
400.67	1746.04
400.86	1816.26
401.05	1799.87
401.24	1703.91
401.44	1647.74
401.63	1844.34
401.82	1767.10
402.01	1732.00
402.21	1724.97
402.40	1802.21
402.59	1748.38
402.78	1863.07
402.97	1804.55
403.17	1823.28
403.36	1764.76
403.55	1879.45
403.74	1975.41
403.93	1973.07
404.13	1970.73
404.32	1881.79
404.51	1991.80
404.70	2024.56
404.89	2001.16
405.09	2193.08
405.28	2097.12
405.47	1975.41
405.66	2071.37
405.85	2073.71
406.05	2005.84
406.24	2136.91
406.43	1996.48
406.62	2223.51
406.81	2179.04
407.00	2190.74
407.20	2204.78
407.39	2122.87
407.58	2305.43
407.77	2289.04
407.96	2232.87
408.15	2314.79
408.34	2431.82
408.54	2354.58
408.73	2256.28
408.92	2406.07
409.11	2310.11
409.30	2429.48
409.49	2464.58
409.68	2523.10
409.87	2244.57
410.07	2382.67
410.26	2478.63
410.45	2483.31
410.64	2593.31
410.83	2597.99
411.02	2663.53
411.21	2623.74
411.40	2670.55
411.59	2764.17
411.78	2766.51
411.98	2747.79
412.17	2836.73
412.36	2733.75
412.55	2764.17
412.74	2836.73
412.93	2864.82
413.12	2846.09
413.31	3124.62
413.50	2881.20
413.69	2965.46
413.88	2958.44
414.07	3110.57
414.26	3145.68
414.45	2995.89
414.64	3136.32
414.83	3164.40
415.02	3162.06
415.22	3148.02
415.41	3353.99
415.60	3351.65
415.79	3288.45
415.98	3396.12
416.17	3330.58
416.36	3375.05
416.55	3361.01
416.74	3304.84
416.93	3478.04
417.12	3447.61
417.31	3375.05
417.50	3297.81
417.69	3634.85
417.88	3627.83
418.07	3576.34
418.26	3534.21
418.45	3485.06
418.64	3653.58
418.83	3609.11
419.02	3662.94
419.21	3637.19
419.39	3684.00
419.58	3749.54
419.77	3665.28
419.96	3686.34
420.15	3744.86
420.34	3744.86
420.53	4007.00
420.72	3866.56
420.91	3845.50
421.10	4032.74
421.29	4079.55
421.48	3906.35
421.67	4004.66
421.86	4074.87
422.05	4025.72
422.24	4007.00
422.43	3861.88
422.61	3896.99
422.80	4056.15
422.99	4091.26
423.18	4070.19
423.37	4140.41
423.56	4086.58
423.75	4009.34
423.94	3971.89
424.13	3840.82
424.32	3894.65
424.50	4180.20
424.69	4070.19
424.88	4227.01
425.07	4025.72
425.26	4042.11
425.45	4016.36
425.64	4060.83
425.83	4112.32
426.01	4173.18
426.20	4269.14
426.39	4109.98
426.58	4283.18
426.77	4051.47
426.96	4152.11
427.15	4100.62
427.33	4271.48
427.52	4332.33
427.71	4227.01
427.90	4215.30
428.09	4379.14
428.28	4386.16
428.46	4376.80
428.65	4358.08
428.84	4217.65
429.03	4376.80
429.22	4182.54
429.40	4280.84
429.59	4437.66
429.78	4138.07
429.97	4018.70
430.16	4173.18
430.34	4098.28
430.53	4271.48
430.72	4297.22
430.91	4250.41
431.10	4489.15
431.28	4603.83
431.47	4975.98
431.66	4863.63
431.85	4655.33
432.03	4844.91
432.22	4671.71
432.41	4720.86
432.60	4690.43
432.79	4826.18
432.97	5046.20
433.16	4856.61
433.35	4702.14
433.54	4713.84
433.72	4837.89
433.91	4755.97
434.10	4765.33
434.28	4908.10
434.47	4980.66
434.66	5027.47
434.85	5137.48
435.03	5195.99
435.22	5041.51
435.41	5217.05
435.59	5235.78
435.78	5261.52
435.97	5273.23
436.16	5294.29
436.34	5355.15
436.53	5247.48
436.72	5320.04
436.90	5296.63
437.09	5348.12
437.28	5151.52
437.46	5390.25
437.65	5249.82
437.84	5343.44
438.02	5296.63
438.21	5472.17
438.40	5369.19
438.58	5455.79
438.77	5572.82
438.96	5570.48
439.14	5731.97
439.33	5591.54
439.52	5717.93
439.70	5881.77
439.89	5781.12
440.08	5933.26
440.26	5919.21
440.45	5987.09
440.63	6099.44
440.82	6087.73
441.01	6300.72
441.19	6171.99
441.38	6204.76
441.57	6314.77
441.75	6408.39
441.94	6513.71
442.12	6438.81
442.31	6604.99
442.50	6483.28
442.68	6424.77
442.87	6494.99
443.05	6675.21
443.24	6693.93
443.43	6691.59
443.61	6881.18
443.80	6789.89
443.98	6738.40
444.17	6436.47
444.35	6743.08
444.54	6942.03
444.73	6759.47
444.91	6654.14
445.10	6759.47
445.28	6700.95
445.47	6628.40
445.65	6513.71
445.84	6733.72
446.02	6764.15
446.21	6860.11
446.39	6740.74
446.58	6808.62
446.77	6874.15
446.95	6726.70
447.14	6843.73
447.32	7068.42
447.51	6944.37
447.69	6853.09
447.88	7002.88
448.06	6953.73
448.25	6958.41
448.43	7087.14
448.62	6930.33
448.80	6951.39
448.99	7166.72
449.17	7150.34
449.36	7028.63
449.54	7377.37
449.73	7323.54
449.91	7379.71
450.10	7339.92
450.28	7604.40
450.46	7517.80
450.65	7515.46
450.83	7473.33
451.02	7461.63
451.20	7555.25
451.39	7417.16
451.57	7536.52
451.76	7501.42
451.94	7386.73
452.13	7592.70
452.31	7424.18
452.49	7286.09
452.68	7541.21
452.86	7178.42
453.05	7492.05
453.23	7314.17
453.42	7351.62
453.60	7566.95
453.78	7765.90
453.97	7550.57
454.15	7693.34
454.34	7485.03
454.52	7796.32
454.70	7946.12
454.89	7667.60
455.07	7613.76
455.26	7962.50
455.44	7974.21
455.62	7983.57
455.81	7784.62
455.99	7967.18
456.17	8241.03
456.36	8114.64
456.54	8224.64
456.73	8159.11
456.91	8379.12
457.09	8360.39
457.28	8393.16
457.46	8334.65
457.64	8713.81
457.83	8313.58
458.01	8322.94
458.19	8280.82
458.38	8510.19
458.56	8407.20
458.74	8533.59
458.93	8245.71
459.11	8676.37
459.29	8627.21
459.48	8575.72
459.66	8688.07
459.84	8854.25
460.03	8702.11
460.21	8709.13
460.39	8882.33
460.57	8891.70
460.76	8830.84
460.94	9062.55
461.12	9055.53
461.31	9088.30
461.49	8784.03
461.67	8982.98
461.85	8929.14
462.04	8997.02
462.22	9226.39
462.40	9275.54
462.59	9165.54
462.77	9130.43
462.95	9345.76
463.13	9256.82
463.32	9352.78
463.50	9338.74
463.68	9315.33
463.86	9303.63
464.05	9233.41
464.23	9078.94
464.41	9404.27
464.59	9226.39
464.78	9483.85
464.96	9350.44
465.14	9228.73
465.32	9373.85
465.50	9575.13
465.69	9638.33
465.87	9596.20
466.05	9558.75
466.23	9565.77
466.41	9521.30
466.60	9671.09
466.78	9472.15
466.96	9549.39
467.14	9633.64
467.32	9717.90
467.51	9841.95
467.69	9432.36
467.87	9736.63
468.05	9870.04
468.23	9823.23
468.41	9598.54
468.60	9607.90
468.78	9694.50
468.96	9820.89
469.14	10001.11
469.32	10232.82
469.50	9809.19
469.69	10204.74
469.87	10125.16
470.05	10174.31
470.23	10228.14
470.41	10373.25
470.59	10139.20
470.77	10335.81
470.95	10281.97
471.14	10525.39
471.32	10391.98
471.50	10569.86
471.68	10754.76
471.86	10686.89
472.04	10623.69
472.22	10925.62
472.40	10665.82
472.58	10824.98
472.77	10839.02
472.95	10913.92
473.13	11143.29
473.31	10808.59
473.49	10841.36
473.67	11098.82
473.85	11140.95
474.03	11403.09
474.21	11466.28
474.39	11234.57
474.57	11339.90
474.75	11573.95
474.93	11606.72
475.12	11304.79
475.30	11719.06
475.48	11646.51
475.66	11751.83
475.84	11651.19
476.02	11747.15
476.20	11906.31
476.38	12018.65
476.56	12191.85
476.74	12138.02
476.92	12212.92
477.10	12088.87
477.28	12601.44
477.46	12720.81
477.64	12587.40
477.82	12980.61
478.00	12868.27
478.18	12910.40
478.36	12837.84
478.54	13109.34
478.72	13132.75
478.90	13369.14
479.08	13268.50
479.26	13561.06
479.44	13699.16
479.62	13830.23
479.80	13958.96
479.98	13870.01
480.16	14127.47
480.34	14047.90
480.52	14274.93
480.70	14188.33
480.88	13919.17
481.06	14485.58
481.24	14277.27
481.41	14539.41
481.59	14630.69
481.77	14885.81
481.95	14965.39
482.13	15063.69
482.31	15061.35
482.49	15421.79
482.67	15316.47
482.85	15482.64
483.03	15548.18
483.21	15669.89
483.39	16100.55
483.57	15695.63
483.74	16020.97
483.92	15960.11
484.10	15983.52
484.28	16414.18
484.46	16486.73
484.64	16978.25
484.82	16901.01
485.00	16798.02
485.18	17097.61
485.35	16884.62
485.53	16732.49
485.71	16575.67
485.89	16879.94
486.07	16826.11
486.25	16919.73
486.43	17469.76
486.61	17626.57
486.78	17759.98
486.96	17949.57
487.14	18164.90
487.32	18420.02
487.50	18384.91
487.68	18827.27
487.85	18956.00
488.03	19063.66
488.21	18927.91
488.39	19208.78
488.57	18881.10
488.75	19190.05
488.92	19679.22
489.10	20095.84
489.28	19850.08
489.46	20489.05
489.64	20702.04
489.81	20828.43
489.99	20720.76
490.17	21083.55
490.35	20783.96
490.53	20938.43
490.70	20999.29
490.88	21310.58
491.06	21855.92
491.24	21364.41
491.41	21563.36
491.59	21553.99
491.77	21493.14
491.95	21647.61
492.13	22064.23
492.30	22560.42
492.48	22260.84
492.66	22551.06
492.84	22464.46
493.01	22768.73
493.19	22740.64
493.37	22923.21
493.54	22733.62
493.72	22904.48
493.90	23278.97
494.08	23332.80
494.25	23709.63
494.43	24261.99
494.61	24067.73
494.79	23854.74
494.96	23789.20
495.14	24507.75
495.32	24273.70
495.49	24222.20
495.67	24851.81
495.85	24718.40
496.02	24931.39
496.20	25170.12
496.38	25214.59
496.55	24870.53
496.73	25773.98
496.91	25560.99
497.09	25834.83
497.26	25813.77
497.44	25617.16
497.62	26026.76
497.79	26190.59
497.97	25755.26
498.14	25933.14
498.32	26497.20
498.50	26316.98
498.67	27190.00
498.85	26841.26
499.03	27330.44
499.20	26773.39
499.38	27330.44
499.56	27028.51
499.73	27388.95
499.91	27021.48
500.08	27505.98
500.26	27119.79
500.44	27545.76
500.61	27501.29
500.79	27754.07
500.97	27803.22
501.14	27992.81
501.32	28261.97
501.49	28084.09
501.67	27758.75
501.84	28074.73
502.02	28037.28
502.20	28428.15
502.37	28584.96
502.55	28463.25
502.72	28788.59
502.90	28779.23
503.07	28760.50
503.25	29029.66
503.43	28940.72
503.60	28996.90
503.78	29252.02
503.95	29034.35
504.13	29163.08
504.30	29287.12
504.48	29345.64
504.65	29500.11
504.83	30061.84
505.01	29736.51
505.18	29788.00
505.36	30394.20
505.53	29858.21
505.71	30614.21
505.88	30185.89
506.06	30368.45
506.23	30377.81
506.41	30410.58
506.58	30663.36
506.76	30263.13
506.93	30738.26
507.11	30923.16
507.28	30895.07
507.46	30602.50
507.63	30738.26
507.81	31044.87
507.98	30944.22
508.16	30953.58
508.33	31344.45
508.50	31297.64
508.68	31899.16
508.85	32119.17
509.03	32182.37
509.20	31871.07
509.38	32435.14
509.55	31941.29
509.73	31690.85
509.90	32266.63
510.08	32554.51
510.25	32116.83
510.42	32432.80
510.60	33085.81
510.77	32694.94
510.95	32929.00
511.12	32519.40
511.30	33008.58
511.47	33230.93
511.64	33263.69
511.82	33338.59
511.99	33160.71
512.17	33343.27
512.34	32879.85
512.51	33500.09
512.69	33291.78
512.86	33825.42
513.04	34012.66
513.21	33497.75
513.38	33640.52
513.56	33736.48
513.73	33848.83
513.90	33998.62
514.08	33897.98
514.25	33841.81
514.43	33895.64
514.60	33837.12
514.77	34202.25
514.95	34007.98
515.12	34426.94
515.29	34759.30
515.47	34911.43
515.64	34787.38
515.81	34712.49
515.99	34773.34
516.16	34602.48
516.33	34235.02
516.51	34529.92
516.68	34167.14
516.85	33624.14
517.03	34583.76
517.20	34909.09
517.37	35297.62
517.54	34986.33
517.72	35030.80
517.89	34323.96
518.06	34745.25
518.24	35215.70
518.41	35229.74
518.58	35353.79
518.75	35393.58
518.93	35714.23
519.10	35438.05
519.27	36198.73
519.45	36025.53
519.62	36027.87
519.79	36390.65
519.96	36016.16
520.14	36350.86
520.31	36224.47
520.48	36580.23
520.65	36699.60
520.83	36912.59
521.00	37010.89
521.17	37013.23
521.34	37092.81
521.52	37212.18
521.69	37043.66
521.86	37057.70
522.03	36992.17
522.20	37429.85
522.38	36889.18
522.55	37326.86
522.72	37359.63
522.89	37071.75
523.07	37439.21
523.24	37383.04
523.41	37982.21
523.58	37598.37
523.75	38096.90
523.92	38115.62
524.10	38171.80
524.27	38326.27
524.44	37708.37
524.61	38483.09
524.78	38518.20
524.96	37991.58
525.13	38941.83
525.30	38918.43
525.47	38911.41
525.64	38609.48
525.81	39084.61
525.98	38515.86
526.16	38719.48
526.33	37949.45
526.50	38560.33
526.67	38181.16
526.84	38452.66
527.01	38471.39
527.18	38836.51
527.36	39463.77
527.53	39402.92
527.70	39395.90
527.87	39171.21
528.04	39189.93
528.21	39082.27
528.38	38967.58
528.55	39828.90
528.72	39620.59
528.89	39971.67
529.07	39861.66
529.24	39342.06
529.41	39868.69
529.58	39618.25
529.75	39950.60
529.92	39835.92
530.09	40240.83
530.26	39957.63
530.43	40353.18
530.60	40252.53
530.77	40114.44
530.94	40624.68
531.11	40587.23
531.28	40453.82
531.46	40643.40
531.63	40238.49
531.80	40484.25
531.97	40662.13
532.14	40870.43
532.31	39997.41
532.48	40273.60
532.65	40580.21
532.82	40467.86
532.99	40800.22
533.16	40942.99
533.33	40825.96
533.50	40985.12
533.67	41205.13
533.84	40999.16
534.01	40776.81
534.18	41298.75
534.35	41366.63
534.52	41425.14
534.69	41151.30
534.86	41305.77
535.03	41457.91
535.20	41500.04
535.37	41769.20
535.54	41387.69
535.71	41600.68
535.88	41724.73
536.05	41839.42
536.22	41631.11
536.38	41558.55
536.55	41273.01
536.72	41837.08
536.89	41556.21
537.06	41738.77
537.23	41785.58
537.40	41928.36
537.57	42305.18
537.74	42029.00
537.91	42590.73
538.08	42183.48
538.25	42033.68
538.42	42356.67
538.59	42660.94
538.75	42171.77
538.92	42101.56
539.09	42459.66
539.26	42174.11
539.43	42225.60
539.60	42452.64
539.77	42157.73
539.94	42265.39
540.11	41968.15
540.28	42817.76
540.44	42693.71
540.61	42281.78
540.78	42464.34
540.95	42258.37
541.12	42679.67
541.29	42560.30
541.46	42887.98
541.62	42667.97
541.79	43182.88
541.96	42710.10
542.13	42932.45
542.30	42815.42
542.47	42831.80
542.63	43096.28
542.80	43430.98
542.97	43540.99
543.14	43650.99
543.31	43379.49
543.48	43838.23
543.64	43782.06
543.81	43676.74
543.98	44247.83
544.15	43988.03
544.32	43966.96
544.48	44271.23
544.65	43859.30
544.82	43943.56
544.99	43386.51
545.16	43966.96
545.32	43761.00
545.49	43910.79
545.66	44343.79
545.83	44318.04
546.00	44587.21
546.16	44189.31
546.33	44051.22
546.50	43655.67
546.67	44175.27
546.83	43615.88
547.00	44481.88
547.17	43950.58
547.34	43882.70
547.50	44428.05
547.67	44512.31
547.84	44308.68
548.00	44456.14
548.17	44524.01
548.34	44584.86
548.51	45043.61
548.67	44346.13
548.84	44542.74
549.01	44676.15
549.18	44575.50
549.34	44795.51
549.51	44879.77
549.68	44893.82
549.84	44809.56
550.01	45207.45
550.18	44896.16
550.34	44889.13
550.51	44886.79
550.68	44704.23
550.84	44783.81
551.01	45453.20
551.18	45205.11
551.34	44940.63
551.51	45460.23
551.68	45230.85
551.84	44865.73
552.01	45041.27
552.18	44968.71
552.34	44767.43
552.51	45256.60
552.68	44732.32
552.84	45214.47
553.01	45853.44
553.18	45284.68
553.34	45195.74
553.51	45207.45
553.67	45116.17
553.84	45406.39
554.01	45294.05
554.17	45717.68
554.34	45888.54
554.51	45813.65
554.67	45717.68
554.84	45703.64
555.00	45645.13
555.17	45439.16
555.33	45741.09
555.50	45397.03
555.67	45212.13
555.83	45881.52
556.00	46103.87
556.16	45942.38
556.33	45682.58
556.50	45858.12
556.66	45848.75
556.83	46040.68
556.99	45858.12
557.16	45986.85
557.32	45762.15
557.49	45867.48
557.65	46038.34
557.82	45897.91
557.98	46061.74
558.15	45947.06
558.32	45888.54
558.48	45640.45
558.65	46239.62
558.81	45703.64
558.98	45881.52
559.14	45773.86
559.31	46017.27
559.47	46101.53
559.64	46312.18
559.80	46241.96
559.97	46141.32
560.13	46178.77
560.30	45785.56
560.46	45965.78
560.63	46019.61
560.79	46377.72
560.96	46824.76
561.12	46429.21
561.29	46267.71
561.45	45907.27
561.61	46436.23
561.78	46099.19
561.94	46501.76
562.11	46564.96
562.27	46588.36
562.44	46422.19
562.60	46593.04
562.77	46902.00
562.93	46354.31
563.10	46841.14
563.26	46148.34
563.42	46550.91
563.59	46466.66
563.75	46241.96
563.92	46670.28
564.08	46483.04
564.24	46703.05
564.41	46607.09
564.57	46319.20
564.74	46384.74
564.90	45984.51
565.07	46686.67
565.23	46724.11
565.39	46471.34
565.56	46522.83
565.72	46237.28
565.88	46389.42
566.05	46459.63
566.21	46401.12
566.38	46527.51
566.54	46525.17
566.70	46885.61
566.87	46916.04
567.03	47047.11
567.19	47007.32
567.36	46911.36
567.52	46586.02
567.68	46761.56
567.85	46656.24
568.01	46679.64
568.17	46443.25
568.34	46979.23
568.50	46560.28
568.66	46443.25
568.83	46761.56
568.99	46569.64
569.15	46548.57
569.32	46775.61
569.48	46370.69
569.64	46653.90
569.81	47042.43
569.97	46700.71
570.13	46513.47
570.30	46665.60
570.46	46632.83
570.62	46597.73
570.78	46494.74
570.95	46387.08
571.11	46831.78
571.27	46478.36
571.43	46295.80
571.60	46873.91
571.76	46972.21
571.92	46642.20
572.09	46597.73
572.25	47122.01
572.41	46438.57
572.57	47159.45
572.74	46869.23
572.90	46581.34
573.06	46887.95
573.22	46899.65
573.38	47019.02
573.55	46721.77
573.71	46997.96
573.87	47037.75
574.03	46904.34
574.20	46703.05
574.36	46904.34
574.52	47180.52
574.68	47000.30
574.84	46602.41
575.01	46607.09
575.17	46979.23
575.33	46335.59
575.49	46698.37
575.65	46967.53
575.82	46742.84
575.98	46642.20
576.14	47114.98
576.30	46658.58
576.46	46522.83
576.62	46967.53
576.79	47072.85
576.95	46733.48
577.11	46813.05
577.27	46799.01
577.43	46848.16
577.59	46869.23
577.75	46862.21
577.92	46794.33
578.08	46948.81
578.24	46370.69
578.40	46717.09
578.56	46754.54
578.72	47021.36
578.88	47072.85
579.04	47606.50
579.21	46873.91
579.37	47077.54
579.53	47007.32
579.69	46934.76
579.85	46642.20
580.01	47061.15
580.17	46555.60
580.33	47365.42
580.49	47058.81
580.65	47063.49
580.82	47065.83
580.98	46747.52
581.14	47150.09
581.30	47028.38
581.46	46918.38
581.62	47318.61
581.78	46958.17
581.94	47536.28
582.10	46721.77
582.26	47079.88
582.42	46951.15
582.58	47246.05
582.74	47103.28
582.90	47229.67
583.06	46997.96
583.22	47281.16
583.38	47112.64
583.54	47526.92
583.70	46993.28
583.86	47402.87
584.02	47217.97
584.18	46609.43
584.34	46946.47
584.50	46887.95
584.66	46740.50
584.82	46635.17
584.98	47262.44
585.14	47019.02
585.30	46885.61
585.46	47159.45
585.62	47072.85
585.78	46934.76
585.94	46621.13
586.10	46745.18
586.26	46852.84
586.42	47239.03
586.58	47173.50
586.74	47084.56
586.90	46972.21
587.06	46813.05
587.22	47178.18
587.38	46967.53
587.54	47353.72
587.70	47283.50
587.86	46747.52
588.02	46852.84
588.18	47215.63
588.34	47016.68
588.49	46223.24
588.65	46066.42
588.81	46476.02
588.97	46508.79
589.13	46146.00
589.29	46281.75
589.45	46887.95
589.61	46616.45
589.77	46745.18
589.93	46696.03
