SpectraSuite Data File
++++++++++++++++++++++++++++++++++++
Date: Fri Oct 25 11:22:50 EDT 2013
User: price-jones
Dark Spectrum Present: No
Reference Spectrum Present: No
Number of Sampled Component Spectra: 1
Spectrometers: USB2+H05261
Integration Time (usec): 100000 (USB2+H05261)
Spectra Averaged: 1 (USB2+H05261)
Boxcar Smoothing: 0 (USB2+H05261)
Correct for Electrical Dark: No (USB2+H05261)
Strobe/Lamp Enabled: No (USB2+H05261)
Correct for Detector Non-linearity: No (USB2+H05261)
Correct for Stray Light: No (USB2+H05261)
Number of Pixels in Processed Spectrum: 2048
>>>>>Begin Processed Spectral Data<<<<<
365.73	234.05
365.92	234.05
366.12	234.05
366.32	110.01
366.52	95.96
366.72	187.24
366.91	152.13
367.11	119.37
367.31	131.07
367.51	110.01
367.70	84.26
367.90	121.71
368.10	37.45
368.30	138.09
368.49	56.17
368.69	163.84
368.89	212.99
369.09	126.39
369.28	121.71
369.48	152.13
369.68	222.35
369.87	194.26
370.07	201.29
370.27	177.88
370.47	262.14
370.66	603.86
370.86	620.24
371.06	669.39
371.25	678.76
371.45	667.05
371.65	662.37
371.84	624.92
372.04	664.71
372.24	744.29
372.44	732.59
372.63	753.65
372.83	697.48
373.03	765.36
373.22	805.14
373.42	791.10
373.62	751.31
373.81	779.40
374.01	851.96
374.21	863.66
374.40	772.38
374.60	821.53
374.79	823.87
374.99	788.76
375.19	763.01
375.38	851.96
375.58	830.89
375.78	840.25
375.97	910.47
376.17	873.02
376.37	912.81
376.56	863.66
376.76	940.90
376.95	877.70
377.15	835.57
377.35	964.30
377.54	926.85
377.74	973.66
377.93	823.87
378.13	870.68
378.33	901.11
378.52	943.24
378.72	952.60
378.91	938.55
379.11	915.15
379.31	915.15
379.50	917.49
379.70	1025.15
379.89	929.19
380.09	1001.75
380.28	1034.52
380.48	983.02
380.68	1069.62
380.87	987.71
381.07	1057.92
381.26	1043.88
381.46	978.34
381.65	1011.11
381.85	1032.18
382.04	976.00
382.24	1071.97
382.43	1076.65
382.63	987.71
382.83	1118.78
383.02	1055.58
383.22	1114.10
383.41	980.68
383.61	1062.60
383.80	1078.99
384.00	1086.01
384.19	1057.92
384.39	1153.88
384.58	1144.52
384.78	1093.03
384.97	1076.65
385.17	1170.27
385.36	1158.57
385.56	1174.95
385.75	1205.38
385.95	1116.44
386.14	1252.19
386.34	1242.82
386.53	1156.22
386.72	1240.48
386.92	1287.29
387.11	1256.87
387.31	1156.22
387.50	1242.82
387.70	1198.35
387.89	1254.53
388.09	1310.70
388.28	1270.91
388.48	1301.34
388.67	1329.42
388.86	1259.21
389.06	1364.53
389.25	1331.76
389.45	1394.96
389.64	1291.98
389.84	1448.79
390.03	1315.38
390.22	1427.73
390.42	1371.55
390.61	1362.19
390.81	1495.60
391.00	1362.19
391.19	1385.60
391.39	1359.85
391.58	1472.20
391.78	1420.71
391.97	1439.43
392.16	1411.34
392.36	1619.65
392.55	1673.48
392.75	1511.99
392.94	1448.79
393.13	1589.22
393.33	1561.14
393.52	1577.52
393.71	1614.97
393.91	1631.35
394.10	1516.67
394.29	1523.69
394.49	1631.35
394.68	1654.76
394.88	1621.99
395.07	1629.01
395.26	1582.20
395.46	1682.85
395.65	1657.10
395.84	1664.12
396.04	1652.42
396.23	1769.44
396.42	1750.72
396.62	1715.61
396.81	1736.68
397.00	1760.08
397.19	1778.81
397.39	1739.02
397.58	1804.55
397.77	1755.40
397.97	1881.79
398.16	1769.44
398.35	1940.30
398.55	1858.39
398.74	1928.60
398.93	1888.81
399.12	2017.54
399.32	1834.98
399.51	1916.90
399.70	2062.01
399.90	2050.31
400.09	1970.73
400.28	1956.69
400.47	2050.31
400.67	2099.46
400.86	2148.61
401.05	2071.37
401.24	2069.03
401.44	2092.44
401.63	2169.68
401.82	2155.63
402.01	2106.48
402.21	2146.27
402.40	2125.21
402.59	2214.15
402.78	2111.16
402.97	2286.70
403.17	2186.06
403.36	2122.87
403.55	2244.57
403.74	2221.17
403.93	2310.11
404.13	2349.90
404.32	2345.22
404.51	2377.98
404.70	2495.01
404.89	2422.45
405.09	2499.69
405.28	2495.01
405.47	2359.26
405.66	2518.42
405.85	2483.31
406.05	2541.82
406.24	2602.68
406.43	2553.52
406.62	2609.70
406.81	2579.27
407.00	2663.53
407.20	2532.46
407.39	2628.42
407.58	2703.32
407.77	2829.71
407.96	2773.53
408.15	2722.04
408.34	2768.85
408.54	2768.85
408.73	2766.51
408.92	2944.39
409.11	2799.28
409.30	2836.73
409.49	2960.78
409.68	2888.22
409.87	2920.99
410.07	2960.78
410.26	3094.19
410.45	3061.42
410.64	3028.65
410.83	3129.30
411.02	3199.51
411.21	3171.43
411.40	3033.33
411.59	3239.30
411.78	3215.90
411.98	3077.80
412.17	3229.94
412.36	3213.56
412.55	3267.39
412.74	3297.81
412.93	3461.65
413.12	3433.57
413.31	3674.64
413.50	3588.04
413.69	3574.00
413.88	3620.81
414.07	3609.11
414.26	3616.13
414.45	3686.34
414.64	3794.01
414.83	3684.00
415.02	3873.59
415.22	3819.75
415.41	3887.63
415.60	3765.92
415.79	3988.27
415.98	3939.12
416.17	3957.85
416.36	3918.06
416.55	3950.82
416.74	4142.75
416.93	4051.47
417.12	4105.30
417.31	4201.26
417.50	4175.52
417.69	4383.82
417.88	4283.18
418.07	4266.80
418.26	4187.22
418.45	4329.99
418.64	4491.49
418.83	4432.97
419.02	4362.76
419.21	4468.08
419.39	4486.81
419.58	4489.15
419.77	4662.35
419.96	4655.33
420.15	4437.66
420.34	4594.47
420.53	4596.81
420.72	4739.58
420.91	4660.01
421.10	4629.58
421.29	4858.95
421.48	4660.01
421.67	4744.27
421.86	4744.27
422.05	4854.27
422.24	4933.85
422.43	4912.78
422.61	4975.98
422.80	5107.05
422.99	4889.38
423.18	5095.35
423.37	4800.44
423.56	5011.09
423.75	4924.49
423.94	4844.91
424.13	4681.07
424.32	4695.11
424.50	5123.43
424.69	5181.95
424.88	5085.98
425.07	5029.81
425.26	5067.26
425.45	4924.49
425.64	4964.28
425.83	5018.11
426.01	5104.71
426.20	5123.43
426.39	5107.05
426.58	5085.98
426.77	5043.85
426.96	5076.62
427.15	5116.41
427.33	5163.22
427.52	5210.03
427.71	5247.48
427.90	5116.41
428.09	5231.10
428.28	5305.99
428.46	5451.11
428.65	5364.51
428.84	5526.00
429.03	5610.26
429.22	5336.42
429.40	5474.51
429.59	5542.39
429.78	5334.08
429.97	5217.05
430.16	5434.72
430.34	5540.05
430.53	5647.71
430.72	5640.69
430.91	5526.00
431.10	5717.93
431.28	5834.96
431.47	5795.17
431.66	5951.98
431.85	5909.85
432.03	5898.15
432.22	6029.22
432.41	6001.13
432.60	6111.14
432.79	5935.60
432.97	6181.35
433.16	6188.38
433.35	5961.34
433.54	6237.53
433.72	6155.61
433.91	6188.38
434.10	6129.86
434.28	6342.85
434.47	6232.85
434.66	6410.73
434.85	6429.45
435.03	6408.39
435.22	6225.82
435.41	6389.66
435.59	6392.00
435.78	6382.64
435.97	6586.27
436.16	6480.94
436.34	6546.48
436.53	6422.43
436.72	6604.99
436.90	6579.25
437.09	6670.53
437.28	6502.01
437.46	6567.54
437.65	6703.29
437.84	6729.04
438.02	6853.09
438.21	6773.51
438.40	6644.78
438.58	7026.29
438.77	7080.12
438.96	7070.76
439.14	7201.83
439.33	7171.40
439.52	7307.15
439.70	7054.37
439.89	7269.70
440.08	7485.03
440.26	7351.62
440.45	7279.07
440.63	7602.06
440.82	7508.44
441.01	7499.08
441.19	7669.94
441.38	7786.96
441.57	7651.21
441.75	7772.92
441.94	8119.32
442.12	8173.15
442.31	8016.33
442.50	8107.62
442.68	7964.84
442.87	7882.92
443.05	8175.49
443.24	8208.26
443.43	8248.05
443.61	8194.22
443.80	8634.24
443.98	8182.51
444.17	7922.71
444.35	8318.26
444.54	8313.58
444.73	8439.97
444.91	8393.16
445.10	8327.63
445.28	8336.99
445.47	8519.55
445.65	8428.27
445.84	8449.33
446.02	8559.34
446.21	8547.64
446.39	8262.09
446.58	8561.68
446.77	8444.65
446.95	8131.02
447.14	8482.10
447.32	8711.47
447.51	8421.25
447.69	8613.17
447.88	8512.53
448.06	8767.65
448.25	8667.00
448.43	8613.17
448.62	8617.85
448.80	8423.59
448.99	8629.56
449.17	8865.95
449.36	8664.66
449.54	8924.46
449.73	9231.07
449.91	9181.92
450.10	9071.92
450.28	9116.39
450.46	9097.66
450.65	9069.58
450.83	9235.75
451.02	9041.49
451.20	9144.47
451.39	9139.79
451.57	9312.99
451.76	9071.92
451.94	9252.14
452.13	9343.42
452.31	9486.19
452.49	9238.09
452.68	9453.42
452.86	9338.74
453.05	9376.19
453.23	9474.49
453.42	9411.29
453.60	9460.45
453.78	9516.62
453.97	9467.47
454.15	9624.28
454.34	9549.39
454.52	9788.12
454.70	9706.20
454.89	9724.93
455.07	9963.66
455.26	9935.57
455.44	9921.53
455.62	9792.80
455.81	9933.23
455.99	10057.28
456.17	10043.24
456.36	10216.44
456.54	10197.71
456.73	10366.23
456.91	10478.58
457.09	10424.75
457.28	10707.95
457.46	10258.57
457.64	10621.35
457.83	10621.35
458.01	10635.39
458.19	10721.99
458.38	10630.71
458.56	11016.90
458.74	10707.95
458.93	10717.31
459.11	10820.30
459.29	10916.26
459.48	10843.70
459.66	10895.19
459.84	10942.00
460.03	11035.63
460.21	10970.09
460.39	11143.29
460.57	10913.92
460.76	11140.95
460.94	11269.68
461.12	11377.34
461.31	11037.97
461.49	11232.23
461.67	11147.97
461.85	11559.91
462.04	11545.86
462.22	11981.20
462.40	11559.91
462.59	11496.71
462.77	11466.28
462.95	11744.81
463.13	11513.10
463.32	11721.40
463.50	11747.15
463.68	12037.38
463.86	12013.97
464.05	11878.22
464.23	11833.75
464.41	11913.33
464.59	11674.59
464.78	12025.67
464.96	12011.63
465.14	11941.41
465.32	12098.23
465.50	12187.17
465.69	11988.22
465.87	11946.09
466.05	11974.18
466.23	12159.08
466.41	12606.13
466.60	12585.06
466.78	12332.28
466.96	12407.18
467.14	12273.77
467.32	12587.40
467.51	12437.61
467.69	12397.82
467.87	12512.50
468.05	12475.06
468.23	12681.02
468.41	12491.44
468.60	12627.19
468.78	12578.04
468.96	12643.57
469.14	12849.54
469.32	13186.58
469.50	12706.77
469.69	13074.23
469.87	13207.64
470.05	12971.25
470.23	13184.24
470.41	13341.05
470.59	13542.34
470.77	13205.30
470.95	13408.93
471.14	13589.15
471.32	13305.95
471.50	13680.43
471.68	13776.39
471.86	13912.14
472.04	13832.57
472.22	14071.30
472.40	13764.69
472.58	13919.17
472.77	14087.68
472.95	14237.48
473.13	14506.64
473.31	14174.28
473.49	14190.67
473.67	14375.57
473.85	14429.40
474.03	14696.22
474.21	14782.82
474.39	14703.25
474.57	14864.74
474.75	14913.89
474.93	15026.24
475.12	15000.49
475.30	15433.49
475.48	15138.58
475.66	15342.21
475.84	15147.95
476.02	15384.34
476.20	15555.20
476.38	16006.92
476.56	16013.95
476.74	16091.18
476.92	16025.65
477.10	15728.40
477.28	16332.26
477.46	16379.07
477.64	16519.50
477.82	16362.69
478.00	16959.52
478.18	16835.47
478.36	16704.40
478.54	17301.24
478.72	17041.44
478.90	17736.58
479.08	17446.35
479.26	17940.21
479.44	17743.60
479.62	17818.50
479.80	18150.85
479.98	18134.47
480.16	18640.03
480.34	18373.21
480.52	18675.13
480.70	18815.57
480.88	18562.79
481.06	18822.59
481.24	19021.53
481.41	19080.05
481.59	19618.37
481.77	19604.33
481.95	19566.88
482.13	19878.17
482.31	19906.26
482.49	20472.67
482.67	20240.95
482.85	20521.82
483.03	20947.79
483.21	21057.80
483.39	20711.40
483.57	20746.51
483.74	21223.98
483.92	21378.45
484.10	21179.51
484.28	22143.81
484.46	22370.84
484.64	22558.08
484.82	22132.11
485.00	22499.57
485.18	23138.54
485.35	22916.19
485.53	22824.90
485.71	23094.07
485.89	23789.20
486.07	23445.15
486.25	23494.30
486.43	23765.80
486.61	23487.28
486.78	24367.32
486.96	24563.92
487.14	24641.16
487.32	24603.71
487.50	25015.65
487.68	25001.60
487.85	25436.94
488.03	25671.00
488.21	26141.44
488.39	26120.38
488.57	26118.04
488.75	26115.70
488.92	26506.57
489.10	26817.86
489.28	26867.01
489.46	27391.29
489.64	27157.24
489.81	27620.66
489.99	27435.76
490.17	28011.53
490.35	28524.11
490.53	28346.23
490.70	28535.81
490.88	28580.28
491.06	29120.95
491.24	28985.19
491.41	29198.18
491.59	29605.44
491.77	29298.83
491.95	29642.88
492.13	30024.39
492.30	30398.88
492.48	30185.89
492.66	30272.49
492.84	30401.22
493.01	30712.51
493.19	30984.01
493.37	31337.43
493.54	31344.45
493.72	31632.34
493.90	31742.35
494.08	31899.16
494.25	32521.74
494.43	32088.74
494.61	32514.72
494.79	32804.95
494.96	32999.21
495.14	33062.41
495.32	33333.91
495.49	33350.29
495.67	33612.43
495.85	33427.53
496.02	33907.34
496.20	34389.49
496.38	34429.28
496.55	34546.31
496.73	34885.68
496.91	34895.05
497.09	35075.27
497.26	34927.81
497.44	35208.68
497.62	35634.66
497.79	36140.21
497.97	35576.14
498.14	36170.64
498.32	36147.23
498.50	36208.09
498.67	36734.71
498.85	37031.96
499.03	37106.85
499.20	36835.35
499.38	37174.73
499.56	37244.94
499.73	37511.77
499.91	37738.80
500.08	37830.08
500.26	37682.62
500.44	37741.14
500.61	38031.36
500.79	37844.12
500.97	38085.20
501.14	38569.69
501.32	38602.46
501.49	38972.26
501.67	39129.08
501.84	39117.37
502.02	38946.51
502.20	39161.84
502.37	39438.03
502.55	39395.90
502.72	39543.35
502.90	39929.54
503.07	39271.85
503.25	40119.12
503.43	40336.79
503.60	39871.03
503.78	40491.27
503.95	40449.14
504.13	40767.45
504.30	41132.57
504.48	40533.40
504.65	41144.28
504.83	41488.34
505.01	41694.30
505.18	41832.39
505.36	41654.51
505.53	41729.41
505.71	41975.17
505.88	42522.85
506.06	41731.75
506.23	41874.52
506.41	42202.20
506.58	42377.74
506.76	42581.37
506.93	43117.35
507.11	42490.09
507.28	42822.44
507.46	43196.93
507.63	43157.14
507.81	43580.78
507.98	42974.58
508.16	43526.94
508.33	43969.30
508.50	43936.54
508.68	43938.88
508.85	44322.72
509.03	44046.54
509.20	44547.42
509.38	44687.85
509.55	44760.40
509.73	44641.04
509.90	44935.95
510.08	44772.11
510.25	44973.39
510.42	44896.16
510.60	45338.52
510.77	45296.39
510.95	45886.20
511.12	45422.78
511.30	45666.19
511.47	45804.28
511.64	45993.87
511.82	45872.16
511.99	45422.78
512.17	46403.46
512.34	45869.82
512.51	46827.10
512.69	46958.17
512.86	46440.91
513.04	47178.18
513.21	46993.28
513.38	47079.88
513.56	47178.18
513.73	47217.97
513.90	47126.69
514.08	46763.90
514.25	47749.27
514.43	47566.71
514.60	47950.56
514.77	47749.27
514.95	47978.64
515.12	47976.30
515.29	48215.04
515.47	48306.32
515.64	48250.14
515.81	48013.75
515.99	48608.25
516.16	48765.06
516.33	48638.67
516.51	48907.83
516.68	48931.24
516.85	48587.18
517.03	49209.76
517.20	49162.95
517.37	49254.23
517.54	48928.90
517.72	49397.01
517.89	49359.56
518.06	49521.05
518.24	49455.52
518.41	49525.74
518.58	49897.88
518.75	49528.08
518.93	49551.48
519.10	49937.67
519.27	50279.39
519.45	50014.91
519.62	50099.17
519.79	49808.94
519.96	50349.60
520.14	50314.50
520.31	50124.91
520.48	50710.05
520.65	50597.70
520.83	50651.53
521.00	50735.79
521.17	50632.81
521.34	50712.39
521.52	50789.62
521.69	50981.55
521.86	51260.07
522.03	51185.18
522.20	51477.74
522.38	51955.21
522.55	51452.00
522.72	51597.11
522.89	51501.15
523.07	51901.38
523.24	51854.57
523.41	51679.03
523.58	51634.56
523.75	52121.39
523.92	52044.15
524.10	51987.98
524.27	51973.94
524.44	52296.93
524.61	52442.04
524.78	52172.88
524.96	52353.10
525.13	52467.79
525.30	52886.74
525.47	52863.34
525.64	52577.79
525.81	52980.37
525.98	53052.92
526.16	52844.62
526.33	53125.48
526.50	53378.26
526.67	53109.10
526.84	53073.99
527.01	53095.05
527.18	53298.68
527.36	53123.14
527.53	53244.85
527.70	53429.75
527.87	53563.16
528.04	53104.41
528.21	53389.96
528.38	53389.96
528.55	53619.33
528.72	53598.27
528.89	53675.51
529.07	53743.38
529.24	53492.94
529.41	53909.56
529.58	53947.01
529.75	53965.73
529.92	54012.54
530.09	53949.35
530.26	54482.99
530.43	54005.52
530.60	53787.85
530.77	54049.99
530.94	54169.36
531.11	54075.74
531.28	54288.73
531.46	54309.79
531.63	54670.23
531.80	54600.02
531.97	54639.81
532.14	54695.98
532.31	54684.28
532.48	54920.67
532.65	54773.22
532.82	54611.72
532.99	54780.24
533.16	54939.39
533.33	54878.54
533.50	55206.22
533.67	54672.57
533.84	55028.34
534.01	55061.10
534.18	55154.72
534.35	55421.55
534.52	55423.89
534.69	55405.16
534.86	55732.84
535.03	55107.91
535.20	55398.14
535.37	55604.11
535.54	55416.86
535.71	55494.10
535.88	55526.87
536.05	55798.37
536.22	55744.54
536.38	55629.85
536.55	55618.15
536.72	56072.21
536.89	55767.94
537.06	55702.41
537.23	56147.11
537.40	55920.08
537.57	55866.25
537.74	56039.45
537.91	56404.57
538.08	56004.34
538.25	55859.23
538.42	56046.47
538.59	56292.22
538.75	56025.40
538.92	56266.48
539.09	56512.23
539.26	56107.32
539.43	56275.84
539.60	56383.51
539.77	56287.54
539.94	56647.99
540.11	56720.54
540.28	56659.69
540.44	56769.69
540.61	56409.25
540.78	56484.15
540.95	56647.99
541.12	56582.45
541.29	56732.25
541.46	56477.13
541.62	56697.14
541.79	56797.78
541.96	56690.12
542.13	56767.35
542.30	56996.73
542.47	57071.62
542.63	57174.61
542.80	57113.75
542.97	57301.00
543.14	57476.54
543.31	57219.08
543.48	57560.79
543.64	57464.83
543.81	57455.47
543.98	57422.70
544.15	57570.16
544.32	57874.43
544.48	57722.29
544.65	57631.01
544.82	57394.62
544.99	57345.47
545.16	57593.56
545.32	57638.03
545.49	57792.51
545.66	57900.17
545.83	57567.82
546.00	57705.91
546.16	58000.82
546.33	57787.83
546.50	57778.46
546.67	57811.23
546.83	57731.65
547.00	57883.79
547.17	57961.03
547.34	58017.20
547.50	58064.01
547.67	58071.03
547.84	58220.83
548.00	58475.94
548.17	58417.43
548.34	58220.83
548.51	58340.19
548.67	58398.71
548.84	58298.06
549.01	58227.85
549.18	58363.60
549.34	58379.98
549.51	58581.27
549.68	58658.51
549.84	58686.59
550.01	58557.86
550.18	58433.81
550.34	58649.14
550.51	58749.79
550.68	58609.35
550.84	58403.39
551.01	58817.66
551.18	58796.60
551.34	58700.64
551.51	58599.99
551.68	58557.86
551.84	58562.54
552.01	58731.06
552.18	58953.41
552.34	58857.45
552.51	59023.63
552.68	58773.19
552.84	59049.38
553.01	59194.49
553.18	58885.54
553.34	58934.69
553.51	58927.67
553.67	58820.00
553.84	59075.12
554.01	59114.91
554.17	59000.22
554.34	59058.74
554.51	58965.12
554.67	59042.35
554.84	59164.06
555.00	59051.72
555.17	59178.10
555.33	59166.40
555.50	59182.79
555.67	59014.27
555.83	59220.23
556.00	59419.18
556.16	59604.08
556.33	59629.83
556.50	59131.29
556.66	59384.07
556.83	59255.34
556.99	59597.06
557.16	59634.51
557.32	59721.11
557.49	59863.88
557.65	59386.41
557.82	59494.08
557.98	59400.46
558.15	59564.29
558.32	59812.39
558.48	59412.16
558.65	59646.21
558.81	59688.34
558.98	59732.81
559.14	59693.02
559.31	59779.62
559.47	59826.43
559.64	59746.86
559.80	59868.56
559.97	60011.34
560.13	59693.02
560.30	59898.99
560.46	59887.29
560.63	59971.55
560.79	59990.27
560.96	60055.81
561.12	59964.52
561.29	59964.52
561.45	60121.34
561.61	59943.46
561.78	60133.04
561.94	59842.82
562.11	60093.25
562.27	60069.85
562.44	60353.05
562.60	60296.88
562.77	60327.31
562.93	59915.37
563.10	60067.51
563.26	59976.23
563.42	60329.65
563.59	60226.66
563.75	60135.38
563.92	60126.02
564.08	60114.32
564.24	60268.79
564.41	60114.32
564.57	60058.15
564.74	60395.18
564.90	60149.43
565.07	60207.94
565.23	60261.77
565.39	60367.10
565.56	60385.82
565.72	60460.72
565.88	60652.64
566.05	60104.96
566.21	60247.73
566.38	60240.71
566.54	60465.40
566.70	60296.88
566.87	60659.66
567.03	60229.01
567.19	60540.30
567.36	60427.95
567.52	60158.79
567.68	60629.24
567.85	60708.82
568.01	60603.49
568.17	60514.55
568.34	60526.25
568.50	60486.46
568.66	60481.78
568.83	60643.28
568.99	60317.95
569.15	60552.00
569.32	60624.56
569.48	60591.79
569.64	60774.35
569.81	60554.34
569.97	60486.46
570.13	60554.34
570.30	60418.59
570.46	60659.66
570.62	60678.39
570.78	60596.47
570.95	60512.21
571.11	60713.50
571.27	60486.46
571.43	60680.73
571.60	60893.72
571.76	60816.48
571.92	60671.37
572.09	60865.63
572.25	60530.93
572.41	60701.79
572.57	60802.44
572.74	61038.83
572.90	60748.60
573.06	60774.35
573.22	60779.03
573.38	60823.50
573.55	60844.57
573.71	60987.34
573.87	60811.80
574.03	60755.63
574.20	60828.18
574.36	60692.43
574.52	60706.47
574.68	60615.19
574.84	61076.28
575.01	60830.52
575.17	60865.63
575.33	60886.70
575.49	60877.33
575.65	60966.27
575.82	60800.10
575.98	60832.86
576.14	61076.28
576.30	61020.11
576.46	60807.12
576.62	60594.13
576.79	60931.17
576.95	60755.63
577.11	60956.91
577.27	60973.30
577.43	60926.49
577.59	60945.21
577.75	60811.80
577.92	60762.65
578.08	60999.04
578.24	60914.78
578.40	61120.75
578.56	61038.83
578.72	60882.02
578.88	61219.05
579.04	61038.83
579.21	61087.98
579.37	61097.34
579.53	61123.09
579.69	60697.11
579.85	60977.98
580.01	61146.50
580.17	60910.10
580.33	61022.45
580.49	61172.24
580.65	61055.21
580.82	61134.79
580.98	60764.99
581.14	61034.15
581.30	61034.15
581.46	61055.21
581.62	61095.00
581.78	60996.70
581.94	61205.01
582.10	61013.08
582.26	61104.37
582.42	61013.08
582.58	60994.36
582.74	61233.10
582.90	60999.04
583.06	61172.24
583.22	60945.21
583.38	61085.64
583.54	61179.26
583.70	61179.26
583.86	61013.08
584.02	60846.91
584.18	61214.37
584.34	61160.54
584.50	60977.98
584.66	60994.36
584.82	61062.24
584.98	61200.33
585.14	61312.67
585.30	61006.06
585.46	61172.24
585.62	61120.75
585.78	61221.39
585.94	60823.50
586.10	61076.28
586.26	61186.28
586.42	61160.54
586.58	61324.38
586.74	61293.95
586.90	61057.56
587.06	61052.87
587.22	61357.14
587.38	61200.33
587.54	61394.59
587.70	61324.38
587.86	61181.60
588.02	61172.24
588.18	61237.78
588.34	61282.25
588.49	61214.37
