SpectraSuite Data File
++++++++++++++++++++++++++++++++++++
Date: Fri Oct 25 10:47:34 EDT 2013
User: price-jones
Dark Spectrum Present: No
Reference Spectrum Present: No
Number of Sampled Component Spectra: 1
Spectrometers: USB2+H05261
Integration Time (usec): 100000 (USB2+H05261)
Spectra Averaged: 1 (USB2+H05261)
Boxcar Smoothing: 0 (USB2+H05261)
Correct for Electrical Dark: No (USB2+H05261)
Strobe/Lamp Enabled: No (USB2+H05261)
Correct for Detector Non-linearity: No (USB2+H05261)
Correct for Stray Light: No (USB2+H05261)
Number of Pixels in Processed Spectrum: 2048
>>>>>Begin Processed Spectral Data<<<<<
365.73	138.09
365.92	138.09
366.12	138.09
366.32	74.90
366.52	84.26
366.72	77.24
366.91	28.09
367.11	70.22
367.31	18.72
367.51	53.83
367.70	44.47
367.90	107.66
368.10	0.00
368.30	60.85
368.49	58.51
368.69	32.77
368.89	30.43
369.09	110.01
369.28	14.04
369.48	88.94
369.68	138.09
369.87	98.30
370.07	102.98
370.27	114.69
370.47	243.42
370.66	390.87
370.86	454.06
371.06	484.49
371.25	479.81
371.45	425.98
371.65	463.43
371.84	425.98
372.04	437.68
372.24	421.30
372.44	444.70
372.63	496.19
372.83	543.00
373.03	519.60
373.22	416.62
373.42	498.53
373.62	489.17
373.81	535.98
374.01	599.18
374.21	517.26
374.40	484.49
374.60	578.11
374.79	585.13
374.99	578.11
375.19	571.09
375.38	627.26
375.58	613.22
375.78	528.96
375.97	547.69
376.17	674.07
376.37	547.69
376.56	526.62
376.76	617.90
376.95	608.54
377.15	580.45
377.35	519.60
377.54	568.75
377.74	589.82
377.93	568.75
378.13	692.80
378.33	603.86
378.52	552.37
378.72	578.11
378.91	594.50
379.11	629.60
379.31	566.41
379.50	650.67
379.70	643.65
379.89	699.82
380.09	634.29
380.28	594.50
380.48	671.73
380.68	552.37
380.87	617.90
381.07	697.48
381.26	653.01
381.46	650.67
381.65	631.94
381.85	617.90
382.04	690.46
382.24	734.93
382.43	660.03
382.63	653.01
382.83	744.29
383.02	685.78
383.22	713.86
383.41	734.93
383.61	692.80
383.80	791.10
384.00	758.33
384.19	599.18
384.39	697.48
384.58	760.67
384.78	753.65
384.97	702.16
385.17	744.29
385.36	662.37
385.56	725.57
385.75	779.40
385.95	695.14
386.14	753.65
386.34	709.18
386.53	751.31
386.72	805.14
386.92	847.27
387.11	823.87
387.31	847.27
387.50	861.32
387.70	849.61
387.89	873.02
388.09	861.32
388.28	798.12
388.48	837.91
388.67	821.53
388.86	791.10
389.06	959.62
389.25	884.72
389.45	919.83
389.64	912.81
389.84	844.93
390.03	905.79
390.22	936.21
390.42	908.13
390.61	873.02
390.81	814.51
391.00	964.30
391.19	1015.79
391.39	964.30
391.58	1004.09
391.78	1043.88
391.97	971.32
392.16	912.81
392.36	931.53
392.55	903.45
392.75	912.81
392.94	997.07
393.13	980.68
393.33	947.92
393.52	997.07
393.71	1039.20
393.91	1060.26
394.10	1027.50
394.29	997.07
394.49	959.62
394.68	1060.26
394.88	1174.95
395.07	1078.99
395.26	1090.69
395.46	1153.88
395.65	1093.03
395.84	1163.25
396.04	1146.86
396.23	1153.88
396.42	1107.07
396.62	1097.71
396.81	1184.31
397.00	1139.84
397.19	1177.29
397.39	1275.59
397.58	1167.93
397.77	1226.44
397.97	1188.99
398.16	1273.25
398.35	1275.59
398.55	1275.59
398.74	1338.79
398.93	1439.43
399.12	1270.91
399.32	1266.23
399.51	1277.93
399.70	1334.11
399.90	1383.26
400.09	1423.05
400.28	1357.51
400.47	1308.36
400.67	1497.94
400.86	1465.18
401.05	1493.26
401.24	1554.12
401.44	1514.33
401.63	1455.81
401.82	1444.11
402.01	1514.33
402.21	1483.90
402.40	1390.28
402.59	1516.67
402.78	1469.86
402.97	1551.78
403.17	1530.71
403.36	1535.39
403.55	1521.35
403.74	1565.82
403.93	1579.86
404.13	1600.93
404.32	1668.80
404.51	1605.61
404.70	1640.72
404.89	1636.03
405.09	1664.12
405.28	1708.59
405.47	1682.85
405.66	1685.19
405.85	1614.97
406.05	1689.87
406.24	1757.74
406.43	1778.81
406.62	1792.85
406.81	1839.66
407.00	1785.83
407.20	1764.76
407.39	1785.83
407.58	1837.32
407.77	1837.32
407.96	1785.83
408.15	1860.73
408.34	1914.56
408.54	1907.54
408.73	1998.82
408.92	1872.43
409.11	2052.65
409.30	2073.71
409.49	1968.39
409.68	1966.05
409.87	2017.54
410.07	1956.69
410.26	2139.25
410.45	2134.57
410.64	2008.18
410.83	2118.18
411.02	2218.83
411.21	2218.83
411.40	2204.78
411.59	2221.17
411.78	2293.72
411.98	2221.17
412.17	2284.36
412.36	2300.75
412.55	2361.60
412.74	2401.39
412.93	2410.75
413.12	2373.30
413.31	2640.12
413.50	2455.22
413.69	2539.48
413.88	2642.46
414.07	2487.99
414.26	2675.23
414.45	2497.35
414.64	2569.91
414.83	2595.65
415.02	2640.12
415.22	2698.64
415.41	2754.81
415.60	2672.89
415.79	2761.83
415.98	2848.43
416.17	2799.28
416.36	2822.69
416.55	2832.05
416.74	2815.66
416.93	2747.79
417.12	2836.73
417.31	2958.44
417.50	2839.07
417.69	2995.89
417.88	3075.46
418.07	3035.67
418.26	2932.69
418.45	3091.85
418.64	3208.87
418.83	3192.49
419.02	3040.36
419.21	3117.59
419.39	3225.26
419.58	3129.30
419.77	3089.51
419.96	3199.51
420.15	3199.51
420.34	3178.45
420.53	3251.00
420.72	3236.96
420.91	3276.75
421.10	3382.07
421.29	3438.25
421.48	3337.60
421.67	3375.05
421.86	3229.94
422.05	3375.05
422.24	3248.66
422.43	3379.73
422.61	3365.69
422.80	3480.38
422.99	3433.57
423.18	3583.36
423.37	3634.85
423.56	3447.61
423.75	3557.61
423.94	3585.70
424.13	3323.56
424.32	3363.35
424.50	3424.20
424.69	3545.91
424.88	3503.78
425.07	3508.46
425.26	3449.95
425.45	3445.27
425.64	3463.99
425.83	3569.32
426.01	3576.34
426.20	3487.40
426.39	3714.43
426.58	3393.78
426.77	3463.99
426.96	3524.85
427.15	3545.91
427.33	3616.13
427.52	3634.85
427.71	3618.47
427.90	3515.48
428.09	3655.92
428.28	3772.94
428.46	3775.28
428.65	3794.01
428.84	3854.86
429.03	3768.26
429.22	3761.24
429.40	3798.69
429.59	3822.09
429.78	3679.32
429.97	3733.15
430.16	3700.39
430.34	3730.81
430.53	3878.27
430.72	3733.15
430.91	3889.97
431.10	3925.08
431.28	3929.76
431.47	4152.11
431.66	4053.81
431.85	3894.65
432.03	4023.38
432.22	4140.41
432.41	4128.70
432.60	4262.12
432.79	4184.88
432.97	4276.16
433.16	4231.69
433.35	4079.55
433.54	4032.74
433.72	4205.94
433.91	4229.35
434.10	4189.56
434.28	4173.18
434.47	4376.80
434.66	4383.82
434.85	4425.95
435.03	4369.78
435.22	4437.66
435.41	4472.76
435.59	4381.48
435.78	4444.68
435.97	4435.32
436.16	4447.02
436.34	4526.60
436.53	4617.88
436.72	4662.35
436.90	4386.16
437.09	4664.69
437.28	4613.20
437.46	4479.79
437.65	4753.63
437.84	4580.43
438.02	4587.45
438.21	4629.58
438.40	4629.58
438.58	4685.75
438.77	5027.47
438.96	4737.24
439.14	4894.06
439.33	4922.15
439.52	4938.53
439.70	4894.06
439.89	5144.50
440.08	5214.71
440.26	5081.30
440.45	5114.07
440.63	5200.67
440.82	5383.23
441.01	5263.86
441.19	5355.15
441.38	5263.86
441.57	5572.82
441.75	5217.05
441.94	5343.44
442.12	5624.31
442.31	5636.01
442.50	5493.24
442.68	5514.30
442.87	5624.31
443.05	5563.45
443.24	5685.16
443.43	5661.76
443.61	5746.02
443.80	5710.91
443.98	5645.37
444.17	5439.40
444.35	5785.80
444.54	5846.66
444.73	5790.49
444.91	5591.54
445.10	5729.63
445.28	5696.86
445.47	5734.31
445.65	5755.38
445.84	5846.66
446.02	5902.83
446.21	5776.44
446.39	5776.44
446.58	5949.64
446.77	5879.43
446.95	5799.85
447.14	5818.57
447.32	5888.79
447.51	5956.66
447.69	5872.40
447.88	5989.43
448.06	5914.53
448.25	6017.52
448.43	6059.65
448.62	5949.64
448.80	5984.75
448.99	5975.39
449.17	6036.24
449.36	5951.98
449.54	6190.72
449.73	6242.21
449.91	6237.53
450.10	6120.50
450.28	6239.87
450.46	6214.12
450.65	6223.48
450.83	6317.11
451.02	6326.47
451.20	6415.41
451.39	6333.49
451.57	6197.74
451.76	6356.90
451.94	6317.11
452.13	6441.15
452.31	6363.92
452.49	6197.74
452.68	6267.95
452.86	6417.75
453.05	6499.67
453.23	6544.14
453.42	6448.18
453.60	6502.01
453.78	6466.90
453.97	6450.52
454.15	6602.65
454.34	6616.69
454.52	6810.96
454.70	6705.63
454.89	6581.59
455.07	6698.61
455.26	6733.72
455.44	6827.34
455.62	6789.89
455.81	6841.39
455.99	6916.28
456.17	6913.94
456.36	6890.54
456.54	6925.65
456.73	7054.37
456.91	7356.30
457.09	7108.21
457.28	7152.68
457.46	7187.79
457.64	7220.55
457.83	7080.12
458.01	7122.25
458.19	7253.32
458.38	7351.62
458.56	7318.86
458.74	7494.40
458.93	7400.77
459.11	7368.01
459.29	7407.80
459.48	7375.03
459.66	7475.67
459.84	7478.01
460.03	7646.53
460.21	7630.15
460.39	7679.30
460.57	7424.18
460.76	7653.55
460.94	7669.94
461.12	7693.34
461.31	7686.32
461.49	7602.06
461.67	7562.27
461.85	7723.77
462.04	7602.06
462.22	8285.50
462.40	7967.18
462.59	7840.79
462.77	7793.98
462.95	7995.27
463.13	8004.63
463.32	7988.25
463.50	7911.01
463.68	7955.48
463.86	7946.12
464.05	7810.37
464.23	8067.83
464.41	7992.93
464.59	7927.39
464.78	7969.52
464.96	8241.03
465.14	8004.63
465.32	8063.15
465.50	8444.65
465.69	8376.78
465.87	8294.86
466.05	8161.45
466.23	8339.33
466.41	8215.28
466.60	8507.85
466.78	8224.64
466.96	8329.97
467.14	8421.25
467.32	8432.95
467.51	8505.51
467.69	8362.73
467.87	8540.61
468.05	8442.31
468.23	8479.76
468.41	8423.59
468.60	8606.15
468.78	8638.92
468.96	8409.54
469.14	8723.18
469.32	8664.66
469.50	8528.91
469.69	8746.58
469.87	8800.41
470.05	8760.63
470.23	8807.44
470.41	8767.65
470.59	8828.50
470.77	8872.97
470.95	8805.10
471.14	9181.92
471.32	8882.33
471.50	9188.94
471.68	9081.28
471.86	9289.59
472.04	9338.74
472.22	9413.63
472.40	9006.38
472.58	9128.09
472.77	9336.40
472.95	9631.30
473.13	9701.52
473.31	9446.40
473.49	9408.95
473.67	9600.88
473.85	9745.99
474.03	9696.84
474.21	9753.01
474.39	9781.10
474.57	9699.18
474.75	10073.67
474.93	9893.44
475.12	9966.00
475.30	10087.71
475.48	10022.17
475.66	10211.76
475.84	9966.00
476.02	10200.05
476.20	10373.25
476.38	10368.57
476.56	10462.19
476.74	10658.80
476.92	10679.86
477.10	10523.05
477.28	10794.55
477.46	10897.53
477.64	11133.93
477.82	10939.66
478.00	11351.60
478.18	11412.45
478.36	11283.72
478.54	11494.37
478.72	11508.41
478.90	11602.04
479.08	11726.08
479.26	11740.13
479.44	11576.29
479.62	11910.99
479.80	12084.19
479.98	12217.60
480.16	12283.13
480.34	12163.76
480.52	12320.58
480.70	12121.63
480.88	12182.49
481.06	12388.46
481.24	12318.24
481.41	12767.62
481.59	12856.56
481.77	13043.81
481.95	12992.31
482.13	13261.48
482.31	13078.91
482.49	13411.27
482.67	13511.91
482.85	13572.77
483.03	13755.33
483.21	13902.78
483.39	13699.16
483.57	13720.22
483.74	14075.98
483.92	14279.61
484.10	13968.32
484.28	14516.00
484.46	14607.28
484.64	14761.76
484.82	14520.68
485.00	14623.67
485.18	15110.50
485.35	15255.61
485.53	14759.42
485.71	14731.33
485.89	15342.21
486.07	15424.13
486.25	15215.82
486.43	15307.10
486.61	15489.67
486.78	15527.11
486.96	15646.48
487.14	15779.89
487.32	15925.00
487.50	16042.03
487.68	16505.46
487.85	16795.68
488.03	16793.34
488.21	16802.71
488.39	16933.78
488.57	17090.59
488.75	17085.91
488.92	17425.29
489.10	17722.54
489.28	17886.37
489.46	17610.19
489.64	17745.94
489.81	18302.99
489.99	18450.44
490.17	18010.42
490.35	18328.74
490.53	18523.00
490.70	18583.85
490.88	18429.38
491.06	18792.16
491.24	18731.31
491.41	19061.32
491.59	19094.09
491.77	18930.25
491.95	19386.66
492.13	19426.45
492.30	19674.54
492.48	19480.28
492.66	19742.42
492.84	19660.50
493.01	19772.85
493.19	20006.90
493.37	19985.83
493.54	20343.94
493.72	20507.77
493.90	20336.91
494.08	20669.27
494.25	20865.88
494.43	21046.10
494.61	21092.91
494.79	21488.46
494.96	21245.04
495.14	21455.69
495.32	21535.27
495.49	21319.94
495.67	21518.89
495.85	22038.48
496.02	22452.76
496.20	22492.55
496.38	22338.07
496.55	22326.37
496.73	22675.11
496.91	22569.79
497.09	22569.79
497.26	22909.16
497.44	22562.76
497.62	23063.64
497.79	23033.21
497.97	22864.69
498.14	23161.94
498.32	23606.64
498.50	23243.86
498.67	24018.58
498.85	23494.30
499.03	23616.01
499.20	23679.20
499.38	24023.26
499.56	24044.32
499.73	24238.59
499.91	24372.00
500.08	24493.71
500.26	24187.10
500.44	24474.98
500.61	24402.43
500.79	24528.81
500.97	24737.12
501.14	24800.32
501.32	24987.56
501.49	24929.05
501.67	25172.46
501.84	25282.47
502.02	25263.74
502.20	25310.55
502.37	25373.75
502.55	25483.75
502.72	25699.08
502.90	25827.81
503.07	25600.78
503.25	25710.78
503.43	25483.75
503.60	25640.57
503.78	26045.48
503.95	26309.96
504.13	26270.17
504.30	26258.47
504.48	26302.94
504.65	26368.48
504.83	26434.01
505.01	26927.86
505.18	26642.32
505.36	27342.14
505.53	26668.06
505.71	27239.15
505.88	27384.27
506.06	26714.87
506.23	26892.76
506.41	27009.78
506.58	27234.47
506.76	27367.88
506.93	27662.79
507.11	27459.16
507.28	27545.76
507.46	27936.63
507.63	27674.49
507.81	27917.91
507.98	27714.28
508.16	27838.33
508.33	28325.16
508.50	28233.88
508.68	28231.54
508.85	28481.98
509.03	28095.79
509.20	28357.93
509.38	28943.06
509.55	28837.74
509.73	28868.17
509.90	28819.02
510.08	28748.80
510.25	29104.56
510.42	29329.25
510.60	29378.40
510.77	29467.34
510.95	29773.95
511.12	29153.71
511.30	29509.47
511.47	29867.58
511.64	29886.30
511.82	29832.47
511.99	29605.44
512.17	30033.75
512.34	29916.73
512.51	29958.86
512.69	30494.84
512.86	30260.79
513.04	30197.59
513.21	30469.09
513.38	30387.18
513.56	30373.13
513.73	30244.40
513.90	31002.74
514.08	30553.35
514.25	30869.33
514.43	30717.19
514.60	30712.51
514.77	30448.03
514.95	31112.74
515.12	31077.63
515.29	30803.79
515.47	31646.38
515.64	31304.67
515.81	31292.96
515.99	31271.90
516.16	31723.62
516.33	31433.39
516.51	31534.04
516.68	31349.14
516.85	31515.31
517.03	31896.82
517.20	31835.97
517.37	31821.92
517.54	32114.49
517.72	31641.70
517.89	32156.62
518.06	32013.85
518.24	31852.35
518.41	31899.16
518.58	32205.77
518.75	32463.23
518.93	32477.27
519.10	32690.26
519.27	32884.53
519.45	32423.44
519.62	32491.32
519.79	32865.80
519.96	32631.75
520.14	33301.14
520.31	32933.68
520.48	33165.39
520.65	33256.67
520.83	33427.53
521.00	33397.10
521.17	33366.68
521.34	33715.42
521.52	33855.85
521.69	33617.11
521.86	33603.07
522.03	33684.99
522.20	33902.66
522.38	34024.37
522.55	34288.85
522.72	34078.20
522.89	33886.28
523.07	34082.88
523.24	33975.22
523.41	34139.05
523.58	34260.76
523.75	34756.96
523.92	34841.21
524.10	34621.20
524.27	34590.78
524.44	34733.55
524.61	34618.86
524.78	35145.48
524.96	34913.77
525.13	34904.41
525.30	35232.08
525.47	35391.24
525.64	35239.11
525.81	35199.32
525.98	35143.14
526.16	35428.69
526.33	34988.67
526.50	35580.82
526.67	35079.95
526.84	35262.51
527.01	35182.93
527.18	35768.07
527.36	35583.16
527.53	35393.58
527.70	35861.69
527.87	35943.61
528.04	35571.46
528.21	35718.92
528.38	35440.39
528.55	36142.55
528.72	36327.45
528.89	36601.30
529.07	36584.91
529.24	35936.59
529.41	36397.67
529.58	36252.56
529.75	36617.68
529.92	36423.42
530.09	36680.88
530.26	36748.75
530.43	36720.66
530.60	36233.83
530.77	36954.72
530.94	36854.08
531.11	36833.01
531.28	37144.30
531.46	37043.66
531.63	37148.98
531.80	37031.96
531.97	36973.44
532.14	36940.68
532.31	37064.72
532.48	37008.55
532.65	37226.22
532.82	37474.32
532.99	37755.18
533.16	37263.67
533.33	37581.98
533.50	37752.84
533.67	37317.50
533.84	37352.61
534.01	37722.41
534.18	37729.44
534.35	37764.54
534.52	37909.66
534.69	37848.80
534.86	38242.01
535.03	37841.78
535.20	38043.07
535.37	38672.67
535.54	38419.89
535.71	38302.87
535.88	38078.18
536.05	38103.92
536.22	38195.20
536.38	38342.66
536.55	38277.12
536.72	38080.52
536.89	38480.75
537.06	38199.88
537.23	38778.00
537.40	38476.07
537.57	38480.75
537.74	38586.07
537.91	39033.11
538.08	39147.80
538.25	38651.61
538.42	39150.14
538.59	39122.05
538.75	38965.24
538.92	38747.57
539.09	39220.36
539.26	39147.80
539.43	38960.56
539.60	39175.89
539.77	39234.40
539.94	39185.25
540.11	38913.75
540.28	39005.03
540.44	38998.01
540.61	39445.05
540.78	39318.66
540.95	39000.35
541.12	39299.94
541.29	39414.62
541.46	39559.73
541.62	39569.10
541.79	39576.12
541.96	39475.48
542.13	39271.85
542.30	39896.77
542.47	40025.50
542.63	39955.29
542.80	40212.74
542.97	40629.36
543.14	40671.49
543.31	40201.04
543.48	40355.52
543.64	40882.14
543.81	40346.15
543.98	40596.59
544.15	40182.32
544.32	40535.74
544.48	40912.56
544.65	40336.79
544.82	40404.67
544.99	40479.57
545.16	40556.80
545.32	40781.49
545.49	40840.01
545.66	40851.71
545.83	41078.74
546.00	41155.98
546.16	40547.44
546.33	40814.26
546.50	40535.74
546.67	40697.24
546.83	40470.20
547.00	41249.60
547.17	41017.89
547.34	40973.42
547.50	41284.71
547.67	41457.91
547.84	41174.70
548.00	41361.95
548.17	41982.19
548.34	41411.10
548.51	41935.38
548.67	41750.48
548.84	41523.44
549.01	41352.58
549.18	41436.84
549.34	41474.29
549.51	41635.79
549.68	41734.09
549.84	41633.45
550.01	41813.67
550.18	41462.59
550.34	41556.21
550.51	41684.94
550.68	41638.13
550.84	41343.22
551.01	41844.10
551.18	41944.74
551.34	41668.56
551.51	41963.46
551.68	41579.62
551.84	42106.24
552.01	41771.54
552.18	41975.17
552.34	41628.77
552.51	42330.93
552.68	42026.66
552.84	42473.70
553.01	42450.30
553.18	42026.66
553.34	42490.09
553.51	41617.07
553.67	42314.55
553.84	42256.03
554.01	42419.87
554.17	42075.81
554.34	42625.84
554.51	42541.58
554.67	43082.24
554.84	42787.33
555.00	42408.17
555.17	42230.29
555.33	42553.28
555.50	42710.10
555.67	42623.50
555.83	42813.08
556.00	42939.47
556.16	42997.98
556.33	42871.59
556.50	42983.94
556.66	43222.67
556.83	42555.62
556.99	43124.37
557.16	42829.46
557.32	42766.27
557.49	42553.28
557.65	42192.84
557.82	42429.23
557.98	42642.22
558.15	43236.72
558.32	43255.44
558.48	43358.42
558.65	43405.23
558.81	42700.73
558.98	43545.67
559.14	43239.06
559.31	42902.02
559.47	42927.77
559.64	43433.32
559.80	43728.23
559.97	43407.58
560.13	43349.06
560.30	42962.87
560.46	43159.48
560.63	43072.88
560.79	43374.81
560.96	43672.06
561.12	43587.80
561.29	43297.57
561.45	43405.23
561.61	43569.07
561.78	43248.42
561.94	43398.21
562.11	43335.02
562.27	43175.86
562.44	43587.80
562.60	43756.32
562.77	43929.51
562.93	43470.77
563.10	43559.71
563.26	43449.70
563.42	43742.27
563.59	43082.24
563.75	43838.23
563.92	43831.21
564.08	43831.21
564.24	43899.09
564.41	43751.63
564.57	43992.71
564.74	43861.64
564.90	43779.72
565.07	43667.37
565.23	43952.92
565.39	43505.88
565.56	44093.35
565.72	43871.00
565.88	44229.10
566.05	43604.18
566.21	44182.29
566.38	44020.80
566.54	44088.67
566.70	44240.81
566.87	44425.71
567.03	43962.28
567.19	44191.65
567.36	44133.14
567.52	43885.04
567.68	44458.48
567.85	44247.83
568.01	44135.48
568.17	43758.66
568.34	44446.77
568.50	43604.18
568.66	43679.08
568.83	44060.58
568.99	43768.02
569.15	43775.04
569.32	43700.14
569.48	44062.93
569.64	44526.35
569.81	44205.70
569.97	44355.49
570.13	43917.81
570.30	43983.35
570.46	43679.08
570.62	43882.70
570.78	43976.33
570.95	43840.57
571.11	44158.89
571.27	44114.42
571.43	43866.32
571.60	44439.75
571.76	44098.03
571.92	44306.34
572.09	44304.00
572.25	44163.57
572.41	44025.48
572.57	44390.60
572.74	44694.87
572.90	44247.83
573.06	44189.31
573.22	44004.41
573.38	44509.97
573.55	43840.57
573.71	44268.89
573.87	43863.98
574.03	44018.46
574.20	44144.84
574.36	44081.65
574.52	44079.31
574.68	44355.49
574.84	44083.99
575.01	44189.31
575.17	44182.29
575.33	44198.68
575.49	44268.89
575.65	45074.04
575.82	44390.60
575.98	44863.39
576.14	44788.49
576.30	44334.43
576.46	44313.36
576.62	44088.67
576.79	44081.65
576.95	43723.55
577.11	44404.64
577.27	44636.36
577.43	44720.62
577.59	44341.45
577.75	44364.85
577.92	44060.58
578.08	44177.61
578.24	44186.97
578.40	44215.06
578.56	44648.06
578.72	44751.04
578.88	44772.11
579.04	44708.91
579.21	44140.16
579.37	44083.99
579.53	44428.05
579.69	44271.23
579.85	44041.86
580.01	44458.48
580.17	44898.50
580.33	44975.73
580.49	44802.53
580.65	44790.83
580.82	44336.77
580.98	44280.60
581.14	44055.90
581.30	44737.00
581.46	44226.76
581.62	44556.78
581.78	44594.23
581.94	44945.31
582.10	44762.75
582.26	44411.67
582.42	44594.23
582.58	44287.62
582.74	44421.03
582.90	44439.75
583.06	44458.48
583.22	44542.74
583.38	44430.39
583.54	44591.89
583.70	44636.36
583.86	44968.71
584.02	44395.28
584.18	44339.11
584.34	44608.27
584.50	44348.47
584.66	44399.96
584.82	44552.10
584.98	44800.19
585.14	45177.02
585.30	44098.03
585.46	44589.55
585.62	44343.79
585.78	44236.12
585.94	44250.17
586.10	44397.62
586.26	44140.16
586.42	44765.09
586.58	45071.70
586.74	44458.48
586.90	44179.95
587.06	44769.77
587.22	44713.59
587.38	44367.20
587.54	44971.05
587.70	44748.70
587.86	45160.64
588.02	44727.64
588.18	44605.93
588.34	44629.34
588.49	44247.83
588.65	44296.98
588.81	44421.03
588.97	44210.38
589.13	43964.62
589.29	44378.90
589.45	44765.09
589.61	44940.63
589.77	44996.80
589.93	44896.16
590.08	44964.03
590.24	44732.32
