SpectraSuite Data File
++++++++++++++++++++++++++++++++++++
Date: Fri Oct 25 11:23:19 EDT 2013
User: price-jones
Dark Spectrum Present: No
Reference Spectrum Present: No
Number of Sampled Component Spectra: 1
Spectrometers: USB2+H05261
Integration Time (usec): 100000 (USB2+H05261)
Spectra Averaged: 1 (USB2+H05261)
Boxcar Smoothing: 0 (USB2+H05261)
Correct for Electrical Dark: No (USB2+H05261)
Strobe/Lamp Enabled: No (USB2+H05261)
Correct for Detector Non-linearity: No (USB2+H05261)
Correct for Stray Light: No (USB2+H05261)
Number of Pixels in Processed Spectrum: 2048
>>>>>Begin Processed Spectral Data<<<<<
365.73	283.20
365.92	283.20
366.12	283.20
366.32	182.56
366.52	154.48
366.72	131.07
366.91	23.41
367.11	79.58
367.31	81.92
367.51	154.48
367.70	140.43
367.90	114.69
368.10	234.05
368.30	121.71
368.49	102.98
368.69	217.67
368.89	145.11
369.09	187.24
369.28	163.84
369.48	102.98
369.68	222.35
369.87	191.92
370.07	191.92
370.27	245.76
370.47	355.76
370.66	575.77
370.86	653.01
371.06	653.01
371.25	798.12
371.45	592.16
371.65	753.65
371.84	697.48
372.04	671.73
372.24	723.23
372.44	671.73
372.63	725.57
372.83	711.52
373.03	685.78
373.22	720.88
373.42	802.80
373.62	840.25
373.81	821.53
374.01	884.72
374.21	814.51
374.40	819.19
374.60	873.02
374.79	887.06
374.99	819.19
375.19	788.76
375.38	849.61
375.58	819.19
375.78	898.77
375.97	807.48
376.17	821.53
376.37	854.30
376.56	828.55
376.76	847.27
376.95	915.15
377.15	851.96
377.35	945.58
377.54	821.53
377.74	837.91
377.93	826.21
378.13	1013.45
378.33	1074.31
378.52	842.59
378.72	919.83
378.91	961.96
379.11	947.92
379.31	922.17
379.50	882.38
379.70	1018.13
379.89	912.81
380.09	903.45
380.28	959.62
380.48	987.71
380.68	980.68
380.87	999.41
381.07	1053.24
381.26	994.73
381.46	1011.11
381.65	997.07
381.85	1043.88
382.04	1069.62
382.24	1020.47
382.43	1149.20
382.63	957.28
382.83	1116.44
383.02	1102.39
383.22	1071.97
383.41	1137.50
383.61	1109.41
383.80	1132.82
384.00	1193.67
384.19	1165.59
384.39	1100.05
384.58	1203.04
384.78	1090.69
384.97	1118.78
385.17	1191.33
385.36	1076.65
385.56	1165.59
385.75	1273.25
385.95	1224.10
386.14	1231.12
386.34	1249.85
386.53	1303.68
386.72	1135.16
386.92	1284.95
387.11	1240.48
387.31	1252.19
387.50	1287.29
387.70	1231.12
387.89	1291.98
388.09	1224.10
388.28	1277.93
388.48	1371.55
388.67	1301.34
388.86	1350.49
389.06	1301.34
389.25	1341.13
389.45	1301.34
389.64	1261.55
389.84	1378.58
390.03	1432.41
390.22	1373.89
390.42	1413.68
390.61	1406.66
390.81	1390.28
391.00	1362.19
391.19	1490.92
391.39	1462.83
391.58	1441.77
391.78	1535.39
391.97	1528.37
392.16	1448.79
392.36	1537.73
392.55	1523.69
392.75	1514.33
392.94	1533.05
393.13	1629.01
393.33	1533.05
393.52	1523.69
393.71	1586.88
393.91	1605.61
394.10	1481.56
394.29	1591.56
394.49	1664.12
394.68	1631.35
394.88	1591.56
395.07	1694.55
395.26	1654.76
395.46	1729.66
395.65	1715.61
395.84	1629.01
396.04	1753.06
396.23	1827.96
396.42	1743.70
396.62	1823.28
396.81	1790.51
397.00	1881.79
397.19	1795.19
397.39	1827.96
397.58	2022.22
397.77	1926.26
397.97	1825.62
398.16	1727.32
398.35	1834.98
398.55	1898.17
398.74	1923.92
398.93	1968.39
399.12	2024.56
399.32	1919.24
399.51	1881.79
399.70	2036.27
399.90	1998.82
400.09	2022.22
400.28	1994.14
400.47	1989.46
400.67	2052.65
400.86	2050.31
401.05	2125.21
401.24	2085.42
401.44	2122.87
401.63	2148.61
401.82	2090.10
402.01	2106.48
402.21	2153.29
402.40	2183.72
402.59	2211.81
402.78	2284.36
402.97	2291.38
403.17	2331.17
403.36	2253.94
403.55	2300.75
403.74	2312.45
403.93	2413.09
404.13	2363.94
404.32	2349.90
404.51	2312.45
404.70	2464.58
404.89	2342.88
405.09	2466.92
405.28	2541.82
405.47	2513.74
405.66	2476.29
405.85	2590.97
406.05	2626.08
406.24	2553.52
406.43	2719.70
406.62	2555.86
406.81	2595.65
407.00	2555.86
407.20	2635.44
407.39	2766.51
407.58	2724.38
407.77	2686.94
407.96	2623.74
408.15	2785.24
408.34	2796.94
408.54	2855.45
408.73	2874.18
408.92	2953.76
409.11	2895.24
409.30	2853.11
409.49	2944.39
409.68	2813.32
409.87	2946.73
410.07	2930.35
410.26	3166.74
410.45	3075.46
410.64	3089.51
410.83	3089.51
411.02	3251.00
411.21	3208.87
411.40	3155.04
411.59	3211.22
411.78	3204.19
411.98	3307.18
412.17	3386.76
412.36	3323.56
412.55	3339.94
412.74	3487.40
412.93	3349.31
413.12	3442.93
413.31	3662.94
413.50	3559.95
413.69	3569.32
413.88	3669.96
414.07	3529.53
414.26	3712.09
414.45	3744.86
414.64	3625.49
414.83	3728.47
415.02	3803.37
415.22	3894.65
415.41	3866.56
415.60	3740.18
415.79	3932.10
415.98	3920.40
416.17	3974.23
416.36	4117.00
416.55	4079.55
416.74	4009.34
416.93	4018.70
417.12	4060.83
417.31	4287.86
417.50	4102.96
417.69	4454.04
417.88	4325.31
418.07	4212.96
418.26	4320.63
418.45	4329.99
418.64	4407.23
418.83	4423.61
419.02	4554.68
419.21	4564.04
419.39	4395.53
419.58	4571.07
419.77	4390.84
419.96	4554.68
420.15	4566.39
420.34	4643.62
420.53	4643.62
420.72	4699.80
420.91	4720.86
421.10	4765.33
421.29	4709.16
421.48	4765.33
421.67	4926.83
421.86	4901.08
422.05	4891.72
422.24	4751.29
422.43	4908.10
422.61	4917.47
422.80	4903.42
422.99	4929.17
423.18	5071.94
423.37	5102.37
423.56	5013.43
423.75	4910.44
423.94	4884.70
424.13	4704.48
424.32	4844.91
424.50	4997.04
424.69	5195.99
424.88	5125.77
425.07	4994.70
425.26	4915.12
425.45	5060.24
425.64	5029.81
425.83	4992.36
426.01	5116.41
426.20	5039.17
426.39	5207.69
426.58	5060.24
426.77	5004.07
426.96	5179.61
427.15	5090.67
427.33	5203.01
427.52	5181.95
427.71	5291.95
427.90	5212.37
428.09	5416.00
428.28	5390.25
428.46	5357.49
428.65	5490.90
428.84	5523.66
429.03	5439.40
429.22	5418.34
429.40	5729.63
429.59	5453.45
429.78	5406.64
429.97	5212.37
430.16	5584.52
430.34	5692.18
430.53	5664.10
430.72	5682.82
430.91	5591.54
431.10	5692.18
431.28	5785.80
431.47	5673.46
431.66	5951.98
431.85	5907.51
432.03	6031.56
432.22	6017.52
432.41	6085.39
432.60	5900.49
432.79	5991.77
432.97	6083.05
433.16	6120.50
433.35	6106.46
433.54	5998.79
433.72	6153.27
433.91	6249.23
434.10	6036.24
434.28	6134.54
434.47	6127.52
434.66	6349.87
434.85	6373.28
435.03	6523.07
435.22	6338.17
435.41	6619.04
435.59	6331.15
435.78	6282.00
435.97	6438.81
436.16	6527.75
436.34	6562.86
436.53	6513.71
436.72	6696.27
436.90	6490.31
437.09	6670.53
437.28	6553.50
437.46	6607.33
437.65	6794.58
437.84	6836.70
438.02	6803.94
438.21	6860.11
438.40	6930.33
438.58	7084.80
438.77	7040.33
438.96	7061.40
439.14	7157.36
439.33	7131.61
439.52	7318.86
439.70	7414.82
439.89	7379.71
440.08	7452.27
440.26	7426.52
440.45	7255.66
440.63	7438.22
440.82	7700.36
441.01	7475.67
441.19	7623.12
441.38	7730.79
441.57	7913.35
441.75	7887.61
441.94	7957.82
442.12	8074.85
442.31	8039.74
442.50	8131.02
442.68	7997.61
442.87	8133.36
443.05	8182.51
443.24	8264.43
443.43	8222.30
443.61	8219.96
443.80	8437.63
443.98	8128.68
444.17	7946.12
444.35	8079.53
444.54	8411.89
444.73	8446.99
444.91	8477.42
445.10	8416.57
445.28	8353.37
445.47	8381.46
445.65	8463.38
445.84	8369.76
446.02	8348.69
446.21	8549.98
446.39	8519.55
446.58	8580.40
446.77	8592.11
446.95	8386.14
447.14	8418.91
447.32	8540.61
447.51	8557.00
447.69	8638.92
447.88	8538.27
448.06	8667.00
448.25	8636.58
448.43	8667.00
448.62	8594.45
448.80	8655.30
448.99	8674.03
449.17	8767.65
449.36	8734.88
449.54	8755.94
449.73	8915.10
449.91	9069.58
450.10	9214.69
450.28	9167.88
450.46	9149.15
450.65	9231.07
450.83	9238.09
451.02	8908.08
451.20	9376.19
451.39	9221.71
451.57	9294.27
451.76	9090.64
451.94	9355.12
452.13	9502.58
452.31	9408.95
452.49	9305.97
452.68	9462.79
452.86	9528.32
453.05	9596.20
453.23	9493.21
453.42	9502.58
453.60	9495.55
453.78	9518.96
453.97	9308.31
454.15	9544.70
454.34	9458.10
454.52	9596.20
454.70	9825.57
454.89	9776.42
455.07	10080.69
455.26	9996.43
455.44	9994.09
455.62	10047.92
455.81	10068.98
455.99	10047.92
456.17	9893.44
456.36	10204.74
456.54	10246.87
456.73	10324.10
456.91	10415.38
457.09	10569.86
457.28	10724.33
457.46	10286.65
457.64	10562.84
457.83	10553.48
458.01	10611.99
458.19	10846.04
458.38	10729.02
458.56	10832.00
458.74	10979.45
458.93	10860.09
459.11	10766.46
459.29	10871.79
459.48	10867.11
459.66	10736.04
459.84	11124.57
460.03	11246.27
460.21	11075.42
460.39	10839.02
460.57	11068.39
460.76	11281.38
460.94	11204.14
461.12	11173.72
461.31	11353.94
461.49	11185.42
461.67	11421.81
461.85	11482.67
462.04	11688.64
462.22	11583.31
462.40	11665.23
462.59	11531.82
462.77	11470.97
462.95	11754.17
463.13	11623.10
463.32	11763.53
463.50	11761.19
463.68	11822.05
463.86	11910.99
464.05	11777.58
464.23	11688.64
464.41	12145.04
464.59	11730.76
464.78	12219.94
464.96	12201.21
465.14	12105.25
465.32	12131.00
465.50	12301.86
465.69	12388.46
465.87	12290.15
466.05	12201.21
466.23	12346.33
466.41	12325.26
466.60	12507.82
466.78	12327.60
466.96	12142.70
467.14	12280.79
467.32	12437.61
467.51	12872.95
467.69	12533.57
467.87	12596.76
468.05	12685.70
468.23	12475.06
468.41	12732.51
468.60	12802.73
468.78	12812.09
468.96	12903.37
469.14	12868.27
469.32	12971.25
469.50	12858.90
469.69	13053.17
469.87	13268.50
470.05	13001.68
470.23	12978.27
470.41	13221.69
470.59	13530.64
470.77	13397.23
470.95	13392.55
471.14	13659.37
471.32	13170.19
471.50	13664.05
471.68	13635.96
471.86	13984.70
472.04	13872.36
472.22	14174.28
472.40	13734.26
472.58	14005.77
472.77	13928.53
472.95	14317.06
473.13	14759.42
473.31	14260.88
473.49	14361.53
473.67	14422.38
473.85	14534.73
474.03	14876.44
474.21	14672.82
474.39	14970.07
474.57	14862.40
474.75	15044.96
474.93	15101.14
475.12	14972.41
475.30	15218.16
475.48	15087.09
475.66	15307.10
475.84	15330.51
476.02	15463.92
476.20	15339.87
476.38	16018.63
476.56	16145.02
476.74	16166.08
476.92	16009.26
477.10	16119.27
477.28	16334.60
477.46	16460.99
477.64	16725.47
477.82	16711.42
478.00	17254.43
478.18	16734.83
478.36	17348.05
478.54	17369.12
478.72	17174.85
478.90	17635.94
479.08	17881.69
479.26	17912.12
479.44	17879.35
479.62	18068.94
479.80	18111.07
479.98	18331.08
480.16	18995.79
480.34	18848.33
480.52	18862.38
480.70	19180.69
480.88	18515.98
481.06	19070.68
481.24	18972.38
481.41	19276.65
481.59	19489.64
481.77	19611.35
481.95	19683.91
482.13	19754.12
482.31	19412.40
482.49	20535.86
482.67	20437.56
482.85	20423.51
483.03	20765.23
483.21	21074.18
483.39	21050.78
483.57	21207.59
483.74	21184.19
483.92	21706.13
484.10	21348.03
484.28	22071.25
484.46	22164.87
484.64	22691.49
484.82	21984.65
485.00	22703.20
485.18	22799.16
485.35	23143.22
485.53	22635.32
485.71	23157.26
485.89	23939.00
486.07	23587.92
486.25	23749.42
486.43	23793.89
486.61	24170.71
486.78	24325.19
486.96	24442.21
487.14	24741.80
487.32	24795.64
487.50	25060.12
487.68	25364.39
487.85	25238.00
488.03	26061.87
488.21	26026.76
488.39	26426.99
488.57	26242.09
488.75	26817.86
488.92	26497.20
489.10	27199.37
489.28	27080.00
489.46	27351.50
489.64	27281.28
489.81	27960.04
489.99	28011.53
490.17	27807.90
490.35	28400.06
490.53	28575.60
490.70	29032.00
490.88	28828.38
491.06	29329.25
491.24	29050.73
491.41	29500.11
491.59	29523.52
491.77	29610.12
491.95	30078.22
492.13	29947.15
492.30	30031.41
492.48	30349.73
492.66	30443.35
492.84	30756.98
493.01	31079.97
493.19	31124.44
493.37	31398.29
493.54	31459.14
493.72	31955.33
493.90	31463.82
494.08	32030.23
494.25	32638.77
494.43	32275.99
494.61	32414.08
494.79	32814.31
494.96	33043.68
495.14	33354.97
495.32	33488.38
495.49	33315.19
495.67	33675.63
495.85	33869.89
496.02	33919.04
496.20	34644.61
496.38	34426.94
496.55	34799.08
496.73	35360.81
496.91	34995.69
497.09	35049.52
497.26	35653.38
497.44	35222.72
497.62	35751.68
497.79	35908.50
497.97	35999.78
498.14	36233.83
498.32	36385.97
498.50	36545.12
498.67	37156.00
498.85	37095.15
499.03	36872.80
499.20	36767.48
499.38	37670.92
499.56	37654.54
499.73	37455.59
499.91	37493.04
500.08	37813.70
500.26	37376.01
500.44	37989.24
500.61	37996.26
500.79	38686.71
500.97	38607.14
501.14	39033.11
501.32	39040.14
501.49	39093.97
501.67	39491.86
501.84	39377.17
502.02	39271.85
502.20	39356.11
502.37	39552.71
502.55	39936.56
502.72	39590.16
502.90	39899.11
503.07	39840.60
503.25	39784.43
503.43	40261.90
503.60	40495.95
503.78	40348.50
503.95	40357.86
504.13	40802.56
504.30	41006.19
504.48	40804.90
504.65	41354.93
504.83	41570.25
505.01	41942.40
505.18	41869.84
505.36	41675.58
505.53	41839.42
505.71	41804.31
505.88	42431.57
506.06	42286.46
506.23	42466.68
506.41	42160.07
506.58	42216.24
506.76	42349.65
506.93	43206.29
507.11	42513.49
507.28	43000.32
507.46	43012.02
507.63	43271.82
507.81	43934.20
507.98	43168.84
508.16	43435.66
508.33	44044.20
508.50	43775.04
508.68	44020.80
508.85	44753.38
509.03	44252.51
509.20	44273.57
509.38	44711.25
509.55	44589.55
509.73	44561.46
509.90	45160.64
510.08	44699.55
510.25	45249.58
510.42	45315.11
510.60	45207.45
510.77	46120.26
510.95	45748.11
511.12	45544.48
511.30	45972.80
511.47	45595.98
511.64	46110.89
511.82	46539.21
511.99	46340.27
512.17	46014.93
512.34	46298.14
512.51	46902.00
512.69	46677.30
512.86	46644.54
513.04	46909.02
513.21	47012.00
513.38	47061.15
513.56	47494.15
513.73	46967.53
513.90	47063.49
514.08	47199.24
514.25	47395.85
514.43	47969.28
514.60	47653.31
514.77	48046.52
514.95	48252.48
515.12	47655.65
515.29	48142.48
515.47	48037.16
515.64	48552.07
515.81	47868.64
515.99	48540.37
516.16	49052.95
516.33	48811.87
516.51	49085.72
516.68	48959.33
516.85	48919.54
517.03	48584.84
517.20	48978.05
517.37	48992.09
517.54	49092.74
517.72	49308.07
517.89	49359.56
518.06	49865.11
518.24	49617.02
518.41	49738.72
518.58	49743.41
518.75	49956.39
518.93	50014.91
519.10	49979.80
519.27	50150.66
519.45	50216.19
519.62	50117.89
519.79	50183.43
519.96	50153.00
520.14	50335.56
520.31	50384.71
520.48	50571.96
520.65	50574.30
520.83	50499.40
521.00	51161.77
521.17	50848.14
521.34	50972.19
521.52	50939.42
521.69	51086.87
521.86	51257.73
522.03	51522.21
522.20	51519.87
522.38	51985.64
522.55	51615.83
522.72	51721.16
522.89	51557.32
523.07	52076.92
523.24	51786.69
523.41	52252.46
523.58	52039.47
523.75	52046.49
523.92	52100.32
524.10	52168.20
524.27	52423.32
524.44	52172.88
524.61	52591.84
524.78	52596.52
524.96	52704.18
525.13	52662.05
525.30	52760.36
525.47	52809.51
525.64	52729.93
525.81	52903.13
525.98	53221.44
526.16	52816.53
526.33	52832.91
526.50	53214.42
526.67	52917.17
526.84	53371.24
527.01	52835.25
527.18	53179.31
527.36	53502.31
527.53	53249.53
527.70	53715.29
527.87	53481.24
528.04	53460.18
528.21	53553.80
528.38	53563.16
528.55	53483.58
528.72	53436.77
528.89	53890.83
529.07	53799.55
529.24	53616.99
529.41	53865.09
529.58	54045.31
529.75	53954.03
529.92	54408.09
530.09	53958.71
530.26	54260.64
530.43	54190.42
530.60	54127.23
530.77	54115.53
530.94	54618.74
531.11	54482.99
531.28	54504.06
531.46	54485.33
531.63	54695.98
531.80	54623.42
531.97	54801.30
532.14	54576.61
532.31	54782.58
532.48	54831.73
532.65	54976.84
532.82	54827.05
532.99	55093.87
533.16	54684.28
533.33	55220.26
533.50	55201.53
533.67	55227.28
533.84	55051.74
534.01	55065.78
534.18	55161.75
534.35	55489.42
534.52	55360.69
534.69	55498.78
534.86	55552.62
535.03	55482.40
535.20	55552.62
535.37	55714.11
535.54	55501.12
535.71	55590.06
535.88	56002.00
536.05	55655.60
536.22	55763.26
536.38	55800.71
536.55	56109.66
536.72	56198.60
536.89	56076.90
537.06	55826.46
537.23	55917.74
537.40	56100.30
537.57	55941.14
537.74	55931.78
537.91	56170.52
538.08	56392.87
538.25	56002.00
538.42	55983.27
538.59	56378.82
538.75	56339.04
538.92	56310.95
539.09	56371.80
539.26	56231.37
539.43	56463.08
539.60	56533.30
539.77	56367.12
539.94	56706.50
540.11	56491.17
540.28	56645.65
540.44	56683.09
540.61	56760.33
540.78	56760.33
540.95	56626.92
541.12	56856.29
541.29	56722.88
541.46	56657.35
541.62	56842.25
541.79	57064.60
541.96	56673.73
542.13	56769.69
542.30	57043.54
542.47	57055.24
542.63	57083.33
542.80	57345.47
542.97	57247.16
543.14	57600.58
543.31	57350.15
543.48	57305.68
543.64	57696.55
543.81	57429.72
543.98	57581.86
544.15	57731.65
544.32	57904.85
544.48	57881.45
544.65	57731.65
544.82	57712.93
544.99	57518.67
545.16	57698.89
545.32	57631.01
545.49	57841.66
545.66	57958.69
545.83	57865.06
546.00	57993.79
546.16	58014.86
546.33	57801.87
546.50	57673.14
546.67	58033.58
546.83	57832.30
547.00	58092.10
547.17	58021.88
547.34	58010.18
547.50	58330.83
547.67	58038.26
547.84	58185.72
548.00	58403.39
548.17	58206.78
548.34	58309.77
548.51	58621.06
548.67	58309.77
548.84	58239.55
549.01	58429.13
549.18	58099.12
549.34	58511.05
549.51	58440.84
549.68	58452.54
549.84	58590.63
550.01	58897.24
550.18	58314.45
550.34	58749.79
550.51	58731.06
550.68	58585.95
550.84	58487.65
551.01	58735.74
551.18	58625.74
551.34	58738.08
551.51	58679.57
551.68	58784.90
551.84	58787.24
552.01	58698.30
552.18	59042.35
552.34	58815.32
552.51	58967.46
552.68	58873.84
552.84	58815.32
553.01	59110.23
553.18	59110.23
553.34	59217.89
553.51	58782.55
553.67	59107.89
553.84	59103.21
554.01	59121.93
554.17	59302.15
554.34	59320.88
554.51	59037.67
554.67	59215.55
554.84	59164.06
555.00	59119.59
555.17	59215.55
555.33	59253.00
555.50	59295.13
555.67	59224.92
555.83	59105.55
556.00	59374.71
556.16	59585.36
556.33	59564.29
556.50	59465.99
556.66	59648.55
556.83	59381.73
556.99	59622.81
557.16	59632.17
557.32	59608.76
557.49	59793.67
557.65	59465.99
557.82	59491.74
557.98	59473.01
558.15	59681.32
558.32	59807.71
558.48	59554.93
558.65	59760.90
558.81	59468.33
558.98	60032.40
559.14	59618.13
559.31	59852.18
559.47	59786.64
559.64	59810.05
559.80	59803.03
559.97	59910.69
560.13	59728.13
560.30	60086.23
560.46	59985.59
560.63	59969.21
560.79	60030.06
560.96	60123.68
561.12	60151.77
561.29	60140.07
561.45	60119.00
561.61	60006.65
561.78	59997.29
561.94	60104.96
562.11	60072.19
562.27	59999.63
562.44	60109.64
562.60	60219.64
562.77	60362.42
562.93	59831.11
563.10	60149.43
563.26	60062.83
563.42	60287.52
563.59	60306.24
563.75	60231.35
563.92	60175.17
564.08	60231.35
564.24	60327.31
564.41	60376.46
564.57	60432.63
564.74	60250.07
564.90	60346.03
565.07	60456.04
565.23	60500.51
565.39	60214.96
565.56	60301.56
565.72	60441.99
565.88	60470.08
566.05	60287.52
566.21	60491.15
566.38	60322.63
566.54	60584.77
566.70	60615.19
566.87	60692.43
567.03	60376.46
567.19	60669.03
567.36	60516.89
567.52	60570.72
567.68	60963.93
567.85	60514.55
568.01	60598.81
568.17	60542.64
568.34	60701.79
568.50	60643.28
568.66	60523.91
568.83	60591.79
568.99	60673.71
569.15	60699.45
569.32	60502.85
569.48	60622.22
569.64	60851.59
569.81	60608.17
569.97	60444.33
570.13	60669.03
570.30	60610.51
570.46	60610.51
570.62	60776.69
570.78	60512.21
570.95	60832.86
571.11	60811.80
571.27	60776.69
571.43	60996.70
571.60	60851.59
571.76	60654.98
571.92	60718.18
572.09	60893.72
572.25	60856.27
572.41	60844.57
572.57	61015.43
572.74	60926.49
572.90	60977.98
573.06	60900.74
573.22	60617.53
573.38	60914.78
573.55	60776.69
573.71	60947.55
573.87	60867.97
574.03	60650.30
574.20	61036.49
574.36	60776.69
574.52	60896.06
574.68	61137.13
574.84	60942.87
575.01	60858.61
575.17	60891.38
575.33	61092.66
575.49	60893.72
575.65	60999.04
575.82	61153.52
575.98	60818.82
576.14	61209.69
576.30	61057.56
576.46	60919.46
576.62	60947.55
576.79	60874.99
576.95	60818.82
577.11	61095.00
577.27	61134.79
577.43	61064.58
577.59	61029.47
577.75	60809.46
577.92	61031.81
578.08	61080.96
578.24	61095.00
578.40	61095.00
578.56	61310.33
578.72	61139.47
578.88	61305.65
579.04	61425.02
579.21	61071.60
579.37	61071.60
579.53	61181.60
579.69	61022.45
579.85	61080.96
580.01	61006.06
580.17	60977.98
580.33	61354.80
580.49	61106.71
580.65	61073.94
580.82	60741.58
580.98	61043.51
581.14	61048.19
581.30	61256.50
581.46	61158.20
581.62	61235.44
581.78	61066.92
581.94	61300.97
582.10	61155.86
582.26	61338.42
582.42	61275.22
582.58	61132.45
582.74	61087.98
582.90	61064.58
583.06	61261.18
583.22	61034.15
583.38	61020.11
583.54	61202.67
583.70	61113.73
583.86	61312.67
584.02	61146.50
584.18	61251.82
584.34	61240.12
584.50	61207.35
584.66	60970.96
584.82	61031.81
584.98	61443.74
585.14	61179.26
585.30	61062.24
585.46	61293.95
585.62	61272.88
585.78	61441.40
585.94	61031.81
586.10	61212.03
586.26	61193.31
586.42	61183.94
586.58	61279.91
586.74	61375.87
586.90	61209.69
587.06	61359.48
587.22	61286.93
587.38	61268.20
587.54	61298.63
587.70	61357.14
587.86	61289.27
588.02	61219.05
588.18	61469.49
588.34	61202.67
588.49	61233.10
