SpectraSuite Data File
++++++++++++++++++++++++++++++++++++
Date: Fri Oct 25 11:34:17 EDT 2013
User: price-jones
Dark Spectrum Present: No
Reference Spectrum Present: No
Number of Sampled Component Spectra: 1
Spectrometers: USB2+H05261
Integration Time (usec): 100000 (USB2+H05261)
Spectra Averaged: 1 (USB2+H05261)
Boxcar Smoothing: 0 (USB2+H05261)
Correct for Electrical Dark: No (USB2+H05261)
Strobe/Lamp Enabled: No (USB2+H05261)
Correct for Detector Non-linearity: No (USB2+H05261)
Correct for Stray Light: No (USB2+H05261)
Number of Pixels in Processed Spectrum: 2048
>>>>>Begin Processed Spectral Data<<<<<
365.73	339.38
365.92	339.38
366.12	339.38
366.32	215.33
366.52	224.69
366.72	217.67
366.91	110.01
367.11	187.24
367.31	163.84
367.51	170.86
367.70	93.62
367.90	159.16
368.10	124.05
368.30	142.77
368.49	107.66
368.69	201.29
368.89	227.03
369.09	196.60
369.28	173.20
369.48	212.99
369.68	217.67
369.87	245.76
370.07	252.78
370.27	278.52
370.47	362.78
370.66	484.49
370.86	507.90
371.06	554.71
371.25	521.94
371.45	505.56
371.65	571.09
371.84	538.32
372.04	512.58
372.24	624.92
372.44	533.64
372.63	578.11
372.83	629.60
373.03	585.13
373.22	622.58
373.42	596.84
373.62	514.92
373.81	622.58
374.01	636.63
374.21	645.99
374.40	695.14
374.60	634.29
374.79	627.26
374.99	596.84
375.19	657.69
375.38	627.26
375.58	620.24
375.78	603.86
375.97	695.14
376.17	711.52
376.37	648.33
376.56	629.60
376.76	732.59
376.95	610.88
377.15	678.76
377.35	718.54
377.54	627.26
377.74	695.14
377.93	730.25
378.13	638.97
378.33	688.12
378.52	676.41
378.72	690.46
378.91	734.93
379.11	746.63
379.31	704.50
379.50	676.41
379.70	664.71
379.89	807.48
380.09	713.86
380.28	695.14
380.48	737.27
380.68	727.91
380.87	723.23
381.07	746.63
381.26	812.17
381.46	805.14
381.65	814.51
381.85	720.88
382.04	723.23
382.24	746.63
382.43	748.97
382.63	767.70
382.83	802.80
383.02	882.38
383.22	788.76
383.41	786.42
383.61	774.72
383.80	814.51
384.00	844.93
384.19	798.12
384.39	802.80
384.58	784.08
384.78	755.99
384.97	826.21
385.17	873.02
385.36	849.61
385.56	807.48
385.75	835.57
385.95	847.27
386.14	805.14
386.34	877.70
386.53	898.77
386.72	915.15
386.92	833.23
387.11	802.80
387.31	866.00
387.50	858.98
387.70	901.11
387.89	908.13
388.09	889.40
388.28	840.25
388.48	929.19
388.67	866.00
388.86	877.70
389.06	903.45
389.25	931.53
389.45	912.81
389.64	954.94
389.84	954.94
390.03	997.07
390.22	980.68
390.42	910.47
390.61	901.11
390.81	950.26
391.00	936.21
391.19	954.94
391.39	1034.52
391.58	1081.33
391.78	987.71
391.97	957.28
392.16	1013.45
392.36	1029.84
392.55	1032.18
392.75	1004.09
392.94	952.60
393.13	1062.60
393.33	987.71
393.52	1076.65
393.71	1132.82
393.91	1128.14
394.10	1032.18
394.29	1137.50
394.49	1086.01
394.68	1039.20
394.88	1142.18
395.07	1116.44
395.26	1123.46
395.46	1139.84
395.65	1167.93
395.84	1219.42
396.04	1256.87
396.23	1289.64
396.42	1167.93
396.62	1233.46
396.81	1245.16
397.00	1167.93
397.19	1256.87
397.39	1186.65
397.58	1156.22
397.77	1205.38
397.97	1210.06
398.16	1259.21
398.35	1343.47
398.55	1249.85
398.74	1224.10
398.93	1263.89
399.12	1263.89
399.32	1207.72
399.51	1268.57
399.70	1385.60
399.90	1310.70
400.09	1317.72
400.28	1338.79
400.47	1315.38
400.67	1418.36
400.86	1397.30
401.05	1411.34
401.24	1462.83
401.44	1432.41
401.63	1418.36
401.82	1404.32
402.01	1308.36
402.21	1425.39
402.40	1455.81
402.59	1399.64
402.78	1565.82
402.97	1458.15
403.17	1425.39
403.36	1441.77
403.55	1516.67
403.74	1526.03
403.93	1448.79
404.13	1561.14
404.32	1591.56
404.51	1568.16
404.70	1607.95
404.89	1668.80
405.09	1657.10
405.28	1621.99
405.47	1640.72
405.66	1664.12
405.85	1610.29
406.05	1661.78
406.24	1645.40
406.43	1743.70
406.62	1664.12
406.81	1785.83
407.00	1771.79
407.20	1769.44
407.39	1657.10
407.58	1832.64
407.77	1790.51
407.96	1811.57
408.15	1863.07
408.34	1804.55
408.54	1891.15
408.73	1884.13
408.92	1863.07
409.11	1966.05
409.30	2017.54
409.49	1900.52
409.68	2017.54
409.87	2052.65
410.07	1989.46
410.26	1994.14
410.45	1949.67
410.64	2008.18
410.83	2092.44
411.02	2038.61
411.21	2047.97
411.40	2108.82
411.59	2120.53
411.78	2010.52
411.98	2169.68
412.17	2134.57
412.36	2155.63
412.55	2258.62
412.74	2352.24
412.93	2244.57
413.12	2293.72
413.31	2406.07
413.50	2352.24
413.69	2284.36
413.88	2359.26
414.07	2476.29
414.26	2506.71
414.45	2562.89
414.64	2385.01
414.83	2443.52
415.02	2480.97
415.22	2506.71
415.41	2497.35
415.60	2583.95
415.79	2691.62
415.98	2736.09
416.17	2745.45
416.36	2644.81
416.55	2590.97
416.74	2775.88
416.93	2703.32
417.12	2715.02
417.31	2684.59
417.50	2825.03
417.69	2827.37
417.88	2932.69
418.07	2841.41
418.26	2902.26
418.45	2799.28
418.64	2995.89
418.83	2977.16
419.02	3052.06
419.21	2984.18
419.39	2956.10
419.58	2974.82
419.77	3061.42
419.96	3089.51
420.15	3075.46
420.34	3042.70
420.53	3124.62
420.72	3098.87
420.91	3218.24
421.10	3030.99
421.29	3339.94
421.48	3199.51
421.67	3178.45
421.86	3194.83
422.05	3234.62
422.24	3124.62
422.43	3368.03
422.61	3199.51
422.80	3478.04
422.99	3356.33
423.18	3405.48
423.37	3449.95
423.56	3286.11
423.75	3295.47
423.94	3302.50
424.13	3073.12
424.32	3225.26
424.50	3520.17
424.69	3459.31
424.88	3456.97
425.07	3279.09
425.26	3246.32
425.45	3281.43
425.64	3293.13
425.83	3314.20
426.01	3428.88
426.20	3384.41
426.39	3400.80
426.58	3316.54
426.77	3361.01
426.96	3349.31
427.15	3485.06
427.33	3499.10
427.52	3496.76
427.71	3449.95
427.90	3566.98
428.09	3548.25
428.28	3698.05
428.46	3541.23
428.65	3604.42
428.84	3595.06
429.03	3679.32
429.22	3662.94
429.40	3562.30
429.59	3686.34
429.78	3555.27
429.97	3590.38
430.16	3726.13
430.34	3714.43
430.53	3761.24
430.72	3709.75
430.91	3782.31
431.10	3808.05
431.28	3859.54
431.47	3815.07
431.66	3836.14
431.85	3756.56
432.03	3861.88
432.22	4095.94
432.41	3798.69
432.60	3974.23
432.79	3985.93
432.97	3948.48
433.16	3957.85
433.35	3918.06
433.54	3955.51
433.72	4056.15
433.91	4074.87
434.10	4131.05
434.28	4100.62
434.47	4077.21
434.66	4166.15
434.85	4065.51
435.03	4297.22
435.22	4182.54
435.41	4266.80
435.59	4187.22
435.78	4344.03
435.97	4198.92
436.16	4308.93
436.34	4273.82
436.53	4360.42
436.72	4400.21
436.90	4320.63
437.09	4369.78
437.28	4376.80
437.46	4332.33
437.65	4348.72
437.84	4346.37
438.02	4552.34
438.21	4493.83
438.40	4638.94
438.58	4463.40
438.77	4528.94
438.96	4573.41
439.14	4596.81
439.33	4725.54
439.52	4657.67
439.70	4957.25
439.89	4828.53
440.08	4847.25
440.26	4849.59
440.45	4676.39
440.63	4954.91
440.82	5029.81
441.01	5015.77
441.19	5104.71
441.38	5165.56
441.57	5144.50
441.75	5268.55
441.94	5235.78
442.12	5240.46
442.31	5362.17
442.50	5348.12
442.68	5259.18
442.87	5249.82
443.05	5228.76
443.24	5284.93
443.43	5413.66
443.61	5366.85
443.80	5530.69
443.98	5462.81
444.17	5249.82
444.35	5444.09
444.54	5521.32
444.73	5408.98
444.91	5322.38
445.10	5441.75
445.28	5521.32
445.47	5430.04
445.65	5460.47
445.84	5497.92
446.02	5561.11
446.21	5570.48
446.39	5617.29
446.58	5528.35
446.77	5671.12
446.95	5465.15
447.14	5507.28
447.32	5614.95
447.51	5764.74
447.69	5509.62
447.88	5640.69
448.06	5537.71
448.25	5490.90
448.43	5502.60
448.62	5703.89
448.80	5650.05
448.99	5760.06
449.17	5717.93
449.36	5668.78
449.54	5942.62
449.73	5806.87
449.91	6008.16
450.10	5968.37
450.28	6017.52
450.46	5919.21
450.65	6064.33
450.83	5816.23
451.02	5891.13
451.20	6022.20
451.39	5963.68
451.57	6106.46
451.76	5926.24
451.94	5928.58
452.13	6057.31
452.31	6012.84
452.49	6090.07
452.68	6193.06
452.86	6228.17
453.05	6232.85
453.23	6438.81
453.42	6019.86
453.60	6202.42
453.78	6293.70
453.97	6216.46
454.15	6307.74
454.34	6232.85
454.52	6307.74
454.70	6413.07
454.89	6298.38
455.07	6303.06
455.26	6244.55
455.44	6441.15
455.62	6565.20
455.81	6429.45
455.99	6586.27
456.17	6574.56
456.36	6651.80
456.54	6679.89
456.73	6717.34
456.91	6876.49
457.09	6740.74
457.28	7028.63
457.46	6764.15
457.64	6963.09
457.83	7070.76
458.01	6904.58
458.19	7019.27
458.38	7007.56
458.56	7119.91
458.74	6913.94
458.93	6834.36
459.11	7066.08
459.29	7241.62
459.48	7037.99
459.66	6951.39
459.84	7012.24
460.03	7101.19
460.21	7129.27
460.39	7103.53
460.57	7288.43
460.76	7199.49
460.94	7414.82
461.12	7234.60
461.31	7384.39
461.49	7321.20
461.67	7321.20
461.85	7595.04
462.04	7468.65
462.22	7946.12
462.40	7602.06
462.59	7648.87
462.77	7641.85
462.95	7665.25
463.13	7536.52
463.32	7653.55
463.50	7667.60
463.68	7559.93
463.86	7721.43
464.05	7606.74
464.23	7653.55
464.41	7662.91
464.59	7709.72
464.78	7833.77
464.96	7714.41
465.14	7747.17
465.32	7765.90
465.50	8037.40
465.69	7761.22
465.87	7829.09
466.05	7829.09
466.23	7941.44
466.41	7974.21
466.60	8046.76
466.78	7969.52
466.96	7740.15
467.14	8053.78
467.32	7995.27
467.51	7990.59
467.69	7873.56
467.87	7981.23
468.05	8264.43
468.23	8018.68
468.41	8280.82
468.60	8168.47
468.78	8060.80
468.96	8344.01
469.14	8336.99
469.32	8322.94
469.50	8336.99
469.69	8388.48
469.87	8407.20
470.05	8418.91
470.23	8526.57
470.41	8568.70
470.59	8655.30
470.77	8446.99
470.95	8606.15
471.14	8720.84
471.32	8549.98
471.50	8758.28
471.68	8706.79
471.86	8830.84
472.04	8741.90
472.22	9071.92
472.40	8940.85
472.58	8910.42
472.77	8805.10
472.95	9149.15
473.13	9500.23
473.31	9149.15
473.49	9217.03
473.67	9317.67
473.85	9338.74
474.03	9352.78
474.21	9441.72
474.39	9394.91
474.57	9465.13
474.75	9586.83
474.93	9673.43
475.12	9589.17
475.30	9930.89
475.48	9666.41
475.66	9795.14
475.84	9549.39
476.02	9886.42
476.20	9813.87
476.38	10078.35
476.56	10415.38
476.74	10211.76
476.92	10127.50
477.10	10143.88
477.28	10422.41
477.46	10242.18
477.64	10637.73
477.82	10640.08
478.00	10764.12
478.18	10743.06
478.36	10923.28
478.54	10846.04
478.72	11014.56
478.90	11082.44
479.08	11222.87
479.26	11112.86
479.44	11117.54
479.62	11325.85
479.80	11510.75
479.98	11630.12
480.16	11770.55
480.34	11683.95
480.52	11768.21
480.70	11910.99
480.88	11824.39
481.06	11915.67
481.24	12152.06
481.41	12152.06
481.59	12196.53
481.77	12769.96
481.95	12599.10
482.13	12624.85
482.31	12351.01
482.49	12709.11
482.67	12894.01
482.85	13001.68
483.03	13015.72
483.21	13027.42
483.39	13434.68
483.57	13202.96
483.74	13359.78
483.92	13589.15
484.10	13542.34
484.28	13827.88
484.46	14176.62
484.64	14181.31
484.82	14129.81
485.00	14197.69
485.18	14672.82
485.35	14778.14
485.53	14583.88
485.71	14874.10
485.89	14740.69
486.07	14698.56
486.25	14972.41
486.43	15026.24
486.61	15063.69
486.78	15332.85
486.96	15531.80
487.14	15697.97
487.32	15442.85
487.50	15667.55
487.68	16042.03
487.85	16116.93
488.03	16290.13
488.21	16404.81
488.39	16425.88
488.57	16669.30
488.75	16711.42
488.92	16769.94
489.10	16879.94
489.28	17135.06
489.46	17298.90
489.64	17287.20
489.81	17736.58
489.99	17727.22
490.17	17764.67
490.35	17984.68
490.53	17549.34
490.70	17980.00
490.88	17881.69
491.06	18523.00
491.24	18394.27
491.41	18476.19
491.59	18738.33
491.77	18750.03
491.95	19051.96
492.13	18941.96
492.30	19061.32
492.48	19049.62
492.66	19110.47
492.84	19028.56
493.01	19651.14
493.19	19421.77
493.37	19754.12
493.54	19840.72
493.72	19536.45
493.90	19819.66
494.08	20233.93
494.25	20409.47
494.43	20650.55
494.61	20456.28
494.79	20711.40
494.96	20435.22
495.14	20758.21
495.32	20709.06
495.49	20898.64
495.67	21172.49
495.85	21284.83
496.02	21095.25
496.20	21551.65
496.38	21949.54
496.55	21717.83
496.73	22106.36
496.91	21846.56
497.09	21886.35
497.26	22108.70
497.44	22471.48
497.62	22403.61
497.79	22609.58
497.97	22607.23
498.14	22862.35
498.32	22970.02
498.50	22991.08
498.67	23061.30
498.85	23157.26
499.03	23417.06
499.20	23208.75
499.38	23393.65
499.56	23578.56
499.73	23571.54
499.91	24112.20
500.08	24025.60
500.26	23817.29
500.44	23953.04
500.61	23817.29
500.79	24196.46
500.97	24325.19
501.14	24683.29
501.32	24610.73
501.49	24374.34
501.67	24905.64
501.84	24678.61
502.02	24702.01
502.20	24634.14
502.37	25167.78
502.55	24889.26
502.72	25270.76
502.90	25193.53
503.07	24893.94
503.25	25675.68
503.43	25308.21
503.60	25156.08
503.78	25439.28
503.95	25551.63
504.13	25638.23
504.30	25752.91
504.48	25825.47
504.65	26031.44
504.83	26068.89
505.01	26036.12
505.18	26108.68
505.36	26562.74
505.53	26375.50
505.71	26511.25
505.88	26738.28
506.06	26394.22
506.23	26838.92
506.41	26815.52
506.58	26675.09
506.76	26780.41
506.93	26677.43
507.11	26806.16
507.28	27140.85
507.46	27342.14
507.63	27555.13
507.81	27358.52
507.98	27545.76
508.16	27571.51
508.33	27845.35
508.50	28023.23
508.68	27955.36
508.85	27878.12
509.03	28325.16
509.20	28247.93
509.38	28037.28
509.55	28236.22
509.73	28554.54
509.90	28144.94
510.08	28294.74
510.25	28180.05
510.42	28762.84
510.60	28966.47
510.77	28594.32
510.95	29280.10
511.12	28844.76
511.30	29078.82
511.47	29092.86
511.64	28870.51
511.82	29598.41
511.99	29413.51
512.17	29270.74
512.34	29701.40
512.51	29642.88
512.69	29575.01
512.86	30298.23
513.04	30080.56
513.21	29670.97
513.38	29968.22
513.56	30204.61
513.73	30244.40
513.90	30314.62
514.08	30206.95
514.25	30602.50
514.43	30588.46
514.60	30518.25
514.77	30635.27
514.95	30644.63
515.12	30841.24
515.29	30588.46
515.47	31267.22
515.64	31058.91
515.81	31250.83
515.99	31611.28
516.16	31098.70
516.33	30965.29
516.51	31484.89
516.68	30981.67
516.85	31679.15
517.03	31585.53
517.20	31536.38
517.37	31405.31
517.54	32002.14
517.72	31737.66
517.89	31622.98
518.06	31924.91
518.24	32044.27
518.41	32032.57
518.58	32261.94
518.75	31800.86
518.93	32318.12
519.10	32163.64
519.27	32659.84
519.45	32613.02
519.62	32470.25
519.79	32664.52
519.96	32776.86
520.14	32432.80
520.31	32692.60
520.48	32917.29
520.65	32816.65
520.83	33340.93
521.00	33406.47
521.17	33352.63
521.34	33268.37
521.52	33621.80
521.69	33329.23
521.86	33319.87
522.03	34033.73
522.20	33572.64
522.38	34026.71
522.55	34225.65
522.72	34206.93
522.89	34026.71
523.07	34384.81
523.24	34003.30
523.41	33989.26
523.58	34230.33
523.75	34588.44
523.92	34197.57
524.10	34272.46
524.27	34576.73
524.44	34464.39
524.61	34345.02
524.78	34974.63
524.96	34948.88
525.13	34918.45
525.30	34911.43
525.47	34883.34
525.64	34719.51
525.81	35152.51
525.98	35484.86
526.16	34923.13
526.33	34817.81
526.50	35690.83
526.67	35274.21
526.84	35206.34
527.01	35459.12
527.18	35344.43
527.36	36168.30
527.53	35531.67
527.70	36107.44
527.87	36004.46
528.04	35751.68
528.21	35910.84
528.38	35751.68
528.55	36423.42
528.72	36170.64
528.89	36020.84
529.07	35550.40
529.24	36020.84
529.41	36126.17
529.58	36390.65
529.75	36299.37
529.92	36261.92
530.09	36484.27
530.26	36320.43
530.43	36325.11
530.60	36006.80
530.77	36601.30
530.94	36844.71
531.11	36620.02
531.28	36512.36
531.46	36835.35
531.63	36549.81
531.80	37099.83
531.97	37223.88
532.14	37298.78
532.31	37001.53
532.48	37244.94
532.65	37535.17
532.82	37411.12
532.99	36811.95
533.16	37352.61
533.33	37457.93
533.50	37125.58
533.67	37280.05
533.84	37319.84
534.01	37486.02
534.18	37621.77
534.35	37823.06
534.52	37862.85
534.69	38122.65
534.86	37998.60
535.03	37549.21
535.20	38403.51
535.37	38291.16
535.54	38389.47
535.71	38295.85
535.88	38082.86
536.05	38405.85
536.22	38590.75
536.38	38518.20
536.55	38342.66
536.72	38632.88
536.89	38635.22
537.06	38281.80
537.23	38930.13
537.40	38946.51
537.57	38890.34
537.74	38422.23
537.91	39086.95
538.08	39005.03
538.25	38485.43
538.42	39044.82
538.59	39213.34
538.75	38794.38
538.92	39173.55
539.09	39407.60
539.26	39215.68
539.43	39255.46
539.60	39220.36
539.77	39246.10
539.94	39669.74
540.11	39494.20
540.28	39470.79
540.44	39189.93
540.61	39510.58
540.78	39587.82
540.95	39262.49
541.12	39477.82
541.29	39742.30
541.46	39763.36
541.62	39388.88
541.79	40364.88
541.96	39522.29
542.13	39885.07
542.30	40257.21
542.47	40236.15
542.63	40360.20
542.80	40037.20
542.97	40589.57
543.14	40556.80
543.31	40474.88
543.48	40149.55
543.64	40978.10
543.81	39976.35
543.98	40715.96
544.15	40399.99
544.32	40886.82
544.48	41603.02
544.65	40673.83
544.82	41001.50
544.99	40261.90
545.16	41268.33
545.32	40655.11
545.49	40900.86
545.66	41572.60
545.83	41186.41
546.00	41235.56
546.16	41249.60
546.33	40945.33
546.50	40758.09
546.67	41287.05
546.83	40732.34
547.00	41385.35
547.17	41446.21
547.34	41347.90
547.50	41315.14
547.67	41633.45
547.84	41518.76
548.00	41610.04
548.17	41787.92
548.34	42220.92
548.51	42110.92
548.67	41745.80
548.84	41851.12
549.01	41816.01
549.18	42457.32
549.34	42139.00
549.51	42026.66
549.68	42115.60
549.84	41900.27
550.01	42469.02
550.18	42071.13
550.34	42342.63
550.51	42590.73
550.68	42316.89
550.84	42043.04
551.01	42286.46
551.18	42162.41
551.34	42504.13
551.51	42321.57
551.68	42485.40
551.84	42344.97
552.01	42464.34
552.18	42508.81
552.34	42569.66
552.51	43012.02
552.68	42525.19
552.84	42895.00
553.01	42768.61
553.18	43229.69
553.34	42852.87
553.51	42794.36
553.67	42536.90
553.84	43276.51
554.01	43260.12
554.17	43023.73
554.34	42955.85
554.51	43012.02
554.67	42955.85
554.84	43538.65
555.00	43222.67
555.17	43199.27
555.33	43669.72
555.50	43100.97
555.67	43721.21
555.83	43077.56
556.00	43372.47
556.16	43929.51
556.33	44107.40
556.50	43138.41
556.66	43571.41
556.83	43210.97
556.99	43540.99
557.16	43690.78
557.32	43716.53
557.49	44034.84
557.65	43470.77
557.82	43658.01
557.98	44062.93
558.15	43742.27
558.32	43775.04
558.48	43723.55
558.65	43562.05
558.81	44112.08
558.98	43746.95
559.14	43793.76
559.31	43924.83
559.47	43988.03
559.64	44116.76
559.80	44163.57
559.97	44306.34
560.13	43990.37
560.30	43959.94
560.46	44362.51
560.63	44301.66
560.79	44245.49
560.96	44533.37
561.12	44404.64
561.29	44385.92
561.45	44280.60
561.61	44259.53
561.78	44332.09
561.94	44774.45
562.11	44114.42
562.27	44069.95
562.44	44898.50
562.60	44210.38
562.77	44128.46
562.93	44208.04
563.10	44626.99
563.26	44524.01
563.42	44601.25
563.59	44341.45
563.75	44641.04
563.92	44662.10
564.08	44598.91
564.24	44699.55
564.41	44797.85
564.57	45127.87
564.74	44570.82
564.90	44795.51
565.07	44882.11
565.23	44683.17
565.39	44701.89
565.56	44751.04
565.72	44678.49
565.88	44938.29
566.05	44687.85
566.21	44940.63
566.38	44648.06
566.54	44877.43
566.70	45214.47
566.87	44893.82
567.03	44540.39
567.19	44758.06
567.36	45153.62
567.52	45343.20
567.68	45298.73
567.85	45090.42
568.01	45359.58
568.17	45160.64
568.34	44980.42
568.50	44992.12
568.66	45184.04
568.83	45050.63
568.99	44882.11
569.15	44999.14
569.32	44921.90
569.48	44573.16
569.64	45450.86
569.81	45422.78
569.97	45436.82
570.13	45242.56
570.30	45249.58
570.46	45237.87
570.62	45333.84
570.78	45326.81
570.95	45301.07
571.11	45418.10
571.27	45523.42
571.43	45205.11
571.60	45633.42
571.76	44619.97
571.92	45191.06
572.09	45408.73
572.25	45162.98
572.41	45394.69
572.57	45378.31
572.74	45853.44
572.90	45511.72
573.06	45357.24
573.22	45708.32
573.38	45563.21
573.55	45949.40
573.71	45755.13
573.87	45492.99
574.03	45607.68
574.20	46019.61
574.36	45478.95
574.52	45338.52
574.68	45635.77
574.84	45614.70
575.01	45682.58
575.17	45757.47
575.33	45790.24
575.49	45368.94
575.65	45731.73
575.82	45876.84
575.98	45546.82
576.14	46293.46
576.30	45956.42
576.46	45624.06
576.62	45820.67
576.79	45560.87
576.95	45518.74
577.11	45272.98
577.27	45556.19
577.43	45588.95
577.59	45577.25
577.75	45811.31
577.92	45336.18
578.08	45680.24
578.24	45764.49
578.40	46106.21
578.56	45839.39
578.72	45521.08
578.88	45872.16
579.04	45361.92
579.21	45818.33
579.37	45900.25
579.53	45682.58
579.69	45815.99
579.85	45806.62
580.01	45785.56
580.17	45647.47
580.33	45787.90
580.49	45776.20
580.65	45806.62
580.82	45975.14
580.98	45984.51
581.14	45488.31
581.30	45951.74
581.46	45759.81
581.62	45940.04
581.78	45970.46
581.94	46164.73
582.10	46099.19
582.26	45958.76
582.42	45511.72
582.58	45918.97
582.74	45591.30
582.90	45862.80
583.06	45916.63
583.22	45989.19
583.38	45600.66
583.54	46305.16
583.70	46131.96
583.86	46333.24
584.02	45656.83
584.18	46167.07
584.34	45984.51
584.50	46176.43
584.66	45865.14
584.82	46295.80
584.98	46256.01
585.14	45979.82
585.30	45799.60
585.46	45862.80
585.62	45727.05
585.78	46045.36
585.94	45539.80
586.10	45925.99
586.26	46138.98
586.42	46202.18
586.58	46447.93
586.74	46005.57
586.90	45708.32
587.06	45860.46
587.22	45909.61
587.38	45853.44
587.54	46043.02
587.70	46335.59
587.86	46047.70
588.02	45628.74
588.18	46358.99
588.34	45989.19
588.49	46129.62
588.65	45937.69
588.81	46071.10
588.97	46291.12
589.13	45954.08
589.29	46204.52
589.45	46244.30
589.61	45954.08
589.77	46632.83
589.93	46546.23
590.08	45818.33
