SpectraSuite Data File
++++++++++++++++++++++++++++++++++++
Date: Fri Oct 25 11:23:08 EDT 2013
User: price-jones
Dark Spectrum Present: No
Reference Spectrum Present: No
Number of Sampled Component Spectra: 1
Spectrometers: USB2+H05261
Integration Time (usec): 100000 (USB2+H05261)
Spectra Averaged: 1 (USB2+H05261)
Boxcar Smoothing: 0 (USB2+H05261)
Correct for Electrical Dark: No (USB2+H05261)
Strobe/Lamp Enabled: No (USB2+H05261)
Correct for Detector Non-linearity: No (USB2+H05261)
Correct for Stray Light: No (USB2+H05261)
Number of Pixels in Processed Spectrum: 2048
>>>>>Begin Processed Spectral Data<<<<<
365.73	266.82
365.92	266.82
366.12	266.82
366.32	117.03
366.52	81.92
366.72	168.52
366.91	145.11
367.11	131.07
367.31	135.75
367.51	65.54
367.70	117.03
367.90	110.01
368.10	140.43
368.30	194.26
368.49	163.84
368.69	140.43
368.89	135.75
369.09	98.30
369.28	140.43
369.48	170.86
369.68	177.88
369.87	184.90
370.07	182.56
370.27	252.78
370.47	287.89
370.66	624.92
370.86	571.09
371.06	653.01
371.25	713.86
371.45	660.03
371.65	653.01
371.84	613.22
372.04	681.10
372.24	688.12
372.44	631.94
372.63	788.76
372.83	683.44
373.03	781.74
373.22	704.50
373.42	746.63
373.62	807.48
373.81	823.87
374.01	734.93
374.21	816.85
374.40	847.27
374.60	823.87
374.79	924.51
374.99	823.87
375.19	770.04
375.38	854.30
375.58	800.46
375.78	819.19
375.97	884.72
376.17	919.83
376.37	884.72
376.56	812.17
376.76	891.74
376.95	828.55
377.15	903.45
377.35	870.68
377.54	933.87
377.74	870.68
377.93	919.83
378.13	940.90
378.33	922.17
378.52	994.73
378.72	1013.45
378.91	924.51
379.11	915.15
379.31	882.38
379.50	844.93
379.70	1048.56
379.89	961.96
380.09	987.71
380.28	968.98
380.48	1050.90
380.68	1055.58
380.87	1013.45
381.07	971.32
381.26	929.19
381.46	1034.52
381.65	1015.79
381.85	999.41
382.04	1020.47
382.24	1086.01
382.43	1020.47
382.63	1025.15
382.83	1153.88
383.02	1081.33
383.22	1100.05
383.41	1107.07
383.61	1167.93
383.80	1167.93
384.00	1135.16
384.19	1081.33
384.39	1069.62
384.58	1149.20
384.78	1095.37
384.97	1121.12
385.17	1135.16
385.36	1132.82
385.56	1135.16
385.75	1193.67
385.95	1160.91
386.14	1221.76
386.34	1130.48
386.53	1207.72
386.72	1179.63
386.92	1245.16
387.11	1294.32
387.31	1226.44
387.50	1273.25
387.70	1270.91
387.89	1308.36
388.09	1268.57
388.28	1336.45
388.48	1336.45
388.67	1345.81
388.86	1200.69
389.06	1334.11
389.25	1439.43
389.45	1401.98
389.64	1359.85
389.84	1441.77
390.03	1343.47
390.22	1336.45
390.42	1401.98
390.61	1493.26
390.81	1373.89
391.00	1490.92
391.19	1462.83
391.39	1572.84
391.58	1497.94
391.78	1345.81
391.97	1479.22
392.16	1486.24
392.36	1495.60
392.55	1430.07
392.75	1540.07
392.94	1474.54
393.13	1549.43
393.33	1593.90
393.52	1558.80
393.71	1488.58
393.91	1621.99
394.10	1458.15
394.29	1624.33
394.49	1692.21
394.68	1680.50
394.88	1605.61
395.07	1666.46
395.26	1565.82
395.46	1633.69
395.65	1748.38
395.84	1724.97
396.04	1764.76
396.23	1659.44
396.42	1715.61
396.62	1748.38
396.81	1813.92
397.00	1785.83
397.19	1788.17
397.39	1776.47
397.58	1739.02
397.77	1952.01
397.97	1952.01
398.16	1774.13
398.35	1849.02
398.55	1954.35
398.74	1884.13
398.93	1888.81
399.12	1937.96
399.32	1942.64
399.51	1916.90
399.70	2003.50
399.90	1942.64
400.09	2033.93
400.28	2050.31
400.47	2111.16
400.67	2127.55
400.86	1956.69
401.05	1949.67
401.24	2064.35
401.44	2143.93
401.63	2150.95
401.82	2129.89
402.01	2064.35
402.21	2169.68
402.40	2155.63
402.59	2190.74
402.78	2296.07
402.97	2298.41
403.17	2282.02
403.36	2195.42
403.55	2431.82
403.74	2422.45
403.93	2284.36
404.13	2394.37
404.32	2382.67
404.51	2389.69
404.70	2392.03
404.89	2455.22
405.09	2476.29
405.28	2431.82
405.47	2413.09
405.66	2504.37
405.85	2513.74
406.05	2480.97
406.24	2609.70
406.43	2579.27
406.62	2553.52
406.81	2686.94
407.00	2537.14
407.20	2656.51
407.39	2686.94
407.58	2822.69
407.77	2808.64
407.96	2731.41
408.15	2920.99
408.34	2642.46
408.54	2848.43
408.73	2890.56
408.92	2885.88
409.11	2965.46
409.30	2801.62
409.49	2780.56
409.68	3035.67
409.87	2876.52
410.07	3019.29
410.26	3019.29
410.45	3002.91
410.64	3087.17
410.83	3038.02
411.02	3077.80
411.21	3241.64
411.40	3126.96
411.59	3105.89
411.78	3204.19
411.98	3201.85
412.17	3358.67
412.36	3379.73
412.55	3435.91
412.74	3407.82
412.93	3382.07
413.12	3468.67
413.31	3620.81
413.50	3478.04
413.69	3489.74
413.88	3698.05
414.07	3599.74
414.26	3754.22
414.45	3712.09
414.64	3616.13
414.83	3885.29
415.02	3850.18
415.22	3761.24
415.41	3934.44
415.60	3894.65
415.79	3915.72
415.98	4044.45
416.17	4091.26
416.36	3969.55
416.55	4004.66
416.74	4098.28
416.93	4018.70
417.12	4201.26
417.31	4273.82
417.50	4322.97
417.69	4355.74
417.88	4329.99
418.07	4337.01
418.26	4327.65
418.45	4341.69
418.64	4416.59
418.83	4477.44
419.02	4561.70
419.21	4571.07
419.39	4711.50
419.58	4610.86
419.77	4552.34
419.96	4620.22
420.15	4573.41
420.34	4669.37
420.53	4620.22
420.72	4823.84
420.91	4716.18
421.10	4837.89
421.29	4854.27
421.48	4709.16
421.67	4716.18
421.86	4863.63
422.05	4816.82
422.24	4720.86
422.43	4870.65
422.61	4894.06
422.80	4978.32
422.99	4938.53
423.18	4858.95
423.37	5060.24
423.56	5074.28
423.75	5029.81
423.94	4908.10
424.13	4753.63
424.32	4835.55
424.50	5139.82
424.69	5212.37
424.88	5076.62
425.07	5062.58
425.26	4882.36
425.45	4933.85
425.64	4973.64
425.83	5067.26
426.01	4975.98
426.20	5151.52
426.39	5088.32
426.58	5093.01
426.77	5041.51
426.96	5013.43
427.15	5331.74
427.33	5191.31
427.52	5282.59
427.71	5207.69
427.90	5259.18
428.09	5195.99
428.28	5495.58
428.46	5249.82
428.65	5280.25
428.84	5507.28
429.03	5483.88
429.22	5406.64
429.40	5540.05
429.59	5596.22
429.78	5444.09
429.97	5378.55
430.16	5479.19
430.34	5694.52
430.53	5614.95
430.72	5668.78
430.91	5680.48
431.10	5619.63
431.28	5781.12
431.47	5727.29
431.66	6059.65
431.85	5753.04
432.03	6054.97
432.22	6012.84
432.41	6005.81
432.60	6087.73
432.79	5956.66
432.97	5956.66
433.16	6080.71
433.35	6017.52
433.54	6073.69
433.72	6221.14
433.91	6038.58
434.10	6207.10
434.28	6045.60
434.47	6188.38
434.66	6183.70
434.85	6216.46
435.03	6431.79
435.22	6326.47
435.41	6609.67
435.59	6382.64
435.78	6291.36
435.97	6677.55
436.16	6399.02
436.34	6525.41
436.53	6555.84
436.72	6684.57
436.90	6604.99
437.09	6595.63
437.28	6473.92
437.46	6766.49
437.65	6785.21
437.84	6782.87
438.02	6626.06
438.21	6916.28
438.40	6932.67
438.58	6920.96
438.77	7129.27
438.96	7215.87
439.14	7063.74
439.33	7255.66
439.52	7520.14
439.70	7447.58
439.89	7524.82
440.08	7398.43
440.26	7435.88
440.45	7234.60
440.63	7613.76
440.82	7808.03
441.01	7555.25
441.19	7702.70
441.38	7803.35
441.57	7691.00
441.75	7705.04
441.94	8016.33
442.12	7932.08
442.31	8088.89
442.50	8116.98
442.68	8049.10
442.87	8166.13
443.05	8327.63
443.24	8308.90
443.43	8388.48
443.61	8271.45
443.80	8542.96
443.98	8222.30
444.17	8105.28
444.35	8313.58
444.54	8484.44
444.73	8545.30
444.91	8325.29
445.10	8315.92
445.28	8442.31
445.47	8304.22
445.65	8358.05
445.84	8383.80
446.02	8465.72
446.21	8664.66
446.39	8411.89
446.58	8664.66
446.77	8648.28
446.95	8411.89
447.14	8622.53
447.32	8531.25
447.51	8727.86
447.69	8765.31
447.88	8606.15
448.06	8711.47
448.25	8650.62
448.43	8627.21
448.62	8484.44
448.80	8786.37
448.99	8636.58
449.17	8823.82
449.36	8650.62
449.54	9132.77
449.73	9170.22
449.91	9142.13
450.10	8926.80
450.28	9179.58
450.46	9057.87
450.65	9170.22
450.83	8999.36
451.02	9057.87
451.20	9408.95
451.39	9097.66
451.57	9430.02
451.76	9289.59
451.94	9341.08
452.13	9341.08
452.31	9434.70
452.49	9254.48
452.68	9254.48
452.86	9228.73
453.05	9441.72
453.23	9327.03
453.42	9577.47
453.60	9619.60
453.78	9596.20
453.97	9596.20
454.15	9708.54
454.34	9724.93
454.52	9816.21
454.70	9980.04
454.89	9706.20
455.07	9781.10
455.26	9891.10
455.44	9884.08
455.62	10050.26
455.81	10129.84
455.99	10310.06
456.17	10136.86
456.36	10141.54
456.54	10190.69
456.73	10614.33
456.91	10560.50
457.09	10490.28
457.28	10424.75
457.46	10590.92
457.64	10452.83
457.83	10747.74
458.01	10487.94
458.19	10902.22
458.38	10906.90
458.56	10698.59
458.74	10780.51
458.93	10841.36
459.11	10754.76
459.29	10789.87
459.48	10855.40
459.66	10813.28
459.84	10839.02
460.03	11005.20
460.21	10993.50
460.39	10988.82
460.57	11178.40
460.76	11346.92
460.94	11463.94
461.12	11506.07
461.31	11309.47
461.49	11403.09
461.67	11377.34
461.85	11499.05
462.04	11463.94
462.22	11871.20
462.40	11510.75
462.59	11667.57
462.77	11475.65
462.95	11669.91
463.13	11604.38
463.32	11651.19
463.50	12091.21
463.68	12020.99
463.86	11913.33
464.05	11859.49
464.23	11857.15
464.41	11908.65
464.59	11709.70
464.78	12390.80
464.96	12098.23
465.14	12016.31
465.32	11969.50
465.50	12360.37
465.69	12184.83
465.87	12334.62
466.05	12428.24
466.23	12166.10
466.41	12198.87
466.60	12779.32
466.78	12109.93
466.96	12201.21
467.14	12418.88
467.32	12573.36
467.51	12533.57
467.69	12496.12
467.87	12585.06
468.05	12716.13
468.23	12585.06
468.41	12533.57
468.60	13029.76
468.78	12943.16
468.96	12709.11
469.14	12840.18
469.32	13233.39
469.50	13020.40
469.69	13179.56
469.87	13418.29
470.05	13053.17
470.23	13114.02
470.41	13277.86
470.59	13549.36
470.77	13282.54
470.95	13657.03
471.14	13881.72
471.32	13277.86
471.50	13507.23
471.68	13870.01
471.86	13621.92
472.04	13848.95
472.22	13961.30
472.40	13729.58
472.58	13874.70
472.77	14171.94
472.95	14347.48
473.13	14888.15
473.31	14174.28
473.49	14595.58
473.67	14125.13
473.85	14508.98
474.03	14523.02
474.21	14661.12
474.39	15000.49
474.57	14853.04
474.75	14988.79
474.93	15014.54
475.12	14995.81
475.30	15421.79
475.48	15328.17
475.66	15559.88
475.84	15335.19
476.02	15634.78
476.20	15438.17
476.38	15896.92
476.56	16334.60
476.74	16060.76
476.92	15796.28
477.10	16056.08
477.28	16397.79
477.46	16327.58
477.64	16414.18
477.82	16760.58
478.00	17071.87
478.18	17036.76
478.36	17095.27
478.54	17074.21
478.72	17348.05
478.90	17544.66
479.08	17575.08
479.26	17851.27
479.44	17867.65
479.62	18209.37
479.80	18017.44
479.98	18345.12
480.16	18801.52
480.34	18422.36
480.52	18750.03
480.70	18750.03
480.88	18377.89
481.06	18916.21
481.24	19288.35
481.41	19185.37
481.59	19534.11
481.77	19765.82
481.95	19571.56
482.13	20081.80
482.31	19763.48
482.49	20554.58
482.67	20376.70
482.85	20620.12
483.03	20762.89
483.21	20851.83
483.39	21076.52
483.57	20947.79
483.74	21268.45
483.92	21392.50
484.10	21418.24
484.28	21804.43
484.46	22160.19
484.64	22581.49
484.82	22092.32
485.00	22796.82
485.18	22792.14
485.35	23138.54
485.53	22899.80
485.71	23243.86
485.89	23796.23
486.07	23360.89
486.25	23634.73
486.43	23768.14
486.61	24023.26
486.78	23950.70
486.96	24627.12
487.14	24566.26
487.32	25120.97
487.50	24973.52
487.68	25160.76
487.85	25722.49
488.03	25596.10
488.21	26003.35
488.39	26106.34
488.57	26480.82
488.75	26600.19
488.92	26918.50
489.10	27075.32
489.28	27234.47
489.46	27594.92
489.64	27342.14
489.81	27779.82
489.99	27894.50
490.17	27604.28
490.35	28664.54
490.53	28114.52
490.70	28943.06
490.88	28842.42
491.06	29081.16
491.24	29060.09
491.41	29483.73
491.59	29837.15
491.77	29476.71
491.95	30008.01
492.13	30188.23
492.30	30197.59
492.48	30263.13
492.66	30342.70
492.84	30506.54
493.01	30904.43
493.19	31180.62
493.37	31323.39
493.54	31740.00
493.72	31838.31
493.90	32013.85
494.08	32002.14
494.25	32629.41
494.43	32699.62
494.61	32952.40
494.79	32842.40
494.96	32723.03
495.14	33186.46
495.32	33177.09
495.49	33390.08
495.67	33785.63
495.85	34164.80
496.02	34401.19
496.20	34522.90
496.38	34398.85
496.55	34445.66
496.73	35473.16
496.91	34995.69
497.09	35468.48
497.26	35105.70
497.44	35182.93
497.62	35627.63
497.79	36287.67
497.97	36140.21
498.14	36182.34
498.32	36851.73
498.50	36774.50
498.67	36868.12
498.85	36659.81
499.03	37193.45
499.20	36835.35
499.38	37427.51
499.56	37366.65
499.73	37900.29
499.91	38024.34
500.08	38335.63
500.26	37797.31
500.44	38562.67
500.61	38066.47
500.79	38132.01
500.97	38068.81
501.14	38705.44
501.32	39360.79
501.49	38965.24
501.67	38796.72
501.84	39576.12
502.02	39487.18
502.20	39643.99
502.37	39622.93
502.55	39339.72
502.72	39924.86
502.90	40371.90
503.07	39864.00
503.25	39894.43
503.43	40219.77
503.60	40507.65
503.78	40376.58
503.95	41443.87
504.13	40624.68
504.30	41069.38
504.48	41163.00
504.65	41146.62
504.83	41846.44
505.01	41778.56
505.18	41528.13
505.36	42036.02
505.53	41876.86
505.71	41982.19
505.88	42078.15
506.06	41825.37
506.23	42555.62
506.41	42319.23
506.58	42326.25
506.76	42333.27
506.93	42817.76
507.11	42555.62
507.28	43042.45
507.46	43372.47
507.63	43374.81
507.81	43917.81
507.98	43232.04
508.16	43096.28
508.33	43910.79
508.50	43894.41
508.68	44091.01
508.85	44081.65
509.03	43966.96
509.20	44657.42
509.38	44823.60
509.55	45083.40
509.73	45139.57
509.90	44891.48
510.08	44732.32
510.25	45137.23
510.42	45022.54
510.60	45371.28
510.77	45663.85
510.95	46014.93
511.12	45588.95
511.30	45691.94
511.47	46192.81
511.64	45972.80
511.82	46239.62
511.99	46155.36
512.17	46478.36
512.34	46490.06
512.51	46461.97
512.69	46831.78
512.86	46562.62
513.04	47012.00
513.21	47100.94
513.38	47033.07
513.56	47475.43
513.73	47793.74
513.90	47302.23
514.08	47388.83
514.25	47896.72
514.43	47695.44
514.60	47889.70
514.77	47714.16
514.95	48121.41
515.12	47882.68
515.29	48254.82
515.47	48577.82
515.64	48428.02
515.81	48303.98
515.99	48690.16
516.16	48732.29
516.33	48575.48
516.51	49120.82
516.68	48882.09
516.85	48814.21
517.03	49048.27
517.20	49413.39
517.37	49261.26
517.54	49312.75
517.72	49310.41
517.89	49600.63
518.06	49490.63
518.24	49804.26
518.41	49441.48
518.58	49687.23
518.75	49705.96
518.93	49528.08
519.10	50209.17
519.27	50384.71
519.45	50321.52
519.62	50253.64
519.79	50164.70
519.96	50075.76
520.14	50845.80
520.31	50504.08
520.48	50649.19
520.65	50567.27
520.83	51028.36
521.00	51152.41
521.17	50885.59
521.34	51086.87
521.52	51356.03
521.69	51325.61
521.86	51414.55
522.03	51316.25
522.20	51653.28
522.38	51760.95
522.55	51686.05
522.72	51957.55
522.89	52039.47
523.07	52100.32
523.24	51875.63
523.41	51964.57
523.58	51805.42
523.75	52231.40
523.92	51910.74
524.10	52315.65
524.27	52467.79
524.44	52205.65
524.61	52505.24
524.78	52257.14
524.96	52420.98
525.13	52432.68
525.30	52769.72
525.47	52825.89
525.64	52652.69
525.81	52786.10
525.98	53013.13
526.16	52818.87
526.33	53085.69
526.50	53347.83
526.67	52931.22
526.84	53284.64
527.01	53111.44
527.18	53324.43
527.36	53146.54
527.53	53130.16
527.70	53441.45
527.87	53619.33
528.04	53404.00
528.21	53446.13
528.38	53558.48
528.55	53738.70
528.72	53881.47
528.89	53677.85
529.07	53741.04
529.24	53741.04
529.41	54115.53
529.58	54106.16
529.75	53968.07
529.92	53717.64
530.09	54312.13
530.26	54363.62
530.43	54368.30
530.60	54031.27
530.77	54396.39
530.94	54368.30
531.11	54471.29
531.28	54490.01
531.46	54607.04
531.63	54667.89
531.80	54475.97
531.97	54857.48
532.14	55065.78
532.31	54752.15
532.48	54997.91
532.65	54939.39
532.82	54731.09
532.99	54972.16
533.16	54878.54
533.33	55159.41
533.50	55222.60
533.67	55103.23
533.84	55070.46
534.01	55185.15
534.18	55238.98
534.35	55487.08
534.52	55451.97
534.69	55847.52
534.86	55674.32
535.03	55386.44
535.20	55561.98
535.37	55669.64
535.54	55906.04
535.71	55686.03
535.88	55679.00
536.05	56058.17
536.22	56041.79
536.38	55901.36
536.55	55978.59
536.72	55987.95
536.89	55583.04
537.06	56069.87
537.23	55992.64
537.40	55976.25
537.57	56158.81
537.74	56123.71
537.91	56425.64
538.08	56343.72
538.25	55980.93
538.42	56088.60
538.59	56308.61
538.75	56095.62
538.92	56500.53
539.09	56418.61
539.26	56371.80
539.43	56488.83
539.60	56446.70
539.77	56474.79
539.94	56722.88
540.11	56549.68
540.28	56535.64
540.44	56765.01
540.61	56619.90
540.78	56786.08
540.95	56640.96
541.12	56685.43
541.29	56807.14
541.46	56797.78
541.62	56795.44
541.79	57052.90
541.96	56547.34
542.13	56973.32
542.30	56959.28
542.47	57336.10
542.63	57020.13
542.80	57064.60
542.97	57483.56
543.14	57455.47
543.31	57499.94
543.48	57460.15
543.64	57748.04
543.81	57635.69
543.98	57485.90
544.15	57797.19
544.32	57764.42
544.48	57914.22
544.65	57584.20
544.82	57525.69
544.99	57616.97
545.16	57736.34
545.32	57783.15
545.49	57846.34
545.66	58047.63
545.83	57865.06
546.00	57801.87
546.16	57855.70
546.33	57860.38
546.50	57640.37
546.67	57996.13
546.83	57677.82
547.00	57911.88
547.17	58117.84
547.34	57991.45
547.50	58267.64
547.67	58389.34
547.84	58312.11
548.00	58487.65
548.17	58426.79
548.34	58176.36
548.51	58630.42
548.67	58401.05
548.84	58658.51
549.01	58452.54
549.18	58267.64
549.34	58534.46
549.51	58560.20
549.68	58576.59
549.84	58658.51
550.01	58684.25
550.18	58375.30
550.34	58693.61
550.51	58866.81
550.68	58649.14
550.84	58560.20
551.01	58623.40
551.18	58766.17
551.34	58827.02
551.51	58904.26
551.68	58866.81
551.84	58798.94
552.01	58623.40
552.18	59086.82
552.34	58822.34
552.51	59234.28
552.68	58773.19
552.84	58848.09
553.01	59334.92
553.18	59208.53
553.34	59201.51
553.51	59114.91
553.67	58979.16
553.84	59150.02
554.01	59355.99
554.17	59281.09
554.34	59414.50
554.51	59405.14
554.67	59290.45
554.84	59243.64
555.00	59250.66
555.17	59103.21
555.33	59437.90
555.50	59157.04
555.67	59313.86
555.83	59283.43
556.00	59208.53
556.16	59856.86
556.33	59592.38
556.50	59662.60
556.66	59730.47
556.83	59398.12
556.99	59552.59
557.16	59559.61
557.32	59781.96
557.49	59777.28
557.65	59463.65
557.82	59676.64
557.98	59669.62
558.15	59695.36
558.32	59702.38
558.48	59543.23
558.65	59662.60
558.81	59592.38
558.98	59615.79
559.14	59814.73
559.31	60009.00
559.47	59840.48
559.64	59908.35
559.80	59957.50
559.97	60154.11
560.13	59831.11
560.30	59824.09
560.46	59948.14
560.63	59917.71
560.79	60053.47
560.96	60252.41
561.12	60128.36
561.29	60116.66
561.45	60210.28
561.61	60114.32
561.78	59950.48
561.94	60037.08
562.11	60023.04
562.27	60172.83
562.44	60259.43
562.60	60339.01
562.77	60310.92
562.93	60044.10
563.10	60275.82
563.26	60179.85
563.42	60413.91
563.59	60182.19
563.75	60142.41
563.92	60191.56
564.08	60184.54
564.24	60540.30
564.41	60488.80
564.57	60505.19
564.74	60327.31
564.90	60470.08
565.07	60313.26
565.23	60329.65
565.39	60313.26
565.56	60434.97
565.72	60327.31
565.88	60336.67
566.05	60355.39
566.21	60247.73
566.38	60254.75
566.54	60533.28
566.70	60434.97
566.87	60781.37
567.03	60280.50
567.19	60505.19
567.36	60547.32
567.52	60505.19
567.68	60870.31
567.85	60566.04
568.01	60622.22
568.17	60673.71
568.34	60851.59
568.50	60727.54
568.66	60587.11
568.83	60612.85
568.99	60638.60
569.15	60697.11
569.32	60729.88
569.48	60633.92
569.64	60966.27
569.81	60711.16
569.97	60734.56
570.13	60626.90
570.30	60626.90
570.46	60802.44
570.62	60874.99
570.78	60706.47
570.95	60596.47
571.11	61027.13
571.27	60708.82
571.43	60795.42
571.60	60755.63
571.76	60647.96
571.92	60793.07
572.09	60725.20
572.25	60999.04
572.41	60601.15
572.57	60837.54
572.74	61010.74
572.90	60835.20
573.06	61008.40
573.22	60828.18
573.38	61029.47
573.55	60938.19
573.71	60931.17
573.87	60935.85
574.03	60633.92
574.20	60912.44
574.36	60884.36
574.52	61029.47
574.68	61113.73
574.84	60809.46
575.01	61071.60
575.17	60886.70
575.33	60818.82
575.49	61034.15
575.65	60800.10
575.82	60872.65
575.98	61059.90
576.14	61293.95
576.30	61057.56
576.46	60874.99
576.62	60921.80
576.79	60856.27
576.95	60870.31
577.11	61186.28
577.27	61092.66
577.43	61090.32
577.59	60853.93
577.75	60996.70
577.92	61043.51
578.08	61109.05
578.24	61003.72
578.40	61207.35
578.56	61102.03
578.72	61242.46
578.88	61151.18
579.04	61307.99
579.21	61179.26
579.37	61038.83
579.53	61345.44
579.69	60886.70
579.85	61134.79
580.01	61092.66
580.17	60949.89
580.33	61296.29
580.49	61165.22
580.65	61312.67
580.82	61230.75
580.98	61050.53
581.14	61031.81
581.30	61216.71
581.46	61020.11
581.62	61235.44
581.78	61080.96
581.94	61233.10
582.10	60947.55
582.26	61195.65
582.42	61343.10
582.58	61235.44
582.74	61064.58
582.90	61059.90
583.06	61183.94
583.22	61228.41
583.38	61080.96
583.54	61195.65
583.70	61132.45
583.86	61354.80
584.02	61057.56
584.18	61324.38
584.34	61242.46
584.50	61029.47
584.66	60987.34
584.82	61132.45
584.98	61357.14
585.14	61174.58
585.30	61144.16
585.46	61326.72
585.62	61291.61
585.78	61378.21
585.94	61307.99
586.10	61422.68
586.26	61286.93
586.42	61240.12
586.58	61329.06
586.74	61165.22
586.90	61251.82
587.06	61071.60
587.22	61319.70
587.38	61371.19
587.54	61448.42
587.70	61436.72
587.86	61233.10
588.02	61528.00
588.18	61366.51
588.34	61197.99
588.49	61076.28
