SpectraSuite Data File
++++++++++++++++++++++++++++++++++++
Date: Fri Oct 25 10:44:53 EDT 2013
User: price-jones
Dark Spectrum Present: No
Reference Spectrum Present: No
Number of Sampled Component Spectra: 1
Spectrometers: USB2+H05261
Integration Time (usec): 100000 (USB2+H05261)
Spectra Averaged: 1 (USB2+H05261)
Boxcar Smoothing: 0 (USB2+H05261)
Correct for Electrical Dark: No (USB2+H05261)
Strobe/Lamp Enabled: No (USB2+H05261)
Correct for Detector Non-linearity: No (USB2+H05261)
Correct for Stray Light: No (USB2+H05261)
Number of Pixels in Processed Spectrum: 2048
>>>>>Begin Processed Spectral Data<<<<<
365.73	88.94
365.92	88.94
366.12	88.94
366.32	0.00
366.52	110.01
366.72	60.85
366.91	0.00
367.11	0.00
367.31	67.88
367.51	0.00
367.70	7.02
367.90	42.13
368.10	0.00
368.30	0.00
368.49	14.04
368.69	28.09
368.89	9.36
369.09	79.58
369.28	81.92
369.48	135.75
369.68	72.56
369.87	42.13
370.07	84.26
370.27	93.62
370.47	138.09
370.66	360.44
370.86	414.27
371.06	517.26
371.25	472.79
371.45	449.38
371.65	463.43
371.84	433.00
372.04	500.87
372.24	404.91
372.44	437.68
372.63	512.58
372.83	475.13
373.03	568.75
373.22	524.28
373.42	578.11
373.62	470.45
373.81	454.06
374.01	592.16
374.21	512.58
374.40	484.49
374.60	550.03
374.79	559.39
374.99	451.72
375.19	554.71
375.38	552.37
375.58	587.47
375.78	617.90
375.97	634.29
376.17	664.71
376.37	557.05
376.56	517.26
376.76	533.64
376.95	524.28
377.15	547.69
377.35	620.24
377.54	550.03
377.74	589.82
377.93	585.13
378.13	650.67
378.33	573.43
378.52	641.31
378.72	613.22
378.91	709.18
379.11	610.88
379.31	585.13
379.50	601.52
379.70	662.37
379.89	674.07
380.09	662.37
380.28	681.10
380.48	617.90
380.68	683.44
380.87	690.46
381.07	603.86
381.26	746.63
381.46	655.35
381.65	634.29
381.85	643.65
382.04	678.76
382.24	599.18
382.43	681.10
382.63	734.93
382.83	650.67
383.02	784.08
383.22	744.29
383.41	709.18
383.61	706.84
383.80	739.61
384.00	638.97
384.19	660.03
384.39	720.88
384.58	755.99
384.78	760.67
384.97	741.95
385.17	751.31
385.36	732.59
385.56	718.54
385.75	793.44
385.95	901.11
386.14	755.99
386.34	763.01
386.53	842.59
386.72	786.42
386.92	793.44
387.11	800.46
387.31	821.53
387.50	751.31
387.70	777.06
387.89	819.19
388.09	877.70
388.28	802.80
388.48	746.63
388.67	873.02
388.86	758.33
389.06	793.44
389.25	866.00
389.45	943.24
389.64	931.53
389.84	905.79
390.03	868.34
390.22	891.74
390.42	940.90
390.61	891.74
390.81	1006.43
391.00	1013.45
391.19	936.21
391.39	957.28
391.58	950.26
391.78	1036.86
391.97	943.24
392.16	940.90
392.36	980.68
392.55	910.47
392.75	957.28
392.94	926.85
393.13	908.13
393.33	992.39
393.52	1097.71
393.71	922.17
393.91	1018.13
394.10	1067.28
394.29	1071.97
394.49	1039.20
394.68	1163.25
394.88	1011.11
395.07	1121.12
395.26	1074.31
395.46	1137.50
395.65	1146.86
395.84	1100.05
396.04	1093.03
396.23	1067.28
396.42	1060.26
396.62	1139.84
396.81	1041.54
397.00	1149.20
397.19	1153.88
397.39	1160.91
397.58	1238.14
397.77	1221.76
397.97	1310.70
398.16	1149.20
398.35	1207.72
398.55	1287.29
398.74	1338.79
398.93	1336.45
399.12	1252.19
399.32	1263.89
399.51	1387.94
399.70	1270.91
399.90	1479.22
400.09	1490.92
400.28	1401.98
400.47	1362.19
400.67	1521.35
400.86	1455.81
401.05	1392.62
401.24	1554.12
401.44	1397.30
401.63	1444.11
401.82	1502.62
402.01	1495.60
402.21	1605.61
402.40	1523.69
402.59	1530.71
402.78	1626.67
402.97	1490.92
403.17	1577.52
403.36	1528.37
403.55	1598.59
403.74	1694.55
403.93	1694.55
404.13	1603.27
404.32	1685.19
404.51	1612.63
404.70	1675.82
404.89	1682.85
405.09	1722.63
405.28	1839.66
405.47	1722.63
405.66	1762.42
405.85	1710.93
406.05	1792.85
406.24	1884.13
406.43	1837.32
406.62	1872.43
406.81	1987.11
407.00	1813.92
407.20	1701.57
407.39	1853.70
407.58	1961.37
407.77	1966.05
407.96	1935.62
408.15	2001.16
408.34	1994.14
408.54	2106.48
408.73	2026.90
408.92	1963.71
409.11	2080.74
409.30	1991.80
409.49	2136.91
409.68	2024.56
409.87	2010.52
410.07	2125.21
410.26	2078.40
410.45	2197.76
410.64	2146.27
410.83	2062.01
411.02	2237.55
411.21	2204.78
411.40	2190.74
411.59	2197.76
411.78	2272.66
411.98	2354.58
412.17	2345.22
412.36	2314.79
412.55	2422.45
412.74	2335.85
412.93	2476.29
413.12	2438.84
413.31	2588.63
413.50	2546.50
413.69	2450.54
413.88	2523.10
414.07	2495.01
414.26	2579.27
414.45	2614.38
414.64	2700.98
414.83	2717.36
415.02	2799.28
415.22	2839.07
415.41	2726.72
415.60	2733.75
415.79	2705.66
415.98	2923.33
416.17	2869.50
416.36	2883.54
416.55	2839.07
416.74	3000.57
416.93	2850.77
417.12	2909.29
417.31	2993.55
417.50	2965.46
417.69	3059.08
417.88	3052.06
418.07	3056.74
418.26	3066.10
418.45	3145.68
418.64	3115.25
418.83	3171.43
419.02	3129.30
419.21	3307.18
419.39	3241.64
419.58	3248.66
419.77	3269.73
419.96	3379.73
420.15	3309.52
420.34	3335.26
420.53	3363.35
420.72	3517.83
420.91	3335.26
421.10	3442.93
421.29	3566.98
421.48	3346.97
421.67	3485.06
421.86	3473.36
422.05	3447.61
422.24	3433.57
422.43	3513.14
422.61	3363.35
422.80	3634.85
422.99	3595.06
423.18	3517.83
423.37	3585.70
423.56	3550.59
423.75	3487.40
423.94	3517.83
424.13	3396.12
424.32	3316.54
424.50	3550.59
424.69	3588.04
424.88	3637.19
425.07	3440.59
425.26	3534.21
425.45	3536.55
425.64	3503.78
425.83	3564.64
426.01	3618.47
426.20	3695.71
426.39	3637.19
426.58	3604.42
426.77	3590.38
426.96	3693.37
427.15	3639.53
427.33	3662.94
427.52	3618.47
427.71	3719.11
427.90	3735.50
428.09	3864.22
428.28	3698.05
428.46	3765.92
428.65	3836.14
428.84	3859.54
429.03	3850.18
429.22	3765.92
429.40	3904.01
429.59	3866.56
429.78	3688.68
429.97	3613.79
430.16	3791.67
430.34	3894.65
430.53	3882.95
430.72	3763.58
430.91	3957.85
431.10	4002.32
431.28	4131.05
431.47	4133.39
431.66	4070.19
431.85	4152.11
432.03	4053.81
432.22	4283.18
432.41	4142.75
432.60	4145.09
432.79	4290.20
432.97	4182.54
433.16	4196.58
433.35	4231.69
433.54	4201.26
433.72	4341.69
433.91	4269.14
434.10	4278.50
434.28	4369.78
434.47	4409.57
434.66	4507.87
434.85	4507.87
435.03	4564.04
435.22	4386.16
435.41	4578.09
435.59	4451.70
435.78	4484.47
435.97	4662.35
436.16	4580.43
436.34	4580.43
436.53	4528.94
436.72	4847.25
436.90	4578.09
437.09	4702.14
437.28	4636.60
437.46	4650.64
437.65	4762.99
437.84	4585.11
438.02	4652.98
438.21	4688.09
438.40	4631.92
438.58	4961.94
438.77	4945.55
438.96	4793.42
439.14	4854.27
439.33	4957.25
439.52	5078.96
439.70	5046.20
439.89	5060.24
440.08	5022.79
440.26	5144.50
440.45	5247.48
440.63	5210.03
440.82	5338.76
441.01	5341.10
441.19	5313.02
441.38	5493.24
441.57	5313.02
441.75	5526.00
441.94	5680.48
442.12	5600.90
442.31	5675.80
442.50	5788.14
442.68	5596.22
442.87	5708.57
443.05	5706.23
443.24	5830.27
443.43	5638.35
443.61	5781.12
443.80	6087.73
443.98	5795.17
444.17	5568.13
444.35	5905.17
444.54	5982.41
444.73	5797.51
444.91	5893.47
445.10	5804.53
445.28	5877.09
445.47	5790.49
445.65	5905.17
445.84	5837.30
446.02	5907.51
446.21	5802.19
446.39	6036.24
446.58	6202.42
446.77	6003.47
446.95	5813.89
447.14	6001.13
447.32	6118.16
447.51	6045.60
447.69	6061.99
447.88	5959.00
448.06	6029.22
448.25	5860.70
448.43	5998.79
448.62	6033.90
448.80	5930.92
448.99	6176.67
449.17	6111.14
449.36	6209.44
449.54	6099.44
449.73	6457.54
449.91	6324.13
450.10	6359.24
450.28	6307.74
450.46	6483.28
450.65	6630.74
450.83	6333.49
451.02	6333.49
451.20	6448.18
451.39	6640.10
451.57	6602.65
451.76	6396.68
451.94	6434.13
452.13	6684.57
452.31	6572.22
452.49	6382.64
452.68	6417.75
452.86	6406.05
453.05	6640.10
453.23	6703.29
453.42	6738.40
453.60	6588.61
453.78	6796.92
453.97	6799.26
454.15	6691.59
454.34	6586.27
454.52	6736.06
454.70	6803.94
454.89	6775.85
455.07	6752.45
455.26	6864.79
455.44	6960.75
455.62	6906.92
455.81	7002.88
455.99	7014.59
456.17	6991.18
456.36	7073.10
456.54	7157.36
456.73	7243.96
456.91	7281.41
457.09	7206.51
457.28	7431.20
457.46	7304.81
457.64	7391.41
457.83	7300.13
458.01	7126.93
458.19	7438.22
458.38	7330.56
458.56	7494.40
458.74	7496.74
458.93	7510.78
459.11	7510.78
459.29	7634.83
459.48	7552.91
459.66	7468.65
459.84	7510.78
460.03	7793.98
460.21	7705.04
460.39	7686.32
460.57	7658.23
460.76	7641.85
460.94	7852.50
461.12	7761.22
461.31	7735.47
461.49	7847.82
461.67	7819.73
461.85	7772.92
462.04	7941.44
462.22	8187.19
462.40	7957.82
462.59	7913.35
462.77	7941.44
462.95	7915.69
463.13	7985.91
463.32	7894.63
463.50	8154.43
463.68	8095.91
463.86	8252.73
464.05	8119.32
464.23	8175.49
464.41	8177.83
464.59	7943.78
464.78	8182.51
464.96	8238.69
465.14	8152.09
465.32	8252.73
465.50	8468.06
465.69	8400.18
465.87	8290.18
466.05	8304.22
466.23	8493.80
466.41	8549.98
466.60	8425.93
466.78	8454.02
466.96	8432.95
467.14	8662.32
467.32	8519.55
467.51	8493.80
467.69	8512.53
467.87	8585.08
468.05	8652.96
468.23	8706.79
468.41	8468.06
468.60	8519.55
468.78	8769.99
468.96	8575.72
469.14	8634.24
469.32	8926.80
469.50	8730.20
469.69	8795.73
469.87	8943.19
470.05	8819.14
470.23	8903.40
470.41	8978.30
470.59	9067.24
470.77	9088.30
470.95	9092.98
471.14	9298.95
471.32	9100.00
471.50	9430.02
471.68	9345.76
471.86	9256.82
472.04	9441.72
472.22	9540.02
472.40	9174.90
472.58	9432.36
472.77	9561.09
472.95	9820.89
473.13	10068.98
473.31	9635.99
473.49	9825.57
473.67	9778.76
473.85	9720.24
474.03	9973.02
474.21	9989.41
474.39	9982.38
474.57	10104.09
474.75	10178.99
474.93	10113.45
475.12	10164.95
475.30	10319.42
475.48	10270.27
475.66	10228.14
475.84	10375.59
476.02	10441.13
476.20	10530.07
476.38	10743.06
476.56	10815.62
476.74	10712.63
476.92	10621.35
477.10	10714.97
477.28	11115.20
477.46	10956.05
477.64	11096.48
477.82	11199.46
478.00	11417.13
478.18	11501.39
478.36	11403.09
478.54	11639.48
478.72	11733.11
478.90	11791.62
479.08	11894.60
479.26	11915.67
479.44	12023.33
479.62	12039.72
479.80	11946.09
479.98	12292.49
480.16	12421.22
480.34	12332.28
480.52	12489.10
480.70	12456.33
480.88	12510.16
481.06	12599.10
481.24	12634.21
481.41	12905.71
481.59	13039.12
481.77	13027.42
481.95	13158.49
482.13	13132.75
482.31	13214.66
482.49	13556.38
482.67	13544.68
482.85	13755.33
483.03	13916.83
483.21	13799.80
483.39	13783.41
483.57	14005.77
483.74	14310.04
483.92	14380.25
484.10	14157.90
484.28	14398.98
484.46	14806.23
484.64	14920.92
484.82	14635.37
485.00	14799.21
485.18	15119.86
485.35	15248.59
485.53	15021.56
485.71	14913.89
485.89	15438.17
486.07	15438.17
486.25	15389.02
486.43	15700.31
486.61	15758.83
486.78	16161.40
486.96	16053.73
487.14	16304.17
487.32	16226.93
487.50	16383.75
487.68	16397.79
487.85	17027.40
488.03	17142.08
488.21	17099.95
488.39	17156.13
488.57	17015.69
488.75	17348.05
488.92	17612.53
489.10	17862.97
489.28	17603.17
489.46	17874.67
489.64	17832.54
489.81	18401.29
489.99	18637.69
490.17	18508.96
490.35	18799.18
490.53	18897.49
490.70	19136.22
490.88	18778.12
491.06	19201.76
491.24	19147.92
491.41	19187.71
491.59	19248.57
491.77	19211.12
491.95	19529.43
492.13	19697.95
492.30	19711.99
492.48	20074.77
492.66	19901.58
492.84	20070.09
493.01	20475.01
493.19	20276.06
493.37	20266.70
493.54	20814.38
493.72	21130.36
493.90	20765.23
494.08	21228.66
494.25	21310.58
494.43	21291.85
494.61	21579.74
494.79	21441.65
494.96	21303.56
495.14	21766.98
495.32	21984.65
495.49	21738.90
495.67	21788.05
495.85	22160.19
496.02	22216.36
496.20	22459.78
496.38	22293.60
496.55	22457.44
496.73	23459.19
496.91	23171.30
497.09	23269.61
497.26	23058.96
497.44	23236.84
497.62	23353.87
497.79	23400.68
497.97	23477.91
498.14	23669.84
498.32	23637.07
498.50	23683.88
498.67	24081.77
498.85	23852.40
499.03	24446.90
499.20	24109.86
499.38	24379.02
499.56	24451.58
499.73	24783.93
499.91	24584.99
500.08	24886.92
500.26	24369.66
500.44	24545.20
500.61	24769.89
500.79	25247.36
500.97	24893.94
501.14	25078.84
501.32	25188.85
501.49	25427.58
501.67	25516.52
501.84	25647.59
502.02	25060.12
502.20	25591.42
502.37	25862.92
502.55	25795.04
502.72	25851.22
502.90	25979.95
503.07	25998.67
503.25	26445.71
503.43	25883.98
503.60	26010.37
503.78	26237.41
503.95	26195.28
504.13	26586.15
504.30	26850.63
504.48	26277.19
504.65	26918.50
504.83	27080.00
505.01	26984.04
505.18	27360.86
505.36	27292.99
505.53	27431.08
505.71	27669.81
505.88	27665.13
506.06	27080.00
506.23	27482.57
506.41	27564.49
506.58	27749.39
506.76	27686.20
506.93	28046.64
507.11	27779.82
507.28	27751.73
507.46	27758.75
507.63	27843.01
507.81	28301.76
507.98	28051.32
508.16	28341.55
508.33	28243.24
508.50	28634.11
508.68	28727.74
508.85	28959.45
509.03	28737.10
509.20	28929.02
509.38	28973.49
509.55	28863.49
509.73	29015.62
509.90	29127.97
510.08	29092.86
510.25	29390.11
510.42	29633.52
510.60	29376.06
510.77	29776.30
510.95	29865.24
511.12	29621.82
511.30	29984.60
511.47	30188.23
511.64	30277.17
511.82	29771.61
511.99	29975.24
512.17	30513.56
512.34	30218.66
512.51	30373.13
512.69	30607.19
512.86	30541.65
513.04	30508.88
513.21	30539.31
513.38	30492.50
513.56	30483.14
513.73	30520.59
513.90	31014.44
514.08	30569.74
514.25	30824.86
514.43	31126.78
514.60	31147.85
514.77	31077.63
514.95	31903.84
515.12	31339.77
515.29	31459.14
515.47	31906.18
515.64	31445.10
515.81	31681.49
515.99	31749.37
516.16	31590.21
516.33	31920.23
516.51	31594.89
516.68	31501.27
516.85	31948.31
517.03	31775.11
517.20	32332.16
517.37	32416.42
517.54	32044.27
517.72	32517.06
517.89	32716.01
518.06	31763.41
518.24	32086.40
518.41	32397.70
518.58	32692.60
518.75	32449.19
518.93	32940.70
519.10	32566.21
519.27	32959.42
519.45	32884.53
519.62	33315.19
519.79	33200.50
519.96	33450.94
520.14	33170.07
520.31	33383.06
520.48	33780.95
520.65	33233.27
520.83	34143.74
521.00	33640.52
521.17	33354.97
521.34	33851.17
521.52	33825.42
521.69	33909.68
521.86	34321.62
522.03	34700.78
522.20	34101.61
522.38	34183.52
522.55	34064.16
522.72	34155.44
522.89	34295.87
523.07	34677.38
523.24	34483.11
523.41	34909.09
523.58	34665.67
523.75	34843.56
523.92	34698.44
524.10	35424.01
524.27	35026.12
524.44	34541.63
524.61	35180.59
524.78	35314.00
524.96	35321.02
525.13	35622.95
525.30	35737.64
525.47	35601.89
525.64	35229.74
525.81	35262.51
525.98	35213.36
526.16	35290.60
526.33	35344.43
526.50	35569.12
526.67	35641.68
526.84	35367.84
527.01	35260.17
527.18	36112.13
527.36	35941.27
527.53	35873.39
527.70	36381.29
527.87	36409.37
528.04	36147.23
528.21	36247.88
528.38	36313.41
528.55	36311.07
528.72	36374.27
528.89	36339.16
529.07	36067.66
529.24	36521.72
529.41	36285.33
529.58	36828.33
529.75	36690.24
529.92	36601.30
530.09	36971.10
530.26	36758.11
530.43	37062.38
530.60	36957.06
530.77	37420.48
530.94	37504.74
531.11	36854.08
531.28	37104.51
531.46	37455.59
531.63	37364.31
531.80	37256.65
531.97	37383.04
532.14	37010.89
532.31	36868.12
532.48	37404.10
532.65	37757.52
532.82	37792.63
532.99	37439.21
533.16	37521.13
533.33	37376.01
533.50	37839.44
533.67	37979.87
533.84	37642.84
534.01	38342.66
534.18	37823.06
534.35	38307.55
534.52	37944.76
534.69	38440.96
534.86	38462.02
535.03	38445.64
535.20	38443.30
535.37	38644.59
535.54	38646.93
535.71	38529.90
535.88	38511.17
536.05	38277.12
536.22	38946.51
536.38	38557.99
536.55	38426.92
536.72	38700.76
536.89	38646.93
537.06	38464.36
537.23	38820.13
537.40	38808.42
537.57	38880.98
537.74	39054.18
537.91	39391.22
538.08	39262.49
538.25	39089.29
538.42	39037.80
538.59	39222.70
538.75	38663.31
538.92	39154.82
539.09	39154.82
539.26	39157.16
539.43	39257.81
539.60	39218.02
539.77	39056.52
539.94	39695.49
540.11	39255.46
540.28	39346.75
540.44	39587.82
540.61	39491.86
540.78	39529.31
540.95	39526.97
541.12	39358.45
541.29	39253.12
541.46	39826.56
541.62	39672.08
541.79	39934.22
541.96	39505.90
542.13	39800.81
542.30	39819.53
542.47	39711.87
542.63	40453.82
542.80	40048.91
542.97	40545.10
543.14	40341.47
543.31	40348.50
543.48	40399.99
543.64	40982.78
543.81	40952.35
543.98	40486.59
544.15	40800.22
544.32	40811.92
544.48	40793.20
544.65	40732.34
544.82	40795.54
544.99	40399.99
545.16	41013.21
545.32	41041.29
545.49	40978.10
545.66	41357.27
545.83	41689.62
546.00	41237.90
546.16	41298.75
546.33	40818.94
546.50	40952.35
546.67	41607.70
546.83	40315.73
547.00	40847.03
547.17	41216.83
547.34	41226.20
547.50	41015.55
547.67	41593.66
547.84	41490.68
548.00	41280.03
548.17	42036.02
548.34	41425.14
548.51	41375.99
548.67	41577.28
548.84	41675.58
549.01	41277.69
549.18	41654.51
549.34	42131.98
549.51	41691.96
549.68	41872.18
549.84	41865.16
550.01	41937.72
550.18	41249.60
550.34	42314.55
550.51	41677.92
550.68	41467.27
550.84	41888.57
551.01	42363.70
551.18	41907.29
551.34	42674.99
551.51	41851.12
551.68	42396.46
551.84	42487.74
552.01	42192.84
552.18	42050.06
552.34	42113.26
552.51	42127.30
552.68	42167.09
552.84	42543.92
553.01	42644.56
553.18	42909.04
553.34	42522.85
553.51	42241.99
553.67	42405.83
553.84	42532.22
554.01	42841.17
554.17	42674.99
554.34	43112.67
554.51	42588.39
554.67	43026.07
554.84	43075.22
555.00	42684.35
555.17	42677.33
555.33	42763.93
555.50	42600.09
555.67	42731.16
555.83	42721.80
556.00	43225.01
556.16	43349.06
556.33	43016.71
556.50	42738.18
556.66	43423.96
556.83	42820.10
556.99	43487.15
557.16	43402.89
557.32	43196.93
557.49	42824.78
557.65	42995.64
557.82	43185.22
557.98	43309.27
558.15	43131.39
558.32	43456.73
558.48	43433.32
558.65	43182.88
558.81	43086.92
558.98	43489.49
559.14	43489.49
559.31	43388.85
559.47	43234.38
559.64	43522.26
559.80	43517.58
559.97	43576.09
560.13	43414.60
560.30	43426.30
560.46	43688.44
560.63	43744.61
560.79	43585.46
560.96	43611.20
561.12	43810.15
561.29	43737.59
561.45	43578.43
561.61	43372.47
561.78	43690.78
561.94	43288.21
562.11	43501.20
562.27	43711.84
562.44	43260.12
562.60	43796.10
562.77	44095.69
562.93	43763.34
563.10	44032.50
563.26	43435.66
563.42	43826.53
563.59	43789.08
563.75	43676.74
563.92	43697.80
564.08	43807.81
564.24	43835.89
564.41	43948.24
564.57	43271.82
564.74	43824.19
564.90	44062.93
565.07	43854.62
565.23	43758.66
565.39	44051.22
565.56	44151.87
565.72	43838.23
565.88	44039.52
566.05	43735.25
566.21	44055.90
566.38	44360.17
566.54	44123.78
566.70	44493.58
566.87	44589.55
567.03	43775.04
567.19	44507.63
567.36	43798.44
567.52	43847.60
567.68	44348.47
567.85	44261.87
568.01	44095.69
568.17	44273.57
568.34	44378.90
568.50	44069.95
568.66	44072.29
568.83	44481.88
568.99	43665.03
569.15	43983.35
569.32	44404.64
569.48	44025.48
569.64	44500.61
569.81	44481.88
569.97	44325.07
570.13	43927.17
570.30	43997.39
570.46	44100.37
570.62	43709.50
570.78	44079.31
570.95	44020.80
571.11	44495.92
571.27	44107.40
571.43	44149.53
571.60	44081.65
571.76	43927.17
571.92	43931.86
572.09	44505.29
572.25	44114.42
572.41	44280.60
572.57	44687.85
572.74	44987.44
572.90	44009.09
573.06	44109.74
573.22	44168.25
573.38	44390.60
573.55	43725.89
573.71	44182.29
573.87	44273.57
574.03	44236.12
574.20	44311.02
574.36	44273.57
574.52	44704.23
574.68	44399.96
574.84	44322.72
575.01	44458.48
575.17	44561.46
575.33	44282.94
575.49	43981.01
575.65	44617.63
575.82	44650.40
575.98	44294.64
576.14	44498.26
576.30	44425.71
576.46	44648.06
576.62	44624.65
576.79	44257.19
576.95	44729.98
577.11	44210.38
577.27	44350.81
577.43	44353.15
577.59	44615.29
577.75	44451.45
577.92	43817.17
578.08	44488.90
578.24	44381.24
578.40	44219.74
578.56	44032.50
578.72	44519.33
578.88	44786.15
579.04	44891.48
579.21	44278.25
579.37	44371.88
579.53	44769.77
579.69	44615.29
579.85	44390.60
580.01	44835.30
580.17	44346.13
580.33	44924.24
580.49	44601.25
580.65	44634.02
580.82	44573.16
580.98	44472.52
581.14	44170.59
581.30	44807.22
581.46	44624.65
581.62	44495.92
581.78	44449.11
581.94	44500.61
582.10	44741.68
582.26	44751.04
582.42	44680.83
582.58	44451.45
582.74	44238.47
582.90	44690.19
583.06	44921.90
583.22	44664.44
583.38	44758.06
583.54	44919.56
583.70	44514.65
583.86	45041.27
584.02	44507.63
584.18	44861.05
584.34	44568.48
584.50	44346.13
584.66	44603.59
584.82	44126.12
584.98	44900.84
585.14	44825.94
585.30	44296.98
585.46	44655.08
585.62	44507.63
585.78	44945.31
585.94	44577.84
586.10	44594.23
586.26	44531.03
586.42	44835.30
586.58	44676.15
586.74	44418.69
586.90	44488.90
587.06	44706.57
587.22	44580.18
587.38	44414.01
587.54	44734.66
587.70	44561.46
587.86	44954.67
588.02	44985.10
588.18	44692.53
588.34	44252.51
588.49	44357.83
588.65	43985.69
588.81	43913.13
588.97	44617.63
589.13	44540.39
589.29	44507.63
589.45	44839.98
589.61	44346.13
589.77	44737.00
589.93	44957.01
590.08	45170.00
590.24	45144.25
590.40	45127.87
