SpectraSuite Data File
++++++++++++++++++++++++++++++++++++
Date: Fri Oct 25 11:33:58 EDT 2013
User: price-jones
Dark Spectrum Present: No
Reference Spectrum Present: No
Number of Sampled Component Spectra: 1
Spectrometers: USB2+H05261
Integration Time (usec): 100000 (USB2+H05261)
Spectra Averaged: 1 (USB2+H05261)
Boxcar Smoothing: 0 (USB2+H05261)
Correct for Electrical Dark: No (USB2+H05261)
Strobe/Lamp Enabled: No (USB2+H05261)
Correct for Detector Non-linearity: No (USB2+H05261)
Correct for Stray Light: No (USB2+H05261)
Number of Pixels in Processed Spectrum: 2048
>>>>>Begin Processed Spectral Data<<<<<
365.73	278.52
365.92	278.52
366.12	278.52
366.32	212.99
366.52	189.58
366.72	210.65
366.91	163.84
367.11	238.73
367.31	205.97
367.51	217.67
367.70	168.52
367.90	191.92
368.10	147.45
368.30	191.92
368.49	140.43
368.69	194.26
368.89	236.39
369.09	180.22
369.28	201.29
369.48	238.73
369.68	252.78
369.87	220.01
370.07	248.10
370.27	184.90
370.47	409.59
370.66	461.09
370.86	610.88
371.06	552.37
371.25	573.43
371.45	545.34
371.65	550.03
371.84	636.63
372.04	535.98
372.24	531.30
372.44	627.26
372.63	575.77
372.83	582.79
373.03	585.13
373.22	606.20
373.42	627.26
373.62	596.84
373.81	585.13
374.01	599.18
374.21	617.90
374.40	676.41
374.60	631.94
374.79	533.64
374.99	648.33
375.19	641.31
375.38	667.05
375.58	704.50
375.78	671.73
375.97	716.20
376.17	737.27
376.37	739.61
376.56	657.69
376.76	690.46
376.95	711.52
377.15	688.12
377.35	676.41
377.54	624.92
377.74	697.48
377.93	552.37
378.13	692.80
378.33	641.31
378.52	702.16
378.72	727.91
378.91	720.88
379.11	669.39
379.31	737.27
379.50	697.48
379.70	763.01
379.89	765.36
380.09	795.78
380.28	671.73
380.48	765.36
380.68	727.91
380.87	772.38
381.07	760.67
381.26	816.85
381.46	809.83
381.65	833.23
381.85	791.10
382.04	807.48
382.24	788.76
382.43	709.18
382.63	737.27
382.83	713.86
383.02	844.93
383.22	716.20
383.41	753.65
383.61	755.99
383.80	875.36
384.00	814.51
384.19	844.93
384.39	828.55
384.58	882.38
384.78	868.34
384.97	753.65
385.17	945.58
385.36	875.36
385.56	896.43
385.75	880.04
385.95	781.74
386.14	882.38
386.34	854.30
386.53	795.78
386.72	870.68
386.92	823.87
387.11	837.91
387.31	912.81
387.50	945.58
387.70	929.19
387.89	812.17
388.09	894.08
388.28	924.51
388.48	849.61
388.67	933.87
388.86	870.68
389.06	929.19
389.25	1018.13
389.45	875.36
389.64	912.81
389.84	950.26
390.03	987.71
390.22	992.39
390.42	903.45
390.61	952.60
390.81	938.55
391.00	1029.84
391.19	959.62
391.39	966.64
391.58	1020.47
391.78	903.45
391.97	1137.50
392.16	1015.79
392.36	1086.01
392.55	1118.78
392.75	980.68
392.94	1118.78
393.13	1142.18
393.33	1013.45
393.52	990.05
393.71	1181.97
393.91	1109.41
394.10	1064.94
394.29	1034.52
394.49	1104.73
394.68	1109.41
394.88	1076.65
395.07	1186.65
395.26	1121.12
395.46	1247.51
395.65	1111.75
395.84	1174.95
396.04	1226.44
396.23	1252.19
396.42	1156.22
396.62	1165.59
396.81	1196.01
397.00	1203.04
397.19	1226.44
397.39	1196.01
397.58	1291.98
397.77	1193.67
397.97	1275.59
398.16	1254.53
398.35	1256.87
398.55	1301.34
398.74	1327.08
398.93	1268.57
399.12	1268.57
399.32	1280.27
399.51	1270.91
399.70	1306.02
399.90	1336.45
400.09	1411.34
400.28	1366.87
400.47	1294.32
400.67	1465.18
400.86	1423.05
401.05	1317.72
401.24	1409.00
401.44	1439.43
401.63	1430.07
401.82	1455.81
402.01	1448.79
402.21	1416.02
402.40	1474.54
402.59	1425.39
402.78	1514.33
402.97	1430.07
403.17	1584.54
403.36	1547.09
403.55	1544.75
403.74	1600.93
403.93	1572.84
404.13	1607.95
404.32	1591.56
404.51	1519.01
404.70	1645.40
404.89	1668.80
405.09	1542.41
405.28	1689.87
405.47	1689.87
405.66	1633.69
405.85	1701.57
406.05	1703.91
406.24	1715.61
406.43	1717.95
406.62	1689.87
406.81	1872.43
407.00	1720.29
407.20	1757.74
407.39	1760.08
407.58	1856.04
407.77	1813.92
407.96	1799.87
408.15	1944.99
408.34	1853.70
408.54	1928.60
408.73	1853.70
408.92	1954.35
409.11	1928.60
409.30	1937.96
409.49	1977.75
409.68	1956.69
409.87	1970.73
410.07	2008.18
410.26	2036.27
410.45	2033.93
410.64	2019.88
410.83	2186.06
411.02	2146.27
411.21	2195.42
411.40	2078.40
411.59	2176.70
411.78	2106.48
411.98	2160.31
412.17	2258.62
412.36	2260.96
412.55	2242.23
412.74	2251.60
412.93	2298.41
413.12	2286.70
413.31	2466.92
413.50	2307.77
413.69	2354.58
413.88	2450.54
414.07	2436.50
414.26	2462.24
414.45	2544.16
414.64	2448.20
414.83	2708.00
415.02	2665.87
415.22	2548.84
415.41	2658.85
415.60	2689.28
415.79	2668.21
415.98	2708.00
416.17	2759.49
416.36	2658.85
416.55	2778.22
416.74	2738.43
416.93	2841.41
417.12	2818.00
417.31	2899.92
417.50	2766.51
417.69	3045.04
417.88	2813.32
418.07	2946.73
418.26	2932.69
418.45	3000.57
418.64	3152.70
418.83	3068.44
419.02	3143.34
419.21	3089.51
419.39	2981.84
419.58	2951.42
419.77	2993.55
419.96	3030.99
420.15	3133.98
420.34	3026.31
420.53	3133.98
420.72	3141.00
420.91	3279.09
421.10	3194.83
421.29	3220.58
421.48	3169.09
421.67	3197.17
421.86	3218.24
422.05	3332.92
422.24	3309.52
422.43	3332.92
422.61	3234.62
422.80	3288.45
422.99	3361.01
423.18	3449.95
423.37	3471.01
423.56	3309.52
423.75	3382.07
423.94	3265.05
424.13	3124.62
424.32	3318.88
424.50	3295.47
424.69	3548.25
424.88	3494.42
425.07	3396.12
425.26	3361.01
425.45	3337.60
425.64	3309.52
425.83	3379.73
426.01	3510.80
426.20	3585.70
426.39	3529.53
426.58	3480.38
426.77	3482.72
426.96	3496.76
427.15	3499.10
427.33	3496.76
427.52	3545.91
427.71	3695.71
427.90	3517.83
428.09	3529.53
428.28	3691.02
428.46	3592.72
428.65	3662.94
428.84	3845.50
429.03	3705.07
429.22	3520.17
429.40	3648.90
429.59	3648.90
429.78	3733.15
429.97	3581.02
430.16	3707.41
430.34	3808.05
430.53	3925.08
430.72	3854.86
430.91	3927.42
431.10	3868.91
431.28	3983.59
431.47	3960.19
431.66	3999.98
431.85	3971.89
432.03	4025.72
432.22	4070.19
432.41	4107.64
432.60	3983.59
432.79	4042.11
432.97	4030.40
433.16	4002.32
433.35	4229.35
433.54	4023.38
433.72	4241.05
433.91	4177.86
434.10	4219.99
434.28	4161.47
434.47	4154.45
434.66	4315.95
434.85	4320.63
435.03	4250.41
435.22	4299.56
435.41	4437.66
435.59	4283.18
435.78	4362.76
435.97	4369.78
436.16	4219.99
436.34	4208.28
436.53	4386.16
436.72	4454.04
436.90	4362.76
437.09	4456.38
437.28	4367.44
437.46	4348.72
437.65	4542.98
437.84	4638.94
438.02	4566.39
438.21	4585.11
438.40	4573.41
438.58	4795.76
438.77	4798.10
438.96	4734.90
439.14	4781.71
439.33	4734.90
439.52	4870.65
439.70	4847.25
439.89	5069.60
440.08	4992.36
440.26	4966.62
440.45	4987.68
440.63	5008.75
440.82	4990.02
441.01	5093.01
441.19	5317.70
441.38	5184.29
441.57	5195.99
441.75	5331.74
441.94	5444.09
442.12	5334.08
442.31	5359.83
442.50	5392.59
442.68	5387.91
442.87	5554.09
443.05	5472.17
443.24	5593.88
443.43	5596.22
443.61	5556.43
443.80	5577.50
443.98	5408.98
444.17	5303.65
444.35	5376.21
444.54	5650.05
444.73	5668.78
444.91	5675.80
445.10	5694.52
445.28	5460.47
445.47	5472.17
445.65	5547.07
445.84	5514.30
446.02	5682.82
446.21	5610.26
446.39	5593.88
446.58	5668.78
446.77	5654.73
446.95	5582.18
447.14	5617.29
447.32	5792.83
447.51	5790.49
447.69	5486.22
447.88	5760.06
448.06	5764.74
448.25	5727.29
448.43	5865.38
448.62	5813.89
448.80	5818.57
448.99	5919.21
449.17	5844.32
449.36	5699.20
449.54	6012.84
449.73	6008.16
449.91	5860.70
450.10	5888.79
450.28	6038.58
450.46	6071.35
450.65	5923.90
450.83	6129.86
451.02	6099.44
451.20	6071.35
451.39	5998.79
451.57	6244.55
451.76	6176.67
451.94	6270.30
452.13	6125.18
452.31	6197.74
452.49	6164.97
452.68	6232.85
452.86	6195.40
453.05	6272.64
453.23	6502.01
453.42	6216.46
453.60	6392.00
453.78	6300.72
453.97	6242.21
454.15	6429.45
454.34	6338.17
454.52	6492.65
454.70	6502.01
454.89	6579.25
455.07	6553.50
455.26	6459.88
455.44	6445.84
455.62	6593.29
455.81	6677.55
455.99	6413.07
456.17	6516.05
456.36	6801.60
456.54	6813.30
456.73	6752.45
456.91	7052.03
457.09	6904.58
457.28	7267.36
457.46	6841.39
457.64	7094.16
457.83	7131.61
458.01	6991.18
458.19	7297.79
458.38	7094.16
458.56	7190.13
458.74	7138.63
458.93	7248.64
459.11	7070.76
459.29	7215.87
459.48	7218.21
459.66	7389.07
459.84	7234.60
460.03	7234.60
460.21	7325.88
460.39	7192.47
460.57	7386.73
460.76	7262.68
460.94	7541.21
461.12	7501.42
461.31	7368.01
461.49	7384.39
461.67	7321.20
461.85	7702.70
462.04	7344.60
462.22	7894.63
462.40	7665.25
462.59	7590.36
462.77	7712.07
462.95	7660.57
463.13	7726.11
463.32	7758.88
463.50	7597.38
463.68	7695.68
463.86	7871.22
464.05	7707.38
464.23	7901.65
464.41	7665.25
464.59	7695.68
464.78	7906.33
464.96	7946.12
465.14	7793.98
465.32	7899.31
465.50	8393.16
465.69	8056.12
465.87	8149.75
466.05	7953.14
466.23	8154.43
466.41	8121.66
466.60	8313.58
466.78	8098.25
466.96	8124.00
467.14	8231.66
467.32	8299.54
467.51	8252.73
467.69	8084.21
467.87	8072.51
468.05	8353.37
468.23	8168.47
468.41	8531.25
468.60	8456.36
468.78	8397.84
468.96	8491.46
469.14	8425.93
469.32	8493.80
469.50	8573.38
469.69	8641.26
469.87	8638.92
470.05	8587.43
470.23	8758.28
470.41	8713.81
470.59	8814.46
470.77	8760.63
470.95	8596.79
471.14	8985.32
471.32	8575.72
471.50	8933.82
471.68	8952.55
471.86	8812.12
472.04	8933.82
472.22	9228.73
472.40	9109.36
472.58	9174.90
472.77	9224.05
472.95	9329.38
473.13	9577.47
473.31	9200.65
473.49	9437.04
473.67	9191.28
473.85	9444.06
474.03	9806.84
474.21	9633.64
474.39	9671.09
474.57	9605.56
474.75	9692.16
474.93	9942.60
475.12	9724.93
475.30	9928.55
475.48	9973.02
475.66	10094.73
475.84	9930.89
476.02	10104.09
476.20	10129.84
476.38	10328.78
476.56	10595.61
476.74	10377.94
476.92	10473.90
477.10	10583.90
477.28	10633.05
477.46	10747.74
477.64	10768.80
477.82	10911.58
478.00	11222.87
478.18	10946.69
478.36	10995.84
478.54	11105.84
478.72	11208.83
478.90	11449.90
479.08	11421.81
479.26	11513.10
479.44	11693.32
479.62	11840.77
479.80	11761.19
479.98	11857.15
480.16	12236.32
480.34	11934.39
480.52	12070.14
480.70	12327.60
480.88	12353.35
481.06	12329.94
481.24	12292.49
481.41	12800.39
481.59	12650.60
481.77	12814.43
481.95	12669.32
482.13	12706.77
482.31	13034.44
482.49	13186.58
482.67	13095.30
482.85	13387.86
483.03	13547.02
483.21	13509.57
483.39	13628.94
483.57	13568.09
483.74	13912.14
483.92	14054.92
484.10	13722.56
484.28	14256.20
484.46	14347.48
484.64	14579.20
484.82	14356.85
485.00	14684.52
485.18	14698.56
485.35	14831.97
485.53	14857.72
485.71	15021.56
485.89	15166.67
486.07	15026.24
486.25	15101.14
486.43	15435.83
486.61	15389.02
486.78	15573.92
486.96	15843.09
487.14	16051.39
487.32	15939.05
487.50	16126.29
487.68	16407.16
487.85	16556.95
488.03	16468.01
488.21	16556.95
488.39	16823.77
488.57	16741.85
488.75	16933.78
488.92	17198.26
489.10	17551.68
489.28	17289.54
489.46	17572.74
489.64	17444.01
489.81	18223.41
489.99	17823.18
490.17	18090.00
490.35	18295.97
490.53	18356.82
490.70	19044.94
490.88	18050.21
491.06	18586.19
491.24	18853.02
491.41	18745.35
491.59	19136.22
491.77	19068.34
491.95	19227.50
492.13	19396.02
492.30	19440.49
492.48	19648.80
492.66	19770.51
492.84	20002.22
493.01	20156.69
493.19	20058.39
493.37	20311.17
493.54	20208.19
493.72	20283.08
493.90	20535.86
494.08	20463.30
494.25	20575.65
494.43	20772.25
494.61	21191.21
494.79	20987.58
494.96	21067.16
495.14	21322.28
495.32	21575.06
495.49	21521.23
495.67	21710.81
495.85	21685.06
496.02	22097.00
496.20	21994.01
496.38	22125.08
496.55	22298.28
496.73	22742.99
496.91	22621.28
497.09	22913.84
497.26	22958.31
497.44	22829.59
497.62	22745.33
497.79	23290.67
497.97	23080.02
498.14	23417.06
498.32	23417.06
498.50	23262.58
498.67	23850.06
498.85	23618.35
499.03	24013.90
499.20	23817.29
499.38	23793.89
499.56	23953.04
499.73	24379.02
499.91	24456.26
500.08	24503.07
500.26	24348.59
500.44	24556.90
500.61	24549.88
500.79	24343.91
500.97	25039.05
501.14	25294.17
501.32	25109.27
501.49	25181.82
501.67	25280.13
501.84	25355.02
502.02	25319.92
502.20	25467.37
502.37	25621.84
502.55	25230.98
502.72	25605.46
502.90	25647.59
503.07	25586.74
503.25	25633.55
503.43	25820.79
503.60	26192.94
503.78	26281.88
503.95	26218.68
504.13	26314.64
504.30	26490.18
504.48	26934.88
504.65	26745.30
504.83	26822.54
505.01	26930.20
505.18	26934.88
505.36	27126.81
505.53	26998.08
505.71	27105.74
505.88	27154.90
506.06	27124.47
506.23	27278.94
506.41	27197.02
506.58	27740.03
506.76	27615.98
506.93	27800.88
507.11	27847.69
507.28	27777.48
507.46	28056.00
507.63	28191.75
507.81	28144.94
507.98	28074.73
508.16	28568.58
508.33	28442.19
508.50	28493.68
508.68	28364.95
508.85	28870.51
509.03	28746.46
509.20	29153.71
509.38	29261.38
509.55	29193.50
509.73	29158.39
509.90	29139.67
510.08	29177.12
510.25	29315.21
510.42	29359.68
510.60	29593.73
510.77	29722.46
510.95	29879.28
511.12	29378.40
511.30	29647.57
511.47	29603.10
511.64	29972.90
511.82	30031.41
511.99	29546.92
512.17	30099.29
512.34	29949.50
512.51	30504.20
512.69	30263.13
512.86	30497.18
513.04	30686.76
513.21	30663.36
513.38	30937.20
513.56	31096.36
513.73	31108.06
513.90	30965.29
514.08	31138.49
514.25	31126.78
514.43	31498.93
514.60	31438.08
514.77	31292.96
514.95	31475.52
515.12	31051.89
515.29	31615.96
515.47	31566.81
515.64	31908.52
515.81	32002.14
515.99	31482.55
516.16	32140.24
516.33	31852.35
516.51	32535.79
516.68	32065.34
516.85	32105.13
517.03	32526.42
517.20	32236.20
517.37	32456.21
517.54	32442.17
517.72	32360.25
517.89	32531.11
518.06	32580.26
518.24	32397.70
518.41	32606.00
518.58	32760.48
518.75	32484.30
518.93	33455.62
519.10	33476.68
519.27	33010.92
519.45	33095.18
519.62	33509.45
519.79	33123.26
519.96	33535.20
520.14	33706.05
520.31	33715.42
520.48	33947.13
520.65	33624.14
520.83	34050.11
521.00	34038.41
521.17	34146.08
521.34	34361.40
521.52	34108.63
521.69	34412.90
521.86	34059.48
522.03	34583.76
522.20	34869.30
522.38	34625.89
522.55	34637.59
522.72	34560.35
522.89	34845.90
523.07	35119.74
523.24	35154.85
523.41	34972.28
523.58	34747.59
523.75	34859.94
523.92	34955.90
524.10	35072.93
524.27	35428.69
524.44	35061.22
524.61	35337.41
524.78	35379.54
524.96	35854.67
525.13	35744.66
525.30	36102.76
525.47	35735.30
525.64	35852.33
525.81	36044.25
525.98	36739.39
526.16	36112.13
526.33	36065.31
526.50	36299.37
526.67	36137.87
526.84	36400.01
527.01	36634.06
527.18	36254.90
527.36	36341.50
527.53	36011.48
527.70	36627.04
527.87	36919.61
528.04	36641.09
528.21	36343.84
528.38	36828.33
528.55	37230.90
528.72	36945.36
528.89	36491.29
529.07	37148.98
529.24	36865.78
529.41	37228.56
529.58	37507.08
529.75	37092.81
529.92	37411.12
530.09	37256.65
530.26	37443.89
530.43	37406.44
530.60	37446.23
530.77	37399.42
530.94	37628.79
531.11	37890.93
531.28	37666.24
531.46	37797.31
531.63	37830.08
531.80	38014.98
531.97	38024.34
532.14	37937.74
532.31	37928.38
532.48	38171.80
532.65	38096.90
532.82	37900.29
532.99	38518.20
533.16	38340.32
533.33	38174.14
533.50	38249.03
533.67	38621.18
533.84	38244.35
534.01	38658.63
534.18	38593.09
534.35	38895.02
534.52	38885.66
534.69	38703.10
534.86	38967.58
535.03	38646.93
535.20	39049.50
535.37	39494.20
535.54	39477.82
535.71	39091.63
535.88	39304.62
536.05	39468.45
536.22	39285.89
536.38	39414.62
536.55	39363.13
536.72	39545.69
536.89	39431.01
537.06	39496.54
537.23	39887.41
537.40	39363.13
537.57	39756.34
537.74	39377.17
537.91	40339.13
538.08	39758.68
538.25	39754.00
538.42	39943.58
538.59	39995.07
538.75	39950.60
538.92	40392.97
539.09	39679.10
539.26	40116.78
539.43	40112.10
539.60	40458.50
539.77	39742.30
539.94	40596.59
540.11	40332.11
540.28	40362.54
540.44	40533.40
540.61	40816.60
540.78	40299.34
540.95	40402.33
541.12	40575.53
541.29	40114.44
541.46	40498.29
541.62	40395.31
541.79	41010.87
541.96	40439.78
542.13	40779.15
542.30	40545.10
542.47	40786.18
542.63	40999.16
542.80	41596.00
542.97	41301.09
543.14	41624.09
543.31	41357.27
543.48	41483.66
543.64	41998.57
543.81	42293.48
543.98	41350.24
544.15	42033.68
544.32	41734.09
544.48	41750.48
544.65	41598.34
544.82	42164.75
544.99	41778.56
545.16	41764.52
545.32	41677.92
545.49	42354.33
545.66	41961.12
545.83	42288.80
546.00	42841.17
546.16	42141.35
546.33	42382.42
546.50	42007.94
546.67	42082.83
546.83	42387.10
547.00	42616.47
547.17	41750.48
547.34	41991.55
547.50	42962.87
547.67	43033.09
547.84	42752.23
548.00	43049.47
548.17	43182.88
548.34	42946.49
548.51	42997.98
548.67	42810.74
548.84	43107.99
549.01	42192.84
549.18	43040.11
549.34	43487.15
549.51	43047.13
549.68	42948.83
549.84	43178.20
550.01	43192.25
550.18	43363.11
550.34	43709.50
550.51	43290.55
550.68	43213.31
550.84	43199.27
551.01	43222.67
551.18	43381.83
551.34	43084.58
551.51	43714.19
551.68	43508.22
551.84	43325.66
552.01	43124.37
552.18	43232.04
552.34	43688.44
552.51	43592.48
552.68	43054.15
552.84	43697.80
553.01	43620.56
553.18	43704.82
553.34	44053.56
553.51	43838.23
553.67	43938.88
553.84	44016.11
554.01	44264.21
554.17	44329.75
554.34	43990.37
554.51	44091.01
554.67	44093.35
554.84	44542.74
555.00	44306.34
555.17	44355.49
555.33	44044.20
555.50	44250.17
555.67	44278.25
555.83	44395.28
556.00	43941.22
556.16	44882.11
556.33	44615.29
556.50	44729.98
556.66	44645.72
556.83	44463.16
556.99	45394.69
557.16	44580.18
557.32	44605.93
557.49	44847.00
557.65	44212.72
557.82	44776.79
557.98	44893.82
558.15	44561.46
558.32	45013.18
558.48	45062.33
558.65	44875.09
558.81	44961.69
558.98	44811.90
559.14	44648.06
559.31	44224.42
559.47	44898.50
559.64	45146.59
559.80	45055.31
559.97	45275.32
560.13	44779.13
560.30	45031.91
560.46	45368.94
560.63	45237.87
560.79	45359.58
560.96	45570.23
561.12	45195.74
561.29	45088.08
561.45	45366.60
561.61	45317.45
561.78	44821.26
561.94	44898.50
562.11	45460.23
562.27	45502.35
562.44	45322.13
562.60	45567.89
562.77	45691.94
562.93	45165.32
563.10	46052.38
563.26	45422.78
563.42	46316.86
563.59	45619.38
563.75	45528.10
563.92	45427.46
564.08	45799.60
564.24	45492.99
564.41	45628.74
564.57	45806.62
564.74	45469.59
564.90	45263.62
565.07	45567.89
565.23	45776.20
565.39	46101.53
565.56	46092.17
565.72	45492.99
565.88	46019.61
566.05	46014.93
566.21	45928.33
566.38	45853.44
566.54	45785.56
566.70	45839.39
566.87	45855.78
567.03	45778.54
567.19	45893.22
567.36	45911.95
567.52	45902.59
567.68	46401.12
567.85	46113.23
568.01	46230.26
568.17	46150.68
568.34	46251.33
568.50	45954.08
568.66	45801.94
568.83	46054.72
568.99	46260.69
569.15	45998.55
569.32	45961.10
569.48	45944.72
569.64	46358.99
569.81	46328.56
569.97	46679.64
570.13	46232.60
570.30	45579.59
570.46	46270.05
570.62	46653.90
570.78	46466.66
570.95	46588.36
571.11	46843.48
571.27	46106.21
571.43	46295.80
571.60	46403.46
571.76	46148.34
571.92	46410.48
572.09	46209.20
572.25	45918.97
572.41	46436.23
572.57	46244.30
572.74	47096.26
572.90	46286.43
573.06	46426.87
573.22	46681.98
573.38	46447.93
573.55	46955.83
573.71	47016.68
573.87	46707.73
574.03	46658.58
574.20	46766.24
574.36	46253.67
574.52	46948.81
574.68	46279.41
574.84	46759.22
575.01	47129.03
575.17	46461.97
575.33	46766.24
575.49	46391.76
575.65	46705.39
575.82	46941.78
575.98	46293.46
576.14	47061.15
576.30	46611.77
576.46	46361.33
576.62	46775.61
576.79	46321.54
576.95	46436.23
577.11	46391.76
577.27	46150.68
577.43	46873.91
577.59	46700.71
577.75	46747.52
577.92	45968.12
578.08	46916.04
578.24	46759.22
578.40	46518.15
578.56	46948.81
578.72	46857.52
578.88	46471.34
579.04	46890.29
579.21	46501.76
579.37	47007.32
579.53	46665.60
579.69	46604.75
579.85	46536.87
580.01	46539.21
580.17	46679.64
580.33	47110.30
580.49	46195.15
580.65	47049.45
580.82	46852.84
580.98	46700.71
581.14	46597.73
581.30	46557.94
581.46	46731.14
581.62	46625.81
581.78	46513.47
581.94	46600.07
582.10	46759.22
582.26	46941.78
582.42	46920.72
582.58	46946.47
582.74	47276.48
582.90	47138.39
583.06	46976.89
583.22	46667.94
583.38	46799.01
583.54	46988.60
583.70	47028.38
583.86	47351.38
584.02	46653.90
584.18	47316.27
584.34	47526.92
584.50	47346.70
584.66	46941.78
584.82	47274.14
584.98	46972.21
585.14	47398.19
585.30	46492.40
585.46	46660.92
585.62	47192.22
585.78	47063.49
585.94	46485.38
586.10	46796.67
586.26	46536.87
586.42	46925.40
586.58	46880.93
586.74	47007.32
586.90	46553.26
587.06	47407.55
587.22	47260.10
587.38	47105.62
587.54	47395.85
587.70	47175.84
587.86	47145.41
588.02	47143.07
588.18	46766.24
588.34	46953.49
588.49	46981.57
588.65	46806.03
588.81	47154.77
588.97	47072.85
589.13	47278.82
589.29	47374.78
589.45	47250.74
589.61	47440.32
589.77	47576.07
589.93	47192.22
590.08	47241.37
