SpectraSuite Data File
++++++++++++++++++++++++++++++++++++
Date: Fri Oct 25 11:23:37 EDT 2013
User: price-jones
Dark Spectrum Present: No
Reference Spectrum Present: No
Number of Sampled Component Spectra: 1
Spectrometers: USB2+H05261
Integration Time (usec): 100000 (USB2+H05261)
Spectra Averaged: 1 (USB2+H05261)
Boxcar Smoothing: 0 (USB2+H05261)
Correct for Electrical Dark: No (USB2+H05261)
Strobe/Lamp Enabled: No (USB2+H05261)
Correct for Detector Non-linearity: No (USB2+H05261)
Correct for Stray Light: No (USB2+H05261)
Number of Pixels in Processed Spectrum: 2048
>>>>>Begin Processed Spectral Data<<<<<
365.73	222.35
365.92	222.35
366.12	222.35
366.32	117.03
366.52	100.64
366.72	168.52
366.91	93.62
367.11	147.45
367.31	208.31
367.51	77.24
367.70	175.54
367.90	114.69
368.10	147.45
368.30	105.32
368.49	114.69
368.69	212.99
368.89	93.62
369.09	119.37
369.28	135.75
369.48	168.52
369.68	161.50
369.87	252.78
370.07	201.29
370.27	308.95
370.47	348.74
370.66	627.26
370.86	627.26
371.06	653.01
371.25	697.48
371.45	676.41
371.65	660.03
371.84	662.37
372.04	610.88
372.24	709.18
372.44	814.51
372.63	690.46
372.83	753.65
373.03	755.99
373.22	753.65
373.42	814.51
373.62	788.76
373.81	814.51
374.01	788.76
374.21	786.42
374.40	779.40
374.60	903.45
374.79	868.34
374.99	772.38
375.19	833.23
375.38	891.74
375.58	873.02
375.78	863.66
375.97	891.74
376.17	929.19
376.37	805.14
376.56	823.87
376.76	763.01
376.95	786.42
377.15	889.40
377.35	847.27
377.54	915.15
377.74	896.43
377.93	947.92
378.13	952.60
378.33	929.19
378.52	961.96
378.72	884.72
378.91	910.47
379.11	894.08
379.31	905.79
379.50	922.17
379.70	961.96
379.89	1001.75
380.09	952.60
380.28	940.90
380.48	917.49
380.68	1011.11
380.87	966.64
381.07	978.34
381.26	973.66
381.46	924.51
381.65	1020.47
381.85	985.37
382.04	1006.43
382.24	1020.47
382.43	1025.15
382.63	1060.26
382.83	1004.09
383.02	1053.24
383.22	1118.78
383.41	1170.27
383.61	1179.63
383.80	1165.59
384.00	1053.24
384.19	1158.57
384.39	1196.01
384.58	1219.42
384.78	1167.93
384.97	1191.33
385.17	1116.44
385.36	1156.22
385.56	1121.12
385.75	1135.16
385.95	1146.86
386.14	1081.33
386.34	1146.86
386.53	1210.06
386.72	1184.31
386.92	1170.27
387.11	1188.99
387.31	1156.22
387.50	1217.08
387.70	1254.53
387.89	1259.21
388.09	1282.61
388.28	1212.40
388.48	1315.38
388.67	1214.74
388.86	1369.21
389.06	1338.79
389.25	1387.94
389.45	1336.45
389.64	1364.53
389.84	1310.70
390.03	1324.74
390.22	1313.04
390.42	1376.24
390.61	1282.61
390.81	1394.96
391.00	1423.05
391.19	1413.68
391.39	1380.92
391.58	1413.68
391.78	1502.62
391.97	1453.47
392.16	1488.58
392.36	1465.18
392.55	1519.01
392.75	1558.80
392.94	1554.12
393.13	1516.67
393.33	1444.11
393.52	1551.78
393.71	1521.35
393.91	1633.69
394.10	1591.56
394.29	1701.57
394.49	1584.54
394.68	1575.18
394.88	1659.44
395.07	1694.55
395.26	1647.74
395.46	1694.55
395.65	1675.82
395.84	1661.78
396.04	1769.44
396.23	1722.63
396.42	1837.32
396.62	1778.81
396.81	1724.97
397.00	1790.51
397.19	1717.95
397.39	1687.53
397.58	1778.81
397.77	1741.36
397.97	1783.49
398.16	1884.13
398.35	1898.17
398.55	1872.43
398.74	1907.54
398.93	1919.24
399.12	1865.41
399.32	1926.26
399.51	1893.49
399.70	1865.41
399.90	2083.08
400.09	1923.92
400.28	2031.58
400.47	2143.93
400.67	2136.91
400.86	2176.70
401.05	2097.12
401.24	2108.82
401.44	2101.80
401.63	2176.70
401.82	2202.44
402.01	2106.48
402.21	2169.68
402.40	2150.95
402.59	2165.00
402.78	2223.51
402.97	2162.66
403.17	2300.75
403.36	2352.24
403.55	2242.23
403.74	2385.01
403.93	2363.94
404.13	2396.71
404.32	2356.92
404.51	2469.27
404.70	2347.56
404.89	2331.17
405.09	2413.09
405.28	2445.86
405.47	2532.46
405.66	2420.11
405.85	2485.65
406.05	2495.01
406.24	2511.39
406.43	2546.50
406.62	2626.08
406.81	2530.12
407.00	2560.55
407.20	2607.36
407.39	2609.70
407.58	2712.68
407.77	2668.21
407.96	2878.86
408.15	2712.68
408.34	2757.15
408.54	2789.92
408.73	2794.60
408.92	2846.09
409.11	2846.09
409.30	2822.69
409.49	2850.77
409.68	2897.58
409.87	2981.84
410.07	2911.63
410.26	3073.12
410.45	3012.27
410.64	2937.37
410.83	3019.29
411.02	3061.42
411.21	3159.72
411.40	3110.57
411.59	3215.90
411.78	3251.00
411.98	3126.96
412.17	3248.66
412.36	3276.75
412.55	3412.50
412.74	3499.10
412.93	3321.22
413.12	3234.62
413.31	3644.21
413.50	3524.85
413.69	3419.52
413.88	3473.36
414.07	3590.38
414.26	3637.19
414.45	3660.60
414.64	3716.77
414.83	3733.15
415.02	3770.60
415.22	3859.54
415.41	3929.76
415.60	3875.93
415.79	3798.69
415.98	4126.36
416.17	3990.61
416.36	3889.97
416.55	3992.95
416.74	4074.87
416.93	3892.31
417.12	4091.26
417.31	4145.09
417.50	4208.28
417.69	4184.88
417.88	4301.90
418.07	4290.20
418.26	4327.65
418.45	4287.86
418.64	4437.66
418.83	4498.51
419.02	4304.25
419.21	4608.51
419.39	4578.09
419.58	4524.26
419.77	4383.82
419.96	4723.20
420.15	4655.33
420.34	4428.29
420.53	4613.20
420.72	4671.71
420.91	4641.28
421.10	4844.91
421.29	4709.16
421.48	4830.87
421.67	4655.33
421.86	4793.42
422.05	4887.04
422.24	4865.97
422.43	4671.71
422.61	5139.82
422.80	5013.43
422.99	5036.83
423.18	4891.72
423.37	5050.88
423.56	4931.51
423.75	5090.67
423.94	4795.76
424.13	4596.81
424.32	4793.42
424.50	4938.53
424.69	4994.70
424.88	5064.92
425.07	4990.02
425.26	4823.84
425.45	4973.64
425.64	4779.37
425.83	4945.55
426.01	5060.24
426.20	5043.85
426.39	5128.11
426.58	4978.32
426.77	5118.75
426.96	5280.25
427.15	5043.85
427.33	5224.08
427.52	5053.22
427.71	5238.12
427.90	5226.42
428.09	5294.29
428.28	5394.93
428.46	5303.65
428.65	5334.08
428.84	5500.26
429.03	5558.77
429.22	5397.28
429.40	5296.63
429.59	5565.79
429.78	5235.78
429.97	5266.21
430.16	5516.64
430.34	5628.99
430.53	5675.80
430.72	5724.95
430.91	5682.82
431.10	5610.26
431.28	5748.36
431.47	5678.14
431.66	5849.00
431.85	5713.25
432.03	5996.45
432.22	6008.16
432.41	5837.30
432.60	5853.68
432.79	5923.90
432.97	6024.54
433.16	6141.57
433.35	6136.88
433.54	6071.35
433.72	6080.71
433.91	6129.86
434.10	6195.40
434.28	6134.54
434.47	6171.99
434.66	6064.33
434.85	6160.29
435.03	6396.68
435.22	6321.79
435.41	6586.27
435.59	6483.28
435.78	6406.05
435.97	6333.49
436.16	6300.72
436.34	6403.71
436.53	6438.81
436.72	6572.22
436.90	6513.71
437.09	6614.35
437.28	6546.48
437.46	6604.99
437.65	6546.48
437.84	6672.87
438.02	6890.54
438.21	6876.49
438.40	6754.79
438.58	6944.37
438.77	7087.14
438.96	6848.41
439.14	7159.70
439.33	7290.77
439.52	7173.74
439.70	7187.79
439.89	7360.98
440.08	7372.69
440.26	7559.93
440.45	7246.30
440.63	7358.64
440.82	7623.12
441.01	7672.28
441.19	7555.25
441.38	7705.04
441.57	7765.90
441.75	7880.58
441.94	7971.86
442.12	7906.33
442.31	7903.99
442.50	7920.37
442.68	7971.86
442.87	7976.55
443.05	7775.26
443.24	8306.56
443.43	8100.59
443.61	8355.71
443.80	8615.51
443.98	8013.99
444.17	7801.01
444.35	8255.07
444.54	8425.93
444.73	8269.11
444.91	8252.73
445.10	8458.70
445.28	8329.97
445.47	8283.16
445.65	8393.16
445.84	8484.44
446.02	8418.91
446.21	8313.58
446.39	8489.12
446.58	8498.49
446.77	8390.82
446.95	8390.82
447.14	8386.14
447.32	8636.58
447.51	8421.25
447.69	8383.80
447.88	8575.72
448.06	8418.91
448.25	8521.89
448.43	8606.15
448.62	8676.37
448.80	8592.11
448.99	8678.71
449.17	8669.34
449.36	8615.51
449.54	8545.30
449.73	8982.98
449.91	9011.06
450.10	8936.17
450.28	9153.84
450.46	9081.28
450.65	9053.19
450.83	9130.43
451.02	8922.12
451.20	9214.69
451.39	9088.30
451.57	9235.75
451.76	8924.46
451.94	9177.24
452.13	9324.69
452.31	9296.61
452.49	9100.00
452.68	9245.12
452.86	9268.52
453.05	9327.03
453.23	9408.95
453.42	9217.03
453.60	9455.76
453.78	9551.73
453.97	9413.63
454.15	9575.13
454.34	9418.32
454.52	9523.64
454.70	9631.30
454.89	9755.35
455.07	9809.19
455.26	9928.55
455.44	9928.55
455.62	9921.53
455.81	9933.23
455.99	9923.87
456.17	9977.70
456.36	10033.88
456.54	10115.80
456.73	10204.74
456.91	10476.24
457.09	10553.48
457.28	10576.88
457.46	10471.56
457.64	10576.88
457.83	10576.88
458.01	10640.08
458.19	10892.85
458.38	10420.06
458.56	10801.57
458.74	10778.17
458.93	10925.62
459.11	10839.02
459.29	10764.12
459.48	10649.44
459.66	10841.36
459.84	10839.02
460.03	10942.00
460.21	10946.69
460.39	10942.00
460.57	11016.90
460.76	11147.97
460.94	11241.59
461.12	11218.19
461.31	11014.56
461.49	11124.57
461.67	11300.11
461.85	11531.82
462.04	11255.64
462.22	11492.03
462.40	11566.93
462.59	11578.63
462.77	11569.27
462.95	11606.72
463.13	11775.24
463.32	11653.53
463.50	11868.86
463.68	11805.66
463.86	11850.13
464.05	11346.92
464.23	11695.66
464.41	11681.61
464.59	11707.36
464.78	12170.79
464.96	11997.59
465.14	12053.76
465.32	11793.96
465.50	12044.40
465.69	12135.68
465.87	12095.89
466.05	12208.23
466.23	12177.81
466.41	12351.01
466.60	12606.13
466.78	12030.35
466.96	12241.00
467.14	12367.39
467.32	12638.89
467.51	12559.31
467.69	12215.26
467.87	12379.09
468.05	12641.23
468.23	12269.09
468.41	12362.71
468.60	12489.10
468.78	12730.17
468.96	12695.07
469.14	12861.24
469.32	12879.97
469.50	12423.56
469.69	12987.63
469.87	13142.11
470.05	13039.12
470.23	13078.91
470.41	13254.45
470.59	13104.66
470.77	13212.32
470.95	13132.75
471.14	13385.52
471.32	13151.47
471.50	13884.06
471.68	13612.56
471.86	13755.33
472.04	13795.12
472.22	14127.47
472.40	13839.59
472.58	13884.06
472.77	14031.51
472.95	14370.89
473.13	14457.49
473.31	14298.33
473.49	14160.24
473.67	14200.03
473.85	14305.35
474.03	14431.74
474.21	14787.50
474.39	14979.43
474.57	14698.56
474.75	15042.62
474.93	15063.69
475.12	14899.85
475.30	14860.06
475.48	14888.15
475.66	15101.14
475.84	15150.29
476.02	15239.23
476.20	15536.48
476.38	15620.74
476.56	16243.32
476.74	15957.77
476.92	15962.45
477.10	15838.41
477.28	16325.24
477.46	16444.60
477.64	16283.11
477.82	16388.43
478.00	16952.50
478.18	16849.52
478.36	16910.37
478.54	16978.25
478.72	17078.89
478.90	17544.66
479.08	17446.35
479.26	17818.50
479.44	18068.94
479.62	17991.70
479.80	18202.35
479.98	18104.04
480.16	18499.59
480.34	18157.88
480.52	18693.86
480.70	18782.80
480.88	18618.96
481.06	18824.93
481.24	18581.51
481.41	19253.25
481.59	19178.35
481.77	19597.31
481.95	19571.56
482.13	19864.13
482.31	19854.76
482.49	20191.80
482.67	20011.58
482.85	20519.48
483.03	20767.57
483.21	20821.41
483.39	20978.22
483.57	20947.79
483.74	21027.37
483.92	21553.99
484.10	21177.17
484.28	21638.25
484.46	21916.78
484.64	22319.35
484.82	22010.40
485.00	22501.91
485.18	22672.77
485.35	23084.70
485.53	22684.47
485.71	23061.30
485.89	23709.63
486.07	23332.80
486.25	23342.16
486.43	23770.48
486.61	23997.51
486.78	24336.89
486.96	23943.68
487.14	24404.77
487.32	24180.07
487.50	25127.99
487.68	25015.65
487.85	25277.79
488.03	25560.99
488.21	26050.16
488.39	25937.82
488.57	26022.08
488.75	26256.13
488.92	26373.16
489.10	26757.00
489.28	26431.67
489.46	27023.83
489.64	27328.10
489.81	27658.11
489.99	27737.69
490.17	27761.09
490.35	28374.31
490.53	28135.58
490.70	28505.38
490.88	28547.51
491.06	29132.65
491.24	29209.89
491.41	29083.50
491.59	28994.56
491.77	29235.63
491.95	29631.18
492.13	30017.37
492.30	29827.79
492.48	30122.69
492.66	30162.48
492.84	30082.91
493.01	30553.35
493.19	30984.01
493.37	30892.73
493.54	31168.91
493.72	31519.99
493.90	31487.23
494.08	31960.02
494.25	32292.37
494.43	32191.73
494.61	32350.88
494.79	32575.58
494.96	32517.06
495.14	33099.86
495.32	33230.93
495.49	33282.42
495.67	33523.49
495.85	33731.80
496.02	33392.42
496.20	34087.56
496.38	34258.42
496.55	34302.89
496.73	34843.56
496.91	34513.54
497.09	34864.62
497.26	34895.05
497.44	35044.84
497.62	35395.92
497.79	35297.62
497.97	35655.72
498.14	36037.23
498.32	36060.63
498.50	36091.06
498.67	37347.93
498.85	36987.49
499.03	36725.35
499.20	36498.31
499.38	37022.59
499.56	37464.96
499.73	37036.64
499.91	37703.69
500.08	37766.88
500.26	37607.73
500.44	37926.04
500.61	37916.68
500.79	37930.72
500.97	37993.92
501.14	39009.71
501.32	38976.94
501.49	38948.85
501.67	39311.64
501.84	39019.07
502.02	39152.48
502.20	38740.55
502.37	39395.90
502.55	39084.61
502.72	39627.61
502.90	39613.57
503.07	39782.09
503.25	40275.94
503.43	39945.92
503.60	40023.16
503.78	40346.15
503.95	40432.75
504.13	40414.03
504.30	40502.97
504.48	40531.06
504.65	40992.14
504.83	41413.44
505.01	41280.03
505.18	41434.50
505.36	41794.95
505.53	41596.00
505.71	41130.23
505.88	41935.38
506.06	41769.20
506.23	41890.91
506.41	42305.18
506.58	42597.75
506.76	42089.85
506.93	42747.54
507.11	42693.71
507.28	42824.78
507.46	42916.06
507.63	42965.21
507.81	43690.78
507.98	42848.19
508.16	43278.85
508.33	43576.09
508.50	43737.59
508.68	43819.51
508.85	44465.50
509.03	43856.96
509.20	43723.55
509.38	44364.85
509.55	44622.31
509.73	44156.55
509.90	44711.25
510.08	44982.76
510.25	44914.88
510.42	44884.45
510.60	44678.49
510.77	45476.61
510.95	45474.27
511.12	45230.85
511.30	45174.68
511.47	45441.50
511.64	45713.00
511.82	45956.42
511.99	45621.72
512.17	46349.63
512.34	45888.54
512.51	46305.16
512.69	46403.46
512.86	46387.08
513.04	46780.29
513.21	46667.94
513.38	46770.93
513.56	46763.90
513.73	46815.40
513.90	46948.81
514.08	47009.66
514.25	47573.73
514.43	47861.61
514.60	47538.62
514.77	47313.93
514.95	47863.96
515.12	47409.89
515.29	48273.55
515.47	48371.85
515.64	48048.86
515.81	48013.75
515.99	48299.30
516.16	48493.56
516.33	48671.44
516.51	48638.67
516.68	48563.78
516.85	48481.86
517.03	48711.23
517.20	49074.01
517.37	49006.14
517.54	49088.06
517.72	49382.96
517.89	48945.28
518.06	49263.60
518.24	49492.97
518.41	49375.94
518.58	49296.36
518.75	49399.35
518.93	49476.58
519.10	49624.04
519.27	49930.65
519.45	49848.73
519.62	50192.79
519.79	49881.50
519.96	50206.83
520.14	49923.63
520.31	50185.77
520.48	50387.05
520.65	50363.65
520.83	50576.64
521.00	50588.34
521.17	50426.84
521.34	50681.96
521.52	51004.95
521.69	50906.65
521.86	50990.91
522.03	51360.72
522.20	51552.64
522.38	51358.38
522.55	51297.52
522.72	51601.79
522.89	51449.66
523.07	51873.29
523.24	51611.15
523.41	52168.20
523.58	51868.61
523.75	51894.36
523.92	52130.75
524.10	51943.51
524.27	52215.01
524.44	52205.65
524.61	52069.90
524.78	52009.04
524.96	52044.15
525.13	52367.15
525.30	52568.43
525.47	52762.70
525.64	52346.08
525.81	52685.46
525.98	52711.20
526.16	52580.13
526.33	52722.91
526.50	52875.04
526.67	52669.08
526.84	53193.36
527.01	52753.33
527.18	52945.26
527.36	53120.80
527.53	53020.16
527.70	53471.88
527.87	53317.40
528.04	53144.20
528.21	53443.79
528.38	53404.00
528.55	53647.42
528.72	53399.32
528.89	53401.66
529.07	53425.07
529.24	53581.88
529.41	53818.28
529.58	53855.73
529.75	53556.14
529.92	53759.76
530.09	54045.31
530.26	53818.28
530.43	54007.86
530.60	53886.15
530.77	53907.22
530.94	54344.90
531.11	54328.52
531.28	54087.44
531.46	54284.04
531.63	54363.62
531.80	54419.80
531.97	54569.59
532.14	54614.06
532.31	54532.14
532.48	54700.66
532.65	54614.06
532.82	54520.44
532.99	54794.28
533.16	54691.30
533.33	54710.02
533.50	54897.27
533.67	54887.90
533.84	54981.52
534.01	54822.37
534.18	54981.52
534.35	55199.19
534.52	55093.87
534.69	55278.77
534.86	55393.46
535.03	55011.95
535.20	55189.83
535.37	55213.24
535.54	55414.52
535.71	55351.33
535.88	55201.53
536.05	55440.27
536.22	55793.69
536.38	55667.30
536.55	55494.10
536.72	55842.84
536.89	55454.31
537.06	55686.03
537.23	55751.56
537.40	55543.25
537.57	55924.76
537.74	55870.93
537.91	56142.43
538.08	56044.13
538.25	55679.00
538.42	56011.36
538.59	56104.98
538.75	55882.63
538.92	56184.56
539.09	56191.58
539.26	56067.53
539.43	56170.52
539.60	56317.97
539.77	56341.38
539.94	56348.40
540.11	56636.28
540.28	56353.08
540.44	56507.55
540.61	56226.69
540.78	56559.05
540.95	56587.13
541.12	56507.55
541.29	56278.18
541.46	56872.68
541.62	56577.77
541.79	56697.14
541.96	56463.08
542.13	56584.79
542.30	56893.74
542.47	56907.79
542.63	56830.55
542.80	56952.26
542.97	56903.10
543.14	57212.06
543.31	57305.68
543.48	57144.18
543.64	57523.35
543.81	57214.40
543.98	57347.81
544.15	57235.46
544.32	57701.23
544.48	57539.73
544.65	57506.96
544.82	57272.91
544.99	57464.83
545.16	57598.24
545.32	57408.66
545.49	57815.91
545.66	57689.52
545.83	57551.43
546.00	57680.16
546.16	57736.34
546.33	57703.57
546.50	57523.35
546.67	57642.71
546.83	57492.92
547.00	57921.24
547.17	57815.91
547.34	57930.60
547.50	58033.58
547.67	58258.27
547.84	57832.30
548.00	58190.40
548.17	58246.57
548.34	58197.42
548.51	58096.78
548.67	58328.49
548.84	58354.24
549.01	58302.74
549.18	58307.43
549.34	58307.43
549.51	58550.84
549.68	58433.81
549.84	58323.81
550.01	58480.63
550.18	58464.24
550.34	58286.36
550.51	58546.16
550.68	58452.54
550.84	58314.45
551.01	58541.48
551.18	58539.14
551.34	58726.38
551.51	58354.24
551.68	58396.37
551.84	58693.61
552.01	58646.80
552.18	58843.41
552.34	58614.04
552.51	58721.70
552.68	58710.00
552.84	58731.06
553.01	59178.10
553.18	58810.64
553.34	58965.12
553.51	58827.02
553.67	58834.05
553.84	59084.48
554.01	59220.23
554.17	58944.05
554.34	59110.23
554.51	59044.69
554.67	59121.93
554.84	59093.85
555.00	59070.44
555.17	58946.39
555.33	59100.87
555.50	58932.35
555.67	58876.18
555.83	58965.12
556.00	59255.34
556.16	59540.89
556.33	59234.28
556.50	59124.27
556.66	59494.08
556.83	59271.73
556.99	59690.68
557.16	59671.96
557.32	59440.24
557.49	59655.57
557.65	59367.69
557.82	59409.82
557.98	59302.15
558.15	59480.03
558.32	59568.97
558.48	59339.60
558.65	59643.87
558.81	59536.21
558.98	59636.85
559.14	59636.85
559.31	59688.34
559.47	59716.43
559.64	59674.30
559.80	59765.58
559.97	59700.04
560.13	59643.87
560.30	59601.74
560.46	59814.73
560.63	60013.68
560.79	59817.07
560.96	59917.71
561.12	59955.16
561.29	59943.46
561.45	59943.46
561.61	59833.46
561.78	59948.14
561.94	59859.20
562.11	59929.42
562.27	59922.40
562.44	60119.00
562.60	59983.25
562.77	60067.51
562.93	59887.29
563.10	60055.81
563.26	59929.42
563.42	60163.47
563.59	60154.11
563.75	60240.71
563.92	59948.14
564.08	59952.82
564.24	60111.98
564.41	60301.56
564.57	60470.08
564.74	60163.47
564.90	60238.37
565.07	60168.15
565.23	60367.10
565.39	60341.35
565.56	60289.86
565.72	60285.18
565.88	60259.43
566.05	60186.88
566.21	60346.03
566.38	60383.48
566.54	60364.76
566.70	60355.39
566.87	60397.52
567.03	60324.97
567.19	60472.42
567.36	60535.62
567.52	60140.07
567.68	60493.49
567.85	60472.42
568.01	60458.38
568.17	60519.23
568.34	60451.36
568.50	60481.78
568.66	60418.59
568.83	60282.84
568.99	60336.67
569.15	60512.21
569.32	60521.57
569.48	60348.37
569.64	60601.15
569.81	60509.87
569.97	60444.33
570.13	60484.12
570.30	60430.29
570.46	60336.67
570.62	60570.72
570.78	60409.23
570.95	60559.02
571.11	60514.55
571.27	60640.94
571.43	60636.26
571.60	60748.60
571.76	60514.55
571.92	60683.07
572.09	60453.70
572.25	60612.85
572.41	60561.36
572.57	60676.05
572.74	60779.03
572.90	60704.13
573.06	60746.26
573.22	60727.54
573.38	60872.65
573.55	60615.19
573.71	60804.78
573.87	60563.70
574.03	60584.77
574.20	60760.31
574.36	60610.51
574.52	60755.63
574.68	60797.76
574.84	60835.20
575.01	60720.52
575.17	60891.38
575.33	60863.29
575.49	60739.24
575.65	60851.59
575.82	60825.84
575.98	60640.94
576.14	60870.31
576.30	60872.65
576.46	60706.47
576.62	60739.24
576.79	60683.07
576.95	60610.51
577.11	61027.13
577.27	61006.06
577.43	60804.78
577.59	60968.61
577.75	60874.99
577.92	60715.84
578.08	60860.95
578.24	60999.04
578.40	60781.37
578.56	61045.85
578.72	60903.08
578.88	61080.96
579.04	61219.05
579.21	61048.19
579.37	60935.85
579.53	61024.79
579.69	60678.39
579.85	60872.65
580.01	60975.64
580.17	60860.95
580.33	61041.17
580.49	60931.17
580.65	60921.80
580.82	60767.33
580.98	60992.02
581.14	60718.18
581.30	61137.13
581.46	61137.13
581.62	60940.53
581.78	60893.72
581.94	61036.49
582.10	60931.17
582.26	60982.66
582.42	60865.63
582.58	60891.38
582.74	60910.10
582.90	60966.27
583.06	61109.05
583.22	60809.46
583.38	60982.66
583.54	60982.66
583.70	61006.06
583.86	61102.03
584.02	60928.83
584.18	61102.03
584.34	60940.53
584.50	61116.07
584.66	60989.68
584.82	60865.63
584.98	61270.54
585.14	61043.51
585.30	60809.46
585.46	61029.47
585.62	60987.34
585.78	61076.28
585.94	61097.34
586.10	61181.60
586.26	61312.67
586.42	61155.86
586.58	61052.87
586.74	61207.35
586.90	61111.39
587.06	60999.04
587.22	61165.22
587.38	61183.94
587.54	61223.73
587.70	61205.01
587.86	61251.82
588.02	60921.80
588.18	61233.10
588.34	60977.98
588.49	60952.23
