SpectraSuite Data File
++++++++++++++++++++++++++++++++++++
Date: Fri Oct 25 10:44:18 EDT 2013
User: price-jones
Dark Spectrum Present: No
Reference Spectrum Present: No
Number of Sampled Component Spectra: 1
Spectrometers: USB2+H05261
Integration Time (usec): 100000 (USB2+H05261)
Spectra Averaged: 1 (USB2+H05261)
Boxcar Smoothing: 0 (USB2+H05261)
Correct for Electrical Dark: No (USB2+H05261)
Strobe/Lamp Enabled: No (USB2+H05261)
Correct for Detector Non-linearity: No (USB2+H05261)
Correct for Stray Light: No (USB2+H05261)
Number of Pixels in Processed Spectrum: 2048
>>>>>Begin Processed Spectral Data<<<<<
365.73	135.75
365.92	135.75
366.12	135.75
366.32	72.56
366.52	0.00
366.72	53.83
366.91	9.36
367.11	100.64
367.31	4.68
367.51	25.75
367.70	0.00
367.90	65.54
368.10	0.00
368.30	70.22
368.49	65.54
368.69	67.88
368.89	21.06
369.09	77.24
369.28	58.51
369.48	63.19
369.68	39.79
369.87	105.32
370.07	79.58
370.27	98.30
370.47	154.48
370.66	437.68
370.86	388.53
371.06	470.45
371.25	395.55
371.45	358.10
371.65	447.04
371.84	428.32
372.04	496.19
372.24	449.38
372.44	491.51
372.63	540.66
372.83	489.17
373.03	421.30
373.22	416.62
373.42	503.22
373.62	575.77
373.81	557.05
374.01	526.62
374.21	528.96
374.40	561.73
374.60	528.96
374.79	547.69
374.99	580.45
375.19	568.75
375.38	568.75
375.58	578.11
375.78	702.16
375.97	615.56
376.17	615.56
376.37	655.35
376.56	599.18
376.76	699.82
376.95	631.94
377.15	620.24
377.35	620.24
377.54	627.26
377.74	624.92
377.93	601.52
378.13	685.78
378.33	585.13
378.52	667.05
378.72	709.18
378.91	655.35
379.11	676.41
379.31	706.84
379.50	676.41
379.70	741.95
379.89	699.82
380.09	685.78
380.28	713.86
380.48	706.84
380.68	706.84
380.87	617.90
381.07	723.23
381.26	777.06
381.46	713.86
381.65	763.01
381.85	720.88
382.04	737.27
382.24	702.16
382.43	681.10
382.63	674.07
382.83	730.25
383.02	781.74
383.22	786.42
383.41	699.82
383.61	774.72
383.80	823.87
384.00	770.04
384.19	699.82
384.39	863.66
384.58	833.23
384.78	758.33
384.97	835.57
385.17	739.61
385.36	877.70
385.56	849.61
385.75	760.67
385.95	835.57
386.14	814.51
386.34	875.36
386.53	823.87
386.72	795.78
386.92	812.17
387.11	938.55
387.31	819.19
387.50	849.61
387.70	947.92
387.89	891.74
388.09	887.06
388.28	929.19
388.48	770.04
388.67	910.47
388.86	919.83
389.06	936.21
389.25	1027.50
389.45	954.94
389.64	964.30
389.84	1025.15
390.03	971.32
390.22	957.28
390.42	1048.56
390.61	1029.84
390.81	1046.22
391.00	1062.60
391.19	1097.71
391.39	1015.79
391.58	1076.65
391.78	978.34
391.97	1097.71
392.16	990.05
392.36	1090.69
392.55	1034.52
392.75	1022.81
392.94	992.39
393.13	992.39
393.33	1006.43
393.52	1048.56
393.71	1128.14
393.91	1093.03
394.10	1097.71
394.29	1055.58
394.49	1193.67
394.68	1076.65
394.88	1266.23
395.07	1231.12
395.26	1254.53
395.46	1252.19
395.65	1233.46
395.84	1186.65
396.04	1210.06
396.23	1181.97
396.42	1188.99
396.62	1179.63
396.81	1268.57
397.00	1179.63
397.19	1240.48
397.39	1411.34
397.58	1425.39
397.77	1481.56
397.97	1458.15
398.16	1378.58
398.35	1495.60
398.55	1383.26
398.74	1409.00
398.93	1495.60
399.12	1504.96
399.32	1511.99
399.51	1479.22
399.70	1526.03
399.90	1577.52
400.09	1636.03
400.28	1558.80
400.47	1668.80
400.67	1769.44
400.86	1673.48
401.05	1739.02
401.24	1678.16
401.44	1748.38
401.63	1746.04
401.82	1703.91
402.01	1685.19
402.21	1748.38
402.40	1830.30
402.59	1753.06
402.78	1764.76
402.97	1790.51
403.17	1872.43
403.36	1879.45
403.55	1823.28
403.74	1844.34
403.93	1902.86
404.13	1907.54
404.32	1884.13
404.51	1879.45
404.70	2008.18
404.89	1879.45
405.09	1984.77
405.28	1912.22
405.47	1916.90
405.66	2026.90
405.85	1949.67
406.05	2001.16
406.24	1944.99
406.43	1975.41
406.62	2115.84
406.81	2169.68
407.00	2064.35
407.20	2106.48
407.39	2104.14
407.58	2188.40
407.77	2225.85
407.96	2211.81
408.15	2221.17
408.34	2111.16
408.54	2242.23
408.73	2335.85
408.92	2214.15
409.11	2342.88
409.30	2310.11
409.49	2200.10
409.68	2317.13
409.87	2284.36
410.07	2228.19
410.26	2270.32
410.45	2361.60
410.64	2401.39
410.83	2469.27
411.02	2532.46
411.21	2726.72
411.40	2534.80
411.59	2609.70
411.78	2546.50
411.98	2546.50
412.17	2640.12
412.36	2644.81
412.55	2733.75
412.74	2841.41
412.93	2818.00
413.12	2644.81
413.31	2946.73
413.50	2754.81
413.69	2902.26
413.88	2958.44
414.07	2846.09
414.26	2956.10
414.45	2902.26
414.64	2928.01
414.83	3049.72
415.02	3047.38
415.22	3084.83
415.41	3173.77
415.60	3075.46
415.79	3133.98
415.98	3269.73
416.17	3283.77
416.36	3199.51
416.55	3311.86
416.74	3419.52
416.93	3234.62
417.12	3236.96
417.31	3365.69
417.50	3386.76
417.69	3548.25
417.88	3358.67
418.07	3571.66
418.26	3559.95
418.45	3461.65
418.64	3557.61
418.83	3492.08
419.02	3489.74
419.21	3660.60
419.39	3651.24
419.58	3613.79
419.77	3691.02
419.96	3611.45
420.15	3740.18
420.34	3707.41
420.53	3688.68
420.72	3817.41
420.91	3908.69
421.10	3857.20
421.29	3939.12
421.48	3896.99
421.67	3861.88
421.86	3786.99
422.05	3929.76
422.24	3707.41
422.43	3751.88
422.61	3684.00
422.80	3943.80
422.99	3918.06
423.18	3941.46
423.37	3885.29
423.56	4014.02
423.75	3948.48
423.94	3911.04
424.13	3733.15
424.32	3871.25
424.50	4063.17
424.69	3943.80
424.88	4058.49
425.07	3786.99
425.26	3763.58
425.45	3911.04
425.64	3962.53
425.83	4074.87
426.01	4025.72
426.20	4030.40
426.39	3953.16
426.58	4004.66
426.77	4021.04
426.96	4016.36
427.15	3948.48
427.33	4095.94
427.52	4084.23
427.71	4100.62
427.90	4173.18
428.09	4219.99
428.28	4168.49
428.46	4276.16
428.65	4149.77
428.84	4259.78
429.03	4308.93
429.22	3957.85
429.40	4196.58
429.59	4170.83
429.78	3840.82
429.97	3978.91
430.16	4093.60
430.34	4175.52
430.53	4114.66
430.72	4234.03
430.91	4210.62
431.10	4376.80
431.28	4550.00
431.47	4608.51
431.66	4702.14
431.85	4449.36
432.03	4571.07
432.22	4734.90
432.41	4624.90
432.60	4685.75
432.79	4690.43
432.97	4777.03
433.16	4725.54
433.35	4753.63
433.54	4685.75
433.72	4786.40
433.91	4643.62
434.10	4713.84
434.28	4830.87
434.47	4952.57
434.66	5144.50
434.85	4835.55
435.03	4873.00
435.22	4875.34
435.41	5050.88
435.59	5074.28
435.78	5076.62
435.97	5135.14
436.16	5214.71
436.34	5233.44
436.53	5165.56
436.72	5238.12
436.90	4983.00
437.09	5315.36
437.28	5170.24
437.46	5170.24
437.65	5263.86
437.84	5247.48
438.02	5275.57
438.21	5324.72
438.40	5064.92
438.58	5238.12
438.77	5493.24
438.96	5331.74
439.14	5724.95
439.33	5624.31
439.52	5659.42
439.70	5636.01
439.89	5603.24
440.08	5701.54
440.26	5657.07
440.45	5748.36
440.63	5790.49
440.82	5874.74
441.01	5991.77
441.19	6052.63
441.38	6113.48
441.57	5895.81
441.75	6310.08
441.94	6382.64
442.12	6473.92
442.31	6427.11
442.50	6389.66
442.68	6368.60
442.87	6303.06
443.05	6438.81
443.24	6604.99
443.43	6450.52
443.61	6808.62
443.80	6544.14
443.98	6195.40
444.17	6354.55
444.35	6551.16
444.54	6736.06
444.73	6567.54
444.91	6513.71
445.10	6544.14
445.28	6553.50
445.47	6347.53
445.65	6408.39
445.84	6642.44
446.02	6654.14
446.21	6600.31
446.39	6661.16
446.58	6677.55
446.77	6757.13
446.95	6494.99
447.14	6583.93
447.32	6707.98
447.51	6651.80
447.69	6832.02
447.88	6722.02
448.06	6665.85
448.25	6764.15
448.43	6715.00
448.62	6740.74
448.80	7023.95
448.99	6832.02
449.17	6946.71
449.36	6740.74
449.54	6993.52
449.73	7054.37
449.91	7222.89
450.10	7206.51
450.28	7396.09
450.46	7194.81
450.65	7328.22
450.83	7393.75
451.02	7222.89
451.20	7335.24
451.39	7311.83
451.57	7265.02
451.76	6981.82
451.94	7239.28
452.13	7470.99
452.31	7148.00
452.49	7304.81
452.68	7375.03
452.86	7295.45
453.05	7328.22
453.23	7325.88
453.42	7300.13
453.60	7309.49
453.78	7424.18
453.97	7318.86
454.15	7501.42
454.34	7349.28
454.52	7747.17
454.70	7538.87
454.89	7653.55
455.07	7517.80
455.26	7555.25
455.44	7896.97
455.62	7735.47
455.81	7948.46
455.99	7819.73
456.17	7903.99
456.36	8025.70
456.54	7892.29
456.73	7985.91
456.91	8170.81
457.09	8198.90
457.28	8325.29
457.46	8002.29
457.64	8222.30
457.83	8236.35
458.01	8046.76
458.19	8355.71
458.38	8416.57
458.56	8430.61
458.74	8098.25
458.93	8201.24
459.11	8224.64
459.29	8381.46
459.48	8198.90
459.66	8276.13
459.84	8301.88
460.03	8816.80
460.21	8620.19
460.39	8397.84
460.57	8535.93
460.76	8664.66
460.94	8631.90
461.12	8575.72
461.31	8582.74
461.49	8896.38
461.67	8777.01
461.85	8739.56
462.04	8980.64
462.22	9078.94
462.40	9050.85
462.59	8894.04
462.77	8952.55
462.95	9156.18
463.13	8833.18
463.32	9067.24
463.50	9062.55
463.68	9193.62
463.86	9151.49
464.05	8940.85
464.23	8884.67
464.41	9083.62
464.59	8786.37
464.78	9448.74
464.96	9240.44
465.14	9153.84
465.32	9207.67
465.50	9315.33
465.69	9488.53
465.87	9151.49
466.05	9240.44
466.23	9184.26
466.41	9317.67
466.60	9373.85
466.78	9167.88
466.96	9317.67
467.14	9217.03
467.32	9366.82
467.51	9458.10
467.69	9376.19
467.87	9661.73
468.05	9710.88
468.23	9486.19
468.41	9331.72
468.60	9455.76
468.78	9856.00
468.96	9495.55
469.14	9680.46
469.32	9806.84
469.50	9535.34
469.69	9818.55
469.87	9884.08
470.05	9893.44
470.23	9767.06
470.41	9837.27
470.59	10108.77
470.77	9909.83
470.95	9954.30
471.14	10083.03
471.32	9921.53
471.50	10303.04
471.68	10345.17
471.86	10345.17
472.04	10714.97
472.22	10607.31
472.40	10242.18
472.58	10630.71
472.77	10490.28
472.95	10693.91
473.13	10731.36
473.31	10534.75
473.49	10546.45
473.67	10721.99
473.85	10934.98
474.03	11033.29
474.21	10963.07
474.39	11108.18
474.57	11077.76
474.75	11248.61
474.93	11318.83
475.12	11159.67
475.30	11344.58
475.48	11201.80
475.66	11307.13
475.84	11375.00
476.02	11576.29
476.20	11438.20
476.38	11843.11
476.56	11971.84
476.74	11999.93
476.92	11833.75
477.10	11932.05
477.28	12131.00
477.46	12196.53
477.64	12194.19
477.82	12320.58
478.00	12805.07
478.18	12486.76
478.36	12505.48
478.54	12769.96
478.72	12872.95
478.90	12884.65
479.08	12989.97
479.26	13090.62
479.44	13357.44
479.62	13397.23
479.80	13624.26
479.98	13362.12
480.16	13837.25
480.34	13572.77
480.52	13752.99
480.70	13568.09
480.88	13809.16
481.06	13905.12
481.24	14087.68
481.41	14218.75
481.59	14588.56
481.77	14317.06
481.95	14628.35
482.13	14618.99
482.31	14890.49
482.49	15040.28
482.67	15190.08
482.85	15035.60
483.03	15372.64
483.21	15239.23
483.39	15630.10
483.57	15529.45
483.74	15782.23
483.92	15719.04
484.10	15517.75
484.28	15740.10
484.46	16166.08
484.64	16201.19
484.82	15894.58
485.00	16365.03
485.18	16453.97
485.35	16624.83
485.53	16243.32
485.71	16231.62
485.89	16669.30
486.07	16414.18
486.25	16915.05
486.43	16872.92
486.61	16865.90
486.78	17528.27
486.96	17504.87
487.14	17778.71
487.32	17619.55
487.50	17963.61
487.68	18284.26
487.85	18513.64
488.03	18478.53
488.21	18492.57
488.39	18707.90
488.57	18824.93
488.75	18918.55
488.92	19110.47
489.10	19655.82
489.28	19381.98
489.46	19676.88
489.64	19391.34
489.81	20355.64
489.99	20381.38
490.17	20102.86
490.35	20383.73
490.53	20119.24
490.70	20631.82
490.88	20711.40
491.06	20730.12
491.24	21172.49
491.41	20870.56
491.59	20879.92
491.77	21001.63
491.95	21151.42
492.13	21280.15
492.30	21994.01
492.48	21788.05
492.66	21954.22
492.84	21986.99
493.01	22363.82
493.19	22106.36
493.37	22593.19
493.54	22537.02
493.72	22874.06
493.90	22738.30
494.08	22876.40
494.25	23447.49
494.43	23089.38
494.61	23571.54
494.79	23562.17
494.96	23527.06
495.14	23314.08
495.32	23555.15
495.49	23758.78
495.67	24109.86
495.85	24428.17
496.02	24491.37
496.20	24713.72
496.38	24521.79
496.55	24739.46
496.73	24975.86
496.91	24957.13
497.09	25099.90
497.26	25249.70
497.44	25195.87
497.62	25439.28
497.79	25282.47
497.97	25273.10
498.14	25722.49
498.32	25352.68
498.50	25708.44
498.67	26001.01
498.85	25886.32
499.03	25984.63
499.20	26141.44
499.38	26471.46
499.56	26478.48
499.73	26904.46
499.91	26569.76
500.08	26801.47
500.26	26459.76
500.44	27007.44
500.61	26883.39
500.79	26595.51
500.97	26885.73
501.14	27318.73
501.32	27035.53
501.49	27190.00
501.67	27402.99
501.84	27831.31
502.02	27417.04
502.20	27789.18
502.37	27873.44
502.55	27798.54
502.72	28418.78
502.90	28170.69
503.07	28222.18
503.25	28102.81
503.43	28180.05
503.60	28451.55
503.78	28184.73
503.95	28292.40
504.13	28601.35
504.30	28854.12
504.48	29010.94
504.65	29263.72
504.83	29060.09
505.01	29575.01
505.18	29352.66
505.36	29455.64
505.53	29560.97
505.71	29900.34
505.88	29539.90
506.06	29261.38
506.23	29865.24
506.41	29867.58
506.58	30148.44
506.76	29940.13
506.93	30010.35
507.11	30094.61
507.28	30560.37
507.46	30157.80
507.63	30342.70
507.81	30506.54
507.98	30326.32
508.16	30710.17
508.33	30534.63
508.50	30738.26
508.68	31197.00
508.85	31501.27
509.03	31236.79
509.20	31372.54
509.38	31145.51
509.55	31227.43
509.73	31536.38
509.90	31426.37
510.08	31447.44
510.25	31342.11
510.42	31449.78
510.60	31576.17
510.77	31789.16
510.95	32165.98
511.12	31981.08
511.30	32524.08
511.47	32507.70
511.64	32842.40
511.82	32577.92
511.99	32339.18
512.17	32737.07
512.34	32371.95
512.51	32786.22
512.69	32746.44
512.86	33240.29
513.04	33317.53
513.21	33200.50
513.38	32786.22
513.56	33053.05
513.73	32851.76
513.90	33156.03
514.08	33364.34
514.25	33237.95
514.43	33525.83
514.60	33462.64
514.77	33748.18
514.95	33460.30
515.12	33666.27
515.29	33525.83
515.47	34232.68
515.64	33841.81
515.81	34387.15
515.99	33558.60
516.16	33874.57
516.33	33558.60
516.51	34040.75
516.68	33191.14
516.85	33432.21
517.03	34185.86
517.20	34422.26
517.37	34347.36
517.54	34525.24
517.72	34443.32
517.89	34293.53
518.06	34162.46
518.24	34183.52
518.41	34164.80
518.58	34813.13
518.75	34677.38
518.93	35194.64
519.10	34827.17
519.27	35519.97
519.45	35178.25
519.62	35311.66
519.79	35360.81
519.96	35662.74
520.14	36070.00
520.31	35157.19
520.48	35358.47
520.65	35412.31
520.83	36177.66
521.00	35849.99
521.17	35943.61
521.34	36180.00
521.52	35945.95
521.69	36280.64
521.86	36512.36
522.03	36212.77
522.20	36650.45
522.38	36147.23
522.55	36451.50
522.72	36577.89
522.89	36753.43
523.07	36701.94
523.24	36723.01
523.41	36872.80
523.58	37289.42
523.75	37118.56
523.92	37251.97
524.10	37497.72
524.27	37481.34
524.44	37766.88
524.61	37542.19
524.78	37713.05
524.96	37848.80
525.13	37743.48
525.30	37881.57
525.47	37944.76
525.64	37633.47
525.81	37317.50
525.98	37989.24
526.16	37563.26
526.33	37511.77
526.50	37663.90
526.67	37418.14
526.84	37109.19
527.01	37645.18
527.18	38312.23
527.36	38312.23
527.53	38831.83
527.70	38782.68
527.87	38766.29
528.04	38628.20
528.21	38803.74
528.38	38576.71
528.55	39330.36
528.72	38672.67
528.89	39288.23
529.07	39271.85
529.24	38782.68
529.41	39201.63
529.58	38773.31
529.75	38745.23
529.92	39140.78
530.09	39353.77
530.26	39498.88
530.43	39541.01
530.60	39477.82
530.77	39412.28
530.94	39896.77
531.11	39585.48
531.28	39651.02
531.46	40212.74
531.63	40240.83
531.80	39632.29
531.97	39531.65
532.14	39548.03
532.31	39754.00
532.48	39571.44
532.65	39772.72
532.82	39447.39
532.99	40161.25
533.16	40037.20
533.33	40044.23
533.50	40336.79
533.67	40177.64
533.84	40285.30
534.01	40369.56
534.18	39934.22
534.35	40222.11
534.52	40414.03
534.69	40411.69
534.86	40800.22
535.03	40671.49
535.20	40624.68
535.37	41043.63
535.54	41450.89
535.71	40678.51
535.88	40395.31
536.05	40793.20
536.22	41109.17
536.38	41008.53
536.55	41076.40
536.72	40985.12
536.89	40748.73
537.06	40921.93
537.23	41116.19
537.40	40891.50
537.57	41399.40
537.74	41062.36
537.91	41656.85
538.08	40957.03
538.25	40788.52
538.42	41612.38
538.59	41797.29
538.75	41235.56
538.92	41326.84
539.09	41918.99
539.26	41387.69
539.43	41762.18
539.60	41310.46
539.77	41457.91
539.94	41830.05
540.11	41661.54
540.28	41816.01
540.44	41911.97
540.61	41935.38
540.78	41766.86
540.95	41626.43
541.12	41556.21
541.29	41867.50
541.46	42101.56
541.62	42616.47
541.79	42440.93
541.96	41752.82
542.13	42040.70
542.30	41989.21
542.47	42291.14
542.63	42110.92
542.80	42391.78
542.97	43030.75
543.14	42546.26
543.31	42801.38
543.48	42850.53
543.64	43199.27
543.81	42810.74
543.98	42974.58
544.15	42714.78
544.32	43119.69
544.48	43473.11
544.65	43182.88
544.82	42911.38
544.99	43119.69
545.16	43452.05
545.32	42876.27
545.49	43658.01
545.66	43426.30
545.83	43512.90
546.00	43187.56
546.16	43313.95
546.33	43030.75
546.50	43014.37
546.67	43344.38
546.83	43035.43
547.00	43414.60
547.17	43470.77
547.34	43395.87
547.50	43140.75
547.67	43538.65
547.84	43735.25
548.00	43910.79
548.17	43732.91
548.34	44027.82
548.51	44034.84
548.67	44198.68
548.84	44184.63
549.01	43990.37
549.18	43548.01
549.34	44231.44
549.51	44603.59
549.68	44123.78
549.84	43854.62
550.01	44371.88
550.18	44208.04
550.34	44079.31
550.51	44109.74
550.68	44023.14
550.84	43875.68
551.01	44713.59
551.18	44222.08
551.34	44390.60
551.51	44435.07
551.68	44414.01
551.84	44734.66
552.01	44112.08
552.18	44580.18
552.34	44170.59
552.51	44725.30
552.68	44563.80
552.84	44828.28
553.01	44947.65
553.18	44521.67
553.34	44378.90
553.51	44388.26
553.67	44641.04
553.84	44973.39
554.01	45167.66
554.17	45249.58
554.34	44739.34
554.51	45425.12
554.67	45193.40
554.84	44886.79
555.00	44910.20
555.17	44402.30
555.33	44928.92
555.50	44584.86
555.67	45041.27
555.83	45034.25
556.00	44961.69
556.16	45539.80
556.33	44982.76
556.50	45064.67
556.66	44790.83
556.83	44978.07
556.99	45287.03
557.16	45415.76
557.32	45123.19
557.49	45654.49
557.65	45488.31
557.82	45766.84
557.98	45717.68
558.15	45247.24
558.32	45614.70
558.48	45308.09
558.65	44889.13
558.81	45146.59
558.98	45265.96
559.14	45516.40
559.31	45155.96
559.47	45390.01
559.64	45764.49
559.80	45312.77
559.97	45476.61
560.13	44992.12
560.30	45467.25
560.46	45315.11
560.63	45727.05
560.79	45605.34
560.96	45764.49
561.12	45705.98
561.29	45284.68
561.45	45333.84
561.61	45722.37
561.78	45865.14
561.94	45626.40
562.11	45771.52
562.27	45586.61
562.44	45588.95
562.60	45827.69
562.77	45944.72
562.93	46120.26
563.10	45942.38
563.26	45294.05
563.42	45916.63
563.59	45624.06
563.75	45933.01
563.92	45925.99
564.08	46127.28
564.24	46279.41
564.41	46033.66
564.57	45998.55
564.74	45890.88
564.90	46103.87
565.07	45544.48
565.23	45888.54
565.39	45441.50
565.56	45776.20
565.72	45867.48
565.88	45874.50
566.05	45713.00
566.21	45876.84
566.38	46089.83
566.54	46129.62
566.70	46457.29
566.87	46457.29
567.03	46445.59
567.19	46246.65
567.36	46019.61
567.52	45687.26
567.68	45998.55
567.85	45846.41
568.01	46024.29
568.17	45914.29
568.34	46298.14
568.50	46115.58
568.66	45736.41
568.83	46216.22
568.99	45846.41
569.15	45834.71
569.32	45993.87
569.48	46658.58
569.64	46031.32
569.81	46321.54
569.97	45815.99
570.13	45778.54
570.30	45972.80
570.46	45722.37
570.62	45766.84
570.78	45823.01
570.95	46117.92
571.11	46164.73
571.27	45951.74
571.43	45734.07
571.60	46216.22
571.76	46127.28
571.92	46040.68
572.09	46120.26
572.25	45968.12
572.41	46267.71
572.57	46146.00
572.74	46543.89
572.90	46307.50
573.06	46227.92
573.22	46223.24
573.38	46230.26
573.55	45785.56
573.71	46328.56
573.87	46445.59
574.03	46408.14
574.20	46003.23
574.36	46103.87
574.52	46590.70
574.68	46185.79
574.84	46164.73
575.01	45996.21
575.17	46036.00
575.33	45865.14
575.49	45713.00
575.65	46438.57
575.82	46520.49
575.98	46354.31
576.14	46576.66
576.30	46342.61
576.46	46347.29
576.62	46335.59
576.79	46309.84
576.95	46148.34
577.11	45844.07
577.27	46295.80
577.43	46174.09
577.59	46234.94
577.75	45986.85
577.92	45867.48
578.08	46183.45
578.24	45780.88
578.40	46061.74
578.56	46160.05
578.72	46419.84
578.88	46270.05
579.04	46181.11
579.21	46487.72
579.37	46192.81
579.53	46454.95
579.69	46075.79
579.85	46333.24
580.01	46068.76
580.17	46234.94
580.33	46349.63
580.49	46527.51
580.65	46705.39
580.82	46253.67
580.98	46471.34
581.14	46143.66
581.30	46522.83
581.46	46469.00
581.62	46581.34
581.78	46265.37
581.94	46522.83
582.10	46539.21
582.26	46258.35
582.42	45975.14
582.58	46010.25
582.74	46426.87
582.90	46705.39
583.06	46363.67
583.22	46075.79
583.38	46841.14
583.54	46677.30
583.70	46017.27
583.86	46541.55
584.02	46197.49
584.18	46473.68
584.34	46681.98
584.50	46408.14
584.66	46265.37
584.82	46412.82
584.98	46515.81
585.14	46450.27
585.30	46504.10
585.46	46520.49
585.62	46363.67
585.78	46174.09
585.94	46085.15
586.10	46234.94
586.26	46043.02
586.42	46370.69
586.58	46459.63
586.74	46674.96
586.90	46225.58
587.06	46328.56
587.22	46653.90
587.38	46148.34
587.54	46480.70
587.70	46646.88
587.86	46527.51
588.02	46457.29
588.18	46431.55
588.34	46024.29
588.49	45970.46
588.65	45574.91
588.81	45553.85
588.97	46511.13
589.13	45776.20
589.29	46354.31
589.45	46265.37
589.61	46527.51
589.77	46176.43
589.93	46487.72
