SpectraSuite Data File
++++++++++++++++++++++++++++++++++++
Date: Fri Oct 25 10:44:36 EDT 2013
User: price-jones
Dark Spectrum Present: No
Reference Spectrum Present: No
Number of Sampled Component Spectra: 1
Spectrometers: USB2+H05261
Integration Time (usec): 100000 (USB2+H05261)
Spectra Averaged: 1 (USB2+H05261)
Boxcar Smoothing: 0 (USB2+H05261)
Correct for Electrical Dark: No (USB2+H05261)
Strobe/Lamp Enabled: No (USB2+H05261)
Correct for Detector Non-linearity: No (USB2+H05261)
Correct for Stray Light: No (USB2+H05261)
Number of Pixels in Processed Spectrum: 2048
>>>>>Begin Processed Spectral Data<<<<<
365.73	72.56
365.92	72.56
366.12	72.56
366.32	14.04
366.52	28.09
366.72	23.41
366.91	0.00
367.11	32.77
367.31	18.72
367.51	0.00
367.70	126.39
367.90	0.00
368.10	25.75
368.30	0.00
368.49	32.77
368.69	58.51
368.89	93.62
369.09	93.62
369.28	72.56
369.48	35.11
369.68	79.58
369.87	126.39
370.07	70.22
370.27	119.37
370.47	189.58
370.66	372.15
370.86	386.19
371.06	449.38
371.25	458.74
371.45	449.38
371.65	435.34
371.84	505.56
372.04	447.04
372.24	416.62
372.44	493.85
372.63	489.17
372.83	540.66
373.03	519.60
373.22	524.28
373.42	519.60
373.62	489.17
373.81	521.94
374.01	627.26
374.21	517.26
374.40	554.71
374.60	547.69
374.79	533.64
374.99	571.09
375.19	568.75
375.38	564.07
375.58	585.13
375.78	615.56
375.97	543.00
376.17	636.63
376.37	580.45
376.56	566.41
376.76	641.31
376.95	653.01
377.15	610.88
377.35	622.58
377.54	528.96
377.74	545.34
377.93	540.66
378.13	575.77
378.33	702.16
378.52	594.50
378.72	655.35
378.91	676.41
379.11	543.00
379.31	615.56
379.50	573.43
379.70	716.20
379.89	664.71
380.09	608.54
380.28	566.41
380.48	678.76
380.68	648.33
380.87	692.80
381.07	638.97
381.26	734.93
381.46	636.63
381.65	725.57
381.85	580.45
382.04	557.05
382.24	688.12
382.43	697.48
382.63	669.39
382.83	718.54
383.02	699.82
383.22	716.20
383.41	699.82
383.61	650.67
383.80	748.97
384.00	741.95
384.19	610.88
384.39	643.65
384.58	751.31
384.78	784.08
384.97	753.65
385.17	746.63
385.36	748.97
385.56	727.91
385.75	727.91
385.95	770.04
386.14	812.17
386.34	767.70
386.53	734.93
386.72	795.78
386.92	891.74
387.11	837.91
387.31	760.67
387.50	823.87
387.70	821.53
387.89	828.55
388.09	826.21
388.28	854.30
388.48	992.39
388.67	905.79
388.86	856.64
389.06	882.38
389.25	866.00
389.45	868.34
389.64	924.51
389.84	912.81
390.03	849.61
390.22	877.70
390.42	933.87
390.61	830.89
390.81	976.00
391.00	898.77
391.19	978.34
391.39	891.74
391.58	952.60
391.78	961.96
391.97	931.53
392.16	1039.20
392.36	959.62
392.55	931.53
392.75	947.92
392.94	992.39
393.13	985.37
393.33	1001.75
393.52	994.73
393.71	1034.52
393.91	1006.43
394.10	1046.22
394.29	1048.56
394.49	1060.26
394.68	1034.52
394.88	1036.86
395.07	1191.33
395.26	1116.44
395.46	1137.50
395.65	1249.85
395.84	1172.61
396.04	1179.63
396.23	1086.01
396.42	1130.48
396.62	1174.95
396.81	1111.75
397.00	1188.99
397.19	1179.63
397.39	1130.48
397.58	1303.68
397.77	1207.72
397.97	1324.74
398.16	1284.95
398.35	1291.98
398.55	1177.29
398.74	1317.72
398.93	1352.83
399.12	1317.72
399.32	1287.29
399.51	1364.53
399.70	1420.71
399.90	1390.28
400.09	1411.34
400.28	1369.21
400.47	1406.66
400.67	1430.07
400.86	1401.98
401.05	1441.77
401.24	1469.86
401.44	1554.12
401.63	1514.33
401.82	1504.96
402.01	1514.33
402.21	1528.37
402.40	1500.28
402.59	1561.14
402.78	1465.18
402.97	1519.01
403.17	1535.39
403.36	1636.03
403.55	1526.03
403.74	1652.42
403.93	1659.44
404.13	1657.10
404.32	1605.61
404.51	1666.46
404.70	1767.10
404.89	1652.42
405.09	1755.40
405.28	1788.17
405.47	1799.87
405.66	1760.08
405.85	1788.17
406.05	1781.15
406.24	1818.60
406.43	1767.10
406.62	1970.73
406.81	1930.94
407.00	1839.66
407.20	1774.13
407.39	1844.34
407.58	1973.07
407.77	1935.62
407.96	1952.01
408.15	2024.56
408.34	1867.75
408.54	1991.80
408.73	2033.93
408.92	1980.09
409.11	1980.09
409.30	1987.11
409.49	2059.67
409.68	2106.48
409.87	1987.11
410.07	2207.13
410.26	2160.31
410.45	2190.74
410.64	2172.02
410.83	2193.08
411.02	2249.25
411.21	2328.83
411.40	2265.64
411.59	2359.26
411.78	2298.41
411.98	2267.98
412.17	2361.60
412.36	2380.32
412.55	2389.69
412.74	2462.24
412.93	2485.65
413.12	2441.18
413.31	2471.61
413.50	2548.84
413.69	2539.48
413.88	2717.36
414.07	2527.78
414.26	2523.10
414.45	2663.53
414.64	2619.06
414.83	2614.38
415.02	2712.68
415.22	2874.18
415.41	2731.41
415.60	2829.71
415.79	2888.22
415.98	2878.86
416.17	2717.36
416.36	2813.32
416.55	2848.43
416.74	3030.99
416.93	2923.33
417.12	2970.14
417.31	2928.01
417.50	2956.10
417.69	3019.29
417.88	3082.49
418.07	3061.42
418.26	3119.93
418.45	3138.66
418.64	3091.85
418.83	3255.69
419.02	3220.58
419.21	3187.81
419.39	3229.94
419.58	3115.25
419.77	3148.02
419.96	3080.14
420.15	3506.12
420.34	3194.83
420.53	3466.33
420.72	3414.84
420.91	3466.33
421.10	3466.33
421.29	3559.95
421.48	3391.44
421.67	3499.10
421.86	3435.91
422.05	3447.61
422.24	3456.97
422.43	3527.19
422.61	3581.02
422.80	3569.32
422.99	3571.66
423.18	3494.42
423.37	3641.87
423.56	3527.19
423.75	3534.21
423.94	3506.12
424.13	3398.46
424.32	3435.91
424.50	3543.57
424.69	3534.21
424.88	3590.38
425.07	3606.77
425.26	3543.57
425.45	3531.87
425.64	3499.10
425.83	3597.40
426.01	3779.97
426.20	3632.51
426.39	3559.95
426.58	3508.46
426.77	3524.85
426.96	3662.94
427.15	3646.55
427.33	3686.34
427.52	3538.89
427.71	3562.30
427.90	3789.33
428.09	3709.75
428.28	3644.21
428.46	3845.50
428.65	3896.99
428.84	4056.15
429.03	3836.14
429.22	3733.15
429.40	3871.25
429.59	3896.99
429.78	3812.73
429.97	3620.81
430.16	3655.92
430.34	3726.13
430.53	3896.99
430.72	3819.75
430.91	3936.78
431.10	3932.10
431.28	4046.79
431.47	4119.34
431.66	4194.24
431.85	4032.74
432.03	4079.55
432.22	4285.52
432.41	4198.92
432.60	4248.07
432.79	4329.99
432.97	4264.46
433.16	4241.05
433.35	4210.62
433.54	4329.99
433.72	4297.22
433.91	4369.78
434.10	4262.12
434.28	4252.75
434.47	4486.81
434.66	4292.54
434.85	4383.82
435.03	4489.15
435.22	4451.70
435.41	4650.64
435.59	4610.86
435.78	4475.10
435.97	4603.83
436.16	4580.43
436.34	4615.54
436.53	4676.39
436.72	4655.33
436.90	4571.07
437.09	4587.45
437.28	4589.79
437.46	4821.50
437.65	4671.71
437.84	4880.02
438.02	4650.64
438.21	4627.24
438.40	4692.77
438.58	4847.25
438.77	5046.20
438.96	4938.53
439.14	5135.14
439.33	5050.88
439.52	5071.94
439.70	5177.26
439.89	5179.61
440.08	5011.09
440.26	5188.97
440.45	5214.71
440.63	5200.67
440.82	5348.12
441.01	5336.42
441.19	5383.23
441.38	5533.03
441.57	5504.94
441.75	5460.47
441.94	5678.14
442.12	5741.33
442.31	5851.34
442.50	5708.57
442.68	5675.80
442.87	5631.33
443.05	5685.16
443.24	5753.04
443.43	5795.17
443.61	5860.70
443.80	6171.99
443.98	5858.36
444.17	5458.13
444.35	5881.77
444.54	5853.68
444.73	5853.68
444.91	5837.30
445.10	5825.59
445.28	5837.30
445.47	5827.93
445.65	5767.08
445.84	6061.99
446.02	5940.28
446.21	5942.62
446.39	6026.88
446.58	5975.39
446.77	6012.84
446.95	5909.85
447.14	5987.09
447.32	6209.44
447.51	6083.05
447.69	6022.20
447.88	6043.26
448.06	6024.54
448.25	5980.07
448.43	6141.57
448.62	5959.00
448.80	6061.99
448.99	6019.86
449.17	6108.80
449.36	6263.27
449.54	6338.17
449.73	6356.90
449.91	6244.55
450.10	6492.65
450.28	6478.60
450.46	6438.81
450.65	6471.58
450.83	6422.43
451.02	6153.27
451.20	6647.12
451.39	6506.69
451.57	6368.60
451.76	6394.34
451.94	6455.20
452.13	6485.62
452.31	6490.31
452.49	6366.26
452.68	6525.41
452.86	6466.90
453.05	6623.72
453.23	6595.63
453.42	6607.33
453.60	6705.63
453.78	6764.15
453.97	6717.34
454.15	6787.55
454.34	6726.70
454.52	6787.55
454.70	6773.51
454.89	6752.45
455.07	6820.32
455.26	6864.79
455.44	7201.83
455.62	6998.20
455.81	6960.75
455.99	7155.02
456.17	7122.25
456.36	7122.25
456.54	7265.02
456.73	7379.71
456.91	7358.64
457.09	7293.11
457.28	7517.80
457.46	7180.76
457.64	7414.82
457.83	7353.96
458.01	7162.04
458.19	7581.00
458.38	7300.13
458.56	7386.73
458.74	7473.33
458.93	7311.83
459.11	7662.91
459.29	7414.82
459.48	7662.91
459.66	7595.04
459.84	7550.57
460.03	7772.92
460.21	7758.88
460.39	7789.30
460.57	7597.38
460.76	7812.71
460.94	7908.67
461.12	7887.61
461.31	7868.88
461.49	7763.56
461.67	7786.96
461.85	7941.44
462.04	7857.18
462.22	8053.78
462.40	8219.96
462.59	7925.05
462.77	7950.80
462.95	8105.28
463.13	7936.76
463.32	8013.99
463.50	8131.02
463.68	8238.69
463.86	8088.89
464.05	8131.02
464.23	8166.13
464.41	8381.46
464.59	7955.48
464.78	8353.37
464.96	8418.91
465.14	8170.81
465.32	8226.98
465.50	8402.52
465.69	8437.63
465.87	8301.88
466.05	8189.53
466.23	8381.46
466.41	8479.76
466.60	8669.34
466.78	8294.86
466.96	8454.02
467.14	8388.48
467.32	8475.08
467.51	8493.80
467.69	8482.10
467.87	8627.21
468.05	8655.30
468.23	8409.54
468.41	8538.27
468.60	8837.86
468.78	8809.78
468.96	8641.26
469.14	8931.48
469.32	8861.27
469.50	8875.31
469.69	8814.46
469.87	8879.99
470.05	9015.74
470.23	8851.91
470.41	9046.17
470.59	9013.40
470.77	9165.54
470.95	9130.43
471.14	9291.93
471.32	8954.89
471.50	9614.92
471.68	9193.62
471.86	9444.06
472.04	9525.98
472.22	9598.54
472.40	9458.10
472.58	9596.20
472.77	9406.61
472.95	9813.87
473.13	9891.10
473.31	9701.52
473.49	9469.81
473.67	9568.11
473.85	9872.38
474.03	10068.98
474.21	9851.31
474.39	9944.94
474.57	10101.75
474.75	10148.56
474.93	10200.05
475.12	10253.89
475.30	10274.95
475.48	10286.65
475.66	10193.03
475.84	10228.14
476.02	10501.98
476.20	10335.81
476.38	10691.57
476.56	10864.77
476.74	10906.90
476.92	10672.84
477.10	10747.74
477.28	11056.69
477.46	10991.16
477.64	11255.64
477.82	11377.34
478.00	11559.91
478.18	11585.65
478.36	11756.51
478.54	11688.64
478.72	11674.59
478.90	11749.49
479.08	11805.66
479.26	11976.52
479.44	12072.48
479.62	12030.35
479.80	12161.42
479.98	12194.19
480.16	12461.01
480.34	12285.47
480.52	12393.14
480.70	12451.65
480.88	12528.89
481.06	12695.07
481.24	12606.13
481.41	12952.52
481.59	13057.85
481.77	13242.75
481.95	13209.98
482.13	13343.39
482.31	13369.14
482.49	13327.01
482.67	13415.95
482.85	13617.24
483.03	13930.87
483.21	14190.67
483.39	14092.37
483.57	14132.15
483.74	14342.80
483.92	14183.65
484.10	14216.41
484.28	14574.52
484.46	14932.62
484.64	14824.95
484.82	14661.12
485.00	14663.46
485.18	14981.77
485.35	14981.77
485.53	14824.95
485.71	15194.76
485.89	15445.20
486.07	15272.00
486.25	15353.91
486.43	15562.22
486.61	16016.29
486.78	16170.76
486.96	16037.35
487.14	16262.04
487.32	16386.09
487.50	16615.46
487.68	16650.57
487.85	16800.37
488.03	16800.37
488.21	17268.47
488.39	17158.47
488.57	17249.75
488.75	17256.77
488.92	17600.83
489.10	17500.19
489.28	17748.28
489.46	18024.47
489.64	18120.43
489.81	18513.64
489.99	18597.90
490.17	18366.18
490.35	18672.79
490.53	18665.77
490.70	18707.90
490.88	18780.46
491.06	19047.28
491.24	19007.49
491.41	18984.09
491.59	19183.03
491.77	18860.04
491.95	19576.24
492.13	19653.48
492.30	19908.60
492.48	20016.26
492.66	20198.82
492.84	19826.68
493.01	20582.67
493.19	20372.02
493.37	20423.51
493.54	20547.56
493.72	20650.55
493.90	20837.79
494.08	21238.02
494.25	21378.45
494.43	21158.44
494.61	21563.36
494.79	21633.57
494.96	21493.14
495.14	21638.25
495.32	21586.76
495.49	22108.70
495.67	21743.58
495.85	21916.78
496.02	22143.81
496.20	22356.80
496.38	22555.74
496.55	22623.62
496.73	22871.72
496.91	22986.40
497.09	23009.81
497.26	23264.92
497.44	23183.01
497.62	23344.50
497.79	23604.30
497.97	23178.33
498.14	23267.27
498.32	23707.29
498.50	23529.41
498.67	24425.83
498.85	23917.93
499.03	24334.55
499.20	24130.92
499.38	23924.96
499.56	24491.37
499.73	24369.66
499.91	24489.03
500.08	24711.38
500.26	24533.50
500.44	24680.95
500.61	25041.39
500.79	24793.29
500.97	25060.12
501.14	25476.73
501.32	24961.81
501.49	25025.01
501.67	25312.89
501.84	25575.03
502.02	25673.34
502.20	25191.19
502.37	25427.58
502.55	25539.93
502.72	25956.54
502.90	25465.03
503.07	25792.70
503.25	26235.06
503.43	25949.52
503.60	26335.71
503.78	26246.77
503.95	25731.85
504.13	26651.68
504.30	26764.03
504.48	26703.17
504.65	27260.22
504.83	27089.36
505.01	27187.66
505.18	27051.91
505.36	27147.87
505.53	27531.72
505.71	27681.52
505.88	27608.96
506.06	27332.78
506.23	27630.02
506.41	27164.26
506.58	27805.56
506.76	27840.67
506.93	27814.93
507.11	27740.03
507.28	28173.03
507.46	27674.49
507.63	28524.11
507.81	28147.28
507.98	28173.03
508.16	28285.37
508.33	28676.24
508.50	28823.70
508.68	28568.58
508.85	29270.74
509.03	28589.64
509.20	29078.82
509.38	28982.85
509.55	28872.85
509.73	29317.55
509.90	29252.02
510.08	29048.39
510.25	28978.17
510.42	29329.25
510.60	29687.36
510.77	29560.97
510.95	29968.22
511.12	29937.79
511.30	29748.21
511.47	29898.00
511.64	30249.08
511.82	30466.75
511.99	30033.75
512.17	29928.43
512.34	29977.58
512.51	30361.43
512.69	30192.91
512.86	30600.16
513.04	30717.19
513.21	31082.31
513.38	30562.72
513.56	30567.40
513.73	30485.48
513.90	31007.42
514.08	30817.83
514.25	31049.55
514.43	30787.41
514.60	31220.41
514.77	31456.80
514.95	31908.52
515.12	31459.14
515.29	31531.70
515.47	31985.76
515.64	31594.89
515.81	31122.10
515.99	31702.56
516.16	31683.83
516.33	31674.47
516.51	31747.03
516.68	31225.09
516.85	31889.80
517.03	31611.28
517.20	32093.43
517.37	32247.90
517.54	32261.94
517.72	32524.08
517.89	32102.79
518.06	32233.86
518.24	32561.53
518.41	32287.69
518.58	32376.63
518.75	32538.13
518.93	32467.91
519.10	32652.81
519.27	32821.33
519.45	32580.26
519.62	32910.27
519.79	33195.82
519.96	33083.47
520.14	34115.65
520.31	33434.55
520.48	33282.42
520.65	33511.79
520.83	33565.62
521.00	33624.14
521.17	33677.97
521.34	33626.48
521.52	33979.90
521.69	34284.17
521.86	34059.48
522.03	34033.73
522.20	34211.61
522.38	34101.61
522.55	33958.83
522.72	33865.21
522.89	34003.30
523.07	34588.44
523.24	34408.22
523.41	34501.84
523.58	34469.07
523.75	34682.06
523.92	34869.30
524.10	34642.27
524.27	35019.10
524.44	34895.05
524.61	34792.06
524.78	35206.34
524.96	35117.40
525.13	35285.92
525.30	34906.75
525.47	35519.97
525.64	35566.78
525.81	35276.55
525.98	35580.82
526.16	35470.82
526.33	35370.18
526.50	35438.05
526.67	35316.34
526.84	35311.66
527.01	35519.97
527.18	35531.67
527.36	36285.33
527.53	36074.68
527.70	36100.42
527.87	35903.82
528.04	36208.09
528.21	36240.86
528.38	36378.95
528.55	36554.49
528.72	36919.61
528.89	36662.15
529.07	36507.68
529.24	36285.33
529.41	36680.88
529.58	36772.16
529.75	36683.22
529.92	36861.10
530.09	36671.51
530.26	37216.86
530.43	37055.36
530.60	36744.07
530.77	36748.75
530.94	37017.91
531.11	37113.87
531.28	37046.00
531.46	37591.34
531.63	37127.92
531.80	37163.03
531.97	37226.22
532.14	37280.05
532.31	36992.17
532.48	37420.48
532.65	37333.89
532.82	37811.35
532.99	37436.87
533.16	37432.19
533.33	37818.38
533.50	38279.46
533.67	37581.98
533.84	37668.58
534.01	37661.56
534.18	37769.22
534.35	38120.31
534.52	38284.14
534.69	38227.97
534.86	37940.08
535.03	37954.13
535.20	38258.40
535.37	38532.24
535.54	38632.88
535.71	38455.00
535.88	38143.71
536.05	38618.84
536.22	38939.49
536.38	38494.79
536.55	38941.83
536.72	38787.36
536.89	38370.74
537.06	38305.21
537.23	38923.11
537.40	38639.90
537.57	38574.37
537.74	38822.47
537.91	39182.91
538.08	38859.91
538.25	38527.56
538.42	38569.69
538.59	39498.88
538.75	38820.13
538.92	38749.91
539.09	39377.17
539.26	38880.98
539.43	39292.91
539.60	38857.57
539.77	38829.49
539.94	39229.72
540.11	39346.75
540.28	39433.35
540.44	39445.05
540.61	39250.78
540.78	39262.49
540.95	39435.69
541.12	39571.44
541.29	39332.70
541.46	39592.50
541.62	39601.86
541.79	40126.14
541.96	39505.90
542.13	39728.25
542.30	39573.78
542.47	40032.52
542.63	39959.97
542.80	40128.48
542.97	40935.97
543.14	40617.66
543.31	40575.53
543.48	40521.69
543.64	41191.09
543.81	40442.12
543.98	40540.42
544.15	40552.12
544.32	40821.28
544.48	41120.87
544.65	40870.43
544.82	41029.59
544.99	40151.89
545.16	41120.87
545.32	41127.89
545.49	40957.03
545.66	41282.37
545.83	41153.64
546.00	41418.12
546.16	41022.57
546.33	40620.00
546.50	40627.02
546.67	41464.93
546.83	40531.06
547.00	41024.91
547.17	40910.22
547.34	41167.68
547.50	41345.56
547.67	41528.13
547.84	41284.71
548.00	41401.74
548.17	41638.13
548.34	41666.22
548.51	41921.34
548.67	41696.64
548.84	41633.45
549.01	41659.20
549.18	41312.80
549.34	42014.96
549.51	41598.34
549.68	41759.84
549.84	41886.23
550.01	42094.53
550.18	41656.85
550.34	41933.04
550.51	41914.31
550.68	41813.67
550.84	41642.81
551.01	42204.54
551.18	42244.33
551.34	41806.65
551.51	42462.00
551.68	42447.96
551.84	42373.06
552.01	42335.61
552.18	42146.03
552.34	41881.55
552.51	42344.97
552.68	42143.69
552.84	42555.62
553.01	42593.07
553.18	42405.83
553.34	42253.69
553.51	42192.84
553.67	42270.08
553.84	42820.10
554.01	42459.66
554.17	42497.11
554.34	42742.86
554.51	42560.30
554.67	43058.84
554.84	42506.47
555.00	42464.34
555.17	42520.51
555.33	42878.61
555.50	42866.91
555.67	42637.54
555.83	43042.45
556.00	42483.06
556.16	43440.34
556.33	42932.45
556.50	43189.91
556.66	43168.84
556.83	42494.77
556.99	43182.88
557.16	43508.22
557.32	42976.92
557.49	43166.50
557.65	43035.43
557.82	43084.58
557.98	43026.07
558.15	43199.27
558.32	43545.67
558.48	42979.26
558.65	43079.90
558.81	43257.78
558.98	43126.71
559.14	43328.00
559.31	43166.50
559.47	43168.84
559.64	43501.20
559.80	43405.23
559.97	43320.98
560.13	43353.74
560.30	43063.52
560.46	42930.11
560.63	43536.30
560.79	43524.60
560.96	43966.96
561.12	43618.22
561.29	43704.82
561.45	43562.05
561.61	43627.59
561.78	43536.30
561.94	43192.25
562.11	43248.42
562.27	43611.20
562.44	43374.81
562.60	43477.79
562.77	43601.84
562.93	43613.54
563.10	44112.08
563.26	43746.95
563.42	43648.65
563.59	43398.21
563.75	43569.07
563.92	44074.63
564.08	43913.13
564.24	43875.68
564.41	43753.97
564.57	43856.96
564.74	43973.98
564.90	43964.62
565.07	43910.79
565.23	43533.96
565.39	43540.99
565.56	44142.50
565.72	43672.06
565.88	43800.79
566.05	43866.32
566.21	43606.52
566.38	43700.14
566.54	43952.92
566.70	43625.25
566.87	44245.49
567.03	43695.46
567.19	44095.69
567.36	43786.74
567.52	43697.80
567.68	44236.12
567.85	43908.45
568.01	43580.78
568.17	44025.48
568.34	44065.27
568.50	44409.32
568.66	43503.54
568.83	43840.57
568.99	43639.29
569.15	43768.02
569.32	44069.95
569.48	43931.86
569.64	44411.67
569.81	44231.44
569.97	44147.18
570.13	43971.64
570.30	44004.41
570.46	43278.85
570.62	43571.41
570.78	43878.02
570.95	44018.46
571.11	44172.93
571.27	43688.44
571.43	43927.17
571.60	44107.40
571.76	43992.71
571.92	44027.82
572.09	44222.08
572.25	44250.17
572.41	44046.54
572.57	44713.59
572.74	44397.62
572.90	44549.76
573.06	44168.25
573.22	43892.07
573.38	44177.61
573.55	43971.64
573.71	44348.47
573.87	44521.67
574.03	44264.21
574.20	44172.93
574.36	44369.54
574.52	44254.85
574.68	44399.96
574.84	44390.60
575.01	44121.44
575.17	44130.80
575.33	44002.07
575.49	44254.85
575.65	44577.84
575.82	44299.32
575.98	44119.10
576.14	44509.97
576.30	44236.12
576.46	44182.29
576.62	43995.05
576.79	44435.07
576.95	44156.55
577.11	44371.88
577.27	44673.81
577.43	44435.07
577.59	44425.71
577.75	44343.79
577.92	44109.74
578.08	43969.30
578.24	44222.08
578.40	43585.46
578.56	44334.43
578.72	44184.63
578.88	44954.67
579.04	44978.07
579.21	43990.37
579.37	44556.78
579.53	44374.22
579.69	44098.03
579.85	44364.85
580.01	44631.68
580.17	44304.00
580.33	44086.33
580.49	44360.17
580.65	44601.25
580.82	44634.02
580.98	44189.31
581.14	44257.19
581.30	44531.03
581.46	44556.78
581.62	44531.03
581.78	44664.44
581.94	44898.50
582.10	44261.87
582.26	44498.26
582.42	44397.62
582.58	44493.58
582.74	44559.12
582.90	44083.99
583.06	44596.57
583.22	44645.72
583.38	44619.97
583.54	44875.09
583.70	44327.41
583.86	44325.07
584.02	44144.84
584.18	44725.30
584.34	44430.39
584.50	44313.36
584.66	44540.39
584.82	43995.05
584.98	44868.07
585.14	44765.09
585.30	44512.31
585.46	44486.56
585.62	44484.22
585.78	44980.42
585.94	44053.56
586.10	44332.09
586.26	43983.35
586.42	44711.25
586.58	44575.50
586.74	44755.72
586.90	43861.64
587.06	44432.73
587.22	44364.85
587.38	44495.92
587.54	44776.79
587.70	44992.12
587.86	44409.32
588.02	44582.52
588.18	44605.93
588.34	44519.33
588.49	44013.77
588.65	43854.62
588.81	44397.62
588.97	44346.13
589.13	44505.29
589.29	44184.63
589.45	44779.13
589.61	44657.42
589.77	44854.03
589.93	44996.80
590.08	44968.71
590.24	44781.47
