SpectraSuite Data File
++++++++++++++++++++++++++++++++++++
Date: Fri Oct 25 11:26:07 EDT 2013
User: price-jones
Dark Spectrum Present: No
Reference Spectrum Present: No
Number of Sampled Component Spectra: 1
Spectrometers: USB2+H05261
Integration Time (usec): 100000 (USB2+H05261)
Spectra Averaged: 1 (USB2+H05261)
Boxcar Smoothing: 0 (USB2+H05261)
Correct for Electrical Dark: No (USB2+H05261)
Strobe/Lamp Enabled: No (USB2+H05261)
Correct for Detector Non-linearity: No (USB2+H05261)
Correct for Stray Light: No (USB2+H05261)
Number of Pixels in Processed Spectrum: 2048
>>>>>Begin Processed Spectral Data<<<<<
365.73	264.48
365.92	264.48
366.12	264.48
366.32	175.54
366.52	187.24
366.72	166.18
366.91	91.28
367.11	163.84
367.31	88.94
367.51	91.28
367.70	152.13
367.90	166.18
368.10	105.32
368.30	128.73
368.49	107.66
368.69	140.43
368.89	163.84
369.09	128.73
369.28	117.03
369.48	140.43
369.68	145.11
369.87	114.69
370.07	241.08
370.27	250.44
370.47	360.44
370.66	620.24
370.86	613.22
371.06	709.18
371.25	617.90
371.45	648.33
371.65	627.26
371.84	645.99
372.04	650.67
372.24	702.16
372.44	779.40
372.63	791.10
372.83	809.83
373.03	767.70
373.22	690.46
373.42	774.72
373.62	720.88
373.81	760.67
374.01	777.06
374.21	823.87
374.40	835.57
374.60	786.42
374.79	770.04
374.99	809.83
375.19	882.38
375.38	905.79
375.58	947.92
375.78	863.66
375.97	940.90
376.17	966.64
376.37	905.79
376.56	961.96
376.76	856.64
376.95	863.66
377.15	877.70
377.35	940.90
377.54	880.04
377.74	835.57
377.93	870.68
378.13	990.05
378.33	947.92
378.52	898.77
378.72	952.60
378.91	964.30
379.11	964.30
379.31	917.49
379.50	842.59
379.70	992.39
379.89	952.60
380.09	968.98
380.28	966.64
380.48	973.66
380.68	983.02
380.87	976.00
381.07	1011.11
381.26	1025.15
381.46	985.37
381.65	992.39
381.85	1043.88
382.04	1050.90
382.24	1097.71
382.43	1093.03
382.63	1118.78
382.83	1034.52
383.02	1064.94
383.22	1153.88
383.41	1144.52
383.61	1184.31
383.80	1153.88
384.00	1074.31
384.19	1125.80
384.39	1165.59
384.58	1217.08
384.78	1100.05
384.97	1167.93
385.17	1174.95
385.36	1137.50
385.56	1132.82
385.75	1177.29
385.95	1188.99
386.14	1291.98
386.34	1177.29
386.53	1153.88
386.72	1196.01
386.92	1306.02
387.11	1287.29
387.31	1238.14
387.50	1277.93
387.70	1324.74
387.89	1284.95
388.09	1254.53
388.28	1308.36
388.48	1289.64
388.67	1317.72
388.86	1238.14
389.06	1406.66
389.25	1324.74
389.45	1383.26
389.64	1299.00
389.84	1341.13
390.03	1324.74
390.22	1432.41
390.42	1409.00
390.61	1366.87
390.81	1387.94
391.00	1460.49
391.19	1366.87
391.39	1493.26
391.58	1418.36
391.78	1490.92
391.97	1474.54
392.16	1437.09
392.36	1593.90
392.55	1563.48
392.75	1575.18
392.94	1455.81
393.13	1453.47
393.33	1453.47
393.52	1483.90
393.71	1626.67
393.91	1598.59
394.10	1558.80
394.29	1586.88
394.49	1584.54
394.68	1673.48
394.88	1638.38
395.07	1692.21
395.26	1626.67
395.46	1640.72
395.65	1748.38
395.84	1717.95
396.04	1680.50
396.23	1746.04
396.42	1748.38
396.62	1682.85
396.81	1778.81
397.00	1806.89
397.19	1795.19
397.39	1842.00
397.58	1802.21
397.77	1818.60
397.97	1785.83
398.16	1842.00
398.35	1970.73
398.55	1898.17
398.74	1893.49
398.93	1973.07
399.12	1954.35
399.32	1954.35
399.51	1940.30
399.70	1975.41
399.90	2038.61
400.09	2015.20
400.28	2097.12
400.47	1975.41
400.67	2113.50
400.86	2136.91
401.05	2090.10
401.24	2139.25
401.44	2003.50
401.63	2326.49
401.82	2174.36
402.01	2054.99
402.21	2143.93
402.40	2122.87
402.59	2211.81
402.78	2188.40
402.97	2216.49
403.17	2312.45
403.36	2155.63
403.55	2246.91
403.74	2427.14
403.93	2333.51
404.13	2385.01
404.32	2319.47
404.51	2354.58
404.70	2380.32
404.89	2422.45
405.09	2504.37
405.28	2459.90
405.47	2546.50
405.66	2420.11
405.85	2499.69
406.05	2450.54
406.24	2511.39
406.43	2548.84
406.62	2661.19
406.81	2656.51
407.00	2576.93
407.20	2586.29
407.39	2656.51
407.58	2717.36
407.77	2665.87
407.96	2747.79
408.15	2792.26
408.34	2663.53
408.54	2773.53
408.73	2764.17
408.92	2871.84
409.11	2815.66
409.30	2829.71
409.49	2892.90
409.68	2958.44
409.87	3000.57
410.07	3094.19
410.26	2974.82
410.45	2993.55
410.64	3068.44
410.83	3068.44
411.02	3094.19
411.21	3276.75
411.40	3033.33
411.59	3309.52
411.78	3251.00
411.98	3222.92
412.17	3328.24
412.36	3323.56
412.55	3400.80
412.74	3400.80
412.93	3461.65
413.12	3391.44
413.31	3501.44
413.50	3468.67
413.69	3559.95
413.88	3545.91
414.07	3555.27
414.26	3684.00
414.45	3658.26
414.64	3761.24
414.83	3695.71
415.02	3829.12
415.22	3829.12
415.41	3882.95
415.60	3805.71
415.79	3904.01
415.98	3967.21
416.17	3925.08
416.36	3817.41
416.55	4007.00
416.74	4152.11
416.93	4128.70
417.12	4163.81
417.31	4107.64
417.50	4156.79
417.69	4346.37
417.88	4313.61
418.07	4262.12
418.26	4175.52
418.45	4212.96
418.64	4454.04
418.83	4519.57
419.02	4514.89
419.21	4510.21
419.39	4472.76
419.58	4451.70
419.77	4496.17
419.96	4484.47
420.15	4444.68
420.34	4620.22
420.53	4526.60
420.72	4655.33
420.91	4674.05
421.10	4751.29
421.29	4868.31
421.48	4755.97
421.67	4667.03
421.86	4664.69
422.05	4660.01
422.24	4840.23
422.43	4929.17
422.61	4840.23
422.80	4837.89
422.99	4800.44
423.18	4903.42
423.37	5027.47
423.56	5055.56
423.75	4978.32
423.94	4915.12
424.13	4496.17
424.32	4753.63
424.50	5088.32
424.69	4987.68
424.88	5034.49
425.07	4873.00
425.26	4945.55
425.45	4880.02
425.64	4926.83
425.83	4915.12
426.01	5125.77
426.20	5067.26
426.39	5097.69
426.58	5100.03
426.77	5060.24
426.96	5078.96
427.15	5046.20
427.33	5191.31
427.52	5102.37
427.71	5221.74
427.90	5151.52
428.09	5275.57
428.28	5341.10
428.46	5305.99
428.65	5277.91
428.84	5397.28
429.03	5633.67
429.22	5507.28
429.40	5497.92
429.59	5446.43
429.78	5308.34
429.97	5305.99
430.16	5413.66
430.34	5411.32
430.53	5633.67
430.72	5640.69
430.91	5664.10
431.10	5493.24
431.28	5710.91
431.47	5734.31
431.66	5832.62
431.85	5605.58
432.03	5982.41
432.22	5947.30
432.41	5968.37
432.60	5867.72
432.79	6169.65
432.97	6061.99
433.16	5984.75
433.35	5905.17
433.54	6040.92
433.72	6265.61
433.91	6054.97
434.10	6104.12
434.28	6122.84
434.47	6223.48
434.66	6314.77
434.85	6338.17
435.03	6349.87
435.22	6366.26
435.41	6389.66
435.59	6497.33
435.78	6478.60
435.97	6569.88
436.16	6560.52
436.34	6583.93
436.53	6567.54
436.72	6775.85
436.90	6502.01
437.09	6469.24
437.28	6473.92
437.46	6441.15
437.65	6649.46
437.84	6738.40
438.02	6766.49
438.21	6600.31
438.40	6724.36
438.58	7016.93
438.77	7028.63
438.96	6970.12
439.14	7213.53
439.33	7026.29
439.52	7311.83
439.70	7279.07
439.89	7311.83
440.08	7302.47
440.26	7325.88
440.45	7337.58
440.63	7520.14
440.82	7719.09
441.01	7620.78
441.19	7470.99
441.38	7726.11
441.57	7639.51
441.75	7693.34
441.94	8046.76
442.12	7801.01
442.31	7948.46
442.50	8046.76
442.68	7875.90
442.87	7911.01
443.05	8098.25
443.24	8208.26
443.43	7985.91
443.61	8018.68
443.80	8224.64
443.98	7894.63
444.17	7894.63
444.35	8166.13
444.54	8346.35
444.73	8217.62
444.91	8280.82
445.10	8280.82
445.28	8463.38
445.47	8351.03
445.65	8290.18
445.84	8315.92
446.02	8428.27
446.21	8346.35
446.39	8255.07
446.58	8641.26
446.77	8444.65
446.95	8393.16
447.14	8348.69
447.32	8624.87
447.51	8320.60
447.69	8528.91
447.88	8580.40
448.06	8465.72
448.25	8428.27
448.43	8655.30
448.62	8716.16
448.80	8692.75
448.99	8390.82
449.17	8723.18
449.36	8718.50
449.54	8706.79
449.73	8994.68
449.91	9001.70
450.10	9083.62
450.28	9334.06
450.46	9165.54
450.65	9156.18
450.83	8978.30
451.02	8964.25
451.20	9224.05
451.39	9226.39
451.57	9055.53
451.76	9053.19
451.94	9235.75
452.13	9294.27
452.31	9474.49
452.49	9186.60
452.68	9350.44
452.86	9249.80
453.05	9495.55
453.23	9617.26
453.42	9338.74
453.60	9226.39
453.78	9514.28
453.97	9352.78
454.15	9462.79
454.34	9270.86
454.52	9502.58
454.70	9474.49
454.89	9736.63
455.07	9834.93
455.26	9671.09
455.44	9996.43
455.62	9916.85
455.81	9863.02
455.99	9884.08
456.17	10022.17
456.36	9858.34
456.54	10078.35
456.73	10300.70
456.91	10359.21
457.09	10307.72
457.28	10490.28
457.46	10349.85
457.64	10595.61
457.83	10497.30
458.01	10520.71
458.19	10597.95
458.38	10597.95
458.56	10665.82
458.74	10525.39
458.93	10438.79
459.11	10855.40
459.29	10656.46
459.48	10726.68
459.66	10717.31
459.84	10824.98
460.03	10972.43
460.21	10911.58
460.39	10799.23
460.57	11047.33
460.76	10960.73
460.94	10991.16
461.12	11248.61
461.31	11211.17
461.49	11232.23
461.67	11009.88
461.85	11573.95
462.04	11332.87
462.22	11754.17
462.40	11632.46
462.59	11459.26
462.77	11700.34
462.95	11360.96
463.13	11426.50
463.32	11449.90
463.50	11674.59
463.68	11714.38
463.86	11866.52
464.05	11712.04
464.23	11616.08
464.41	12070.14
464.59	11676.93
464.78	11983.54
464.96	12006.95
465.14	11859.49
465.32	11955.46
465.50	12112.27
465.69	12025.67
465.87	12028.01
466.05	11985.88
466.23	12142.70
466.41	12271.43
466.60	12737.20
466.78	12159.08
466.96	12037.38
467.14	12348.67
467.32	12439.95
467.51	12732.51
467.69	12273.77
467.87	12306.54
468.05	12596.76
468.23	12428.24
468.41	12273.77
468.60	12723.15
468.78	12919.76
468.96	12744.22
469.14	12592.08
469.32	12816.77
469.50	12823.80
469.69	12978.27
469.87	12882.31
470.05	13188.92
470.23	13130.41
470.41	13193.60
470.59	13160.83
470.77	13366.80
470.95	13146.79
471.14	13687.45
471.32	13186.58
471.50	13418.29
471.68	13692.13
471.86	13671.07
472.04	13575.11
472.22	13834.91
472.40	13591.49
472.58	13600.85
472.77	13984.70
472.95	13987.04
473.13	14663.46
473.31	14061.94
473.49	14181.31
473.67	14298.33
473.85	14146.20
474.03	14684.52
474.21	14803.89
474.39	14684.52
474.57	14892.83
474.75	14696.22
474.93	14932.62
475.12	14897.51
475.30	15054.33
475.48	14988.79
475.66	15211.14
475.84	15108.16
476.02	15272.00
476.20	15400.72
476.38	15688.61
476.56	15697.97
476.74	15875.85
476.92	16093.52
477.10	15702.65
477.28	15976.50
477.46	16421.20
477.64	16189.49
477.82	16425.88
478.00	17060.16
478.18	16582.70
478.36	16926.75
478.54	17144.42
478.72	17209.96
478.90	17013.35
479.08	17802.11
479.26	17582.10
479.44	17769.35
479.62	17874.67
479.80	18087.66
479.98	18176.60
480.16	18302.99
480.34	18263.20
480.52	18597.90
480.70	18822.59
480.88	18504.28
481.06	18724.29
481.24	18593.22
481.41	19201.76
481.59	19187.71
481.77	19356.23
481.95	19452.19
482.13	19791.57
482.31	19807.95
482.49	20198.82
482.67	19822.00
482.85	20306.49
483.03	20933.75
483.21	20648.21
483.39	20971.20
483.57	21095.25
483.74	21083.55
483.92	21296.53
484.10	21312.92
484.28	21813.79
484.46	21905.07
484.64	22075.93
484.82	21792.73
485.00	22462.12
485.18	23136.20
485.35	22986.40
485.53	22862.35
485.71	23260.24
485.89	23585.58
486.07	23482.59
486.25	23367.91
486.43	23573.88
486.61	23946.02
486.78	23985.81
486.96	24159.01
487.14	24250.29
487.32	24376.68
487.50	25032.03
487.68	25195.87
487.85	25200.55
488.03	25612.48
488.21	25605.46
488.39	25748.23
488.57	25722.49
488.75	26146.12
488.92	26375.50
489.10	26553.38
489.28	26852.97
489.46	27180.64
489.64	26960.63
489.81	27538.74
489.99	27402.99
490.17	27648.75
490.35	28119.20
490.53	28081.75
490.70	28779.23
490.88	28355.59
491.06	28678.58
491.24	28463.25
491.41	29095.20
491.59	29345.64
491.77	29137.33
491.95	29635.86
492.13	29804.38
492.30	29593.73
492.48	30143.76
492.66	30108.65
492.84	30415.26
493.01	30354.41
493.19	30335.68
493.37	31147.85
493.54	31075.29
493.72	31477.86
493.90	31250.83
494.08	31622.98
494.25	31786.82
494.43	31770.43
494.61	32177.68
494.79	32261.94
494.96	32657.49
495.14	32725.37
495.32	33460.30
495.49	32933.68
495.67	32912.61
495.85	33572.64
496.02	33937.77
496.20	34043.09
496.38	34080.54
496.55	34045.43
496.73	34525.24
496.91	34518.22
497.09	34918.45
497.26	35168.89
497.44	34436.30
497.62	35122.08
497.79	36037.23
497.97	35339.75
498.14	35875.73
498.32	36378.95
498.50	36226.81
498.67	36229.15
498.85	36723.01
499.03	36395.33
499.20	36587.25
499.38	37050.68
499.56	36638.75
499.73	36952.38
499.91	37151.32
500.08	37228.56
500.26	37727.10
500.44	38064.13
500.61	38162.43
500.79	37867.53
500.97	38227.97
501.14	38653.95
501.32	38078.18
501.49	38368.40
501.67	38866.94
501.84	39222.70
502.02	38955.88
502.20	38990.98
502.37	39271.85
502.55	39346.75
502.72	39159.50
502.90	39468.45
503.07	39695.49
503.25	39983.37
503.43	39337.38
503.60	39810.17
503.78	40285.30
503.95	40109.76
504.13	40563.82
504.30	40566.16
504.48	40498.29
504.65	40657.45
504.83	41036.61
505.01	41291.73
505.18	41373.65
505.36	41280.03
505.53	41560.89
505.71	41645.15
505.88	41794.95
506.06	41263.64
506.23	41764.52
506.41	41635.79
506.58	42089.85
506.76	42019.64
506.93	42330.93
507.11	42139.00
507.28	42440.93
507.46	42600.09
507.63	42703.07
507.81	42972.24
507.98	43023.73
508.16	43299.91
508.33	43533.96
508.50	43660.35
508.68	43405.23
508.85	43550.35
509.03	43716.53
509.20	43840.57
509.38	44287.62
509.55	44257.19
509.73	44423.37
509.90	44678.49
510.08	44343.79
510.25	44837.64
510.42	44818.92
510.60	44715.93
510.77	44907.86
510.95	45301.07
511.12	45090.42
511.30	45134.89
511.47	45368.94
511.64	45624.06
511.82	45600.66
511.99	45827.69
512.17	45759.81
512.34	45855.78
512.51	46057.06
512.69	46485.38
512.86	46347.29
513.04	46644.54
513.21	46862.21
513.38	47166.48
513.56	46855.18
513.73	46630.49
513.90	47210.95
514.08	46997.96
514.25	47695.44
514.43	47374.78
514.60	47440.32
514.77	47035.41
514.95	47489.47
515.12	47346.70
515.29	47545.64
515.47	48149.50
515.64	48477.18
515.81	47756.29
515.99	48018.43
516.16	48203.33
516.33	48444.41
516.51	48722.93
516.68	48648.03
516.85	48589.52
517.03	48690.16
517.20	48790.81
517.37	48697.19
517.54	48980.39
517.72	48989.75
517.89	48776.76
518.06	48982.73
518.24	49184.02
518.41	49125.50
518.58	49645.10
518.75	49242.53
518.93	49305.73
519.10	49139.55
519.27	49235.51
519.45	49717.66
519.62	50047.68
519.79	49940.01
519.96	49888.52
520.14	50319.18
520.31	49909.58
520.48	50244.28
520.65	50087.46
520.83	50358.97
521.00	50625.79
521.17	50066.40
521.34	50562.59
521.52	50834.10
521.69	50770.90
521.86	51105.60
522.03	50773.24
522.20	51365.40
522.38	51206.24
522.55	51358.38
522.72	51388.80
522.89	51473.06
523.07	51669.67
523.24	51393.48
523.41	51690.73
523.58	51660.30
523.75	51868.61
523.92	51749.24
524.10	51955.21
524.27	52156.50
524.44	51985.64
524.61	52245.44
524.78	52105.01
524.96	51990.32
525.13	52144.80
525.30	52245.44
525.47	52449.06
525.64	52252.46
525.81	52713.55
525.98	52388.21
526.16	52746.31
526.33	52985.05
526.50	53015.47
526.67	52842.27
526.84	53034.20
527.01	52971.00
527.18	52858.66
527.36	52783.76
527.53	53001.43
527.70	53366.55
527.87	53298.68
528.04	53347.83
528.21	53574.86
528.38	53485.92
528.55	53904.88
528.72	53448.47
528.89	53427.41
529.07	53418.05
529.24	53457.84
529.41	53776.15
529.58	53577.20
529.75	53626.35
529.92	53556.14
530.09	53549.12
530.26	54007.86
530.43	54047.65
530.60	53846.36
530.77	53921.26
530.94	54134.25
531.11	54017.22
531.28	53951.69
531.46	54028.93
531.63	54188.08
531.80	54225.53
531.97	54110.85
532.14	54426.82
532.31	54246.60
532.48	54316.81
532.65	54728.75
532.82	54534.48
532.99	54714.70
533.16	54527.46
533.33	54637.47
533.50	54749.81
533.67	54808.32
533.84	54656.19
534.01	54892.58
534.18	54742.79
534.35	55089.19
534.52	54948.76
534.69	55175.79
534.86	55248.35
535.03	55091.53
535.20	55402.82
535.37	55194.51
535.54	55157.06
535.71	55103.23
535.88	55515.17
536.05	55220.26
536.22	55505.80
536.38	55257.71
536.55	55702.41
536.72	55547.93
536.89	55161.75
537.06	55363.03
537.23	55709.43
537.40	55456.65
537.57	55950.51
537.74	55636.87
537.91	55838.16
538.08	55676.66
538.25	55494.10
538.42	56002.00
538.59	56285.20
538.75	55870.93
538.92	56142.43
539.09	55948.17
539.26	56093.28
539.43	56074.55
539.60	56329.67
539.77	56207.97
539.94	56521.60
540.11	56065.19
540.28	56413.93
540.44	56219.67
540.61	56362.44
540.78	56535.64
540.95	56535.64
541.12	56467.76
541.29	56493.51
541.46	56409.25
541.62	56622.24
541.79	56779.06
541.96	56369.46
542.13	56491.17
542.30	56739.27
542.47	56701.82
542.63	56933.53
542.80	56868.00
542.97	57078.64
543.14	57160.56
543.31	56999.07
543.48	57190.99
543.64	57219.08
543.81	57265.89
543.98	57506.96
544.15	57270.57
544.32	57478.88
544.48	57286.95
544.65	57202.69
544.82	57415.68
544.99	57256.53
545.16	57366.53
545.32	57478.88
545.49	57722.29
545.66	57680.16
545.83	57572.50
546.00	57659.10
546.16	57537.39
546.33	57532.71
546.50	57286.95
546.67	57647.39
546.83	57474.20
547.00	57539.73
547.17	57792.51
547.34	57703.57
547.50	58017.20
547.67	58047.63
547.84	57961.03
548.00	58052.31
548.17	58220.83
548.34	58078.05
548.51	58199.76
548.67	58099.12
548.84	58110.82
549.01	57998.48
549.18	58127.20
549.34	58248.91
549.51	58328.49
549.68	58174.02
549.84	58494.67
550.01	58145.93
550.18	58159.97
550.34	58431.47
550.51	58482.97
550.68	58251.25
550.84	58134.23
551.01	58546.16
551.18	58417.43
551.34	58447.86
551.51	58504.03
551.68	58660.85
551.84	58714.68
552.01	58447.86
552.18	58419.77
552.34	58473.60
552.51	58688.93
552.68	58482.97
552.84	58695.95
553.01	58962.78
553.18	58763.83
553.34	58899.58
553.51	58639.78
553.67	58843.41
553.84	58932.35
554.01	59079.80
554.17	58848.09
554.34	59185.13
554.51	59058.74
554.67	58948.73
554.84	58967.46
555.00	58831.71
555.17	58890.22
555.33	59018.95
555.50	58810.64
555.67	59086.82
555.83	58836.39
556.00	59140.66
556.16	59341.94
556.33	59313.86
556.50	59203.85
556.66	59346.62
556.83	58986.18
556.99	59320.88
557.16	59344.28
557.32	59386.41
557.49	59351.30
557.65	59334.92
557.82	59245.98
557.98	59236.62
558.15	59419.18
558.32	59456.63
558.48	59515.14
558.65	59552.59
558.81	59585.36
558.98	59344.28
559.14	59505.78
559.31	59606.42
559.47	59730.47
559.64	59828.77
559.80	59608.76
559.97	59767.92
560.13	59599.40
560.30	59700.04
560.46	59791.33
560.63	59744.51
560.79	59674.30
560.96	59952.82
561.12	59737.49
561.29	59632.17
561.45	59756.22
561.61	59653.23
561.78	59716.43
561.94	59770.26
562.11	59819.41
562.27	59742.17
562.44	59758.56
562.60	60081.55
562.77	60023.04
562.93	59704.73
563.10	60130.70
563.26	59861.54
563.42	60203.26
563.59	60168.15
563.75	59868.56
563.92	59957.50
564.08	59934.10
564.24	60107.30
564.41	59999.63
564.57	60175.17
564.74	60048.78
564.90	60065.17
565.07	60053.47
565.23	60055.81
565.39	60018.36
565.56	60299.22
565.72	59980.91
565.88	60193.90
566.05	60027.72
566.21	60060.49
566.38	60207.94
566.54	60161.13
566.70	60229.01
566.87	60350.71
567.03	60128.36
567.19	60453.70
567.36	60409.23
567.52	60472.42
567.68	60467.74
567.85	60233.69
568.01	60561.36
568.17	60282.84
568.34	60329.65
568.50	60203.26
568.66	60374.12
568.83	60409.23
568.99	60114.32
569.15	60521.57
569.32	60296.88
569.48	60341.35
569.64	60301.56
569.81	60701.79
569.97	60374.12
570.13	60329.65
570.30	60273.48
570.46	60573.06
570.62	60259.43
570.78	60580.09
570.95	60425.61
571.11	60449.02
571.27	60460.72
571.43	60514.55
571.60	60507.53
571.76	60563.70
571.92	60622.22
572.09	60680.73
572.25	60491.15
572.41	60526.25
572.57	60570.72
572.74	60715.84
572.90	60617.53
573.06	60654.98
573.22	60491.15
573.38	60711.16
573.55	60626.90
573.71	60687.75
573.87	60554.34
574.03	60708.82
574.20	60809.46
574.36	60341.35
574.52	60720.52
574.68	60748.60
574.84	60631.58
575.01	60814.14
575.17	60800.10
575.33	60610.51
575.49	60774.35
575.65	60711.16
575.82	60762.65
575.98	60633.92
576.14	60896.06
576.30	60921.80
576.46	60860.95
576.62	60830.52
576.79	60863.29
576.95	60685.41
577.11	60860.95
577.27	60809.46
577.43	60786.05
577.59	60645.62
577.75	60753.29
577.92	60533.28
578.08	60699.45
578.24	60814.14
578.40	60886.70
578.56	61057.56
578.72	60739.24
578.88	61144.16
579.04	60959.25
579.21	60844.57
579.37	60989.68
579.53	61144.16
579.69	60727.54
579.85	60580.09
580.01	60701.79
580.17	60846.91
580.33	60954.57
580.49	60999.04
580.65	61001.38
580.82	60940.53
580.98	60718.18
581.14	60657.32
581.30	61123.09
581.46	60996.70
581.62	60914.78
581.78	60760.31
581.94	60856.27
582.10	60844.57
582.26	60622.22
582.42	60729.88
582.58	61001.38
582.74	60835.20
582.90	60898.40
583.06	60884.36
583.22	60835.20
583.38	60809.46
583.54	60821.16
583.70	61066.92
583.86	61193.31
584.02	60736.90
584.18	61132.45
584.34	61062.24
584.50	60926.49
584.66	60898.40
584.82	60928.83
584.98	61329.06
585.14	61076.28
585.30	60835.20
585.46	61146.50
585.62	61041.17
585.78	61073.94
585.94	60764.99
586.10	61043.51
586.26	61148.84
586.42	61071.60
586.58	61137.13
586.74	61022.45
586.90	60952.23
587.06	61020.11
587.22	61120.75
587.38	60903.08
587.54	61013.08
587.70	61123.09
587.86	60996.70
588.02	61069.26
588.18	61186.28
588.34	60942.87
588.49	61090.32
