SpectraSuite Data File
++++++++++++++++++++++++++++++++++++
Date: Fri Oct 25 10:44:39 EDT 2013
User: price-jones
Dark Spectrum Present: No
Reference Spectrum Present: No
Number of Sampled Component Spectra: 1
Spectrometers: USB2+H05261
Integration Time (usec): 100000 (USB2+H05261)
Spectra Averaged: 1 (USB2+H05261)
Boxcar Smoothing: 0 (USB2+H05261)
Correct for Electrical Dark: No (USB2+H05261)
Strobe/Lamp Enabled: No (USB2+H05261)
Correct for Detector Non-linearity: No (USB2+H05261)
Correct for Stray Light: No (USB2+H05261)
Number of Pixels in Processed Spectrum: 2048
>>>>>Begin Processed Spectral Data<<<<<
365.73	72.56
365.92	72.56
366.12	72.56
366.32	0.00
366.52	0.00
366.72	63.19
366.91	46.81
367.11	18.72
367.31	72.56
367.51	42.13
367.70	30.43
367.90	49.15
368.10	14.04
368.30	37.45
368.49	23.41
368.69	37.45
368.89	16.38
369.09	95.96
369.28	18.72
369.48	23.41
369.68	0.00
369.87	117.03
370.07	86.60
370.27	112.35
370.47	149.79
370.66	416.62
370.86	463.43
371.06	512.58
371.25	517.26
371.45	423.64
371.65	437.68
371.84	449.38
372.04	510.24
372.24	484.49
372.44	498.53
372.63	449.38
372.83	454.06
373.03	444.70
373.22	437.68
373.42	475.13
373.62	498.53
373.81	552.37
374.01	550.03
374.21	521.94
374.40	493.85
374.60	547.69
374.79	540.66
374.99	482.15
375.19	573.43
375.38	592.16
375.58	606.20
375.78	582.79
375.97	533.64
376.17	655.35
376.37	557.05
376.56	528.96
376.76	512.58
376.95	564.07
377.15	585.13
377.35	535.98
377.54	608.54
377.74	592.16
377.93	552.37
378.13	634.29
378.33	667.05
378.52	589.82
378.72	512.58
378.91	573.43
379.11	620.24
379.31	585.13
379.50	601.52
379.70	599.18
379.89	638.97
380.09	580.45
380.28	615.56
380.48	638.97
380.68	617.90
380.87	678.76
381.07	645.99
381.26	669.39
381.46	706.84
381.65	620.24
381.85	629.60
382.04	643.65
382.24	664.71
382.43	624.92
382.63	657.69
382.83	676.41
383.02	645.99
383.22	716.20
383.41	692.80
383.61	664.71
383.80	727.91
384.00	683.44
384.19	716.20
384.39	737.27
384.58	805.14
384.78	702.16
384.97	720.88
385.17	793.44
385.36	727.91
385.56	718.54
385.75	779.40
385.95	737.27
386.14	720.88
386.34	767.70
386.53	727.91
386.72	727.91
386.92	786.42
387.11	791.10
387.31	833.23
387.50	732.59
387.70	765.36
387.89	863.66
388.09	800.46
388.28	823.87
388.48	760.67
388.67	926.85
388.86	830.89
389.06	821.53
389.25	887.06
389.45	891.74
389.64	880.04
389.84	866.00
390.03	833.23
390.22	877.70
390.42	905.79
390.61	931.53
390.81	966.64
391.00	952.60
391.19	905.79
391.39	912.81
391.58	976.00
391.78	922.17
391.97	1004.09
392.16	947.92
392.36	894.08
392.55	903.45
392.75	994.73
392.94	922.17
393.13	924.51
393.33	1008.77
393.52	973.66
393.71	1006.43
393.91	992.39
394.10	1069.62
394.29	1001.75
394.49	994.73
394.68	1097.71
394.88	1064.94
395.07	1153.88
395.26	1135.16
395.46	997.07
395.65	1074.31
395.84	1186.65
396.04	1139.84
396.23	1078.99
396.42	1093.03
396.62	1029.84
396.81	1060.26
397.00	1177.29
397.19	1226.44
397.39	1217.08
397.58	1188.99
397.77	1289.64
397.97	1252.19
398.16	1249.85
398.35	1317.72
398.55	1352.83
398.74	1348.15
398.93	1336.45
399.12	1301.34
399.32	1357.51
399.51	1301.34
399.70	1409.00
399.90	1350.49
400.09	1301.34
400.28	1348.15
400.47	1380.92
400.67	1357.51
400.86	1387.94
401.05	1387.94
401.24	1465.18
401.44	1568.16
401.63	1565.82
401.82	1561.14
402.01	1612.63
402.21	1469.86
402.40	1593.90
402.59	1476.88
402.78	1523.69
402.97	1572.84
403.17	1612.63
403.36	1568.16
403.55	1586.88
403.74	1666.46
403.93	1685.19
404.13	1727.32
404.32	1701.57
404.51	1603.27
404.70	1633.69
404.89	1657.10
405.09	1734.34
405.28	1762.42
405.47	1706.25
405.66	1750.72
405.85	1706.25
406.05	1682.85
406.24	1776.47
406.43	1694.55
406.62	1856.04
406.81	1825.62
407.00	1774.13
407.20	1757.74
407.39	1827.96
407.58	1846.68
407.77	1895.83
407.96	1842.00
408.15	1954.35
408.34	1977.75
408.54	2005.84
408.73	2024.56
408.92	2047.97
409.11	1984.77
409.30	2083.08
409.49	1928.60
409.68	1984.77
409.87	2113.50
410.07	2052.65
410.26	2111.16
410.45	2141.59
410.64	2106.48
410.83	2043.29
411.02	2204.78
411.21	2218.83
411.40	2246.91
411.59	2300.75
411.78	2263.30
411.98	2291.38
412.17	2286.70
412.36	2382.67
412.55	2445.86
412.74	2431.82
412.93	2420.11
413.12	2284.36
413.31	2443.52
413.50	2431.82
413.69	2483.31
413.88	2487.99
414.07	2633.10
414.26	2546.50
414.45	2597.99
414.64	2644.81
414.83	2619.06
415.02	2665.87
415.22	2708.00
415.41	2649.49
415.60	2764.17
415.79	2839.07
415.98	2810.98
416.17	2761.83
416.36	2792.26
416.55	2803.96
416.74	2942.05
416.93	2822.69
417.12	2888.22
417.31	2937.37
417.50	2881.20
417.69	2995.89
417.88	3056.74
418.07	2944.39
418.26	3098.87
418.45	3002.91
418.64	3251.00
418.83	3194.83
419.02	3063.76
419.21	3243.98
419.39	3279.09
419.58	3171.43
419.77	3164.40
419.96	3297.81
420.15	3265.05
420.34	3197.17
420.53	3349.31
420.72	3279.09
420.91	3307.18
421.10	3251.00
421.29	3382.07
421.48	3361.01
421.67	3424.20
421.86	3414.84
422.05	3410.16
422.24	3393.78
422.43	3372.71
422.61	3403.14
422.80	3471.01
422.99	3524.85
423.18	3548.25
423.37	3545.91
423.56	3555.27
423.75	3569.32
423.94	3616.13
424.13	3262.71
424.32	3379.73
424.50	3566.98
424.69	3557.61
424.88	3576.34
425.07	3559.95
425.26	3578.68
425.45	3463.99
425.64	3510.80
425.83	3522.51
426.01	3534.21
426.20	3524.85
426.39	3627.83
426.58	3602.08
426.77	3454.63
426.96	3557.61
427.15	3459.31
427.33	3660.60
427.52	3669.96
427.71	3616.13
427.90	3751.88
428.09	3723.79
428.28	3583.36
428.46	3681.66
428.65	3719.11
428.84	3733.15
429.03	3794.01
429.22	3679.32
429.40	3852.52
429.59	3719.11
429.78	3665.28
429.97	3705.07
430.16	3716.77
430.34	3871.25
430.53	3833.80
430.72	3925.08
430.91	3768.26
431.10	3812.73
431.28	3990.61
431.47	4109.98
431.66	4145.09
431.85	4018.70
432.03	4032.74
432.22	4079.55
432.41	4007.00
432.60	4166.15
432.79	4201.26
432.97	4262.12
433.16	4269.14
433.35	3995.29
433.54	4173.18
433.72	4205.94
433.91	4203.60
434.10	4266.80
434.28	4304.25
434.47	4337.01
434.66	4458.72
434.85	4423.61
435.03	4404.89
435.22	4334.67
435.41	4528.94
435.59	4344.03
435.78	4531.28
435.97	4582.77
436.16	4561.70
436.34	4610.86
436.53	4610.86
436.72	4725.54
436.90	4554.68
437.09	4652.98
437.28	4514.89
437.46	4648.30
437.65	4557.02
437.84	4786.40
438.02	4784.06
438.21	4720.86
438.40	4627.24
438.58	4819.16
438.77	4896.40
438.96	4800.44
439.14	4959.60
439.33	5025.13
439.52	5137.48
439.70	5111.73
439.89	5191.31
440.08	5142.16
440.26	5149.18
440.45	5118.75
440.63	5294.29
440.82	5277.91
441.01	5376.21
441.19	5387.91
441.38	5434.72
441.57	5308.34
441.75	5533.03
441.94	5643.03
442.12	5434.72
442.31	5699.20
442.50	5579.84
442.68	5633.67
442.87	5607.92
443.05	5682.82
443.24	5727.29
443.43	5820.91
443.61	5668.78
443.80	5825.59
443.98	5827.93
444.17	5392.59
444.35	5872.40
444.54	5975.39
444.73	5921.56
444.91	5767.08
445.10	5968.37
445.28	5792.83
445.47	5743.67
445.65	5841.98
445.84	5820.91
446.02	5865.38
446.21	5806.87
446.39	5830.27
446.58	5872.40
446.77	5951.98
446.95	5858.36
447.14	5748.36
447.32	5980.07
447.51	5942.62
447.69	5893.47
447.88	5785.80
448.06	5926.24
448.25	5989.43
448.43	6005.81
448.62	5886.45
448.80	5954.32
448.99	6167.31
449.17	5996.45
449.36	6167.31
449.54	6111.14
449.73	6202.42
449.91	6061.99
450.10	6452.86
450.28	6354.55
450.46	6396.68
450.65	6424.77
450.83	6452.86
451.02	6349.87
451.20	6368.60
451.39	6211.78
451.57	6188.38
451.76	6356.90
451.94	6342.85
452.13	6438.81
452.31	6413.07
452.49	6338.17
452.68	6403.71
452.86	6298.38
453.05	6626.06
453.23	6497.33
453.42	6420.09
453.60	6518.39
453.78	6633.08
453.97	6420.09
454.15	6602.65
454.34	6651.80
454.52	6633.08
454.70	6707.98
454.89	6733.72
455.07	6782.87
455.26	6860.11
455.44	7061.40
455.62	6871.81
455.81	6855.43
455.99	6937.35
456.17	6909.26
456.36	6953.73
456.54	7000.54
456.73	7105.87
456.91	7225.23
457.09	7250.98
457.28	7206.51
457.46	7206.51
457.64	7272.04
457.83	7328.22
458.01	7042.67
458.19	7372.69
458.38	7400.77
458.56	7454.61
458.74	7405.46
458.93	7382.05
459.11	7506.10
459.29	7332.90
459.48	7417.16
459.66	7276.73
459.84	7597.38
460.03	7609.08
460.21	7461.63
460.39	7695.68
460.57	7644.19
460.76	7779.94
460.94	7726.11
461.12	7833.77
461.31	7665.25
461.49	7700.36
461.67	7733.13
461.85	7941.44
462.04	7911.01
462.22	7976.55
462.40	8037.40
462.59	7971.86
462.77	7770.58
462.95	8039.74
463.13	8135.70
463.32	8095.91
463.50	7941.44
463.68	8016.33
463.86	7971.86
464.05	7988.25
464.23	8079.53
464.41	8051.44
464.59	7995.27
464.78	8166.13
464.96	8273.79
465.14	8037.40
465.32	8372.10
465.50	8299.54
465.69	8320.60
465.87	8374.44
466.05	8311.24
466.23	8301.88
466.41	8243.37
466.60	8521.89
466.78	8280.82
466.96	8336.99
467.14	8210.60
467.32	8503.17
467.51	8442.31
467.69	8318.26
467.87	8540.61
468.05	8573.38
468.23	8585.08
468.41	8484.44
468.60	8725.52
468.78	8774.67
468.96	8435.29
469.14	8716.16
469.32	8758.28
469.50	8521.89
469.69	8882.33
469.87	8912.76
470.05	8999.36
470.23	8720.84
470.41	9076.60
470.59	8931.48
470.77	8786.37
470.95	9034.47
471.14	8940.85
471.32	8947.87
471.50	9221.71
471.68	9172.56
471.86	9210.01
472.04	9415.98
472.22	9481.51
472.40	9231.07
472.58	9415.98
472.77	9392.57
472.95	9724.93
473.13	9781.10
473.31	9776.42
473.49	9273.20
473.67	9558.75
473.85	9745.99
474.03	9839.61
474.21	9823.23
474.39	10113.45
474.57	9687.48
474.75	9795.14
474.93	10015.15
475.12	9832.59
475.30	10052.60
475.48	10106.43
475.66	10300.70
475.84	10204.74
476.02	10202.40
476.20	10445.81
476.38	10260.91
476.56	10731.36
476.74	10562.84
476.92	10649.44
477.10	10640.08
477.28	10909.24
477.46	10930.30
477.64	10764.12
477.82	11173.72
478.00	11342.24
478.18	11370.32
478.36	11557.57
478.54	11323.51
478.72	11337.56
478.90	11644.17
479.08	11578.63
479.26	11777.58
479.44	12081.85
479.62	11798.64
479.80	12138.02
479.98	12107.59
480.16	12168.45
480.34	12194.19
480.52	12573.36
480.70	12400.16
480.88	12053.76
481.06	12596.76
481.24	12414.20
481.41	12760.60
481.59	13078.91
481.77	12971.25
481.95	12865.92
482.13	13064.87
482.31	13132.75
482.49	13345.73
482.67	13451.06
482.85	13699.16
483.03	13593.83
483.21	13764.69
483.39	13860.65
483.57	13891.08
483.74	13991.72
483.92	14263.22
484.10	14211.73
484.28	14567.49
484.46	14801.55
484.64	14843.68
484.82	14560.47
485.00	14773.46
485.18	15040.28
485.35	15115.18
485.53	14991.13
485.71	14764.10
485.89	15396.04
486.07	15410.09
486.25	15176.03
486.43	15602.01
486.61	15695.63
486.78	15527.11
486.96	16123.95
487.14	16299.49
487.32	15941.39
487.50	16407.16
487.68	16556.95
487.85	16472.69
488.03	16762.92
488.21	17029.74
488.39	16919.73
488.57	17114.00
488.75	17020.38
488.92	17642.96
489.10	17715.51
489.28	17579.76
489.46	17982.34
489.64	17907.44
489.81	18153.20
489.99	18274.90
490.17	18281.92
490.35	18562.79
490.53	18597.90
490.70	18654.07
490.88	18618.96
491.06	18686.84
491.24	18972.38
491.41	18717.26
491.59	19143.24
491.77	18946.64
491.95	19227.50
492.13	19536.45
492.30	19604.33
492.48	19714.33
492.66	19482.62
492.84	19850.08
493.01	19817.32
493.19	19990.52
493.37	20659.91
493.54	20409.47
493.72	20514.80
493.90	20673.95
494.08	20924.39
494.25	21029.71
494.43	20992.26
494.61	21130.36
494.79	21495.48
494.96	21331.64
495.14	21282.49
495.32	21549.31
495.49	21668.68
495.67	22134.45
495.85	21923.80
496.02	22288.92
496.20	22162.53
496.38	22506.59
496.55	22450.42
496.73	22609.58
496.91	22466.80
497.09	22998.10
497.26	22752.35
497.44	22939.59
497.62	23028.53
497.79	23365.57
497.97	23241.52
498.14	23297.69
498.32	23515.36
498.50	23396.00
498.67	23859.42
498.85	23618.35
499.03	24163.69
499.20	23955.38
499.38	24269.01
499.56	24102.84
499.73	24587.33
499.91	24383.70
500.08	24191.78
500.26	24271.36
500.44	24589.67
500.61	24716.06
500.79	24507.75
500.97	24870.53
501.14	25139.69
501.32	24875.21
501.49	24783.93
501.67	24847.13
501.84	25422.90
502.02	25249.70
502.20	25511.84
502.37	25781.00
502.55	25612.48
502.72	25586.74
502.90	25844.20
503.07	25628.87
503.25	26089.95
503.43	25579.71
503.60	25970.58
503.78	25834.83
503.95	25902.71
504.13	26024.42
504.30	26396.56
504.48	26197.62
504.65	26703.17
504.83	26780.41
505.01	26616.57
505.18	27026.17
505.36	27316.39
505.53	27037.87
505.71	27449.80
505.88	27597.26
506.06	26991.06
506.23	27227.45
506.41	26948.93
506.58	27372.57
506.76	27508.32
506.93	27513.00
507.11	27807.90
507.28	27784.50
507.46	27377.25
507.63	28175.37
507.81	27852.38
507.98	27861.74
508.16	28137.92
508.33	28388.36
508.50	28126.22
508.68	28231.54
508.85	28776.89
509.03	28446.87
509.20	28769.86
509.38	28872.85
509.55	28912.64
509.73	29167.76
509.90	29263.72
510.08	29123.29
510.25	28922.00
510.42	29420.53
510.60	28919.66
510.77	29390.11
510.95	29277.76
511.12	29446.28
511.30	29598.41
511.47	30029.07
511.64	29883.96
511.82	29722.46
511.99	29411.17
512.17	29998.65
512.34	29500.11
512.51	30085.25
512.69	30831.88
512.86	30143.76
513.04	30529.95
513.21	30429.30
513.38	30661.02
513.56	30574.42
513.73	30295.89
513.90	31136.15
514.08	30593.14
514.25	31002.74
514.43	30913.80
514.60	30962.95
514.77	30782.73
514.95	30916.14
515.12	31026.14
515.29	30675.06
515.47	30855.28
515.64	31573.83
515.81	31185.30
515.99	31108.06
516.16	31608.93
516.33	31419.35
516.51	31487.23
516.68	31468.50
516.85	31234.45
517.03	31634.68
517.20	31744.69
517.37	31990.44
517.54	31913.20
517.72	32217.47
517.89	31943.63
518.06	32002.14
518.24	32517.06
518.41	31824.26
518.58	31838.31
518.75	32086.40
518.93	32802.61
519.10	32456.21
519.27	32371.95
519.45	32629.41
519.62	32814.31
519.79	32488.98
519.96	33113.90
520.14	32783.88
520.31	32891.55
520.48	33153.69
520.65	32898.57
520.83	33310.50
521.00	33666.27
521.17	33289.44
521.34	33399.44
521.52	33778.61
521.69	33502.43
521.86	33846.49
522.03	33935.43
522.20	33708.40
522.38	34101.61
522.55	34258.42
522.72	34082.88
522.89	33879.25
523.07	34082.88
523.24	34155.44
523.41	34206.93
523.58	34408.22
523.75	34754.61
523.92	34958.24
524.10	34815.47
524.27	34665.67
524.44	34721.85
524.61	34822.49
524.78	35377.20
524.96	34923.13
525.13	35042.50
525.30	35014.41
525.47	35414.65
525.64	35489.54
525.81	35108.04
525.98	35253.15
526.16	35241.45
526.33	35295.28
526.50	35519.97
526.67	35168.89
526.84	35388.90
527.01	35178.25
527.18	35402.94
527.36	35725.94
527.53	35756.36
527.70	35695.51
527.87	35732.96
528.04	35838.28
528.21	35957.65
528.38	36004.46
528.55	35910.84
528.72	36341.50
528.89	36629.38
529.07	36306.39
529.24	35948.29
529.41	36332.14
529.58	36362.56
529.75	36180.00
529.92	36503.00
530.09	36765.14
530.26	36631.72
530.43	37024.93
530.60	36320.43
530.77	36659.81
530.94	36914.93
531.11	37368.99
531.28	37024.93
531.46	36732.37
531.63	37181.75
531.80	37191.11
531.97	37277.71
532.14	36893.86
532.31	37401.76
532.48	37127.92
532.65	37305.80
532.82	37163.03
532.99	37109.19
533.16	37102.17
533.33	37202.82
533.50	37289.42
533.67	37563.26
533.84	37605.39
534.01	37462.61
534.18	37544.53
534.35	37944.76
534.52	37890.93
534.69	38155.41
534.86	38010.30
535.03	38045.41
535.20	37846.46
535.37	38527.56
535.54	38225.63
535.71	38302.87
535.88	38693.74
536.05	37930.72
536.22	38120.31
536.38	38234.99
536.55	38300.53
536.72	38078.18
536.89	38209.25
537.06	38522.88
537.23	38469.04
537.40	38888.00
537.57	38417.55
537.74	38419.89
537.91	38642.24
538.08	39040.14
538.25	38574.37
538.42	38871.62
538.59	38899.70
538.75	38242.01
538.92	38562.67
539.09	38892.68
539.26	39222.70
539.43	39070.56
539.60	38450.32
539.77	39028.43
539.94	39344.41
540.11	39192.27
540.28	39171.21
540.44	39342.06
540.61	39398.24
540.78	39082.27
540.95	39438.03
541.12	38941.83
541.29	39571.44
541.46	39505.90
541.62	39924.86
541.79	39887.41
541.96	39241.42
542.13	39313.98
542.30	39606.55
542.47	40098.06
542.63	39615.91
542.80	39725.91
542.97	39861.66
543.14	40231.47
543.31	39880.39
543.48	40172.96
543.64	40840.01
543.81	40184.66
543.98	40334.45
544.15	40481.91
544.32	40601.27
544.48	40634.04
544.65	40179.98
544.82	40591.91
544.99	40343.81
545.16	40875.12
545.32	40128.48
545.49	40706.60
545.66	40535.74
545.83	41123.21
546.00	40840.01
546.16	40912.56
546.33	40488.93
546.50	40261.90
546.67	40924.27
546.83	40240.83
547.00	40844.69
547.17	40980.44
547.34	40825.96
547.50	40847.03
547.67	41291.73
547.84	41242.58
548.00	41127.89
548.17	41294.07
548.34	41322.16
548.51	41392.37
548.67	41687.28
548.84	41373.65
549.01	41347.90
549.18	41539.83
549.34	41645.15
549.51	41397.06
549.68	41750.48
549.84	41677.92
550.01	41591.32
550.18	41659.20
550.34	41745.80
550.51	41869.84
550.68	41834.74
550.84	41020.23
551.01	41841.76
551.18	41635.79
551.34	41741.11
551.51	42279.44
551.68	42190.50
551.84	41773.88
552.01	41694.30
552.18	41848.78
552.34	41846.44
552.51	41783.24
552.68	41471.95
552.84	42337.95
553.01	42012.62
553.18	41914.31
553.34	42082.83
553.51	42096.88
553.67	42005.59
553.84	43079.90
554.01	42651.58
554.17	42632.86
554.34	42476.04
554.51	42295.82
554.67	42581.37
554.84	42492.43
555.00	42312.20
555.17	42085.17
555.33	42586.05
555.50	42330.93
555.67	42433.91
555.83	42611.79
556.00	42902.02
556.16	43091.60
556.33	42497.11
556.50	42595.41
556.66	42595.41
556.83	42438.59
556.99	43241.40
557.16	43126.71
557.32	43061.18
557.49	43152.46
557.65	42422.21
557.82	42490.09
557.98	42754.57
558.15	42820.10
558.32	42827.12
558.48	42838.83
558.65	42799.04
558.81	43260.12
558.98	42934.79
559.14	42600.09
559.31	42829.46
559.47	43037.77
559.64	43482.47
559.80	43536.30
559.97	43105.65
560.13	42944.15
560.30	42682.01
560.46	42923.08
560.63	43250.76
560.79	43299.91
560.96	43374.81
561.12	42932.45
561.29	43793.76
561.45	43470.77
561.61	42960.53
561.78	43416.94
561.94	42813.08
562.11	43222.67
562.27	43246.08
562.44	43157.14
562.60	43641.63
562.77	43346.72
562.93	43196.93
563.10	43395.87
563.26	43295.23
563.42	43676.74
563.59	43524.60
563.75	43267.14
563.92	43517.58
564.08	43517.58
564.24	43791.42
564.41	43484.81
564.57	43517.58
564.74	43725.89
564.90	43061.18
565.07	43618.22
565.23	43658.01
565.39	43892.07
565.56	43690.78
565.72	43159.48
565.88	43756.32
566.05	43311.61
566.21	43721.21
566.38	43995.05
566.54	43646.31
566.70	44179.95
566.87	43824.19
567.03	43831.21
567.19	44189.31
567.36	43847.60
567.52	43803.13
567.68	44329.75
567.85	43454.39
568.01	43938.88
568.17	43557.37
568.34	43683.76
568.50	43236.72
568.66	43700.14
568.83	43931.86
568.99	43714.19
569.15	43714.19
569.32	43648.65
569.48	43353.74
569.64	44311.02
569.81	44383.58
569.97	43686.10
570.13	43981.01
570.30	43351.40
570.46	43971.64
570.62	43971.64
570.78	43962.28
570.95	43611.20
571.11	43997.39
571.27	44034.84
571.43	43903.77
571.60	43548.01
571.76	43800.79
571.92	43796.10
572.09	43927.17
572.25	44163.57
572.41	43812.49
572.57	44257.19
572.74	44493.58
572.90	44144.84
573.06	44205.70
573.22	43658.01
573.38	43952.92
573.55	44182.29
573.71	44306.34
573.87	44186.97
574.03	43765.68
574.20	44004.41
574.36	44275.91
574.52	44046.54
574.68	44362.51
574.84	44053.56
575.01	44332.09
575.17	43899.09
575.33	44074.63
575.49	44009.09
575.65	43976.33
575.82	44512.31
575.98	44208.04
576.14	44229.10
576.30	44147.18
576.46	44067.61
576.62	43779.72
576.79	43821.85
576.95	43861.64
577.11	44233.78
577.27	44388.26
577.43	44081.65
577.59	43901.43
577.75	43622.90
577.92	43725.89
578.08	44135.48
578.24	43959.94
578.40	43796.10
578.56	44294.64
578.72	43756.32
578.88	44425.71
579.04	44247.83
579.21	43995.05
579.37	44390.60
579.53	44402.30
579.69	44058.24
579.85	44177.61
580.01	44779.13
580.17	44179.95
580.33	44425.71
580.49	44399.96
580.65	44435.07
580.82	44294.64
580.98	44067.61
581.14	44032.50
581.30	44254.85
581.46	44425.71
581.62	44502.95
581.78	44055.90
581.94	44669.12
582.10	44479.54
582.26	44278.25
582.42	43835.89
582.58	44528.69
582.74	44156.55
582.90	44526.35
583.06	44339.11
583.22	44643.38
583.38	44369.54
583.54	44474.86
583.70	44231.44
583.86	44465.50
584.02	43906.11
584.18	44495.92
584.34	44542.74
584.50	44016.11
584.66	44304.00
584.82	43845.26
584.98	44975.73
585.14	44201.02
585.30	44098.03
585.46	44498.26
585.62	44285.28
585.78	44257.19
585.94	44266.55
586.10	44694.87
586.26	43927.17
586.42	44229.10
586.58	44605.93
586.74	44414.01
586.90	44315.70
587.06	44350.81
587.22	44299.32
587.38	44254.85
587.54	44311.02
587.70	44453.79
587.86	44449.11
588.02	44428.05
588.18	44067.61
588.34	44409.32
588.49	43959.94
588.65	43842.92
588.81	44189.31
588.97	44189.31
589.13	44343.79
589.29	44374.22
589.45	44172.93
589.61	44449.11
589.77	44456.14
589.93	44715.93
590.08	45160.64
590.24	44669.12
590.40	44505.29
