SpectraSuite Data File
++++++++++++++++++++++++++++++++++++
Date: Fri Oct 25 11:23:29 EDT 2013
User: price-jones
Dark Spectrum Present: No
Reference Spectrum Present: No
Number of Sampled Component Spectra: 1
Spectrometers: USB2+H05261
Integration Time (usec): 100000 (USB2+H05261)
Spectra Averaged: 1 (USB2+H05261)
Boxcar Smoothing: 0 (USB2+H05261)
Correct for Electrical Dark: No (USB2+H05261)
Strobe/Lamp Enabled: No (USB2+H05261)
Correct for Detector Non-linearity: No (USB2+H05261)
Correct for Stray Light: No (USB2+H05261)
Number of Pixels in Processed Spectrum: 2048
>>>>>Begin Processed Spectral Data<<<<<
365.73	283.20
365.92	283.20
366.12	283.20
366.32	142.77
366.52	149.79
366.72	147.45
366.91	91.28
367.11	126.39
367.31	152.13
367.51	135.75
367.70	114.69
367.90	91.28
368.10	145.11
368.30	156.82
368.49	140.43
368.69	128.73
368.89	102.98
369.09	135.75
369.28	166.18
369.48	208.31
369.68	180.22
369.87	173.20
370.07	215.33
370.27	224.69
370.47	315.97
370.66	613.22
370.86	594.50
371.06	711.52
371.25	709.18
371.45	650.67
371.65	699.82
371.84	681.10
372.04	706.84
372.24	683.44
372.44	760.67
372.63	732.59
372.83	748.97
373.03	777.06
373.22	678.76
373.42	809.83
373.62	730.25
373.81	713.86
374.01	802.80
374.21	800.46
374.40	835.57
374.60	828.55
374.79	833.23
374.99	751.31
375.19	788.76
375.38	765.36
375.58	805.14
375.78	798.12
375.97	847.27
376.17	903.45
376.37	767.70
376.56	830.89
376.76	830.89
376.95	777.06
377.15	833.23
377.35	882.38
377.54	915.15
377.74	931.53
377.93	894.08
378.13	903.45
378.33	997.07
378.52	964.30
378.72	1032.18
378.91	968.98
379.11	980.68
379.31	945.58
379.50	931.53
379.70	1093.03
379.89	1015.79
380.09	947.92
380.28	1029.84
380.48	954.94
380.68	1029.84
380.87	961.96
381.07	978.34
381.26	983.02
381.46	978.34
381.65	1053.24
381.85	1034.52
382.04	1048.56
382.24	1060.26
382.43	1025.15
382.63	997.07
382.83	1078.99
383.02	1130.48
383.22	1062.60
383.41	1048.56
383.61	1067.28
383.80	1184.31
384.00	1071.97
384.19	1078.99
384.39	1095.37
384.58	1102.39
384.78	1123.46
384.97	1104.73
385.17	1114.10
385.36	1139.84
385.56	1160.91
385.75	1130.48
385.95	1128.14
386.14	1118.78
386.34	1181.97
386.53	1238.14
386.72	1196.01
386.92	1196.01
387.11	1301.34
387.31	1219.42
387.50	1240.48
387.70	1289.64
387.89	1240.48
388.09	1261.55
388.28	1299.00
388.48	1341.13
388.67	1275.59
388.86	1401.98
389.06	1345.81
389.25	1331.76
389.45	1203.04
389.64	1343.47
389.84	1387.94
390.03	1357.51
390.22	1362.19
390.42	1317.72
390.61	1380.92
390.81	1373.89
391.00	1490.92
391.19	1397.30
391.39	1397.30
391.58	1483.90
391.78	1439.43
391.97	1537.73
392.16	1437.09
392.36	1425.39
392.55	1446.45
392.75	1439.43
392.94	1549.43
393.13	1612.63
393.33	1570.50
393.52	1530.71
393.71	1544.75
393.91	1563.48
394.10	1591.56
394.29	1556.46
394.49	1638.38
394.68	1579.86
394.88	1624.33
395.07	1636.03
395.26	1596.25
395.46	1762.42
395.65	1769.44
395.84	1678.16
396.04	1741.36
396.23	1809.23
396.42	1774.13
396.62	1717.95
396.81	1724.97
397.00	1734.34
397.19	1755.40
397.39	1884.13
397.58	1867.75
397.77	1720.29
397.97	1884.13
398.16	1895.83
398.35	1902.86
398.55	1839.66
398.74	1895.83
398.93	1865.41
399.12	1902.86
399.32	1982.43
399.51	1846.68
399.70	2057.33
399.90	1902.86
400.09	1982.43
400.28	2036.27
400.47	2029.24
400.67	2045.63
400.86	1998.82
401.05	2047.97
401.24	2038.61
401.44	2200.10
401.63	2197.76
401.82	2218.83
402.01	2101.80
402.21	2134.57
402.40	2188.40
402.59	2263.30
402.78	2211.81
402.97	2143.93
403.17	2211.81
403.36	2321.81
403.55	2331.17
403.74	2279.68
403.93	2303.09
404.13	2445.86
404.32	2431.82
404.51	2422.45
404.70	2340.54
404.89	2408.41
405.09	2377.98
405.28	2427.14
405.47	2576.93
405.66	2497.35
405.85	2548.84
406.05	2518.42
406.24	2518.42
406.43	2471.61
406.62	2637.78
406.81	2658.85
407.00	2635.44
407.20	2509.05
407.39	2700.98
407.58	2691.62
407.77	2736.09
407.96	2679.91
408.15	2726.72
408.34	2785.24
408.54	2705.66
408.73	2874.18
408.92	2899.92
409.11	2850.77
409.30	2864.82
409.49	2928.01
409.68	2892.90
409.87	2944.39
410.07	2913.97
410.26	2895.24
410.45	2972.48
410.64	3035.67
410.83	2967.80
411.02	3131.64
411.21	3038.02
411.40	3075.46
411.59	3204.19
411.78	3248.66
411.98	3035.67
412.17	3171.43
412.36	3379.73
412.55	3370.37
412.74	3417.18
412.93	3391.44
413.12	3379.73
413.31	3630.17
413.50	3524.85
413.69	3496.76
413.88	3562.30
414.07	3531.87
414.26	3674.64
414.45	3681.66
414.64	3758.90
414.83	3894.65
415.02	3840.82
415.22	3796.35
415.41	3843.16
415.60	3691.02
415.79	3960.19
415.98	3981.25
416.17	3929.76
416.36	3983.59
416.55	3941.46
416.74	4065.51
416.93	4025.72
417.12	4095.94
417.31	4208.28
417.50	4168.49
417.69	4397.87
417.88	4383.82
418.07	4205.94
418.26	4306.59
418.45	4353.40
418.64	4437.66
418.83	4341.69
419.02	4313.61
419.21	4601.49
419.39	4514.89
419.58	4641.28
419.77	4475.10
419.96	4615.54
420.15	4451.70
420.34	4645.96
420.53	4641.28
420.72	4674.05
420.91	4620.22
421.10	4660.01
421.29	4786.40
421.48	4662.35
421.67	4643.62
421.86	4823.84
422.05	4840.23
422.24	4777.03
422.43	4966.62
422.61	5004.07
422.80	4851.93
422.99	4910.44
423.18	5001.72
423.37	5018.11
423.56	4821.50
423.75	4999.38
423.94	4980.66
424.13	4547.66
424.32	5001.72
424.50	5001.72
424.69	5078.96
424.88	4835.55
425.07	4938.53
425.26	5001.72
425.45	4994.70
425.64	4915.12
425.83	5055.56
426.01	4985.34
426.20	5097.69
426.39	5029.81
426.58	4992.36
426.77	5076.62
426.96	5195.99
427.15	5111.73
427.33	5254.50
427.52	5320.04
427.71	5261.52
427.90	5144.50
428.09	5294.29
428.28	5263.86
428.46	5219.39
428.65	5376.21
428.84	5746.02
429.03	5518.98
429.22	5334.08
429.40	5427.70
429.59	5476.85
429.78	5406.64
429.97	5434.72
430.16	5406.64
430.34	5586.86
430.53	5750.70
430.72	5823.25
430.91	5516.64
431.10	5530.69
431.28	5713.25
431.47	5797.51
431.66	6066.67
431.85	5776.44
432.03	5991.77
432.22	5806.87
432.41	5914.53
432.60	5928.58
432.79	5846.66
432.97	5940.28
433.16	5949.64
433.35	6024.54
433.54	6118.16
433.72	6218.80
433.91	6153.27
434.10	6094.76
434.28	6113.48
434.47	6080.71
434.66	6221.14
434.85	6452.86
435.03	6356.90
435.22	6377.96
435.41	6473.92
435.59	6520.73
435.78	6354.55
435.97	6539.46
436.16	6520.73
436.34	6462.22
436.53	6473.92
436.72	6600.31
436.90	6494.99
437.09	6707.98
437.28	6424.77
437.46	6609.67
437.65	6595.63
437.84	6909.26
438.02	6693.93
438.21	6597.97
438.40	6684.57
438.58	7260.34
438.77	7155.02
438.96	6817.98
439.14	7089.48
439.33	7178.42
439.52	7358.64
439.70	7206.51
439.89	7426.52
440.08	7318.86
440.26	7428.86
440.45	7176.08
440.63	7461.63
440.82	7698.02
441.01	7384.39
441.19	7702.70
441.38	7761.22
441.57	7976.55
441.75	7819.73
441.94	8107.62
442.12	8119.32
442.31	8039.74
442.50	8091.23
442.68	7885.26
442.87	8081.87
443.05	7819.73
443.24	8152.09
443.43	8100.59
443.61	8325.29
443.80	8465.72
443.98	7903.99
444.17	7761.22
444.35	8290.18
444.54	8463.38
444.73	8294.86
444.91	8196.56
445.10	8456.36
445.28	8318.26
445.47	8341.67
445.65	8472.74
445.84	8531.25
446.02	8348.69
446.21	8393.16
446.39	8475.08
446.58	8486.78
446.77	8582.74
446.95	8320.60
447.14	8498.49
447.32	8449.33
447.51	8463.38
447.69	8573.38
447.88	8578.06
448.06	8421.25
448.25	8655.30
448.43	8545.30
448.62	8519.55
448.80	8390.82
448.99	8758.28
449.17	8823.82
449.36	8676.37
449.54	8945.53
449.73	8971.27
449.91	9053.19
450.10	9001.70
450.28	9109.36
450.46	9111.71
450.65	8901.06
450.83	9011.06
451.02	9006.38
451.20	9186.60
451.39	9135.11
451.57	9242.78
451.76	9022.77
451.94	9132.77
452.13	9287.25
452.31	9401.93
452.49	9128.09
452.68	9338.74
452.86	9268.52
453.05	9509.60
453.23	9352.78
453.42	9439.38
453.60	9399.59
453.78	9694.50
453.97	9497.89
454.15	9486.19
454.34	9575.13
454.52	9753.01
454.70	9933.23
454.89	9703.86
455.07	9699.18
455.26	9760.03
455.44	10080.69
455.62	9867.70
455.81	10094.73
455.99	10171.97
456.17	10094.73
456.36	10101.75
456.54	9982.38
456.73	10310.06
456.91	10448.15
457.09	10466.88
457.28	10492.62
457.46	10380.28
457.64	10396.66
457.83	10621.35
458.01	10473.90
458.19	10768.80
458.38	10665.82
458.56	10675.18
458.74	10654.12
458.93	10761.78
459.11	10813.28
459.29	10738.38
459.48	10923.28
459.66	10810.93
459.84	10810.93
460.03	11042.65
460.21	10909.24
460.39	11052.01
460.57	10993.50
460.76	10984.13
460.94	11262.66
461.12	11262.66
461.31	11234.57
461.49	11136.27
461.67	11159.67
461.85	11569.27
462.04	11180.74
462.22	11971.84
462.40	11447.56
462.59	11658.21
462.77	11470.97
462.95	11571.61
463.13	11609.06
463.32	11279.04
463.50	11728.42
463.68	11838.43
463.86	11798.64
464.05	11733.11
464.23	11716.72
464.41	11946.09
464.59	11749.49
464.78	12203.55
464.96	12039.72
465.14	11868.86
465.32	12112.27
465.50	12060.78
465.69	12245.68
465.87	12074.82
466.05	12159.08
466.23	12168.45
466.41	12297.17
466.60	12395.48
466.78	12084.19
466.96	12203.55
467.14	12510.16
467.32	12379.09
467.51	12645.91
467.69	12219.94
467.87	12358.03
468.05	12552.29
468.23	12475.06
468.41	12594.42
468.60	12744.22
468.78	12823.80
468.96	12594.42
469.14	12800.39
469.32	12964.23
469.50	12786.35
469.69	13111.68
469.87	13053.17
470.05	13149.13
470.23	13081.25
470.41	13118.70
470.59	13589.15
470.77	13195.94
470.95	13277.86
471.14	13429.99
471.32	13069.55
471.50	13598.51
471.68	13327.01
471.86	13596.17
472.04	13774.05
472.22	14001.08
472.40	13694.47
472.58	13956.61
472.77	13900.44
472.95	14143.86
473.13	14588.56
473.31	14054.92
473.49	14085.34
473.67	14291.31
473.85	14338.12
474.03	14693.88
474.21	14532.39
474.39	14850.70
474.57	14736.01
474.75	14853.04
474.93	15009.86
475.12	15026.24
475.30	15250.93
475.48	15159.65
475.66	15042.62
475.84	15330.51
476.02	15470.94
476.20	15208.80
476.38	15819.68
476.56	16170.76
476.74	16013.95
476.92	16049.05
477.10	16006.92
477.28	16416.52
477.46	16130.97
477.64	16498.44
477.82	16451.63
478.00	17153.79
478.18	16798.02
478.36	16875.26
478.54	17224.00
478.72	17256.77
478.90	17245.07
479.08	17376.14
479.26	17720.20
479.44	17912.12
479.62	17865.31
479.80	18097.02
479.98	18218.73
480.16	18663.43
480.34	18216.39
480.52	18951.32
480.70	18714.92
480.88	18434.06
481.06	18700.88
481.24	18726.63
481.41	19257.93
481.59	19381.98
481.77	19545.81
481.95	19515.39
482.13	19482.62
482.31	19578.58
482.49	20077.12
482.67	20196.48
482.85	20545.22
483.03	20652.89
483.21	20959.50
483.39	20961.84
483.57	20968.86
483.74	20929.07
483.92	21493.14
484.10	21266.11
484.28	21472.07
484.46	21947.20
484.64	22485.53
484.82	22045.51
485.00	22064.23
485.18	22916.19
485.35	23396.00
485.53	22789.80
485.71	23180.67
485.89	23330.46
486.07	23082.36
486.25	23309.40
486.43	23824.31
486.61	24044.32
486.78	24016.24
486.96	24299.44
487.14	24816.70
487.32	24851.81
487.50	24709.04
487.68	24854.15
487.85	25383.11
488.03	25757.60
488.21	25865.26
488.39	25926.11
488.57	26230.38
488.75	26642.32
488.92	26356.77
489.10	26686.79
489.28	26920.84
489.46	27058.93
489.64	26874.03
489.81	27461.51
489.99	27594.92
490.17	27805.56
490.35	28182.39
490.53	28725.39
490.70	28500.70
490.88	28369.63
491.06	28816.68
491.24	28774.55
491.41	29429.90
491.59	29296.49
491.77	29457.98
491.95	29577.35
492.13	29797.36
492.30	29898.00
492.48	30132.06
492.66	30085.25
492.84	30307.60
493.01	30534.63
493.19	30637.61
493.37	31363.18
493.54	31316.37
493.72	31601.91
493.90	31630.00
494.08	32016.19
494.25	32203.43
494.43	32240.88
494.61	32498.34
494.79	32608.34
494.96	32542.81
495.14	32802.61
495.32	33078.79
495.49	33163.05
495.67	33294.12
495.85	33523.49
496.02	33809.04
496.20	34185.86
496.38	34015.01
496.55	33949.47
496.73	35047.18
496.91	34689.08
497.09	34927.81
497.26	35007.39
497.44	34792.06
497.62	34965.26
497.79	35842.96
497.97	35105.70
498.14	36275.96
498.32	36184.68
498.50	36367.24
498.67	36861.10
498.85	36645.77
499.03	37048.34
499.20	36863.44
499.38	36847.05
499.56	37567.94
499.73	37376.01
499.91	37214.52
500.08	37818.38
500.26	37762.20
500.44	37476.66
500.61	37799.65
500.79	38026.68
500.97	38298.19
501.14	38574.37
501.32	38330.95
501.49	39019.07
501.67	38693.74
501.84	38778.00
502.02	39232.06
502.20	39194.61
502.37	39367.81
502.55	39372.49
502.72	39477.82
502.90	39936.56
503.07	39803.15
503.25	39800.81
503.43	39772.72
503.60	40072.31
503.78	40327.43
503.95	39995.07
504.13	40238.49
504.30	40863.41
504.48	40900.86
504.65	40727.66
504.83	41179.39
505.01	41661.54
505.18	41326.84
505.36	41574.94
505.53	41310.46
505.71	41703.67
505.88	41661.54
506.06	41904.95
506.23	41942.40
506.41	41998.57
506.58	42518.17
506.76	42335.61
506.93	42625.84
507.11	42291.14
507.28	42794.36
507.46	43040.11
507.63	42710.10
507.81	43351.40
507.98	43260.12
508.16	43199.27
508.33	43452.05
508.50	43423.96
508.68	43517.58
508.85	44114.42
509.03	44369.54
509.20	43826.53
509.38	44577.84
509.55	44570.82
509.73	44641.04
509.90	44919.56
510.08	44339.11
510.25	44542.74
510.42	44563.80
510.60	44961.69
510.77	45165.32
510.95	46052.38
511.12	45364.26
511.30	45413.41
511.47	45617.04
511.64	45478.95
511.82	46246.65
511.99	45427.46
512.17	45460.23
512.34	45930.67
512.51	46185.79
512.69	46384.74
512.86	46799.01
513.04	47049.45
513.21	46710.07
513.38	46754.54
513.56	46754.54
513.73	46789.65
513.90	46962.85
514.08	47063.49
514.25	47800.76
514.43	47175.84
514.60	47697.78
514.77	47753.95
514.95	47962.26
515.12	47384.15
515.29	47594.79
515.47	48109.71
515.64	48133.12
515.81	48149.50
515.99	48514.62
516.16	48512.28
516.33	48821.23
516.51	48509.94
516.68	48739.32
516.85	48549.73
517.03	48823.58
517.20	48825.92
517.37	48961.67
517.54	48985.07
517.72	49027.20
517.89	48898.47
518.06	49127.84
518.24	49518.71
518.41	49488.29
518.58	49221.47
518.75	49357.22
518.93	49504.67
519.10	49757.45
519.27	49902.56
519.45	49544.46
519.62	50064.06
519.79	50141.30
519.96	50092.15
520.14	50209.17
520.31	49916.61
520.48	50410.46
520.65	50541.53
520.83	50724.09
521.00	50782.60
521.17	50490.04
521.34	51157.09
521.52	50899.63
521.69	50717.07
521.86	51290.50
522.03	51463.70
522.20	51515.19
522.38	51789.03
522.55	51491.79
522.72	51475.40
522.89	51133.68
523.07	51760.95
523.24	51863.93
523.41	51924.78
523.58	51880.31
523.75	51807.76
523.92	51969.26
524.10	51856.91
524.27	52133.09
524.44	51838.18
524.61	52065.22
524.78	52102.67
524.96	51936.49
525.13	52292.25
525.30	52725.25
525.47	52666.73
525.64	52591.84
525.81	52706.52
525.98	52898.45
526.16	53013.13
526.33	52617.58
526.50	53006.11
526.67	53186.33
526.84	53165.27
527.01	53045.90
527.18	53322.08
527.36	53214.42
527.53	53083.35
527.70	53443.79
527.87	53296.34
528.04	53286.98
528.21	53673.16
528.38	53411.02
528.55	53415.71
528.72	53572.52
528.89	53329.11
529.07	53553.80
529.24	53689.55
529.41	53551.46
529.58	53794.87
529.75	53448.47
529.92	53696.57
530.09	53851.05
530.26	53879.13
530.43	54152.97
530.60	54038.29
530.77	53762.11
530.94	54314.47
531.11	53893.18
531.28	54262.98
531.46	54405.75
531.63	54152.97
531.80	54260.64
531.97	54597.68
532.14	54440.86
532.31	54403.41
532.48	54674.91
532.65	54930.03
532.82	54618.74
532.99	54775.56
533.16	54761.51
533.33	54871.52
533.50	55166.43
533.67	55023.65
533.84	54808.32
534.01	54883.22
534.18	54939.39
534.35	55435.59
534.52	55196.85
534.69	55299.84
534.86	55363.03
535.03	54965.14
535.20	55133.66
535.37	55538.57
535.54	55463.67
535.71	55234.30
535.88	55405.16
536.05	55559.64
536.22	55821.78
536.38	55599.43
536.55	55636.87
536.72	55650.92
536.89	55789.01
537.06	55449.63
537.23	55786.67
537.40	55693.05
537.57	55643.90
537.74	55964.55
537.91	56055.83
538.08	55849.86
538.25	55751.56
538.42	55992.64
538.59	56060.51
538.75	55943.48
538.92	56135.41
539.09	56484.15
539.26	56266.48
539.43	56179.88
539.60	56322.65
539.77	56360.10
539.94	56442.02
540.11	56411.59
540.28	56378.82
540.44	56432.66
540.61	56399.89
540.78	56430.32
540.95	56708.84
541.12	56432.66
541.29	56633.94
541.46	56662.03
541.62	56598.83
541.79	56568.41
541.96	56446.70
542.13	56523.94
542.30	56687.78
542.47	56945.23
542.63	56973.32
542.80	57186.31
542.97	56935.87
543.14	57240.14
543.31	57319.72
543.48	57240.14
543.64	57820.59
543.81	57359.51
543.98	57478.88
544.15	57530.37
544.32	57546.75
544.48	57481.22
544.65	57331.42
544.82	57305.68
544.99	57560.79
545.16	57694.21
545.32	57506.96
545.49	57757.40
545.66	57925.92
545.83	57914.22
546.00	57696.55
546.16	57832.30
546.33	57570.16
546.50	57476.54
546.67	57549.09
546.83	57694.21
547.00	57623.99
547.17	57872.09
547.34	57759.74
547.50	58096.78
547.67	58106.14
547.84	58054.65
548.00	58042.95
548.17	58181.04
548.34	57818.25
548.51	58202.10
548.67	58248.91
548.84	58127.20
549.01	58141.25
549.18	58356.58
549.34	58585.95
549.51	58302.74
549.68	58473.60
549.84	58375.30
550.01	58457.22
550.18	58328.49
550.34	58471.26
550.51	58653.82
550.68	58426.79
550.84	58251.25
551.01	58646.80
551.18	58616.38
551.34	58651.48
551.51	58550.84
551.68	58527.44
551.84	58548.50
552.01	58506.37
552.18	58876.18
552.34	58599.99
552.51	58944.05
552.68	58639.78
552.84	58831.71
553.01	59042.35
553.18	58941.71
553.34	59117.25
553.51	58824.68
553.67	58820.00
553.84	58965.12
554.01	59025.97
554.17	58925.33
554.34	58958.09
554.51	58986.18
554.67	59178.10
554.84	59135.98
555.00	59042.35
555.17	58838.73
555.33	58983.84
555.50	58979.16
555.67	59154.70
555.83	59049.38
556.00	59208.53
556.16	59323.22
556.33	59435.56
556.50	59447.27
556.66	59430.88
556.83	59337.26
556.99	59412.16
557.16	59477.69
557.32	59456.63
557.49	59721.11
557.65	59566.63
557.82	59463.65
557.98	59437.90
558.15	59552.59
558.32	59660.26
558.48	59526.84
558.65	59414.50
558.81	59779.62
558.98	59716.43
559.14	59606.42
559.31	59777.28
559.47	59826.43
559.64	59969.21
559.80	59929.42
559.97	59636.85
560.13	59739.83
560.30	59760.90
560.46	59725.79
560.63	59669.62
560.79	59896.65
560.96	59908.35
561.12	60039.42
561.29	59936.44
561.45	59863.88
561.61	59861.54
561.78	59781.96
561.94	59796.01
562.11	59765.58
562.27	59999.63
562.44	59959.84
562.60	60179.85
562.77	60095.60
562.93	59744.51
563.10	60100.28
563.26	59887.29
563.42	60055.81
563.59	60191.56
563.75	60013.68
563.92	60009.00
564.08	60128.36
564.24	60142.41
564.41	60126.02
564.57	60158.79
564.74	60032.40
564.90	60149.43
565.07	60348.37
565.23	60142.41
565.39	60154.11
565.56	60299.22
565.72	60271.14
565.88	60214.96
566.05	60177.51
566.21	60317.95
566.38	60268.79
566.54	60224.32
566.70	60434.97
566.87	60355.39
567.03	60275.82
567.19	60310.92
567.36	60282.84
567.52	60327.31
567.68	60582.43
567.85	60561.36
568.01	60425.61
568.17	60350.71
568.34	60463.06
568.50	60516.89
568.66	60278.16
568.83	60488.80
568.99	60582.43
569.15	60514.55
569.32	60512.21
569.48	60427.95
569.64	60540.30
569.81	60626.90
569.97	60355.39
570.13	60392.84
570.30	60331.99
570.46	60357.74
570.62	60566.04
570.78	60594.13
570.95	60626.90
571.11	60591.79
571.27	60584.77
571.43	60505.19
571.60	60776.69
571.76	60762.65
571.92	60591.79
572.09	60748.60
572.25	60783.71
572.41	60685.41
572.57	60659.66
572.74	60921.80
572.90	60659.66
573.06	60528.59
573.22	60772.01
573.38	60732.22
573.55	60687.75
573.71	61022.45
573.87	60671.37
574.03	60605.83
574.20	60793.07
574.36	60652.64
574.52	60809.46
574.68	60739.24
574.84	60706.47
575.01	60893.72
575.17	60952.23
575.33	60680.73
575.49	60748.60
575.65	60956.91
575.82	60650.30
575.98	60903.08
576.14	60994.36
576.30	60959.25
576.46	60603.49
576.62	60715.84
576.79	60802.44
576.95	60814.14
577.11	60800.10
577.27	60879.67
577.43	60802.44
577.59	60750.94
577.75	60956.91
577.92	60673.71
578.08	60671.37
578.24	60945.21
578.40	61071.60
578.56	60809.46
578.72	60762.65
578.88	60905.42
579.04	61109.05
579.21	61043.51
579.37	61078.62
579.53	61069.26
579.69	60884.36
579.85	60786.05
580.01	60832.86
580.17	60809.46
580.33	60975.64
580.49	61013.08
580.65	60870.31
580.82	60821.16
580.98	60734.56
581.14	60973.30
581.30	61087.98
581.46	60924.14
581.62	61073.94
581.78	60853.93
581.94	61031.81
582.10	61066.92
582.26	61013.08
582.42	60818.82
582.58	61146.50
582.74	60739.24
582.90	60884.36
583.06	60963.93
583.22	60849.25
583.38	61048.19
583.54	61127.77
583.70	60933.51
583.86	61120.75
584.02	60753.29
584.18	61226.07
584.34	61041.17
584.50	60940.53
584.66	61090.32
584.82	60753.29
584.98	61090.32
585.14	61375.87
585.30	60942.87
585.46	61080.96
585.62	61226.07
585.78	61090.32
585.94	61048.19
586.10	61148.84
586.26	61029.47
586.42	61258.84
586.58	61235.44
586.74	61167.56
586.90	61022.45
587.06	60956.91
587.22	61183.94
587.38	61123.09
587.54	61420.34
587.70	61354.80
587.86	60989.68
588.02	61169.90
588.18	61080.96
588.34	61062.24
588.49	61029.47
