SpectraSuite Data File
++++++++++++++++++++++++++++++++++++
Date: Fri Oct 25 11:25:26 EDT 2013
User: price-jones
Dark Spectrum Present: No
Reference Spectrum Present: No
Number of Sampled Component Spectra: 1
Spectrometers: USB2+H05261
Integration Time (usec): 100000 (USB2+H05261)
Spectra Averaged: 1 (USB2+H05261)
Boxcar Smoothing: 0 (USB2+H05261)
Correct for Electrical Dark: No (USB2+H05261)
Strobe/Lamp Enabled: No (USB2+H05261)
Correct for Detector Non-linearity: No (USB2+H05261)
Correct for Stray Light: No (USB2+H05261)
Number of Pixels in Processed Spectrum: 2048
>>>>>Begin Processed Spectral Data<<<<<
365.73	245.76
365.92	245.76
366.12	245.76
366.32	102.98
366.52	124.05
366.72	173.20
366.91	86.60
367.11	72.56
367.31	156.82
367.51	9.36
367.70	128.73
367.90	184.90
368.10	126.39
368.30	138.09
368.49	119.37
368.69	163.84
368.89	177.88
369.09	152.13
369.28	180.22
369.48	154.48
369.68	182.56
369.87	212.99
370.07	220.01
370.27	208.31
370.47	290.23
370.66	573.43
370.86	629.60
371.06	676.41
371.25	681.10
371.45	683.44
371.65	730.25
371.84	692.80
372.04	667.05
372.24	730.25
372.44	725.57
372.63	746.63
372.83	816.85
373.03	751.31
373.22	718.54
373.42	674.07
373.62	788.76
373.81	753.65
374.01	837.91
374.21	842.59
374.40	826.21
374.60	744.29
374.79	833.23
374.99	800.46
375.19	795.78
375.38	777.06
375.58	875.36
375.78	851.96
375.97	819.19
376.17	854.30
376.37	875.36
376.56	866.00
376.76	894.08
376.95	779.40
377.15	875.36
377.35	849.61
377.54	896.43
377.74	922.17
377.93	877.70
378.13	851.96
378.33	912.81
378.52	889.40
378.72	915.15
378.91	964.30
379.11	940.90
379.31	1015.79
379.50	929.19
379.70	945.58
379.89	968.98
380.09	992.39
380.28	961.96
380.48	1015.79
380.68	882.38
380.87	968.98
381.07	997.07
381.26	966.64
381.46	929.19
381.65	1020.47
381.85	1050.90
382.04	992.39
382.24	1107.07
382.43	1067.28
382.63	1043.88
382.83	1053.24
383.02	1179.63
383.22	1151.54
383.41	1149.20
383.61	1041.54
383.80	1132.82
384.00	1170.27
384.19	1078.99
384.39	1090.69
384.58	1172.61
384.78	1102.39
384.97	1146.86
385.17	1149.20
385.36	1102.39
385.56	1090.69
385.75	1132.82
385.95	1055.58
386.14	1123.46
386.34	1151.54
386.53	1025.15
386.72	1226.44
386.92	1231.12
387.11	1184.31
387.31	1193.67
387.50	1191.33
387.70	1245.16
387.89	1217.08
388.09	1310.70
388.28	1224.10
388.48	1284.95
388.67	1329.42
388.86	1338.79
389.06	1261.55
389.25	1322.40
389.45	1341.13
389.64	1284.95
389.84	1383.26
390.03	1437.09
390.22	1301.34
390.42	1390.28
390.61	1291.98
390.81	1418.36
391.00	1357.51
391.19	1359.85
391.39	1455.81
391.58	1516.67
391.78	1497.94
391.97	1469.86
392.16	1404.32
392.36	1591.56
392.55	1526.03
392.75	1514.33
392.94	1528.37
393.13	1504.96
393.33	1437.09
393.52	1495.60
393.71	1600.93
393.91	1511.99
394.10	1488.58
394.29	1612.63
394.49	1612.63
394.68	1638.38
394.88	1591.56
395.07	1621.99
395.26	1732.00
395.46	1654.76
395.65	1666.46
395.84	1624.33
396.04	1753.06
396.23	1708.59
396.42	1753.06
396.62	1778.81
396.81	1739.02
397.00	1739.02
397.19	1764.76
397.39	1757.74
397.58	1795.19
397.77	1860.73
397.97	1849.02
398.16	1825.62
398.35	1921.58
398.55	1909.88
398.74	1856.04
398.93	1921.58
399.12	1902.86
399.32	1827.96
399.51	1987.11
399.70	1907.54
399.90	1839.66
400.09	1968.39
400.28	2001.16
400.47	1933.28
400.67	2038.61
400.86	2010.52
401.05	2026.90
401.24	1982.43
401.44	2244.57
401.63	2132.23
401.82	2108.82
402.01	2083.08
402.21	2232.87
402.40	2172.02
402.59	2160.31
402.78	2188.40
402.97	2183.72
403.17	2328.83
403.36	2200.10
403.55	2270.32
403.74	2387.35
403.93	2190.74
404.13	2272.66
404.32	2275.00
404.51	2387.35
404.70	2424.80
404.89	2413.09
405.09	2380.32
405.28	2483.31
405.47	2424.80
405.66	2431.82
405.85	2551.18
406.05	2495.01
406.24	2525.44
406.43	2434.16
406.62	2715.02
406.81	2635.44
407.00	2679.91
407.20	2597.99
407.39	2693.96
407.58	2628.42
407.77	2803.96
407.96	2649.49
408.15	2647.15
408.34	2583.95
408.54	2757.15
408.73	2803.96
408.92	2857.79
409.11	2979.50
409.30	2810.98
409.49	2946.73
409.68	2883.54
409.87	2904.60
410.07	2993.55
410.26	3014.61
410.45	3040.36
410.64	3005.25
410.83	2979.50
411.02	3138.66
411.21	3239.30
411.40	3162.06
411.59	3138.66
411.78	3047.38
411.98	3187.81
412.17	3229.94
412.36	3204.19
412.55	3363.35
412.74	3494.42
412.93	3398.46
413.12	3332.92
413.31	3492.08
413.50	3478.04
413.69	3478.04
413.88	3707.41
414.07	3592.72
414.26	3630.17
414.45	3581.02
414.64	3564.64
414.83	3712.09
415.02	3819.75
415.22	3801.03
415.41	3840.82
415.60	3763.58
415.79	3922.74
415.98	3990.61
416.17	4086.58
416.36	3831.46
416.55	3918.06
416.74	4198.92
416.93	4030.40
417.12	3988.27
417.31	4112.32
417.50	4128.70
417.69	4264.46
417.88	4133.39
418.07	4095.94
418.26	4100.62
418.45	4194.24
418.64	4479.79
418.83	4212.96
419.02	4416.59
419.21	4519.57
419.39	4510.21
419.58	4498.51
419.77	4533.62
419.96	4568.73
420.15	4617.88
420.34	4603.83
420.53	4524.26
420.72	4613.20
420.91	4706.82
421.10	4748.95
421.29	4720.86
421.48	4702.14
421.67	4683.41
421.86	4746.61
422.05	4833.21
422.24	4671.71
422.43	4713.84
422.61	4791.08
422.80	4966.62
422.99	4884.70
423.18	4781.71
423.37	5060.24
423.56	4770.01
423.75	4847.25
423.94	4770.01
424.13	4554.68
424.32	4620.22
424.50	4922.15
424.69	5060.24
424.88	5020.45
425.07	4910.44
425.26	4748.95
425.45	4971.30
425.64	4816.82
425.83	4912.78
426.01	4975.98
426.20	5032.15
426.39	5069.60
426.58	5060.24
426.77	4973.64
426.96	5135.14
427.15	5032.15
427.33	5135.14
427.52	5181.95
427.71	5174.92
427.90	5200.67
428.09	5261.52
428.28	5350.46
428.46	5235.78
428.65	5200.67
428.84	5329.40
429.03	5336.42
429.22	5434.72
429.40	5406.64
429.59	5287.27
429.78	5221.74
429.97	5195.99
430.16	5434.72
430.34	5563.45
430.53	5530.69
430.72	5537.71
430.91	5640.69
431.10	5607.92
431.28	5650.05
431.47	5774.10
431.66	5802.19
431.85	5598.56
432.03	5919.21
432.22	5816.23
432.41	5832.62
432.60	5916.87
432.79	5963.68
432.97	5980.07
433.16	5991.77
433.35	5860.70
433.54	5937.94
433.72	5991.77
433.91	6073.69
434.10	6012.84
434.28	6047.94
434.47	6258.59
434.66	6153.27
434.85	6258.59
435.03	6169.65
435.22	6127.52
435.41	6527.75
435.59	6406.05
435.78	6279.66
435.97	6466.90
436.16	6483.28
436.34	6317.11
436.53	6457.54
436.72	6647.12
436.90	6443.49
437.09	6635.42
437.28	6321.79
437.46	6642.44
437.65	6562.86
437.84	6715.00
438.02	6579.25
438.21	6682.23
438.40	6707.98
438.58	6902.24
438.77	6979.48
438.96	6813.30
439.14	7052.03
439.33	7122.25
439.52	7239.28
439.70	7138.63
439.89	7152.68
440.08	7258.00
440.26	7258.00
440.45	7419.50
440.63	7351.62
440.82	7440.56
441.01	7363.33
441.19	7552.91
441.38	7557.59
441.57	7513.12
441.75	7730.79
441.94	7861.86
442.12	7761.22
442.31	7845.48
442.50	7822.07
442.68	7948.46
442.87	7953.14
443.05	8060.80
443.24	8231.66
443.43	8098.25
443.61	8039.74
443.80	8409.54
443.98	8072.51
444.17	7887.61
444.35	8234.00
444.54	8418.91
444.73	8079.53
444.91	8262.09
445.10	8259.75
445.28	8248.05
445.47	8191.88
445.65	8325.29
445.84	8425.93
446.02	8393.16
446.21	8320.60
446.39	8205.92
446.58	8339.33
446.77	8636.58
446.95	8138.04
447.14	8437.63
447.32	8355.71
447.51	8400.18
447.69	8472.74
447.88	8587.43
448.06	8470.40
448.25	8409.54
448.43	8601.47
448.62	8344.01
448.80	8372.10
448.99	8664.66
449.17	8840.20
449.36	8915.10
449.54	8812.12
449.73	8889.35
449.91	9135.11
450.10	8727.86
450.28	8978.30
450.46	8884.67
450.65	9018.08
450.83	9032.13
451.02	8882.33
451.20	8961.91
451.39	9095.32
451.57	9107.02
451.76	8884.67
451.94	9102.34
452.13	9401.93
452.31	9116.39
452.49	9067.24
452.68	9305.97
452.86	9334.06
453.05	9453.42
453.23	9350.44
453.42	9336.40
453.60	9359.80
453.78	9549.39
453.97	9277.88
454.15	9439.38
454.34	9191.28
454.52	9579.81
454.70	9678.12
454.89	9479.17
455.07	9715.56
455.26	9617.26
455.44	9792.80
455.62	9823.23
455.81	9839.61
455.99	9865.36
456.17	9881.74
456.36	10001.11
456.54	9921.53
456.73	10078.35
456.91	10436.45
457.09	10342.83
457.28	10473.90
457.46	10394.32
457.64	10270.27
457.83	10354.53
458.01	10267.93
458.19	10555.82
458.38	10445.81
458.56	10752.42
458.74	10520.71
458.93	10572.20
459.11	10401.34
459.29	10623.69
459.48	10682.20
459.66	10665.82
459.84	10750.08
460.03	10991.16
460.21	11070.73
460.39	10686.89
460.57	10944.34
460.76	10956.05
460.94	10888.17
461.12	11110.52
461.31	10906.90
461.49	11234.57
461.67	11197.12
461.85	11300.11
462.04	11143.29
462.22	11513.10
462.40	11358.62
462.59	11241.59
462.77	11534.16
462.95	11452.24
463.13	11599.70
463.32	11733.11
463.50	11737.79
463.68	12009.29
463.86	11702.68
464.05	11545.86
464.23	11819.71
464.41	11723.74
464.59	11679.27
464.78	12283.13
464.96	12063.12
465.14	11751.83
465.32	11903.96
465.50	11962.48
465.69	12123.98
465.87	12042.06
466.05	12299.52
466.23	12222.28
466.41	12060.78
466.60	12404.84
466.78	11899.28
466.96	11908.65
467.14	12011.63
467.32	12374.41
467.51	12358.03
467.69	11918.01
467.87	12325.26
468.05	12313.56
468.23	12442.29
468.41	12453.99
468.60	12390.80
468.78	12360.37
468.96	12545.27
469.14	12386.12
469.32	12975.93
469.50	12547.61
469.69	12915.08
469.87	12954.87
470.05	12954.87
470.23	13060.19
470.41	13029.76
470.59	13277.86
470.77	12947.84
470.95	13324.67
471.14	13160.83
471.32	13184.24
471.50	13458.08
471.68	13593.83
471.86	13476.80
472.04	13806.82
472.22	14052.58
472.40	13605.53
472.58	13511.91
472.77	13954.27
472.95	13862.99
473.13	14384.93
473.31	13994.06
473.49	13968.32
473.67	13855.97
473.85	14134.50
474.03	14335.78
474.21	14415.36
474.39	14614.30
474.57	14698.56
474.75	14738.35
474.93	14530.05
475.12	14874.10
475.30	14930.28
475.48	15068.37
475.66	15166.67
475.84	15044.96
476.02	15234.55
476.20	15339.87
476.38	15330.51
476.56	15594.99
476.74	15812.66
476.92	15896.92
477.10	15850.11
477.28	15894.58
477.46	16224.59
477.64	16020.97
477.82	16402.47
478.00	16800.37
478.18	16737.17
478.36	16879.94
478.54	17078.89
478.72	16765.26
478.90	16910.37
479.08	17364.43
479.26	17308.26
479.44	17514.23
479.62	17532.95
479.80	17750.62
479.98	17720.20
480.16	18384.91
480.34	17977.65
480.52	18600.24
480.70	18445.76
480.88	18483.21
481.06	18539.38
481.24	18436.40
481.41	18827.27
481.59	19288.35
481.77	19374.95
481.95	18993.45
482.13	19548.15
482.31	19353.89
482.49	20280.74
482.67	19957.75
482.85	20308.83
483.03	20376.70
483.21	20306.49
483.39	20950.14
483.57	20528.84
483.74	20870.56
483.92	21186.53
484.10	21233.34
484.28	21579.74
484.46	21624.21
484.64	22157.85
484.82	21680.38
485.00	22120.40
485.18	22443.40
485.35	22775.75
485.53	22742.99
485.71	22815.54
485.89	23129.17
486.07	23124.49
486.25	22951.29
486.43	23709.63
486.61	23824.31
486.78	23833.68
486.96	24194.12
487.14	24432.85
487.32	24133.26
487.50	24814.36
487.68	24968.84
487.85	24954.79
488.03	25223.95
488.21	25516.52
488.39	25603.12
488.57	25912.07
488.75	25535.24
488.92	26162.51
489.10	26464.44
489.28	26478.48
489.46	26899.78
489.64	26632.96
489.81	27538.74
489.99	27513.00
490.17	27421.72
490.35	27889.82
490.53	28107.49
490.70	28009.19
490.88	27793.86
491.06	28430.49
491.24	28823.70
491.41	28517.09
491.59	28973.49
491.77	29015.62
491.95	29287.12
492.13	29455.64
492.30	29930.77
492.48	29385.43
492.66	29937.79
492.84	30157.80
493.01	30258.45
493.19	30202.27
493.37	30637.61
493.54	30759.32
493.72	31344.45
493.90	31143.17
494.08	31611.28
494.25	31730.64
494.43	31915.54
494.61	32018.53
494.79	32416.42
494.96	32032.57
495.14	32355.57
495.32	32748.78
495.49	32708.99
495.67	32374.29
495.85	33237.95
496.02	33638.18
496.20	34054.79
496.38	33570.30
496.55	33921.38
496.73	34115.65
496.91	34230.33
497.09	34588.44
497.26	34541.63
497.44	34361.40
497.62	35122.08
497.79	35159.53
497.97	35014.41
498.14	35295.28
498.32	36105.10
498.50	36044.25
498.67	36294.69
498.85	35924.88
499.03	36381.29
499.20	36425.76
499.38	36500.65
499.56	36737.05
499.73	36882.16
499.91	37067.06
500.08	37401.76
500.26	36774.50
500.44	37151.32
500.61	37715.39
500.79	37528.15
500.97	37837.10
501.14	38412.87
501.32	37991.58
501.49	38637.56
501.67	38120.31
501.84	38553.30
502.02	38431.60
502.20	39072.90
502.37	38993.32
502.55	38859.91
502.72	39037.80
502.90	39152.48
503.07	39136.10
503.25	39374.83
503.43	39093.97
503.60	39711.87
503.78	39882.73
503.95	40315.73
504.13	40011.46
504.30	40292.32
504.48	39971.67
504.65	40392.97
504.83	41062.36
505.01	40931.29
505.18	40788.52
505.36	41090.44
505.53	41113.85
505.71	41317.48
505.88	41273.01
506.06	41450.89
506.23	41551.53
506.41	41570.25
506.58	41638.13
506.76	41771.54
506.93	42115.60
507.11	41844.10
507.28	42188.16
507.46	42129.64
507.63	42462.00
507.81	42948.83
507.98	42719.46
508.16	42777.97
508.33	43093.94
508.50	43157.14
508.68	43171.18
508.85	43634.61
509.03	43452.05
509.20	43674.40
509.38	43711.84
509.55	44044.20
509.73	43978.67
509.90	44526.35
510.08	44343.79
510.25	44039.52
510.42	44392.94
510.60	44645.72
510.77	44968.71
510.95	44868.07
511.12	44493.58
511.30	44758.06
511.47	45399.37
511.64	45181.70
511.82	45710.66
511.99	45340.86
512.17	45378.31
512.34	45769.18
512.51	45977.48
512.69	46050.04
512.86	46302.82
513.04	46571.98
513.21	46204.52
513.38	46539.21
513.56	46373.03
513.73	46211.54
513.90	46806.03
514.08	46494.74
514.25	46646.88
514.43	47077.54
514.60	47423.93
514.77	46969.87
514.95	47629.90
515.12	47510.53
515.29	47421.59
515.47	47498.83
515.64	47765.65
515.81	47325.63
515.99	48053.54
516.16	48156.52
516.33	48196.31
516.51	48306.32
516.68	47969.28
516.85	48023.11
517.03	48554.41
517.20	48376.53
517.37	48566.12
517.54	48500.58
517.72	48669.10
517.89	48891.45
518.06	48774.42
518.24	48966.35
518.41	49113.80
518.58	48919.54
518.75	49193.38
518.93	49504.67
519.10	49191.04
519.27	49240.19
519.45	49507.01
519.62	49467.22
519.79	49717.66
519.96	49233.17
520.14	49698.94
520.31	49469.56
520.48	50267.69
520.65	50153.00
520.83	50012.57
521.00	50365.99
521.17	50401.10
521.34	50520.46
521.52	50806.01
521.69	50590.68
521.86	50681.96
522.03	50761.54
522.20	51054.11
522.38	51210.92
522.55	51105.60
522.72	50960.48
522.89	51082.19
523.07	51332.63
523.24	51086.87
523.41	51220.28
523.58	51093.89
523.75	51576.04
523.92	51349.01
524.10	51669.67
524.27	51704.77
524.44	51510.51
524.61	51927.13
524.78	51681.37
524.96	51779.67
525.13	52107.35
525.30	52074.58
525.47	52346.08
525.64	52184.58
525.81	52123.73
525.98	52495.88
526.16	52100.32
526.33	52275.87
526.50	52940.58
526.67	52292.25
526.84	52851.64
527.01	52205.65
527.18	52715.89
527.36	52853.98
527.53	52729.93
527.70	52992.07
527.87	52729.93
528.04	52849.30
528.21	53209.74
528.38	53059.94
528.55	53076.33
528.72	52996.75
528.89	53146.54
529.07	53057.60
529.24	53027.18
529.41	53532.73
529.58	53317.40
529.75	53499.97
529.92	53822.96
530.09	53647.42
530.26	53822.96
530.43	53661.46
530.60	53647.42
530.77	53389.96
530.94	53811.26
531.11	53656.78
531.28	53722.32
531.46	53794.87
531.63	53984.46
531.80	53741.04
531.97	54087.44
532.14	54106.16
532.31	54218.51
532.48	53961.05
532.65	54387.03
532.82	54255.96
532.99	54703.00
533.16	54337.88
533.33	54363.62
533.50	54766.20
533.67	54457.24
533.84	53881.47
534.01	54721.72
534.18	54532.14
534.35	54827.05
534.52	54761.51
534.69	55140.68
534.86	55002.59
535.03	54862.16
535.20	54719.38
535.37	54972.16
535.54	55318.56
535.71	55128.98
535.88	55189.83
536.05	55299.84
536.22	55189.83
536.38	55524.53
536.55	55440.27
536.72	55545.59
536.89	55054.08
537.06	55370.05
537.23	55538.57
537.40	55367.71
537.57	55695.39
537.74	55714.11
537.91	55798.37
538.08	55573.68
538.25	55571.34
538.42	55690.71
538.59	56037.11
538.75	55622.83
538.92	55803.05
539.09	56112.00
539.26	55882.63
539.43	55917.74
539.60	56016.04
539.77	55894.33
539.94	56067.53
540.11	56156.47
540.28	56156.47
540.44	56142.43
540.61	56465.42
540.78	56135.41
540.95	56264.14
541.12	56229.03
541.29	56184.56
541.46	56081.58
541.62	56451.38
541.79	56444.36
541.96	56123.71
542.13	56371.80
542.30	56362.44
542.47	56530.96
542.63	56446.70
542.80	56877.36
542.97	56879.70
543.14	56905.44
543.31	56947.57
543.48	57141.84
543.64	57272.91
543.81	57090.35
543.98	57109.07
544.15	57333.76
544.32	57153.54
544.48	57308.02
544.65	57183.97
544.82	57195.67
544.99	57008.43
545.16	57389.94
545.32	57453.13
545.49	57392.28
545.66	57511.64
545.83	57216.74
546.00	57558.45
546.16	57338.44
546.33	57298.65
546.50	57443.77
546.67	57525.69
546.83	57293.97
547.00	57392.28
547.17	57305.68
547.34	57490.58
547.50	57867.40
547.67	57780.81
547.84	57726.97
548.00	57818.25
548.17	58021.88
548.34	57841.66
548.51	58113.16
548.67	58078.05
548.84	58031.24
549.01	57879.11
549.18	57888.47
549.34	58056.99
549.51	57991.45
549.68	58056.99
549.84	57893.15
550.01	58260.62
550.18	58138.91
550.34	58394.03
550.51	58365.94
550.68	58141.25
550.84	58042.95
551.01	58384.66
551.18	58131.89
551.34	58277.00
551.51	58323.81
551.68	58426.79
551.84	58307.43
552.01	58342.53
552.18	58354.24
552.34	58258.27
552.51	58262.96
552.68	58288.70
552.84	58309.77
553.01	58660.85
553.18	58686.59
553.34	58745.11
553.51	58560.20
553.67	58763.83
553.84	58843.41
554.01	58796.60
554.17	58841.07
554.34	58763.83
554.51	58784.90
554.67	58885.54
554.84	58829.37
555.00	58754.47
555.17	58702.98
555.33	58787.24
555.50	58679.57
555.67	58808.30
555.83	58925.33
556.00	58925.33
556.16	59194.49
556.33	59236.62
556.50	59004.91
556.66	59143.00
556.83	59014.27
556.99	59201.51
557.16	59201.51
557.32	59468.33
557.49	59440.24
557.65	59189.81
557.82	59236.62
557.98	58951.07
558.15	59079.80
558.32	59398.12
558.48	59100.87
558.65	59290.45
558.81	59316.20
558.98	59295.13
559.14	59391.09
559.31	59561.95
559.47	59285.77
559.64	59281.09
559.80	59664.94
559.97	59470.67
560.13	59451.95
560.30	59325.56
560.46	59292.79
560.63	59681.32
560.79	59531.53
560.96	59578.34
561.12	59451.95
561.29	59650.89
561.45	59449.61
561.61	59678.98
561.78	59573.66
561.94	59576.00
562.11	59653.23
562.27	59678.98
562.44	59765.58
562.60	59711.75
562.77	59821.75
562.93	59648.55
563.10	59910.69
563.26	59681.32
563.42	60107.30
563.59	59664.94
563.75	59707.07
563.92	59653.23
564.08	59686.00
564.24	60058.15
564.41	59896.65
564.57	59983.25
564.74	60011.34
564.90	59894.31
565.07	59997.29
565.23	60095.60
565.39	59915.37
565.56	59964.52
565.72	59992.61
565.88	59983.25
566.05	59971.55
566.21	59913.03
566.38	59735.15
566.54	60025.38
566.70	60229.01
566.87	60238.37
567.03	59845.16
567.19	60156.45
567.36	59966.87
567.52	60051.12
567.68	60341.35
567.85	60060.49
568.01	60519.23
568.17	59955.16
568.34	60207.94
568.50	59985.59
568.66	60357.74
568.83	60409.23
568.99	60229.01
569.15	60317.95
569.32	60212.62
569.48	60123.68
569.64	60402.21
569.81	60484.12
569.97	60065.17
570.13	60250.07
570.30	60104.96
570.46	60219.64
570.62	60184.54
570.78	60409.23
570.95	60271.14
571.11	60444.33
571.27	60271.14
571.43	60357.74
571.60	60416.25
571.76	60282.84
571.92	60371.78
572.09	60329.65
572.25	60397.52
572.41	60470.08
572.57	60437.31
572.74	60673.71
572.90	60477.10
573.06	60388.16
573.22	60327.31
573.38	60364.76
573.55	60310.92
573.71	60463.06
573.87	60460.72
574.03	60331.99
574.20	60294.54
574.36	60430.29
574.52	60530.93
574.68	60491.15
574.84	60577.75
575.01	60423.27
575.17	60530.93
575.33	60523.91
575.49	60479.44
575.65	60678.39
575.82	60439.65
575.98	60605.83
576.14	60790.73
576.30	60701.79
576.46	60427.95
576.62	60521.57
576.79	60580.09
576.95	60404.55
577.11	60748.60
577.27	60537.96
577.43	60580.09
577.59	60694.77
577.75	60570.72
577.92	60676.05
578.08	60505.19
578.24	60748.60
578.40	60800.10
578.56	60893.72
578.72	60760.31
578.88	60722.86
579.04	60776.69
579.21	60554.34
579.37	60669.03
579.53	60624.56
579.69	60498.17
579.85	60690.09
580.01	60657.32
580.17	60711.16
580.33	60821.16
580.49	60844.57
580.65	60727.54
580.82	60814.14
580.98	60385.82
581.14	60594.13
581.30	60849.25
581.46	60591.79
581.62	60877.33
581.78	60580.09
581.94	60727.54
582.10	60877.33
582.26	60746.26
582.42	60809.46
582.58	60746.26
582.74	60772.01
582.90	60715.84
583.06	60671.37
583.22	60631.58
583.38	60762.65
583.54	60865.63
583.70	60727.54
583.86	60727.54
584.02	60650.30
584.18	60982.66
584.34	60910.10
584.50	60842.23
584.66	60570.72
584.82	60676.05
584.98	60753.29
585.14	60874.99
585.30	60715.84
585.46	60839.89
585.62	60893.72
585.78	60753.29
585.94	60540.30
586.10	60867.97
586.26	60774.35
586.42	60989.68
586.58	61050.53
586.74	60928.83
586.90	60982.66
587.06	60786.05
587.22	60713.50
587.38	60919.46
587.54	60872.65
587.70	61020.11
587.86	60903.08
588.02	60865.63
588.18	61181.60
588.34	60809.46
588.49	60949.89
