SpectraSuite Data File
++++++++++++++++++++++++++++++++++++
Date: Fri Oct 25 10:48:28 EDT 2013
User: price-jones
Dark Spectrum Present: No
Reference Spectrum Present: No
Number of Sampled Component Spectra: 1
Spectrometers: USB2+H05261
Integration Time (usec): 100000 (USB2+H05261)
Spectra Averaged: 1 (USB2+H05261)
Boxcar Smoothing: 0 (USB2+H05261)
Correct for Electrical Dark: No (USB2+H05261)
Strobe/Lamp Enabled: No (USB2+H05261)
Correct for Detector Non-linearity: No (USB2+H05261)
Correct for Stray Light: No (USB2+H05261)
Number of Pixels in Processed Spectrum: 2048
>>>>>Begin Processed Spectral Data<<<<<
365.73	184.90
365.92	184.90
366.12	184.90
366.32	60.85
366.52	0.00
366.72	37.45
366.91	0.00
367.11	46.81
367.31	58.51
367.51	30.43
367.70	25.75
367.90	42.13
368.10	58.51
368.30	53.83
368.49	2.34
368.69	102.98
368.89	35.11
369.09	60.85
369.28	95.96
369.48	70.22
369.68	60.85
369.87	67.88
370.07	156.82
370.27	152.13
370.47	198.95
370.66	393.21
370.86	449.38
371.06	444.70
371.25	475.13
371.45	484.49
371.65	493.85
371.84	535.98
372.04	510.24
372.24	489.17
372.44	456.40
372.63	552.37
372.83	500.87
373.03	528.96
373.22	533.64
373.42	540.66
373.62	575.77
373.81	535.98
374.01	559.39
374.21	657.69
374.40	517.26
374.60	552.37
374.79	638.97
374.99	587.47
375.19	538.32
375.38	624.92
375.58	578.11
375.78	643.65
375.97	620.24
376.17	732.59
376.37	592.16
376.56	592.16
376.76	631.94
376.95	636.63
377.15	662.37
377.35	676.41
377.54	641.31
377.74	685.78
377.93	613.22
378.13	695.14
378.33	620.24
378.52	638.97
378.72	613.22
378.91	695.14
379.11	634.29
379.31	667.05
379.50	657.69
379.70	716.20
379.89	772.38
380.09	711.52
380.28	655.35
380.48	748.97
380.68	713.86
380.87	617.90
381.07	744.29
381.26	800.46
381.46	767.70
381.65	739.61
381.85	704.50
382.04	667.05
382.24	739.61
382.43	791.10
382.63	781.74
382.83	737.27
383.02	713.86
383.22	732.59
383.41	732.59
383.61	655.35
383.80	784.08
384.00	741.95
384.19	727.91
384.39	809.83
384.58	788.76
384.78	744.29
384.97	823.87
385.17	821.53
385.36	873.02
385.56	777.06
385.75	837.91
385.95	833.23
386.14	880.04
386.34	816.85
386.53	856.64
386.72	840.25
386.92	964.30
387.11	983.02
387.31	851.96
387.50	924.51
387.70	868.34
387.89	823.87
388.09	917.49
388.28	922.17
388.48	856.64
388.67	919.83
388.86	954.94
389.06	931.53
389.25	1006.43
389.45	950.26
389.64	938.55
389.84	1067.28
390.03	1050.90
390.22	1067.28
390.42	1100.05
390.61	1114.10
390.81	1008.77
391.00	1048.56
391.19	1071.97
391.39	1090.69
391.58	1130.48
391.78	1090.69
391.97	1102.39
392.16	1128.14
392.36	1071.97
392.55	957.28
392.75	1001.75
392.94	933.87
393.13	1086.01
393.33	1041.54
393.52	1050.90
393.71	1114.10
393.91	1132.82
394.10	1093.03
394.29	1132.82
394.49	1214.74
394.68	1186.65
394.88	1261.55
395.07	1247.51
395.26	1146.86
395.46	1167.93
395.65	1228.78
395.84	1263.89
396.04	1207.72
396.23	1217.08
396.42	1153.88
396.62	1249.85
396.81	1231.12
397.00	1231.12
397.19	1301.34
397.39	1231.12
397.58	1434.75
397.77	1430.07
397.97	1397.30
398.16	1411.34
398.35	1387.94
398.55	1554.12
398.74	1537.73
398.93	1486.24
399.12	1455.81
399.32	1481.56
399.51	1547.09
399.70	1568.16
399.90	1563.48
400.09	1666.46
400.28	1671.14
400.47	1603.27
400.67	1671.14
400.86	1664.12
401.05	1750.72
401.24	1739.02
401.44	1764.76
401.63	1837.32
401.82	1668.80
402.01	1643.06
402.21	1713.27
402.40	1750.72
402.59	1750.72
402.78	1797.53
402.97	1678.16
403.17	1802.21
403.36	1778.81
403.55	1820.94
403.74	1891.15
403.93	1820.94
404.13	1902.86
404.32	1865.41
404.51	1954.35
404.70	1977.75
404.89	1893.49
405.09	2078.40
405.28	1944.99
405.47	1975.41
405.66	1940.30
405.85	1919.24
406.05	1970.73
406.24	2040.95
406.43	2050.31
406.62	2083.08
406.81	2118.18
407.00	2085.42
407.20	2052.65
407.39	2101.80
407.58	2200.10
407.77	2155.63
407.96	2195.42
408.15	2190.74
408.34	2214.15
408.54	2258.62
408.73	2251.60
408.92	2307.77
409.11	2396.71
409.30	2235.21
409.49	2375.64
409.68	2270.32
409.87	2298.41
410.07	2408.41
410.26	2499.69
410.45	2455.22
410.64	2427.14
410.83	2513.74
411.02	2644.81
411.21	2574.59
411.40	2621.40
411.59	2586.29
411.78	2504.37
411.98	2576.93
412.17	2672.89
412.36	2640.12
412.55	2576.93
412.74	2689.28
412.93	2757.15
413.12	2775.88
413.31	2881.20
413.50	2761.83
413.69	2813.32
413.88	2970.14
414.07	2860.13
414.26	2939.71
414.45	2967.80
414.64	3000.57
414.83	3047.38
415.02	2981.84
415.22	3108.23
415.41	3075.46
415.60	3084.83
415.79	3265.05
415.98	3297.81
416.17	3335.26
416.36	3192.49
416.55	3243.98
416.74	3262.71
416.93	3241.64
417.12	3215.90
417.31	3337.60
417.50	3344.63
417.69	3534.21
417.88	3365.69
418.07	3365.69
418.26	3428.88
418.45	3384.41
418.64	3616.13
418.83	3552.93
419.02	3508.46
419.21	3524.85
419.39	3630.17
419.58	3564.64
419.77	3574.00
419.96	3435.91
420.15	3784.65
420.34	3674.64
420.53	3740.18
420.72	3735.50
420.91	3801.03
421.10	3826.78
421.29	3824.44
421.48	3831.46
421.67	3758.90
421.86	3857.20
422.05	3679.32
422.24	3744.86
422.43	3772.94
422.61	3948.48
422.80	3885.29
422.99	3826.78
423.18	3974.23
423.37	4065.51
423.56	4072.53
423.75	3974.23
423.94	3971.89
424.13	3758.90
424.32	3861.88
424.50	3995.29
424.69	4044.45
424.88	4018.70
425.07	4016.36
425.26	4093.60
425.45	3997.64
425.64	3829.12
425.83	3948.48
426.01	4063.17
426.20	4060.83
426.39	3932.10
426.58	3857.20
426.77	3946.14
426.96	4002.32
427.15	4030.40
427.33	4177.86
427.52	4086.58
427.71	4173.18
427.90	4121.68
428.09	4175.52
428.28	4180.20
428.46	4189.56
428.65	4131.05
428.84	4322.97
429.03	4276.16
429.22	4025.72
429.40	4189.56
429.59	4152.11
429.78	3882.95
429.97	3798.69
430.16	4014.02
430.34	4053.81
430.53	4147.43
430.72	4152.11
430.91	4182.54
431.10	4322.97
431.28	4479.79
431.47	4571.07
431.66	4603.83
431.85	4526.60
432.03	4657.67
432.22	4613.20
432.41	4746.61
432.60	4652.98
432.79	4774.69
432.97	4819.16
433.16	4730.22
433.35	4627.24
433.54	4746.61
433.72	4435.32
433.91	4676.39
434.10	4940.87
434.28	4739.58
434.47	4877.68
434.66	4924.49
434.85	4870.65
435.03	4903.42
435.22	5076.62
435.41	5191.31
435.59	5144.50
435.78	5231.10
435.97	5144.50
436.16	5085.98
436.34	5181.95
436.53	5224.08
436.72	5160.88
436.90	5062.58
437.09	5266.21
437.28	5036.83
437.46	5160.88
437.65	5097.69
437.84	5165.56
438.02	5109.39
438.21	5163.22
438.40	5116.41
438.58	5451.11
438.77	5343.44
438.96	5371.53
439.14	5516.64
439.33	5582.18
439.52	5703.89
439.70	5621.97
439.89	5893.47
440.08	5774.10
440.26	5685.16
440.45	5776.44
440.63	5940.28
440.82	6045.60
441.01	5919.21
441.19	5902.83
441.38	6115.82
441.57	6134.54
441.75	6136.88
441.94	6289.02
442.12	6197.74
442.31	6497.33
442.50	6286.68
442.68	6286.68
442.87	6370.94
443.05	6518.39
443.24	6450.52
443.43	6427.11
443.61	6478.60
443.80	6665.85
443.98	6476.26
444.17	6202.42
444.35	6579.25
444.54	6630.74
444.73	6609.67
444.91	6436.47
445.10	6427.11
445.28	6436.47
445.47	6408.39
445.65	6424.77
445.84	6434.13
446.02	6712.66
446.21	6663.51
446.39	6656.48
446.58	6633.08
446.77	6595.63
446.95	6525.41
447.14	6452.86
447.32	6750.10
447.51	6773.51
447.69	6565.20
447.88	6597.97
448.06	6565.20
448.25	6703.29
448.43	6750.10
448.62	6754.79
448.80	6703.29
448.99	6745.42
449.17	6803.94
449.36	6707.98
449.54	6906.92
449.73	6972.46
449.91	7035.65
450.10	7021.61
450.28	7440.56
450.46	7272.04
450.65	7131.61
450.83	7108.21
451.02	7037.99
451.20	7295.45
451.39	7304.81
451.57	7117.57
451.76	7250.98
451.94	7276.73
452.13	7232.26
452.31	7309.49
452.49	7045.01
452.68	7365.67
452.86	7269.70
453.05	7262.68
453.23	7407.80
453.42	7250.98
453.60	7360.98
453.78	7470.99
453.97	7272.04
454.15	7426.52
454.34	7368.01
454.52	7435.88
454.70	7487.37
454.89	7456.95
455.07	7445.24
455.26	7478.01
455.44	7815.05
455.62	7585.68
455.81	7716.75
455.99	7756.54
456.17	7728.45
456.36	7798.66
456.54	8042.08
456.73	8081.87
456.91	8138.04
457.09	8030.38
457.28	8437.63
457.46	8212.94
457.64	8327.63
457.83	8044.42
458.01	8018.68
458.19	8145.06
458.38	8004.63
458.56	8327.63
458.74	8259.75
458.93	8191.88
459.11	8322.94
459.29	8166.13
459.48	8411.89
459.66	8208.26
459.84	8374.44
460.03	8400.18
460.21	8568.70
460.39	8451.67
460.57	8465.72
460.76	8681.05
460.94	8524.23
461.12	8912.76
461.31	8622.53
461.49	8681.05
461.67	8894.04
461.85	8849.57
462.04	8615.51
462.22	9064.89
462.40	8865.95
462.59	8943.19
462.77	8863.61
462.95	9022.77
463.13	8912.76
463.32	9006.38
463.50	9179.58
463.68	9179.58
463.86	9083.62
464.05	8798.07
464.23	8978.30
464.41	9142.13
464.59	9118.73
464.78	9217.03
464.96	9179.58
465.14	9123.41
465.32	9345.76
465.50	9301.29
465.69	9392.57
465.87	9020.42
466.05	9500.23
466.23	9193.62
466.41	9130.43
466.60	9406.61
466.78	9121.07
466.96	9397.25
467.14	9441.72
467.32	9369.16
467.51	9355.12
467.69	9408.95
467.87	9497.89
468.05	9561.09
468.23	9448.74
468.41	9411.29
468.60	9312.99
468.78	9813.87
468.96	9533.00
469.14	9666.41
469.32	9858.34
469.50	9474.49
469.69	9879.40
469.87	9830.25
470.05	9933.23
470.23	9785.78
470.41	9912.17
470.59	9888.76
470.77	9811.53
470.95	10008.13
471.14	10274.95
471.32	9977.70
471.50	10136.86
471.68	10338.15
471.86	10162.61
472.04	10466.88
472.22	10677.52
472.40	10380.28
472.58	10384.96
472.77	10537.09
472.95	10436.45
473.13	11091.80
473.31	10523.05
473.49	10399.00
473.67	10637.73
473.85	10637.73
474.03	11005.20
474.21	11133.93
474.39	11014.56
474.57	10843.70
474.75	11056.69
474.93	11199.46
475.12	11166.70
475.30	11300.11
475.48	11358.62
475.66	11295.43
475.84	11257.98
476.02	11587.99
476.20	11585.65
476.38	11482.67
476.56	11889.92
476.74	11840.77
476.92	11805.66
477.10	12049.08
477.28	11927.37
477.46	12212.92
477.64	11992.90
477.82	12241.00
478.00	12601.44
478.18	12498.46
478.36	12437.61
478.54	12545.27
478.72	12526.55
478.90	12999.34
479.08	12816.77
479.26	13167.85
479.44	13212.32
479.62	13184.24
479.80	13415.95
479.98	13282.54
480.16	13778.73
480.34	13748.31
480.52	13722.56
480.70	13832.57
480.88	13818.52
481.06	13745.97
481.24	14141.52
481.41	14111.09
481.59	14478.55
481.77	14537.07
481.95	14789.85
482.13	14644.73
482.31	14546.43
482.49	14993.47
482.67	14841.34
482.85	15152.63
483.03	15115.18
483.21	15323.49
483.39	15590.31
483.57	15337.53
483.74	15475.62
483.92	15515.41
484.10	15290.72
484.28	15522.43
484.46	16350.98
484.64	16681.00
484.82	16006.92
485.00	16105.23
485.18	16526.52
485.35	16659.93
485.53	16451.63
485.71	16346.30
485.89	16411.84
486.07	16957.18
486.25	16915.05
486.43	16690.36
486.61	16868.24
486.78	17266.13
486.96	17350.39
487.14	17633.60
487.32	17926.16
487.50	17949.57
487.68	18366.18
487.85	18625.98
488.03	18696.20
488.21	18862.38
488.39	18649.39
488.57	18483.21
488.75	18803.86
488.92	19276.65
489.10	19365.59
489.28	19569.22
489.46	19676.88
489.64	19875.83
489.81	19836.04
489.99	20173.08
490.17	20175.42
490.35	20596.71
490.53	20545.22
490.70	20409.47
490.88	20573.31
491.06	20910.35
491.24	20793.32
491.41	20910.35
491.59	20798.00
491.77	20872.90
491.95	21282.49
492.13	21759.96
492.30	21790.39
492.48	21972.95
492.66	21696.77
492.84	21979.97
493.01	22347.44
493.19	22209.34
493.37	22483.19
493.54	22508.93
493.72	22434.03
493.90	22665.75
494.08	22855.33
494.25	23117.47
494.43	23274.29
494.61	23498.98
494.79	23686.22
494.96	23403.02
495.14	23573.88
495.32	23761.12
495.49	23793.89
495.67	23943.68
495.85	24304.12
496.02	24257.31
496.20	24594.35
496.38	24269.01
496.55	24514.77
496.73	25202.89
496.91	24837.76
497.09	25062.46
497.26	25570.35
497.44	24917.34
497.62	25261.40
497.79	25422.90
497.97	25425.24
498.14	25507.16
498.32	25640.57
498.50	25376.09
498.67	26150.81
498.85	26106.34
499.03	26103.99
499.20	26197.62
499.38	26562.74
499.56	26466.78
499.73	26518.27
499.91	26572.10
500.08	26937.23
500.26	26815.52
500.44	26808.50
500.61	26726.58
500.79	26789.77
500.97	26869.35
501.14	27402.99
501.32	27274.26
501.49	27576.19
501.67	27227.45
501.84	27494.27
502.02	27737.69
502.20	28161.33
502.37	28151.96
502.55	27964.72
502.72	27946.00
502.90	28339.21
503.07	28130.90
503.25	28503.04
503.43	28306.44
503.60	28411.76
503.78	28297.08
503.95	28325.16
504.13	28615.39
504.30	28669.22
504.48	29125.63
504.65	29046.05
504.83	29406.49
505.01	29137.33
505.18	29453.30
505.36	29647.57
505.53	29439.26
505.71	29862.90
505.88	29844.17
506.06	29905.02
506.23	30033.75
506.41	29802.04
506.58	29612.46
506.76	30377.81
506.93	30485.48
507.11	30543.99
507.28	30073.54
507.46	29876.94
507.63	30258.45
507.81	30513.56
507.98	30080.56
508.16	31096.36
508.33	30719.53
508.50	31091.68
508.68	30855.28
508.85	31353.82
509.03	31388.92
509.20	31185.30
509.38	31255.51
509.55	31564.46
509.73	31360.84
509.90	31672.13
510.08	31344.45
510.25	31405.31
510.42	31962.36
510.60	31894.48
510.77	32091.09
510.95	32210.45
511.12	32238.54
511.30	32486.64
511.47	32547.49
511.64	32723.03
511.82	32573.24
511.99	32311.10
512.17	32758.14
512.34	32636.43
512.51	32882.19
512.69	33031.98
512.86	32826.01
513.04	33048.36
513.21	33071.77
513.38	33362.00
513.56	32961.76
513.73	32772.18
513.90	33574.98
514.08	33434.55
514.25	33734.14
514.43	33394.76
514.60	33254.33
514.77	33780.95
514.95	33479.02
515.12	33883.94
515.29	34267.78
515.47	34050.11
515.64	34132.03
515.81	33734.14
515.99	33933.09
516.16	33979.90
516.33	33865.21
516.51	33806.70
516.68	33706.05
516.85	33448.60
517.03	34120.33
517.20	33961.17
517.37	34408.22
517.54	35098.67
517.72	34330.98
517.89	34227.99
518.06	34246.72
518.24	34440.98
518.41	34668.02
518.58	34979.31
518.75	34836.53
518.93	34974.63
519.10	34967.60
519.27	35615.93
519.45	35627.63
519.62	35480.18
519.79	35438.05
519.96	35529.33
520.14	35683.81
520.31	35915.52
520.48	35569.12
520.65	35730.62
520.83	36065.31
521.00	35985.74
521.17	36102.76
521.34	36566.19
521.52	36563.85
521.69	36343.84
521.86	36552.15
522.03	36615.34
522.20	36442.14
522.38	36994.51
522.55	36568.53
522.72	36814.29
522.89	36603.64
523.07	36809.61
523.24	36503.00
523.41	37406.44
523.58	36645.77
523.75	38085.20
523.92	37319.84
524.10	37563.26
524.27	37500.06
524.44	37839.44
524.61	37684.97
524.78	37521.13
524.96	37724.75
525.13	38132.01
525.30	38281.80
525.47	38234.99
525.64	38101.58
525.81	38298.19
525.98	37663.90
526.16	37429.85
526.33	37331.54
526.50	38192.86
526.67	37806.67
526.84	37963.49
527.01	38139.03
527.18	38014.98
527.36	38368.40
527.53	38785.02
527.70	38934.81
527.87	38944.17
528.04	38909.07
528.21	39145.46
528.38	38213.93
528.55	39002.69
528.72	38876.30
528.89	39388.88
529.07	39229.72
529.24	39196.95
529.41	39379.51
529.58	39061.20
529.75	39349.09
529.92	39489.52
530.09	39281.21
530.26	39494.20
530.43	39688.46
530.60	39295.25
530.77	39941.24
530.94	39842.94
531.11	39845.28
531.28	39723.57
531.46	39955.29
531.63	39854.64
531.80	39833.58
531.97	39697.83
532.14	39995.07
532.31	39936.56
532.48	40381.26
532.65	39976.35
532.82	40411.69
532.99	40804.90
533.16	40039.54
533.33	40203.38
533.50	40669.15
533.67	40835.33
533.84	40079.33
534.01	40128.48
534.18	40123.80
534.35	40875.12
534.52	40954.69
534.69	40786.18
534.86	40886.82
535.03	41045.97
535.20	41289.39
535.37	41170.02
535.54	41521.10
535.71	40989.80
535.88	41127.89
536.05	41043.63
536.22	41493.02
536.38	40879.80
536.55	41329.18
536.72	41034.27
536.89	41361.95
537.06	41188.75
537.23	41659.20
537.40	41397.06
537.57	41284.71
537.74	41801.97
537.91	41741.11
538.08	41490.68
538.25	41359.61
538.42	41823.03
538.59	41846.44
538.75	41015.55
538.92	41530.47
539.09	41874.52
539.26	41881.55
539.43	41848.78
539.60	41890.91
539.77	41586.64
539.94	41900.27
540.11	41944.74
540.28	41677.92
540.44	41846.44
540.61	41909.63
540.78	41979.85
540.95	41820.69
541.12	42223.26
541.29	41720.05
541.46	42164.75
541.62	42078.15
541.79	42618.81
541.96	42581.37
542.13	42115.60
542.30	42206.88
542.47	42492.43
542.63	42227.95
542.80	42834.14
542.97	42696.05
543.14	43189.91
543.31	43136.07
543.48	43058.84
543.64	43601.84
543.81	43559.71
543.98	43311.61
544.15	43103.31
544.32	43395.87
544.48	43562.05
544.65	43597.16
544.82	43285.87
544.99	42920.74
545.16	43716.53
545.32	43215.65
545.49	43798.44
545.66	43346.72
545.83	43931.86
546.00	44095.69
546.16	44016.11
546.33	43618.22
546.50	43180.54
546.67	43812.49
546.83	43274.16
547.00	43730.57
547.17	43552.69
547.34	43585.46
547.50	44189.31
547.67	44191.65
547.84	44147.18
548.00	44222.08
548.17	44032.50
548.34	43997.39
548.51	44292.30
548.67	44362.51
548.84	44222.08
549.01	44055.90
549.18	44491.24
549.34	43753.97
549.51	44194.00
549.68	44329.75
549.84	43948.24
550.01	44832.96
550.18	44294.64
550.34	44245.49
550.51	44566.14
550.68	44093.35
550.84	44201.02
551.01	44350.81
551.18	44760.40
551.34	44233.78
551.51	44608.27
551.68	44491.24
551.84	44786.15
552.01	44664.44
552.18	44589.55
552.34	44238.47
552.51	44769.77
552.68	45015.52
552.84	44774.45
553.01	45148.93
553.18	44917.22
553.34	44779.13
553.51	44949.99
553.67	44891.48
553.84	45287.03
554.01	45191.06
554.17	45617.04
554.34	45123.19
554.51	45565.55
554.67	45633.42
554.84	45214.47
555.00	45198.09
555.17	45052.97
555.33	45485.97
555.50	45249.58
555.67	45588.95
555.83	45272.98
556.00	45485.97
556.16	45942.38
556.33	45481.29
556.50	45357.24
556.66	45542.14
556.83	44907.86
556.99	45385.33
557.16	45500.01
557.32	45317.45
557.49	45989.19
557.65	45125.53
557.82	45439.16
557.98	45406.39
558.15	45560.87
558.32	45624.06
558.48	45427.46
558.65	45289.37
558.81	45469.59
558.98	45663.85
559.14	45336.18
559.31	45830.03
559.47	45977.48
559.64	45900.25
559.80	46408.14
559.97	45469.59
560.13	45708.32
560.30	45787.90
560.46	45563.21
560.63	45970.46
560.79	45933.01
560.96	46199.83
561.12	46129.62
561.29	45806.62
561.45	45724.71
561.61	45813.65
561.78	46050.04
561.94	45715.34
562.11	45865.14
562.27	45947.06
562.44	46087.49
562.60	46408.14
562.77	46120.26
562.93	46239.62
563.10	46019.61
563.26	45909.61
563.42	46227.92
563.59	45827.69
563.75	46150.68
563.92	46092.17
564.08	46085.15
564.24	46373.03
564.41	46312.18
564.57	46131.96
564.74	46192.81
564.90	46469.00
565.07	46288.77
565.23	46461.97
565.39	46160.05
565.56	46272.39
565.72	46138.98
565.88	46337.93
566.05	46384.74
566.21	46232.60
566.38	46529.85
566.54	46344.95
566.70	46492.40
566.87	46600.07
567.03	46300.48
567.19	46637.51
567.36	46616.45
567.52	46204.52
567.68	46969.87
567.85	46284.09
568.01	46351.97
568.17	46260.69
568.34	46401.12
568.50	46628.15
568.66	46103.87
568.83	46085.15
568.99	46010.25
569.15	46436.23
569.32	46134.30
569.48	46284.09
569.64	46934.76
569.81	46576.66
569.97	46358.99
570.13	46185.79
570.30	46403.46
570.46	46548.57
570.62	46204.52
570.78	45935.35
570.95	46326.22
571.11	46600.07
571.27	46644.54
571.43	46791.99
571.60	46377.72
571.76	46349.63
571.92	46663.26
572.09	46227.92
572.25	46279.41
572.41	46691.35
572.57	46621.13
572.74	46452.61
572.90	46843.48
573.06	46628.15
573.22	46831.78
573.38	46595.38
573.55	46101.53
573.71	46927.74
573.87	46564.96
574.03	46375.37
574.20	46660.92
574.36	46260.69
574.52	46672.62
574.68	46717.09
574.84	46768.58
575.01	46918.38
575.17	46742.84
575.33	46356.65
575.49	46632.83
575.65	46745.18
575.82	46630.49
575.98	46548.57
576.14	46920.72
576.30	46880.93
576.46	46532.19
576.62	47084.56
576.79	46829.44
576.95	46099.19
577.11	46351.97
577.27	46550.91
577.43	46518.15
577.59	46354.31
577.75	46703.05
577.92	46267.71
578.08	46265.37
578.24	46377.72
578.40	46300.48
578.56	46735.82
578.72	46712.41
578.88	46822.42
579.04	46883.27
579.21	46323.88
579.37	46665.60
579.53	46780.29
579.69	46373.03
579.85	46476.02
580.01	47051.79
580.17	46745.18
580.33	47136.05
580.49	46724.11
580.65	46857.52
580.82	46873.91
580.98	46803.69
581.14	46756.88
581.30	47004.98
581.46	46508.79
581.62	46667.94
581.78	46782.63
581.94	47084.56
582.10	46857.52
582.26	47070.51
582.42	47112.64
582.58	46586.02
582.74	46607.09
582.90	46979.23
583.06	47339.68
583.22	47262.44
583.38	47047.11
583.54	46777.95
583.70	46836.46
583.86	46363.67
584.02	46590.70
584.18	46864.55
584.34	46501.76
584.50	46707.73
584.66	46841.14
584.82	46918.38
584.98	47332.65
585.14	46801.35
585.30	46684.33
585.46	46478.36
585.62	46691.35
585.78	47264.78
585.94	46710.07
586.10	46660.92
586.26	46571.98
586.42	46880.93
586.58	46525.17
586.74	46843.48
586.90	46916.04
587.06	46595.38
587.22	46916.04
587.38	46803.69
587.54	47194.56
587.70	46918.38
587.86	46899.65
588.02	46602.41
588.18	47070.51
588.34	46810.71
588.49	46623.47
588.65	45876.84
588.81	46492.40
588.97	46328.56
589.13	46679.64
589.29	46588.36
589.45	46527.51
589.61	46321.54
589.77	46979.23
589.93	46803.69
