SpectraSuite Data File
++++++++++++++++++++++++++++++++++++
Date: Fri Oct 25 11:25:47 EDT 2013
User: price-jones
Dark Spectrum Present: No
Reference Spectrum Present: No
Number of Sampled Component Spectra: 1
Spectrometers: USB2+H05261
Integration Time (usec): 100000 (USB2+H05261)
Spectra Averaged: 1 (USB2+H05261)
Boxcar Smoothing: 0 (USB2+H05261)
Correct for Electrical Dark: No (USB2+H05261)
Strobe/Lamp Enabled: No (USB2+H05261)
Correct for Detector Non-linearity: No (USB2+H05261)
Correct for Stray Light: No (USB2+H05261)
Number of Pixels in Processed Spectrum: 2048
>>>>>Begin Processed Spectral Data<<<<<
365.73	196.60
365.92	196.60
366.12	196.60
366.32	175.54
366.52	147.45
366.72	177.88
366.91	119.37
367.11	231.71
367.31	126.39
367.51	121.71
367.70	86.60
367.90	145.11
368.10	110.01
368.30	149.79
368.49	91.28
368.69	112.35
368.89	161.50
369.09	147.45
369.28	243.42
369.48	212.99
369.68	210.65
369.87	177.88
370.07	161.50
370.27	234.05
370.47	358.10
370.66	634.29
370.86	627.26
371.06	650.67
371.25	739.61
371.45	653.01
371.65	734.93
371.84	557.05
372.04	674.07
372.24	716.20
372.44	709.18
372.63	737.27
372.83	704.50
373.03	849.61
373.22	788.76
373.42	849.61
373.62	809.83
373.81	870.68
374.01	751.31
374.21	774.72
374.40	723.23
374.60	866.00
374.79	805.14
374.99	795.78
375.19	877.70
375.38	896.43
375.58	816.85
375.78	898.77
375.97	828.55
376.17	922.17
376.37	933.87
376.56	863.66
376.76	896.43
376.95	863.66
377.15	961.96
377.35	891.74
377.54	910.47
377.74	812.17
377.93	868.34
378.13	929.19
378.33	940.90
378.52	926.85
378.72	903.45
378.91	924.51
379.11	896.43
379.31	931.53
379.50	980.68
379.70	957.28
379.89	1034.52
380.09	947.92
380.28	1029.84
380.48	926.85
380.68	987.71
380.87	929.19
381.07	954.94
381.26	1015.79
381.46	1027.50
381.65	1071.97
381.85	1046.22
382.04	980.68
382.24	1053.24
382.43	1071.97
382.63	1053.24
382.83	1083.67
383.02	1095.37
383.22	1125.80
383.41	1093.03
383.61	1151.54
383.80	1088.35
384.00	1163.25
384.19	1153.88
384.39	1217.08
384.58	1123.46
384.78	1097.71
384.97	1167.93
385.17	1170.27
385.36	1104.73
385.56	1181.97
385.75	1179.63
385.95	1146.86
386.14	1193.67
386.34	1231.12
386.53	1149.20
386.72	1301.34
386.92	1231.12
387.11	1207.72
387.31	1226.44
387.50	1277.93
387.70	1219.42
387.89	1240.48
388.09	1287.29
388.28	1240.48
388.48	1231.12
388.67	1268.57
388.86	1355.17
389.06	1313.04
389.25	1378.58
389.45	1385.60
389.64	1315.38
389.84	1394.96
390.03	1409.00
390.22	1441.77
390.42	1451.13
390.61	1423.05
390.81	1416.02
391.00	1460.49
391.19	1467.52
391.39	1329.42
391.58	1488.58
391.78	1544.75
391.97	1472.20
392.16	1432.41
392.36	1514.33
392.55	1441.77
392.75	1544.75
392.94	1472.20
393.13	1523.69
393.33	1633.69
393.52	1514.33
393.71	1495.60
393.91	1652.42
394.10	1488.58
394.29	1589.22
394.49	1542.41
394.68	1626.67
394.88	1504.96
395.07	1694.55
395.26	1593.90
395.46	1671.14
395.65	1720.29
395.84	1708.59
396.04	1743.70
396.23	1849.02
396.42	1778.81
396.62	1832.64
396.81	1680.50
397.00	1757.74
397.19	1874.77
397.39	1867.75
397.58	1820.94
397.77	1842.00
397.97	1785.83
398.16	1853.70
398.35	1809.23
398.55	1846.68
398.74	1968.39
398.93	1928.60
399.12	1930.94
399.32	1832.64
399.51	1849.02
399.70	1930.94
399.90	1942.64
400.09	1961.37
400.28	2078.40
400.47	2069.03
400.67	2097.12
400.86	2211.81
401.05	2129.89
401.24	1984.77
401.44	1998.82
401.63	2090.10
401.82	2043.29
402.01	2097.12
402.21	2150.95
402.40	2183.72
402.59	2260.96
402.78	2181.38
402.97	2275.00
403.17	2246.91
403.36	2249.25
403.55	2296.07
403.74	2286.70
403.93	2305.43
404.13	2321.81
404.32	2462.24
404.51	2340.54
404.70	2443.52
404.89	2359.26
405.09	2509.05
405.28	2399.05
405.47	2541.82
405.66	2471.61
405.85	2537.14
406.05	2394.37
406.24	2480.97
406.43	2626.08
406.62	2602.68
406.81	2693.96
407.00	2644.81
407.20	2597.99
407.39	2607.36
407.58	2630.76
407.77	2750.13
407.96	2864.82
408.15	2686.94
408.34	2588.63
408.54	2787.58
408.73	2801.62
408.92	2832.05
409.11	2881.20
409.30	2951.42
409.49	2888.22
409.68	2813.32
409.87	2899.92
410.07	3059.08
410.26	3005.25
410.45	2963.12
410.64	2953.76
410.83	3023.97
411.02	3197.17
411.21	3143.34
411.40	3038.02
411.59	3201.85
411.78	3204.19
411.98	3267.39
412.17	3194.83
412.36	3258.03
412.55	3346.97
412.74	3337.60
412.93	3391.44
413.12	3311.86
413.31	3655.92
413.50	3428.88
413.69	3550.59
413.88	3592.72
414.07	3599.74
414.26	3559.95
414.45	3604.42
414.64	3721.45
414.83	3688.68
415.02	3735.50
415.22	3894.65
415.41	3866.56
415.60	3765.92
415.79	3812.73
415.98	3962.53
416.17	4044.45
416.36	4037.42
416.55	3913.38
416.74	4051.47
416.93	4030.40
417.12	4074.87
417.31	4135.73
417.50	4201.26
417.69	4325.31
417.88	4360.42
418.07	4154.45
418.26	4182.54
418.45	4227.01
418.64	4472.76
418.83	4407.23
419.02	4440.00
419.21	4486.81
419.39	4365.10
419.58	4409.57
419.77	4521.92
419.96	4596.81
420.15	4748.95
420.34	4533.62
420.53	4667.03
420.72	4589.79
420.91	4681.07
421.10	4744.27
421.29	4884.70
421.48	4561.70
421.67	4762.99
421.86	4669.37
422.05	4760.65
422.24	4767.67
422.43	4844.91
422.61	4748.95
422.80	4762.99
422.99	4882.36
423.18	4947.89
423.37	5004.07
423.56	4931.51
423.75	4816.82
423.94	4751.29
424.13	4732.56
424.32	4840.23
424.50	5060.24
424.69	5048.54
424.88	4968.96
425.07	4938.53
425.26	5022.79
425.45	4884.70
425.64	4933.85
425.83	5036.83
426.01	5013.43
426.20	5102.37
426.39	4947.89
426.58	5144.50
426.77	5198.33
426.96	5053.22
427.15	5076.62
427.33	5186.63
427.52	5186.63
427.71	5420.68
427.90	5256.84
428.09	5163.22
428.28	5516.64
428.46	5238.12
428.65	5249.82
428.84	5455.79
429.03	5399.62
429.22	5345.78
429.40	5511.96
429.59	5518.98
429.78	5303.65
429.97	5219.39
430.16	5341.10
430.34	5598.56
430.53	5706.23
430.72	5570.48
430.91	5603.24
431.10	5565.79
431.28	5844.32
431.47	5771.76
431.66	5769.42
431.85	5736.65
432.03	5834.96
432.22	5982.41
432.41	5713.25
432.60	5870.06
432.79	5774.10
432.97	5987.09
433.16	6001.13
433.35	6045.60
433.54	6190.72
433.72	6139.23
433.91	6204.76
434.10	6122.84
434.28	6101.78
434.47	6085.39
434.66	6164.97
434.85	6413.07
435.03	6272.64
435.22	6230.51
435.41	6431.79
435.59	6314.77
435.78	6506.69
435.97	6389.66
436.16	6366.26
436.34	6373.28
436.53	6445.84
436.72	6712.66
436.90	6415.41
437.09	6434.13
437.28	6520.73
437.46	6576.91
437.65	6544.14
437.84	6717.34
438.02	6719.68
438.21	6773.51
438.40	6665.85
438.58	6890.54
438.77	7098.84
438.96	6813.30
439.14	7059.06
439.33	7178.42
439.52	7157.36
439.70	7229.91
439.89	7393.75
440.08	7426.52
440.26	7377.37
440.45	7400.77
440.63	7536.52
440.82	7588.02
441.01	7461.63
441.19	7632.49
441.38	7576.31
441.57	7775.26
441.75	7955.48
441.94	7946.12
442.12	7911.01
442.31	8060.80
442.50	7934.42
442.68	7885.26
442.87	7859.52
443.05	7969.52
443.24	8329.97
443.43	8156.77
443.61	8037.40
443.80	8578.06
443.98	7971.86
444.17	7964.84
444.35	8402.52
444.54	8383.80
444.73	8219.96
444.91	8194.22
445.10	8292.52
445.28	8372.10
445.47	8074.85
445.65	8248.05
445.84	8594.45
446.02	8561.68
446.21	8395.50
446.39	8184.85
446.58	8571.04
446.77	8547.64
446.95	8194.22
447.14	8376.78
447.32	8465.72
447.51	8568.70
447.69	8411.89
447.88	8496.14
448.06	8528.91
448.25	8629.56
448.43	8571.04
448.62	8454.02
448.80	8404.86
448.99	8484.44
449.17	8826.16
449.36	8585.08
449.54	8823.82
449.73	8912.76
449.91	8959.57
450.10	9025.11
450.28	9092.98
450.46	9013.40
450.65	9104.68
450.83	9013.40
451.02	9135.11
451.20	9081.28
451.39	9156.18
451.57	9193.62
451.76	9090.64
451.94	9172.56
452.13	9376.19
452.31	9418.32
452.49	9289.59
452.68	9289.59
452.86	9048.51
453.05	9233.41
453.23	9350.44
453.42	9275.54
453.60	9160.86
453.78	9542.36
453.97	9397.25
454.15	9380.87
454.34	9390.23
454.52	9591.52
454.70	9591.52
454.89	9729.61
455.07	9607.90
455.26	9673.43
455.44	9724.93
455.62	9633.64
455.81	9956.64
455.99	9980.04
456.17	9975.36
456.36	10099.41
456.54	10150.90
456.73	10141.54
456.91	10537.09
457.09	10253.89
457.28	10422.41
457.46	10129.84
457.64	10443.47
457.83	10401.34
458.01	10281.97
458.19	10576.88
458.38	10471.56
458.56	10675.18
458.74	10785.19
458.93	10621.35
459.11	10895.19
459.29	10628.37
459.48	10902.22
459.66	10651.78
459.84	10885.83
460.03	11162.01
460.21	10869.45
460.39	10951.37
460.57	10902.22
460.76	11077.76
460.94	11150.31
461.12	11215.85
461.31	11105.84
461.49	10998.18
461.67	11063.71
461.85	11246.27
462.04	11335.21
462.22	11604.38
462.40	11569.27
462.59	11606.72
462.77	11370.32
462.95	11602.04
463.13	11527.14
463.32	11424.15
463.50	11740.13
463.68	11662.89
463.86	11688.64
464.05	11712.04
464.23	11611.40
464.41	11782.26
464.59	11609.06
464.78	12264.41
464.96	11925.03
465.14	11896.94
465.32	12133.34
465.50	11988.22
465.69	12159.08
465.87	11967.16
466.05	12163.76
466.23	12063.12
466.41	12086.53
466.60	12236.32
466.78	12100.57
466.96	12257.39
467.14	12128.66
467.32	12437.61
467.51	12528.89
467.69	12271.43
467.87	12629.53
468.05	12243.34
468.23	12386.12
468.41	12468.03
468.60	12587.40
468.78	12575.70
468.96	12507.82
469.14	12610.81
469.32	12856.56
469.50	12594.42
469.69	12947.84
469.87	13139.77
470.05	13088.28
470.23	13001.68
470.41	13095.30
470.59	13425.31
470.77	13125.72
470.95	13294.24
471.14	13439.36
471.32	13282.54
471.50	13500.21
471.68	13530.64
471.86	13343.39
472.04	13598.51
472.22	14136.84
472.40	13621.92
472.58	13879.38
472.77	13888.74
472.95	14104.07
473.13	14527.71
473.31	14031.51
473.49	13898.10
473.67	14066.62
473.85	14178.97
474.03	14537.07
474.21	14597.92
474.39	14368.55
474.57	14565.15
474.75	14911.55
474.93	15000.49
475.12	14949.00
475.30	14953.68
475.48	14888.15
475.66	15073.05
475.84	15169.01
476.02	15576.27
476.20	15075.39
476.38	15506.05
476.56	16060.76
476.74	15793.94
476.92	15693.29
477.10	15915.64
477.28	15836.06
477.46	16409.50
477.64	16210.55
477.82	16439.92
478.00	16645.89
478.18	16524.18
478.36	16823.77
478.54	16945.48
478.72	17135.06
478.90	17383.16
479.08	17436.99
479.26	17486.14
479.44	17935.53
479.62	17862.97
479.80	17783.39
479.98	18251.50
480.16	18284.26
480.34	18047.87
480.52	18600.24
480.70	18513.64
480.88	18129.79
481.06	18625.98
481.24	18649.39
481.41	19288.35
481.59	19314.10
481.77	19461.55
481.95	19669.86
482.13	19463.90
482.31	19613.69
482.49	20512.46
482.67	19859.45
482.85	20500.75
483.03	20599.05
483.21	20996.95
483.39	20870.56
483.57	20641.18
483.74	21120.99
483.92	20896.30
484.10	21235.68
484.28	21476.76
484.46	21781.03
484.64	22347.44
484.82	22061.89
485.00	22342.75
485.18	22824.90
485.35	22719.58
485.53	22782.77
485.71	23040.23
485.89	23557.49
486.07	23105.77
486.25	23054.28
486.43	23616.01
486.61	23817.29
486.78	24121.56
486.96	24032.62
487.14	24217.52
487.32	24746.48
487.50	24926.71
487.68	24870.53
487.85	25046.07
488.03	25453.33
488.21	25446.30
488.39	25799.73
488.57	25874.62
488.75	26221.02
488.92	26485.50
489.10	26616.57
489.28	26504.23
489.46	27007.44
489.64	27225.11
489.81	27531.72
489.99	27527.04
490.17	27395.97
490.35	27723.65
490.53	28718.37
490.70	28521.77
490.88	28584.96
491.06	28959.45
491.24	28889.23
491.41	29319.89
491.59	29165.42
491.77	29476.71
491.95	29542.24
492.13	29785.66
492.30	30068.86
492.48	29942.47
492.66	30127.38
492.84	30260.79
493.01	30541.65
493.19	30677.40
493.37	30738.26
493.54	30976.99
493.72	31552.76
493.90	31339.77
494.08	31812.56
494.25	31931.93
494.43	31931.93
494.61	31995.12
494.79	32711.33
494.96	32182.37
495.14	32568.55
495.32	32889.21
495.49	33102.20
495.67	32868.14
495.85	33715.42
496.02	33350.29
496.20	33975.22
496.38	33872.23
496.55	33769.25
496.73	34572.05
496.91	34366.09
497.09	34707.80
497.26	35051.86
497.44	34569.71
497.62	35466.14
497.79	35620.61
497.97	35049.52
498.14	35665.08
498.32	36011.48
498.50	36215.11
498.67	36577.89
498.85	36278.30
499.03	36627.04
499.20	36320.43
499.38	36547.47
499.56	37006.21
499.73	37053.02
499.91	37305.80
500.08	37153.66
500.26	37177.07
500.44	37741.14
500.61	38122.65
500.79	37937.74
500.97	38185.84
501.14	38574.37
501.32	38525.22
501.49	38204.56
501.67	38438.62
501.84	38768.63
502.02	38396.49
502.20	38667.99
502.37	39210.99
502.55	39416.96
502.72	39311.64
502.90	39360.79
503.07	39400.58
503.25	39716.55
503.43	38902.04
503.60	40233.81
503.78	39976.35
503.95	40411.69
504.13	40411.69
504.30	40404.67
504.48	40275.94
504.65	40261.90
504.83	40999.16
505.01	41366.63
505.18	40837.67
505.36	41345.56
505.53	41155.98
505.71	41422.80
505.88	41331.52
506.06	41471.95
506.23	41593.66
506.41	41628.77
506.58	42101.56
506.76	42040.70
506.93	42752.23
507.11	41998.57
507.28	42714.78
507.46	42515.83
507.63	42838.83
507.81	42934.79
507.98	43292.89
508.16	42958.19
508.33	43005.00
508.50	43391.19
508.68	43405.23
508.85	43665.03
509.03	43426.30
509.20	43480.13
509.38	43814.83
509.55	44212.72
509.73	44219.74
509.90	44760.40
510.08	44669.12
510.25	44542.74
510.42	44526.35
510.60	45001.48
510.77	44942.97
510.95	45219.15
511.12	45036.59
511.30	44942.97
511.47	45415.76
511.64	45734.07
511.82	45605.34
511.99	45598.32
512.17	45731.73
512.34	45801.94
512.51	45890.88
512.69	46073.45
512.86	46401.12
513.04	46630.49
513.21	46368.35
513.38	46866.89
513.56	46583.68
513.73	46396.44
513.90	47274.14
514.08	46955.83
514.25	47180.52
514.43	47185.20
514.60	47398.19
514.77	47119.66
514.95	47613.52
515.12	47583.09
515.29	47592.45
515.47	47693.10
515.64	47995.03
515.81	48018.43
515.99	48002.05
516.16	48514.62
516.33	48027.79
516.51	48556.75
516.68	47985.66
516.85	48498.24
517.03	48526.33
517.20	48474.84
517.37	48680.80
517.54	48577.82
517.72	48772.08
517.89	49069.33
518.06	48863.36
518.24	49242.53
518.41	49612.34
518.58	49457.86
518.75	49345.51
518.93	49588.93
519.10	49411.05
519.27	49572.55
519.45	49397.01
519.62	49708.30
519.79	49752.77
519.96	49860.43
520.14	49745.75
520.31	49808.94
520.48	50270.03
520.65	49825.32
520.83	50578.98
521.00	50773.24
521.17	50387.05
521.34	50557.91
521.52	50674.94
521.69	50958.14
521.86	50995.59
522.03	51103.26
522.20	51075.17
522.38	51482.42
522.55	51384.12
522.72	51103.26
522.89	51278.80
523.07	51576.04
523.24	51475.40
523.41	51510.51
523.58	51119.64
523.75	51716.48
523.92	51590.09
524.10	51990.32
524.27	52046.49
524.44	51983.30
524.61	52259.48
524.78	51908.40
524.96	52060.54
525.13	52505.24
525.30	52388.21
525.47	52289.91
525.64	52317.99
525.81	52743.97
525.98	52727.59
526.16	52617.58
526.33	52266.50
526.50	52971.00
526.67	52528.64
526.84	52715.89
527.01	52839.93
527.18	52846.96
527.36	52828.23
527.53	53022.50
527.70	53389.96
527.87	53525.71
528.04	53102.07
528.21	53176.97
528.38	53509.33
528.55	53579.54
528.72	53294.00
528.89	53195.70
529.07	53289.32
529.24	53385.28
529.41	53867.43
529.58	53301.02
529.75	53677.85
529.92	53645.08
530.09	53509.33
530.26	53925.94
530.43	53895.52
530.60	53881.47
530.77	53652.10
530.94	53928.28
531.11	53811.26
531.28	53935.30
531.46	53977.43
531.63	54241.92
531.80	54354.26
531.97	54284.04
532.14	54262.98
532.31	54218.51
532.48	54550.87
532.65	54410.43
532.82	54326.17
532.99	54506.40
533.16	54546.18
533.33	54550.87
533.50	54817.69
533.67	54607.04
533.84	54564.91
534.01	54990.89
534.18	54983.86
534.35	55253.03
534.52	55114.94
534.69	55257.71
534.86	55100.89
535.03	55002.59
535.20	55124.30
535.37	55171.11
535.54	55189.83
535.71	55257.71
535.88	55196.85
536.05	55168.77
536.22	55585.38
536.38	55571.34
536.55	55587.72
536.72	55536.23
536.89	55391.12
537.06	55716.45
537.23	55552.62
537.40	55611.13
537.57	55758.58
537.74	55803.05
537.91	55948.17
538.08	55744.54
538.25	55803.05
538.42	55714.11
538.59	56046.47
538.75	55901.36
538.92	55884.97
539.09	56039.45
539.26	56055.83
539.43	56289.88
539.60	56149.45
539.77	56250.09
539.94	56348.40
540.11	56135.41
540.28	56451.38
540.44	56226.69
540.61	56420.95
540.78	56381.16
540.95	56526.28
541.12	56191.58
541.29	56369.46
541.46	56432.66
541.62	56587.13
541.79	56507.55
541.96	56402.23
542.13	56725.22
542.30	56781.40
542.47	56942.89
542.63	56823.53
542.80	56860.97
542.97	56842.25
543.14	57050.56
543.31	56973.32
543.48	56956.94
543.64	57411.00
543.81	57549.09
543.98	57251.84
544.15	56996.73
544.32	57293.97
544.48	57425.04
544.65	57382.91
544.82	57247.16
544.99	57020.13
545.16	57499.94
545.32	57162.90
545.49	57586.54
545.66	57546.75
545.83	57460.15
546.00	57759.74
546.16	57628.67
546.33	57317.38
546.50	57345.47
546.67	57640.37
546.83	57378.23
547.00	57577.18
547.17	57528.03
547.34	57490.58
547.50	58073.37
547.67	57989.11
547.84	57844.00
548.00	58066.35
548.17	58075.71
548.34	58089.76
548.51	58152.95
548.67	58115.50
548.84	57958.69
549.01	58124.86
549.18	58038.26
549.34	58253.59
549.51	58204.44
549.68	58174.02
549.84	58220.83
550.01	58387.00
550.18	58014.86
550.34	58197.42
550.51	58298.06
550.68	58370.62
550.84	58106.14
551.01	58581.27
551.18	58356.58
551.34	58443.18
551.51	58639.78
551.68	58595.31
551.84	58382.32
552.01	58445.52
552.18	58681.91
552.34	58377.64
552.51	58719.36
552.68	58642.12
552.84	58714.68
553.01	58930.01
553.18	58812.98
553.34	58810.64
553.51	58688.93
553.67	58791.92
553.84	58887.88
554.01	58972.14
554.17	58955.75
554.34	58967.46
554.51	58960.44
554.67	59079.80
554.84	58883.20
555.00	58979.16
555.17	58770.85
555.33	58749.79
555.50	58915.96
555.67	59018.95
555.83	58873.84
556.00	59208.53
556.16	59358.33
556.33	59089.16
556.50	59072.78
556.66	59135.98
556.83	59011.93
556.99	59374.71
557.16	59400.46
557.32	59533.87
557.49	59587.70
557.65	59168.74
557.82	59451.95
557.98	59351.30
558.15	59327.90
558.32	59473.01
558.48	59346.62
558.65	59309.18
558.81	59482.37
558.98	59484.72
559.14	59529.19
559.31	59482.37
559.47	59543.23
559.64	59620.47
559.80	59664.94
559.97	59653.23
560.13	59529.19
560.30	59386.41
560.46	59615.79
560.63	59723.45
560.79	59751.54
560.96	59838.14
561.12	59599.40
561.29	59662.60
561.45	59807.71
561.61	59756.22
561.78	59845.16
561.94	59796.01
562.11	59791.33
562.27	59948.14
562.44	59697.70
562.60	59936.44
562.77	59772.60
562.93	59863.88
563.10	59952.82
563.26	59812.39
563.42	60004.31
563.59	60086.23
563.75	59920.05
563.92	59756.22
564.08	60140.07
564.24	60116.66
564.41	60095.60
564.57	59917.71
564.74	60060.49
564.90	60086.23
565.07	60018.36
565.23	60027.72
565.39	60067.51
565.56	60111.98
565.72	60140.07
565.88	60079.21
566.05	60156.45
566.21	60163.47
566.38	60193.90
566.54	60065.17
566.70	60168.15
566.87	60367.10
567.03	59997.29
567.19	60179.85
567.36	60261.77
567.52	60170.49
567.68	60292.20
567.85	60205.60
568.01	60388.16
568.17	60224.32
568.34	60259.43
568.50	60252.41
568.66	60219.64
568.83	60257.09
568.99	60107.30
569.15	60420.93
569.32	60355.39
569.48	60500.51
569.64	60514.55
569.81	60427.95
569.97	60121.34
570.13	60261.77
570.30	60280.50
570.46	60324.97
570.62	60446.68
570.78	60385.82
570.95	60357.74
571.11	60374.12
571.27	60341.35
571.43	60530.93
571.60	60556.68
571.76	60493.49
571.92	60374.12
572.09	60580.09
572.25	60547.32
572.41	60395.18
572.57	60575.40
572.74	60743.92
572.90	60357.74
573.06	60495.83
573.22	60409.23
573.38	60610.51
573.55	60474.76
573.71	60877.33
573.87	60879.67
574.03	60364.76
574.20	60753.29
574.36	60523.91
574.52	60568.38
574.68	60914.78
574.84	60867.97
575.01	60500.51
575.17	60690.09
575.33	60568.38
575.49	60598.81
575.65	60697.11
575.82	60767.33
575.98	60853.93
576.14	60940.53
576.30	60844.57
576.46	60671.37
576.62	60718.18
576.79	60631.58
576.95	60568.38
577.11	60968.61
577.27	60797.76
577.43	60718.18
577.59	60664.35
577.75	60631.58
577.92	60603.49
578.08	60568.38
578.24	60769.67
578.40	60917.12
578.56	60874.99
578.72	60605.83
578.88	60858.61
579.04	61010.74
579.21	60708.82
579.37	61010.74
579.53	61127.77
579.69	60711.16
579.85	60938.19
580.01	60652.64
580.17	60725.20
580.33	60828.18
580.49	60947.55
580.65	60704.13
580.82	60802.44
580.98	60734.56
581.14	60741.58
581.30	60795.42
581.46	60552.00
581.62	60830.52
581.78	60683.07
581.94	60762.65
582.10	60769.67
582.26	60676.05
582.42	60828.18
582.58	60910.10
582.74	60849.25
582.90	60926.49
583.06	60839.89
583.22	60776.69
583.38	60907.76
583.54	60807.12
583.70	60809.46
583.86	61066.92
584.02	60729.88
584.18	60907.76
584.34	60823.50
584.50	60748.60
584.66	60816.48
584.82	60697.11
584.98	61265.86
585.14	61055.21
585.30	60952.23
585.46	61216.71
585.62	60781.37
585.78	61010.74
585.94	60746.26
586.10	60856.27
586.26	61064.58
586.42	60828.18
586.58	61076.28
586.74	61015.43
586.90	60992.02
587.06	60905.42
587.22	61076.28
587.38	60893.72
587.54	61104.37
587.70	61263.52
587.86	61057.56
588.02	60987.34
588.18	61099.68
588.34	61050.53
588.49	60940.53
