SpectraSuite Data File
++++++++++++++++++++++++++++++++++++
Date: Fri Oct 25 11:34:46 EDT 2013
User: price-jones
Dark Spectrum Present: No
Reference Spectrum Present: No
Number of Sampled Component Spectra: 1
Spectrometers: USB2+H05261
Integration Time (usec): 100000 (USB2+H05261)
Spectra Averaged: 1 (USB2+H05261)
Boxcar Smoothing: 0 (USB2+H05261)
Correct for Electrical Dark: No (USB2+H05261)
Strobe/Lamp Enabled: No (USB2+H05261)
Correct for Detector Non-linearity: No (USB2+H05261)
Correct for Stray Light: No (USB2+H05261)
Number of Pixels in Processed Spectrum: 2048
>>>>>Begin Processed Spectral Data<<<<<
365.73	243.42
365.92	243.42
366.12	243.42
366.32	234.05
366.52	191.92
366.72	212.99
366.91	241.08
367.11	191.92
367.31	121.71
367.51	222.35
367.70	121.71
367.90	182.56
368.10	156.82
368.30	217.67
368.49	196.60
368.69	231.71
368.89	189.58
369.09	208.31
369.28	145.11
369.48	241.08
369.68	212.99
369.87	243.42
370.07	234.05
370.27	299.59
370.47	301.93
370.66	404.91
370.86	627.26
371.06	601.52
371.25	491.51
371.45	500.87
371.65	538.32
371.84	535.98
372.04	524.28
372.24	568.75
372.44	547.69
372.63	594.50
372.83	603.86
373.03	624.92
373.22	554.71
373.42	564.07
373.62	610.88
373.81	603.86
374.01	638.97
374.21	678.76
374.40	650.67
374.60	688.12
374.79	655.35
374.99	641.31
375.19	645.99
375.38	655.35
375.58	713.86
375.78	727.91
375.97	711.52
376.17	627.26
376.37	620.24
376.56	660.03
376.76	540.66
376.95	664.71
377.15	681.10
377.35	603.86
377.54	578.11
377.74	657.69
377.93	678.76
378.13	667.05
378.33	690.46
378.52	786.42
378.72	692.80
378.91	706.84
379.11	695.14
379.31	732.59
379.50	713.86
379.70	725.57
379.89	671.73
380.09	683.44
380.28	697.48
380.48	648.33
380.68	636.63
380.87	713.86
381.07	835.57
381.26	770.04
381.46	809.83
381.65	823.87
381.85	734.93
382.04	760.67
382.24	814.51
382.43	814.51
382.63	727.91
382.83	840.25
383.02	809.83
383.22	763.01
383.41	805.14
383.61	812.17
383.80	812.17
384.00	739.61
384.19	730.25
384.39	809.83
384.58	795.78
384.78	821.53
384.97	882.38
385.17	823.87
385.36	807.48
385.56	828.55
385.75	802.80
385.95	819.19
386.14	835.57
386.34	821.53
386.53	826.21
386.72	805.14
386.92	863.66
387.11	840.25
387.31	887.06
387.50	835.57
387.70	863.66
387.89	882.38
388.09	887.06
388.28	952.60
388.48	898.77
388.67	800.46
388.86	947.92
389.06	828.55
389.25	873.02
389.45	875.36
389.64	896.43
389.84	1034.52
390.03	915.15
390.22	926.85
390.42	887.06
390.61	940.90
390.81	990.05
391.00	912.81
391.19	973.66
391.39	908.13
391.58	924.51
391.78	978.34
391.97	950.26
392.16	1036.86
392.36	1015.79
392.55	1074.31
392.75	1102.39
392.94	987.71
393.13	1034.52
393.33	978.34
393.52	1046.22
393.71	1083.67
393.91	1011.11
394.10	1011.11
394.29	1149.20
394.49	1071.97
394.68	1163.25
394.88	1123.46
395.07	1125.80
395.26	1121.12
395.46	1090.69
395.65	1137.50
395.84	1078.99
396.04	1184.31
396.23	1156.22
396.42	1135.16
396.62	1111.75
396.81	1207.72
397.00	1158.57
397.19	1151.54
397.39	1146.86
397.58	1235.80
397.77	1160.91
397.97	1231.12
398.16	1165.59
398.35	1228.78
398.55	1181.97
398.74	1200.69
398.93	1268.57
399.12	1280.27
399.32	1205.38
399.51	1221.76
399.70	1259.21
399.90	1315.38
400.09	1282.61
400.28	1301.34
400.47	1275.59
400.67	1362.19
400.86	1362.19
401.05	1343.47
401.24	1362.19
401.44	1397.30
401.63	1378.58
401.82	1526.03
402.01	1324.74
402.21	1366.87
402.40	1476.88
402.59	1413.68
402.78	1453.47
402.97	1427.73
403.17	1409.00
403.36	1406.66
403.55	1404.32
403.74	1474.54
403.93	1533.05
404.13	1589.22
404.32	1511.99
404.51	1565.82
404.70	1502.62
404.89	1575.18
405.09	1636.03
405.28	1617.31
405.47	1650.08
405.66	1530.71
405.85	1636.03
406.05	1570.50
406.24	1652.42
406.43	1778.81
406.62	1610.29
406.81	1687.53
407.00	1673.48
407.20	1659.44
407.39	1713.27
407.58	1757.74
407.77	1806.89
407.96	1825.62
408.15	1937.96
408.34	1802.21
408.54	1729.66
408.73	1797.53
408.92	1860.73
409.11	1865.41
409.30	1879.45
409.49	1968.39
409.68	1755.40
409.87	2001.16
410.07	1963.71
410.26	1952.01
410.45	2031.58
410.64	1930.94
410.83	2022.22
411.02	2031.58
411.21	2104.14
411.40	1982.43
411.59	2010.52
411.78	2059.67
411.98	1987.11
412.17	2132.23
412.36	2136.91
412.55	2174.36
412.74	2345.22
412.93	2172.02
413.12	2157.97
413.31	2312.45
413.50	2225.85
413.69	2293.72
413.88	2270.32
414.07	2399.05
414.26	2497.35
414.45	2387.35
414.64	2382.67
414.83	2532.46
415.02	2422.45
415.22	2462.24
415.41	2539.48
415.60	2525.44
415.79	2553.52
415.98	2626.08
416.17	2602.68
416.36	2551.18
416.55	2623.74
416.74	2717.36
416.93	2738.43
417.12	2651.83
417.31	2684.59
417.50	2733.75
417.69	2775.88
417.88	2810.98
418.07	2775.88
418.26	2764.17
418.45	2836.73
418.64	2953.76
418.83	2808.64
419.02	2974.82
419.21	2998.23
419.39	2979.50
419.58	2913.97
419.77	2818.00
419.96	2899.92
420.15	3049.72
420.34	3035.67
420.53	3007.59
420.72	2993.55
420.91	3021.63
421.10	3110.57
421.29	3143.34
421.48	3012.27
421.67	3126.96
421.86	3124.62
422.05	3145.68
422.24	3178.45
422.43	3082.49
422.61	3180.79
422.80	3180.79
422.99	3164.40
423.18	3215.90
423.37	3311.86
423.56	3288.45
423.75	3269.73
423.94	3206.53
424.13	3005.25
424.32	3143.34
424.50	3323.56
424.69	3358.67
424.88	3503.78
425.07	3297.81
425.26	3281.43
425.45	3234.62
425.64	3190.15
425.83	3239.30
426.01	3342.28
426.20	3309.52
426.39	3251.00
426.58	3358.67
426.77	3286.11
426.96	3302.50
427.15	3302.50
427.33	3482.72
427.52	3370.37
427.71	3400.80
427.90	3379.73
428.09	3548.25
428.28	3487.40
428.46	3421.86
428.65	3459.31
428.84	3548.25
429.03	3447.61
429.22	3316.54
429.40	3545.91
429.59	3599.74
429.78	3445.27
429.97	3463.99
430.16	3585.70
430.34	3667.62
430.53	3508.46
430.72	3646.55
430.91	3700.39
431.10	3744.86
431.28	3758.90
431.47	3744.86
431.66	3871.25
431.85	3794.01
432.03	3999.98
432.22	3913.38
432.41	3840.82
432.60	3929.76
432.79	3786.99
432.97	3829.12
433.16	3861.88
433.35	3908.69
433.54	4007.00
433.72	3836.14
433.91	3894.65
434.10	4021.04
434.28	3967.21
434.47	4140.41
434.66	4102.96
434.85	4170.83
435.03	4142.75
435.22	4063.17
435.41	4177.86
435.59	4212.96
435.78	4119.34
435.97	4152.11
436.16	4114.66
436.34	4100.62
436.53	4168.49
436.72	4241.05
436.90	4170.83
437.09	4273.82
437.28	4081.89
437.46	4255.09
437.65	4365.10
437.84	4479.79
438.02	4360.42
438.21	4358.08
438.40	4327.65
438.58	4540.64
438.77	4526.60
438.96	4568.73
439.14	4500.85
439.33	4655.33
439.52	4580.43
439.70	4564.04
439.89	4676.39
440.08	4737.24
440.26	4788.74
440.45	4662.35
440.63	4720.86
440.82	4781.71
441.01	4814.48
441.19	4854.27
441.38	4868.31
441.57	4940.87
441.75	5043.85
441.94	5219.39
442.12	5151.52
442.31	5104.71
442.50	5214.71
442.68	5043.85
442.87	5287.27
443.05	5170.24
443.24	5240.46
443.43	5195.99
443.61	5231.10
443.80	5378.55
443.98	5172.58
444.17	5076.62
444.35	5322.38
444.54	5526.00
444.73	5217.05
444.91	5364.51
445.10	5203.01
445.28	5357.49
445.47	5476.85
445.65	5406.64
445.84	5334.08
446.02	5441.75
446.21	5345.78
446.39	5394.93
446.58	5331.74
446.77	5526.00
446.95	5486.22
447.14	5479.19
447.32	5607.92
447.51	5352.81
447.69	5366.85
447.88	5380.89
448.06	5500.26
448.25	5537.71
448.43	5561.11
448.62	5427.70
448.80	5687.50
448.99	5490.90
449.17	5551.75
449.36	5448.77
449.54	5577.50
449.73	5771.76
449.91	5701.54
450.10	5769.42
450.28	5923.90
450.46	5724.95
450.65	5895.81
450.83	5820.91
451.02	5755.38
451.20	5703.89
451.39	5879.43
451.57	5659.42
451.76	5961.34
451.94	5930.92
452.13	6136.88
452.31	5961.34
452.49	5966.03
452.68	5874.74
452.86	5940.28
453.05	6069.01
453.23	6061.99
453.42	5942.62
453.60	6169.65
453.78	5996.45
453.97	6059.65
454.15	5888.79
454.34	6085.39
454.52	6282.00
454.70	6171.99
454.89	6228.17
455.07	6289.02
455.26	6335.83
455.44	6188.38
455.62	6420.09
455.81	6368.60
455.99	6349.87
456.17	6335.83
456.36	6389.66
456.54	6410.73
456.73	6466.90
456.91	6707.98
457.09	6548.82
457.28	6614.35
457.46	6553.50
457.64	6747.76
457.83	6623.72
458.01	6590.95
458.19	6944.37
458.38	6640.10
458.56	6684.57
458.74	6747.76
458.93	6911.60
459.11	6759.47
459.29	6897.56
459.48	6970.12
459.66	6876.49
459.84	6939.69
460.03	7136.29
460.21	6869.47
460.39	6782.87
460.57	7052.03
460.76	7080.12
460.94	7119.91
461.12	7000.54
461.31	7215.87
461.49	7143.32
461.67	7066.08
461.85	7344.60
462.04	7136.29
462.22	7323.54
462.40	7229.91
462.59	7318.86
462.77	7290.77
462.95	7332.90
463.13	7155.02
463.32	7293.11
463.50	7410.14
463.68	7555.25
463.86	7599.72
464.05	7360.98
464.23	7447.58
464.41	7562.27
464.59	7494.40
464.78	7634.83
464.96	7543.55
465.14	7618.44
465.32	7473.33
465.50	7623.12
465.69	7634.83
465.87	7756.54
466.05	7691.00
466.23	7714.41
466.41	7833.77
466.60	7887.61
466.78	7662.91
466.96	7625.47
467.14	7763.56
467.32	7712.07
467.51	7831.43
467.69	7735.47
467.87	7854.84
468.05	7901.65
468.23	7918.03
468.41	7911.01
468.60	7864.20
468.78	7922.71
468.96	7983.57
469.14	8065.49
469.32	8154.43
469.50	7861.86
469.69	8322.94
469.87	8280.82
470.05	8252.73
470.23	8217.62
470.41	8210.60
470.59	8262.09
470.77	8259.75
470.95	8442.31
471.14	8610.83
471.32	8203.58
471.50	8435.29
471.68	8521.89
471.86	8446.99
472.04	8512.53
472.22	8762.97
472.40	8557.00
472.58	8692.75
472.77	8652.96
472.95	8842.54
473.13	9032.13
473.31	8594.45
473.49	8807.44
473.67	8734.88
473.85	9046.17
474.03	9172.56
474.21	9090.64
474.39	9114.05
474.57	9102.34
474.75	9280.22
474.93	9418.32
475.12	9380.87
475.30	9507.26
475.48	9474.49
475.66	9310.65
475.84	9514.28
476.02	9516.62
476.20	9497.89
476.38	9783.44
476.56	9977.70
476.74	10054.94
476.92	9853.66
477.10	9692.16
477.28	10050.26
477.46	10108.77
477.64	10312.40
477.82	10249.21
478.00	10413.04
478.18	10356.87
478.36	10700.93
478.54	10616.67
478.72	10427.09
478.90	11070.73
479.08	10906.90
479.26	10927.96
479.44	10785.19
479.62	10930.30
479.80	11213.51
479.98	11234.57
480.16	11538.84
480.34	11274.36
480.52	11456.92
480.70	11634.80
480.88	11501.39
481.06	11412.45
481.24	11702.68
481.41	11976.52
481.59	12065.46
481.77	12037.38
481.95	12084.19
482.13	12273.77
482.31	12372.07
482.49	12449.31
482.67	12442.29
482.85	12652.94
483.03	12774.64
483.21	12784.01
483.39	13074.23
483.57	13104.66
483.74	13167.85
483.92	13280.20
484.10	13055.51
484.28	13490.85
484.46	13504.89
484.64	13853.63
484.82	13479.15
485.00	13933.21
485.18	13951.93
485.35	14113.43
485.53	14111.09
485.71	14354.51
485.89	14448.13
486.07	14508.98
486.25	14377.91
486.43	14581.54
486.61	14541.75
486.78	14785.16
486.96	14785.16
487.14	15215.82
487.32	15119.86
487.50	15101.14
487.68	15419.45
487.85	15494.35
488.03	15545.84
488.21	16016.29
488.39	15990.54
488.57	16027.99
488.75	16301.83
488.92	16236.30
489.10	16329.92
489.28	16538.23
489.46	16802.71
489.64	16484.39
489.81	16971.22
489.99	17256.77
490.17	16882.28
490.35	17341.03
490.53	17628.92
490.70	17455.72
490.88	17422.95
491.06	17699.13
491.24	17752.96
491.41	17834.88
491.59	18047.87
491.77	17872.33
491.95	18249.16
492.13	18382.57
492.30	18279.58
492.48	18310.01
492.66	18838.97
492.84	18654.07
493.01	19176.01
493.19	19227.50
493.37	19152.60
493.54	18988.77
493.72	19431.13
493.90	19222.82
494.08	19360.91
494.25	19468.58
494.43	19431.13
494.61	19838.38
494.79	19915.62
494.96	19950.73
495.14	20493.73
495.32	20152.01
495.49	20374.36
495.67	20386.07
495.85	20697.36
496.02	20666.93
496.20	21003.97
496.38	21050.78
496.55	21139.72
496.73	21561.02
496.91	21336.32
497.09	21261.43
497.26	21448.67
497.44	21472.07
497.62	21879.33
497.79	21984.65
497.97	21804.43
498.14	22073.59
498.32	22309.99
498.50	22480.85
498.67	22394.25
498.85	22272.54
499.03	22586.17
499.20	22766.39
499.38	22649.36
499.56	22719.58
499.73	22572.13
499.91	22738.30
500.08	23522.38
500.26	23063.64
500.44	23016.83
500.61	23220.45
500.79	23332.80
500.97	23578.56
501.14	23779.84
501.32	23740.05
501.49	23648.77
501.67	23889.85
501.84	23978.79
502.02	23857.08
502.20	24273.70
502.37	24276.04
502.55	24051.34
502.72	24060.71
502.90	24540.52
503.07	24327.53
503.25	24648.18
503.43	24322.85
503.60	24961.81
503.78	24952.45
503.95	24755.85
504.13	24730.10
504.30	24978.20
504.48	24975.86
504.65	25111.61
504.83	25048.41
505.01	25528.22
505.18	25502.48
505.36	25673.34
505.53	25535.24
505.71	25773.98
505.88	25687.38
506.06	25551.63
506.23	26010.37
506.41	26071.23
506.58	25902.71
506.76	26031.44
506.93	26169.53
507.11	26333.37
507.28	25982.29
507.46	26525.29
507.63	26740.62
507.81	26476.14
507.98	26649.34
508.16	26754.66
508.33	26771.05
508.50	26834.24
508.68	26843.60
508.85	27571.51
509.03	27077.66
509.20	27278.94
509.38	27548.11
509.55	27356.18
509.73	27637.05
509.90	27644.07
510.08	27791.52
510.25	27854.72
510.42	27871.10
510.60	27768.12
510.77	28081.75
510.95	28072.39
511.12	28201.11
511.30	28357.93
511.47	28456.23
511.64	28201.11
511.82	28404.74
511.99	28807.31
512.17	28819.02
512.34	28800.29
512.51	29057.75
512.69	28842.42
512.86	29006.26
513.04	28943.06
513.21	29022.64
513.38	29172.44
513.56	28896.25
513.73	29242.65
513.90	29413.51
514.08	29422.87
514.25	29675.65
514.43	29783.32
514.60	29448.62
514.77	29579.69
514.95	29874.60
515.12	30033.75
515.29	29771.61
515.47	30443.35
515.64	30281.85
515.81	29912.05
515.99	30206.95
516.16	30572.08
516.33	30312.28
516.51	30794.43
516.68	30167.16
516.85	30539.31
517.03	30494.84
517.20	30895.07
517.37	30705.49
517.54	30749.96
517.72	30857.62
517.89	30831.88
518.06	31019.12
518.24	31126.78
518.41	30871.67
518.58	31054.23
518.75	30965.29
518.93	31655.75
519.10	31550.42
519.27	31562.12
519.45	31449.78
519.62	31512.97
519.79	31641.70
519.96	31775.11
520.14	31896.82
520.31	31433.39
520.48	32046.62
520.65	31676.81
520.83	32645.79
521.00	32126.19
521.17	32371.95
521.34	31955.33
521.52	32327.48
521.69	32348.54
521.86	32402.38
522.03	32606.00
522.20	32678.56
522.38	32793.25
522.55	32751.12
522.72	32868.14
522.89	32872.82
523.07	33130.28
523.24	33067.09
523.41	33092.83
523.58	32849.42
523.75	33256.67
523.92	33504.77
524.10	33158.37
524.27	33362.00
524.44	33240.29
524.61	33441.57
524.78	33673.29
524.96	33947.13
525.13	33806.70
525.30	34043.09
525.47	34024.37
525.64	34050.11
525.81	34164.80
525.98	34050.11
526.16	34125.01
526.33	33956.49
526.50	34555.67
526.67	33993.94
526.84	34632.91
527.01	34370.77
527.18	34426.94
527.36	34235.02
527.53	34473.75
527.70	35005.05
527.87	35000.37
528.04	34789.72
528.21	34398.85
528.38	34927.81
528.55	34913.77
528.72	34920.79
528.89	34888.03
529.07	35278.89
529.24	35047.18
529.41	35133.78
529.58	34836.53
529.75	35304.64
529.92	35187.61
530.09	35150.17
530.26	35377.20
530.43	35260.17
530.60	35012.07
530.77	35639.34
530.94	35796.15
531.11	35358.47
531.28	35566.78
531.46	35629.98
531.63	35990.42
531.80	35594.87
531.97	36348.52
532.14	35842.96
532.31	35531.67
532.48	36191.70
532.65	36275.96
532.82	36224.47
532.99	36002.12
533.16	36051.27
533.33	36194.04
533.50	36566.19
533.67	36362.56
533.84	36287.67
534.01	36517.04
534.18	36671.51
534.35	36933.65
534.52	37010.89
534.69	36833.01
534.86	36849.39
535.03	36725.35
535.20	37104.51
535.37	37022.59
535.54	37322.18
535.71	36966.42
535.88	37755.18
536.05	37479.00
536.22	37785.61
536.38	37551.56
536.55	36921.95
536.72	37240.26
536.89	37254.31
537.06	37165.37
537.23	37528.15
537.40	37560.92
537.57	37460.27
537.74	37797.31
537.91	38014.98
538.08	37441.55
538.25	37488.36
538.42	37944.76
538.59	37427.51
538.75	38103.92
538.92	37855.82
539.09	38452.66
539.26	38218.61
539.43	38127.33
539.60	38139.03
539.77	38036.05
539.94	38539.26
540.11	38026.68
540.28	38181.16
540.44	38012.64
540.61	38316.91
540.78	38199.88
540.95	38440.96
541.12	38279.46
541.29	38181.16
541.46	38660.97
541.62	38389.47
541.79	39014.39
541.96	38380.10
542.13	38637.56
542.30	38983.96
542.47	39077.58
542.63	39089.29
542.80	38834.17
542.97	39154.82
543.14	39807.83
543.31	38918.43
543.48	39129.08
543.64	39632.29
543.81	39651.02
543.98	39468.45
544.15	39789.11
544.32	39889.75
544.48	39997.41
544.65	39765.70
544.82	39969.33
544.99	39618.25
545.16	39632.29
545.32	39697.83
545.49	39761.02
545.66	39845.28
545.83	40418.71
546.00	39896.77
546.16	39952.94
546.33	40018.48
546.50	39859.32
546.67	40163.59
546.83	39704.85
547.00	39861.66
547.17	39824.22
547.34	40268.92
547.50	40275.94
547.67	40783.83
547.84	39901.45
548.00	40456.16
548.17	40353.18
548.34	40732.34
548.51	41071.72
548.67	40889.16
548.84	40514.67
549.01	40657.45
549.18	40730.00
549.34	40779.15
549.51	41298.75
549.68	41418.12
549.84	40561.48
550.01	40596.59
550.18	40676.17
550.34	40952.35
550.51	41298.75
550.68	41457.91
550.84	40730.00
551.01	41481.31
551.18	41256.62
551.34	41216.83
551.51	41301.09
551.68	41270.67
551.84	41521.10
552.01	41038.95
552.18	41649.83
552.34	41268.33
552.51	41703.67
552.68	41450.89
552.84	41691.96
553.01	41731.75
553.18	41406.42
553.34	41752.82
553.51	41205.13
553.67	41677.92
553.84	41825.37
554.01	41535.15
554.17	42033.68
554.34	41867.50
554.51	41968.15
554.67	41736.43
554.84	41837.08
555.00	41911.97
555.17	42047.72
555.33	42124.96
555.50	42043.04
555.67	42211.56
555.83	42061.77
556.00	42295.82
556.16	42532.22
556.33	42337.95
556.50	42494.77
556.66	41935.38
556.83	42141.35
556.99	42948.83
557.16	42375.40
557.32	42822.44
557.49	42815.42
557.65	42012.62
557.82	42199.86
557.98	42359.02
558.15	42738.18
558.32	43028.41
558.48	42335.61
558.65	42373.06
558.81	42763.93
558.98	42632.86
559.14	42396.46
559.31	42890.32
559.47	42583.71
559.64	42632.86
559.80	42756.91
559.97	42576.69
560.13	42534.56
560.30	42649.24
560.46	43065.86
560.63	43440.34
560.79	42986.28
560.96	43662.69
561.12	43035.43
561.29	43271.82
561.45	42822.44
561.61	43168.84
561.78	43005.00
561.94	42969.90
562.11	43367.79
562.27	43063.52
562.44	43021.39
562.60	43260.12
562.77	43119.69
562.93	42883.30
563.10	43271.82
563.26	42913.72
563.42	43674.40
563.59	43498.86
563.75	42555.62
563.92	42682.01
564.08	42962.87
564.24	43419.28
564.41	43381.83
564.57	42857.55
564.74	43339.70
564.90	43269.48
565.07	43157.14
565.23	43658.01
565.39	43360.76
565.56	43674.40
565.72	43248.42
565.88	43725.89
566.05	43491.83
566.21	44069.95
566.38	43807.81
566.54	43693.12
566.70	43924.83
566.87	43812.49
567.03	43498.86
567.19	43814.83
567.36	43540.99
567.52	43653.33
567.68	43938.88
567.85	43861.64
568.01	43758.66
568.17	43512.90
568.34	43889.73
568.50	43620.56
568.66	43725.89
568.83	43983.35
568.99	43791.42
569.15	44201.02
569.32	43814.83
569.48	43913.13
569.64	43936.54
569.81	44095.69
569.97	43798.44
570.13	44224.42
570.30	43756.32
570.46	44212.72
570.62	44004.41
570.78	44147.18
570.95	43962.28
571.11	44095.69
571.27	43730.57
571.43	43529.28
571.60	44322.72
571.76	44203.36
571.92	43695.46
572.09	44069.95
572.25	44016.11
572.41	43999.73
572.57	43978.67
572.74	44423.37
572.90	44224.42
573.06	43859.30
573.22	44465.50
573.38	44514.65
573.55	44212.72
573.71	44638.70
573.87	44231.44
574.03	44378.90
574.20	44439.75
574.36	44392.94
574.52	44444.43
574.68	44488.90
574.84	44341.45
575.01	44575.50
575.17	44318.04
575.33	44414.01
575.49	44315.70
575.65	44172.93
575.82	44526.35
575.98	44282.94
576.14	44423.37
576.30	44720.62
576.46	44308.68
576.62	44423.37
576.79	44266.55
576.95	43723.55
577.11	43978.67
577.27	44488.90
577.43	44395.28
577.59	44556.78
577.75	44102.71
577.92	44013.77
578.08	44404.64
578.24	44364.85
578.40	44655.08
578.56	44615.29
578.72	44645.72
578.88	44409.32
579.04	44484.22
579.21	44474.86
579.37	44751.04
579.53	44671.46
579.69	44151.87
579.85	44493.58
580.01	44292.30
580.17	44341.45
580.33	44458.48
580.49	44814.24
580.65	44933.60
580.82	44800.19
580.98	44336.77
581.14	44154.21
581.30	44369.54
581.46	44598.91
581.62	44126.12
581.78	44339.11
581.94	44760.40
582.10	44765.09
582.26	44889.13
582.42	44566.14
582.58	44823.60
582.74	44423.37
582.90	44718.28
583.06	44715.93
583.22	44477.20
583.38	44421.03
583.54	44573.16
583.70	44566.14
583.86	44430.39
584.02	44652.74
584.18	44914.88
584.34	44971.05
584.50	44905.52
584.66	44842.32
584.82	44645.72
584.98	45071.70
585.14	45010.84
585.30	44758.06
585.46	44987.44
585.62	44748.70
585.78	45146.59
585.94	44514.65
586.10	44304.00
586.26	44350.81
586.42	44737.00
586.58	44531.03
586.74	44481.88
586.90	44596.57
587.06	43966.96
587.22	44767.43
587.38	44421.03
587.54	44772.11
587.70	44802.53
587.86	44896.16
588.02	44753.38
588.18	44844.66
588.34	44601.25
588.49	44648.06
588.65	45015.52
588.81	44947.65
588.97	44914.88
589.13	44737.00
589.29	45282.34
589.45	45050.63
589.61	44949.99
589.77	45160.64
589.93	44348.47
590.08	44996.80
