SpectraSuite Data File
++++++++++++++++++++++++++++++++++++
Date: Fri Oct 25 10:43:34 EDT 2013
User: price-jones
Dark Spectrum Present: No
Reference Spectrum Present: No
Number of Sampled Component Spectra: 1
Spectrometers: USB2+H05261
Integration Time (usec): 100000 (USB2+H05261)
Spectra Averaged: 1 (USB2+H05261)
Boxcar Smoothing: 0 (USB2+H05261)
Correct for Electrical Dark: No (USB2+H05261)
Strobe/Lamp Enabled: No (USB2+H05261)
Correct for Detector Non-linearity: No (USB2+H05261)
Correct for Stray Light: No (USB2+H05261)
Number of Pixels in Processed Spectrum: 2048
>>>>>Begin Processed Spectral Data<<<<<
365.73	131.07
365.92	131.07
366.12	131.07
366.32	4.68
366.52	39.79
366.72	49.15
366.91	16.38
367.11	9.36
367.31	25.75
367.51	4.68
367.70	0.00
367.90	44.47
368.10	0.00
368.30	51.49
368.49	0.00
368.69	28.09
368.89	30.43
369.09	100.64
369.28	84.26
369.48	30.43
369.68	46.81
369.87	9.36
370.07	84.26
370.27	112.35
370.47	166.18
370.66	409.59
370.86	451.72
371.06	465.77
371.25	458.74
371.45	411.93
371.65	505.56
371.84	433.00
372.04	489.17
372.24	465.77
372.44	477.47
372.63	484.49
372.83	510.24
373.03	505.56
373.22	535.98
373.42	507.90
373.62	596.84
373.81	517.26
374.01	547.69
374.21	610.88
374.40	465.77
374.60	521.94
374.79	603.86
374.99	550.03
375.19	596.84
375.38	582.79
375.58	547.69
375.78	561.73
375.97	571.09
376.17	723.23
376.37	636.63
376.56	545.34
376.76	608.54
376.95	624.92
377.15	645.99
377.35	631.94
377.54	678.76
377.74	559.39
377.93	627.26
378.13	664.71
378.33	671.73
378.52	697.48
378.72	660.03
378.91	669.39
379.11	617.90
379.31	657.69
379.50	711.52
379.70	760.67
379.89	709.18
380.09	645.99
380.28	638.97
380.48	805.14
380.68	648.33
380.87	685.78
381.07	718.54
381.26	739.61
381.46	720.88
381.65	702.16
381.85	727.91
382.04	741.95
382.24	713.86
382.43	683.44
382.63	741.95
382.83	702.16
383.02	748.97
383.22	748.97
383.41	795.78
383.61	763.01
383.80	786.42
384.00	800.46
384.19	791.10
384.39	784.08
384.58	823.87
384.78	798.12
384.97	826.21
385.17	786.42
385.36	777.06
385.56	830.89
385.75	840.25
385.95	819.19
386.14	875.36
386.34	823.87
386.53	823.87
386.72	755.99
386.92	828.55
387.11	842.59
387.31	915.15
387.50	922.17
387.70	861.32
387.89	917.49
388.09	844.93
388.28	833.23
388.48	774.72
388.67	947.92
388.86	985.37
389.06	933.87
389.25	966.64
389.45	968.98
389.64	1008.77
389.84	1048.56
390.03	1046.22
390.22	985.37
390.42	976.00
390.61	961.96
390.81	1046.22
391.00	1151.54
391.19	1022.81
391.39	1039.20
391.58	1111.75
391.78	1083.67
391.97	1118.78
392.16	1053.24
392.36	1144.52
392.55	980.68
392.75	971.32
392.94	961.96
393.13	894.08
393.33	1004.09
393.52	1004.09
393.71	1139.84
393.91	1149.20
394.10	1081.33
394.29	1177.29
394.49	1198.35
394.68	1212.40
394.88	1165.59
395.07	1277.93
395.26	1280.27
395.46	1270.91
395.65	1301.34
395.84	1165.59
396.04	1233.46
396.23	1219.42
396.42	1188.99
396.62	1235.80
396.81	1320.06
397.00	1170.27
397.19	1284.95
397.39	1397.30
397.58	1437.09
397.77	1380.92
397.97	1418.36
398.16	1500.28
398.35	1465.18
398.55	1479.22
398.74	1516.67
398.93	1647.74
399.12	1596.25
399.32	1460.49
399.51	1537.73
399.70	1612.63
399.90	1561.14
400.09	1593.90
400.28	1563.48
400.47	1659.44
400.67	1626.67
400.86	1804.55
401.05	1530.71
401.24	1593.90
401.44	1741.36
401.63	1647.74
401.82	1624.33
402.01	1680.50
402.21	1795.19
402.40	1809.23
402.59	1809.23
402.78	1710.93
402.97	1802.21
403.17	1774.13
403.36	1762.42
403.55	1884.13
403.74	1902.86
403.93	1877.11
404.13	1914.56
404.32	1912.22
404.51	1816.26
404.70	1937.96
404.89	1949.67
405.09	2036.27
405.28	1982.43
405.47	2029.24
405.66	1956.69
405.85	2010.52
406.05	2005.84
406.24	1980.09
406.43	1987.11
406.62	2165.00
406.81	2157.97
407.00	2157.97
407.20	2122.87
407.39	2153.29
407.58	2242.23
407.77	2118.18
407.96	2342.88
408.15	2303.09
408.34	2136.91
408.54	2314.79
408.73	2265.64
408.92	2317.13
409.11	2289.04
409.30	2314.79
409.49	2293.72
409.68	2420.11
409.87	2342.88
410.07	2387.35
410.26	2392.03
410.45	2420.11
410.64	2502.03
410.83	2607.36
411.02	2581.61
411.21	2630.76
411.40	2602.68
411.59	2548.84
411.78	2621.40
411.98	2644.81
412.17	2656.51
412.36	2731.41
412.55	2799.28
412.74	2731.41
412.93	2738.43
413.12	2623.74
413.31	2869.50
413.50	2930.35
413.69	2974.82
413.88	2778.22
414.07	2942.05
414.26	3129.30
414.45	3087.17
414.64	3007.59
414.83	3141.00
415.02	2984.18
415.22	3192.49
415.41	3080.14
415.60	3061.42
415.79	3190.15
415.98	3276.75
416.17	3239.30
416.36	3400.80
416.55	3459.31
416.74	3265.05
416.93	3353.99
417.12	3389.10
417.31	3538.89
417.50	3449.95
417.69	3494.42
417.88	3412.50
418.07	3382.07
418.26	3499.10
418.45	3482.72
418.64	3522.51
418.83	3637.19
419.02	3564.64
419.21	3651.24
419.39	3543.57
419.58	3534.21
419.77	3592.72
419.96	3674.64
420.15	3733.15
420.34	3758.90
420.53	3784.65
420.72	3882.95
420.91	3925.08
421.10	3831.46
421.29	3915.72
421.48	3803.37
421.67	3939.12
421.86	3852.52
422.05	3896.99
422.24	3794.01
422.43	3779.97
422.61	3871.25
422.80	3999.98
422.99	3913.38
423.18	4060.83
423.37	4067.85
423.56	3859.54
423.75	4032.74
423.94	4032.74
424.13	3686.34
424.32	3854.86
424.50	4070.19
424.69	4173.18
424.88	4091.26
425.07	3964.87
425.26	4051.47
425.45	3995.29
425.64	3936.78
425.83	3918.06
426.01	4198.92
426.20	4084.23
426.39	4037.42
426.58	4112.32
426.77	4014.02
426.96	3985.93
427.15	3962.53
427.33	4154.45
427.52	4196.58
427.71	4088.92
427.90	4313.61
428.09	4051.47
428.28	4238.71
428.46	4161.47
428.65	4133.39
428.84	4201.26
429.03	4367.44
429.22	4098.28
429.40	4227.01
429.59	4238.71
429.78	3978.91
429.97	4032.74
430.16	4088.92
430.34	4105.30
430.53	4255.09
430.72	4273.82
430.91	4313.61
431.10	4437.66
431.28	4559.36
431.47	4667.03
431.66	4720.86
431.85	4762.99
432.03	4507.87
432.22	4774.69
432.41	4676.39
432.60	4643.62
432.79	4734.90
432.97	4861.29
433.16	4952.57
433.35	4624.90
433.54	4695.11
433.72	4720.86
433.91	4896.40
434.10	4737.24
434.28	4774.69
434.47	4910.44
434.66	4910.44
434.85	5055.56
435.03	5013.43
435.22	5100.03
435.41	5158.54
435.59	5100.03
435.78	5181.95
435.97	5093.01
436.16	5151.52
436.34	5083.64
436.53	5322.38
436.72	5308.34
436.90	5198.33
437.09	5301.31
437.28	5235.78
437.46	5212.37
437.65	5301.31
437.84	5273.23
438.02	5240.46
438.21	5195.99
438.40	5095.35
438.58	5301.31
438.77	5322.38
438.96	5549.41
439.14	5586.86
439.33	5743.67
439.52	5500.26
439.70	5746.02
439.89	5785.80
440.08	5678.14
440.26	5825.59
440.45	5769.42
440.63	5879.43
440.82	6057.31
441.01	5963.68
441.19	6216.46
441.38	6104.12
441.57	6139.23
441.75	6171.99
441.94	6466.90
442.12	6338.17
442.31	6279.66
442.50	6387.32
442.68	6328.81
442.87	6305.40
443.05	6298.38
443.24	6698.61
443.43	6478.60
443.61	6455.20
443.80	6635.42
443.98	6452.86
444.17	6345.19
444.35	6612.01
444.54	6691.59
444.73	6691.59
444.91	6530.09
445.10	6581.59
445.28	6452.86
445.47	6562.86
445.65	6523.07
445.84	6619.04
446.02	6633.08
446.21	6492.65
446.39	6551.16
446.58	6633.08
446.77	6733.72
446.95	6766.49
447.14	6715.00
447.32	6733.72
447.51	6750.10
447.69	6623.72
447.88	6874.15
448.06	6799.26
448.25	6691.59
448.43	6881.18
448.62	6918.62
448.80	6719.68
448.99	6970.12
449.17	6923.30
449.36	6960.75
449.54	6892.88
449.73	6984.16
449.91	7220.55
450.10	7166.72
450.28	7276.73
450.46	7328.22
450.65	7321.20
450.83	7342.26
451.02	7335.24
451.20	7283.75
451.39	7157.36
451.57	7323.54
451.76	7405.46
451.94	7148.00
452.13	7332.90
452.31	7236.94
452.49	7353.96
452.68	7253.32
452.86	7360.98
453.05	7414.82
453.23	7468.65
453.42	7403.11
453.60	7447.58
453.78	7660.57
453.97	7255.66
454.15	7522.48
454.34	7524.82
454.52	7644.19
454.70	7644.19
454.89	7576.31
455.07	7592.70
455.26	7698.02
455.44	7775.26
455.62	7878.24
455.81	7770.58
455.99	7903.99
456.17	8011.65
456.36	7992.93
456.54	8102.93
456.73	8035.06
456.91	8280.82
457.09	8266.77
457.28	8152.09
457.46	8168.47
457.64	8468.06
457.83	8002.29
458.01	8140.38
458.19	8451.67
458.38	8226.98
458.56	8334.65
458.74	8334.65
458.93	8360.39
459.11	8311.24
459.29	8311.24
459.48	8248.05
459.66	8353.37
459.84	8428.27
460.03	8746.58
460.21	8805.10
460.39	8531.25
460.57	8430.61
460.76	8517.21
460.94	8669.34
461.12	8882.33
461.31	8856.59
461.49	8840.20
461.67	8781.69
461.85	9268.52
462.04	8837.86
462.22	9572.79
462.40	9151.49
462.59	9165.54
462.77	9062.55
462.95	9074.26
463.13	8975.95
463.32	9029.79
463.50	9015.74
463.68	8992.34
463.86	9018.08
464.05	8854.25
464.23	9022.77
464.41	9275.54
464.59	8994.68
464.78	9277.88
464.96	9415.98
465.14	9039.15
465.32	9282.56
465.50	9212.35
465.69	9369.16
465.87	9233.41
466.05	9029.79
466.23	9249.80
466.41	9149.15
466.60	9568.11
466.78	9266.18
466.96	9139.79
467.14	9467.47
467.32	9460.45
467.51	9537.68
467.69	9193.62
467.87	9589.17
468.05	9483.85
468.23	9511.94
468.41	9699.18
468.60	9439.38
468.78	9635.99
468.96	9490.87
469.14	9734.29
469.32	9753.01
469.50	9535.34
469.69	9753.01
469.87	9680.46
470.05	10104.09
470.23	9919.19
470.41	9982.38
470.59	10160.27
470.77	9827.91
470.95	10115.80
471.14	10284.31
471.32	10270.27
471.50	10279.63
471.68	10370.91
471.86	10499.64
472.04	10459.85
472.22	10628.37
472.40	10218.78
472.58	10485.60
472.77	10459.85
472.95	10473.90
473.13	10850.72
473.31	10782.85
473.49	10523.05
473.67	10878.81
473.85	10778.17
474.03	10902.22
474.21	11026.26
474.39	11087.12
474.57	11246.27
474.75	11353.94
474.93	11475.65
475.12	11328.19
475.30	11482.67
475.48	11274.36
475.66	11475.65
475.84	11403.09
476.02	11644.17
476.20	11487.35
476.38	11679.27
476.56	11861.84
476.74	11808.00
476.92	11831.41
477.10	11969.50
477.28	12145.04
477.46	12011.63
477.64	12386.12
477.82	12643.57
478.00	12793.37
478.18	12573.36
478.36	12573.36
478.54	12791.03
478.72	12367.39
478.90	13102.32
479.08	12966.57
479.26	13231.05
479.44	13298.92
479.62	13427.65
479.80	13685.11
479.98	13418.29
480.16	13752.99
480.34	13734.26
480.52	13804.48
480.70	13947.25
480.88	13811.50
481.06	13827.88
481.24	14476.21
481.41	14237.48
481.59	14293.65
481.77	14427.06
481.95	14413.02
482.13	14597.92
482.31	14764.10
482.49	14937.30
482.67	15035.60
482.85	15070.71
483.03	15555.20
483.21	15325.83
483.39	15543.50
483.57	15309.44
483.74	15653.50
483.92	15632.44
484.10	15819.68
484.28	16006.92
484.46	16292.47
484.64	16463.33
484.82	15901.60
485.00	16184.80
485.18	16451.63
485.35	16575.67
485.53	16325.24
485.71	16547.59
485.89	16615.46
486.07	16636.53
486.25	16711.42
486.43	16893.99
486.61	17118.68
486.78	17439.33
486.96	17247.41
487.14	17530.61
487.32	17783.39
487.50	18017.44
487.68	18214.05
487.85	18473.85
488.03	18459.81
488.21	18553.43
488.39	18780.46
488.57	18799.18
488.75	19089.41
488.92	19089.41
489.10	19506.02
489.28	19419.42
489.46	19702.63
489.64	19917.96
489.81	20027.96
489.99	20411.81
490.17	20233.93
490.35	20592.03
490.53	20695.02
490.70	20657.57
490.88	20255.00
491.06	20608.42
491.24	20865.88
491.41	20889.28
491.59	21095.25
491.77	20900.98
491.95	21165.46
492.13	21582.08
492.30	21755.28
492.48	21703.79
492.66	21926.14
492.84	22010.40
493.01	22429.35
493.19	22244.45
493.37	22703.20
493.54	22136.79
493.72	22518.29
493.90	23044.91
494.08	23087.04
494.25	23206.41
494.43	23321.10
494.61	23487.28
494.79	23758.78
494.96	23620.69
495.14	23969.43
495.32	24049.00
495.49	23714.31
495.67	24018.58
495.85	23950.70
496.02	24379.02
496.20	24697.33
496.38	24465.62
496.55	24594.35
496.73	25294.17
496.91	24662.22
497.09	25230.98
497.26	25317.57
497.44	25458.01
497.62	25322.26
497.79	25432.26
497.97	25195.87
498.14	25500.14
498.32	25869.94
498.50	25757.60
498.67	26160.17
498.85	26127.40
499.03	26232.72
499.20	26761.69
499.38	26595.51
499.56	26508.91
499.73	26815.52
499.91	26684.45
500.08	26696.15
500.26	26457.42
500.44	26780.41
500.61	27080.00
500.79	26876.37
500.97	27208.73
501.14	26974.67
501.32	27239.15
501.49	27740.03
501.67	27363.20
501.84	27199.37
502.02	27674.49
502.20	27765.78
502.37	27833.65
502.55	28182.39
502.72	28044.30
502.90	28332.18
503.07	28114.52
503.25	28421.13
503.43	28212.82
503.60	28704.33
503.78	28156.64
503.95	28261.97
504.13	28568.58
504.30	29273.08
504.48	28999.24
504.65	28524.11
504.83	29298.83
505.01	29745.87
505.18	28940.72
505.36	29584.37
505.53	29816.08
505.71	30061.84
505.88	30038.44
506.06	29441.60
506.23	29975.24
506.41	30040.78
506.58	30244.40
506.76	29996.31
506.93	30522.93
507.11	30239.72
507.28	30033.75
507.46	29998.65
507.63	30391.86
507.81	30202.27
507.98	30012.69
508.16	30513.56
508.33	30700.81
508.50	30740.60
508.68	31161.89
508.85	31007.42
509.03	31491.91
509.20	31143.17
509.38	31428.71
509.55	31772.77
509.73	31248.49
509.90	31669.79
510.08	31517.65
510.25	31510.63
510.42	31466.16
510.60	31388.92
510.77	31782.13
510.95	32650.47
511.12	32128.53
511.30	32133.21
511.47	32800.27
511.64	32781.54
511.82	32818.99
511.99	32868.14
512.17	32598.98
512.34	32524.08
512.51	32945.38
512.69	33174.75
512.86	32898.57
513.04	33235.61
513.21	32797.93
513.38	33024.96
513.56	33081.13
513.73	33008.58
513.90	33305.82
514.08	33076.45
514.25	33528.17
514.43	32877.51
514.60	33205.18
514.77	33556.26
514.95	33834.78
515.12	33773.93
515.29	33544.56
515.47	34291.19
515.64	34052.45
515.81	33832.44
515.99	33972.88
516.16	33787.97
516.33	33640.52
516.51	33897.98
516.68	33415.83
516.85	33476.68
517.03	33673.29
517.20	34281.83
517.37	34178.84
517.54	34408.22
517.72	34204.59
517.89	33858.19
518.06	33928.41
518.24	34080.54
518.41	34443.32
518.58	34572.05
518.75	34768.66
518.93	35358.47
519.10	35185.27
519.27	35187.61
519.45	35044.84
519.62	35086.97
519.79	35489.54
519.96	35786.79
520.14	35585.50
520.31	35435.71
520.48	35821.90
520.65	35693.17
520.83	35721.26
521.00	36168.30
521.17	35959.99
521.34	35981.06
521.52	36376.61
521.69	36107.44
521.86	36119.15
522.03	36257.24
522.20	36699.60
522.38	37034.30
522.55	36657.47
522.72	36545.12
522.89	36311.07
523.07	36940.68
523.24	37125.58
523.41	37193.45
523.58	37347.93
523.75	37413.46
523.92	37446.23
524.10	37294.10
524.27	37338.57
524.44	37558.58
524.61	37432.19
524.78	37736.46
524.96	37769.22
525.13	37933.06
525.30	37755.18
525.47	37556.24
525.64	37628.79
525.81	37869.87
525.98	37406.44
526.16	37385.38
526.33	37291.76
526.50	37565.60
526.67	37586.66
526.84	37530.49
527.01	37500.06
527.18	37886.25
527.36	38471.39
527.53	38232.65
527.70	38747.57
527.87	38424.57
528.04	38728.84
528.21	38735.87
528.38	38686.71
528.55	38981.62
528.72	39133.76
528.89	39189.93
529.07	39257.81
529.24	38665.65
529.41	38960.56
529.58	38974.60
529.75	39442.71
529.92	39026.09
530.09	39089.29
530.26	39302.28
530.43	39882.73
530.60	39115.03
530.77	39365.47
530.94	39503.56
531.11	39477.82
531.28	39597.18
531.46	39845.28
531.63	39796.13
531.80	39164.18
531.97	39503.56
532.14	39573.78
532.31	39089.29
532.48	39447.39
532.65	39854.64
532.82	39372.49
532.99	40158.91
533.16	40154.23
533.33	40306.37
533.50	40374.24
533.67	40034.86
533.84	39966.99
534.01	40219.77
534.18	40243.17
534.35	40620.00
534.52	40329.77
534.69	40488.93
534.86	40685.53
535.03	40898.52
535.20	40582.55
535.37	40919.59
535.54	40921.93
535.71	40788.52
535.88	40809.58
536.05	40748.73
536.22	40961.72
536.38	40966.40
536.55	40856.39
536.72	40493.61
536.89	40739.36
537.06	40751.07
537.23	40872.78
537.40	41528.13
537.57	41301.09
537.74	40912.56
537.91	41336.20
538.08	41514.08
538.25	41228.54
538.42	41277.69
538.59	41804.31
538.75	41195.77
538.92	41778.56
539.09	41567.91
539.26	41553.87
539.43	41436.84
539.60	41897.93
539.77	41518.76
539.94	41820.69
540.11	41619.41
540.28	41312.80
540.44	41518.76
540.61	41813.67
540.78	41532.81
540.95	41778.56
541.12	41958.78
541.29	42209.22
541.46	42012.62
541.62	42181.13
541.79	42120.28
541.96	41603.02
542.13	42089.85
542.30	42131.98
542.47	42146.03
542.63	42192.84
542.80	42195.18
542.97	42429.23
543.14	42691.37
543.31	42660.94
543.48	42974.58
543.64	42710.10
543.81	43353.74
543.98	42820.10
544.15	42794.36
544.32	43271.82
544.48	43791.42
544.65	43082.24
544.82	43360.76
544.99	42857.55
545.16	43054.15
545.32	42546.26
545.49	43208.63
545.66	43143.09
545.83	42983.94
546.00	43267.14
546.16	42916.06
546.33	43337.36
546.50	43313.95
546.67	43477.79
546.83	43068.20
547.00	43126.71
547.17	43316.29
547.34	43349.06
547.50	43477.79
547.67	43885.04
547.84	43555.03
548.00	43695.46
548.17	44172.93
548.34	43725.89
548.51	43826.53
548.67	44264.21
548.84	43821.85
549.01	43578.43
549.18	43936.54
549.34	43768.02
549.51	43742.27
549.68	43903.77
549.84	44257.19
550.01	44428.05
550.18	44439.75
550.34	44313.36
550.51	43934.20
550.68	44027.82
550.84	43789.08
551.01	44177.61
551.18	44177.61
551.34	44009.09
551.51	44612.95
551.68	44444.43
551.84	44636.36
552.01	43990.37
552.18	44311.02
552.34	44320.38
552.51	44226.76
552.68	44371.88
552.84	44552.10
553.01	44318.04
553.18	44266.55
553.34	44533.37
553.51	43995.05
553.67	44662.10
553.84	44851.69
554.01	44802.53
554.17	44884.45
554.34	44790.83
554.51	44837.64
554.67	44910.20
554.84	44711.25
555.00	44657.42
555.17	44924.24
555.33	45125.53
555.50	45240.21
555.67	44851.69
555.83	45186.38
556.00	44931.26
556.16	45219.15
556.33	44996.80
556.50	44470.18
556.66	44961.69
556.83	44753.38
556.99	44886.79
557.16	44844.66
557.32	45191.06
557.49	45275.32
557.65	45057.65
557.82	45102.12
557.98	45158.30
558.15	45581.93
558.32	45045.95
558.48	44765.09
558.65	45368.94
558.81	44942.97
558.98	45591.30
559.14	45256.60
559.31	45186.38
559.47	45043.61
559.64	45354.90
559.80	45191.06
559.97	45436.82
560.13	45347.88
560.30	45111.49
560.46	45258.94
560.63	46024.29
560.79	45354.90
560.96	45717.68
561.12	45570.23
561.29	45762.15
561.45	45322.13
561.61	45340.86
561.78	45731.73
561.94	45296.39
562.11	45373.63
562.27	45476.61
562.44	45631.08
562.60	45565.55
562.77	45387.67
562.93	45656.83
563.10	45720.02
563.26	45446.18
563.42	45771.52
563.59	45687.26
563.75	45612.36
563.92	45640.45
564.08	45301.07
564.24	45837.05
564.41	45897.91
564.57	45752.79
564.74	45553.85
564.90	45703.64
565.07	45539.80
565.23	45701.30
565.39	45799.60
565.56	45722.37
565.72	45579.59
565.88	45916.63
566.05	45586.61
566.21	45523.42
566.38	45635.77
566.54	45893.22
566.70	46321.54
566.87	46270.05
567.03	45930.67
567.19	46227.92
567.36	45986.85
567.52	45895.56
567.68	45708.32
567.85	45565.55
568.01	45778.54
568.17	45659.17
568.34	46108.55
568.50	45783.22
568.66	45736.41
568.83	46124.94
568.99	45837.05
569.15	46045.36
569.32	45607.68
569.48	45930.67
569.64	45993.87
569.81	45876.84
569.97	46213.88
570.13	45675.55
570.30	45478.95
570.46	45256.60
570.62	45825.35
570.78	45530.44
570.95	45724.71
571.11	45687.26
571.27	45263.62
571.43	46218.56
571.60	45951.74
571.76	46092.17
571.92	46501.76
572.09	46031.32
572.25	46066.42
572.41	46232.60
572.57	46138.98
572.74	46155.36
572.90	46176.43
573.06	46185.79
573.22	46167.07
573.38	46024.29
573.55	45687.26
573.71	46396.44
573.87	46143.66
574.03	46131.96
574.20	45785.56
574.36	46061.74
574.52	46110.89
574.68	46218.56
574.84	46206.86
575.01	45867.48
575.17	45408.73
575.33	45839.39
575.49	45151.27
575.65	46412.82
575.82	46391.76
575.98	46298.14
576.14	45879.18
576.30	46136.64
576.46	45872.16
576.62	45855.78
576.79	46265.37
576.95	45904.93
577.11	45989.19
577.27	45942.38
577.43	45731.73
577.59	45581.93
577.75	45895.56
577.92	45422.78
578.08	45610.02
578.24	45668.53
578.40	45244.90
578.56	46089.83
578.72	46188.13
578.88	46480.70
579.04	46138.98
579.21	45928.33
579.37	45968.12
579.53	46162.39
579.69	45708.32
579.85	45867.48
580.01	46232.60
580.17	46138.98
580.33	45979.82
580.49	45914.29
580.65	46202.18
580.82	46237.28
580.98	45654.49
581.14	45741.09
581.30	46202.18
581.46	46265.37
581.62	46031.32
581.78	46129.62
581.94	46162.39
582.10	46138.98
582.26	46560.28
582.42	46082.81
582.58	46328.56
582.74	45815.99
582.90	46487.72
583.06	46471.34
583.22	46342.61
583.38	46864.55
583.54	46759.22
583.70	45984.51
583.86	46241.96
584.02	46089.83
584.18	46340.27
584.34	46337.93
584.50	46171.75
584.66	46113.23
584.82	46057.06
584.98	46181.11
585.14	46195.15
585.30	46258.35
585.46	45970.46
585.62	45935.35
585.78	46136.64
585.94	45577.25
586.10	46267.71
586.26	46036.00
586.42	46354.31
586.58	46129.62
586.74	46131.96
586.90	46171.75
587.06	46099.19
587.22	46609.43
587.38	46218.56
587.54	46485.38
587.70	46342.61
587.86	46216.22
588.02	46153.02
588.18	46663.26
588.34	45909.61
588.49	45766.84
588.65	45799.60
588.81	45497.67
588.97	45947.06
589.13	45631.08
589.29	45530.44
589.45	45684.92
589.61	46227.92
589.77	46424.53
589.93	46431.55
