SpectraSuite Data File
++++++++++++++++++++++++++++++++++++
Date: Fri Oct 25 10:43:57 EDT 2013
User: price-jones
Dark Spectrum Present: No
Reference Spectrum Present: No
Number of Sampled Component Spectra: 1
Spectrometers: USB2+H05261
Integration Time (usec): 100000 (USB2+H05261)
Spectra Averaged: 1 (USB2+H05261)
Boxcar Smoothing: 0 (USB2+H05261)
Correct for Electrical Dark: No (USB2+H05261)
Strobe/Lamp Enabled: No (USB2+H05261)
Correct for Detector Non-linearity: No (USB2+H05261)
Correct for Stray Light: No (USB2+H05261)
Number of Pixels in Processed Spectrum: 2048
>>>>>Begin Processed Spectral Data<<<<<
365.73	126.39
365.92	126.39
366.12	126.39
366.32	44.47
366.52	67.88
366.72	53.83
366.91	53.83
367.11	14.04
367.31	14.04
367.51	0.00
367.70	25.75
367.90	16.38
368.10	0.00
368.30	32.77
368.49	60.85
368.69	23.41
368.89	11.70
369.09	11.70
369.28	56.17
369.48	79.58
369.68	91.28
369.87	79.58
370.07	79.58
370.27	86.60
370.47	147.45
370.66	339.38
370.86	421.30
371.06	449.38
371.25	496.19
371.45	374.49
371.65	470.45
371.84	463.43
372.04	442.36
372.24	517.26
372.44	475.13
372.63	475.13
372.83	545.34
373.03	521.94
373.22	484.49
373.42	510.24
373.62	489.17
373.81	533.64
374.01	550.03
374.21	561.73
374.40	617.90
374.60	573.43
374.79	564.07
374.99	601.52
375.19	629.60
375.38	547.69
375.58	631.94
375.78	552.37
375.97	585.13
376.17	678.76
376.37	603.86
376.56	617.90
376.76	685.78
376.95	622.58
377.15	596.84
377.35	596.84
377.54	695.14
377.74	613.22
377.93	809.83
378.13	636.63
378.33	620.24
378.52	702.16
378.72	648.33
378.91	685.78
379.11	685.78
379.31	732.59
379.50	627.26
379.70	697.48
379.89	734.93
380.09	699.82
380.28	706.84
380.48	676.41
380.68	704.50
380.87	631.94
381.07	697.48
381.26	692.80
381.46	699.82
381.65	669.39
381.85	781.74
382.04	662.37
382.24	732.59
382.43	767.70
382.63	725.57
382.83	723.23
383.02	779.40
383.22	793.44
383.41	779.40
383.61	725.57
383.80	795.78
384.00	821.53
384.19	706.84
384.39	697.48
384.58	798.12
384.78	798.12
384.97	816.85
385.17	835.57
385.36	877.70
385.56	784.08
385.75	821.53
385.95	807.48
386.14	873.02
386.34	840.25
386.53	767.70
386.72	823.87
386.92	884.72
387.11	877.70
387.31	828.55
387.50	929.19
387.70	905.79
387.89	844.93
388.09	837.91
388.28	830.89
388.48	861.32
388.67	898.77
388.86	880.04
389.06	891.74
389.25	1018.13
389.45	1032.18
389.64	945.58
389.84	1004.09
390.03	968.98
390.22	1083.67
390.42	1081.33
390.61	1053.24
390.81	1057.92
391.00	1048.56
391.19	1153.88
391.39	1088.35
391.58	1170.27
391.78	1046.22
391.97	1006.43
392.16	1025.15
392.36	1046.22
392.55	1011.11
392.75	994.73
392.94	1062.60
393.13	961.96
393.33	980.68
393.52	1060.26
393.71	1128.14
393.91	1254.53
394.10	1156.22
394.29	1097.71
394.49	1144.52
394.68	1212.40
394.88	1320.06
395.07	1261.55
395.26	1233.46
395.46	1270.91
395.65	1308.36
395.84	1256.87
396.04	1203.04
396.23	1219.42
396.42	1139.84
396.62	1205.38
396.81	1263.89
397.00	1212.40
397.19	1252.19
397.39	1294.32
397.58	1383.26
397.77	1313.04
397.97	1483.90
398.16	1334.11
398.35	1549.43
398.55	1371.55
398.74	1526.03
398.93	1542.41
399.12	1633.69
399.32	1528.37
399.51	1504.96
399.70	1593.90
399.90	1586.88
400.09	1675.82
400.28	1586.88
400.47	1584.54
400.67	1673.48
400.86	1689.87
401.05	1750.72
401.24	1689.87
401.44	1727.32
401.63	1715.61
401.82	1722.63
402.01	1769.44
402.21	1776.47
402.40	1863.07
402.59	1732.00
402.78	1837.32
402.97	1720.29
403.17	1776.47
403.36	1839.66
403.55	1933.28
403.74	1952.01
403.93	1930.94
404.13	1916.90
404.32	1937.96
404.51	1905.20
404.70	1980.09
404.89	1980.09
405.09	2071.37
405.28	2094.78
405.47	1930.94
405.66	2017.54
405.85	2012.86
406.05	2008.18
406.24	2087.76
406.43	1968.39
406.62	2118.18
406.81	2289.04
407.00	2176.70
407.20	2040.95
407.39	2118.18
407.58	2267.98
407.77	2153.29
407.96	2249.25
408.15	2235.21
408.34	2392.03
408.54	2373.30
408.73	2244.57
408.92	2340.54
409.11	2239.89
409.30	2385.01
409.49	2406.07
409.68	2249.25
409.87	2314.79
410.07	2361.60
410.26	2349.90
410.45	2539.48
410.64	2293.72
410.83	2555.86
411.02	2497.35
411.21	2583.95
411.40	2597.99
411.59	2818.00
411.78	2679.91
411.98	2740.77
412.17	2717.36
412.36	2708.00
412.55	2679.91
412.74	2736.09
412.93	2782.90
413.12	2738.43
413.31	2988.86
413.50	2946.73
413.69	2895.24
413.88	3016.95
414.07	2974.82
414.26	2869.50
414.45	3077.80
414.64	3047.38
414.83	3080.14
415.02	3105.89
415.22	3096.53
415.41	3267.39
415.60	3321.22
415.79	3262.71
415.98	3234.62
416.17	3171.43
416.36	3190.15
416.55	3295.47
416.74	3370.37
416.93	3342.28
417.12	3407.82
417.31	3393.78
417.50	3496.76
417.69	3559.95
417.88	3548.25
418.07	3492.08
418.26	3625.49
418.45	3545.91
418.64	3653.58
418.83	3681.66
419.02	3618.47
419.21	3653.58
419.39	3566.98
419.58	3765.92
419.77	3489.74
419.96	3751.88
420.15	3705.07
420.34	3662.94
420.53	3803.37
420.72	3653.58
420.91	3866.56
421.10	3831.46
421.29	3864.22
421.48	3892.31
421.67	3988.27
421.86	3887.63
422.05	3873.59
422.24	3716.77
422.43	3824.44
422.61	3992.95
422.80	4018.70
422.99	4063.17
423.18	3974.23
423.37	4035.08
423.56	4039.76
423.75	4070.19
423.94	4102.96
424.13	3810.39
424.32	3929.76
424.50	4138.07
424.69	4222.33
424.88	4070.19
425.07	3967.21
425.26	4072.53
425.45	3981.25
425.64	4091.26
425.83	4025.72
426.01	4117.00
426.20	4042.11
426.39	3981.25
426.58	3992.95
426.77	4088.92
426.96	4067.85
427.15	4173.18
427.33	4138.07
427.52	4016.36
427.71	4238.71
427.90	4180.20
428.09	4201.26
428.28	4215.30
428.46	4215.30
428.65	4299.56
428.84	4428.29
429.03	4379.14
429.22	4128.70
429.40	4243.39
429.59	4187.22
429.78	4084.23
429.97	3969.55
430.16	4049.13
430.34	4163.81
430.53	4341.69
430.72	4215.30
430.91	4229.35
431.10	4280.84
431.28	4678.73
431.47	4669.37
431.66	4711.50
431.85	4592.13
432.03	4809.80
432.22	4713.84
432.41	4599.15
432.60	4814.48
432.79	4641.28
432.97	4856.61
433.16	4947.89
433.35	4748.95
433.54	4692.77
433.72	4739.58
433.91	4760.65
434.10	4851.93
434.28	4861.29
434.47	4947.89
434.66	4875.34
434.85	5167.90
435.03	5181.95
435.22	4875.34
435.41	5064.92
435.59	5174.92
435.78	5167.90
435.97	5156.20
436.16	5144.50
436.34	5170.24
436.53	5221.74
436.72	5418.34
436.90	5125.77
437.09	5219.39
437.28	5219.39
437.46	5317.70
437.65	5284.93
437.84	5317.70
438.02	5320.04
438.21	5280.25
438.40	5200.67
438.58	5474.51
438.77	5636.01
438.96	5556.43
439.14	5570.48
439.33	5774.10
439.52	5750.70
439.70	5568.13
439.89	5858.36
440.08	5783.46
440.26	5865.38
440.45	5685.16
440.63	5916.87
440.82	6164.97
441.01	5916.87
441.19	6242.21
441.38	6176.67
441.57	6347.53
441.75	6141.57
441.94	6349.87
442.12	6310.08
442.31	6562.86
442.50	6530.09
442.68	6539.46
442.87	6370.94
443.05	6396.68
443.24	6534.78
443.43	6530.09
443.61	6640.10
443.80	6609.67
443.98	6490.31
444.17	6387.32
444.35	6750.10
444.54	6867.13
444.73	6740.74
444.91	6576.91
445.10	6726.70
445.28	6527.75
445.47	6443.49
445.65	6597.97
445.84	6569.88
446.02	6698.61
446.21	6616.69
446.39	6567.54
446.58	6780.53
446.77	6789.89
446.95	6656.48
447.14	6855.43
447.32	6911.60
447.51	6876.49
447.69	6883.52
447.88	6932.67
448.06	6766.49
448.25	6888.20
448.43	6841.39
448.62	6834.36
448.80	6904.58
448.99	6949.05
449.17	7133.95
449.36	6953.73
449.54	7007.56
449.73	7239.28
449.91	7262.68
450.10	7258.00
450.28	7377.37
450.46	7389.07
450.65	7349.28
450.83	7396.09
451.02	7342.26
451.20	7389.07
451.39	7356.30
451.57	7316.51
451.76	7337.58
451.94	7571.63
452.13	7239.28
452.31	7304.81
452.49	7087.14
452.68	7417.16
452.86	7365.67
453.05	7356.30
453.23	7452.27
453.42	7445.24
453.60	7508.44
453.78	7529.50
453.97	7440.56
454.15	7449.93
454.34	7625.47
454.52	7583.34
454.70	7651.21
454.89	7672.28
455.07	7775.26
455.26	7758.88
455.44	7861.86
455.62	7967.18
455.81	8006.97
455.99	7932.08
456.17	8025.70
456.36	7955.48
456.54	8079.53
456.73	7997.61
456.91	8451.67
457.09	8173.15
457.28	8322.94
457.46	8191.88
457.64	8346.35
457.83	8114.64
458.01	8198.90
458.19	8418.91
458.38	8264.43
458.56	8414.23
458.74	8444.65
458.93	8210.60
459.11	8404.86
459.29	8360.39
459.48	8519.55
459.66	8498.49
459.84	8603.81
460.03	8788.71
460.21	8451.67
460.39	8669.34
460.57	8507.85
460.76	8711.47
460.94	8587.43
461.12	8943.19
461.31	8791.05
461.49	8819.14
461.67	8737.22
461.85	8945.53
462.04	9060.21
462.22	9172.56
462.40	9100.00
462.59	9001.70
462.77	9071.92
462.95	9067.24
463.13	9121.07
463.32	9270.86
463.50	9111.71
463.68	9006.38
463.86	9156.18
464.05	9078.94
464.23	9022.77
464.41	9322.35
464.59	9118.73
464.78	9408.95
464.96	9266.18
465.14	9294.27
465.32	9551.73
465.50	9544.70
465.69	9668.75
465.87	9411.29
466.05	9380.87
466.23	9397.25
466.41	9348.10
466.60	9643.01
466.78	9336.40
466.96	9446.40
467.14	9317.67
467.32	9509.60
467.51	9694.50
467.69	9521.30
467.87	9668.75
468.05	9551.73
468.23	9509.60
468.41	9729.61
468.60	9966.00
468.78	9865.36
468.96	9778.76
469.14	9722.59
469.32	10197.71
469.50	9558.75
469.69	9785.78
469.87	9956.64
470.05	9928.55
470.23	9802.16
470.41	9895.78
470.59	10127.50
470.77	10106.43
470.95	10085.37
471.14	10272.61
471.32	10085.37
471.50	10684.55
471.68	10471.56
471.86	10752.42
472.04	10361.55
472.22	10658.80
472.40	10410.70
472.58	10443.47
472.77	10441.13
472.95	10794.55
473.13	10998.18
473.31	10801.57
473.49	10747.74
473.67	10726.68
473.85	10946.69
474.03	11152.65
474.21	11143.29
474.39	11080.10
474.57	11267.34
474.75	11370.32
474.93	11365.64
475.12	11302.45
475.30	11382.03
475.48	11332.87
475.66	11506.07
475.84	11587.99
476.02	11698.00
476.20	11602.04
476.38	11838.43
476.56	11819.71
476.74	12287.81
476.92	11978.86
477.10	11946.09
477.28	12226.96
477.46	12294.83
477.64	12313.56
477.82	12624.85
478.00	12727.83
478.18	12844.86
478.36	12851.88
478.54	12659.96
478.72	12959.55
478.90	13249.77
479.08	13263.82
479.26	13446.38
479.44	13479.15
479.62	13650.00
479.80	13380.84
479.98	13563.40
480.16	13980.02
480.34	13834.91
480.52	14155.56
480.70	14075.98
480.88	13947.25
481.06	14164.92
481.24	14125.13
481.41	14586.22
481.59	14728.99
481.77	14902.19
481.95	14607.28
482.13	14946.66
482.31	14724.31
482.49	15211.14
482.67	14993.47
482.85	15382.00
483.03	15449.88
483.21	15384.34
483.39	15620.74
483.57	15503.71
483.74	15639.46
483.92	15829.04
484.10	15623.08
484.28	16133.31
484.46	16421.20
484.64	16631.85
484.82	16311.19
485.00	16376.73
485.18	16608.44
485.35	16795.68
485.53	16580.36
485.71	16313.53
485.89	17064.85
486.07	16545.25
486.25	16872.92
486.43	16996.97
486.61	17319.96
486.78	17507.21
486.96	17467.42
487.14	17825.52
487.32	17991.70
487.50	18452.78
487.68	18518.32
487.85	18679.82
488.03	18963.02
488.21	18965.36
488.39	18956.00
488.57	18677.48
488.75	19204.10
488.92	19220.48
489.10	19496.66
489.28	19543.47
489.46	19946.05
489.64	19749.44
489.81	20615.44
489.99	20671.61
490.17	20425.86
490.35	20781.62
490.53	20657.57
490.70	20737.15
490.88	20664.59
491.06	21310.58
491.24	21074.18
491.41	21235.68
491.59	21039.08
491.77	21071.84
491.95	21479.10
492.13	21806.77
492.30	21940.18
492.48	22073.59
492.66	22040.82
492.84	22099.34
493.01	22607.23
493.19	22735.96
493.37	22684.47
493.54	22515.95
493.72	23007.47
493.90	22925.55
494.08	23178.33
494.25	23466.21
494.43	23655.79
494.61	23885.17
494.79	23999.85
494.96	23854.74
495.14	23847.72
495.32	24060.71
495.49	24074.75
495.67	24219.86
495.85	24418.81
496.02	24676.27
496.20	24709.04
496.38	24875.21
496.55	24898.62
496.73	25507.16
496.91	25476.73
497.09	25378.43
497.26	25518.86
497.44	25230.98
497.62	25682.70
497.79	25773.98
497.97	25432.26
498.14	25954.20
498.32	25961.22
498.50	25909.73
498.67	26522.95
498.85	26693.81
499.03	26862.33
499.20	26719.56
499.38	26946.59
499.56	26778.07
499.73	26747.64
499.91	27412.35
500.08	27358.52
500.26	26710.19
500.44	26946.59
500.61	27503.64
500.79	27035.53
500.97	27126.81
501.14	27431.08
501.32	27388.95
501.49	27665.13
501.67	27358.52
501.84	27803.22
502.02	27864.08
502.20	27969.40
502.37	28142.60
502.55	28187.07
502.72	28627.09
502.90	28519.43
503.07	28123.88
503.25	28498.36
503.43	28240.90
503.60	28673.90
503.78	28641.14
503.95	28645.82
504.13	28725.39
504.30	29123.29
504.48	29123.29
504.65	29504.79
504.83	29582.03
505.01	29469.69
505.18	29282.44
505.36	30382.49
505.53	29406.49
505.71	29898.00
505.88	30242.06
506.06	29734.17
506.23	30050.14
506.41	29951.84
506.58	30340.36
506.76	30347.39
506.93	30616.55
507.11	30483.14
507.28	30639.95
507.46	30483.14
507.63	30459.73
507.81	30614.21
507.98	30881.03
508.16	31044.87
508.33	30845.92
508.50	31232.11
508.68	31543.40
508.85	31611.28
509.03	31709.58
509.20	31693.19
509.38	31543.40
509.55	32025.55
509.73	32030.23
509.90	31543.40
510.08	31995.12
510.25	31852.35
510.42	31920.23
510.60	32041.93
510.77	32343.86
510.95	32531.11
511.12	32701.96
511.30	33017.94
511.47	32870.48
511.64	32800.27
511.82	32879.85
511.99	32496.00
512.17	32732.39
512.34	33043.68
512.51	32800.27
512.69	33205.18
512.86	33282.42
513.04	33497.75
513.21	33574.98
513.38	33797.34
513.56	33560.94
513.73	33476.68
513.90	33261.35
514.08	33055.39
514.25	33481.36
514.43	33834.78
514.60	33612.43
514.77	33972.88
514.95	34160.12
515.12	33937.77
515.29	34094.58
515.47	34745.25
515.64	34469.07
515.81	34424.60
515.99	34572.05
516.16	34321.62
516.33	33603.07
516.51	34609.50
516.68	33914.36
516.85	33729.46
517.03	34117.99
517.20	34459.71
517.37	34529.92
517.54	34637.59
517.72	34707.80
517.89	34476.09
518.06	34408.22
518.24	34642.27
518.41	34981.65
518.58	35229.74
518.75	35119.74
518.93	35391.24
519.10	35260.17
519.27	36023.19
519.45	35501.25
519.62	35718.92
519.79	35924.88
519.96	35992.76
520.14	36294.69
520.31	35756.36
520.48	36107.44
520.65	36154.26
520.83	36435.12
521.00	35978.72
521.17	36074.68
521.34	36357.88
521.52	36610.66
521.69	36353.20
521.86	36783.86
522.03	36809.61
522.20	37156.00
522.38	36943.02
522.55	37095.15
522.72	37294.10
522.89	37076.43
523.07	37392.40
523.24	36809.61
523.41	37310.48
523.58	37427.51
523.75	37638.15
523.92	37888.59
524.10	37717.73
524.27	37998.60
524.44	37940.08
524.61	38103.92
524.78	38031.36
524.96	37659.22
525.13	37888.59
525.30	38562.67
525.47	38438.62
525.64	37904.98
525.81	38363.72
525.98	37956.47
526.16	37766.88
526.33	37558.58
526.50	38164.78
526.67	37488.36
526.84	37546.87
527.01	37572.62
527.18	38380.10
527.36	38485.43
527.53	38810.76
527.70	38768.63
527.87	39227.38
528.04	38803.74
528.21	38871.62
528.38	39140.78
528.55	39620.59
528.72	39257.81
528.89	39386.54
529.07	39075.24
529.24	39356.11
529.41	39452.07
529.58	39365.47
529.75	38969.92
529.92	39573.78
530.09	39501.22
530.26	39856.98
530.43	39990.39
530.60	39533.99
530.77	39777.40
530.94	40062.95
531.11	40140.19
531.28	39894.43
531.46	40343.81
531.63	40580.21
531.80	40034.86
531.97	39966.99
532.14	40044.23
532.31	39185.25
532.48	40243.17
532.65	40339.13
532.82	39988.05
532.99	40360.20
533.16	40423.39
533.33	40540.42
533.50	40634.04
533.67	40570.85
533.84	40608.29
534.01	40840.01
534.18	40449.14
534.35	40418.71
534.52	40790.86
534.69	40755.75
534.86	40961.72
535.03	40928.95
535.20	41256.62
535.37	41315.14
535.54	41418.12
535.71	41069.38
535.88	41148.96
536.05	41443.87
536.22	41621.75
536.38	41493.02
536.55	41214.49
536.72	41490.68
536.89	41015.55
537.06	41275.35
537.23	41523.44
537.40	41237.90
537.57	41387.69
537.74	41471.95
537.91	42281.78
538.08	41352.58
538.25	41698.98
538.42	41776.22
538.59	42223.26
538.75	41565.57
538.92	41614.72
539.09	41818.35
539.26	42043.04
539.43	42199.86
539.60	42026.66
539.77	41617.07
539.94	42073.47
540.11	41621.75
540.28	41565.57
540.44	42178.79
540.61	42068.79
540.78	41516.42
540.95	42019.64
541.12	41867.50
541.29	41947.08
541.46	42124.96
541.62	42483.06
541.79	42344.97
541.96	42309.86
542.13	42183.48
542.30	41954.10
542.47	42440.93
542.63	42349.65
542.80	42672.65
542.97	42799.04
543.14	43372.47
543.31	42862.23
543.48	42983.94
543.64	43667.37
543.81	43501.20
543.98	43470.77
544.15	43421.62
544.32	43704.82
544.48	43824.19
544.65	43639.29
544.82	43936.54
544.99	43489.49
545.16	43405.23
545.32	43531.62
545.49	44039.52
545.66	44142.50
545.83	43901.43
546.00	43845.26
546.16	43779.72
546.33	43587.80
546.50	43447.36
546.67	43655.67
546.83	43751.63
547.00	43711.84
547.17	43737.59
547.34	43388.85
547.50	43730.57
547.67	43861.64
547.84	44102.71
548.00	44315.70
548.17	44325.07
548.34	44231.44
548.51	44631.68
548.67	44210.38
548.84	44299.32
549.01	43903.77
549.18	44432.73
549.34	44343.79
549.51	44149.53
549.68	44729.98
549.84	44102.71
550.01	44727.64
550.18	44516.99
550.34	44339.11
550.51	44311.02
550.68	44421.03
550.84	44332.09
551.01	44921.90
551.18	44219.74
551.34	44568.48
551.51	45045.95
551.68	44856.37
551.84	45069.36
552.01	44687.85
552.18	44584.86
552.34	44509.97
552.51	44884.45
552.68	44608.27
552.84	45265.96
553.01	45057.65
553.18	44900.84
553.34	44594.23
553.51	45151.27
553.67	45050.63
553.84	45275.32
554.01	45287.03
554.17	45778.54
554.34	45406.39
554.51	45289.37
554.67	45572.57
554.84	45200.43
555.00	44758.06
555.17	45361.92
555.33	45235.53
555.50	44992.12
555.67	45088.08
555.83	45118.51
556.00	45333.84
556.16	45680.24
556.33	45429.80
556.50	45249.58
556.66	45502.35
556.83	45378.31
556.99	45523.42
557.16	45897.91
557.32	45441.50
557.49	45326.81
557.65	45333.84
557.82	45982.16
557.98	45666.19
558.15	45729.39
558.32	45839.39
558.48	45738.75
558.65	45687.26
558.81	45607.68
558.98	45385.33
559.14	45366.60
559.31	45682.58
559.47	45907.27
559.64	45830.03
559.80	46059.40
559.97	45738.75
560.13	45684.92
560.30	45666.19
560.46	46003.23
560.63	45825.35
560.79	45986.85
560.96	46494.74
561.12	45876.84
561.29	45731.73
561.45	45715.34
561.61	46071.10
561.78	45916.63
561.94	45977.48
562.11	45684.92
562.27	46174.09
562.44	45907.27
562.60	46305.16
562.77	45867.48
562.93	45996.21
563.10	46328.56
563.26	46099.19
563.42	46403.46
563.59	45900.25
563.75	45656.83
563.92	46401.12
564.08	46052.38
564.24	46412.82
564.41	46256.01
564.57	46052.38
564.74	46312.18
564.90	45684.92
565.07	45972.80
565.23	46373.03
565.39	46043.02
565.56	46316.86
565.72	45794.92
565.88	46148.34
566.05	45614.70
566.21	46000.89
566.38	45766.84
566.54	46136.64
566.70	46356.65
566.87	46335.59
567.03	46260.69
567.19	46693.69
567.36	46389.42
567.52	46106.21
567.68	46185.79
567.85	46138.98
568.01	46518.15
568.17	46307.50
568.34	46431.55
568.50	46466.66
568.66	45947.06
568.83	46047.70
568.99	46270.05
569.15	46581.34
569.32	46714.75
569.48	46316.86
569.64	46373.03
569.81	45937.69
569.97	46195.15
570.13	46075.79
570.30	46021.95
570.46	46012.59
570.62	46108.55
570.78	46368.35
570.95	46071.10
571.11	45998.55
571.27	46246.65
571.43	45853.44
571.60	46291.12
571.76	46642.20
571.92	46581.34
572.09	46113.23
572.25	46644.54
572.41	46485.38
572.57	46574.32
572.74	46721.77
572.90	46710.07
573.06	46319.20
573.22	46553.26
573.38	46677.30
573.55	46038.34
573.71	46630.49
573.87	46204.52
574.03	46277.07
574.20	46340.27
574.36	46595.38
574.52	46274.73
574.68	46202.18
574.84	46410.48
575.01	46635.17
575.17	46469.00
575.33	46263.03
575.49	46579.00
575.65	46410.48
575.82	46389.42
575.98	46340.27
576.14	46653.90
576.30	46616.45
576.46	46373.03
576.62	46408.14
576.79	46256.01
576.95	46450.27
577.11	46600.07
577.27	46391.76
577.43	46789.65
577.59	46225.58
577.75	46515.81
577.92	46113.23
578.08	46014.93
578.24	46382.40
578.40	46340.27
578.56	46508.79
578.72	46614.11
578.88	46787.31
579.04	46616.45
579.21	46351.97
579.37	46185.79
579.53	46405.80
579.69	46681.98
579.85	46454.95
580.01	46644.54
580.17	46485.38
580.33	46892.63
580.49	46972.21
580.65	46707.73
580.82	46349.63
580.98	46380.06
581.14	46384.74
581.30	46855.18
581.46	46698.37
581.62	46768.58
581.78	46387.08
581.94	46794.33
582.10	46611.77
582.26	46370.69
582.42	46794.33
582.58	46501.76
582.74	46581.34
582.90	47033.07
583.06	46632.83
583.22	47157.11
583.38	46927.74
583.54	46464.32
583.70	46539.21
583.86	46735.82
584.02	46803.69
584.18	46745.18
584.34	46700.71
584.50	46476.02
584.66	46766.24
584.82	46508.79
584.98	46777.95
585.14	46616.45
585.30	46628.15
585.46	47037.75
585.62	46438.57
585.78	46986.25
585.94	46096.85
586.10	46419.84
586.26	46323.88
586.42	46862.21
586.58	46885.61
586.74	46857.52
586.90	46782.63
587.06	46639.86
587.22	46885.61
587.38	46532.19
587.54	46403.46
587.70	46686.67
587.86	46983.91
588.02	46424.53
588.18	46590.70
588.34	46038.34
588.49	46309.84
588.65	46066.42
588.81	46087.49
588.97	46373.03
589.13	46443.25
589.29	46085.15
589.45	46827.10
589.61	46298.14
589.77	46452.61
589.93	46424.53
