SpectraSuite Data File
++++++++++++++++++++++++++++++++++++
Date: Fri Oct 25 11:33:14 EDT 2013
User: price-jones
Dark Spectrum Present: No
Reference Spectrum Present: No
Number of Sampled Component Spectra: 1
Spectrometers: USB2+H05261
Integration Time (usec): 100000 (USB2+H05261)
Spectra Averaged: 1 (USB2+H05261)
Boxcar Smoothing: 0 (USB2+H05261)
Correct for Electrical Dark: No (USB2+H05261)
Strobe/Lamp Enabled: No (USB2+H05261)
Correct for Detector Non-linearity: No (USB2+H05261)
Correct for Stray Light: No (USB2+H05261)
Number of Pixels in Processed Spectrum: 2048
>>>>>Begin Processed Spectral Data<<<<<
365.73	196.60
365.92	196.60
366.12	196.60
366.32	210.65
366.52	168.52
366.72	229.37
366.91	245.76
367.11	107.66
367.31	161.50
367.51	88.94
367.70	182.56
367.90	187.24
368.10	231.71
368.30	215.33
368.49	145.11
368.69	205.97
368.89	208.31
369.09	210.65
369.28	175.54
369.48	224.69
369.68	269.16
369.87	215.33
370.07	248.10
370.27	259.80
370.47	313.63
370.66	472.79
370.86	463.43
371.06	514.92
371.25	533.64
371.45	561.73
371.65	521.94
371.84	517.26
372.04	550.03
372.24	545.34
372.44	617.90
372.63	608.54
372.83	571.09
373.03	624.92
373.22	575.77
373.42	561.73
373.62	627.26
373.81	648.33
374.01	671.73
374.21	692.80
374.40	681.10
374.60	704.50
374.79	645.99
374.99	753.65
375.19	596.84
375.38	669.39
375.58	655.35
375.78	777.06
375.97	739.61
376.17	767.70
376.37	653.01
376.56	713.86
376.76	643.65
376.95	582.79
377.15	713.86
377.35	671.73
377.54	688.12
377.74	758.33
377.93	681.10
378.13	636.63
378.33	727.91
378.52	732.59
378.72	772.38
378.91	702.16
379.11	739.61
379.31	660.03
379.50	716.20
379.70	667.05
379.89	688.12
380.09	711.52
380.28	671.73
380.48	779.40
380.68	739.61
380.87	688.12
381.07	760.67
381.26	744.29
381.46	814.51
381.65	763.01
381.85	734.93
382.04	760.67
382.24	788.76
382.43	781.74
382.63	821.53
382.83	812.17
383.02	784.08
383.22	870.68
383.41	748.97
383.61	833.23
383.80	858.98
384.00	802.80
384.19	802.80
384.39	816.85
384.58	875.36
384.78	898.77
384.97	847.27
385.17	866.00
385.36	770.04
385.56	863.66
385.75	837.91
385.95	819.19
386.14	816.85
386.34	866.00
386.53	851.96
386.72	868.34
386.92	915.15
387.11	816.85
387.31	924.51
387.50	889.40
387.70	903.45
387.89	842.59
388.09	898.77
388.28	901.11
388.48	882.38
388.67	957.28
388.86	936.21
389.06	933.87
389.25	896.43
389.45	957.28
389.64	887.06
389.84	973.66
390.03	950.26
390.22	973.66
390.42	978.34
390.61	1025.15
390.81	1032.18
391.00	999.41
391.19	961.96
391.39	1036.86
391.58	1029.84
391.78	1083.67
391.97	1027.50
392.16	1039.20
392.36	1013.45
392.55	1020.47
392.75	997.07
392.94	1015.79
393.13	1011.11
393.33	1064.94
393.52	973.66
393.71	1118.78
393.91	1050.90
394.10	964.30
394.29	1095.37
394.49	1093.03
394.68	1128.14
394.88	1093.03
395.07	1156.22
395.26	1191.33
395.46	1151.54
395.65	1203.04
395.84	1163.25
396.04	1203.04
396.23	1254.53
396.42	1142.18
396.62	1259.21
396.81	1299.00
397.00	1226.44
397.19	1210.06
397.39	1163.25
397.58	1226.44
397.77	1231.12
397.97	1203.04
398.16	1270.91
398.35	1268.57
398.55	1303.68
398.74	1268.57
398.93	1320.06
399.12	1331.76
399.32	1291.98
399.51	1275.59
399.70	1399.64
399.90	1366.87
400.09	1385.60
400.28	1481.56
400.47	1385.60
400.67	1376.24
400.86	1315.38
401.05	1352.83
401.24	1451.13
401.44	1472.20
401.63	1535.39
401.82	1511.99
402.01	1441.77
402.21	1476.88
402.40	1500.28
402.59	1490.92
402.78	1427.73
402.97	1540.07
403.17	1636.03
403.36	1535.39
403.55	1544.75
403.74	1575.18
403.93	1540.07
404.13	1666.46
404.32	1605.61
404.51	1591.56
404.70	1624.33
404.89	1561.14
405.09	1671.14
405.28	1568.16
405.47	1652.42
405.66	1757.74
405.85	1673.48
406.05	1701.57
406.24	1621.99
406.43	1724.97
406.62	1785.83
406.81	1912.22
407.00	1844.34
407.20	1769.44
407.39	1806.89
407.58	1867.75
407.77	1853.70
407.96	1799.87
408.15	1846.68
408.34	1760.08
408.54	1921.58
408.73	1959.03
408.92	1851.36
409.11	1994.14
409.30	2087.76
409.49	2003.50
409.68	2122.87
409.87	2040.95
410.07	1998.82
410.26	2104.14
410.45	2085.42
410.64	2059.67
410.83	2083.08
411.02	2118.18
411.21	2230.53
411.40	2167.34
411.59	2167.34
411.78	2232.87
411.98	2115.84
412.17	2307.77
412.36	2375.64
412.55	2275.00
412.74	2431.82
412.93	2370.96
413.12	2417.77
413.31	2438.84
413.50	2380.32
413.69	2537.14
413.88	2429.48
414.07	2558.21
414.26	2492.67
414.45	2539.48
414.64	2506.71
414.83	2597.99
415.02	2658.85
415.22	2703.32
415.41	2665.87
415.60	2724.38
415.79	2663.53
415.98	2726.72
416.17	2796.94
416.36	2724.38
416.55	2801.62
416.74	2752.47
416.93	2782.90
417.12	2841.41
417.31	2899.92
417.50	2789.92
417.69	2939.71
417.88	3014.61
418.07	2874.18
418.26	2993.55
418.45	2988.86
418.64	3049.72
418.83	3063.76
419.02	3049.72
419.21	3033.33
419.39	3136.32
419.58	2967.80
419.77	2951.42
419.96	3215.90
420.15	3288.45
420.34	3225.26
420.53	3279.09
420.72	3389.10
420.91	3328.24
421.10	3466.33
421.29	3281.43
421.48	3180.79
421.67	3236.96
421.86	3290.79
422.05	3164.40
422.24	3449.95
422.43	3403.14
422.61	3356.33
422.80	3410.16
422.99	3325.90
423.18	3419.52
423.37	3456.97
423.56	3368.03
423.75	3391.44
423.94	3243.98
424.13	3269.73
424.32	3286.11
424.50	3365.69
424.69	3524.85
424.88	3501.44
425.07	3487.40
425.26	3351.65
425.45	3459.31
425.64	3452.29
425.83	3445.27
426.01	3428.88
426.20	3534.21
426.39	3515.48
426.58	3506.12
426.77	3419.52
426.96	3672.30
427.15	3569.32
427.33	3506.12
427.52	3534.21
427.71	3550.59
427.90	3548.25
428.09	3698.05
428.28	3672.30
428.46	3686.34
428.65	3639.53
428.84	3857.20
429.03	3875.93
429.22	3648.90
429.40	3871.25
429.59	3688.68
429.78	3679.32
429.97	3684.00
430.16	3808.05
430.34	3747.20
430.53	3939.12
430.72	3784.65
430.91	3978.91
431.10	3768.26
431.28	3974.23
431.47	4039.76
431.66	4081.89
431.85	4007.00
432.03	3948.48
432.22	4112.32
432.41	4138.07
432.60	4184.88
432.79	4016.36
432.97	4201.26
433.16	4063.17
433.35	4194.24
433.54	4098.28
433.72	4119.34
433.91	4187.22
434.10	4283.18
434.28	4217.65
434.47	4318.29
434.66	4322.97
434.85	4414.25
435.03	4294.88
435.22	4346.37
435.41	4489.15
435.59	4341.69
435.78	4337.01
435.97	4477.44
436.16	4362.76
436.34	4414.25
436.53	4559.36
436.72	4571.07
436.90	4376.80
437.09	4643.62
437.28	4425.95
437.46	4528.94
437.65	4533.62
437.84	4678.73
438.02	4681.07
438.21	4669.37
438.40	4486.81
438.58	4702.14
438.77	4741.93
438.96	4720.86
439.14	4990.02
439.33	4891.72
439.52	5085.98
439.70	4863.63
439.89	5022.79
440.08	5067.26
440.26	4961.94
440.45	5034.49
440.63	5050.88
440.82	5233.44
441.01	5212.37
441.19	5242.80
441.38	5149.18
441.57	5235.78
441.75	5334.08
441.94	5502.60
442.12	5343.44
442.31	5652.39
442.50	5462.81
442.68	5291.95
442.87	5413.66
443.05	5568.13
443.24	5537.71
443.43	5523.66
443.61	5511.96
443.80	5769.42
443.98	5584.52
444.17	5516.64
444.35	5582.18
444.54	5514.30
444.73	5556.43
444.91	5750.70
445.10	5790.49
445.28	5703.89
445.47	5668.78
445.65	5720.27
445.84	5863.04
446.02	5671.12
446.21	5624.31
446.39	5755.38
446.58	5884.11
446.77	5703.89
446.95	5593.88
447.14	5736.65
447.32	5682.82
447.51	5802.19
447.69	5809.21
447.88	5774.10
448.06	5797.51
448.25	5792.83
448.43	5741.33
448.62	5750.70
448.80	5774.10
448.99	5940.28
449.17	5863.04
449.36	5834.96
449.54	6150.93
449.73	6099.44
449.91	6174.33
450.10	6139.23
450.28	6207.10
450.46	6090.07
450.65	6228.17
450.83	6289.02
451.02	6164.97
451.20	6305.40
451.39	6230.51
451.57	6155.61
451.76	6157.95
451.94	6249.23
452.13	6462.22
452.31	6462.22
452.49	6284.34
452.68	6169.65
452.86	6331.15
453.05	6375.62
453.23	6375.62
453.42	6293.70
453.60	6258.59
453.78	6595.63
453.97	6375.62
454.15	6448.18
454.34	6649.46
454.52	6544.14
454.70	6497.33
454.89	6633.08
455.07	6560.52
455.26	6726.70
455.44	6752.45
455.62	6822.66
455.81	6745.42
455.99	6799.26
456.17	6846.07
456.36	6860.11
456.54	6850.75
456.73	6881.18
456.91	7122.25
457.09	7110.55
457.28	7232.26
457.46	7014.59
457.64	7110.55
457.83	7042.67
458.01	6993.52
458.19	7131.61
458.38	7007.56
458.56	7393.75
458.74	7091.82
458.93	7098.84
459.11	7248.64
459.29	7274.38
459.48	7325.88
459.66	7258.00
459.84	7410.14
460.03	7358.64
460.21	7267.36
460.39	7307.15
460.57	7339.92
460.76	7632.49
460.94	7639.51
461.12	7506.10
461.31	7527.16
461.49	7466.31
461.67	7480.35
461.85	7557.59
462.04	7674.62
462.22	8161.45
462.40	7854.84
462.59	7707.38
462.77	7653.55
462.95	7882.92
463.13	7936.76
463.32	8056.12
463.50	8018.68
463.68	8006.97
463.86	7875.90
464.05	7831.43
464.23	8046.76
464.41	8093.57
464.59	7808.03
464.78	7901.65
464.96	8023.36
465.14	7859.52
465.32	8121.66
465.50	8269.11
465.69	8266.77
465.87	8177.83
466.05	8304.22
466.23	8299.54
466.41	8280.82
466.60	8327.63
466.78	7999.95
466.96	8238.69
467.14	8184.85
467.32	8451.67
467.51	8367.42
467.69	8161.45
467.87	8348.69
468.05	8414.23
468.23	8360.39
468.41	8388.48
468.60	8365.07
468.78	8346.35
468.96	8439.97
469.14	8657.64
469.32	8620.19
469.50	8491.46
469.69	8737.22
469.87	8753.60
470.05	8858.93
470.23	8830.84
470.41	8697.43
470.59	8884.67
470.77	8887.01
470.95	8751.26
471.14	9322.35
471.32	8891.70
471.50	9034.47
471.68	9050.85
471.86	9219.37
472.04	9177.24
472.22	9303.63
472.40	9226.39
472.58	9205.33
472.77	9401.93
472.95	9638.33
473.13	9650.03
473.31	9497.89
473.49	9490.87
473.67	9329.38
473.85	9596.20
474.03	9900.47
474.21	9879.40
474.39	9764.72
474.57	9813.87
474.75	9848.97
474.93	9898.13
475.12	10153.24
475.30	10176.65
475.48	9893.44
475.66	10256.23
475.84	10139.20
476.02	10186.01
476.20	10370.91
476.38	10452.83
476.56	10626.03
476.74	10654.12
476.92	10225.80
477.10	10499.64
477.28	10642.42
477.46	10729.02
477.64	10782.85
477.82	11066.05
478.00	11126.91
478.18	11089.46
478.36	11162.01
478.54	11489.69
478.72	11293.08
478.90	11543.52
479.08	11705.02
479.26	11580.97
479.44	11747.15
479.62	11623.10
479.80	12095.89
479.98	12002.27
480.16	11950.78
480.34	12046.74
480.52	12482.08
480.70	12334.62
480.88	12212.92
481.06	12400.16
481.24	12624.85
481.41	12678.68
481.59	12688.04
481.77	12617.83
481.95	12985.29
482.13	13034.44
482.31	13092.96
482.49	13514.25
482.67	13343.39
482.85	13514.25
483.03	13565.74
483.21	13713.20
483.39	13813.84
483.57	13862.99
483.74	13940.23
483.92	14075.98
484.10	14113.43
484.28	14457.49
484.46	14291.31
484.64	14483.24
484.82	14607.28
485.00	14607.28
485.18	14991.13
485.35	14874.10
485.53	15012.20
485.71	15279.02
485.89	15569.24
486.07	15529.45
486.25	15672.23
486.43	15559.88
486.61	15747.12
486.78	15985.86
486.96	16086.50
487.14	16152.04
487.32	16236.30
487.50	16538.23
487.68	16418.86
487.85	16648.23
488.03	17130.38
488.21	17027.40
488.39	17001.65
488.57	17050.80
488.75	17273.15
488.92	17530.61
489.10	17490.82
489.28	17584.44
489.46	18106.38
489.64	17996.38
489.81	18207.03
489.99	18120.43
490.17	18171.92
490.35	18321.71
490.53	18478.53
490.70	18885.78
490.88	18235.11
491.06	18780.46
491.24	19021.53
491.41	19152.60
491.59	19337.51
491.77	19386.66
491.95	19360.91
492.13	19777.53
492.30	19906.26
492.48	19637.09
492.66	19707.31
492.84	20037.33
493.01	20301.81
493.19	20273.72
493.37	20404.79
493.54	20442.24
493.72	20390.75
493.90	20727.78
494.08	20690.34
494.25	21018.01
494.43	21036.74
494.61	21376.11
494.79	21383.13
494.96	21451.01
495.14	21418.24
495.32	22057.21
495.49	21727.19
495.67	22057.21
495.85	21874.65
496.02	22338.07
496.20	22164.87
496.38	22354.46
496.55	22600.21
496.73	22916.19
496.91	23012.15
497.09	22944.27
497.26	23248.54
497.44	23201.73
497.62	23419.40
497.79	23716.65
497.97	23269.61
498.14	23721.33
498.32	24063.05
498.50	23639.41
498.67	24582.65
498.85	23999.85
499.03	24009.22
499.20	24081.77
499.38	24489.03
499.56	24589.67
499.73	24425.83
499.91	24849.47
500.08	24788.61
500.26	24580.31
500.44	24936.07
500.61	25223.95
500.79	24833.08
500.97	25242.68
501.14	25504.82
501.32	25406.52
501.49	25415.88
501.67	25577.37
501.84	25596.10
502.02	25546.95
502.20	25865.26
502.37	25806.75
502.55	26036.12
502.72	25696.74
502.90	26239.75
503.07	26253.79
503.25	26122.72
503.43	25977.61
503.60	26232.72
503.78	26595.51
503.95	26534.65
504.13	26583.80
504.30	26869.35
504.48	26946.59
504.65	26995.74
504.83	27508.32
505.01	27288.31
505.18	27300.01
505.36	27578.53
505.53	27702.58
505.71	27459.16
505.88	27562.15
506.06	27655.77
506.23	27941.32
506.41	27435.76
506.58	27718.96
506.76	27838.33
506.93	28414.10
507.11	28201.11
507.28	28156.64
507.46	28362.61
507.63	28713.69
507.81	28411.76
507.98	28481.98
508.16	28746.46
508.33	28727.74
508.50	29219.25
508.68	28938.38
508.85	29085.84
509.03	28755.82
509.20	29144.35
509.38	29434.58
509.55	29156.05
509.73	29369.04
509.90	29385.43
510.08	29230.95
510.25	29593.73
510.42	29809.06
510.60	29694.38
510.77	30438.67
510.95	30326.32
511.12	30057.16
511.30	30256.11
511.47	30162.48
511.64	30328.66
511.82	30501.86
511.99	30242.06
512.17	30595.48
512.34	30487.82
512.51	31175.94
512.69	31234.45
512.86	31325.73
513.04	30944.22
513.21	30679.74
513.38	31119.76
513.56	31168.91
513.73	31253.17
513.90	31281.26
514.08	31627.66
514.25	31700.22
514.43	32079.38
514.60	31789.16
514.77	32011.51
514.95	31880.44
515.12	32055.98
515.29	31630.00
515.47	32240.88
515.64	32257.26
515.81	31892.14
515.99	32517.06
516.16	32430.46
516.33	32435.14
516.51	33099.86
516.68	32346.20
516.85	32837.72
517.03	32980.49
517.20	32622.39
517.37	33205.18
517.54	32762.82
517.72	32795.59
517.89	32924.32
518.06	33088.15
518.24	33266.03
518.41	33195.82
518.58	33574.98
518.75	33560.94
518.93	33432.21
519.10	33280.08
519.27	33677.97
519.45	33638.18
519.62	33816.06
519.79	34115.65
519.96	33673.29
520.14	34373.11
520.31	33837.12
520.48	34211.61
520.65	34309.91
520.83	34639.93
521.00	34541.63
521.17	34099.26
521.34	34305.23
521.52	34590.78
521.69	34593.12
521.86	34745.25
522.03	35243.79
522.20	34960.58
522.38	35695.51
522.55	35321.02
522.72	35019.10
522.89	35346.77
523.07	35529.33
523.24	35351.45
523.41	35517.63
523.58	35225.06
523.75	36273.62
523.92	35842.96
524.10	35557.42
524.27	35239.11
524.44	35819.56
524.61	36208.09
524.78	36205.75
524.96	36044.25
525.13	35857.01
525.30	36400.01
525.47	36236.17
525.64	36184.68
525.81	36943.02
525.98	36402.35
526.16	36751.09
526.33	36236.17
526.50	36919.61
526.67	36287.67
526.84	36774.50
527.01	36540.44
527.18	37003.87
527.36	37347.93
527.53	36959.40
527.70	37242.60
527.87	37053.02
528.04	37258.99
528.21	37490.70
528.38	37263.67
528.55	37710.71
528.72	37617.09
528.89	37123.24
529.07	37013.23
529.24	37441.55
529.41	37734.12
529.58	37640.50
529.75	37649.86
529.92	37654.54
530.09	37897.95
530.26	37799.65
530.43	38014.98
530.60	37776.25
530.77	37783.27
530.94	38293.50
531.11	37872.21
531.28	38368.40
531.46	37837.10
531.63	38660.97
531.80	38478.41
531.97	38773.31
532.14	38447.98
532.31	38281.80
532.48	38700.76
532.65	38803.74
532.82	38796.72
532.99	38831.83
533.16	38588.41
533.33	39239.08
533.50	38747.57
533.67	38696.08
533.84	38553.30
534.01	39159.50
534.18	39374.83
534.35	39681.44
534.52	39578.46
534.69	39634.63
534.86	39826.56
535.03	39449.73
535.20	39435.69
535.37	39531.65
535.54	39789.11
535.71	39711.87
535.88	39288.23
536.05	39948.26
536.22	39878.05
536.38	40088.70
536.55	39519.95
536.72	39913.16
536.89	40116.78
537.06	39899.11
537.23	40048.91
537.40	39564.42
537.57	40065.29
537.74	40025.50
537.91	40598.93
538.08	40187.00
538.25	40025.50
538.42	40392.97
538.59	40821.28
538.75	40615.32
538.92	40701.92
539.09	40638.72
539.26	40648.08
539.43	40596.59
539.60	40996.82
539.77	40957.03
539.94	41146.62
540.11	41144.28
540.28	41179.39
540.44	40692.55
540.61	40931.29
540.78	41233.22
540.95	41050.66
541.12	40816.60
541.29	41235.56
541.46	41425.14
541.62	41326.84
541.79	41572.60
541.96	40554.46
542.13	41233.22
542.30	41099.81
542.47	41839.42
542.63	41436.84
542.80	41787.92
542.97	42206.88
543.14	42270.08
543.31	42394.12
543.48	41916.65
543.64	42330.93
543.81	42588.39
543.98	42328.59
544.15	42075.81
544.32	42541.58
544.48	42670.31
544.65	42614.13
544.82	42546.26
544.99	41977.51
545.16	42747.54
545.32	42653.92
545.49	42665.63
545.66	43002.66
545.83	42263.05
546.00	43030.75
546.16	42672.65
546.33	42438.59
546.50	42880.95
546.67	43103.31
546.83	42724.14
547.00	42562.64
547.17	42440.93
547.34	42684.35
547.50	43107.99
547.67	43585.46
547.84	43136.07
548.00	43363.11
548.17	43805.47
548.34	43962.28
548.51	43428.64
548.67	43393.53
548.84	43548.01
549.01	43564.39
549.18	43557.37
549.34	43435.66
549.51	43679.08
549.68	44062.93
549.84	43477.79
550.01	43737.59
550.18	43466.09
550.34	43917.81
550.51	43763.34
550.68	43578.43
550.84	44158.89
551.01	43585.46
551.18	44208.04
551.34	43957.60
551.51	44318.04
551.68	43789.08
551.84	43770.36
552.01	43943.56
552.18	43791.42
552.34	44196.34
552.51	44163.57
552.68	44374.22
552.84	43941.22
553.01	44617.63
553.18	43667.37
553.34	44378.90
553.51	44399.96
553.67	44381.24
553.84	44711.25
554.01	44718.28
554.17	44451.45
554.34	44655.08
554.51	44755.72
554.67	45324.47
554.84	44903.18
555.00	44720.62
555.17	44624.65
555.33	45289.37
555.50	45036.59
555.67	45186.38
555.83	44699.55
556.00	45160.64
556.16	45626.40
556.33	44769.77
556.50	44938.29
556.66	44971.05
556.83	44877.43
556.99	45521.08
557.16	45298.73
557.32	45518.74
557.49	45434.48
557.65	45167.66
557.82	45106.80
557.98	45364.26
558.15	45151.27
558.32	45345.54
558.48	44835.30
558.65	45687.26
558.81	45272.98
558.98	45427.46
559.14	45186.38
559.31	44947.65
559.47	45106.80
559.64	45586.61
559.80	45563.21
559.97	45996.21
560.13	45834.71
560.30	45614.70
560.46	45680.24
560.63	45907.27
560.79	46028.98
560.96	46021.95
561.12	45918.97
561.29	46019.61
561.45	46174.09
561.61	45900.25
561.78	45776.20
561.94	45928.33
562.11	45890.88
562.27	45799.60
562.44	45801.94
562.60	46155.36
562.77	45937.69
562.93	46209.20
563.10	46120.26
563.26	45750.45
563.42	46906.68
563.59	46274.73
563.75	46218.56
563.92	45979.82
564.08	45942.38
564.24	46286.43
564.41	46361.33
564.57	46181.11
564.74	46298.14
564.90	46082.81
565.07	46330.90
565.23	46155.36
565.39	46246.65
565.56	46829.44
565.72	46614.11
565.88	46644.54
566.05	46178.77
566.21	46171.75
566.38	46216.22
566.54	46478.36
566.70	46351.97
566.87	46642.20
567.03	46335.59
567.19	46604.75
567.36	46576.66
567.52	46607.09
567.68	47117.32
567.85	46188.13
568.01	46988.60
568.17	46696.03
568.34	46848.16
568.50	46850.50
568.66	46710.07
568.83	46272.39
568.99	47047.11
569.15	46469.00
569.32	46876.25
569.48	46564.96
569.64	46887.95
569.81	46986.25
569.97	46930.08
570.13	46981.57
570.30	46745.18
570.46	46469.00
570.62	47056.47
570.78	47077.54
570.95	46962.85
571.11	46990.94
571.27	46822.42
571.43	46841.14
571.60	46642.20
571.76	46644.54
571.92	46684.33
572.09	46213.88
572.25	46887.95
572.41	46799.01
572.57	47084.56
572.74	47517.56
572.90	47285.84
573.06	46845.82
573.22	47192.22
573.38	47435.64
573.55	47232.01
573.71	47725.86
573.87	47009.66
574.03	47166.48
574.20	47508.19
574.36	46932.42
574.52	46906.68
574.68	47496.49
574.84	47290.52
575.01	47421.59
575.17	47913.11
575.33	47213.29
575.49	46993.28
575.65	47274.14
575.82	47213.29
575.98	47232.01
576.14	47363.08
576.30	47538.62
576.46	47372.44
576.62	47255.42
576.79	47463.72
576.95	47030.72
577.11	47452.02
577.27	47056.47
577.43	47201.58
577.59	47180.52
577.75	47250.74
577.92	47126.69
578.08	47019.02
578.24	47173.50
578.40	47475.43
578.56	47559.69
578.72	47206.26
578.88	47931.83
579.04	47381.80
579.21	47377.12
579.37	47262.44
579.53	47555.00
579.69	47311.59
579.85	47096.26
580.01	47208.61
580.17	47437.98
580.33	47309.25
580.49	47578.41
580.65	47552.66
580.82	47166.48
580.98	47599.47
581.14	47356.06
581.30	47583.09
581.46	47540.96
581.62	47129.03
581.78	47285.84
581.94	47196.90
582.10	47732.89
582.26	47519.90
582.42	47229.67
582.58	47597.13
582.74	47353.72
582.90	47344.36
583.06	47833.53
583.22	47407.55
583.38	47707.14
583.54	47917.79
583.70	47557.35
583.86	47487.13
584.02	47810.12
584.18	47564.37
584.34	47906.08
584.50	47665.01
584.66	47414.57
584.82	47538.62
584.98	47737.57
585.14	47704.80
585.30	47194.56
585.46	47765.65
585.62	47875.66
585.78	47681.39
585.94	46791.99
586.10	47421.59
586.26	47885.02
586.42	47297.55
586.58	47555.00
586.74	47760.97
586.90	47454.36
587.06	47910.77
587.22	47522.24
587.38	47377.12
587.54	47849.91
587.70	47873.32
587.86	47636.92
588.02	47241.37
588.18	47456.70
588.34	47461.38
588.49	47814.80
588.65	47309.25
588.81	47636.92
588.97	47847.57
589.13	47299.89
589.29	47304.57
589.45	48109.71
589.61	47880.34
589.77	48098.01
589.93	47622.88
590.08	47842.89
