SpectraSuite Data File
++++++++++++++++++++++++++++++++++++
Date: Fri Oct 25 11:33:55 EDT 2013
User: price-jones
Dark Spectrum Present: No
Reference Spectrum Present: No
Number of Sampled Component Spectra: 1
Spectrometers: USB2+H05261
Integration Time (usec): 100000 (USB2+H05261)
Spectra Averaged: 1 (USB2+H05261)
Boxcar Smoothing: 0 (USB2+H05261)
Correct for Electrical Dark: No (USB2+H05261)
Strobe/Lamp Enabled: No (USB2+H05261)
Correct for Detector Non-linearity: No (USB2+H05261)
Correct for Stray Light: No (USB2+H05261)
Number of Pixels in Processed Spectrum: 2048
>>>>>Begin Processed Spectral Data<<<<<
365.73	280.86
365.92	280.86
366.12	280.86
366.32	222.35
366.52	131.07
366.72	177.88
366.91	194.26
367.11	177.88
367.31	177.88
367.51	198.95
367.70	278.52
367.90	187.24
368.10	142.77
368.30	184.90
368.49	205.97
368.69	229.37
368.89	229.37
369.09	173.20
369.28	238.73
369.48	180.22
369.68	266.82
369.87	217.67
370.07	241.08
370.27	283.20
370.47	292.57
370.66	463.43
370.86	437.68
371.06	533.64
371.25	573.43
371.45	526.62
371.65	545.34
371.84	528.96
372.04	496.19
372.24	533.64
372.44	589.82
372.63	592.16
372.83	559.39
373.03	620.24
373.22	622.58
373.42	582.79
373.62	613.22
373.81	695.14
374.01	660.03
374.21	622.58
374.40	622.58
374.60	599.18
374.79	634.29
374.99	706.84
375.19	622.58
375.38	660.03
375.58	690.46
375.78	713.86
375.97	638.97
376.17	709.18
376.37	622.58
376.56	669.39
376.76	671.73
376.95	688.12
377.15	674.07
377.35	655.35
377.54	641.31
377.74	650.67
377.93	657.69
378.13	627.26
378.33	718.54
378.52	622.58
378.72	690.46
378.91	716.20
379.11	723.23
379.31	669.39
379.50	685.78
379.70	709.18
379.89	678.76
380.09	788.76
380.28	711.52
380.48	758.33
380.68	685.78
380.87	784.08
381.07	765.36
381.26	772.38
381.46	760.67
381.65	807.48
381.85	723.23
382.04	758.33
382.24	748.97
382.43	709.18
382.63	706.84
382.83	765.36
383.02	819.19
383.22	833.23
383.41	816.85
383.61	814.51
383.80	791.10
384.00	739.61
384.19	758.33
384.39	772.38
384.58	814.51
384.78	870.68
384.97	760.67
385.17	805.14
385.36	880.04
385.56	830.89
385.75	823.87
385.95	880.04
386.14	933.87
386.34	835.57
386.53	837.91
386.72	805.14
386.92	992.39
387.11	950.26
387.31	894.08
387.50	854.30
387.70	891.74
387.89	837.91
388.09	835.57
388.28	887.06
388.48	905.79
388.67	898.77
388.86	940.90
389.06	901.11
389.25	866.00
389.45	929.19
389.64	936.21
389.84	924.51
390.03	1001.75
390.22	947.92
390.42	933.87
390.61	943.24
390.81	987.71
391.00	968.98
391.19	1006.43
391.39	968.98
391.58	1004.09
391.78	999.41
391.97	1008.77
392.16	1048.56
392.36	1015.79
392.55	999.41
392.75	1076.65
392.94	1025.15
393.13	1018.13
393.33	1020.47
393.52	990.05
393.71	1027.50
393.91	1053.24
394.10	1116.44
394.29	1041.54
394.49	1107.07
394.68	1043.88
394.88	1057.92
395.07	1146.86
395.26	1146.86
395.46	1156.22
395.65	1203.04
395.84	1160.91
396.04	1167.93
396.23	1163.25
396.42	1186.65
396.62	1224.10
396.81	1228.78
397.00	1177.29
397.19	1231.12
397.39	1193.67
397.58	1261.55
397.77	1270.91
397.97	1268.57
398.16	1317.72
398.35	1277.93
398.55	1217.08
398.74	1355.17
398.93	1263.89
399.12	1273.25
399.32	1270.91
399.51	1287.29
399.70	1280.27
399.90	1338.79
400.09	1301.34
400.28	1366.87
400.47	1355.17
400.67	1423.05
400.86	1380.92
401.05	1413.68
401.24	1406.66
401.44	1519.01
401.63	1387.94
401.82	1397.30
402.01	1385.60
402.21	1460.49
402.40	1409.00
402.59	1537.73
402.78	1479.22
402.97	1451.13
403.17	1570.50
403.36	1591.56
403.55	1500.28
403.74	1626.67
403.93	1467.52
404.13	1600.93
404.32	1593.90
404.51	1624.33
404.70	1612.63
404.89	1664.12
405.09	1633.69
405.28	1689.87
405.47	1685.19
405.66	1717.95
405.85	1689.87
406.05	1671.14
406.24	1657.10
406.43	1710.93
406.62	1774.13
406.81	1830.30
407.00	1771.79
407.20	1769.44
407.39	1724.97
407.58	1783.49
407.77	1788.17
407.96	1919.24
408.15	1870.09
408.34	1853.70
408.54	1930.94
408.73	1919.24
408.92	1902.86
409.11	1851.36
409.30	1963.71
409.49	1970.73
409.68	1905.20
409.87	2036.27
410.07	2176.70
410.26	2087.76
410.45	2038.61
410.64	2045.63
410.83	2218.83
411.02	2134.57
411.21	2001.16
411.40	2172.02
411.59	2136.91
411.78	2101.80
411.98	2136.91
412.17	2242.23
412.36	2272.66
412.55	2289.04
412.74	2242.23
412.93	2331.17
413.12	2310.11
413.31	2340.54
413.50	2263.30
413.69	2284.36
413.88	2490.33
414.07	2324.15
414.26	2480.97
414.45	2555.86
414.64	2445.86
414.83	2548.84
415.02	2572.25
415.22	2686.94
415.41	2649.49
415.60	2593.31
415.79	2745.45
415.98	2703.32
416.17	2712.68
416.36	2583.95
416.55	2857.79
416.74	2782.90
416.93	2839.07
417.12	2813.32
417.31	2775.88
417.50	3016.95
417.69	2836.73
417.88	3016.95
418.07	2860.13
418.26	2843.75
418.45	3049.72
418.64	3007.59
418.83	2970.14
419.02	3119.93
419.21	3138.66
419.39	3028.65
419.58	3028.65
419.77	2988.86
419.96	3077.80
420.15	3133.98
420.34	3206.53
420.53	3131.64
420.72	3148.02
420.91	3232.28
421.10	3243.98
421.29	3342.28
421.48	3126.96
421.67	3311.86
421.86	3274.41
422.05	3314.20
422.24	3164.40
422.43	3311.86
422.61	3349.31
422.80	3321.22
422.99	3365.69
423.18	3346.97
423.37	3543.57
423.56	3365.69
423.75	3372.71
423.94	3255.69
424.13	3152.70
424.32	3225.26
424.50	3368.03
424.69	3393.78
424.88	3400.80
425.07	3442.93
425.26	3403.14
425.45	3382.07
425.64	3372.71
425.83	3396.12
426.01	3478.04
426.20	3463.99
426.39	3393.78
426.58	3452.29
426.77	3496.76
426.96	3440.59
427.15	3620.81
427.33	3529.53
427.52	3581.02
427.71	3618.47
427.90	3487.40
428.09	3487.40
428.28	3583.36
428.46	3578.68
428.65	3688.68
428.84	3747.20
429.03	3740.18
429.22	3658.26
429.40	3723.79
429.59	3850.18
429.78	3630.17
429.97	3625.49
430.16	3684.00
430.34	3871.25
430.53	3950.82
430.72	3756.56
430.91	3866.56
431.10	3875.93
431.28	3861.88
431.47	3763.58
431.66	4051.47
431.85	4009.34
432.03	4025.72
432.22	3978.91
432.41	3988.27
432.60	4100.62
432.79	3953.16
432.97	4011.68
433.16	4032.74
433.35	3992.95
433.54	4142.75
433.72	4201.26
433.91	4212.96
434.10	4016.36
434.28	4098.28
434.47	4348.72
434.66	4327.65
434.85	4243.39
435.03	4353.40
435.22	4409.57
435.41	4456.38
435.59	4407.23
435.78	4442.34
435.97	4393.19
436.16	4339.35
436.34	4299.56
436.53	4470.42
436.72	4379.14
436.90	4262.12
437.09	4227.01
437.28	4449.36
437.46	4554.68
437.65	4505.53
437.84	4601.49
438.02	4568.73
438.21	4657.67
438.40	4568.73
438.58	4882.36
438.77	4634.26
438.96	4702.14
439.14	4851.93
439.33	4821.50
439.52	4847.25
439.70	4823.84
439.89	5048.54
440.08	4919.81
440.26	4868.31
440.45	4961.94
440.63	4837.89
440.82	5163.22
441.01	5041.51
441.19	5195.99
441.38	5153.86
441.57	5238.12
441.75	5228.76
441.94	5387.91
442.12	5427.70
442.31	5359.83
442.50	5324.72
442.68	5329.40
442.87	5411.32
443.05	5465.15
443.24	5547.07
443.43	5376.21
443.61	5493.24
443.80	5607.92
443.98	5408.98
444.17	5217.05
444.35	5488.56
444.54	5600.90
444.73	5516.64
444.91	5488.56
445.10	5633.67
445.28	5530.69
445.47	5657.07
445.65	5586.86
445.84	5591.54
446.02	5603.24
446.21	5729.63
446.39	5542.39
446.58	5816.23
446.77	5746.02
446.95	5607.92
447.14	5785.80
447.32	5713.25
447.51	5612.60
447.69	5617.29
447.88	5701.54
448.06	5685.16
448.25	5816.23
448.43	5846.66
448.62	5724.95
448.80	5706.23
448.99	5949.64
449.17	6017.52
449.36	5792.83
449.54	5853.68
449.73	5968.37
449.91	6015.18
450.10	5928.58
450.28	6052.63
450.46	6146.25
450.65	6146.25
450.83	5879.43
451.02	6010.50
451.20	6090.07
451.39	6038.58
451.57	6225.82
451.76	5872.40
451.94	6061.99
452.13	6141.57
452.31	6286.68
452.49	6164.97
452.68	6303.06
452.86	6270.30
453.05	6272.64
453.23	6403.71
453.42	6356.90
453.60	6202.42
453.78	6331.15
453.97	6237.53
454.15	6464.56
454.34	6396.68
454.52	6670.53
454.70	6567.54
454.89	6490.31
455.07	6466.90
455.26	6619.04
455.44	6684.57
455.62	6782.87
455.81	6635.42
455.99	6682.23
456.17	6663.51
456.36	6656.48
456.54	6775.85
456.73	6778.19
456.91	6981.82
457.09	6913.94
457.28	7061.40
457.46	6792.23
457.64	6951.39
457.83	7157.36
458.01	7007.56
458.19	7190.13
458.38	7082.46
458.56	7129.27
458.74	7148.00
458.93	7187.79
459.11	7241.62
459.29	7201.83
459.48	7026.29
459.66	7122.25
459.84	7218.21
460.03	7419.50
460.21	7468.65
460.39	7283.75
460.57	7386.73
460.76	7503.76
460.94	7576.31
461.12	7454.61
461.31	7447.58
461.49	7342.26
461.67	7403.11
461.85	7597.38
462.04	7536.52
462.22	7976.55
462.40	7709.72
462.59	7705.04
462.77	7723.77
462.95	7817.39
463.13	7646.53
463.32	7763.56
463.50	7810.37
463.68	7840.79
463.86	7815.05
464.05	7791.64
464.23	7805.69
464.41	7894.63
464.59	7784.62
464.78	8067.83
464.96	8016.33
465.14	7815.05
465.32	7936.76
465.50	7967.18
465.69	8046.76
465.87	7735.47
466.05	8067.83
466.23	8159.11
466.41	8266.77
466.60	8264.43
466.78	8112.30
466.96	8292.52
467.14	8191.88
467.32	8259.75
467.51	8219.96
467.69	7999.95
467.87	8294.86
468.05	8231.66
468.23	8077.19
468.41	8180.17
468.60	8449.33
468.78	8430.61
468.96	8287.84
469.14	8538.27
469.32	8683.39
469.50	8250.39
469.69	8807.44
469.87	8500.83
470.05	8573.38
470.23	8753.60
470.41	8664.66
470.59	8919.78
470.77	8435.29
470.95	8814.46
471.14	8823.82
471.32	8608.49
471.50	8940.85
471.68	8812.12
471.86	8961.91
472.04	9116.39
472.22	9408.95
472.40	9259.16
472.58	9067.24
472.77	9149.15
472.95	9383.21
473.13	9727.27
473.31	9280.22
473.49	9390.23
473.67	9411.29
473.85	9406.61
474.03	9497.89
474.21	9596.20
474.39	9575.13
474.57	9643.01
474.75	10026.86
474.93	9846.63
475.12	9860.68
475.30	9980.04
475.48	9921.53
475.66	10113.45
475.84	9912.17
476.02	9937.91
476.20	9942.60
476.38	10291.34
476.56	10551.14
476.74	10581.56
476.92	10501.98
477.10	10267.93
477.28	10560.50
477.46	10527.73
477.64	10693.91
477.82	10895.19
478.00	10960.73
478.18	10897.53
478.36	11197.12
478.54	11194.78
478.72	11239.25
478.90	11529.48
479.08	11513.10
479.26	11396.07
479.44	11492.03
479.62	11578.63
479.80	11889.92
479.98	11740.13
480.16	11873.54
480.34	11756.51
480.52	12100.57
480.70	12020.99
480.88	11969.50
481.06	12224.62
481.24	12255.04
481.41	12552.29
481.59	12512.50
481.77	12748.90
481.95	12901.03
482.13	12837.84
482.31	12917.42
482.49	13121.04
482.67	13219.35
482.85	13348.08
483.03	13444.04
483.21	13671.07
483.39	13586.81
483.57	13535.32
483.74	13855.97
483.92	13827.88
484.10	13820.86
484.28	14033.85
484.46	14345.14
484.64	14988.79
484.82	13977.68
485.00	14508.98
485.18	14640.05
485.35	14977.09
485.53	14941.98
485.71	15016.88
485.89	15012.20
486.07	15234.55
486.25	15398.38
486.43	15318.81
486.61	15845.43
486.78	15524.77
486.96	15758.83
487.14	15690.95
487.32	16013.95
487.50	15941.39
487.68	16566.31
487.85	16336.94
488.03	16517.16
488.21	16629.51
488.39	16568.65
488.57	16802.71
488.75	17003.99
488.92	17179.53
489.10	17387.84
489.28	17125.70
489.46	17642.96
489.64	17607.85
489.81	17764.67
489.99	18078.30
490.17	18127.45
490.35	18312.35
490.53	18288.95
490.70	18494.91
490.88	18476.19
491.06	18551.09
491.24	18787.48
491.41	18710.24
491.59	19126.86
491.77	18780.46
491.95	19066.00
492.13	19396.02
492.30	19417.08
492.48	19845.40
492.66	19473.26
492.84	19697.95
493.01	19917.96
493.19	19934.34
493.37	19967.11
493.54	19927.32
493.72	20381.38
493.90	20273.72
494.08	20475.01
494.25	20400.11
494.43	20959.50
494.61	21008.65
494.79	20968.86
494.96	21146.74
495.14	21425.26
495.32	21785.71
495.49	21507.18
495.67	21151.42
495.85	21359.73
496.02	21591.44
496.20	21907.41
496.38	22071.25
496.55	22104.02
496.73	22607.23
496.91	22469.14
497.09	22752.35
497.26	22869.37
497.44	22813.20
497.62	22958.31
497.79	23033.21
497.97	23283.65
498.14	23342.16
498.32	23480.25
498.50	23393.65
498.67	23529.41
498.85	23545.79
499.03	23908.57
499.20	23749.42
499.38	23740.05
499.56	24226.89
499.73	24088.79
499.91	24313.48
500.08	24299.44
500.26	24540.52
500.44	24456.26
500.61	24606.05
500.79	24627.12
500.97	25097.56
501.14	25177.14
501.32	25083.52
501.49	24973.52
501.67	25071.82
501.84	25387.79
502.02	24987.56
502.20	25195.87
502.37	25469.71
502.55	25825.47
502.72	25710.78
502.90	25284.81
503.07	25741.21
503.25	25795.04
503.43	26057.18
503.60	26218.68
503.78	26218.68
503.95	25963.56
504.13	25984.63
504.30	26565.08
504.48	26511.25
504.65	26883.39
504.83	26995.74
505.01	27091.70
505.18	27033.19
505.36	27257.88
505.53	26801.47
505.71	26995.74
505.88	27498.95
506.06	27065.96
506.23	27578.53
506.41	27426.40
506.58	27435.76
506.76	27388.95
506.93	27796.20
507.11	27552.79
507.28	27555.13
507.46	27599.60
507.63	28102.81
507.81	28025.57
507.98	27880.46
508.16	28236.22
508.33	28158.99
508.50	28643.48
508.68	28357.93
508.85	28945.41
509.03	28346.23
509.20	28591.98
509.38	28982.85
509.55	29062.43
509.73	28903.28
509.90	28849.44
510.08	28940.72
510.25	29104.56
510.42	29488.41
510.60	29460.32
510.77	29500.11
510.95	29937.79
511.12	29312.87
511.30	29930.77
511.47	29912.05
511.64	29542.24
511.82	29523.52
511.99	29736.51
512.17	30307.60
512.34	30326.32
512.51	30375.47
512.69	30326.32
512.86	30508.88
513.04	30649.32
513.21	30506.54
513.38	30967.63
513.56	30808.47
513.73	30679.74
513.90	31007.42
514.08	30944.22
514.25	31304.67
514.43	31180.62
514.60	31377.22
514.77	31056.57
514.95	30892.73
515.12	31342.11
515.29	31494.25
515.47	31861.71
515.64	31578.51
515.81	31424.03
515.99	31545.74
516.16	32205.77
516.33	32318.12
516.51	32343.86
516.68	32018.53
516.85	31974.06
517.03	32788.56
517.20	32797.93
517.37	32121.51
517.54	32362.59
517.72	32723.03
517.89	32620.05
518.06	32716.01
518.24	32650.47
518.41	32622.39
518.58	32804.95
518.75	32999.21
518.93	33053.05
519.10	32943.04
519.27	33509.45
519.45	33081.13
519.62	33696.69
519.79	33666.27
519.96	33556.26
520.14	33453.28
520.31	33448.60
520.48	33586.69
520.65	33750.52
520.83	34057.14
521.00	34370.77
521.17	33591.37
521.34	33862.87
521.52	34057.14
521.69	34361.40
521.86	34593.12
522.03	34132.03
522.20	35054.20
522.38	34885.68
522.55	34684.40
522.72	34644.61
522.89	34686.74
523.07	34981.65
523.24	34808.45
523.41	35033.14
523.58	34785.04
523.75	34785.04
523.92	35225.06
524.10	35054.20
524.27	35194.64
524.44	35573.80
524.61	35658.06
524.78	35658.06
524.96	35601.89
525.13	35604.23
525.30	35824.24
525.47	35583.16
525.64	35674.45
525.81	35676.79
525.98	35955.31
526.16	35995.10
526.33	35901.48
526.50	36339.16
526.67	35931.90
526.84	36205.75
527.01	36264.26
527.18	36084.04
527.36	36463.21
527.53	36643.43
527.70	36847.05
527.87	36732.37
528.04	36725.35
528.21	36863.44
528.38	36231.49
528.55	36790.88
528.72	36205.75
528.89	36786.20
529.07	36542.78
529.24	36409.37
529.41	37493.04
529.58	36966.42
529.75	36591.94
529.92	37453.25
530.09	37247.29
530.26	37191.11
530.43	37373.67
530.60	37195.79
530.77	37298.78
530.94	37542.19
531.11	37221.54
531.28	37677.94
531.46	37677.94
531.63	37914.34
531.80	37441.55
531.97	38054.77
532.14	38026.68
532.31	37738.80
532.48	37897.95
532.65	38075.84
532.82	38134.35
532.99	38251.38
533.16	38146.05
533.33	38778.00
533.50	38380.10
533.67	38176.48
533.84	38604.80
534.01	38026.68
534.18	38588.41
534.35	38763.95
534.52	38506.49
534.69	38761.61
534.86	38635.22
535.03	38808.42
535.20	39323.34
535.37	39000.35
535.54	39491.86
535.71	38864.60
535.88	39466.11
536.05	39124.40
536.22	39232.06
536.38	39328.02
536.55	39346.75
536.72	39344.41
536.89	39250.78
537.06	39756.34
537.23	39550.37
537.40	39498.88
537.57	39381.85
537.74	39503.56
537.91	39957.63
538.08	39735.27
538.25	39449.73
538.42	39573.78
538.59	40304.02
538.75	39770.38
538.92	39997.41
539.09	40158.91
539.26	40444.46
539.43	40147.21
539.60	40261.90
539.77	40151.89
539.94	40804.90
540.11	40849.37
540.28	40289.98
540.44	40828.30
540.61	40165.93
540.78	40451.48
540.95	40212.74
541.12	40219.77
541.29	40563.82
541.46	40896.18
541.62	40210.40
541.79	41188.75
541.96	40299.34
542.13	40608.29
542.30	41027.25
542.47	40521.69
542.63	40987.46
542.80	41296.41
542.97	41132.57
543.14	41570.25
543.31	41380.67
543.48	41317.48
543.64	41691.96
543.81	41895.59
543.98	41652.17
544.15	41390.03
544.32	42089.85
544.48	42110.92
544.65	41741.11
544.82	41911.97
544.99	41542.17
545.16	42141.35
545.32	41902.61
545.49	42195.18
545.66	42270.08
545.83	42101.56
546.00	42024.32
546.16	42227.95
546.33	41645.15
546.50	42131.98
546.67	42579.03
546.83	42171.77
547.00	41979.85
547.17	42220.92
547.34	42497.11
547.50	42183.48
547.67	42672.65
547.84	42384.76
548.00	42616.47
548.17	42965.21
548.34	42817.76
548.51	42789.67
548.67	42658.60
548.84	42838.83
549.01	42766.27
549.18	43086.92
549.34	43138.41
549.51	42990.96
549.68	43115.01
549.84	42937.13
550.01	43250.76
550.18	42827.12
550.34	42955.85
550.51	42822.44
550.68	43555.03
550.84	42951.17
551.01	44011.43
551.18	43250.76
551.34	43487.15
551.51	43782.06
551.68	43587.80
551.84	43290.55
552.01	43510.56
552.18	43466.09
552.34	43505.88
552.51	43735.25
552.68	43283.53
552.84	43885.04
553.01	43723.55
553.18	43590.14
553.34	43917.81
553.51	44032.50
553.67	44020.80
553.84	44034.84
554.01	43793.76
554.17	43718.87
554.34	44304.00
554.51	43936.54
554.67	44346.13
554.84	44210.38
555.00	44149.53
555.17	43856.96
555.33	44058.24
555.50	44273.57
555.67	44357.83
555.83	44584.86
556.00	43910.79
556.16	44931.26
556.33	44793.17
556.50	44275.91
556.66	44282.94
556.83	43910.79
556.99	44727.64
557.16	44559.12
557.32	44722.96
557.49	44786.15
557.65	44222.08
557.82	44605.93
557.98	44863.39
558.15	44584.86
558.32	44781.47
558.48	44704.23
558.65	44830.62
558.81	44856.37
558.98	44828.28
559.14	44467.84
559.31	44830.62
559.47	44734.66
559.64	44575.50
559.80	44741.68
559.97	45031.91
560.13	44898.50
560.30	44699.55
560.46	45151.27
560.63	45350.22
560.79	45272.98
560.96	45146.59
561.12	45081.06
561.29	45659.17
561.45	45027.23
561.61	45565.55
561.78	45251.92
561.94	44945.31
562.11	45188.72
562.27	44765.09
562.44	45289.37
562.60	45759.81
562.77	45237.87
562.93	45380.65
563.10	45705.98
563.26	45549.17
563.42	45872.16
563.59	45450.86
563.75	45347.88
563.92	45518.74
564.08	45170.00
564.24	45287.03
564.41	45455.54
564.57	45631.08
564.74	45661.51
564.90	45640.45
565.07	45830.03
565.23	45441.50
565.39	45778.54
565.56	45584.27
565.72	46218.56
565.88	45530.44
566.05	45577.25
566.21	45696.62
566.38	45483.63
566.54	45619.38
566.70	46021.95
566.87	45865.14
567.03	45537.46
567.19	46195.15
567.36	45722.37
567.52	46045.36
567.68	46047.70
567.85	46466.66
568.01	46026.63
568.17	45841.73
568.34	46403.46
568.50	46043.02
568.66	45935.35
568.83	45907.27
568.99	45907.27
569.15	46389.42
569.32	45834.71
569.48	45998.55
569.64	46735.82
569.81	46120.26
569.97	46087.49
570.13	46553.26
570.30	45659.17
570.46	46146.00
570.62	46394.10
570.78	46071.10
570.95	46085.15
571.11	46368.35
571.27	46377.72
571.43	46218.56
571.60	46050.04
571.76	46080.47
571.92	46106.21
572.09	46227.92
572.25	46019.61
572.41	46426.87
572.57	46380.06
572.74	46799.01
572.90	45991.53
573.06	46356.65
573.22	46667.94
573.38	46506.44
573.55	46260.69
573.71	46761.56
573.87	46543.89
574.03	46160.05
574.20	46887.95
574.36	46567.30
574.52	46574.32
574.68	46527.51
574.84	46562.62
575.01	46742.84
575.17	46902.00
575.33	46471.34
575.49	46499.42
575.65	46789.65
575.82	46813.05
575.98	46857.52
576.14	46731.14
576.30	46667.94
576.46	46773.27
576.62	46492.40
576.79	46415.16
576.95	46497.08
577.11	46209.20
577.27	46639.86
577.43	46490.06
577.59	46993.28
577.75	46958.17
577.92	46464.32
578.08	46122.60
578.24	46670.28
578.40	47150.09
578.56	46644.54
578.72	46866.89
578.88	46944.12
579.04	46667.94
579.21	46630.49
579.37	46532.19
579.53	46997.96
579.69	46546.23
579.85	46490.06
580.01	46660.92
580.17	46862.21
580.33	46789.65
580.49	46761.56
580.65	47145.41
580.82	46686.67
580.98	46361.33
581.14	46555.60
581.30	47049.45
581.46	46693.69
581.62	46876.25
581.78	46646.88
581.94	46937.10
582.10	46946.47
582.26	46862.21
582.42	46635.17
582.58	46852.84
582.74	46710.07
582.90	46635.17
583.06	46866.89
583.22	46864.55
583.38	46316.86
583.54	46953.49
583.70	47004.98
583.86	46995.62
584.02	46672.62
584.18	47248.39
584.34	46904.34
584.50	47098.60
584.66	47119.66
584.82	47168.82
584.98	47433.30
585.14	47154.77
585.30	46873.91
585.46	46689.01
585.62	47065.83
585.78	47049.45
585.94	46490.06
586.10	47023.70
586.26	46553.26
586.42	47000.30
586.58	47019.02
586.74	46822.42
586.90	46782.63
587.06	46906.68
587.22	47248.39
587.38	46873.91
587.54	47224.99
587.70	47320.95
587.86	47243.71
588.02	47033.07
588.18	46693.69
588.34	47096.26
588.49	47107.96
588.65	47002.64
588.81	47215.63
588.97	47124.35
589.13	46698.37
589.29	47185.20
589.45	47117.32
589.61	47044.77
589.77	47316.27
589.93	47049.45
590.08	47437.98
