SpectraSuite Data File
++++++++++++++++++++++++++++++++++++
Date: Fri Oct 25 11:33:21 EDT 2013
User: price-jones
Dark Spectrum Present: No
Reference Spectrum Present: No
Number of Sampled Component Spectra: 1
Spectrometers: USB2+H05261
Integration Time (usec): 100000 (USB2+H05261)
Spectra Averaged: 1 (USB2+H05261)
Boxcar Smoothing: 0 (USB2+H05261)
Correct for Electrical Dark: No (USB2+H05261)
Strobe/Lamp Enabled: No (USB2+H05261)
Correct for Detector Non-linearity: No (USB2+H05261)
Correct for Stray Light: No (USB2+H05261)
Number of Pixels in Processed Spectrum: 2048
>>>>>Begin Processed Spectral Data<<<<<
365.73	339.38
365.92	339.38
366.12	339.38
366.32	208.31
366.52	133.41
366.72	210.65
366.91	161.50
367.11	173.20
367.31	187.24
367.51	257.46
367.70	102.98
367.90	215.33
368.10	168.52
368.30	105.32
368.49	203.63
368.69	201.29
368.89	238.73
369.09	184.90
369.28	208.31
369.48	198.95
369.68	255.12
369.87	217.67
370.07	259.80
370.27	276.18
370.47	360.44
370.66	519.60
370.86	442.36
371.06	545.34
371.25	580.45
371.45	552.37
371.65	540.66
371.84	594.50
372.04	606.20
372.24	552.37
372.44	498.53
372.63	608.54
372.83	543.00
373.03	620.24
373.22	601.52
373.42	643.65
373.62	566.41
373.81	606.20
374.01	606.20
374.21	608.54
374.40	620.24
374.60	683.44
374.79	653.01
374.99	641.31
375.19	624.92
375.38	713.86
375.58	622.58
375.78	692.80
375.97	608.54
376.17	711.52
376.37	648.33
376.56	697.48
376.76	627.26
376.95	667.05
377.15	657.69
377.35	695.14
377.54	617.90
377.74	664.71
377.93	657.69
378.13	667.05
378.33	798.12
378.52	676.41
378.72	720.88
378.91	770.04
379.11	723.23
379.31	755.99
379.50	718.54
379.70	793.44
379.89	791.10
380.09	753.65
380.28	741.95
380.48	711.52
380.68	807.48
380.87	767.70
381.07	760.67
381.26	720.88
381.46	751.31
381.65	723.23
381.85	741.95
382.04	774.72
382.24	746.63
382.43	753.65
382.63	781.74
382.83	739.61
383.02	819.19
383.22	791.10
383.41	842.59
383.61	854.30
383.80	814.51
384.00	830.89
384.19	753.65
384.39	826.21
384.58	791.10
384.78	814.51
384.97	856.64
385.17	821.53
385.36	851.96
385.56	793.44
385.75	751.31
385.95	814.51
386.14	910.47
386.34	802.80
386.53	781.74
386.72	807.48
386.92	908.13
387.11	891.74
387.31	840.25
387.50	901.11
387.70	858.98
387.89	889.40
388.09	919.83
388.28	866.00
388.48	898.77
388.67	891.74
388.86	882.38
389.06	882.38
389.25	912.81
389.45	1006.43
389.64	1013.45
389.84	943.24
390.03	954.94
390.22	1034.52
390.42	1043.88
390.61	1027.50
390.81	961.96
391.00	945.58
391.19	943.24
391.39	987.71
391.58	1062.60
391.78	938.55
391.97	1029.84
392.16	1067.28
392.36	1050.90
392.55	1064.94
392.75	1116.44
392.94	1048.56
393.13	1048.56
393.33	1069.62
393.52	1055.58
393.71	1146.86
393.91	1076.65
394.10	1139.84
394.29	1118.78
394.49	1128.14
394.68	1139.84
394.88	1158.57
395.07	1200.69
395.26	1247.51
395.46	1188.99
395.65	1181.97
395.84	1203.04
396.04	1170.27
396.23	1174.95
396.42	1144.52
396.62	1184.31
396.81	1203.04
397.00	1179.63
397.19	1207.72
397.39	1249.85
397.58	1238.14
397.77	1193.67
397.97	1296.66
398.16	1270.91
398.35	1289.64
398.55	1242.82
398.74	1221.76
398.93	1331.76
399.12	1371.55
399.32	1380.92
399.51	1306.02
399.70	1345.81
399.90	1338.79
400.09	1390.28
400.28	1376.24
400.47	1366.87
400.67	1411.34
400.86	1413.68
401.05	1462.83
401.24	1420.71
401.44	1474.54
401.63	1495.60
401.82	1420.71
402.01	1528.37
402.21	1357.51
402.40	1432.41
402.59	1430.07
402.78	1530.71
402.97	1579.86
403.17	1544.75
403.36	1488.58
403.55	1523.69
403.74	1591.56
403.93	1636.03
404.13	1521.35
404.32	1563.48
404.51	1636.03
404.70	1607.95
404.89	1575.18
405.09	1701.57
405.28	1666.46
405.47	1626.67
405.66	1673.48
405.85	1818.60
406.05	1776.47
406.24	1724.97
406.43	1755.40
406.62	1813.92
406.81	1863.07
407.00	1715.61
407.20	1724.97
407.39	1809.23
407.58	1954.35
407.77	1877.11
407.96	1842.00
408.15	1921.58
408.34	1863.07
408.54	1956.69
408.73	1865.41
408.92	2045.63
409.11	1991.80
409.30	1837.32
409.49	1963.71
409.68	2054.99
409.87	1973.07
410.07	2024.56
410.26	2101.80
410.45	2024.56
410.64	2001.16
410.83	2134.57
411.02	2200.10
411.21	2249.25
411.40	2181.38
411.59	2218.83
411.78	2069.03
411.98	2216.49
412.17	2167.34
412.36	2237.55
412.55	2267.98
412.74	2345.22
412.93	2307.77
413.12	2324.15
413.31	2380.32
413.50	2436.50
413.69	2352.24
413.88	2530.12
414.07	2466.92
414.26	2490.33
414.45	2670.55
414.64	2576.93
414.83	2530.12
415.02	2562.89
415.22	2572.25
415.41	2684.59
415.60	2757.15
415.79	2670.55
415.98	2813.32
416.17	2736.09
416.36	2874.18
416.55	2740.77
416.74	2881.20
416.93	2864.82
417.12	2750.13
417.31	2958.44
417.50	2993.55
417.69	2827.37
417.88	2939.71
418.07	3012.27
418.26	2906.95
418.45	2946.73
418.64	3199.51
418.83	3101.21
419.02	3026.31
419.21	3075.46
419.39	3129.30
419.58	3068.44
419.77	3164.40
419.96	3204.19
420.15	3176.11
420.34	3169.09
420.53	3251.00
420.72	3218.24
420.91	3232.28
421.10	3304.84
421.29	3262.71
421.48	3225.26
421.67	3335.26
421.86	3325.90
422.05	3386.76
422.24	3243.98
422.43	3403.14
422.61	3419.52
422.80	3494.42
422.99	3363.35
423.18	3428.88
423.37	3578.68
423.56	3496.76
423.75	3377.39
423.94	3318.88
424.13	3234.62
424.32	3419.52
424.50	3468.67
424.69	3552.93
424.88	3522.51
425.07	3372.71
425.26	3377.39
425.45	3412.50
425.64	3487.40
425.83	3442.93
426.01	3445.27
426.20	3454.63
426.39	3386.76
426.58	3515.48
426.77	3356.33
426.96	3447.61
427.15	3599.74
427.33	3651.24
427.52	3471.01
427.71	3667.62
427.90	3590.38
428.09	3627.83
428.28	3721.45
428.46	3702.73
428.65	3735.50
428.84	3899.33
429.03	3702.73
429.22	3829.12
429.40	3796.35
429.59	3662.94
429.78	3662.94
429.97	3672.30
430.16	3721.45
430.34	3817.41
430.53	3824.44
430.72	3822.09
430.91	3878.27
431.10	3843.16
431.28	3927.42
431.47	3943.80
431.66	3981.25
431.85	4025.72
432.03	4133.39
432.22	4187.22
432.41	4079.55
432.60	4219.99
432.79	4128.70
432.97	4177.86
433.16	4098.28
433.35	4156.79
433.54	4177.86
433.72	4098.28
433.91	4156.79
434.10	4255.09
434.28	4301.90
434.47	4257.43
434.66	4365.10
434.85	4234.03
435.03	4301.90
435.22	4411.91
435.41	4493.83
435.59	4418.93
435.78	4299.56
435.97	4493.83
436.16	4414.25
436.34	4278.50
436.53	4435.32
436.72	4585.11
436.90	4456.38
437.09	4613.20
437.28	4500.85
437.46	4512.55
437.65	4688.09
437.84	4695.11
438.02	4554.68
438.21	4669.37
438.40	4791.08
438.58	4889.38
438.77	4774.69
438.96	4858.95
439.14	4854.27
439.33	4835.55
439.52	5036.83
439.70	4926.83
439.89	5205.35
440.08	5048.54
440.26	5074.28
440.45	5116.41
440.63	5142.16
440.82	5245.14
441.01	5203.01
441.19	5298.97
441.38	5207.69
441.57	5373.87
441.75	5181.95
441.94	5619.63
442.12	5462.81
442.31	5537.71
442.50	5355.15
442.68	5401.96
442.87	5413.66
443.05	5556.43
443.24	5645.37
443.43	5483.88
443.61	5540.05
443.80	5987.09
443.98	5516.64
444.17	5252.16
444.35	5628.99
444.54	5675.80
444.73	5654.73
444.91	5610.26
445.10	5699.20
445.28	5542.39
445.47	5696.86
445.65	5675.80
445.84	5797.51
446.02	5746.02
446.21	5743.67
446.39	5769.42
446.58	5731.97
446.77	5844.32
446.95	5708.57
447.14	5701.54
447.32	5813.89
447.51	5942.62
447.69	5797.51
447.88	5893.47
448.06	5687.50
448.25	5816.23
448.43	5699.20
448.62	5841.98
448.80	5944.96
448.99	5710.91
449.17	5984.75
449.36	5881.77
449.54	5973.05
449.73	5942.62
449.91	6120.50
450.10	6125.18
450.28	6153.27
450.46	6284.34
450.65	6031.56
450.83	6127.52
451.02	6097.10
451.20	6221.14
451.39	6340.51
451.57	6085.39
451.76	6143.91
451.94	6373.28
452.13	6221.14
452.31	6221.14
452.49	6235.19
452.68	6352.21
452.86	6277.32
453.05	6424.77
453.23	6396.68
453.42	6406.05
453.60	6396.68
453.78	6408.39
453.97	6389.66
454.15	6314.77
454.34	6492.65
454.52	6558.18
454.70	6663.51
454.89	6656.48
455.07	6586.27
455.26	6705.63
455.44	6808.62
455.62	6829.68
455.81	6867.13
455.99	6752.45
456.17	6771.17
456.36	6841.39
456.54	7014.59
456.73	6860.11
456.91	7117.57
457.09	6920.96
457.28	7101.19
457.46	6780.53
457.64	7206.51
457.83	7227.57
458.01	7166.72
458.19	7255.66
458.38	7103.53
458.56	7187.79
458.74	7272.04
458.93	7185.44
459.11	7337.58
459.29	7152.68
459.48	7316.51
459.66	7332.90
459.84	7442.90
460.03	7379.71
460.21	7531.84
460.39	7445.24
460.57	7555.25
460.76	7548.23
460.94	7681.64
461.12	7492.05
461.31	7499.08
461.49	7482.69
461.67	7393.75
461.85	7779.94
462.04	7623.12
462.22	7939.10
462.40	7878.24
462.59	7726.11
462.77	7824.41
462.95	7868.88
463.13	7695.68
463.32	7941.44
463.50	7927.39
463.68	8173.15
463.86	8072.51
464.05	8018.68
464.23	7758.88
464.41	8116.98
464.59	7861.86
464.78	8173.15
464.96	8236.35
465.14	7730.79
465.32	8107.62
465.50	8180.17
465.69	8290.18
465.87	8245.71
466.05	8229.32
466.23	8131.02
466.41	8241.03
466.60	8503.17
466.78	8154.43
466.96	8322.94
467.14	8205.92
467.32	8493.80
467.51	8252.73
467.69	8102.93
467.87	8484.44
468.05	8454.02
468.23	8524.23
468.41	8241.03
468.60	8505.51
468.78	8718.50
468.96	8615.51
469.14	8784.03
469.32	8634.24
469.50	8512.53
469.69	8547.64
469.87	8947.87
470.05	8690.41
470.23	8898.72
470.41	8793.39
470.59	8929.14
470.77	8758.28
470.95	8830.84
471.14	9188.94
471.32	9008.72
471.50	9301.29
471.68	8980.64
471.86	9039.15
472.04	9270.86
472.22	9308.31
472.40	9109.36
472.58	9289.59
472.77	9486.19
472.95	9554.07
473.13	9825.57
473.31	9507.26
473.49	9502.58
473.67	9467.47
473.85	9614.92
474.03	9848.97
474.21	9647.69
474.39	9926.21
474.57	10038.56
474.75	10010.47
474.93	10029.20
475.12	9961.32
475.30	10104.09
475.48	9980.04
475.66	10317.08
475.84	10127.50
476.02	10335.81
476.20	10225.80
476.38	10614.33
476.56	10576.88
476.74	10661.14
476.92	10642.42
477.10	10450.49
477.28	10698.59
477.46	10743.06
477.64	10869.45
477.82	11075.42
478.00	11089.46
478.18	11183.08
478.36	11489.69
478.54	11466.28
478.72	11382.03
478.90	11398.41
479.08	11791.62
479.26	11742.47
479.44	11800.98
479.62	11700.34
479.80	12088.87
479.98	12030.35
480.16	12217.60
480.34	12339.30
480.52	12201.21
480.70	12372.07
480.88	12329.94
481.06	12475.06
481.24	12430.59
481.41	12758.26
481.59	12858.90
481.77	12973.59
481.95	12950.18
482.13	13060.19
482.31	13217.01
482.49	13371.48
482.67	13437.02
482.85	13703.84
483.03	13731.92
483.21	13783.41
483.39	13963.64
483.57	14054.92
483.74	14097.05
483.92	13956.61
484.10	14061.94
484.28	14298.33
484.46	14567.49
484.64	14902.19
484.82	14450.47
485.00	14682.18
485.18	14717.29
485.35	15239.23
485.53	14937.30
485.71	15421.79
485.89	15756.49
486.07	15714.36
486.25	15506.05
486.43	15573.92
486.61	15817.34
486.78	15852.45
486.96	16121.61
487.14	15941.39
487.32	16203.53
487.50	16386.09
487.68	16460.99
487.85	16802.71
488.03	16992.29
488.21	17404.22
488.39	17020.38
488.57	17174.85
488.75	17146.76
488.92	17294.22
489.10	17844.24
489.28	17769.35
489.46	18017.44
489.64	17736.58
489.81	18640.03
489.99	18448.10
490.17	18448.10
490.35	18644.71
490.53	18544.06
490.70	18789.82
490.88	18670.45
491.06	19115.16
491.24	19030.90
491.41	19307.08
491.59	19218.14
491.77	19129.20
491.95	19419.42
492.13	19704.97
492.30	19693.27
492.48	19864.13
492.66	20070.09
492.84	20016.26
493.01	20388.41
493.19	20262.02
493.37	20678.63
493.54	20587.35
493.72	20856.51
493.90	20692.68
494.08	20882.26
494.25	21268.45
494.43	21336.32
494.61	21415.90
494.79	21638.25
494.96	21170.15
495.14	21429.94
495.32	22097.00
495.49	22031.46
495.67	22235.09
495.85	22087.64
496.02	22101.68
496.20	22398.93
496.38	22803.84
496.55	22309.99
496.73	23087.04
496.91	22551.06
497.09	23030.87
497.26	23164.28
497.44	22965.34
497.62	23328.12
497.79	23489.62
497.97	23620.69
498.14	23950.70
498.32	23936.66
498.50	23831.33
498.67	24009.22
498.85	24095.82
499.03	24231.57
499.20	24025.60
499.38	24252.63
499.56	24395.40
499.73	24570.94
499.91	24678.61
500.08	24816.70
500.26	24704.35
500.44	24872.87
500.61	24992.24
500.79	24886.92
500.97	25099.90
501.14	25642.91
501.32	25546.95
501.49	25439.28
501.67	25446.30
501.84	25888.67
502.02	25762.28
502.20	25865.26
502.37	25846.54
502.55	25802.07
502.72	26326.35
502.90	26183.57
503.07	26228.04
503.25	26377.84
503.43	26644.66
503.60	26600.19
503.78	26450.39
503.95	26581.46
504.13	26698.49
504.30	26724.24
504.48	26918.50
504.65	27072.98
504.83	27173.62
505.01	27381.93
505.18	27271.92
505.36	27255.54
505.53	27192.34
505.71	27611.30
505.88	27578.53
506.06	27307.03
506.23	27592.58
506.41	27538.74
506.58	27920.25
506.76	27974.08
506.93	28297.08
507.11	28170.69
507.28	28425.81
507.46	28226.86
507.63	28327.50
507.81	28591.98
507.98	28325.16
508.16	28870.51
508.33	28929.02
508.50	29163.08
508.68	28943.06
508.85	29284.78
509.03	29139.67
509.20	28971.15
509.38	29516.50
509.55	29490.75
509.73	29333.93
509.90	29977.58
510.08	29392.45
510.25	29647.57
510.42	29448.62
510.60	29790.34
510.77	30141.42
510.95	30543.99
511.12	29717.78
511.30	30242.06
511.47	30319.30
511.64	30487.82
511.82	30897.41
511.99	30539.31
512.17	30759.32
512.34	30625.91
512.51	31012.10
512.69	31157.21
512.86	30862.30
513.04	31075.29
513.21	30923.16
513.38	31304.67
513.56	31449.78
513.73	31194.66
513.90	31204.02
514.08	31505.95
514.25	31943.63
514.43	31557.44
514.60	31831.29
514.77	31571.49
514.95	32154.28
515.12	32142.58
515.29	31744.69
515.47	31864.05
515.64	32177.68
515.81	32500.68
515.99	32435.14
516.16	32526.42
516.33	32524.08
516.51	33074.11
516.68	32566.21
516.85	33039.00
517.03	33137.30
517.20	32912.61
517.37	32987.51
517.54	33226.24
517.72	32971.13
517.89	33242.63
518.06	33244.97
518.24	32943.04
518.41	33446.26
518.58	33369.02
518.75	33570.30
518.93	33422.85
519.10	33790.31
519.27	33795.00
519.45	33956.49
519.62	34054.79
519.79	33888.62
519.96	33792.65
520.14	33902.66
520.31	33722.44
520.48	34068.84
520.65	34389.49
520.83	34801.43
521.00	34881.00
521.17	34440.98
521.34	35002.71
521.52	34899.73
521.69	34387.15
521.86	34941.86
522.03	34951.22
522.20	34787.38
522.38	35288.26
522.55	35395.92
522.72	35082.29
522.89	35236.77
523.07	35615.93
523.24	35534.01
523.41	35557.42
523.58	35522.31
523.75	35826.58
523.92	35117.40
524.10	35777.43
524.27	36182.34
524.44	35999.78
524.61	36184.68
524.78	35988.08
524.96	36250.22
525.13	36327.45
525.30	36416.40
525.47	36437.46
525.64	36371.92
525.81	36453.84
525.98	36636.41
526.16	36535.76
526.33	36713.64
526.50	36683.22
526.67	36638.75
526.84	36472.57
527.01	36987.49
527.18	37368.99
527.36	37090.47
527.53	37104.51
527.70	37453.25
527.87	37202.82
528.04	37296.44
528.21	37436.87
528.38	37137.28
528.55	37530.49
528.72	37228.56
528.89	37446.23
529.07	37574.96
529.24	36966.42
529.41	37780.93
529.58	37778.59
529.75	37336.23
529.92	38106.26
530.09	38246.69
530.26	37783.27
530.43	37991.58
530.60	37883.91
530.77	37581.98
530.94	38007.96
531.11	38040.73
531.28	38553.30
531.46	38738.21
531.63	38583.73
531.80	38553.30
531.97	38611.82
532.14	38958.22
532.31	38813.10
532.48	38663.31
532.65	39159.50
532.82	38911.41
532.99	38445.64
533.16	38682.03
533.33	39215.68
533.50	39145.46
533.67	38778.00
533.84	39112.69
534.01	39229.72
534.18	39140.78
534.35	39269.51
534.52	39342.06
534.69	39351.43
534.86	39721.23
535.03	39449.73
535.20	39566.76
535.37	40041.88
535.54	39487.18
535.71	39793.79
535.88	39983.37
536.05	39772.72
536.22	40268.92
536.38	39864.00
536.55	39995.07
536.72	39730.59
536.89	40116.78
537.06	39852.30
537.23	40524.04
537.40	39992.73
537.57	40023.16
537.74	40055.93
537.91	40596.59
538.08	40587.23
538.25	40334.45
538.42	40678.51
538.59	40643.40
538.75	40332.11
538.92	40793.20
539.09	40753.41
539.26	41146.62
539.43	40495.95
539.60	40868.09
539.77	40907.88
539.94	41233.22
540.11	41165.34
540.28	40816.60
540.44	41053.00
540.61	40865.75
540.78	40882.14
540.95	41418.12
541.12	41170.02
541.29	41799.63
541.46	41305.77
541.62	41263.64
541.79	41680.26
541.96	41392.37
542.13	41354.93
542.30	41448.55
542.47	41942.40
542.63	41425.14
542.80	42101.56
542.97	41720.05
543.14	42499.45
543.31	42117.94
543.48	41436.84
543.64	42466.68
543.81	42131.98
543.98	42291.14
544.15	42373.06
544.32	42838.83
544.48	42721.80
544.65	42501.79
544.82	42286.46
544.99	42312.20
545.16	42653.92
545.32	42880.95
545.49	42885.64
545.66	42941.81
545.83	42794.36
546.00	42792.01
546.16	43225.01
546.33	42356.67
546.50	42677.33
546.67	42852.87
546.83	42981.60
547.00	42784.99
547.17	42852.87
547.34	43058.84
547.50	43196.93
547.67	43356.08
547.84	43126.71
548.00	43653.33
548.17	43990.37
548.34	43519.92
548.51	43597.16
548.67	43391.19
548.84	43320.98
549.01	43611.20
549.18	43679.08
549.34	43459.07
549.51	44142.50
549.68	43702.48
549.84	43604.18
550.01	43730.57
550.18	43395.87
550.34	43676.74
550.51	43728.23
550.68	44109.74
550.84	43798.44
551.01	44294.64
551.18	43746.95
551.34	43995.05
551.51	44091.01
551.68	44041.86
551.84	43765.68
552.01	43873.34
552.18	44011.43
552.34	44154.21
552.51	44662.10
552.68	43945.90
552.84	44179.95
553.01	44533.37
553.18	44287.62
553.34	44299.32
553.51	44219.74
553.67	44959.35
553.84	44811.90
554.01	44446.77
554.17	44458.48
554.34	44809.56
554.51	44861.05
554.67	45331.50
554.84	44797.85
555.00	44781.47
555.17	44561.46
555.33	45237.87
555.50	44488.90
555.67	45127.87
555.83	45244.90
556.00	45265.96
556.16	45195.74
556.33	45078.72
556.50	44816.58
556.66	45312.77
556.83	45191.06
556.99	45954.08
557.16	45340.86
557.32	45258.94
557.49	45347.88
557.65	45153.62
557.82	45254.26
557.98	45806.62
558.15	45289.37
558.32	45603.00
558.48	45378.31
558.65	45413.41
558.81	45275.32
558.98	45654.49
559.14	45722.37
559.31	45256.60
559.47	45380.65
559.64	45570.23
559.80	45958.76
559.97	45787.90
560.13	45830.03
560.30	45603.00
560.46	45862.80
560.63	46012.59
560.79	46005.57
560.96	46461.97
561.12	46138.98
561.29	46150.68
561.45	46288.77
561.61	46153.02
561.78	45937.69
561.94	45710.66
562.11	45748.11
562.27	46302.82
562.44	45883.86
562.60	45914.29
562.77	46085.15
562.93	46307.50
563.10	46366.01
563.26	46272.39
563.42	46843.48
563.59	45642.79
563.75	46211.54
563.92	46270.05
564.08	45909.61
564.24	46787.31
564.41	46162.39
564.57	46043.02
564.74	46230.26
564.90	46274.73
565.07	46302.82
565.23	46075.79
565.39	46665.60
565.56	46906.68
565.72	46373.03
565.88	46394.10
566.05	46550.91
566.21	46403.46
566.38	46389.42
566.54	46930.08
566.70	46607.09
566.87	46396.44
567.03	46445.59
567.19	46813.05
567.36	46349.63
567.52	46658.58
567.68	47187.54
567.85	46923.06
568.01	46911.36
568.17	46754.54
568.34	46932.42
568.50	46876.25
568.66	46492.40
568.83	47119.66
568.99	46623.47
569.15	46602.41
569.32	46295.80
569.48	46660.92
569.64	46890.29
569.81	47112.64
569.97	46990.94
570.13	46920.72
570.30	46375.37
570.46	47107.96
570.62	46843.48
570.78	47009.66
570.95	46768.58
571.11	47255.42
571.27	47009.66
571.43	46595.38
571.60	47056.47
571.76	46604.75
571.92	46873.91
572.09	46904.34
572.25	47079.88
572.41	46909.02
572.57	47009.66
572.74	47545.64
572.90	47407.55
573.06	47269.46
573.22	47206.26
573.38	46995.62
573.55	47044.77
573.71	47466.06
573.87	47646.29
574.03	46831.78
574.20	47309.25
574.36	47351.38
574.52	47248.39
574.68	47056.47
574.84	47407.55
575.01	47522.24
575.17	47674.37
575.33	47372.44
575.49	47117.32
575.65	47435.64
575.82	47503.51
575.98	47107.96
576.14	47412.23
576.30	47386.49
576.46	47297.55
576.62	47466.06
576.79	47400.53
576.95	46855.18
577.11	47105.62
577.27	47136.05
577.43	47426.28
577.59	47515.22
577.75	47208.61
577.92	46808.37
578.08	47459.04
578.24	47480.11
578.40	47674.37
578.56	47346.70
578.72	47552.66
578.88	47260.10
579.04	47393.51
579.21	47227.33
579.37	47367.76
579.53	47309.25
579.69	47496.49
579.85	47643.94
580.01	47323.29
580.17	47246.05
580.33	47463.72
580.49	47318.61
580.65	47721.18
580.82	47716.50
580.98	47545.64
581.14	47091.58
581.30	47744.59
581.46	47224.99
581.62	47189.88
581.78	47547.98
581.94	47744.59
582.10	47559.69
582.26	47707.14
582.42	47756.29
582.58	47264.78
582.74	47662.67
582.90	47508.19
583.06	47641.60
583.22	47547.98
583.38	47545.64
583.54	48311.00
583.70	47948.21
583.86	47817.14
584.02	47807.78
584.18	47976.30
584.34	47749.27
584.50	47625.22
584.66	47957.58
584.82	47594.79
584.98	47887.36
585.14	47966.94
585.30	47421.59
585.46	47782.04
585.62	47613.52
585.78	47515.22
585.94	47201.58
586.10	47779.70
586.26	47817.14
586.42	47327.97
586.58	47959.92
586.74	47543.30
586.90	47536.28
587.06	47363.08
587.22	47878.00
587.38	47543.30
587.54	47910.77
587.70	48423.34
587.86	47959.92
588.02	48219.72
588.18	47976.30
588.34	47625.22
588.49	47693.10
588.65	47367.76
588.81	47519.90
588.97	48081.63
589.13	47714.16
589.29	47901.40
589.45	47931.83
589.61	48107.37
589.77	47594.79
589.93	48275.89
