SpectraSuite Data File
++++++++++++++++++++++++++++++++++++
Date: Fri Oct 25 11:25:00 EDT 2013
User: price-jones
Dark Spectrum Present: No
Reference Spectrum Present: No
Number of Sampled Component Spectra: 1
Spectrometers: USB2+H05261
Integration Time (usec): 100000 (USB2+H05261)
Spectra Averaged: 1 (USB2+H05261)
Boxcar Smoothing: 0 (USB2+H05261)
Correct for Electrical Dark: No (USB2+H05261)
Strobe/Lamp Enabled: No (USB2+H05261)
Correct for Detector Non-linearity: No (USB2+H05261)
Correct for Stray Light: No (USB2+H05261)
Number of Pixels in Processed Spectrum: 2048
>>>>>Begin Processed Spectral Data<<<<<
365.73	159.16
365.92	159.16
366.12	159.16
366.32	182.56
366.52	177.88
366.72	84.26
366.91	159.16
367.11	138.09
367.31	161.50
367.51	100.64
367.70	152.13
367.90	180.22
368.10	124.05
368.30	149.79
368.49	128.73
368.69	170.86
368.89	189.58
369.09	117.03
369.28	201.29
369.48	107.66
369.68	152.13
369.87	198.95
370.07	177.88
370.27	248.10
370.47	285.55
370.66	636.63
370.86	697.48
371.06	641.31
371.25	704.50
371.45	638.97
371.65	660.03
371.84	692.80
372.04	641.31
372.24	758.33
372.44	730.25
372.63	681.10
372.83	716.20
373.03	711.52
373.22	819.19
373.42	683.44
373.62	744.29
373.81	732.59
374.01	791.10
374.21	753.65
374.40	753.65
374.60	837.91
374.79	819.19
374.99	854.30
375.19	828.55
375.38	795.78
375.58	828.55
375.78	851.96
375.97	851.96
376.17	943.24
376.37	933.87
376.56	861.32
376.76	908.13
376.95	748.97
377.15	880.04
377.35	947.92
377.54	905.79
377.74	798.12
377.93	922.17
378.13	978.34
378.33	863.66
378.52	994.73
378.72	994.73
378.91	936.21
379.11	903.45
379.31	983.02
379.50	997.07
379.70	1006.43
379.89	959.62
380.09	924.51
380.28	983.02
380.48	1055.58
380.68	1060.26
380.87	950.26
381.07	1036.86
381.26	1076.65
381.46	1015.79
381.65	980.68
381.85	1043.88
382.04	1046.22
382.24	1053.24
382.43	1053.24
382.63	1057.92
382.83	1015.79
383.02	1097.71
383.22	994.73
383.41	1146.86
383.61	1053.24
383.80	1048.56
384.00	1109.41
384.19	1102.39
384.39	1132.82
384.58	1104.73
384.78	1167.93
384.97	1142.18
385.17	1109.41
385.36	1207.72
385.56	1149.20
385.75	1172.61
385.95	1263.89
386.14	1158.57
386.34	1191.33
386.53	1050.90
386.72	1156.22
386.92	1310.70
387.11	1224.10
387.31	1301.34
387.50	1263.89
387.70	1263.89
387.89	1186.65
388.09	1233.46
388.28	1320.06
388.48	1217.08
388.67	1294.32
388.86	1263.89
389.06	1294.32
389.25	1338.79
389.45	1329.42
389.64	1448.79
389.84	1369.21
390.03	1476.88
390.22	1437.09
390.42	1392.62
390.61	1352.83
390.81	1348.15
391.00	1329.42
391.19	1430.07
391.39	1486.24
391.58	1460.49
391.78	1479.22
391.97	1444.11
392.16	1444.11
392.36	1561.14
392.55	1542.41
392.75	1537.73
392.94	1565.82
393.13	1586.88
393.33	1472.20
393.52	1591.56
393.71	1572.84
393.91	1519.01
394.10	1572.84
394.29	1570.50
394.49	1612.63
394.68	1671.14
394.88	1596.25
395.07	1654.76
395.26	1647.74
395.46	1668.80
395.65	1617.31
395.84	1734.34
396.04	1741.36
396.23	1795.19
396.42	1722.63
396.62	1783.49
396.81	1837.32
397.00	1830.30
397.19	1799.87
397.39	1783.49
397.58	1832.64
397.77	1809.23
397.97	1865.41
398.16	1788.17
398.35	1891.15
398.55	1774.13
398.74	1792.85
398.93	1975.41
399.12	1870.09
399.32	1750.72
399.51	1895.83
399.70	2054.99
399.90	2076.06
400.09	2129.89
400.28	2094.78
400.47	1984.77
400.67	2036.27
400.86	2118.18
401.05	2118.18
401.24	2029.24
401.44	2165.00
401.63	2083.08
401.82	2251.60
402.01	2080.74
402.21	2155.63
402.40	2085.42
402.59	2326.49
402.78	2169.68
402.97	2237.55
403.17	2289.04
403.36	2284.36
403.55	2244.57
403.74	2270.32
403.93	2270.32
404.13	2307.77
404.32	2335.85
404.51	2401.39
404.70	2382.67
404.89	2347.56
405.09	2441.18
405.28	2396.71
405.47	2424.80
405.66	2686.94
405.85	2441.18
406.05	2537.14
406.24	2401.39
406.43	2581.61
406.62	2597.99
406.81	2705.66
407.00	2661.19
407.20	2511.39
407.39	2745.45
407.58	2464.58
407.77	2867.16
407.96	2708.00
408.15	2738.43
408.34	2710.34
408.54	2743.11
408.73	2712.68
408.92	2703.32
409.11	2923.33
409.30	2808.64
409.49	3009.93
409.68	2944.39
409.87	2874.18
410.07	3080.14
410.26	3124.62
410.45	2944.39
410.64	3028.65
410.83	3045.04
411.02	3094.19
411.21	3080.14
411.40	3033.33
411.59	3314.20
411.78	3169.09
411.98	3267.39
412.17	3229.94
412.36	3323.56
412.55	3372.71
412.74	3410.16
412.93	3353.99
413.12	3269.73
413.31	3541.23
413.50	3534.21
413.69	3461.65
413.88	3513.14
414.07	3445.27
414.26	3655.92
414.45	3545.91
414.64	3482.72
414.83	3566.98
415.02	3763.58
415.22	3801.03
415.41	3758.90
415.60	3932.10
415.79	3857.20
415.98	3904.01
416.17	3974.23
416.36	3941.46
416.55	3962.53
416.74	4173.18
416.93	4138.07
417.12	4142.75
417.31	4138.07
417.50	4126.36
417.69	4215.30
417.88	4278.50
418.07	4191.90
418.26	4353.40
418.45	4322.97
418.64	4463.40
418.83	4456.38
419.02	4404.89
419.21	4435.32
419.39	4512.55
419.58	4442.34
419.77	4526.60
419.96	4512.55
420.15	4617.88
420.34	4657.67
420.53	4542.98
420.72	4779.37
420.91	4744.27
421.10	4767.67
421.29	4809.80
421.48	4521.92
421.67	4746.61
421.86	4819.16
422.05	4676.39
422.24	4816.82
422.43	4870.65
422.61	5020.45
422.80	4940.87
422.99	4985.34
423.18	5069.60
423.37	5053.22
423.56	4961.94
423.75	5041.51
423.94	4903.42
424.13	4599.15
424.32	4725.54
424.50	5041.51
424.69	4950.23
424.88	5053.22
425.07	4908.10
425.26	4966.62
425.45	4823.84
425.64	4882.36
425.83	4894.06
426.01	5055.56
426.20	5165.56
426.39	5137.48
426.58	5128.11
426.77	5064.92
426.96	5111.73
427.15	5163.22
427.33	5289.61
427.52	5149.18
427.71	5263.86
427.90	5172.58
428.09	5317.70
428.28	5266.21
428.46	5228.76
428.65	5268.55
428.84	5252.16
429.03	5472.17
429.22	5252.16
429.40	5514.30
429.59	5469.83
429.78	5240.46
429.97	5247.48
430.16	5479.19
430.34	5621.97
430.53	5385.57
430.72	5647.71
430.91	5607.92
431.10	5528.35
431.28	5717.93
431.47	5692.18
431.66	5851.34
431.85	5926.24
432.03	5879.43
432.22	5743.67
432.41	5846.66
432.60	5870.06
432.79	5926.24
432.97	5949.64
433.16	6108.80
433.35	6029.22
433.54	5919.21
433.72	6111.14
433.91	6157.95
434.10	6054.97
434.28	6106.46
434.47	6157.95
434.66	6190.72
434.85	6216.46
435.03	6249.23
435.22	6347.53
435.41	6487.96
435.59	6520.73
435.78	6490.31
435.97	6459.88
436.16	6410.73
436.34	6415.41
436.53	6462.22
436.72	6546.48
436.90	6459.88
437.09	6579.25
437.28	6576.91
437.46	6623.72
437.65	6717.34
437.84	6579.25
438.02	6707.98
438.21	6656.48
438.40	6544.14
438.58	6906.92
438.77	7007.56
438.96	6956.07
439.14	6963.09
439.33	7222.89
439.52	7152.68
439.70	7082.46
439.89	7307.15
440.08	7454.61
440.26	7396.09
440.45	7342.26
440.63	7204.17
440.82	7634.83
441.01	7581.00
441.19	7824.41
441.38	7782.28
441.57	7655.89
441.75	7964.84
441.94	7889.95
442.12	8067.83
442.31	7758.88
442.50	8056.12
442.68	8006.97
442.87	8072.51
443.05	8135.70
443.24	8063.15
443.43	8077.19
443.61	8203.58
443.80	8423.59
443.98	7943.78
444.17	7693.34
444.35	8126.34
444.54	8191.88
444.73	8147.40
444.91	8278.47
445.10	8379.12
445.28	8126.34
445.47	8421.25
445.65	8414.23
445.84	8325.29
446.02	8402.52
446.21	8093.57
446.39	8444.65
446.58	8395.50
446.77	8479.76
446.95	8121.66
447.14	8081.87
447.32	8713.81
447.51	8461.04
447.69	8498.49
447.88	8545.30
448.06	8510.19
448.25	8507.85
448.43	8709.13
448.62	8592.11
448.80	8334.65
448.99	8659.98
449.17	8514.87
449.36	8674.03
449.54	8922.12
449.73	8840.20
449.91	8915.10
450.10	8889.35
450.28	9088.30
450.46	9029.79
450.65	8954.89
450.83	9123.41
451.02	9088.30
451.20	9214.69
451.39	9116.39
451.57	8987.66
451.76	9111.71
451.94	9217.03
452.13	9193.62
452.31	9085.96
452.49	9249.80
452.68	9247.46
452.86	9387.89
453.05	9495.55
453.23	9423.00
453.42	9263.84
453.60	9287.25
453.78	9336.40
453.97	9446.40
454.15	9430.02
454.34	9392.57
454.52	9659.39
454.70	9458.10
454.89	9760.03
455.07	9703.86
455.26	9727.27
455.44	9645.35
455.62	9907.49
455.81	9706.20
455.99	10036.22
456.17	9961.32
456.36	9804.50
456.54	10120.48
456.73	10078.35
456.91	10441.13
457.09	10174.31
457.28	10530.07
457.46	10406.02
457.64	10438.79
457.83	10399.00
458.01	10160.27
458.19	10534.75
458.38	10633.05
458.56	10611.99
458.74	10565.18
458.93	10724.33
459.11	10642.42
459.29	10621.35
459.48	10820.30
459.66	10443.47
459.84	10876.47
460.03	10848.38
460.21	11023.92
460.39	10771.15
460.57	10998.18
460.76	11126.91
460.94	11019.24
461.12	11066.05
461.31	11028.60
461.49	11115.20
461.67	10932.64
461.85	11356.28
462.04	11225.21
462.22	11712.04
462.40	11681.61
462.59	11391.39
462.77	11372.66
462.95	11463.94
463.13	11625.44
463.32	11592.67
463.50	11686.29
463.68	11836.09
463.86	11852.47
464.05	11543.52
464.23	11564.59
464.41	11826.73
464.59	11754.17
464.78	12159.08
464.96	11730.76
465.14	11779.92
465.32	11960.14
465.50	12053.76
465.69	12084.19
465.87	12147.38
466.05	12166.10
466.23	12245.68
466.41	12255.04
466.60	12657.62
466.78	12044.40
466.96	12280.79
467.14	12074.82
467.32	12084.19
467.51	12358.03
467.69	12182.49
467.87	12594.42
468.05	12706.77
468.23	12383.77
468.41	12351.01
468.60	12578.04
468.78	12601.44
468.96	12435.27
469.14	12606.13
469.32	12917.42
469.50	12603.78
469.69	12992.31
469.87	13029.76
470.05	12985.29
470.23	13097.64
470.41	12994.65
470.59	13231.05
470.77	13156.15
470.95	13226.37
471.14	13380.84
471.32	13205.30
471.50	13420.63
471.68	13654.69
471.86	13631.28
472.04	13610.22
472.22	14225.78
472.40	13582.13
472.58	13806.82
472.77	13921.51
472.95	14200.03
473.13	14724.31
473.31	14115.77
473.49	14064.28
473.67	13975.34
473.85	14083.00
474.03	14518.34
474.21	14494.94
474.39	14717.29
474.57	14553.45
474.75	14963.04
474.93	14902.19
475.12	14721.97
475.30	15152.63
475.48	14888.15
475.66	15384.34
475.84	15124.54
476.02	15276.68
476.20	15068.37
476.38	15431.15
476.56	15976.50
476.74	16081.82
476.92	15782.23
477.10	15658.18
477.28	15967.13
477.46	16039.69
477.64	16285.45
477.82	16341.62
478.00	17184.21
478.18	16669.30
478.36	16940.80
478.54	17097.61
478.72	17149.11
478.90	17198.26
479.08	17275.49
479.26	17296.56
479.44	17678.07
479.62	17654.66
479.80	17804.46
479.98	18207.03
480.16	18452.78
480.34	18066.60
480.52	18892.80
480.70	18640.03
480.88	18403.63
481.06	18494.91
481.24	18803.86
481.41	19145.58
481.59	19290.70
481.77	19360.91
481.95	19360.91
482.13	19845.40
482.31	19648.80
482.49	19953.07
482.67	20112.22
482.85	20264.36
483.03	20287.76
483.21	20575.65
483.39	20678.63
483.57	21003.97
483.74	21144.40
483.92	21472.07
484.10	21174.83
484.28	21455.69
484.46	21750.60
484.64	21963.59
484.82	21692.08
485.00	22148.49
485.18	22384.88
485.35	22576.81
485.53	22810.86
485.71	22897.46
485.89	23419.40
486.07	23215.77
486.25	23136.20
486.43	23321.10
486.61	23627.71
486.78	23892.19
486.96	23927.30
487.14	24250.29
487.32	24580.31
487.50	24919.68
487.68	24694.99
487.85	25132.67
488.03	25633.55
488.21	25715.47
488.39	25635.89
488.57	26052.50
488.75	25809.09
488.92	26361.45
489.10	26986.38
489.28	26677.43
489.46	26759.34
489.64	26977.01
489.81	27550.45
489.99	27744.71
490.17	27674.49
490.35	27983.44
490.53	28224.52
490.70	28357.93
490.88	28268.99
491.06	28840.08
491.24	28493.68
491.41	29057.75
491.59	29071.79
491.77	29273.08
491.95	29287.12
492.13	29481.39
492.30	29883.96
492.48	30183.55
492.66	30340.36
492.84	30157.80
493.01	30747.62
493.19	30721.87
493.37	30801.45
493.54	30852.94
493.72	31374.88
493.90	31304.67
494.08	31569.15
494.25	31828.95
494.43	31842.99
494.61	32355.57
494.79	32430.46
494.96	32226.84
495.14	32327.48
495.32	33235.61
495.49	33132.62
495.67	33010.92
495.85	33090.49
496.02	33823.08
496.20	33872.23
496.38	33855.85
496.55	33986.92
496.73	34740.57
496.91	34511.20
497.09	34831.85
497.26	34972.28
497.44	34520.56
497.62	35255.49
497.79	35826.58
497.97	35529.33
498.14	35747.00
498.32	36065.31
498.50	36299.37
498.67	36304.05
498.85	36378.95
499.03	36486.61
499.20	36928.97
499.38	36863.44
499.56	36795.56
499.73	37104.51
499.91	36290.01
500.08	37535.17
500.26	37418.14
500.44	37600.71
500.61	37720.07
500.79	37453.25
500.97	38101.58
501.14	38272.44
501.32	38433.94
501.49	38426.92
501.67	38469.04
501.84	38611.82
502.02	38443.30
502.20	38906.73
502.37	39100.99
502.55	39246.10
502.72	39328.02
502.90	39173.55
503.07	39098.65
503.25	39346.75
503.43	39386.54
503.60	39910.82
503.78	40247.85
503.95	40512.33
504.13	40142.53
504.30	40423.39
504.48	40442.12
504.65	40521.69
504.83	40636.38
505.01	40989.80
505.18	41017.89
505.36	41832.39
505.53	40825.96
505.71	41137.26
505.88	41535.15
506.06	41280.03
506.23	41198.11
506.41	42043.04
506.58	41956.44
506.76	41675.58
506.93	42328.59
507.11	42167.09
507.28	42052.41
507.46	42494.77
507.63	42380.08
507.81	42937.13
507.98	42749.88
508.16	42972.24
508.33	43522.26
508.50	43526.94
508.68	43295.23
508.85	43650.99
509.03	43421.62
509.20	43934.20
509.38	44285.28
509.55	44285.28
509.73	44322.72
509.90	44493.58
510.08	44414.01
510.25	44304.00
510.42	44509.97
510.60	44762.75
510.77	44687.85
510.95	45216.81
511.12	44987.44
511.30	44842.32
511.47	45382.99
511.64	45347.88
511.82	45972.80
511.99	45216.81
512.17	45883.86
512.34	45982.16
512.51	46445.59
512.69	46309.84
512.86	46085.15
513.04	46506.44
513.21	46272.39
513.38	46726.46
513.56	46745.18
513.73	46862.21
513.90	46649.22
514.08	46557.94
514.25	47159.45
514.43	47304.57
514.60	47255.42
514.77	47150.09
514.95	47468.40
515.12	47370.10
515.29	47611.18
515.47	47896.72
515.64	48163.54
515.81	47819.49
515.99	47793.74
516.16	48018.43
516.33	48130.78
516.51	48626.97
516.68	48123.75
516.85	48397.60
517.03	48573.14
517.20	48872.73
517.37	48423.34
517.54	48748.68
517.72	48521.65
517.89	48790.81
518.06	49038.90
518.24	49350.20
518.41	49345.51
518.58	49202.74
518.75	49226.15
518.93	49249.55
519.10	49333.81
519.27	49507.01
519.45	49734.04
519.62	50071.08
519.79	49869.79
519.96	49757.45
520.14	50384.71
520.31	49801.92
520.48	50258.32
520.65	50178.75
520.83	50223.22
521.00	50511.10
521.17	50270.03
521.34	50487.70
521.52	50735.79
521.69	50597.70
521.86	50639.83
522.03	51030.70
522.20	51344.33
522.38	51393.48
522.55	51241.35
522.72	51360.72
522.89	50885.59
523.07	51517.53
523.24	51105.60
523.41	51746.90
523.58	51316.25
523.75	51725.84
523.92	51770.31
524.10	51742.22
524.27	52009.04
524.44	51660.30
524.61	51805.42
524.78	51936.49
524.96	52144.80
525.13	52093.30
525.30	52109.69
525.47	52556.73
525.64	52002.02
525.81	52470.13
525.98	52212.67
526.16	52540.35
526.33	52837.59
526.50	52727.59
526.67	52743.97
526.84	52865.68
527.01	52519.28
527.18	52832.91
527.36	52706.52
527.53	52877.38
527.70	53497.62
527.87	53064.63
528.04	52853.98
528.21	53357.19
528.38	53441.45
528.55	53497.62
528.72	53380.60
528.89	53265.91
529.07	52956.96
529.24	53062.29
529.41	53607.63
529.58	53785.51
529.75	53359.53
529.92	53703.59
530.09	53710.61
530.26	53813.60
530.43	53406.34
530.60	53279.96
530.77	53904.88
530.94	53844.02
531.11	53738.70
531.28	54106.16
531.46	54014.88
531.63	54096.80
531.80	54223.19
531.97	54513.42
532.14	54298.09
532.31	54494.69
532.48	54167.02
532.65	54513.42
532.82	54677.25
532.99	54506.40
533.16	54281.70
533.33	54600.02
533.50	54630.44
533.67	54581.29
533.84	54728.75
534.01	54546.18
534.18	54499.37
534.35	54958.12
534.52	55025.99
534.69	55222.60
534.86	55152.38
535.03	54714.70
535.20	54829.39
535.37	55065.78
535.54	55224.94
535.71	55079.83
535.88	55311.54
536.05	55311.54
536.22	55512.83
536.38	55384.10
536.55	55466.02
536.72	55606.45
536.89	55365.37
537.06	55622.83
537.23	55524.53
537.40	55468.36
537.57	55477.72
537.74	55632.19
537.91	55751.56
538.08	55723.47
538.25	55428.57
538.42	56018.38
538.59	55924.76
538.75	55643.90
538.92	55992.64
539.09	55845.18
539.26	55973.91
539.43	55840.50
539.60	56034.77
539.77	56203.28
539.94	56278.18
540.11	56292.22
540.28	56264.14
540.44	56275.84
540.61	56486.49
540.78	56294.56
540.95	56292.22
541.12	56313.29
541.29	56472.45
541.46	56556.70
541.62	56512.23
541.79	56767.35
541.96	55908.38
542.13	56617.56
542.30	56170.52
542.47	56741.61
542.63	56809.48
542.80	56828.21
542.97	56821.19
543.14	57073.96
543.31	57125.46
543.48	57186.31
543.64	57490.58
543.81	57378.23
543.98	57137.16
544.15	57078.64
544.32	57174.61
544.48	57446.11
544.65	57144.18
544.82	57198.01
544.99	57272.91
545.16	57212.06
545.32	57331.42
545.49	57422.70
545.66	57485.90
545.83	57584.20
546.00	57719.95
546.16	57602.92
546.33	57668.46
546.50	57408.66
546.67	57818.25
546.83	57579.52
547.00	57560.79
547.17	57647.39
547.34	57785.49
547.50	57902.51
547.67	57844.00
547.84	57827.62
548.00	58040.60
548.17	58159.97
548.34	57972.73
548.51	57954.00
548.67	58113.16
548.84	57984.43
549.01	57872.09
549.18	57977.41
549.34	58258.27
549.51	58241.89
549.68	58288.70
549.84	58216.14
550.01	58354.24
550.18	58225.51
550.34	58422.11
550.51	58478.28
550.68	58571.91
550.84	58148.27
551.01	58450.20
551.18	58492.33
551.34	58731.06
551.51	58597.65
551.68	58459.56
551.84	58440.84
552.01	58354.24
552.18	58508.71
552.34	58506.37
552.51	58604.67
552.68	58599.99
552.84	58525.10
553.01	58686.59
553.18	58738.08
553.34	58801.28
553.51	58733.40
553.67	58745.11
553.84	58618.72
554.01	58719.36
554.17	58808.30
554.34	58969.80
554.51	59007.25
554.67	58810.64
554.84	58805.96
555.00	58672.55
555.17	58930.01
555.33	58791.92
555.50	58864.47
555.67	58749.79
555.83	58794.26
556.00	59135.98
556.16	59164.06
556.33	59255.34
556.50	58962.78
556.66	59274.07
556.83	59058.74
556.99	59374.71
557.16	59274.07
557.32	59416.84
557.49	59611.10
557.65	59299.81
557.82	59203.85
557.98	59416.84
558.15	59384.07
558.32	59313.86
558.48	59318.54
558.65	59498.76
558.81	59203.85
558.98	59515.14
559.14	59533.87
559.31	59533.87
559.47	59475.35
559.64	59348.96
559.80	59618.13
559.97	59508.12
560.13	59451.95
560.30	59664.94
560.46	59674.30
560.63	59774.94
560.79	59639.19
560.96	59622.81
561.12	59643.87
561.29	59632.17
561.45	59716.43
561.61	59711.75
561.78	59674.30
561.94	59543.23
562.11	59746.86
562.27	59777.28
562.44	59758.56
562.60	60051.12
562.77	59966.87
562.93	59753.88
563.10	59880.27
563.26	59667.28
563.42	59913.03
563.59	59964.52
563.75	59854.52
563.92	59870.90
564.08	59826.43
564.24	59959.84
564.41	60186.88
564.57	59924.74
564.74	59896.65
564.90	59938.78
565.07	60107.30
565.23	59952.82
565.39	60058.15
565.56	59891.97
565.72	60144.75
565.88	60027.72
566.05	59906.01
566.21	60126.02
566.38	60158.79
566.54	60238.37
566.70	60226.66
566.87	60177.51
567.03	59992.61
567.19	60257.09
567.36	60114.32
567.52	60226.66
567.68	60362.42
567.85	60200.92
568.01	60072.19
568.17	60142.41
568.34	60334.33
568.50	60200.92
568.66	60004.31
568.83	60388.16
568.99	60226.66
569.15	60360.08
569.32	60399.86
569.48	60317.95
569.64	60390.50
569.81	60306.24
569.97	60287.52
570.13	60463.06
570.30	60111.98
570.46	60552.00
570.62	60233.69
570.78	60240.71
570.95	60395.18
571.11	60615.19
571.27	60320.29
571.43	60371.78
571.60	60397.52
571.76	60491.15
571.92	60596.47
572.09	60313.26
572.25	60378.80
572.41	60498.17
572.57	60537.96
572.74	60624.56
572.90	60533.28
573.06	60666.69
573.22	60481.78
573.38	60587.11
573.55	60493.49
573.71	60619.88
573.87	60584.77
574.03	60245.39
574.20	60699.45
574.36	60521.57
574.52	60626.90
574.68	60566.04
574.84	60706.47
575.01	60762.65
575.17	60650.30
575.33	60662.00
575.49	60512.21
575.65	60739.24
575.82	60619.88
575.98	60626.90
576.14	60949.89
576.30	60601.15
576.46	60676.05
576.62	60612.85
576.79	60552.00
576.95	60626.90
577.11	60732.22
577.27	60699.45
577.43	60633.92
577.59	60692.43
577.75	60708.82
577.92	60589.45
578.08	60706.47
578.24	60652.64
578.40	60882.02
578.56	60886.70
578.72	60697.11
578.88	60884.36
579.04	60807.12
579.21	60725.20
579.37	60858.61
579.53	60926.49
579.69	60624.56
579.85	60853.93
580.01	60891.38
580.17	60502.85
580.33	60734.56
580.49	60809.46
580.65	60701.79
580.82	60654.98
580.98	60477.10
581.14	60790.73
581.30	61029.47
581.46	60776.69
581.62	60732.22
581.78	60673.71
581.94	60790.73
582.10	60865.63
582.26	60776.69
582.42	60935.85
582.58	60809.46
582.74	60718.18
582.90	60900.74
583.06	60954.57
583.22	60886.70
583.38	60900.74
583.54	60666.69
583.70	60729.88
583.86	60893.72
584.02	60846.91
584.18	60816.48
584.34	60900.74
584.50	60821.16
584.66	60617.53
584.82	60736.90
584.98	61144.16
585.14	61059.90
585.30	60933.51
585.46	60715.84
585.62	60926.49
585.78	61073.94
585.94	60694.77
586.10	60690.09
586.26	60811.80
586.42	60994.36
586.58	60973.30
586.74	61043.51
586.90	60945.21
587.06	60872.65
587.22	61066.92
587.38	60889.04
587.54	61141.81
587.70	61223.73
587.86	60933.51
588.02	60882.02
588.18	61193.31
588.34	60851.59
588.49	60872.65
