SpectraSuite Data File
++++++++++++++++++++++++++++++++++++
Date: Fri Oct 25 11:34:04 EDT 2013
User: price-jones
Dark Spectrum Present: No
Reference Spectrum Present: No
Number of Sampled Component Spectra: 1
Spectrometers: USB2+H05261
Integration Time (usec): 100000 (USB2+H05261)
Spectra Averaged: 1 (USB2+H05261)
Boxcar Smoothing: 0 (USB2+H05261)
Correct for Electrical Dark: No (USB2+H05261)
Strobe/Lamp Enabled: No (USB2+H05261)
Correct for Detector Non-linearity: No (USB2+H05261)
Correct for Stray Light: No (USB2+H05261)
Number of Pixels in Processed Spectrum: 2048
>>>>>Begin Processed Spectral Data<<<<<
365.73	287.89
365.92	287.89
366.12	287.89
366.32	208.31
366.52	142.77
366.72	170.86
366.91	177.88
367.11	198.95
367.31	161.50
367.51	191.92
367.70	128.73
367.90	189.58
368.10	229.37
368.30	149.79
368.49	173.20
368.69	243.42
368.89	152.13
369.09	156.82
369.28	189.58
369.48	210.65
369.68	175.54
369.87	241.08
370.07	229.37
370.27	294.91
370.47	322.99
370.66	461.09
370.86	517.26
371.06	533.64
371.25	594.50
371.45	543.00
371.65	552.37
371.84	554.71
372.04	601.52
372.24	578.11
372.44	496.19
372.63	627.26
372.83	620.24
373.03	629.60
373.22	599.18
373.42	578.11
373.62	580.45
373.81	620.24
374.01	636.63
374.21	617.90
374.40	587.47
374.60	671.73
374.79	620.24
374.99	624.92
375.19	695.14
375.38	655.35
375.58	631.94
375.78	777.06
375.97	678.76
376.17	660.03
376.37	711.52
376.56	704.50
376.76	657.69
376.95	660.03
377.15	645.99
377.35	734.93
377.54	648.33
377.74	709.18
377.93	660.03
378.13	664.71
378.33	767.70
378.52	664.71
378.72	683.44
378.91	627.26
379.11	734.93
379.31	748.97
379.50	763.01
379.70	751.31
379.89	734.93
380.09	655.35
380.28	718.54
380.48	795.78
380.68	748.97
380.87	748.97
381.07	723.23
381.26	812.17
381.46	791.10
381.65	723.23
381.85	711.52
382.04	671.73
382.24	699.82
382.43	814.51
382.63	835.57
382.83	758.33
383.02	772.38
383.22	746.63
383.41	774.72
383.61	837.91
383.80	849.61
384.00	770.04
384.19	758.33
384.39	826.21
384.58	880.04
384.78	837.91
384.97	870.68
385.17	868.34
385.36	875.36
385.56	870.68
385.75	779.40
385.95	858.98
386.14	858.98
386.34	821.53
386.53	835.57
386.72	816.85
386.92	856.64
387.11	851.96
387.31	905.79
387.50	884.72
387.70	851.96
387.89	915.15
388.09	833.23
388.28	922.17
388.48	809.83
388.67	875.36
388.86	842.59
389.06	938.55
389.25	945.58
389.45	931.53
389.64	954.94
389.84	891.74
390.03	947.92
390.22	957.28
390.42	945.58
390.61	1053.24
390.81	952.60
391.00	947.92
391.19	936.21
391.39	985.37
391.58	973.66
391.78	1086.01
391.97	1013.45
392.16	985.37
392.36	997.07
392.55	959.62
392.75	987.71
392.94	1043.88
393.13	961.96
393.33	999.41
393.52	1048.56
393.71	1006.43
393.91	1057.92
394.10	1109.41
394.29	1135.16
394.49	1090.69
394.68	1128.14
394.88	1205.38
395.07	1142.18
395.26	1212.40
395.46	1107.07
395.65	1116.44
395.84	1172.61
396.04	1193.67
396.23	1137.50
396.42	1170.27
396.62	1170.27
396.81	1261.55
397.00	1200.69
397.19	1167.93
397.39	1217.08
397.58	1174.95
397.77	1261.55
397.97	1167.93
398.16	1228.78
398.35	1203.04
398.55	1193.67
398.74	1219.42
398.93	1327.08
399.12	1270.91
399.32	1268.57
399.51	1259.21
399.70	1341.13
399.90	1376.24
400.09	1432.41
400.28	1420.71
400.47	1355.17
400.67	1448.79
400.86	1416.02
401.05	1289.64
401.24	1343.47
401.44	1376.24
401.63	1401.98
401.82	1397.30
402.01	1467.52
402.21	1427.73
402.40	1437.09
402.59	1427.73
402.78	1579.86
402.97	1542.41
403.17	1607.95
403.36	1446.45
403.55	1488.58
403.74	1551.78
403.93	1584.54
404.13	1645.40
404.32	1577.52
404.51	1579.86
404.70	1657.10
404.89	1540.07
405.09	1640.72
405.28	1722.63
405.47	1657.10
405.66	1671.14
405.85	1659.44
406.05	1687.53
406.24	1722.63
406.43	1767.10
406.62	1783.49
406.81	1802.21
407.00	1830.30
407.20	1736.68
407.39	1870.09
407.58	1851.36
407.77	1874.77
407.96	1785.83
408.15	1809.23
408.34	1886.47
408.54	1926.26
408.73	1912.22
408.92	1881.79
409.11	1902.86
409.30	1928.60
409.49	1980.09
409.68	1982.43
409.87	1842.00
410.07	1968.39
410.26	2050.31
410.45	1980.09
410.64	2176.70
410.83	2094.78
411.02	2043.29
411.21	2083.08
411.40	2132.23
411.59	2232.87
411.78	2167.34
411.98	2132.23
412.17	2228.19
412.36	2132.23
412.55	2242.23
412.74	2260.96
412.93	2354.58
413.12	2307.77
413.31	2471.61
413.50	2401.39
413.69	2443.52
413.88	2370.96
414.07	2427.14
414.26	2420.11
414.45	2459.90
414.64	2462.24
414.83	2574.59
415.02	2567.57
415.22	2628.42
415.41	2607.36
415.60	2574.59
415.79	2651.83
415.98	2555.86
416.17	2768.85
416.36	2708.00
416.55	2698.64
416.74	2808.64
416.93	2693.96
417.12	2864.82
417.31	2771.19
417.50	2822.69
417.69	2862.48
417.88	2759.49
418.07	2890.56
418.26	2899.92
418.45	2892.90
418.64	2937.37
418.83	3002.91
419.02	3002.91
419.21	3155.04
419.39	3047.38
419.58	3038.02
419.77	3023.97
419.96	3197.17
420.15	3119.93
420.34	3187.81
420.53	3096.53
420.72	3009.93
420.91	3183.13
421.10	3213.56
421.29	3286.11
421.48	3227.60
421.67	3262.71
421.86	3190.15
422.05	3293.13
422.24	3318.88
422.43	3229.94
422.61	3272.07
422.80	3323.56
422.99	3463.99
423.18	3365.69
423.37	3480.38
423.56	3487.40
423.75	3431.23
423.94	3272.07
424.13	3089.51
424.32	3150.36
424.50	3384.41
424.69	3407.82
424.88	3417.18
425.07	3304.84
425.26	3368.03
425.45	3520.17
425.64	3396.12
425.83	3302.50
426.01	3431.23
426.20	3342.28
426.39	3368.03
426.58	3410.16
426.77	3412.50
426.96	3487.40
427.15	3559.95
427.33	3452.29
427.52	3524.85
427.71	3625.49
427.90	3557.61
428.09	3602.08
428.28	3651.24
428.46	3627.83
428.65	3534.21
428.84	3698.05
429.03	3751.88
429.22	3522.51
429.40	3637.19
429.59	3655.92
429.78	3674.64
429.97	3496.76
430.16	3702.73
430.34	3730.81
430.53	3681.66
430.72	3899.33
430.91	3875.93
431.10	3836.14
431.28	3906.35
431.47	3911.04
431.66	3936.78
431.85	3892.31
432.03	4002.32
432.22	3946.14
432.41	4016.36
432.60	3941.46
432.79	3983.59
432.97	4056.15
433.16	3992.95
433.35	3983.59
433.54	4081.89
433.72	4142.75
433.91	4112.32
434.10	4156.79
434.28	4119.34
434.47	4159.13
434.66	4212.96
434.85	4315.95
435.03	4388.50
435.22	4262.12
435.41	4358.08
435.59	4290.20
435.78	4360.42
435.97	4376.80
436.16	4299.56
436.34	4297.22
436.53	4369.78
436.72	4404.89
436.90	4432.97
437.09	4451.70
437.28	4425.95
437.46	4388.50
437.65	4292.54
437.84	4456.38
438.02	4477.44
438.21	4575.75
438.40	4519.57
438.58	4814.48
438.77	4753.63
438.96	4571.07
439.14	4704.48
439.33	4877.68
439.52	4887.04
439.70	4816.82
439.89	4961.94
440.08	4868.31
440.26	4840.23
440.45	4912.78
440.63	5008.75
440.82	5027.47
441.01	5057.90
441.19	5109.39
441.38	5067.26
441.57	5097.69
441.75	5247.48
441.94	5324.72
442.12	5277.91
442.31	5305.99
442.50	5355.15
442.68	5284.93
442.87	5355.15
443.05	5338.76
443.24	5598.56
443.43	5453.45
443.61	5425.36
443.80	5582.18
443.98	5392.59
444.17	5289.61
444.35	5619.63
444.54	5528.35
444.73	5458.13
444.91	5526.00
445.10	5614.95
445.28	5610.26
445.47	5549.41
445.65	5518.98
445.84	5675.80
446.02	5621.97
446.21	5731.97
446.39	5678.14
446.58	5757.72
446.77	5636.01
446.95	5507.28
447.14	5507.28
447.32	5521.32
447.51	5603.24
447.69	5605.58
447.88	5715.59
448.06	5664.10
448.25	5673.46
448.43	5701.54
448.62	5736.65
448.80	5540.05
448.99	5666.44
449.17	5860.70
449.36	5717.93
449.54	5874.74
449.73	5949.64
449.91	5994.11
450.10	5886.45
450.28	5937.94
450.46	5975.39
450.65	5867.72
450.83	6057.31
451.02	6125.18
451.20	6076.03
451.39	6209.44
451.57	6057.31
451.76	5947.30
451.94	6001.13
452.13	6298.38
452.31	6272.64
452.49	6300.72
452.68	6207.10
452.86	6026.88
453.05	6441.15
453.23	6303.06
453.42	6251.57
453.60	6277.32
453.78	6326.47
453.97	6317.11
454.15	6272.64
454.34	6174.33
454.52	6328.81
454.70	6464.56
454.89	6525.41
455.07	6537.12
455.26	6586.27
455.44	6705.63
455.62	6621.38
455.81	6523.07
455.99	6633.08
456.17	6628.40
456.36	6656.48
456.54	6843.73
456.73	6792.23
456.91	6958.41
457.09	6869.47
457.28	7047.35
457.46	6782.87
457.64	6874.15
457.83	7021.61
458.01	6918.62
458.19	7190.13
458.38	7068.42
458.56	7169.06
458.74	7052.03
458.93	7007.56
459.11	6925.65
459.29	6911.60
459.48	7194.81
459.66	7265.02
459.84	7225.23
460.03	7349.28
460.21	7243.96
460.39	7232.26
460.57	7449.93
460.76	7148.00
460.94	7360.98
461.12	7456.95
461.31	7515.46
461.49	7499.08
461.67	7246.30
461.85	7428.86
462.04	7260.34
462.22	7962.50
462.40	7801.01
462.59	7639.51
462.77	7683.98
462.95	7644.19
463.13	7854.84
463.32	7712.07
463.50	7803.35
463.68	7857.18
463.86	7737.81
464.05	7742.49
464.23	7981.23
464.41	7815.05
464.59	7822.07
464.78	8051.44
464.96	7786.96
465.14	7866.54
465.32	7843.14
465.50	7887.61
465.69	7929.74
465.87	7971.86
466.05	7850.16
466.23	8013.99
466.41	8187.19
466.60	8088.89
466.78	8217.62
466.96	8161.45
467.14	8074.85
467.32	8049.10
467.51	8093.57
467.69	7983.57
467.87	8177.83
468.05	8109.96
468.23	8252.73
468.41	8100.59
468.60	8191.88
468.78	8390.82
468.96	8259.75
469.14	8465.72
469.32	8655.30
469.50	8388.48
469.69	8594.45
469.87	8533.59
470.05	8439.97
470.23	8659.98
470.41	8606.15
470.59	8690.41
470.77	8589.77
470.95	8840.20
471.14	8865.95
471.32	8650.62
471.50	8840.20
471.68	8910.42
471.86	8992.34
472.04	8912.76
472.22	9048.51
472.40	8992.34
472.58	8943.19
472.77	9043.83
472.95	9053.19
473.13	9528.32
473.31	9423.00
473.49	9198.31
473.67	9282.56
473.85	9392.57
474.03	9366.82
474.21	9490.87
474.39	9493.21
474.57	9533.00
474.75	9734.29
474.93	9678.12
475.12	9785.78
475.30	9839.61
475.48	10005.79
475.66	9802.16
475.84	9647.69
476.02	9956.64
476.20	10045.58
476.38	10052.60
476.56	10457.51
476.74	10235.16
476.92	10363.89
477.10	10396.66
477.28	10705.61
477.46	10567.52
477.64	10541.77
477.82	10633.05
478.00	10930.30
478.18	10785.19
478.36	10972.43
478.54	11084.78
478.72	11066.05
478.90	11218.19
479.08	11543.52
479.26	11229.89
479.44	11377.34
479.62	11489.69
479.80	11538.84
479.98	11812.68
480.16	12112.27
480.34	12018.65
480.52	12098.23
480.70	12074.82
480.88	11960.14
481.06	12133.34
481.24	12121.63
481.41	12339.30
481.59	12294.83
481.77	12561.66
481.95	12720.81
482.13	12847.20
482.31	12816.77
482.49	13001.68
482.67	12945.50
482.85	13252.11
483.03	13303.60
483.21	13469.78
483.39	13661.71
483.57	13614.90
483.74	13619.58
483.92	13865.33
484.10	13687.45
484.28	13989.38
484.46	14132.15
484.64	14438.76
484.82	14164.92
485.00	14413.02
485.18	14707.93
485.35	15227.53
485.53	14897.51
485.71	14698.56
485.89	15061.35
486.07	14984.11
486.25	15250.93
486.43	15208.80
486.61	15477.96
486.78	15625.42
486.96	15550.52
487.14	15803.30
487.32	15690.95
487.50	16107.57
487.68	16180.12
487.85	16208.21
488.03	16437.58
488.21	16922.07
488.39	16704.40
488.57	16765.26
488.75	16786.32
488.92	17053.14
489.10	17441.67
489.28	17231.02
489.46	17348.05
489.64	17507.21
489.81	17701.47
489.99	17713.17
490.17	17900.42
490.35	18120.43
490.53	18185.96
490.70	18555.77
490.88	18230.43
491.06	18492.57
491.24	18703.22
491.41	18593.22
491.59	18768.76
491.77	18986.43
491.95	18981.74
492.13	19161.97
492.30	19227.50
492.48	19365.59
492.66	19398.36
492.84	19662.84
493.01	19770.51
493.19	19807.95
493.37	19786.89
493.54	19723.69
493.72	20308.83
493.90	20114.56
494.08	20343.94
494.25	20552.24
494.43	20479.69
494.61	20847.15
494.79	20992.26
494.96	21104.61
495.14	20875.24
495.32	21163.12
495.49	21247.38
495.67	21654.64
495.85	21088.23
496.02	21823.16
496.20	22050.19
496.38	22001.04
496.55	21776.34
496.73	22614.26
496.91	22284.24
497.09	22359.14
497.26	22808.52
497.44	22490.21
497.62	22796.82
497.79	23236.84
497.97	22960.66
498.14	22766.39
498.32	23349.18
498.50	22902.14
498.67	23388.97
498.85	23510.68
499.03	23697.92
499.20	23803.25
499.38	23707.29
499.56	23948.36
499.73	24205.82
499.91	23878.15
500.08	24044.32
500.26	24095.82
500.44	24388.38
500.61	24297.10
500.79	24355.61
500.97	24355.61
501.14	24842.45
501.32	24779.25
501.49	25097.56
501.67	24875.21
501.84	24992.24
502.02	24933.73
502.20	25034.37
502.37	25132.67
502.55	25008.62
502.72	25696.74
502.90	25537.59
503.07	25443.96
503.25	25605.46
503.43	25291.83
503.60	25907.39
503.78	26089.95
503.95	25783.34
504.13	25893.35
504.30	25876.96
504.48	25947.18
504.65	26295.92
504.83	26546.36
505.01	26719.56
505.18	26820.20
505.36	26913.82
505.53	26693.81
505.71	26771.05
505.88	26965.31
506.06	26478.48
506.23	27075.32
506.41	26897.44
506.58	27255.54
506.76	27297.67
506.93	27463.85
507.11	27342.14
507.28	27545.76
507.46	27365.54
507.63	28039.62
507.81	28098.13
507.98	27875.78
508.16	28023.23
508.33	28123.88
508.50	28034.94
508.68	28102.81
508.85	28472.62
509.03	28386.02
509.20	28570.92
509.38	28898.59
509.55	29034.35
509.73	28547.51
509.90	29088.18
510.08	29050.73
510.25	29055.41
510.42	28947.75
510.60	29200.52
510.77	29085.84
510.95	29673.31
511.12	29614.80
511.30	29378.40
511.47	29504.79
511.64	29418.19
511.82	29949.50
511.99	29827.79
512.17	29942.47
512.34	29766.93
512.51	30139.08
512.69	30377.81
512.86	30085.25
513.04	30157.80
513.21	30242.06
513.38	30576.76
513.56	30642.29
513.73	30321.64
513.90	30518.25
514.08	30831.88
514.25	30820.17
514.43	30661.02
514.60	31103.38
514.77	30340.36
514.95	31440.42
515.12	31126.78
515.29	31182.96
515.47	31274.24
515.64	31599.57
515.81	31257.85
515.99	31358.50
516.16	31908.52
516.33	31672.13
516.51	31960.02
516.68	31627.66
516.85	31999.80
517.03	32086.40
517.20	31950.65
517.37	32123.85
517.54	32388.33
517.72	32147.26
517.89	32163.64
518.06	32662.18
518.24	32449.19
518.41	32079.38
518.58	32273.65
518.75	32362.59
518.93	32411.74
519.10	32348.54
519.27	32816.65
519.45	32496.00
519.62	33481.36
519.79	32971.13
519.96	33127.94
520.14	33268.37
520.31	33399.44
520.48	33207.52
520.65	33223.90
520.83	33649.88
521.00	33589.03
521.17	33429.87
521.34	33874.57
521.52	33661.58
521.69	33682.65
521.86	33928.41
522.03	34220.97
522.20	34185.86
522.38	34253.74
522.55	34263.10
522.72	34408.22
522.89	34183.52
523.07	34689.08
523.24	34668.02
523.41	34843.56
523.58	34408.22
523.75	34712.49
523.92	34656.31
524.10	34813.13
524.27	35143.14
524.44	35007.39
524.61	35126.76
524.78	35054.20
524.96	35260.17
525.13	35564.44
525.30	35435.71
525.47	35510.61
525.64	35138.46
525.81	35674.45
525.98	35751.68
526.16	35227.40
526.33	35915.52
526.50	35828.92
526.67	35587.85
526.84	35501.25
527.01	35964.67
527.18	36503.00
527.36	36009.14
527.53	36191.70
527.70	36617.68
527.87	36460.87
528.04	36613.00
528.21	36350.86
528.38	36114.47
528.55	36659.81
528.72	36573.21
528.89	36517.04
529.07	36224.47
529.24	36561.51
529.41	36776.84
529.58	37074.09
529.75	36636.41
529.92	36886.84
530.09	36641.09
530.26	37010.89
530.43	37060.04
530.60	36919.61
530.77	36823.65
530.94	37343.25
531.11	37343.25
531.28	37188.77
531.46	37308.14
531.63	37787.95
531.80	37497.72
531.97	37729.44
532.14	37701.35
532.31	37589.00
532.48	37919.02
532.65	37832.42
532.82	37486.02
532.99	37872.21
533.16	37612.41
533.33	38569.69
533.50	38326.27
533.67	38316.91
533.84	38010.30
534.01	37949.45
534.18	37958.81
534.35	38321.59
534.52	38216.27
534.69	38707.78
534.86	38391.81
535.03	38752.25
535.20	38628.20
535.37	38930.13
535.54	39124.40
535.71	38817.78
535.88	38885.66
536.05	38834.17
536.22	39112.69
536.38	38754.59
536.55	38965.24
536.72	38946.51
536.89	38691.40
537.06	39061.20
537.23	39124.40
537.40	39044.82
537.57	38969.92
537.74	39541.01
537.91	39384.19
538.08	39290.57
538.25	39459.09
538.42	39232.06
538.59	39697.83
538.75	39510.58
538.92	39707.19
539.09	40102.74
539.26	39761.02
539.43	39470.79
539.60	39782.09
539.77	39761.02
539.94	40051.25
540.11	40088.70
540.28	39468.45
540.44	40165.93
540.61	40154.23
540.78	39929.54
540.95	40130.83
541.12	39868.69
541.29	39831.24
541.46	40364.88
541.62	40100.40
541.79	40650.42
541.96	40219.77
542.13	40268.92
542.30	39798.47
542.47	40315.73
542.63	40374.24
542.80	40809.58
542.97	41118.53
543.14	40872.78
543.31	40921.93
543.48	40973.42
543.64	41481.31
543.81	41207.47
543.98	40701.92
544.15	41457.91
544.32	41179.39
544.48	41708.35
544.65	41308.11
544.82	41308.11
544.99	41280.03
545.16	41471.95
545.32	41624.09
545.49	42085.17
545.66	41991.55
545.83	41722.39
546.00	41869.84
546.16	41530.47
546.33	41439.18
546.50	41635.79
546.67	42113.26
546.83	41450.89
547.00	41804.31
547.17	41771.54
547.34	41949.42
547.50	42265.39
547.67	42356.67
547.84	42438.59
548.00	42204.54
548.17	42344.97
548.34	42550.94
548.51	42436.25
548.67	42770.95
548.84	42511.15
549.01	42061.77
549.18	42401.14
549.34	42511.15
549.51	42756.91
549.68	42522.85
549.84	42307.52
550.01	42653.92
550.18	42759.25
550.34	42689.03
550.51	43021.39
550.68	42838.83
550.84	43105.65
551.01	42967.55
551.18	42859.89
551.34	42913.72
551.51	43105.65
551.68	43079.90
551.84	42927.77
552.01	43253.10
552.18	43143.09
552.34	43091.60
552.51	42997.98
552.68	43037.77
552.84	43372.47
553.01	43365.45
553.18	43604.18
553.34	43484.81
553.51	43173.52
553.67	43564.39
553.84	43498.86
554.01	43894.41
554.17	43721.21
554.34	44079.31
554.51	43548.01
554.67	43611.20
554.84	44294.64
555.00	43599.50
555.17	43856.96
555.33	43583.12
555.50	43522.26
555.67	43728.23
555.83	43445.02
556.00	44004.41
556.16	44449.11
556.33	44329.75
556.50	43934.20
556.66	43959.94
556.83	43859.30
556.99	44327.41
557.16	44711.25
557.32	44505.29
557.49	44638.70
557.65	44385.92
557.82	43957.60
557.98	44226.76
558.15	44406.98
558.32	44528.69
558.48	44004.41
558.65	44584.86
558.81	43920.15
558.98	44456.14
559.14	44465.50
559.31	44217.40
559.47	44648.06
559.64	44428.05
559.80	44568.48
559.97	45109.14
560.13	44659.76
560.30	44748.70
560.46	44961.69
560.63	45055.31
560.79	45034.25
560.96	45181.70
561.12	44886.79
561.29	44928.92
561.45	44992.12
561.61	45326.81
561.78	45097.44
561.94	44758.06
562.11	44720.62
562.27	44718.28
562.44	44896.16
562.60	44849.35
562.77	44889.13
562.93	45041.27
563.10	45223.83
563.26	45074.04
563.42	45347.88
563.59	45268.30
563.75	44573.16
563.92	45427.46
564.08	44875.09
564.24	44975.73
564.41	44926.58
564.57	45090.42
564.74	45310.43
564.90	45280.00
565.07	45378.31
565.23	45181.70
565.39	45570.23
565.56	45565.55
565.72	45441.50
565.88	45347.88
566.05	45462.57
566.21	45432.14
566.38	45104.46
566.54	45397.03
566.70	45825.35
566.87	45811.31
567.03	45230.85
567.19	45673.21
567.36	45336.18
567.52	45303.41
567.68	45963.44
567.85	45392.35
568.01	45450.86
568.17	45350.22
568.34	45841.73
568.50	45837.05
568.66	45118.51
568.83	45584.27
568.99	45319.79
569.15	45507.04
569.32	45696.62
569.48	45556.19
569.64	46164.73
569.81	45762.15
569.97	45708.32
570.13	45717.68
570.30	45827.69
570.46	46064.08
570.62	45661.51
570.78	45790.24
570.95	45874.50
571.11	46274.73
571.27	45595.98
571.43	45631.08
571.60	45729.39
571.76	45806.62
571.92	45794.92
572.09	45717.68
572.25	45701.30
572.41	46071.10
572.57	45930.67
572.74	46532.19
572.90	45862.80
573.06	46082.81
573.22	45916.63
573.38	45958.76
573.55	46326.22
573.71	46188.13
573.87	46075.79
574.03	45705.98
574.20	46312.18
574.36	46368.35
574.52	46185.79
574.68	46227.92
574.84	46361.33
575.01	46028.98
575.17	46902.00
575.33	45958.76
575.49	45907.27
575.65	46103.87
575.82	46270.05
575.98	45881.52
576.14	46256.01
576.30	46389.42
576.46	46192.81
576.62	46047.70
576.79	46146.00
576.95	45787.90
577.11	45797.26
577.27	46351.97
577.43	46038.34
577.59	46302.82
577.75	45897.91
577.92	46040.68
578.08	46167.07
578.24	46342.61
578.40	46642.20
578.56	46632.83
578.72	46415.16
578.88	46328.56
579.04	46461.97
579.21	46204.52
579.37	46326.22
579.53	46209.20
579.69	46024.29
579.85	46569.64
580.01	46471.34
580.17	46279.41
580.33	46724.11
580.49	46281.75
580.65	46733.48
580.82	46248.99
580.98	46574.32
581.14	46162.39
581.30	46431.55
581.46	46115.58
581.62	46309.84
581.78	46438.57
581.94	46279.41
582.10	46485.38
582.26	46642.20
582.42	46464.32
582.58	46616.45
582.74	46543.89
582.90	46529.85
583.06	46274.73
583.22	46436.23
583.38	46136.64
583.54	46433.89
583.70	46789.65
583.86	46321.54
584.02	46586.02
584.18	46892.63
584.34	46424.53
584.50	46871.57
584.66	46897.31
584.82	46377.72
584.98	46916.04
585.14	46768.58
585.30	46541.55
585.46	46232.60
585.62	46384.74
585.78	46569.64
585.94	46469.00
586.10	46576.66
586.26	46218.56
586.42	46239.62
586.58	46621.13
586.74	46124.94
586.90	46473.68
587.06	46607.09
587.22	46909.02
587.38	46164.73
587.54	46431.55
587.70	47000.30
587.86	46354.31
588.02	46567.30
588.18	46576.66
588.34	46787.31
588.49	46902.00
588.65	46586.02
588.81	47061.15
588.97	46759.22
589.13	46461.97
589.29	46710.07
589.45	46780.29
589.61	46923.06
589.77	47133.71
589.93	46958.17
590.08	46707.73
