SpectraSuite Data File
++++++++++++++++++++++++++++++++++++
Date: Fri Oct 25 11:23:23 EDT 2013
User: price-jones
Dark Spectrum Present: No
Reference Spectrum Present: No
Number of Sampled Component Spectra: 1
Spectrometers: USB2+H05261
Integration Time (usec): 100000 (USB2+H05261)
Spectra Averaged: 1 (USB2+H05261)
Boxcar Smoothing: 0 (USB2+H05261)
Correct for Electrical Dark: No (USB2+H05261)
Strobe/Lamp Enabled: No (USB2+H05261)
Correct for Detector Non-linearity: No (USB2+H05261)
Correct for Stray Light: No (USB2+H05261)
Number of Pixels in Processed Spectrum: 2048
>>>>>Begin Processed Spectral Data<<<<<
365.73	243.42
365.92	243.42
366.12	243.42
366.32	198.95
366.52	49.15
366.72	159.16
366.91	105.32
367.11	149.79
367.31	107.66
367.51	107.66
367.70	121.71
367.90	128.73
368.10	72.56
368.30	161.50
368.49	91.28
368.69	159.16
368.89	180.22
369.09	142.77
369.28	161.50
369.48	210.65
369.68	145.11
369.87	170.86
370.07	201.29
370.27	156.82
370.47	390.87
370.66	582.79
370.86	594.50
371.06	610.88
371.25	667.05
371.45	688.12
371.65	720.88
371.84	681.10
372.04	688.12
372.24	704.50
372.44	727.91
372.63	786.42
372.83	732.59
373.03	739.61
373.22	739.61
373.42	748.97
373.62	788.76
373.81	833.23
374.01	849.61
374.21	840.25
374.40	739.61
374.60	774.72
374.79	807.48
374.99	828.55
375.19	793.44
375.38	875.36
375.58	870.68
375.78	802.80
375.97	882.38
376.17	866.00
376.37	844.93
376.56	919.83
376.76	840.25
376.95	912.81
377.15	812.17
377.35	849.61
377.54	896.43
377.74	954.94
377.93	894.08
378.13	863.66
378.33	940.90
378.52	910.47
378.72	945.58
378.91	905.79
379.11	971.32
379.31	940.90
379.50	933.87
379.70	966.64
379.89	929.19
380.09	990.05
380.28	861.32
380.48	980.68
380.68	990.05
380.87	945.58
381.07	936.21
381.26	936.21
381.46	1001.75
381.65	959.62
381.85	1074.31
382.04	1027.50
382.24	1071.97
382.43	1006.43
382.63	1015.79
382.83	1027.50
383.02	1064.94
383.22	1057.92
383.41	1088.35
383.61	1137.50
383.80	1100.05
384.00	1114.10
384.19	1074.31
384.39	1200.69
384.58	1184.31
384.78	1205.38
384.97	1151.54
385.17	1207.72
385.36	1188.99
385.56	1205.38
385.75	1193.67
385.95	1191.33
386.14	1135.16
386.34	1163.25
386.53	1153.88
386.72	1174.95
386.92	1210.06
387.11	1207.72
387.31	1165.59
387.50	1291.98
387.70	1256.87
387.89	1221.76
388.09	1301.34
388.28	1355.17
388.48	1324.74
388.67	1294.32
388.86	1406.66
389.06	1228.78
389.25	1301.34
389.45	1345.81
389.64	1336.45
389.84	1366.87
390.03	1448.79
390.22	1315.38
390.42	1427.73
390.61	1462.83
390.81	1404.32
391.00	1406.66
391.19	1376.24
391.39	1472.20
391.58	1383.26
391.78	1516.67
391.97	1507.30
392.16	1434.75
392.36	1462.83
392.55	1533.05
392.75	1500.28
392.94	1563.48
393.13	1469.86
393.33	1547.09
393.52	1458.15
393.71	1497.94
393.91	1554.12
394.10	1577.52
394.29	1577.52
394.49	1586.88
394.68	1619.65
394.88	1621.99
395.07	1682.85
395.26	1657.10
395.46	1657.10
395.65	1614.97
395.84	1605.61
396.04	1813.92
396.23	1813.92
396.42	1689.87
396.62	1846.68
396.81	1675.82
397.00	1776.47
397.19	1715.61
397.39	1764.76
397.58	1685.19
397.77	1839.66
397.97	1902.86
398.16	1872.43
398.35	1881.79
398.55	1764.76
398.74	1937.96
398.93	1937.96
399.12	1886.47
399.32	1923.92
399.51	1907.54
399.70	2078.40
399.90	1944.99
400.09	1968.39
400.28	2036.27
400.47	2043.29
400.67	2101.80
400.86	2122.87
401.05	2076.06
401.24	2106.48
401.44	2122.87
401.63	2157.97
401.82	2179.04
402.01	2176.70
402.21	2270.32
402.40	2172.02
402.59	2169.68
402.78	2155.63
402.97	2317.13
403.17	2186.06
403.36	2258.62
403.55	2270.32
403.74	2270.32
403.93	2307.77
404.13	2441.18
404.32	2443.52
404.51	2424.80
404.70	2462.24
404.89	2356.92
405.09	2499.69
405.28	2410.75
405.47	2558.21
405.66	2455.22
405.85	2530.12
406.05	2448.20
406.24	2600.34
406.43	2593.31
406.62	2614.38
406.81	2712.68
407.00	2520.76
407.20	2530.12
407.39	2562.89
407.58	2661.19
407.77	2682.25
407.96	2810.98
408.15	2722.04
408.34	2778.22
408.54	2738.43
408.73	2745.45
408.92	2888.22
409.11	2899.92
409.30	2885.88
409.49	2878.86
409.68	2864.82
409.87	2967.80
410.07	2890.56
410.26	3000.57
410.45	3033.33
410.64	3145.68
410.83	3033.33
411.02	3059.08
411.21	3190.15
411.40	3131.64
411.59	3169.09
411.78	3211.22
411.98	3155.04
412.17	3279.09
412.36	3304.84
412.55	3150.36
412.74	3386.76
412.93	3382.07
413.12	3403.14
413.31	3527.19
413.50	3471.01
413.69	3613.79
413.88	3667.62
414.07	3480.38
414.26	3672.30
414.45	3758.90
414.64	3623.15
414.83	3726.13
415.02	3777.62
415.22	3676.98
415.41	3913.38
415.60	3847.84
415.79	3927.42
415.98	4004.66
416.17	3997.64
416.36	3936.78
416.55	4074.87
416.74	4170.83
416.93	4067.85
417.12	4128.70
417.31	4231.69
417.50	4107.64
417.69	4283.18
417.88	4308.93
418.07	4250.41
418.26	4386.16
418.45	4203.60
418.64	4575.75
418.83	4470.42
419.02	4510.21
419.21	4463.40
419.39	4578.09
419.58	4430.63
419.77	4554.68
419.96	4573.41
420.15	4655.33
420.34	4601.49
420.53	4524.26
420.72	4622.56
420.91	4557.02
421.10	4681.07
421.29	4826.18
421.48	4706.82
421.67	4945.55
421.86	4741.93
422.05	4861.29
422.24	4947.89
422.43	4814.48
422.61	4814.48
422.80	4875.34
422.99	4957.25
423.18	5090.67
423.37	4992.36
423.56	5001.72
423.75	4954.91
423.94	4840.23
424.13	4667.03
424.32	4753.63
424.50	5118.75
424.69	5139.82
424.88	5172.58
425.07	5104.71
425.26	5102.37
425.45	4999.38
425.64	5174.92
425.83	5064.92
426.01	5006.41
426.20	5160.88
426.39	5048.54
426.58	5107.05
426.77	4891.72
426.96	4968.96
427.15	5188.97
427.33	5373.87
427.52	5083.64
427.71	5186.63
427.90	5198.33
428.09	5205.35
428.28	5448.77
428.46	5399.62
428.65	5434.72
428.84	5640.69
429.03	5617.29
429.22	5322.38
429.40	5460.47
429.59	5600.90
429.78	5394.93
429.97	5408.98
430.16	5338.76
430.34	5619.63
430.53	5647.71
430.72	5680.48
430.91	5708.57
431.10	5640.69
431.28	5685.16
431.47	5844.32
431.66	5886.45
431.85	5685.16
432.03	5905.17
432.22	6179.01
432.41	6012.84
432.60	5916.87
432.79	6069.01
432.97	5963.68
433.16	5982.41
433.35	5963.68
433.54	6331.15
433.72	6157.95
433.91	6235.19
434.10	6190.72
434.28	6246.89
434.47	6307.74
434.66	6291.36
434.85	6361.58
435.03	6265.61
435.22	6246.89
435.41	6513.71
435.59	6401.37
435.78	6658.82
435.97	6541.80
436.16	6469.24
436.34	6429.45
436.53	6429.45
436.72	6654.14
436.90	6434.13
437.09	6621.38
437.28	6520.73
437.46	6647.12
437.65	6815.64
437.84	6712.66
438.02	6817.98
438.21	6773.51
438.40	6689.25
438.58	6904.58
438.77	6974.80
438.96	7026.29
439.14	7227.57
439.33	7269.70
439.52	7148.00
439.70	7449.93
439.89	7386.73
440.08	7470.99
440.26	7522.48
440.45	7164.38
440.63	7496.74
440.82	7578.65
441.01	7688.66
441.19	7602.06
441.38	7667.60
441.57	7646.53
441.75	8046.76
441.94	7892.29
442.12	8035.06
442.31	8313.58
442.50	8030.38
442.68	8121.66
442.87	7960.16
443.05	8135.70
443.24	8142.72
443.43	8198.90
443.61	8131.02
443.80	8521.89
443.98	8372.10
444.17	8035.06
444.35	8315.92
444.54	8388.48
444.73	8149.75
444.91	8519.55
445.10	8334.65
445.28	8409.54
445.47	8278.47
445.65	8496.14
445.84	8610.83
446.02	8603.81
446.21	8634.24
446.39	8542.96
446.58	8601.47
446.77	8697.43
446.95	8400.18
447.14	8659.98
447.32	8720.84
447.51	8692.75
447.69	8425.93
447.88	8463.38
448.06	8655.30
448.25	8676.37
448.43	8535.93
448.62	8606.15
448.80	8683.39
448.99	8535.93
449.17	8861.27
449.36	8507.85
449.54	8994.68
449.73	9043.83
449.91	9128.09
450.10	8929.14
450.28	9174.90
450.46	9095.32
450.65	9097.66
450.83	8997.02
451.02	9320.01
451.20	9174.90
451.39	9238.09
451.57	9315.33
451.76	8982.98
451.94	9291.93
452.13	9334.06
452.31	9483.85
452.49	9298.95
452.68	9465.13
452.86	9252.14
453.05	9617.26
453.23	9570.45
453.42	9547.05
453.60	9298.95
453.78	9544.70
453.97	9373.85
454.15	9500.23
454.34	9474.49
454.52	9586.83
454.70	9788.12
454.89	9928.55
455.07	10066.64
455.26	9914.51
455.44	9975.36
455.62	10104.09
455.81	9654.71
455.99	10197.71
456.17	10160.27
456.36	10078.35
456.54	10064.30
456.73	10335.81
456.91	10354.53
457.09	10574.54
457.28	10597.95
457.46	10457.51
457.64	10583.90
457.83	10588.58
458.01	10485.60
458.19	10726.68
458.38	10649.44
458.56	10876.47
458.74	10789.87
458.93	10574.54
459.11	10906.90
459.29	10738.38
459.48	10930.30
459.66	10764.12
459.84	11052.01
460.03	10806.25
460.21	11204.14
460.39	11084.78
460.57	11073.07
460.76	11115.20
460.94	11241.59
461.12	11304.79
461.31	11234.57
461.49	11307.13
461.67	11344.58
461.85	11585.65
462.04	11290.74
462.22	11569.27
462.40	11653.53
462.59	11468.62
462.77	11548.20
462.95	11702.68
463.13	11754.17
463.32	11800.98
463.50	11936.73
463.68	11765.87
463.86	11962.48
464.05	11997.59
464.23	11831.41
464.41	12025.67
464.59	11726.08
464.78	12161.42
464.96	11978.86
465.14	11997.59
465.32	12037.38
465.50	12545.27
465.69	12182.49
465.87	12360.37
466.05	12079.50
466.23	12353.35
466.41	12496.12
466.60	12636.55
466.78	12182.49
466.96	12241.00
467.14	12334.62
467.32	12578.04
467.51	12732.51
467.69	12435.27
467.87	12294.83
468.05	12503.14
468.23	12538.25
468.41	12659.96
468.60	12748.90
468.78	12786.35
468.96	12589.74
469.14	12851.88
469.32	13135.09
469.50	12636.55
469.69	13132.75
469.87	13055.51
470.05	13221.69
470.23	13261.48
470.41	13006.36
470.59	13401.91
470.77	13415.95
470.95	13544.68
471.14	13507.23
471.32	13394.89
471.50	13696.82
471.68	13806.82
471.86	13673.41
472.04	13809.16
472.22	14024.49
472.40	13834.91
472.58	13790.44
472.77	14183.65
472.95	14265.57
473.13	14492.60
473.31	14237.48
473.49	14377.91
473.67	14288.97
473.85	14249.18
474.03	14459.83
474.21	14857.72
474.39	14855.38
474.57	14771.12
474.75	15112.84
474.93	15061.35
475.12	14963.04
475.30	15187.74
475.48	15115.18
475.66	15246.25
475.84	15363.28
476.02	15428.81
476.20	15592.65
476.38	15871.17
476.56	16166.08
476.74	16105.23
476.92	16004.58
477.10	15829.04
477.28	16184.80
477.46	16365.03
477.64	16456.31
477.82	16678.66
478.00	17046.12
478.18	16954.84
478.36	17123.36
478.54	17207.62
478.72	17341.03
478.90	17483.80
479.08	17916.80
479.26	17841.90
479.44	17638.28
479.62	18080.64
479.80	17980.00
479.98	18391.93
480.16	18520.66
480.34	18312.35
480.52	18705.56
480.70	18726.63
480.88	18295.97
481.06	18771.10
481.24	19154.94
481.41	19183.03
481.59	19438.15
481.77	19721.35
481.95	19487.30
482.13	20173.08
482.31	19761.14
482.49	20271.38
482.67	20252.66
482.85	20772.25
483.03	20779.28
483.21	20545.22
483.39	21018.01
483.57	20851.83
483.74	21373.77
483.92	21546.97
484.10	21247.38
484.28	21872.31
484.46	22338.07
484.64	22373.18
484.82	22274.88
485.00	22609.58
485.18	22719.58
485.35	22979.38
485.53	22909.16
485.71	23295.35
485.89	23992.83
486.07	23381.95
486.25	23805.59
486.43	23590.26
486.61	24210.50
486.78	24381.36
486.96	24418.81
487.14	24533.50
487.32	24889.26
487.50	25179.48
487.68	25153.74
487.85	25560.99
488.03	25413.54
488.21	26008.03
488.39	25958.88
488.57	26228.04
488.75	26267.83
488.92	26562.74
489.10	26827.22
489.28	26876.37
489.46	28074.73
489.64	27391.29
489.81	27475.55
489.99	27868.76
490.17	27843.01
490.35	28601.35
490.53	28383.68
490.70	28327.50
490.88	28514.75
491.06	28994.56
491.24	28851.78
491.41	29317.55
491.59	29352.66
491.77	29715.44
491.95	29553.94
492.13	30029.07
492.30	30536.97
492.48	30209.29
492.66	30565.06
492.84	30398.88
493.01	30845.92
493.19	31000.40
493.37	31365.52
493.54	31440.42
493.72	31510.63
493.90	32079.38
494.08	31917.89
494.25	31850.01
494.43	32306.41
494.61	32362.59
494.79	32732.39
494.96	32701.96
495.14	32910.27
495.32	33165.39
495.49	33528.17
495.67	33516.47
495.85	33542.22
496.02	33619.46
496.20	34071.18
496.38	34293.53
496.55	34256.08
496.73	35002.71
496.91	34897.39
497.09	35782.11
497.26	35182.93
497.44	35243.79
497.62	35262.51
497.79	36467.89
497.97	35501.25
498.14	36006.80
498.32	36308.73
498.50	36472.57
498.67	36870.46
498.85	36500.65
499.03	37249.63
499.20	37057.70
499.38	36914.93
499.56	37443.89
499.73	37373.67
499.91	37584.32
500.08	37741.14
500.26	37797.31
500.44	37741.14
500.61	38148.39
500.79	38139.03
500.97	38326.27
501.14	38658.63
501.32	38712.46
501.49	38895.02
501.67	38934.81
501.84	39227.38
502.02	38967.58
502.20	39648.68
502.37	39625.27
502.55	39634.63
502.72	39777.40
502.90	39985.71
503.07	39438.03
503.25	39955.29
503.43	40084.01
503.60	40467.86
503.78	40423.39
503.95	40098.06
504.13	40945.33
504.30	41317.48
504.48	40907.88
504.65	40947.67
504.83	41448.55
505.01	41556.21
505.18	41523.44
505.36	41495.36
505.53	41647.49
505.71	42153.05
505.88	41867.50
506.06	41670.90
506.23	42047.72
506.41	41460.25
506.58	42162.41
506.76	42562.64
506.93	42913.72
507.11	42340.29
507.28	42953.51
507.46	43103.31
507.63	43585.46
507.81	43566.73
507.98	43285.87
508.16	43257.78
508.33	43716.53
508.50	43512.90
508.68	43803.13
508.85	44378.90
509.03	44079.31
509.20	44149.53
509.38	44741.68
509.55	44753.38
509.73	45048.29
509.90	45099.78
510.08	45003.82
510.25	44914.88
510.42	45439.16
510.60	45275.32
510.77	45357.24
510.95	45268.30
511.12	45123.19
511.30	45478.95
511.47	45621.72
511.64	45572.57
511.82	46227.92
511.99	45813.65
512.17	46312.18
512.34	46124.94
512.51	46754.54
512.69	46623.47
512.86	46906.68
513.04	46522.83
513.21	46724.11
513.38	46841.14
513.56	47096.26
513.73	47014.34
513.90	47285.84
514.08	47192.22
514.25	47746.93
514.43	47746.93
514.60	47744.59
514.77	47870.98
514.95	47955.24
515.12	47728.20
515.29	47913.11
515.47	47971.62
515.64	48339.08
515.81	47976.30
515.99	48456.11
516.16	48856.34
516.33	48814.21
516.51	48933.58
516.68	48652.72
516.85	48919.54
517.03	49165.29
517.20	49031.88
517.37	48861.02
517.54	49198.06
517.72	49418.07
517.89	49221.47
518.06	49701.28
518.24	49357.22
518.41	49617.02
518.58	49687.23
518.75	49507.01
518.93	49806.60
519.10	49446.16
519.27	49893.20
519.45	49986.82
519.62	50045.33
519.79	50162.36
519.96	50499.40
520.14	50494.72
520.31	50094.49
520.48	50843.46
520.65	50735.79
520.83	50721.75
521.00	51105.60
521.17	50838.78
521.34	50913.67
521.52	51281.14
521.69	51105.60
521.86	51229.65
522.03	51360.72
522.20	51629.88
522.38	52004.36
522.55	51365.40
522.72	51512.85
522.89	51629.88
523.07	52105.01
523.24	52018.41
523.41	52193.95
523.58	52004.36
523.75	52226.71
523.92	51915.42
524.10	52343.74
524.27	52327.36
524.44	52275.87
524.61	52453.75
524.78	52458.43
524.96	52261.82
525.13	52596.52
525.30	52795.46
525.47	52917.17
525.64	52772.06
525.81	52994.41
525.98	52877.38
526.16	52886.74
526.33	52802.49
526.50	53109.10
526.67	53076.33
526.84	53123.14
527.01	53172.29
527.18	53240.17
527.36	53036.54
527.53	53066.97
527.70	53633.38
527.87	53434.43
528.04	53338.47
528.21	53600.61
528.38	53413.37
528.55	53820.62
528.72	53497.62
528.89	53811.26
529.07	53659.12
529.24	53394.64
529.41	53900.20
529.58	53666.14
529.75	53668.48
529.92	53766.79
530.09	53963.39
530.26	54019.56
530.43	54321.49
530.60	53773.81
530.77	54115.53
530.94	54281.70
531.11	54234.89
531.28	54326.17
531.46	54471.29
531.63	54380.01
531.80	54578.95
531.97	54560.23
532.14	54789.60
532.31	54890.24
532.48	55033.02
532.65	54915.99
532.82	54576.61
532.99	54756.83
533.16	54607.04
533.33	54887.90
533.50	55313.88
533.67	55000.25
533.84	55096.21
534.01	54892.58
534.18	55337.29
534.35	55517.51
534.52	55498.78
534.69	55573.68
534.86	55360.69
535.03	55407.50
535.20	55398.14
535.37	55508.14
535.54	55505.80
535.71	55625.17
535.88	55657.94
536.05	55662.62
536.22	55884.97
536.38	55756.24
536.55	55683.69
536.72	55737.52
536.89	55543.25
537.06	55931.78
537.23	56032.42
537.40	55908.38
537.57	55767.94
537.74	55920.08
537.91	56184.56
538.08	56046.47
538.25	55760.92
538.42	56055.83
538.59	56348.40
538.75	56147.11
538.92	56343.72
539.09	56479.47
539.26	56315.63
539.43	56378.82
539.60	56488.83
539.77	56502.87
539.94	56921.83
540.11	56643.30
540.28	56921.83
540.44	56491.17
540.61	56458.40
540.78	56795.44
540.95	56458.40
541.12	56687.78
541.29	56472.45
541.46	56804.80
541.62	56577.77
541.79	56900.76
541.96	56505.21
542.13	56924.17
542.30	56872.68
542.47	56893.74
542.63	56949.92
542.80	56935.87
542.97	57256.53
543.14	57415.68
543.31	57497.60
543.48	57364.19
543.64	57434.41
543.81	57525.69
543.98	57773.78
544.15	57422.70
544.32	57776.12
544.48	57851.02
544.65	57389.94
544.82	57600.58
544.99	57499.94
545.16	57715.27
545.32	57600.58
545.49	57855.70
545.66	57776.12
545.83	57794.85
546.00	58047.63
546.16	57991.45
546.33	57956.35
546.50	57680.16
546.67	58056.99
546.83	57717.61
547.00	57958.69
547.17	57801.87
547.34	57972.73
547.50	58071.03
547.67	58136.57
547.84	58101.46
548.00	58375.30
548.17	58223.17
548.34	58272.32
548.51	58581.27
548.67	58454.88
548.84	58436.16
549.01	58298.06
549.18	58349.56
549.34	58150.61
549.51	58457.22
549.68	58705.32
549.84	58454.88
550.01	58326.15
550.18	58375.30
550.34	58726.38
550.51	58616.38
550.68	58635.10
550.84	58239.55
551.01	58775.53
551.18	58541.48
551.34	58925.33
551.51	58717.02
551.68	58843.41
551.84	58906.60
552.01	58583.61
552.18	58897.24
552.34	58571.91
552.51	58972.14
552.68	58623.40
552.84	58674.89
553.01	59255.34
553.18	59014.27
553.34	59077.46
553.51	58775.53
553.67	58876.18
553.84	59049.38
554.01	58967.46
554.17	59161.72
554.34	59014.27
554.51	59166.40
554.67	59217.89
554.84	59063.42
555.00	59084.48
555.17	59049.38
555.33	59213.21
555.50	59241.30
555.67	59168.74
555.83	59260.02
556.00	59414.50
556.16	59580.68
556.33	59561.95
556.50	59620.47
556.66	59568.97
556.83	59285.77
556.99	59540.89
557.16	59613.44
557.32	59714.09
557.49	59707.07
557.65	59384.07
557.82	59391.09
557.98	59377.05
558.15	59639.19
558.32	59753.88
558.48	59451.95
558.65	59742.17
558.81	59678.98
558.98	59875.58
559.14	59924.74
559.31	59835.80
559.47	59817.07
559.64	59992.61
559.80	59955.16
559.97	59966.87
560.13	59739.83
560.30	59950.48
560.46	59880.27
560.63	59969.21
560.79	59917.71
560.96	59978.57
561.12	59875.58
561.29	60048.78
561.45	60126.02
561.61	59994.95
561.78	60170.49
561.94	59908.35
562.11	60079.21
562.27	59971.55
562.44	60247.73
562.60	59973.89
562.77	60294.54
562.93	59929.42
563.10	60360.08
563.26	60114.32
563.42	60322.63
563.59	60060.49
563.75	60182.19
563.92	60221.98
564.08	60083.89
564.24	60411.57
564.41	60275.82
564.57	60259.43
564.74	60364.76
564.90	60280.50
565.07	60095.60
565.23	60221.98
565.39	60243.05
565.56	60434.97
565.72	60182.19
565.88	60238.37
566.05	60388.16
566.21	60254.75
566.38	60402.21
566.54	60458.38
566.70	60479.44
566.87	60514.55
567.03	60484.12
567.19	60662.00
567.36	60514.55
567.52	60432.63
567.68	60720.52
567.85	60573.06
568.01	60608.17
568.17	60437.31
568.34	60456.04
568.50	60493.49
568.66	60479.44
568.83	60612.85
568.99	60692.43
569.15	60554.34
569.32	60467.74
569.48	60313.26
569.64	60779.03
569.81	60708.82
569.97	60460.72
570.13	60451.36
570.30	60622.22
570.46	60701.79
570.62	60720.52
570.78	60720.52
570.95	60636.26
571.11	60781.37
571.27	60755.63
571.43	60659.66
571.60	60790.73
571.76	60690.09
571.92	60825.84
572.09	60715.84
572.25	60711.16
572.41	60743.92
572.57	60713.50
572.74	60926.49
572.90	60762.65
573.06	60839.89
573.22	60942.87
573.38	60816.48
573.55	60809.46
573.71	61055.21
573.87	60872.65
574.03	60699.45
574.20	60802.44
574.36	60750.94
574.52	60860.95
574.68	61064.58
574.84	60940.53
575.01	60956.91
575.17	60891.38
575.33	60750.94
575.49	60807.12
575.65	61045.85
575.82	61165.22
575.98	61057.56
576.14	61244.80
576.30	61001.38
576.46	60802.44
576.62	60863.29
576.79	60996.70
576.95	60835.20
577.11	61106.71
577.27	60966.27
577.43	60896.06
577.59	60886.70
577.75	60933.51
577.92	60790.73
578.08	60975.64
578.24	61144.16
578.40	61116.07
578.56	61010.74
578.72	60999.04
578.88	61066.92
579.04	61130.11
579.21	60896.06
579.37	61080.96
579.53	61095.00
579.69	60912.44
579.85	61052.87
580.01	60898.40
580.17	61146.50
580.33	61336.08
580.49	61151.18
580.65	61057.56
580.82	60912.44
580.98	61052.87
581.14	60968.61
581.30	61141.81
581.46	60985.00
581.62	60949.89
581.78	60985.00
581.94	61141.81
582.10	60884.36
582.26	61123.09
582.42	61165.22
582.58	60919.46
582.74	60783.71
582.90	61179.26
583.06	60959.25
583.22	61076.28
583.38	61111.39
583.54	61228.41
583.70	61401.61
583.86	61183.94
584.02	60992.02
584.18	61179.26
584.34	61277.57
584.50	61050.53
584.66	61041.17
584.82	60954.57
584.98	61221.39
585.14	61158.20
585.30	61073.94
585.46	61183.94
585.62	61488.21
585.78	61319.70
585.94	60982.66
586.10	61207.35
586.26	61193.31
586.42	61291.61
586.58	61102.03
586.74	61237.78
586.90	61165.22
587.06	61223.73
587.22	61284.59
587.38	61200.33
587.54	61336.08
587.70	61446.08
587.86	61263.52
588.02	61223.73
588.18	61427.36
588.34	61275.22
588.49	61144.16
