SpectraSuite Data File
++++++++++++++++++++++++++++++++++++
Date: Fri Oct 25 11:33:11 EDT 2013
User: price-jones
Dark Spectrum Present: No
Reference Spectrum Present: No
Number of Sampled Component Spectra: 1
Spectrometers: USB2+H05261
Integration Time (usec): 100000 (USB2+H05261)
Spectra Averaged: 1 (USB2+H05261)
Boxcar Smoothing: 0 (USB2+H05261)
Correct for Electrical Dark: No (USB2+H05261)
Strobe/Lamp Enabled: No (USB2+H05261)
Correct for Detector Non-linearity: No (USB2+H05261)
Correct for Stray Light: No (USB2+H05261)
Number of Pixels in Processed Spectrum: 2048
>>>>>Begin Processed Spectral Data<<<<<
365.73	266.82
365.92	266.82
366.12	266.82
366.32	191.92
366.52	154.48
366.72	133.41
366.91	175.54
367.11	238.73
367.31	234.05
367.51	194.26
367.70	161.50
367.90	131.07
368.10	173.20
368.30	187.24
368.49	231.71
368.69	175.54
368.89	189.58
369.09	194.26
369.28	299.59
369.48	227.03
369.68	177.88
369.87	210.65
370.07	220.01
370.27	313.63
370.47	341.72
370.66	547.69
370.86	477.47
371.06	489.17
371.25	486.83
371.45	559.39
371.65	622.58
371.84	617.90
372.04	575.77
372.24	535.98
372.44	571.09
372.63	657.69
372.83	631.94
373.03	617.90
373.22	636.63
373.42	641.31
373.62	610.88
373.81	645.99
374.01	641.31
374.21	695.14
374.40	653.01
374.60	617.90
374.79	620.24
374.99	594.50
375.19	683.44
375.38	613.22
375.58	620.24
375.78	713.86
375.97	681.10
376.17	704.50
376.37	650.67
376.56	734.93
376.76	690.46
376.95	650.67
377.15	763.01
377.35	681.10
377.54	711.52
377.74	641.31
377.93	690.46
378.13	697.48
378.33	763.01
378.52	720.88
378.72	713.86
378.91	737.27
379.11	688.12
379.31	723.23
379.50	732.59
379.70	753.65
379.89	781.74
380.09	763.01
380.28	695.14
380.48	786.42
380.68	685.78
380.87	704.50
381.07	697.48
381.26	788.76
381.46	702.16
381.65	753.65
381.85	739.61
382.04	809.83
382.24	732.59
382.43	744.29
382.63	765.36
382.83	847.27
383.02	788.76
383.22	767.70
383.41	748.97
383.61	858.98
383.80	788.76
384.00	837.91
384.19	779.40
384.39	809.83
384.58	793.44
384.78	814.51
384.97	819.19
385.17	840.25
385.36	758.33
385.56	826.21
385.75	854.30
385.95	840.25
386.14	837.91
386.34	849.61
386.53	952.60
386.72	837.91
386.92	807.48
387.11	875.36
387.31	945.58
387.50	905.79
387.70	835.57
387.89	826.21
388.09	919.83
388.28	910.47
388.48	917.49
388.67	842.59
388.86	910.47
389.06	1020.47
389.25	891.74
389.45	959.62
389.64	924.51
389.84	1006.43
390.03	971.32
390.22	945.58
390.42	976.00
390.61	994.73
390.81	999.41
391.00	910.47
391.19	957.28
391.39	1027.50
391.58	1006.43
391.78	954.94
391.97	1062.60
392.16	1011.11
392.36	1083.67
392.55	1062.60
392.75	994.73
392.94	973.66
393.13	1013.45
393.33	1046.22
393.52	1111.75
393.71	1142.18
393.91	1090.69
394.10	1071.97
394.29	1123.46
394.49	1165.59
394.68	1130.48
394.88	1111.75
395.07	1102.39
395.26	1200.69
395.46	1170.27
395.65	1179.63
395.84	1238.14
396.04	1217.08
396.23	1233.46
396.42	1191.33
396.62	1235.80
396.81	1153.88
397.00	1228.78
397.19	1205.38
397.39	1240.48
397.58	1284.95
397.77	1184.31
397.97	1263.89
398.16	1301.34
398.35	1270.91
398.55	1301.34
398.74	1334.11
398.93	1268.57
399.12	1280.27
399.32	1343.47
399.51	1240.48
399.70	1380.92
399.90	1371.55
400.09	1474.54
400.28	1427.73
400.47	1350.49
400.67	1416.02
400.86	1441.77
401.05	1430.07
401.24	1462.83
401.44	1371.55
401.63	1460.49
401.82	1444.11
402.01	1364.53
402.21	1458.15
402.40	1481.56
402.59	1409.00
402.78	1495.60
402.97	1507.30
403.17	1511.99
403.36	1638.38
403.55	1537.73
403.74	1629.01
403.93	1586.88
404.13	1600.93
404.32	1568.16
404.51	1558.80
404.70	1760.08
404.89	1579.86
405.09	1706.25
405.28	1678.16
405.47	1638.38
405.66	1647.74
405.85	1715.61
406.05	1701.57
406.24	1607.95
406.43	1837.32
406.62	1811.57
406.81	1987.11
407.00	1825.62
407.20	1837.32
407.39	1748.38
407.58	2003.50
407.77	1870.09
407.96	1902.86
408.15	1912.22
408.34	1909.88
408.54	1982.43
408.73	1900.52
408.92	1930.94
409.11	1947.33
409.30	1973.07
409.49	2015.20
409.68	1996.48
409.87	1942.64
410.07	2083.08
410.26	2069.03
410.45	2179.04
410.64	2179.04
410.83	2190.74
411.02	2122.87
411.21	2174.36
411.40	2038.61
411.59	2223.51
411.78	2277.34
411.98	2214.15
412.17	2223.51
412.36	2335.85
412.55	2335.85
412.74	2459.90
412.93	2282.02
413.12	2319.47
413.31	2469.27
413.50	2380.32
413.69	2352.24
413.88	2602.68
414.07	2429.48
414.26	2534.80
414.45	2483.31
414.64	2558.21
414.83	2586.29
415.02	2623.74
415.22	2492.67
415.41	2668.21
415.60	2722.04
415.79	2719.70
415.98	2743.11
416.17	2792.26
416.36	2855.45
416.55	2902.26
416.74	2843.75
416.93	2829.71
417.12	2867.16
417.31	2839.07
417.50	2883.54
417.69	3007.59
417.88	2972.48
418.07	2928.01
418.26	2937.37
418.45	3028.65
418.64	3248.66
418.83	3091.85
419.02	3016.95
419.21	3185.47
419.39	3066.10
419.58	3155.04
419.77	3101.21
419.96	3089.51
420.15	3150.36
420.34	3098.87
420.53	3133.98
420.72	3150.36
420.91	3302.50
421.10	3272.07
421.29	3421.86
421.48	3281.43
421.67	3389.10
421.86	3206.53
422.05	3243.98
422.24	3393.78
422.43	3368.03
422.61	3365.69
422.80	3391.44
422.99	3407.82
423.18	3419.52
423.37	3496.76
423.56	3426.54
423.75	3361.01
423.94	3410.16
424.13	3187.81
424.32	3218.24
424.50	3468.67
424.69	3487.40
424.88	3391.44
425.07	3447.61
425.26	3517.83
425.45	3454.63
425.64	3421.86
425.83	3417.18
426.01	3585.70
426.20	3574.00
426.39	3562.30
426.58	3529.53
426.77	3468.67
426.96	3604.42
427.15	3506.12
427.33	3520.17
427.52	3585.70
427.71	3695.71
427.90	3651.24
428.09	3623.15
428.28	3688.68
428.46	3688.68
428.65	3705.07
428.84	3796.35
429.03	3822.09
429.22	3808.05
429.40	3819.75
429.59	3796.35
429.78	3772.94
429.97	3681.66
430.16	3772.94
430.34	3899.33
430.53	3894.65
430.72	3962.53
430.91	3889.97
431.10	3810.39
431.28	4032.74
431.47	4053.81
431.66	3995.29
431.85	3999.98
432.03	4105.30
432.22	4180.20
432.41	3995.29
432.60	4102.96
432.79	4070.19
432.97	4198.92
433.16	4271.48
433.35	4074.87
433.54	4095.94
433.72	4334.67
433.91	4266.80
434.10	4210.62
434.28	4266.80
434.47	4306.59
434.66	4477.44
434.85	4168.49
435.03	4346.37
435.22	4273.82
435.41	4596.81
435.59	4561.70
435.78	4458.72
435.97	4594.47
436.16	4423.61
436.34	4552.34
436.53	4540.64
436.72	4554.68
436.90	4601.49
437.09	4608.51
437.28	4517.23
437.46	4533.62
437.65	4582.77
437.84	4786.40
438.02	4645.96
438.21	4734.90
438.40	4592.13
438.58	4723.20
438.77	4727.88
438.96	4746.61
439.14	4856.61
439.33	4971.30
439.52	5008.75
439.70	4980.66
439.89	4912.78
440.08	5036.83
440.26	5060.24
440.45	4889.38
440.63	5179.61
440.82	5198.33
441.01	5074.28
441.19	5294.29
441.38	5193.65
441.57	5350.46
441.75	5359.83
441.94	5542.39
442.12	5418.34
442.31	5387.91
442.50	5502.60
442.68	5460.47
442.87	5387.91
443.05	5549.41
443.24	5572.82
443.43	5523.66
443.61	5556.43
443.80	5696.86
443.98	5455.79
444.17	5408.98
444.35	5600.90
444.54	5558.77
444.73	5596.22
444.91	5771.76
445.10	5535.37
445.28	5593.88
445.47	5764.74
445.65	5668.78
445.84	5933.26
446.02	5785.80
446.21	5867.72
446.39	5746.02
446.58	5914.53
446.77	5659.42
446.95	5638.35
447.14	5645.37
447.32	5937.94
447.51	5849.00
447.69	5776.44
447.88	5764.74
448.06	5865.38
448.25	5968.37
448.43	5935.60
448.62	5895.81
448.80	5757.72
448.99	6031.56
449.17	6022.20
449.36	5935.60
449.54	5846.66
449.73	6225.82
449.91	6101.78
450.10	5982.41
450.28	6193.06
450.46	6235.19
450.65	6108.80
450.83	6345.19
451.02	6104.12
451.20	6342.85
451.39	6296.04
451.57	6361.58
451.76	6218.80
451.94	6291.36
452.13	6244.55
452.31	6399.02
452.49	6218.80
452.68	6314.77
452.86	6502.01
453.05	6415.41
453.23	6441.15
453.42	6380.30
453.60	6462.22
453.78	6518.39
453.97	6504.35
454.15	6347.53
454.34	6494.99
454.52	6586.27
454.70	6740.74
454.89	6649.46
455.07	6703.29
455.26	6705.63
455.44	6710.32
455.62	6633.08
455.81	6754.79
455.99	6773.51
456.17	6754.79
456.36	6775.85
456.54	6977.14
456.73	7178.42
456.91	7171.40
457.09	7145.66
457.28	7152.68
457.46	6984.16
457.64	7190.13
457.83	7059.06
458.01	6892.88
458.19	7297.79
458.38	7279.07
458.56	7183.10
458.74	7073.10
458.93	7136.29
459.11	7215.87
459.29	7459.29
459.48	7363.33
459.66	7435.88
459.84	7386.73
460.03	7428.86
460.21	7335.24
460.39	7370.35
460.57	7482.69
460.76	7492.05
460.94	7520.14
461.12	7644.19
461.31	7597.38
461.49	7473.33
461.67	7611.42
461.85	7728.45
462.04	7784.62
462.22	8231.66
462.40	7808.03
462.59	7889.95
462.77	7747.17
462.95	7765.90
463.13	7634.83
463.32	7843.14
463.50	8032.72
463.68	8081.87
463.86	8030.38
464.05	7779.94
464.23	7894.63
464.41	8053.78
464.59	7889.95
464.78	8231.66
464.96	8149.75
465.14	7981.23
465.32	8154.43
465.50	8131.02
465.69	8297.20
465.87	8109.96
466.05	8276.13
466.23	8194.22
466.41	8376.78
466.60	8428.27
466.78	8163.79
466.96	8210.60
467.14	8140.38
467.32	8304.22
467.51	8400.18
467.69	8210.60
467.87	8360.39
468.05	8280.82
468.23	8437.63
468.41	8456.36
468.60	8418.91
468.78	8669.34
468.96	8589.77
469.14	8578.06
469.32	8767.65
469.50	8533.59
469.69	8840.20
469.87	8879.99
470.05	8837.86
470.23	8917.44
470.41	8936.17
470.59	9088.30
470.77	8844.88
470.95	8840.20
471.14	9025.11
471.32	8697.43
471.50	9231.07
471.68	9294.27
471.86	9266.18
472.04	9273.20
472.22	9287.25
472.40	9149.15
472.58	9179.58
472.77	9338.74
472.95	9572.79
473.13	9717.90
473.31	9483.85
473.49	9568.11
473.67	9535.34
473.85	9701.52
474.03	9844.29
474.21	9902.81
474.39	9923.87
474.57	9806.84
474.75	9837.27
474.93	9956.64
475.12	10043.24
475.30	10099.41
475.48	9987.07
475.66	10157.92
475.84	10167.29
476.02	10335.81
476.20	10473.90
476.38	10696.25
476.56	10726.68
476.74	10663.48
476.92	10614.33
477.10	10642.42
477.28	10927.96
477.46	10918.60
477.64	10965.41
477.82	11253.30
478.00	11419.47
478.18	11105.84
478.36	11131.59
478.54	11328.19
478.72	11400.75
478.90	11407.77
479.08	11580.97
479.26	11817.36
479.44	11810.34
479.62	11676.93
479.80	11957.80
479.98	12259.73
480.16	12535.91
480.34	12046.74
480.52	12339.30
480.70	12243.34
480.88	12358.03
481.06	12442.29
481.24	12437.61
481.41	12568.68
481.59	12929.12
481.77	12856.56
481.95	13053.17
482.13	13275.52
482.31	12833.16
482.49	13575.11
482.67	13537.66
482.85	13771.71
483.03	13666.39
483.21	13757.67
483.39	13879.38
483.57	13785.76
483.74	14204.71
483.92	14129.81
484.10	14017.47
484.28	14764.10
484.46	14724.31
484.64	15208.80
484.82	14441.11
485.00	14562.81
485.18	15030.92
485.35	15419.45
485.53	15105.82
485.71	15213.48
485.89	15484.98
486.07	15484.98
486.25	15857.13
486.43	15756.49
486.61	15889.90
486.78	15815.00
486.96	16339.28
487.14	16292.47
487.32	16341.62
487.50	16475.03
487.68	16622.48
487.85	16966.54
488.03	16936.12
488.21	17130.38
488.39	17348.05
488.57	17282.52
488.75	17523.59
488.92	17579.76
489.10	17738.92
489.28	18017.44
489.46	17916.80
489.64	17858.29
489.81	18422.36
489.99	18302.99
490.17	18235.11
490.35	18672.79
490.53	18705.56
490.70	18988.77
490.88	18932.59
491.06	19056.64
491.24	19232.18
491.41	19110.47
491.59	19215.80
491.77	19353.89
491.95	19475.60
492.13	19733.06
492.30	19768.16
492.48	20093.50
492.66	20240.95
492.84	20086.48
493.01	20372.02
493.19	20336.91
493.37	20393.09
493.54	20662.25
493.72	20905.66
493.90	20903.32
494.08	21027.37
494.25	21060.14
494.43	21102.27
494.61	21411.22
494.79	21441.65
494.96	21411.22
495.14	21647.61
495.32	21689.74
495.49	21881.67
495.67	22160.19
495.85	22630.64
496.02	22045.51
496.20	22635.32
496.38	22565.10
496.55	22745.33
496.73	23082.36
496.91	23293.01
497.09	22742.99
497.26	22930.23
497.44	23009.81
497.62	23346.84
497.79	23768.14
497.97	23807.93
498.14	23831.33
498.32	23772.82
498.50	23976.45
498.67	24060.71
498.85	23779.84
499.03	24322.85
499.20	24126.24
499.38	24212.84
499.56	24467.96
499.73	24524.13
499.91	25083.52
500.08	24826.06
500.26	24584.99
500.44	24800.32
500.61	25144.38
500.79	25324.60
500.97	25270.76
501.14	25436.94
501.32	25591.42
501.49	25600.78
501.67	25748.23
501.84	26092.29
502.02	25972.92
502.20	25991.65
502.37	25830.15
502.55	25998.67
502.72	25937.82
502.90	26651.68
503.07	26242.09
503.25	26609.55
503.43	25930.80
503.60	26717.22
503.78	26735.94
503.95	26775.73
504.13	26494.86
504.30	27197.02
504.48	26801.47
504.65	27112.77
504.83	27260.22
505.01	27269.58
505.18	27168.94
505.36	27655.77
505.53	27683.86
505.71	27484.91
505.88	27861.74
506.06	27740.03
506.23	27910.89
506.41	27857.06
506.58	27946.00
506.76	28027.92
506.93	28257.29
507.11	28381.34
507.28	28596.67
507.46	28425.81
507.63	28734.76
507.81	28732.42
507.98	28514.75
508.16	28851.78
508.33	28767.52
508.50	28982.85
508.68	29125.63
508.85	29057.75
509.03	29125.63
509.20	29209.89
509.38	29546.92
509.55	29811.40
509.73	29635.86
509.90	30057.16
510.08	29659.27
510.25	30080.56
510.42	29916.73
510.60	29947.15
510.77	30403.56
510.95	30302.92
511.12	30246.74
511.30	30078.22
511.47	30221.00
511.64	30373.13
511.82	30852.94
511.99	30738.26
512.17	30569.74
512.34	30799.11
512.51	31002.74
512.69	31185.30
512.86	30986.35
513.04	31496.59
513.21	31534.04
513.38	31054.23
513.56	31587.87
513.73	31316.37
513.90	31761.07
514.08	31543.40
514.25	32025.55
514.43	32063.00
514.60	31812.56
514.77	32119.17
514.95	32135.56
515.12	32025.55
515.29	31985.76
515.47	32332.16
515.64	32173.00
515.81	32158.96
515.99	32486.64
516.16	32870.48
516.33	32561.53
516.51	33074.11
516.68	32561.53
516.85	32442.17
517.03	32807.29
517.20	33331.57
517.37	32601.32
517.54	33158.37
517.72	33179.43
517.89	33256.67
518.06	33151.35
518.24	33209.86
518.41	33780.95
518.58	33624.14
518.75	33376.04
518.93	33577.33
519.10	33865.21
519.27	33745.84
519.45	33909.68
519.62	34129.69
519.79	34352.04
519.96	34422.26
520.14	34424.60
520.31	33771.59
520.48	34106.29
520.65	34260.76
520.83	34398.85
521.00	34810.79
521.17	34553.33
521.34	34871.64
521.52	34951.22
521.69	34820.15
521.86	34803.77
522.03	35253.15
522.20	35255.49
522.38	35562.10
522.55	35587.85
522.72	35122.08
522.89	35323.36
523.07	35737.64
523.24	35379.54
523.41	35903.82
523.58	35358.47
523.75	36100.42
523.92	35225.06
524.10	36058.29
524.27	36165.96
524.44	35922.54
524.61	36212.77
524.78	36463.21
524.96	36222.13
525.13	36341.50
525.30	36645.77
525.47	36598.96
525.64	36481.93
525.81	36907.91
525.98	36449.16
526.16	36732.37
526.33	36671.51
526.50	37191.11
526.67	36833.01
526.84	37324.52
527.01	37165.37
527.18	37177.07
527.36	37324.52
527.53	36973.44
527.70	37460.27
527.87	37841.78
528.04	37490.70
528.21	37441.55
528.38	37202.82
528.55	38183.50
528.72	37631.13
528.89	37333.89
529.07	37167.71
529.24	37617.09
529.41	37923.70
529.58	37558.58
529.75	37347.93
529.92	37652.20
530.09	38000.94
530.26	38181.16
530.43	38323.93
530.60	38078.18
530.77	37900.29
530.94	38323.93
531.11	38206.90
531.28	38281.80
531.46	38958.22
531.63	38719.48
531.80	38677.35
531.97	39012.05
532.14	38651.61
532.31	38543.94
532.48	38895.02
532.65	38785.02
532.82	38445.64
532.99	38747.57
533.16	38719.48
533.33	39182.91
533.50	39145.46
533.67	39210.99
533.84	39026.09
534.01	39199.29
534.18	39098.65
534.35	39454.41
534.52	39229.72
534.69	39807.83
534.86	39777.40
535.03	39112.69
535.20	39903.79
535.37	39498.88
535.54	39964.65
535.71	39676.76
535.88	40009.12
536.05	39859.32
536.22	39536.33
536.38	39974.01
536.55	40512.33
536.72	39739.96
536.89	40158.91
537.06	39882.73
537.23	40371.90
537.40	40395.31
537.57	40219.77
537.74	40289.98
537.91	40648.08
538.08	40320.41
538.25	40718.30
538.42	40332.11
538.59	40931.29
538.75	40797.88
538.92	40746.39
539.09	40718.30
539.26	40840.01
539.43	41036.61
539.60	40917.25
539.77	40975.76
539.94	41478.97
540.11	41418.12
540.28	41612.38
540.44	40861.07
540.61	41186.41
540.78	41308.11
540.95	40968.74
541.12	41523.44
541.29	41006.19
541.46	41317.48
541.62	41628.77
541.79	41818.35
541.96	41221.52
542.13	41397.06
542.30	41883.89
542.47	41588.98
542.63	41776.22
542.80	42064.11
542.97	42405.83
543.14	42300.50
543.31	42368.38
543.48	42263.05
543.64	42827.12
543.81	42457.32
543.98	42354.33
544.15	42183.48
544.32	42543.92
544.48	43051.81
544.65	42567.32
544.82	42651.58
544.99	42384.76
545.16	42483.06
545.32	42454.98
545.49	42726.48
545.66	43019.05
545.83	42871.59
546.00	43379.49
546.16	42934.79
546.33	43042.45
546.50	42916.06
546.67	43463.75
546.83	42672.65
547.00	43360.76
547.17	42969.90
547.34	43302.25
547.50	43124.37
547.67	43634.61
547.84	43306.93
548.00	43496.52
548.17	43643.97
548.34	43938.88
548.51	43641.63
548.67	43896.75
548.84	43700.14
549.01	43660.35
549.18	43742.27
549.34	43929.51
549.51	44332.09
549.68	43948.24
549.84	43871.00
550.01	44067.61
550.18	44278.25
550.34	43784.40
550.51	43973.98
550.68	44210.38
550.84	43866.32
551.01	44409.32
551.18	44151.87
551.34	43995.05
551.51	44201.02
551.68	44121.44
551.84	44369.54
552.01	44109.74
552.18	44163.57
552.34	44116.76
552.51	44296.98
552.68	44444.43
552.84	44329.75
553.01	44790.83
553.18	44636.36
553.34	44516.99
553.51	44720.62
553.67	44542.74
553.84	44942.97
554.01	44701.89
554.17	44921.90
554.34	45050.63
554.51	44488.90
554.67	44893.82
554.84	45263.62
555.00	45064.67
555.17	45280.00
555.33	45074.04
555.50	44788.49
555.67	45104.46
555.83	45057.65
556.00	45212.13
556.16	45549.17
556.33	45565.55
556.50	45462.57
556.66	45148.93
556.83	44924.24
556.99	45935.35
557.16	45460.23
557.32	45626.40
557.49	45469.59
557.65	45434.48
557.82	45495.33
557.98	45584.27
558.15	45549.17
558.32	45677.90
558.48	45333.84
558.65	45743.43
558.81	45663.85
558.98	45677.90
559.14	45813.65
559.31	45942.38
559.47	45532.78
559.64	46096.85
559.80	45558.53
559.97	45979.82
560.13	45387.67
560.30	45757.47
560.46	46143.66
560.63	46349.63
560.79	46267.71
560.96	46501.76
561.12	46176.43
561.29	46653.90
561.45	46183.45
561.61	46230.26
561.78	46396.44
561.94	45961.10
562.11	45895.56
562.27	46120.26
562.44	46026.63
562.60	46333.24
562.77	46504.10
562.93	45886.20
563.10	46508.79
563.26	45801.94
563.42	46909.02
563.59	46403.46
563.75	46146.00
563.92	46330.90
564.08	46403.46
564.24	46639.86
564.41	46555.60
564.57	46358.99
564.74	46412.82
564.90	46632.83
565.07	46335.59
565.23	46185.79
565.39	46550.91
565.56	46595.38
565.72	46759.22
565.88	46611.77
566.05	46653.90
566.21	47023.70
566.38	46667.94
566.54	46635.17
566.70	46824.76
566.87	46880.93
567.03	46511.13
567.19	47004.98
567.36	46808.37
567.52	47040.09
567.68	47100.94
567.85	46885.61
568.01	47189.88
568.17	46829.44
568.34	47288.18
568.50	47220.31
568.66	46703.05
568.83	46925.40
568.99	46822.42
569.15	47086.90
569.32	46602.41
569.48	46801.35
569.64	47089.24
569.81	47180.52
569.97	47292.86
570.13	46941.78
570.30	46731.14
570.46	47173.50
570.62	46925.40
570.78	47131.37
570.95	46850.50
571.11	47126.69
571.27	47309.25
571.43	46944.12
571.60	46887.95
571.76	46906.68
571.92	46820.08
572.09	46979.23
572.25	46951.15
572.41	47051.79
572.57	47159.45
572.74	47777.36
572.90	47129.03
573.06	47299.89
573.22	47522.24
573.38	48016.09
573.55	47070.51
573.71	47676.71
573.87	47538.62
574.03	47035.41
574.20	47543.30
574.36	47407.55
574.52	47201.58
574.68	47386.49
574.84	47264.78
575.01	47505.85
575.17	47224.99
575.33	47564.37
575.49	46871.57
575.65	47758.63
575.82	47430.96
575.98	47351.38
576.14	48016.09
576.30	47437.98
576.46	47274.14
576.62	47559.69
576.79	47526.92
576.95	47416.91
577.11	46857.52
577.27	47482.45
577.43	47426.28
577.59	47323.29
577.75	47278.82
577.92	47264.78
578.08	47100.94
578.24	47337.33
578.40	48074.60
578.56	47852.25
578.72	47798.42
578.88	47760.97
579.04	47196.90
579.21	47538.62
579.37	47887.36
579.53	47409.89
579.69	47587.77
579.85	47283.50
580.01	47569.05
580.17	47529.26
580.33	47676.71
580.49	47746.93
580.65	47973.96
580.82	47337.33
580.98	47660.33
581.14	47597.13
581.30	47791.40
581.46	47086.90
581.62	47407.55
581.78	47473.09
581.94	47859.27
582.10	47461.38
582.26	47732.89
582.42	47592.45
582.58	47540.96
582.74	48154.18
582.90	47683.73
583.06	48339.08
583.22	47477.77
583.38	47861.61
583.54	47735.23
583.70	47824.17
583.86	47756.29
584.02	47672.03
584.18	48353.13
584.34	47716.50
584.50	47657.99
584.66	48154.18
584.82	48151.84
584.98	47936.51
585.14	48100.35
585.30	47821.83
585.46	47913.11
585.62	47786.72
585.78	47760.97
585.94	47648.63
586.10	47777.36
586.26	47562.03
586.42	47840.55
586.58	47852.25
586.74	48105.03
586.90	47667.35
587.06	48158.86
587.22	47870.98
587.38	47461.38
587.54	47767.99
587.70	48109.71
587.86	48025.45
588.02	48032.47
588.18	47969.28
588.34	47784.38
588.49	48079.28
588.65	48065.24
588.81	47962.26
588.97	48264.19
589.13	48034.81
589.29	47922.47
589.45	48076.94
589.61	47859.27
589.77	48254.82
589.93	47922.47
590.08	48147.16
