SpectraSuite Data File
++++++++++++++++++++++++++++++++++++
Date: Fri Oct 25 10:43:27 EDT 2013
User: price-jones
Dark Spectrum Present: No
Reference Spectrum Present: No
Number of Sampled Component Spectra: 1
Spectrometers: USB2+H05261
Integration Time (usec): 100000 (USB2+H05261)
Spectra Averaged: 1 (USB2+H05261)
Boxcar Smoothing: 0 (USB2+H05261)
Correct for Electrical Dark: No (USB2+H05261)
Strobe/Lamp Enabled: No (USB2+H05261)
Correct for Detector Non-linearity: No (USB2+H05261)
Correct for Stray Light: No (USB2+H05261)
Number of Pixels in Processed Spectrum: 2048
>>>>>Begin Processed Spectral Data<<<<<
365.73	88.94
365.92	88.94
366.12	88.94
366.32	56.17
366.52	0.00
366.72	0.00
366.91	23.41
367.11	9.36
367.31	0.00
367.51	44.47
367.70	0.00
367.90	18.72
368.10	16.38
368.30	39.79
368.49	0.00
368.69	56.17
368.89	46.81
369.09	25.75
369.28	35.11
369.48	0.00
369.68	112.35
369.87	161.50
370.07	93.62
370.27	107.66
370.47	154.48
370.66	395.55
370.86	404.91
371.06	421.30
371.25	496.19
371.45	440.02
371.65	491.51
371.84	428.32
372.04	484.49
372.24	479.81
372.44	411.93
372.63	535.98
372.83	540.66
373.03	449.38
373.22	526.62
373.42	463.43
373.62	538.32
373.81	585.13
374.01	489.17
374.21	503.22
374.40	479.81
374.60	479.81
374.79	514.92
374.99	561.73
375.19	531.30
375.38	592.16
375.58	561.73
375.78	594.50
375.97	575.77
376.17	643.65
376.37	533.64
376.56	603.86
376.76	636.63
376.95	624.92
377.15	615.56
377.35	575.77
377.54	688.12
377.74	636.63
377.93	662.37
378.13	573.43
378.33	641.31
378.52	622.58
378.72	697.48
378.91	685.78
379.11	620.24
379.31	617.90
379.50	599.18
379.70	662.37
379.89	667.05
380.09	653.01
380.28	660.03
380.48	669.39
380.68	660.03
380.87	692.80
381.07	667.05
381.26	702.16
381.46	734.93
381.65	650.67
381.85	634.29
382.04	631.94
382.24	718.54
382.43	704.50
382.63	706.84
382.83	662.37
383.02	695.14
383.22	716.20
383.41	706.84
383.61	763.01
383.80	699.82
384.00	711.52
384.19	695.14
384.39	777.06
384.58	819.19
384.78	809.83
384.97	788.76
385.17	835.57
385.36	795.78
385.56	772.38
385.75	828.55
385.95	814.51
386.14	835.57
386.34	856.64
386.53	774.72
386.72	741.95
386.92	858.98
387.11	894.08
387.31	842.59
387.50	826.21
387.70	917.49
387.89	875.36
388.09	840.25
388.28	903.45
388.48	858.98
388.67	912.81
388.86	933.87
389.06	961.96
389.25	1050.90
389.45	954.94
389.64	868.34
389.84	889.40
390.03	1013.45
390.22	1048.56
390.42	1034.52
390.61	905.79
390.81	1142.18
391.00	1022.81
391.19	1121.12
391.39	976.00
391.58	997.07
391.78	1076.65
391.97	1067.28
392.16	999.41
392.36	1004.09
392.55	1015.79
392.75	1008.77
392.94	922.17
393.13	990.05
393.33	968.98
393.52	1048.56
393.71	1034.52
393.91	1139.84
394.10	1111.75
394.29	1174.95
394.49	1123.46
394.68	1107.07
394.88	1128.14
395.07	1296.66
395.26	1266.23
395.46	1165.59
395.65	1193.67
395.84	1184.31
396.04	1203.04
396.23	1107.07
396.42	1118.78
396.62	1177.29
396.81	1179.63
397.00	1210.06
397.19	1219.42
397.39	1261.55
397.58	1287.29
397.77	1310.70
397.97	1437.09
398.16	1315.38
398.35	1451.13
398.55	1418.36
398.74	1376.24
398.93	1500.28
399.12	1427.73
399.32	1495.60
399.51	1504.96
399.70	1568.16
399.90	1589.22
400.09	1554.12
400.28	1633.69
400.47	1549.43
400.67	1523.69
400.86	1556.46
401.05	1593.90
401.24	1563.48
401.44	1619.65
401.63	1708.59
401.82	1689.87
402.01	1614.97
402.21	1713.27
402.40	1645.40
402.59	1750.72
402.78	1661.78
402.97	1682.85
403.17	1748.38
403.36	1781.15
403.55	1757.74
403.74	1792.85
403.93	1823.28
404.13	1783.49
404.32	1778.81
404.51	1755.40
404.70	1879.45
404.89	1806.89
405.09	1923.92
405.28	1877.11
405.47	2008.18
405.66	1944.99
405.85	2029.24
406.05	2010.52
406.24	1975.41
406.43	2043.29
406.62	2019.88
406.81	2108.82
407.00	2012.86
407.20	2017.54
407.39	2019.88
407.58	2122.87
407.77	2099.46
407.96	2186.06
408.15	2069.03
408.34	2172.02
408.54	2326.49
408.73	2235.21
408.92	2179.04
409.11	2286.70
409.30	2221.17
409.49	2211.81
409.68	2279.68
409.87	2239.89
410.07	2202.44
410.26	2401.39
410.45	2469.27
410.64	2377.98
410.83	2385.01
411.02	2438.84
411.21	2532.46
411.40	2492.67
411.59	2565.23
411.78	2605.02
411.98	2506.71
412.17	2497.35
412.36	2633.10
412.55	2663.53
412.74	2658.85
412.93	2803.96
413.12	2745.45
413.31	2846.09
413.50	2925.67
413.69	2668.21
413.88	2864.82
414.07	2848.43
414.26	2920.99
414.45	2963.12
414.64	2946.73
414.83	3070.78
415.02	2920.99
415.22	2953.76
415.41	3056.74
415.60	3173.77
415.79	3061.42
415.98	3232.28
416.17	3108.23
416.36	3066.10
416.55	3234.62
416.74	3255.69
416.93	3213.56
417.12	3194.83
417.31	3384.41
417.50	3248.66
417.69	3478.04
417.88	3431.23
418.07	3365.69
418.26	3375.05
418.45	3318.88
418.64	3552.93
418.83	3510.80
419.02	3569.32
419.21	3414.84
419.39	3438.25
419.58	3449.95
419.77	3454.63
419.96	3634.85
420.15	3588.04
420.34	3782.31
420.53	3709.75
420.72	3763.58
420.91	3810.39
421.10	3676.98
421.29	3810.39
421.48	3728.47
421.67	3742.52
421.86	3765.92
422.05	3754.22
422.24	3604.42
422.43	3737.84
422.61	3866.56
422.80	3831.46
422.99	3826.78
423.18	3826.78
423.37	3894.65
423.56	3775.28
423.75	3850.18
423.94	3840.82
424.13	3653.58
424.32	3686.34
424.50	3943.80
424.69	3796.35
424.88	4102.96
425.07	3962.53
425.26	3789.33
425.45	3840.82
425.64	3964.87
425.83	3735.50
426.01	3950.82
426.20	3875.93
426.39	3833.80
426.58	3925.08
426.77	3868.91
426.96	3859.54
427.15	4091.26
427.33	3929.76
427.52	3889.97
427.71	4030.40
427.90	4128.70
428.09	4184.88
428.28	4070.19
428.46	4004.66
428.65	4023.38
428.84	4145.09
429.03	4201.26
429.22	4224.67
429.40	4095.94
429.59	4095.94
429.78	3824.44
429.97	3967.21
430.16	3885.29
430.34	4065.51
430.53	4074.87
430.72	4205.94
430.91	4133.39
431.10	4299.56
431.28	4493.83
431.47	4573.41
431.66	4554.68
431.85	4472.76
432.03	4472.76
432.22	4421.27
432.41	4606.17
432.60	4624.90
432.79	4746.61
432.97	4765.33
433.16	4788.74
433.35	4517.23
433.54	4613.20
433.72	4521.92
433.91	4599.15
434.10	4592.13
434.28	4638.94
434.47	4781.71
434.66	4870.65
434.85	4938.53
435.03	4938.53
435.22	4994.70
435.41	5043.85
435.59	5156.20
435.78	4933.85
435.97	5107.05
436.16	4973.64
436.34	5043.85
436.53	5039.17
436.72	5088.32
436.90	5071.94
437.09	5144.50
437.28	5020.45
437.46	5093.01
437.65	5130.45
437.84	5064.92
438.02	5095.35
438.21	5184.29
438.40	5053.22
438.58	5179.61
438.77	5282.59
438.96	5282.59
439.14	5493.24
439.33	5523.66
439.52	5483.88
439.70	5537.71
439.89	5731.97
440.08	5638.35
440.26	5652.39
440.45	5472.17
440.63	5694.52
440.82	5914.53
441.01	5755.38
441.19	5998.79
441.38	6052.63
441.57	6148.59
441.75	6050.28
441.94	6195.40
442.12	6235.19
442.31	6265.61
442.50	6024.54
442.68	6230.51
442.87	6249.23
443.05	6258.59
443.24	6326.47
443.43	6286.68
443.61	6211.78
443.80	6560.52
443.98	6146.25
444.17	6090.07
444.35	6291.36
444.54	6300.72
444.73	6382.64
444.91	6380.30
445.10	6267.95
445.28	6267.95
445.47	6399.02
445.65	6286.68
445.84	6277.32
446.02	6502.01
446.21	6392.00
446.39	6291.36
446.58	6520.73
446.77	6532.44
446.95	6443.49
447.14	6677.55
447.32	6614.35
447.51	6600.31
447.69	6574.56
447.88	6562.86
448.06	6621.38
448.25	6548.82
448.43	6544.14
448.62	6546.48
448.80	6686.91
448.99	6778.19
449.17	6663.51
449.36	6546.48
449.54	6745.42
449.73	6867.13
449.91	6871.81
450.10	7117.57
450.28	7040.33
450.46	7063.74
450.65	7014.59
450.83	6965.43
451.02	6988.84
451.20	7267.36
451.39	7260.34
451.57	7049.69
451.76	7089.48
451.94	6993.52
452.13	7183.10
452.31	7115.23
452.49	7063.74
452.68	7056.72
452.86	6951.39
453.05	7103.53
453.23	7201.83
453.42	7208.85
453.60	7037.99
453.78	7272.04
453.97	7260.34
454.15	7173.74
454.34	7300.13
454.52	7478.01
454.70	7342.26
454.89	7447.58
455.07	7604.40
455.26	7602.06
455.44	7391.41
455.62	7683.98
455.81	7494.40
455.99	7618.44
456.17	7772.92
456.36	7763.56
456.54	7777.60
456.73	7918.03
456.91	7882.92
457.09	7911.01
457.28	8091.23
457.46	7953.14
457.64	7901.65
457.83	8006.97
458.01	7929.74
458.19	8030.38
458.38	8002.29
458.56	8126.34
458.74	8238.69
458.93	7925.05
459.11	8065.49
459.29	7997.61
459.48	8196.56
459.66	8376.78
459.84	8128.68
460.03	8327.63
460.21	8461.04
460.39	8526.57
460.57	8432.95
460.76	8381.46
460.94	8716.16
461.12	8430.61
461.31	8538.27
461.49	8446.99
461.67	8374.44
461.85	8610.83
462.04	8596.79
462.22	9116.39
462.40	8856.59
462.59	8821.48
462.77	8674.03
462.95	8762.97
463.13	8699.77
463.32	8884.67
463.50	8945.53
463.68	8854.25
463.86	8709.13
464.05	8615.51
464.23	8765.31
464.41	8889.35
464.59	8711.47
464.78	9135.11
464.96	8901.06
465.14	8826.16
465.32	8987.66
465.50	8936.17
465.69	9238.09
465.87	9043.83
466.05	8982.98
466.23	8950.21
466.41	9050.85
466.60	9289.59
466.78	9149.15
466.96	9078.94
467.14	9301.29
467.32	9357.46
467.51	9294.27
467.69	9184.26
467.87	9163.20
468.05	9415.98
468.23	9280.22
468.41	9528.32
468.60	9146.81
468.78	9593.86
468.96	9488.53
469.14	9277.88
469.32	9542.36
469.50	9350.44
469.69	9254.48
469.87	9614.92
470.05	9738.97
470.23	9774.08
470.41	9624.28
470.59	9507.26
470.77	9848.97
470.95	9755.35
471.14	9682.80
471.32	9783.44
471.50	10218.78
471.68	10108.77
471.86	10127.50
472.04	10221.12
472.22	10347.51
472.40	10085.37
472.58	10274.95
472.77	10188.35
472.95	10530.07
473.13	10724.33
473.31	10361.55
473.49	10333.47
473.67	10466.88
473.85	10518.37
474.03	10867.11
474.21	10815.62
474.39	10897.53
474.57	10740.72
474.75	11028.60
474.93	11145.63
475.12	11108.18
475.30	11164.36
475.48	11201.80
475.66	11307.13
475.84	11290.74
476.02	11515.44
476.20	11393.73
476.38	11339.90
476.56	11485.01
476.74	11653.53
476.92	11808.00
477.10	11737.79
477.28	11955.46
477.46	12025.67
477.64	12032.69
477.82	12142.70
478.00	12500.80
478.18	12280.79
478.36	12278.45
478.54	12542.93
478.72	12634.21
478.90	12706.77
479.08	12891.67
479.26	12894.01
479.44	13362.12
479.62	13027.42
479.80	13048.49
479.98	12959.55
480.16	13568.09
480.34	13301.26
480.52	13652.34
480.70	13640.64
480.88	13303.60
481.06	13385.52
481.24	13841.93
481.41	13799.80
481.59	14193.01
481.77	14120.45
481.95	14164.92
482.13	14413.02
482.31	14256.20
482.49	14885.81
482.67	14487.92
482.85	14944.32
483.03	14759.42
483.21	15005.17
483.39	14991.13
483.57	15115.18
483.74	15314.13
483.92	15590.31
484.10	15616.05
484.28	15569.24
484.46	15744.78
484.64	16079.48
484.82	15871.17
485.00	15882.88
485.18	16219.91
485.35	16484.39
485.53	15999.90
485.71	15803.30
485.89	16088.84
486.07	16311.19
486.25	16339.28
486.43	16634.19
486.61	16884.62
486.78	16884.62
486.96	17144.42
487.14	17451.03
487.32	17610.19
487.50	17762.33
487.68	17820.84
487.85	18054.89
488.03	18347.46
488.21	18122.77
488.39	18457.46
488.57	18593.22
488.75	18677.48
488.92	18993.45
489.10	19124.52
489.28	19323.46
489.46	19154.94
489.64	19199.41
489.81	19690.93
489.99	19878.17
490.17	20020.94
490.35	20119.24
490.53	20091.16
490.70	20231.59
490.88	20411.81
491.06	20573.31
491.24	20418.83
491.41	20116.90
491.59	20493.73
491.77	20510.11
491.95	20819.07
492.13	20978.22
492.30	21249.72
492.48	21158.44
492.66	21500.16
492.84	21350.37
493.01	22040.82
493.19	21710.81
493.37	22017.42
493.54	22052.53
493.72	22097.00
493.90	22368.50
494.08	22391.91
494.25	22794.48
494.43	22820.22
494.61	23133.86
494.79	23185.35
494.96	23030.87
495.14	23442.81
495.32	23494.30
495.49	23435.78
495.67	23508.34
495.85	23981.13
496.02	23983.47
496.20	23847.72
496.38	23955.38
496.55	24573.28
496.73	24624.78
496.91	24311.14
497.09	24680.95
497.26	24505.41
497.44	24638.82
497.62	24793.29
497.79	25427.58
497.97	24769.89
498.14	25081.18
498.32	25343.32
498.50	25167.78
498.67	25860.58
498.85	25476.73
499.03	25804.41
499.20	25752.91
499.38	25928.45
499.56	25804.41
499.73	25979.95
499.91	25972.92
500.08	26064.21
500.26	25956.54
500.44	26373.16
500.61	26223.36
500.79	25860.58
500.97	26752.32
501.14	26663.38
501.32	26529.97
501.49	26700.83
501.67	26604.87
501.84	26925.52
502.02	27164.26
502.20	27089.36
502.37	27644.07
502.55	27414.69
502.72	27655.77
502.90	27676.83
503.07	27735.35
503.25	27693.22
503.43	27573.85
503.60	27793.86
503.78	27798.54
503.95	27791.52
504.13	27981.10
504.30	28369.63
504.48	28472.62
504.65	28430.49
504.83	28797.95
505.01	28393.04
505.18	28610.71
505.36	28982.85
505.53	28711.35
505.71	28879.87
505.88	29289.46
506.06	29376.06
506.23	29593.73
506.41	29022.64
506.58	29263.72
506.76	29392.45
506.93	29670.97
507.11	29415.85
507.28	29937.79
507.46	29738.85
507.63	29558.63
507.81	30110.99
507.98	30080.56
508.16	29790.34
508.33	30382.49
508.50	30178.87
508.68	30480.80
508.85	30895.07
509.03	30731.23
509.20	30705.49
509.38	30902.09
509.55	30944.22
509.73	31318.71
509.90	30995.71
510.08	31166.57
510.25	31204.02
510.42	31105.72
510.60	31651.06
510.77	31463.82
510.95	31915.54
511.12	31112.74
511.30	31426.37
511.47	31831.29
511.64	31964.70
511.82	32215.13
511.99	31669.79
512.17	31744.69
512.34	31632.34
512.51	32173.00
512.69	32280.67
512.86	32002.14
513.04	32444.51
513.21	32240.88
513.38	32205.77
513.56	32369.61
513.73	32027.89
513.90	32437.48
514.08	32659.84
514.25	32865.80
514.43	32734.73
514.60	32809.63
514.77	32535.79
514.95	33193.48
515.12	32830.69
515.29	33020.28
515.47	33584.35
515.64	33472.00
515.81	33670.95
515.99	33626.48
516.16	33191.14
516.33	33186.46
516.51	33268.37
516.68	32917.29
516.85	33134.96
517.03	32753.46
517.20	33673.29
517.37	34129.69
517.54	34429.28
517.72	33867.55
517.89	33530.51
518.06	33457.96
518.24	33696.69
518.41	34075.86
518.58	33984.58
518.75	34476.09
518.93	34305.23
519.10	34862.28
519.27	34497.16
519.45	34663.33
519.62	34314.59
519.79	34391.83
519.96	35023.78
520.14	34939.52
520.31	34665.67
520.48	34810.79
520.65	35058.88
520.83	35576.14
521.00	35405.28
521.17	35302.30
521.34	35611.25
521.52	35475.50
521.69	36105.10
521.86	35800.83
522.03	35903.82
522.20	35690.83
522.38	35700.19
522.55	36177.66
522.72	36236.17
522.89	36039.57
523.07	36297.03
523.24	36254.90
523.41	36444.48
523.58	36392.99
523.75	36704.28
523.92	36603.64
524.10	36865.78
524.27	36914.93
524.44	36903.23
524.61	37015.57
524.78	36802.58
524.96	36954.72
525.13	37085.79
525.30	37291.76
525.47	37322.18
525.64	36875.14
525.81	37144.30
525.98	36790.88
526.16	37123.24
526.33	36762.79
526.50	37163.03
526.67	36638.75
526.84	36699.60
527.01	36481.93
527.18	37280.05
527.36	37542.19
527.53	37724.75
527.70	38319.25
527.87	37757.52
528.04	38045.41
528.21	37809.01
528.38	38043.07
528.55	38134.35
528.72	38696.08
528.89	38616.50
529.07	38171.80
529.24	38319.25
529.41	38532.24
529.58	38146.05
529.75	38309.89
529.92	38630.54
530.09	38712.46
530.26	38726.50
530.43	38653.95
530.60	38473.73
530.77	38595.43
530.94	39168.87
531.11	38871.62
531.28	38731.18
531.46	38675.01
531.63	38974.60
531.80	38810.76
531.97	39133.76
532.14	39049.50
532.31	38511.17
532.48	39288.23
532.65	39138.44
532.82	38934.81
532.99	39351.43
533.16	39555.05
533.33	39178.23
533.50	40013.80
533.67	39306.96
533.84	39370.15
534.01	39955.29
534.18	39213.34
534.35	39658.04
534.52	39807.83
534.69	39606.55
534.86	39934.22
535.03	39810.17
535.20	40048.91
535.37	40053.59
535.54	40257.21
535.71	40023.16
535.88	40135.51
536.05	40208.06
536.22	40236.15
536.38	40091.04
536.55	40327.43
536.72	40245.51
536.89	39873.37
537.06	40353.18
537.23	40849.37
537.40	40727.66
537.57	40762.77
537.74	40137.85
537.91	41174.70
538.08	40935.97
538.25	40603.61
538.42	40832.99
538.59	41062.36
538.75	40708.94
538.92	40727.66
539.09	41074.06
539.26	40903.20
539.43	40669.15
539.60	41261.30
539.77	40563.82
539.94	41067.04
540.11	40631.70
540.28	41146.62
540.44	41254.28
540.61	40807.24
540.78	40641.06
540.95	41076.40
541.12	41008.53
541.29	41675.58
541.46	41577.28
541.62	41687.28
541.79	41308.11
541.96	41170.02
542.13	41331.52
542.30	41102.15
542.47	41500.04
542.63	41436.84
542.80	41881.55
542.97	42225.60
543.14	42115.60
543.31	42249.01
543.48	42169.43
543.64	42263.05
543.81	42618.81
543.98	42064.11
544.15	42349.65
544.32	42464.34
544.48	42443.27
544.65	42319.23
544.82	42756.91
544.99	42129.64
545.16	42593.07
545.32	42361.36
545.49	42801.38
545.66	42604.77
545.83	42880.95
546.00	42817.76
546.16	42405.83
546.33	42188.16
546.50	42368.38
546.67	42710.10
546.83	42148.37
547.00	42749.88
547.17	42714.78
547.34	42096.88
547.50	42850.53
547.67	42880.95
547.84	43185.22
548.00	42887.98
548.17	43126.71
548.34	43159.48
548.51	43618.22
548.67	43339.70
548.84	42979.26
549.01	42817.76
549.18	43255.44
549.34	43543.33
549.51	43030.75
549.68	43239.06
549.84	43058.84
550.01	43480.13
550.18	43255.44
550.34	43253.10
550.51	43173.52
550.68	43440.34
550.84	43098.62
551.01	43749.29
551.18	43445.02
551.34	43161.82
551.51	43889.73
551.68	43732.91
551.84	43597.16
552.01	43505.88
552.18	43573.75
552.34	43473.11
552.51	43936.54
552.68	43372.47
552.84	44081.65
553.01	44154.21
553.18	43924.83
553.34	43814.83
553.51	43983.35
553.67	44034.84
553.84	44194.00
554.01	44364.85
554.17	44037.18
554.34	44025.48
554.51	44528.69
554.67	44636.36
554.84	44224.42
555.00	44381.24
555.17	44392.94
555.33	44236.12
555.50	44222.08
555.67	44172.93
555.83	44311.02
556.00	44437.41
556.16	44582.52
556.33	44299.32
556.50	44641.04
556.66	44395.28
556.83	43981.01
556.99	44575.50
557.16	44322.72
557.32	44657.42
557.49	44533.37
557.65	44411.67
557.82	44704.23
557.98	44566.14
558.15	45022.54
558.32	44837.64
558.48	44060.58
558.65	44825.94
558.81	44844.66
558.98	44561.46
559.14	44357.83
559.31	44683.17
559.47	44598.91
559.64	44818.92
559.80	44732.32
559.97	44734.66
560.13	44875.09
560.30	44683.17
560.46	44793.17
560.63	44900.84
560.79	44666.78
560.96	44898.50
561.12	44648.06
561.29	44671.46
561.45	44931.26
561.61	44746.36
561.78	44844.66
561.94	45071.70
562.11	44940.63
562.27	44568.48
562.44	45029.57
562.60	45148.93
562.77	45095.10
562.93	45230.85
563.10	45411.07
563.26	45067.02
563.42	45104.46
563.59	44905.52
563.75	45050.63
563.92	45303.41
564.08	45336.18
564.24	45380.65
564.41	45170.00
564.57	45078.72
564.74	45088.08
564.90	45521.08
565.07	45139.57
565.23	45294.05
565.39	44861.05
565.56	45020.20
565.72	44973.39
565.88	44825.94
566.05	44788.49
566.21	44711.25
566.38	45392.35
566.54	45235.53
566.70	45544.48
566.87	45577.25
567.03	45390.01
567.19	45600.66
567.36	45497.67
567.52	45361.92
567.68	45694.28
567.85	45275.32
568.01	44779.13
568.17	45291.71
568.34	45415.76
568.50	45565.55
568.66	45439.16
568.83	45102.12
568.99	45523.42
569.15	45427.46
569.32	45453.20
569.48	45144.25
569.64	45464.91
569.81	45111.49
569.97	45230.85
570.13	45415.76
570.30	44849.35
570.46	45029.57
570.62	45022.54
570.78	45151.27
570.95	45052.97
571.11	45497.67
571.27	45382.99
571.43	45467.25
571.60	45289.37
571.76	45701.30
571.92	45404.05
572.09	45507.04
572.25	45469.59
572.41	45387.67
572.57	45806.62
572.74	45755.13
572.90	45572.57
573.06	45404.05
573.22	45607.68
573.38	45621.72
573.55	45378.31
573.71	45811.31
573.87	45848.75
574.03	45406.39
574.20	45375.97
574.36	45633.42
574.52	45535.12
574.68	45399.37
574.84	45460.23
575.01	45741.09
575.17	45308.09
575.33	45682.58
575.49	45031.91
575.65	45853.44
575.82	45918.97
575.98	45399.37
576.14	45968.12
576.30	45705.98
576.46	45467.25
576.62	45172.34
576.79	45595.98
576.95	45350.22
577.11	45497.67
577.27	45617.04
577.43	45429.80
577.59	45265.96
577.75	45691.94
577.92	45600.66
578.08	45177.02
578.24	45261.28
578.40	45113.83
578.56	46082.81
578.72	45549.17
578.88	46089.83
579.04	45755.13
579.21	45244.90
579.37	45471.93
579.53	45876.84
579.69	45020.20
579.85	45492.99
580.01	45881.52
580.17	45624.06
580.33	45471.93
580.49	45631.08
580.65	45642.79
580.82	45862.80
580.98	45478.95
581.14	45380.65
581.30	45584.27
581.46	45481.29
581.62	45797.26
581.78	45720.02
581.94	45968.12
582.10	45434.48
582.26	46033.66
582.42	45572.57
582.58	45797.26
582.74	45511.72
582.90	45862.80
583.06	45832.37
583.22	45886.20
583.38	45794.92
583.54	45900.25
583.70	45350.22
583.86	45780.88
584.02	45834.71
584.18	45858.12
584.34	45785.56
584.50	45801.94
584.66	45801.94
584.82	45380.65
584.98	45556.19
585.14	45736.41
585.30	45830.03
585.46	45565.55
585.62	45661.51
585.78	45642.79
585.94	45301.07
586.10	45280.00
586.26	45647.47
586.42	45441.50
586.58	45975.14
586.74	45904.93
586.90	45654.49
587.06	45380.65
587.22	45647.47
587.38	45579.59
587.54	45869.82
587.70	46007.91
587.86	45649.81
588.02	45677.90
588.18	45869.82
588.34	45607.68
588.49	45174.68
588.65	45390.01
588.81	45284.68
588.97	45074.04
589.13	45453.20
589.29	45294.05
589.45	45476.61
589.61	45593.64
589.77	46354.31
589.93	45858.12
590.08	45792.58
