SpectraSuite Data File
++++++++++++++++++++++++++++++++++++
Date: Fri Oct 25 10:47:47 EDT 2013
User: price-jones
Dark Spectrum Present: No
Reference Spectrum Present: No
Number of Sampled Component Spectra: 1
Spectrometers: USB2+H05261
Integration Time (usec): 100000 (USB2+H05261)
Spectra Averaged: 1 (USB2+H05261)
Boxcar Smoothing: 0 (USB2+H05261)
Correct for Electrical Dark: No (USB2+H05261)
Strobe/Lamp Enabled: No (USB2+H05261)
Correct for Detector Non-linearity: No (USB2+H05261)
Correct for Stray Light: No (USB2+H05261)
Number of Pixels in Processed Spectrum: 2048
>>>>>Begin Processed Spectral Data<<<<<
365.73	88.94
365.92	88.94
366.12	88.94
366.32	63.19
366.52	21.06
366.72	131.07
366.91	60.85
367.11	14.04
367.31	44.47
367.51	67.88
367.70	0.00
367.90	86.60
368.10	35.11
368.30	81.92
368.49	67.88
368.69	16.38
368.89	65.54
369.09	74.90
369.28	9.36
369.48	79.58
369.68	112.35
369.87	93.62
370.07	77.24
370.27	154.48
370.47	170.86
370.66	416.62
370.86	395.55
371.06	557.05
371.25	425.98
371.45	447.04
371.65	451.72
371.84	393.21
372.04	489.17
372.24	554.71
372.44	521.94
372.63	472.79
372.83	580.45
373.03	554.71
373.22	505.56
373.42	461.09
373.62	458.74
373.81	545.34
374.01	510.24
374.21	507.90
374.40	540.66
374.60	533.64
374.79	578.11
374.99	519.60
375.19	543.00
375.38	571.09
375.58	505.56
375.78	692.80
375.97	491.51
376.17	636.63
376.37	533.64
376.56	589.82
376.76	510.24
376.95	554.71
377.15	641.31
377.35	638.97
377.54	627.26
377.74	601.52
377.93	653.01
378.13	648.33
378.33	568.75
378.52	674.07
378.72	634.29
378.91	732.59
379.11	620.24
379.31	571.09
379.50	564.07
379.70	676.41
379.89	636.63
380.09	660.03
380.28	676.41
380.48	648.33
380.68	650.67
380.87	601.52
381.07	727.91
381.26	692.80
381.46	730.25
381.65	690.46
381.85	645.99
382.04	678.76
382.24	713.86
382.43	622.58
382.63	709.18
382.83	711.52
383.02	727.91
383.22	669.39
383.41	730.25
383.61	718.54
383.80	716.20
384.00	692.80
384.19	704.50
384.39	709.18
384.58	638.97
384.78	786.42
384.97	807.48
385.17	844.93
385.36	664.71
385.56	730.25
385.75	755.99
385.95	697.48
386.14	823.87
386.34	725.57
386.53	746.63
386.72	826.21
386.92	812.17
387.11	858.98
387.31	809.83
387.50	788.76
387.70	809.83
387.89	772.38
388.09	889.40
388.28	896.43
388.48	828.55
388.67	856.64
388.86	919.83
389.06	936.21
389.25	854.30
389.45	884.72
389.64	889.40
389.84	854.30
390.03	992.39
390.22	938.55
390.42	856.64
390.61	744.29
390.81	912.81
391.00	983.02
391.19	983.02
391.39	943.24
391.58	947.92
391.78	938.55
391.97	945.58
392.16	961.96
392.36	1004.09
392.55	978.34
392.75	978.34
392.94	950.26
393.13	1034.52
393.33	980.68
393.52	968.98
393.71	1043.88
393.91	1004.09
394.10	1081.33
394.29	1121.12
394.49	1027.50
394.68	1144.52
394.88	1142.18
395.07	1186.65
395.26	1095.37
395.46	1055.58
395.65	1090.69
395.84	1104.73
396.04	1252.19
396.23	1167.93
396.42	1013.45
396.62	1083.67
396.81	1245.16
397.00	1116.44
397.19	1242.82
397.39	1254.53
397.58	1193.67
397.77	1254.53
397.97	1263.89
398.16	1277.93
398.35	1235.80
398.55	1205.38
398.74	1203.04
398.93	1348.15
399.12	1327.08
399.32	1373.89
399.51	1299.00
399.70	1362.19
399.90	1357.51
400.09	1399.64
400.28	1591.56
400.47	1434.75
400.67	1488.58
400.86	1453.47
401.05	1537.73
401.24	1409.00
401.44	1504.96
401.63	1533.05
401.82	1462.83
402.01	1537.73
402.21	1575.18
402.40	1549.43
402.59	1565.82
402.78	1565.82
402.97	1535.39
403.17	1507.30
403.36	1502.62
403.55	1666.46
403.74	1657.10
403.93	1605.61
404.13	1687.53
404.32	1568.16
404.51	1626.67
404.70	1713.27
404.89	1659.44
405.09	1671.14
405.28	1764.76
405.47	1614.97
405.66	1806.89
405.85	1806.89
406.05	1685.19
406.24	1774.13
406.43	1692.21
406.62	1834.98
406.81	1790.51
407.00	1764.76
407.20	1839.66
407.39	1827.96
407.58	1893.49
407.77	1977.75
407.96	1923.92
408.15	1891.15
408.34	1851.36
408.54	2012.86
408.73	2015.20
408.92	1956.69
409.11	2029.24
409.30	2207.13
409.49	1947.33
409.68	1968.39
409.87	2043.29
410.07	2076.06
410.26	2139.25
410.45	2127.55
410.64	2230.53
410.83	2216.49
411.02	2267.98
411.21	2232.87
411.40	2239.89
411.59	2300.75
411.78	2312.45
411.98	2284.36
412.17	2436.50
412.36	2293.72
412.55	2279.68
412.74	2408.41
412.93	2520.76
413.12	2443.52
413.31	2600.34
413.50	2544.16
413.69	2459.90
413.88	2562.89
414.07	2651.83
414.26	2658.85
414.45	2665.87
414.64	2567.57
414.83	2806.30
415.02	2696.30
415.22	2757.15
415.41	2843.75
415.60	2644.81
415.79	2848.43
415.98	2878.86
416.17	2820.35
416.36	2904.60
416.55	2958.44
416.74	2991.20
416.93	2871.84
417.12	2892.90
417.31	2949.08
417.50	3054.40
417.69	3061.42
417.88	3148.02
418.07	3047.38
418.26	3045.04
418.45	3201.85
418.64	3363.35
418.83	3199.51
419.02	3176.11
419.21	3164.40
419.39	3323.56
419.58	3152.70
419.77	3180.79
419.96	3375.05
420.15	3178.45
420.34	3286.11
420.53	3258.03
420.72	3328.24
420.91	3393.78
421.10	3365.69
421.29	3452.29
421.48	3330.58
421.67	3384.41
421.86	3471.01
422.05	3260.37
422.24	3349.31
422.43	3332.92
422.61	3389.10
422.80	3400.80
422.99	3569.32
423.18	3597.40
423.37	3576.34
423.56	3391.44
423.75	3520.17
423.94	3571.66
424.13	3258.03
424.32	3368.03
424.50	3506.12
424.69	3520.17
424.88	3655.92
425.07	3461.65
425.26	3597.40
425.45	3574.00
425.64	3566.98
425.83	3562.30
426.01	3632.51
426.20	3517.83
426.39	3672.30
426.58	3529.53
426.77	3555.27
426.96	3623.15
427.15	3574.00
427.33	3691.02
427.52	3749.54
427.71	3733.15
427.90	3861.88
428.09	3632.51
428.28	3709.75
428.46	3770.60
428.65	3833.80
428.84	3868.91
429.03	3861.88
429.22	3700.39
429.40	3786.99
429.59	3843.16
429.78	3684.00
429.97	3655.92
430.16	3845.50
430.34	3819.75
430.53	3789.33
430.72	3999.98
430.91	3861.88
431.10	3875.93
431.28	4175.52
431.47	4049.13
431.66	4219.99
431.85	4081.89
432.03	4201.26
432.22	4257.43
432.41	4236.37
432.60	4067.85
432.79	4269.14
432.97	4276.16
433.16	4187.22
433.35	4234.03
433.54	4285.52
433.72	4339.35
433.91	4273.82
434.10	4208.28
434.28	4205.94
434.47	4454.04
434.66	4505.53
434.85	4400.21
435.03	4440.00
435.22	4524.26
435.41	4622.56
435.59	4463.40
435.78	4547.66
435.97	4592.13
436.16	4702.14
436.34	4519.57
436.53	4489.15
436.72	4695.11
436.90	4599.15
437.09	4645.96
437.28	4585.11
437.46	4816.82
437.65	4627.24
437.84	4620.22
438.02	4552.34
438.21	4711.50
438.40	4732.56
438.58	4854.27
438.77	4858.95
438.96	4943.21
439.14	4929.17
439.33	5013.43
439.52	4933.85
439.70	5130.45
439.89	5174.92
440.08	5139.82
440.26	5128.11
440.45	5137.48
440.63	5308.34
440.82	5235.78
441.01	5273.23
441.19	5467.49
441.38	5437.06
441.57	5413.66
441.75	5493.24
441.94	5537.71
442.12	5701.54
442.31	5589.20
442.50	5689.84
442.68	5844.32
442.87	5703.89
443.05	5706.23
443.24	5596.22
443.43	5804.53
443.61	5778.78
443.80	5881.77
443.98	5687.50
444.17	5643.03
444.35	5774.10
444.54	5933.26
444.73	5879.43
444.91	5923.90
445.10	5633.67
445.28	5792.83
445.47	5636.01
445.65	5874.74
445.84	5980.07
446.02	5877.09
446.21	5872.40
446.39	5825.59
446.58	5916.87
446.77	6054.97
446.95	5923.90
447.14	6148.59
447.32	5935.60
447.51	6064.33
447.69	5919.21
447.88	5959.00
448.06	6076.03
448.25	6010.50
448.43	6036.24
448.62	6033.90
448.80	5956.66
448.99	6047.94
449.17	6118.16
449.36	6209.44
449.54	6045.60
449.73	6420.09
449.91	6366.26
450.10	6307.74
450.28	6382.64
450.46	6506.69
450.65	6459.88
450.83	6494.99
451.02	6511.37
451.20	6607.33
451.39	6560.52
451.57	6445.84
451.76	6431.79
451.94	6551.16
452.13	6794.58
452.31	6415.41
452.49	6335.83
452.68	6443.49
452.86	6530.09
453.05	6633.08
453.23	6539.46
453.42	6597.97
453.60	6621.38
453.78	6649.46
453.97	6717.34
454.15	6675.21
454.34	6640.10
454.52	6862.45
454.70	6927.99
454.89	6801.60
455.07	6860.11
455.26	6949.05
455.44	7012.24
455.62	6881.18
455.81	6736.06
455.99	6998.20
456.17	7068.42
456.36	7124.59
456.54	7173.74
456.73	7169.06
456.91	7248.64
457.09	7248.64
457.28	7382.05
457.46	7258.00
457.64	7384.39
457.83	7363.33
458.01	7190.13
458.19	7297.79
458.38	7393.75
458.56	7597.38
458.74	7325.88
458.93	7517.80
459.11	7393.75
459.29	7307.15
459.48	7592.70
459.66	7655.89
459.84	7714.41
460.03	7634.83
460.21	7737.81
460.39	7637.17
460.57	7489.71
460.76	7887.61
460.94	7791.64
461.12	7801.01
461.31	7702.70
461.49	7950.80
461.67	7733.13
461.85	7911.01
462.04	7859.52
462.22	8416.57
462.40	8114.64
462.59	7981.23
462.77	7943.78
462.95	7920.37
463.13	7957.82
463.32	7946.12
463.50	7985.91
463.68	8341.67
463.86	8093.57
464.05	8128.68
464.23	8145.06
464.41	8074.85
464.59	8079.53
464.78	8222.30
464.96	8159.11
465.14	8231.66
465.32	8325.29
465.50	8308.90
465.69	8503.17
465.87	8381.46
466.05	8311.24
466.23	8421.25
466.41	8339.33
466.60	8336.99
466.78	8428.27
466.96	8442.31
467.14	8479.76
467.32	8585.08
467.51	8744.24
467.69	8489.12
467.87	8578.06
468.05	8734.88
468.23	8819.14
468.41	8561.68
468.60	8629.56
468.78	8814.46
468.96	8545.30
469.14	8833.18
469.32	8842.54
469.50	8528.91
469.69	8954.89
469.87	8987.66
470.05	8835.52
470.23	8959.57
470.41	9060.21
470.59	9060.21
470.77	8992.34
470.95	9083.62
471.14	9177.24
471.32	9078.94
471.50	9411.29
471.68	9371.50
471.86	9067.24
472.04	9469.81
472.22	9530.66
472.40	9415.98
472.58	9425.34
472.77	9462.79
472.95	9799.82
473.13	9980.04
473.31	9612.58
473.49	9682.80
473.67	9724.93
473.85	9582.15
474.03	9858.34
474.21	10064.30
474.39	10157.92
474.57	10106.43
474.75	10200.05
474.93	10104.09
475.12	10083.03
475.30	9996.43
475.48	10293.68
475.66	10171.97
475.84	10186.01
476.02	10487.94
476.20	10443.47
476.38	10511.35
476.56	10602.63
476.74	10754.76
476.92	10815.62
477.10	10862.43
477.28	11049.67
477.46	10939.66
477.64	11094.14
477.82	11431.18
478.00	11508.41
478.18	11477.99
478.36	11328.19
478.54	11543.52
478.72	11662.89
478.90	11641.82
479.08	11784.60
479.26	11882.90
479.44	12123.98
479.62	11915.67
479.80	11967.16
479.98	12114.61
480.16	12313.56
480.34	12334.62
480.52	12374.41
480.70	12400.16
480.88	12147.38
481.06	12498.46
481.24	12578.04
481.41	12938.48
481.59	13069.55
481.77	13146.79
481.95	13048.49
482.13	13429.99
482.31	13355.10
482.49	13664.05
482.67	13525.96
482.85	13516.59
483.03	13862.99
483.21	13977.68
483.39	13958.96
483.57	13963.64
483.74	13980.02
483.92	14164.92
484.10	14267.91
484.28	14602.60
484.46	14567.49
484.64	15040.28
484.82	14635.37
485.00	14843.68
485.18	14853.04
485.35	15133.90
485.53	14885.81
485.71	15161.99
485.89	15417.11
486.07	14972.41
486.25	15382.00
486.43	15573.92
486.61	15693.29
486.78	15967.13
486.96	15850.11
487.14	16463.33
487.32	16180.12
487.50	16428.22
487.68	16624.83
487.85	16706.74
488.03	17041.44
488.21	17336.35
488.39	17125.70
488.57	17156.13
488.75	17312.94
488.92	17664.02
489.10	17675.73
489.28	18015.10
489.46	18054.89
489.64	18108.72
489.81	18483.21
489.99	18724.29
490.17	18300.65
490.35	18815.57
490.53	18523.00
490.70	18867.06
490.88	18738.33
491.06	19199.41
491.24	19068.34
491.41	18937.27
491.59	19260.27
491.77	19122.18
491.95	19211.12
492.13	19543.47
492.30	19885.19
492.48	19875.83
492.66	19683.91
492.84	20161.37
493.01	20339.26
493.19	20294.79
493.37	20573.31
493.54	20730.12
493.72	20753.53
493.90	21064.82
494.08	21130.36
494.25	21053.12
494.43	21259.09
494.61	21525.91
494.79	21319.94
494.96	21497.82
495.14	21621.87
495.32	21600.80
495.49	21708.47
495.67	22164.87
495.85	21947.20
496.02	22251.47
496.20	22171.89
496.38	22724.26
496.55	22869.37
496.73	23154.92
496.91	23023.85
497.09	22911.50
497.26	22967.68
497.44	22726.60
497.62	22920.87
497.79	23466.21
497.97	22972.36
498.14	23728.35
498.32	23559.83
498.50	23711.97
498.67	23824.31
498.85	24023.26
499.03	23924.96
499.20	24027.94
499.38	24018.58
499.56	24416.47
499.73	24519.45
499.91	24528.81
500.08	24287.74
500.26	24575.62
500.44	24650.52
500.61	24830.74
500.79	24842.45
500.97	25139.69
501.14	25338.64
501.32	25163.10
501.49	25212.25
501.67	25352.68
501.84	25425.24
502.02	25511.84
502.20	25626.53
502.37	25795.04
502.55	25841.85
502.72	25764.62
502.90	25958.88
503.07	25963.56
503.25	26202.30
503.43	25865.26
503.60	26352.09
503.78	26057.18
503.95	26459.76
504.13	26506.57
504.30	26752.32
504.48	26834.24
504.65	26995.74
504.83	27061.27
505.01	27035.53
505.18	27290.65
505.36	27002.76
505.53	26932.54
505.71	27154.90
505.88	27627.68
506.06	27222.77
506.23	27615.98
506.41	27349.16
506.58	27718.96
506.76	27793.86
506.93	27660.45
507.11	28074.73
507.28	27910.89
507.46	28039.62
507.63	28002.17
507.81	27938.97
507.98	28156.64
508.16	28201.11
508.33	28664.54
508.50	28379.00
508.68	28217.50
508.85	28861.15
509.03	28615.39
509.20	28807.31
509.38	29076.48
509.55	28940.72
509.73	29153.71
509.90	28959.45
510.08	29244.99
510.25	28816.68
510.42	29610.12
510.60	29469.69
510.77	29867.58
510.95	29879.28
511.12	29720.12
511.30	29722.46
511.47	30078.22
511.64	29883.96
511.82	30216.32
511.99	30120.35
512.17	30300.58
512.34	29879.28
512.51	30038.44
512.69	30705.49
512.86	30782.73
513.04	30703.15
513.21	31021.46
513.38	30661.02
513.56	30866.98
513.73	30728.89
513.90	30806.13
514.08	30775.70
514.25	31358.50
514.43	31159.55
514.60	30792.09
514.77	31243.81
514.95	31365.52
515.12	30813.15
515.29	31211.04
515.47	31791.50
515.64	31842.99
515.81	31622.98
515.99	31885.12
516.16	32053.64
516.33	31597.23
516.51	32329.82
516.68	31555.10
516.85	31140.83
517.03	31793.84
517.20	32201.09
517.37	31964.70
517.54	32219.81
517.72	32463.23
517.89	32016.19
518.06	32233.86
518.24	32158.96
518.41	32397.70
518.58	32353.23
518.75	32449.19
518.93	32940.70
519.10	32624.73
519.27	32910.27
519.45	33046.02
519.62	33151.35
519.79	33184.12
519.96	33092.83
520.14	33261.35
520.31	33193.48
520.48	33397.10
520.65	33567.96
520.83	33593.71
521.00	33593.71
521.17	33549.24
521.34	33638.18
521.52	33851.17
521.69	33727.12
521.86	34174.16
522.03	34181.18
522.20	34199.91
522.38	34433.96
522.55	34363.75
522.72	34359.06
522.89	34108.63
523.07	34424.60
523.24	34284.17
523.41	34335.66
523.58	34618.86
523.75	35260.17
523.92	34569.71
524.10	34735.89
524.27	35442.73
524.44	35040.16
524.61	35241.45
524.78	35023.78
524.96	35576.14
525.13	34974.63
525.30	35367.84
525.47	35866.37
525.64	35447.41
525.81	35349.11
525.98	35859.35
526.16	35072.93
526.33	35545.72
526.50	35501.25
526.67	35325.71
526.84	35339.75
527.01	35510.61
527.18	35370.18
527.36	36039.57
527.53	36032.55
527.70	36294.69
527.87	36259.58
528.04	36100.42
528.21	36170.64
528.38	35842.96
528.55	35995.10
528.72	36428.10
528.89	36383.63
529.07	36591.94
529.24	36180.00
529.41	36627.04
529.58	36009.14
529.75	36531.08
529.92	36814.29
530.09	36856.42
530.26	36730.03
530.43	36868.12
530.60	36788.54
530.77	36790.88
530.94	37446.23
531.11	36837.69
531.28	37174.73
531.46	37153.66
531.63	37596.03
531.80	37287.07
531.97	37078.77
532.14	37097.49
532.31	37163.03
532.48	37888.59
532.65	38078.18
532.82	37228.56
532.99	37853.48
533.16	37750.50
533.33	37434.53
533.50	37804.33
533.67	38019.66
533.84	37741.14
534.01	37652.20
534.18	37663.90
534.35	37902.64
534.52	38237.33
534.69	37965.83
534.86	37989.24
535.03	37996.26
535.20	38251.38
535.37	38672.67
535.54	38562.67
535.71	38494.79
535.88	38412.87
536.05	38663.31
536.22	38684.37
536.38	38101.58
536.55	38422.23
536.72	38480.75
536.89	38218.61
537.06	38359.04
537.23	38714.80
537.40	38450.32
537.57	38843.53
537.74	39335.04
537.91	39423.98
538.08	39145.46
538.25	38836.51
538.42	39019.07
538.59	39257.81
538.75	38892.68
538.92	39063.54
539.09	39187.59
539.26	38967.58
539.43	39131.42
539.60	39707.19
539.77	39533.99
539.94	38866.94
540.11	39037.80
540.28	39721.23
540.44	39337.38
540.61	39735.27
540.78	39309.30
540.95	39370.15
541.12	39683.78
541.29	39632.29
541.46	39833.58
541.62	39861.66
541.79	40069.97
541.96	39597.18
542.13	39136.10
542.30	39800.81
542.47	40266.58
542.63	40041.88
542.80	39910.82
542.97	40306.37
543.14	40615.32
543.31	40692.55
543.48	40950.01
543.64	41380.67
543.81	40498.29
543.98	40776.81
544.15	40407.01
544.32	40701.92
544.48	41081.08
544.65	40964.06
544.82	40605.95
544.99	40627.02
545.16	40980.44
545.32	40430.41
545.49	40931.29
545.66	40931.29
545.83	41165.34
546.00	41352.58
546.16	41326.84
546.33	40849.37
546.50	40830.65
546.67	41137.26
546.83	40662.13
547.00	41228.54
547.17	41780.90
547.34	41514.08
547.50	41612.38
547.67	41837.08
547.84	41706.01
548.00	41834.74
548.17	41656.85
548.34	41404.08
548.51	41904.95
548.67	41947.08
548.84	41801.97
549.01	41975.17
549.18	41497.70
549.34	41837.08
549.51	42396.46
549.68	41801.97
549.84	41963.46
550.01	42305.18
550.18	41916.65
550.34	41642.81
550.51	41537.49
550.68	42029.00
550.84	41914.31
551.01	41804.31
551.18	42075.81
551.34	41914.31
551.51	42454.98
551.68	42445.62
551.84	42183.48
552.01	41874.52
552.18	42480.72
552.34	41727.07
552.51	42391.78
552.68	42845.85
552.84	42501.79
553.01	42873.93
553.18	42473.70
553.34	42880.95
553.51	42230.29
553.67	42628.18
553.84	42389.44
554.01	42621.16
554.17	43019.05
554.34	43126.71
554.51	42782.65
554.67	43000.32
554.84	42677.33
555.00	43028.41
555.17	42628.18
555.33	43309.27
555.50	42899.68
555.67	43147.78
555.83	43222.67
556.00	43129.05
556.16	43185.22
556.33	43423.96
556.50	42749.88
556.66	42869.25
556.83	42948.83
556.99	43438.00
557.16	43161.82
557.32	43299.91
557.49	43519.92
557.65	42763.93
557.82	43077.56
557.98	43264.80
558.15	43133.73
558.32	43274.16
558.48	42895.00
558.65	43409.92
558.81	43058.84
558.98	43636.95
559.14	43281.19
559.31	43433.32
559.47	43360.76
559.64	43328.00
559.80	44011.43
559.97	43805.47
560.13	43199.27
560.30	43480.13
560.46	43545.67
560.63	43346.72
560.79	43835.89
560.96	43896.75
561.12	43695.46
561.29	43819.51
561.45	43477.79
561.61	43765.68
561.78	43351.40
561.94	43634.61
562.11	43578.43
562.27	43662.69
562.44	43559.71
562.60	43620.56
562.77	44079.31
562.93	43840.57
563.10	43957.60
563.26	43498.86
563.42	43880.36
563.59	43597.16
563.75	43496.52
563.92	44112.08
564.08	43948.24
564.24	44322.72
564.41	44554.44
564.57	43856.96
564.74	44149.53
564.90	43915.47
565.07	43810.15
565.23	44219.74
565.39	44184.63
565.56	44378.90
565.72	43744.61
565.88	44006.75
566.05	43777.38
566.21	44186.97
566.38	44191.65
566.54	43988.03
566.70	44390.60
566.87	44650.40
567.03	44198.68
567.19	44648.06
567.36	44135.48
567.52	44411.67
567.68	44542.74
567.85	44069.95
568.01	44009.09
568.17	44107.40
568.34	44378.90
568.50	44296.98
568.66	44425.71
568.83	44287.62
568.99	44002.07
569.15	44428.05
569.32	44465.50
569.48	44161.23
569.64	44603.59
569.81	44315.70
569.97	44463.16
570.13	44257.19
570.30	43796.10
570.46	44100.37
570.62	44055.90
570.78	44112.08
570.95	44271.23
571.11	44215.06
571.27	44355.49
571.43	44442.09
571.60	44128.46
571.76	44390.60
571.92	44566.14
572.09	44404.64
572.25	44685.51
572.41	44495.92
572.57	44500.61
572.74	45102.12
572.90	44662.10
573.06	44339.11
573.22	44304.00
573.38	44233.78
573.55	44652.74
573.71	44942.97
573.87	44233.78
574.03	44498.26
574.20	44570.82
574.36	44432.73
574.52	44500.61
574.68	45029.57
574.84	44568.48
575.01	44203.36
575.17	44879.77
575.33	44322.72
575.49	44332.09
575.65	44961.69
575.82	44626.99
575.98	45069.36
576.14	44779.13
576.30	44444.43
576.46	44210.38
576.62	44348.47
576.79	44224.42
576.95	43810.15
577.11	43997.39
577.27	44575.50
577.43	44751.04
577.59	44612.95
577.75	44308.68
577.92	44397.62
578.08	44430.39
578.24	44594.23
578.40	44786.15
578.56	44404.64
578.72	44563.80
578.88	44957.01
579.04	44608.27
579.21	44524.01
579.37	44622.31
579.53	44430.39
579.69	44360.17
579.85	44645.72
580.01	44872.75
580.17	44729.98
580.33	44975.73
580.49	44755.72
580.65	44477.20
580.82	45006.16
580.98	44931.26
581.14	44280.60
581.30	44741.68
581.46	44718.28
581.62	45137.23
581.78	44868.07
581.94	44861.05
582.10	44774.45
582.26	44678.49
582.42	45116.17
582.58	44818.92
582.74	44762.75
582.90	44708.91
583.06	44643.38
583.22	44341.45
583.38	44669.12
583.54	44994.46
583.70	44402.30
583.86	44435.07
584.02	44301.66
584.18	44706.57
584.34	44758.06
584.50	44692.53
584.66	44884.45
584.82	44737.00
584.98	45027.23
585.14	45008.50
585.30	44818.92
585.46	44671.46
585.62	44741.68
585.78	44839.98
585.94	44381.24
586.10	44626.99
586.26	44577.84
586.42	44907.86
586.58	44751.04
586.74	45059.99
586.90	44655.08
587.06	44685.51
587.22	44975.73
587.38	44561.46
587.54	44999.14
587.70	45312.77
587.86	45055.31
588.02	44666.78
588.18	45010.84
588.34	44811.90
588.49	44589.55
588.65	44465.50
588.81	44507.63
588.97	44919.56
589.13	44294.64
589.29	44619.97
589.45	44484.22
589.61	44729.98
589.77	45296.39
589.93	44886.79
590.08	44512.31
590.24	44973.39
