SpectraSuite Data File
++++++++++++++++++++++++++++++++++++
Date: Fri Oct 25 10:44:34 EDT 2013
User: price-jones
Dark Spectrum Present: No
Reference Spectrum Present: No
Number of Sampled Component Spectra: 1
Spectrometers: USB2+H05261
Integration Time (usec): 100000 (USB2+H05261)
Spectra Averaged: 1 (USB2+H05261)
Boxcar Smoothing: 0 (USB2+H05261)
Correct for Electrical Dark: No (USB2+H05261)
Strobe/Lamp Enabled: No (USB2+H05261)
Correct for Detector Non-linearity: No (USB2+H05261)
Correct for Stray Light: No (USB2+H05261)
Number of Pixels in Processed Spectrum: 2048
>>>>>Begin Processed Spectral Data<<<<<
365.73	117.03
365.92	117.03
366.12	117.03
366.32	170.86
366.52	49.15
366.72	84.26
366.91	4.68
367.11	0.00
367.31	4.68
367.51	37.45
367.70	25.75
367.90	32.77
368.10	9.36
368.30	11.70
368.49	0.00
368.69	98.30
368.89	53.83
369.09	35.11
369.28	9.36
369.48	70.22
369.68	79.58
369.87	72.56
370.07	152.13
370.27	173.20
370.47	212.99
370.66	308.95
370.86	437.68
371.06	397.89
371.25	472.79
371.45	409.59
371.65	461.09
371.84	414.27
372.04	449.38
372.24	503.22
372.44	454.06
372.63	444.70
372.83	468.11
373.03	498.53
373.22	475.13
373.42	519.60
373.62	505.56
373.81	573.43
374.01	547.69
374.21	578.11
374.40	507.90
374.60	550.03
374.79	587.47
374.99	561.73
375.19	582.79
375.38	568.75
375.58	552.37
375.78	620.24
375.97	568.75
376.17	557.05
376.37	482.15
376.56	575.77
376.76	578.11
376.95	498.53
377.15	540.66
377.35	624.92
377.54	627.26
377.74	547.69
377.93	660.03
378.13	596.84
378.33	662.37
378.52	650.67
378.72	655.35
378.91	617.90
379.11	535.98
379.31	582.79
379.50	575.77
379.70	620.24
379.89	617.90
380.09	650.67
380.28	650.67
380.48	662.37
380.68	669.39
380.87	622.58
381.07	683.44
381.26	697.48
381.46	706.84
381.65	678.76
381.85	643.65
382.04	725.57
382.24	622.58
382.43	645.99
382.63	683.44
382.83	695.14
383.02	788.76
383.22	777.06
383.41	699.82
383.61	697.48
383.80	772.38
384.00	739.61
384.19	699.82
384.39	690.46
384.58	727.91
384.78	699.82
384.97	772.38
385.17	704.50
385.36	624.92
385.56	795.78
385.75	718.54
385.95	695.14
386.14	847.27
386.34	760.67
386.53	784.08
386.72	807.48
386.92	851.96
387.11	765.36
387.31	704.50
387.50	695.14
387.70	765.36
387.89	772.38
388.09	819.19
388.28	844.93
388.48	873.02
388.67	851.96
388.86	887.06
389.06	847.27
389.25	905.79
389.45	919.83
389.64	922.17
389.84	947.92
390.03	943.24
390.22	952.60
390.42	978.34
390.61	912.81
390.81	908.13
391.00	980.68
391.19	943.24
391.39	950.26
391.58	952.60
391.78	997.07
391.97	1006.43
392.16	987.71
392.36	1074.31
392.55	908.13
392.75	994.73
392.94	1013.45
393.13	999.41
393.33	933.87
393.52	1050.90
393.71	1060.26
393.91	1090.69
394.10	1086.01
394.29	1100.05
394.49	1015.79
394.68	1041.54
394.88	1146.86
395.07	1135.16
395.26	1130.48
395.46	1104.73
395.65	1123.46
395.84	1228.78
396.04	1172.61
396.23	1160.91
396.42	1081.33
396.62	1088.35
396.81	1111.75
397.00	1139.84
397.19	1107.07
397.39	1228.78
397.58	1259.21
397.77	1338.79
397.97	1362.19
398.16	1268.57
398.35	1378.58
398.55	1235.80
398.74	1343.47
398.93	1401.98
399.12	1275.59
399.32	1357.51
399.51	1338.79
399.70	1434.75
399.90	1308.36
400.09	1458.15
400.28	1563.48
400.47	1411.34
400.67	1430.07
400.86	1448.79
401.05	1404.32
401.24	1497.94
401.44	1458.15
401.63	1474.54
401.82	1507.30
402.01	1633.69
402.21	1399.64
402.40	1530.71
402.59	1490.92
402.78	1511.99
402.97	1579.86
403.17	1577.52
403.36	1605.61
403.55	1720.29
403.74	1685.19
403.93	1671.14
404.13	1610.29
404.32	1636.03
404.51	1818.60
404.70	1685.19
404.89	1762.42
405.09	1788.17
405.28	1710.93
405.47	1774.13
405.66	1809.23
405.85	1722.63
406.05	1839.66
406.24	1774.13
406.43	1895.83
406.62	1954.35
406.81	2085.42
407.00	1912.22
407.20	1811.57
407.39	1860.73
407.58	1973.07
407.77	1954.35
407.96	1959.03
408.15	2038.61
408.34	1973.07
408.54	2047.97
408.73	2085.42
408.92	2040.95
409.11	2012.86
409.30	2071.37
409.49	2040.95
409.68	2038.61
409.87	2008.18
410.07	2090.10
410.26	2153.29
410.45	2251.60
410.64	2101.80
410.83	2172.02
411.02	2277.34
411.21	2293.72
411.40	2342.88
411.59	2429.48
411.78	2333.51
411.98	2340.54
412.17	2401.39
412.36	2413.09
412.55	2473.95
412.74	2413.09
412.93	2532.46
413.12	2478.63
413.31	2710.34
413.50	2579.27
413.69	2506.71
413.88	2658.85
414.07	2605.02
414.26	2668.21
414.45	2761.83
414.64	2672.89
414.83	2703.32
415.02	2764.17
415.22	2789.92
415.41	2970.14
415.60	2808.64
415.79	2906.95
415.98	3000.57
416.17	2977.16
416.36	3040.36
416.55	3016.95
416.74	2984.18
416.93	2991.20
417.12	3002.91
417.31	2953.76
417.50	3068.44
417.69	3164.40
417.88	3063.76
418.07	3166.74
418.26	3119.93
418.45	3236.96
418.64	3246.32
418.83	3297.81
419.02	3213.56
419.21	3311.86
419.39	3337.60
419.58	3164.40
419.77	3192.49
419.96	3410.16
420.15	3440.59
420.34	3534.21
420.53	3499.10
420.72	3400.80
420.91	3466.33
421.10	3466.33
421.29	3583.36
421.48	3391.44
421.67	3389.10
421.86	3550.59
422.05	3531.87
422.24	3545.91
422.43	3389.10
422.61	3417.18
422.80	3646.55
422.99	3669.96
423.18	3585.70
423.37	3566.98
423.56	3545.91
423.75	3414.84
423.94	3501.44
424.13	3321.22
424.32	3463.99
424.50	3625.49
424.69	3756.56
424.88	3632.51
425.07	3562.30
425.26	3592.72
425.45	3524.85
425.64	3595.06
425.83	3665.28
426.01	3716.77
426.20	3627.83
426.39	3639.53
426.58	3691.02
426.77	3669.96
426.96	3733.15
427.15	3707.41
427.33	3630.17
427.52	3815.07
427.71	3770.60
427.90	3721.45
428.09	3859.54
428.28	3833.80
428.46	3695.71
428.65	3899.33
428.84	3873.59
429.03	3854.86
429.22	3723.79
429.40	3854.86
429.59	3927.42
429.78	3723.79
429.97	3698.05
430.16	3723.79
430.34	3730.81
430.53	3913.38
430.72	4105.30
430.91	3925.08
431.10	3922.74
431.28	4119.34
431.47	4215.30
431.66	4351.06
431.85	4322.97
432.03	4182.54
432.22	4292.54
432.41	4278.50
432.60	4252.75
432.79	4156.79
432.97	4407.23
433.16	4372.12
433.35	4304.25
433.54	4266.80
433.72	4383.82
433.91	4241.05
434.10	4500.85
434.28	4435.32
434.47	4425.95
434.66	4423.61
434.85	4351.06
435.03	4519.57
435.22	4580.43
435.41	4695.11
435.59	4795.76
435.78	4650.64
435.97	4624.90
436.16	4688.09
436.34	4765.33
436.53	4699.80
436.72	4830.87
436.90	4718.52
437.09	4732.56
437.28	4662.35
437.46	4587.45
437.65	4561.70
437.84	4732.56
438.02	4667.03
438.21	4777.03
438.40	4746.61
438.58	4964.28
438.77	4880.02
438.96	4947.89
439.14	5125.77
439.33	5076.62
439.52	5032.15
439.70	5144.50
439.89	5177.26
440.08	5338.76
440.26	5107.05
440.45	5298.97
440.63	5430.04
440.82	5413.66
441.01	5460.47
441.19	5511.96
441.38	5523.66
441.57	5455.79
441.75	5551.75
441.94	5621.97
442.12	5617.29
442.31	5727.29
442.50	5741.33
442.68	5675.80
442.87	5867.72
443.05	5647.71
443.24	5898.15
443.43	5830.27
443.61	5851.34
443.80	6069.01
443.98	5750.70
444.17	5788.14
444.35	5930.92
444.54	5930.92
444.73	5947.30
444.91	5895.81
445.10	5877.09
445.28	5750.70
445.47	5928.58
445.65	5980.07
445.84	6015.18
446.02	5980.07
446.21	5870.06
446.39	5970.71
446.58	6188.38
446.77	6050.28
446.95	6003.47
447.14	6078.37
447.32	6256.25
447.51	6038.58
447.69	6106.46
447.88	6141.57
448.06	6139.23
448.25	6064.33
448.43	6207.10
448.62	6066.67
448.80	5942.62
448.99	6183.70
449.17	6286.68
449.36	6190.72
449.54	6483.28
449.73	6511.37
449.91	6548.82
450.10	6487.96
450.28	6672.87
450.46	6628.40
450.65	6663.51
450.83	6614.35
451.02	6602.65
451.20	6553.50
451.39	6415.41
451.57	6623.72
451.76	6640.10
451.94	6642.44
452.13	6450.52
452.31	6523.07
452.49	6424.77
452.68	6457.54
452.86	6670.53
453.05	6581.59
453.23	6775.85
453.42	6764.15
453.60	6780.53
453.78	6867.13
453.97	6668.19
454.15	6693.93
454.34	6759.47
454.52	6829.68
454.70	6867.13
454.89	7028.63
455.07	6956.07
455.26	7007.56
455.44	7145.66
455.62	7040.33
455.81	7077.78
455.99	6984.16
456.17	7101.19
456.36	7124.59
456.54	7269.70
456.73	7052.03
456.91	7377.37
457.09	7335.24
457.28	7510.78
457.46	7279.07
457.64	7405.46
457.83	7403.11
458.01	7316.51
458.19	7192.47
458.38	7461.63
458.56	7440.56
458.74	7314.17
458.93	7328.22
459.11	7801.01
459.29	7386.73
459.48	7599.72
459.66	7583.34
459.84	7707.38
460.03	7733.13
460.21	8009.31
460.39	7566.95
460.57	7772.92
460.76	7735.47
460.94	8016.33
461.12	8028.04
461.31	7962.50
461.49	7789.30
461.67	7791.64
461.85	8121.66
462.04	7894.63
462.22	8138.04
462.40	8053.78
462.59	7861.86
462.77	8217.62
462.95	8140.38
463.13	8219.96
463.32	8264.43
463.50	8336.99
463.68	8035.06
463.86	8154.43
464.05	8138.04
464.23	8091.23
464.41	8365.07
464.59	8255.07
464.78	8496.14
464.96	8205.92
465.14	8311.24
465.32	8365.07
465.50	8444.65
465.69	8514.87
465.87	8650.62
466.05	8430.61
466.23	8557.00
466.41	8498.49
466.60	8641.26
466.78	8500.83
466.96	8437.63
467.14	8423.59
467.32	8549.98
467.51	8704.45
467.69	8461.04
467.87	8678.71
468.05	8784.03
468.23	8599.13
468.41	8652.96
468.60	8652.96
468.78	8667.00
468.96	8830.84
469.14	8910.42
469.32	8961.91
469.50	8924.46
469.69	9121.07
469.87	8737.22
470.05	9116.39
470.23	8999.36
470.41	8959.57
470.59	9132.77
470.77	9174.90
470.95	9296.61
471.14	9479.17
471.32	9174.90
471.50	9439.38
471.68	9488.53
471.86	9193.62
472.04	9404.27
472.22	9776.42
472.40	9357.46
472.58	9565.77
472.77	9689.82
472.95	9856.00
473.13	9984.73
473.31	9785.78
473.49	9685.14
473.67	9863.02
473.85	9844.29
474.03	9933.23
474.21	10211.76
474.39	10001.11
474.57	10099.41
474.75	10237.50
474.93	10544.11
475.12	10265.59
475.30	10431.77
475.48	10504.32
475.66	10593.26
475.84	10399.00
476.02	10429.43
476.20	10588.58
476.38	10672.84
476.56	10984.13
476.74	10836.68
476.92	10862.43
477.10	10953.71
477.28	10979.45
477.46	11108.18
477.64	11410.11
477.82	11564.59
478.00	11475.65
478.18	11463.94
478.36	11754.17
478.54	11543.52
478.72	11740.13
478.90	11770.55
479.08	12060.78
479.26	11995.25
479.44	12226.96
479.62	12074.82
479.80	12175.47
479.98	12212.92
480.16	12573.36
480.34	12475.06
480.52	12608.47
480.70	12774.64
480.88	12498.46
481.06	12648.26
481.24	12917.42
481.41	12933.80
481.59	13121.04
481.77	13202.96
481.95	13228.71
482.13	13422.97
482.31	13247.43
482.49	13973.00
482.67	13666.39
482.85	13921.51
483.03	13851.29
483.21	14045.55
483.39	14132.15
483.57	14054.92
483.74	14211.73
483.92	14546.43
484.10	14326.42
484.28	14562.81
484.46	14881.13
484.64	15274.34
484.82	15005.17
485.00	14902.19
485.18	15227.53
485.35	15288.38
485.53	15307.10
485.71	15180.71
485.89	15686.27
486.07	15449.88
486.25	15569.24
486.43	15805.64
486.61	15875.85
486.78	16217.57
486.96	16145.02
487.14	16276.09
487.32	16393.11
487.50	16627.17
487.68	16795.68
487.85	17027.40
488.03	17020.38
488.21	17214.64
488.39	17151.45
488.57	17362.09
488.75	17532.95
488.92	17729.56
489.10	17930.84
489.28	18064.25
489.46	18410.65
489.64	18139.15
489.81	18562.79
489.99	18412.99
490.17	18925.57
490.35	18888.12
490.53	18895.14
490.70	19068.34
490.88	18963.02
491.06	19269.63
491.24	19260.27
491.41	19379.64
491.59	19323.46
491.77	19613.69
491.95	19613.69
492.13	20039.67
492.30	19889.87
492.48	20004.56
492.66	20166.06
492.84	20269.04
493.01	20547.56
493.19	20421.17
493.37	20699.70
493.54	20713.74
493.72	21193.55
493.90	20617.78
494.08	21324.62
494.25	21514.20
494.43	21383.13
494.61	21497.82
494.79	21928.48
494.96	21483.78
495.14	21907.41
495.32	22307.65
495.49	22169.55
495.67	22199.98
495.85	22356.80
496.02	22373.18
496.20	22398.93
496.38	22670.43
496.55	22944.27
496.73	23096.41
496.91	22876.40
497.09	23325.78
497.26	23365.57
497.44	23264.92
497.62	23295.35
497.79	23974.11
497.97	23618.35
498.14	23660.48
498.32	23702.61
498.50	23852.40
498.67	24390.72
498.85	23995.17
499.03	24273.70
499.20	24542.86
499.38	24435.19
499.56	24577.97
499.73	24704.35
499.91	24858.83
500.08	24797.98
500.26	24636.48
500.44	25099.90
500.61	25062.46
500.79	24966.49
500.97	24961.81
501.14	25394.81
501.32	25345.66
501.49	25862.92
501.67	25380.77
501.84	25399.49
502.02	25619.50
502.20	25809.09
502.37	26096.97
502.55	25771.64
502.72	25879.30
502.90	26101.65
503.07	26017.40
503.25	26232.72
503.43	26211.66
503.60	26307.62
503.78	26251.45
503.95	26373.16
504.13	26761.69
504.30	26848.29
504.48	27171.28
504.65	26967.65
504.83	27072.98
505.01	27204.05
505.18	27264.90
505.36	27152.55
505.53	27402.99
505.71	27929.61
505.88	27641.73
506.06	27402.99
506.23	27971.74
506.41	27803.22
506.58	27859.40
506.76	27810.25
506.93	28163.67
507.11	27864.08
507.28	28250.27
507.46	28107.49
507.63	28226.86
507.81	28336.87
507.98	28566.24
508.16	28168.35
508.33	28706.67
508.50	28575.60
508.68	28725.39
508.85	29046.05
509.03	28947.75
509.20	28914.98
509.38	29546.92
509.55	29127.97
509.73	29315.21
509.90	29888.64
510.08	29741.19
510.25	29017.96
510.42	29738.85
510.60	30040.78
510.77	29869.92
510.95	30017.37
511.12	30246.74
511.30	30043.12
511.47	30373.13
511.64	30511.22
511.82	30621.23
511.99	30209.29
512.17	30099.29
512.34	30162.48
512.51	30539.31
512.69	30824.86
512.86	30841.24
513.04	30993.37
513.21	30927.84
513.38	30892.73
513.56	30925.50
513.73	30976.99
513.90	31058.91
514.08	30991.03
514.25	31218.07
514.43	31290.62
514.60	31435.74
514.77	31527.02
514.95	31662.77
515.12	31395.95
515.29	31627.66
515.47	31634.68
515.64	32393.01
515.81	32044.27
515.99	31831.29
516.16	32313.44
516.33	32107.47
516.51	31702.56
516.68	31798.52
516.85	31688.51
517.03	31945.97
517.20	32027.89
517.37	32552.17
517.54	32486.64
517.72	32552.17
517.89	32378.97
518.06	32421.10
518.24	32631.75
518.41	32016.19
518.58	32383.65
518.75	32884.53
518.93	32720.69
519.10	33053.05
519.27	33188.80
519.45	32996.87
519.62	33191.14
519.79	33476.68
519.96	33460.30
520.14	33544.56
520.31	33420.51
520.48	33574.98
520.65	33354.97
520.83	34129.69
521.00	33963.51
521.17	33717.76
521.34	34024.37
521.52	34045.43
521.69	34005.64
521.86	34349.70
522.03	34246.72
522.20	34333.32
522.38	34459.71
522.55	34621.20
522.72	34679.72
522.89	34265.44
523.07	34670.36
523.24	34742.91
523.41	34394.17
523.58	34565.03
523.75	35215.70
523.92	35262.51
524.10	35129.10
524.27	35227.40
524.44	35594.87
524.61	35271.87
524.78	35564.44
524.96	35662.74
525.13	35466.14
525.30	36004.46
525.47	35709.55
525.64	35920.20
525.81	35878.07
525.98	35793.81
526.16	35211.02
526.33	35473.16
526.50	35931.90
526.67	35803.17
526.84	35697.85
527.01	35665.08
527.18	35714.23
527.36	36336.82
527.53	36175.32
527.70	36374.27
527.87	36318.09
528.04	36329.80
528.21	36318.09
528.38	36112.13
528.55	36215.11
528.72	36715.98
528.89	36748.75
529.07	36713.64
529.24	36444.48
529.41	36598.96
529.58	36973.44
529.75	36254.90
529.92	36849.39
530.09	36858.76
530.26	37132.60
530.43	37223.88
530.60	37429.85
530.77	37387.72
530.94	37322.18
531.11	37111.53
531.28	37467.30
531.46	37481.34
531.63	37579.64
531.80	37446.23
531.97	37380.70
532.14	37053.02
532.31	37418.14
532.48	37436.87
532.65	38092.22
532.82	37902.64
532.99	38164.78
533.16	37563.26
533.33	37881.57
533.50	38408.19
533.67	37947.11
533.84	37762.20
534.01	37989.24
534.18	37827.74
534.35	38424.57
534.52	38389.47
534.69	38075.84
534.86	38354.36
535.03	38298.19
535.20	38321.59
535.37	38583.73
535.54	38998.01
535.71	38567.35
535.88	38714.80
536.05	38433.94
536.22	39079.92
536.38	38576.71
536.55	39068.22
536.72	38888.00
536.89	38904.38
537.06	38579.05
537.23	39374.83
537.40	38883.32
537.57	39304.62
537.74	39206.31
537.91	39147.80
538.08	39480.16
538.25	39009.71
538.42	39248.44
538.59	39367.81
538.75	38932.47
538.92	39379.51
539.09	39281.21
539.26	39274.19
539.43	39330.36
539.60	39622.93
539.77	39079.92
539.94	39480.16
540.11	39803.15
540.28	39463.77
540.44	39473.13
540.61	39800.81
540.78	39667.40
540.95	39662.72
541.12	39634.63
541.29	39835.92
541.46	39629.95
541.62	40037.20
541.79	40306.37
541.96	39828.90
542.13	39943.58
542.30	39744.64
542.47	40280.62
542.63	40107.42
542.80	40325.09
542.97	40711.28
543.14	40919.59
543.31	40645.74
543.48	40671.49
543.64	40718.30
543.81	41289.39
543.98	40781.49
544.15	41244.92
544.32	40800.22
544.48	40994.48
544.65	40982.78
544.82	41008.53
544.99	40821.28
545.16	41001.50
545.32	41116.19
545.49	41923.68
545.66	41930.70
545.83	41511.74
546.00	41415.78
546.16	41408.76
546.33	41074.06
546.50	41050.66
546.67	41577.28
546.83	41048.32
547.00	41322.16
547.17	41244.92
547.34	41298.75
547.50	41205.13
547.67	41785.58
547.84	41769.20
548.00	41738.77
548.17	42225.60
548.34	41469.61
548.51	41780.90
548.67	41766.86
548.84	42040.70
549.01	42220.92
549.18	41659.20
549.34	41832.39
549.51	41837.08
549.68	42045.38
549.84	41984.53
550.01	41839.42
550.18	42000.91
550.34	42305.18
550.51	42024.32
550.68	42293.48
550.84	41603.02
551.01	42674.99
551.18	42380.08
551.34	42218.58
551.51	42698.39
551.68	42040.70
551.84	42560.30
552.01	42064.11
552.18	42316.89
552.34	42553.28
552.51	42609.45
552.68	42389.44
552.84	42330.93
553.01	42930.11
553.18	42403.49
553.34	42391.78
553.51	41998.57
553.67	42693.71
553.84	42817.76
554.01	42595.41
554.17	42974.58
554.34	43110.33
554.51	43012.02
554.67	43103.31
554.84	42703.07
555.00	42960.53
555.17	42960.53
555.33	42976.92
555.50	42852.87
555.67	43288.21
555.83	42969.90
556.00	42869.25
556.16	43306.93
556.33	43089.26
556.50	42813.08
556.66	42932.45
556.83	42993.30
556.99	42953.51
557.16	43606.52
557.32	43323.32
557.49	43384.17
557.65	43526.94
557.82	42937.13
557.98	43269.48
558.15	43405.23
558.32	43622.90
558.48	43103.31
558.65	43164.16
558.81	43578.43
558.98	43309.27
559.14	43648.65
559.31	43440.34
559.47	43852.28
559.64	43533.96
559.80	43739.93
559.97	43817.17
560.13	43573.75
560.30	43814.83
560.46	43414.60
560.63	43484.81
560.79	43482.47
560.96	44526.35
561.12	43847.60
561.29	43702.48
561.45	43480.13
561.61	43524.60
561.78	43707.16
561.94	43863.98
562.11	43845.26
562.27	43583.12
562.44	43606.52
562.60	43779.72
562.77	43821.85
562.93	43990.37
563.10	43735.25
563.26	43667.37
563.42	44048.88
563.59	43772.70
563.75	44002.07
563.92	43782.06
564.08	43952.92
564.24	44205.70
564.41	43753.97
564.57	44083.99
564.74	43627.59
564.90	43868.66
565.07	44287.62
565.23	44091.01
565.39	44004.41
565.56	43667.37
565.72	44023.14
565.88	43943.56
566.05	44296.98
566.21	44025.48
566.38	44037.18
566.54	43746.95
566.70	44322.72
566.87	44781.47
567.03	43878.02
567.19	44259.53
567.36	44664.44
567.52	44577.84
567.68	44552.10
567.85	44004.41
568.01	44135.48
568.17	44198.68
568.34	44046.54
568.50	44018.46
568.66	43988.03
568.83	43978.67
568.99	44058.24
569.15	44041.86
569.32	44306.34
569.48	44194.00
569.64	44598.91
569.81	44355.49
569.97	43997.39
570.13	44381.24
570.30	44268.89
570.46	43882.70
570.62	43936.54
570.78	44257.19
570.95	44114.42
571.11	44477.20
571.27	44273.57
571.43	44194.00
571.60	44158.89
571.76	44121.44
571.92	44179.95
572.09	44123.78
572.25	44287.62
572.41	44341.45
572.57	44830.62
572.74	45228.51
572.90	44444.43
573.06	44334.43
573.22	44535.71
573.38	44414.01
573.55	44547.42
573.71	44495.92
573.87	44437.41
574.03	44479.54
574.20	44196.34
574.36	44528.69
574.52	44542.74
574.68	44175.27
574.84	44278.25
575.01	44697.21
575.17	44491.24
575.33	44538.05
575.49	44224.42
575.65	44491.24
575.82	44980.42
575.98	44261.87
576.14	44753.38
576.30	44631.68
576.46	44535.71
576.62	44964.03
576.79	44568.48
576.95	44198.68
577.11	44533.37
577.27	44910.20
577.43	44467.84
577.59	44650.40
577.75	44669.12
577.92	44535.71
578.08	43735.25
578.24	44638.70
578.40	44495.92
578.56	44645.72
578.72	44804.88
578.88	44711.25
579.04	44289.96
579.21	44685.51
579.37	44861.05
579.53	44711.25
579.69	44186.97
579.85	44542.74
580.01	44512.31
580.17	44545.08
580.33	45036.59
580.49	44561.46
580.65	45076.38
580.82	44912.54
580.98	44259.53
581.14	44378.90
581.30	44966.37
581.46	44741.68
581.62	45045.95
581.78	44615.29
581.94	44643.38
582.10	44643.38
582.26	44767.43
582.42	44463.16
582.58	44360.17
582.74	44587.21
582.90	44783.81
583.06	44839.98
583.22	44739.34
583.38	45076.38
583.54	44662.10
583.70	44973.39
583.86	44858.71
584.02	44751.04
584.18	44907.86
584.34	44877.43
584.50	44755.72
584.66	44678.49
584.82	44875.09
584.98	44961.69
585.14	44664.44
585.30	44229.10
585.46	44669.12
585.62	44760.40
585.78	44872.75
585.94	44495.92
586.10	44945.31
586.26	44800.19
586.42	44765.09
586.58	44994.46
586.74	44678.49
586.90	44903.18
587.06	44676.15
587.22	44783.81
587.38	44177.61
587.54	44737.00
587.70	44636.36
587.86	44711.25
588.02	45083.40
588.18	44694.87
588.34	44772.11
588.49	44346.13
588.65	43992.71
588.81	44362.51
588.97	44884.45
589.13	44837.64
589.29	44587.21
589.45	44713.59
589.61	44725.30
589.77	44931.26
589.93	45139.57
590.08	45205.11
590.24	44802.53
