SpectraSuite Data File
++++++++++++++++++++++++++++++++++++
Date: Fri Oct 25 10:47:31 EDT 2013
User: price-jones
Dark Spectrum Present: No
Reference Spectrum Present: No
Number of Sampled Component Spectra: 1
Spectrometers: USB2+H05261
Integration Time (usec): 100000 (USB2+H05261)
Spectra Averaged: 1 (USB2+H05261)
Boxcar Smoothing: 0 (USB2+H05261)
Correct for Electrical Dark: No (USB2+H05261)
Strobe/Lamp Enabled: No (USB2+H05261)
Correct for Detector Non-linearity: No (USB2+H05261)
Correct for Stray Light: No (USB2+H05261)
Number of Pixels in Processed Spectrum: 2048
>>>>>Begin Processed Spectral Data<<<<<
365.73	156.82
365.92	156.82
366.12	156.82
366.32	84.26
366.52	131.07
366.72	79.58
366.91	37.45
367.11	56.17
367.31	51.49
367.51	49.15
367.70	77.24
367.90	0.00
368.10	21.06
368.30	0.00
368.49	117.03
368.69	0.00
368.89	67.88
369.09	77.24
369.28	88.94
369.48	149.79
369.68	84.26
369.87	135.75
370.07	86.60
370.27	126.39
370.47	212.99
370.66	348.74
370.86	411.93
371.06	470.45
371.25	414.27
371.45	454.06
371.65	393.21
371.84	381.51
372.04	418.96
372.24	433.00
372.44	449.38
372.63	479.81
372.83	367.46
373.03	470.45
373.22	449.38
373.42	538.32
373.62	451.72
373.81	538.32
374.01	510.24
374.21	617.90
374.40	531.30
374.60	592.16
374.79	500.87
374.99	514.92
375.19	554.71
375.38	669.39
375.58	521.94
375.78	568.75
375.97	531.30
376.17	589.82
376.37	510.24
376.56	585.13
376.76	561.73
376.95	564.07
377.15	592.16
377.35	636.63
377.54	585.13
377.74	592.16
377.93	589.82
378.13	566.41
378.33	653.01
378.52	692.80
378.72	514.92
378.91	706.84
379.11	631.94
379.31	645.99
379.50	634.29
379.70	697.48
379.89	713.86
380.09	624.92
380.28	589.82
380.48	667.05
380.68	662.37
380.87	653.01
381.07	634.29
381.26	678.76
381.46	615.56
381.65	643.65
381.85	660.03
382.04	599.18
382.24	725.57
382.43	662.37
382.63	671.73
382.83	683.44
383.02	674.07
383.22	744.29
383.41	755.99
383.61	814.51
383.80	711.52
384.00	734.93
384.19	793.44
384.39	690.46
384.58	620.24
384.78	683.44
384.97	760.67
385.17	781.74
385.36	676.41
385.56	660.03
385.75	779.40
385.95	713.86
386.14	763.01
386.34	739.61
386.53	748.97
386.72	746.63
386.92	849.61
387.11	786.42
387.31	753.65
387.50	748.97
387.70	851.96
387.89	791.10
388.09	723.23
388.28	847.27
388.48	866.00
388.67	798.12
388.86	877.70
389.06	870.68
389.25	842.59
389.45	882.38
389.64	854.30
389.84	1071.97
390.03	880.04
390.22	922.17
390.42	863.66
390.61	910.47
390.81	889.40
391.00	945.58
391.19	957.28
391.39	887.06
391.58	863.66
391.78	938.55
391.97	919.83
392.16	880.04
392.36	1032.18
392.55	945.58
392.75	929.19
392.94	966.64
393.13	950.26
393.33	887.06
393.52	976.00
393.71	1048.56
393.91	1004.09
394.10	1020.47
394.29	1020.47
394.49	1046.22
394.68	1107.07
394.88	1107.07
395.07	1128.14
395.26	1210.06
395.46	1132.82
395.65	1107.07
395.84	1004.09
396.04	1116.44
396.23	1011.11
396.42	1146.86
396.62	1165.59
396.81	1118.78
397.00	1118.78
397.19	1128.14
397.39	1240.48
397.58	1228.78
397.77	1118.78
397.97	1261.55
398.16	1254.53
398.35	1315.38
398.55	1273.25
398.74	1259.21
398.93	1291.98
399.12	1320.06
399.32	1256.87
399.51	1352.83
399.70	1357.51
399.90	1291.98
400.09	1341.13
400.28	1425.39
400.47	1497.94
400.67	1427.73
400.86	1427.73
401.05	1397.30
401.24	1324.74
401.44	1519.01
401.63	1565.82
401.82	1537.73
402.01	1362.19
402.21	1528.37
402.40	1483.90
402.59	1481.56
402.78	1507.30
402.97	1563.48
403.17	1582.20
403.36	1556.46
403.55	1605.61
403.74	1703.91
403.93	1493.26
404.13	1584.54
404.32	1582.20
404.51	1610.29
404.70	1619.65
404.89	1701.57
405.09	1598.59
405.28	1586.88
405.47	1645.40
405.66	1734.34
405.85	1792.85
406.05	1696.89
406.24	1769.44
406.43	1736.68
406.62	1790.51
406.81	1879.45
407.00	1781.15
407.20	1741.36
407.39	1767.10
407.58	1851.36
407.77	1944.99
407.96	1837.32
408.15	1963.71
408.34	1916.90
408.54	1940.30
408.73	1877.11
408.92	1984.77
409.11	1926.26
409.30	2050.31
409.49	1902.86
409.68	2108.82
409.87	2024.56
410.07	2113.50
410.26	2083.08
410.45	2040.95
410.64	2083.08
410.83	2218.83
411.02	2047.97
411.21	2155.63
411.40	2146.27
411.59	2195.42
411.78	2141.59
411.98	2127.55
412.17	2211.81
412.36	2293.72
412.55	2310.11
412.74	2476.29
412.93	2403.73
413.12	2368.62
413.31	2560.55
413.50	2445.86
413.69	2413.09
413.88	2513.74
414.07	2532.46
414.26	2534.80
414.45	2633.10
414.64	2572.25
414.83	2633.10
415.02	2654.17
415.22	2710.34
415.41	2619.06
415.60	2600.34
415.79	2693.96
415.98	2761.83
416.17	2827.37
416.36	2846.09
416.55	2850.77
416.74	2818.00
416.93	2834.39
417.12	2869.50
417.31	2883.54
417.50	2815.66
417.69	3141.00
417.88	2993.55
418.07	2988.86
418.26	3063.76
418.45	3098.87
418.64	3112.91
418.83	3136.32
419.02	2963.12
419.21	3056.74
419.39	3054.40
419.58	3115.25
419.77	3094.19
419.96	3098.87
420.15	3178.45
420.34	3187.81
420.53	3222.92
420.72	3253.34
420.91	3342.28
421.10	3311.86
421.29	3272.07
421.48	3124.62
421.67	3316.54
421.86	3311.86
422.05	3370.37
422.24	3410.16
422.43	3396.12
422.61	3323.56
422.80	3496.76
422.99	3351.65
423.18	3363.35
423.37	3463.99
423.56	3440.59
423.75	3492.08
423.94	3442.93
424.13	3265.05
424.32	3274.41
424.50	3445.27
424.69	3424.20
424.88	3588.04
425.07	3410.16
425.26	3400.80
425.45	3461.65
425.64	3463.99
425.83	3503.78
426.01	3365.69
426.20	3485.06
426.39	3545.91
426.58	3513.14
426.77	3433.57
426.96	3609.11
427.15	3492.08
427.33	3506.12
427.52	3590.38
427.71	3576.34
427.90	3571.66
428.09	3588.04
428.28	3611.45
428.46	3749.54
428.65	3693.37
428.84	3812.73
429.03	3805.71
429.22	3779.97
429.40	3728.47
429.59	3611.45
429.78	3571.66
429.97	3583.36
430.16	3817.41
430.34	3784.65
430.53	3716.77
430.72	3747.20
430.91	3803.37
431.10	3686.34
431.28	3974.23
431.47	3967.21
431.66	4088.92
431.85	3927.42
432.03	4128.70
432.22	4100.62
432.41	4081.89
432.60	4105.30
432.79	3974.23
432.97	4063.17
433.16	4182.54
433.35	4109.98
433.54	4133.39
433.72	4149.77
433.91	4074.87
434.10	4372.12
434.28	4241.05
434.47	4161.47
434.66	4339.35
434.85	4332.33
435.03	4381.48
435.22	4395.53
435.41	4512.55
435.59	4454.04
435.78	4451.70
435.97	4411.91
436.16	4332.33
436.34	4430.63
436.53	4386.16
436.72	4695.11
436.90	4456.38
437.09	4442.34
437.28	4482.13
437.46	4482.13
437.65	4482.13
437.84	4664.69
438.02	4660.01
438.21	4568.73
438.40	4683.41
438.58	4748.95
438.77	4753.63
438.96	4751.29
439.14	4835.55
439.33	4903.42
439.52	4926.83
439.70	4809.80
439.89	5067.26
440.08	4926.83
440.26	5015.77
440.45	5118.75
440.63	5132.79
440.82	5142.16
441.01	5217.05
441.19	5350.46
441.38	5420.68
441.57	5177.26
441.75	5486.22
441.94	5476.85
442.12	5305.99
442.31	5420.68
442.50	5472.17
442.68	5518.98
442.87	5497.92
443.05	5458.13
443.24	5680.48
443.43	5455.79
443.61	5605.58
443.80	5734.31
443.98	5561.11
444.17	5526.00
444.35	5572.82
444.54	5696.86
444.73	5605.58
444.91	5563.45
445.10	5706.23
445.28	5652.39
445.47	5551.75
445.65	5710.91
445.84	5760.06
446.02	5909.85
446.21	5788.14
446.39	5666.44
446.58	5781.12
446.77	5661.76
446.95	5654.73
447.14	5795.17
447.32	5715.59
447.51	5863.04
447.69	5774.10
447.88	5891.13
448.06	5973.05
448.25	5870.06
448.43	5825.59
448.62	5856.02
448.80	5879.43
448.99	5933.26
449.17	6001.13
449.36	5858.36
449.54	6080.71
449.73	6108.80
449.91	6258.59
450.10	6083.05
450.28	6342.85
450.46	6141.57
450.65	6038.58
450.83	6256.25
451.02	6246.89
451.20	6377.96
451.39	6265.61
451.57	6253.91
451.76	6183.70
451.94	6282.00
452.13	6352.21
452.31	6286.68
452.49	6200.08
452.68	6289.02
452.86	6389.66
453.05	6335.83
453.23	6361.58
453.42	6387.32
453.60	6424.77
453.78	6335.83
453.97	6413.07
454.15	6530.09
454.34	6373.28
454.52	6604.99
454.70	6429.45
454.89	6633.08
455.07	6715.00
455.26	6682.23
455.44	6502.01
455.62	6626.06
455.81	6761.81
455.99	6707.98
456.17	7035.65
456.36	6677.55
456.54	6913.94
456.73	6986.50
456.91	7002.88
457.09	7180.76
457.28	7260.34
457.46	7110.55
457.64	7143.32
457.83	7082.46
458.01	7005.22
458.19	7082.46
458.38	7124.59
458.56	7421.84
458.74	7157.36
458.93	7169.06
459.11	7260.34
459.29	7290.77
459.48	7337.58
459.66	7129.27
459.84	7368.01
460.03	7279.07
460.21	7379.71
460.39	7274.38
460.57	7403.11
460.76	7335.24
460.94	7517.80
461.12	7550.57
461.31	7751.85
461.49	7524.82
461.67	7740.15
461.85	7726.11
462.04	7499.08
462.22	8290.18
462.40	7733.13
462.59	7803.35
462.77	7742.49
462.95	7735.47
463.13	7824.41
463.32	7733.13
463.50	7925.05
463.68	7974.21
463.86	8077.19
464.05	7810.37
464.23	7864.20
464.41	8095.91
464.59	7875.90
464.78	8093.57
464.96	8049.10
465.14	7946.12
465.32	7990.59
465.50	8292.52
465.69	8336.99
465.87	8243.37
466.05	8072.51
466.23	8105.28
466.41	8290.18
466.60	8461.04
466.78	8257.41
466.96	8191.88
467.14	8131.02
467.32	8418.91
467.51	8362.73
467.69	8219.96
467.87	8280.82
468.05	8449.33
468.23	8273.79
468.41	8224.64
468.60	8334.65
468.78	8435.29
468.96	8449.33
469.14	8444.65
469.32	8812.12
469.50	8351.03
469.69	8755.94
469.87	8896.38
470.05	8568.70
470.23	8807.44
470.41	8702.11
470.59	9008.72
470.77	8762.97
470.95	9025.11
471.14	9041.49
471.32	8697.43
471.50	8992.34
471.68	9144.47
471.86	9081.28
472.04	9142.13
472.22	9348.10
472.40	9188.94
472.58	9184.26
472.77	9544.70
472.95	9430.02
473.13	9626.62
473.31	9343.42
473.49	9338.74
473.67	9565.77
473.85	9511.94
474.03	9788.12
474.21	9565.77
474.39	9703.86
474.57	9916.85
474.75	9984.73
474.93	9909.83
475.12	9977.70
475.30	10008.13
475.48	9863.02
475.66	10040.90
475.84	10083.03
476.02	10064.30
476.20	10188.35
476.38	10174.31
476.56	10427.09
476.74	10523.05
476.92	10504.32
477.10	10602.63
477.28	10682.20
477.46	10803.91
477.64	10785.19
477.82	11154.99
478.00	11229.89
478.18	11215.85
478.36	11222.87
478.54	11117.54
478.72	11309.47
478.90	11543.52
479.08	11463.94
479.26	11468.62
479.44	11854.81
479.62	11747.15
479.80	11545.86
479.98	11864.18
480.16	12135.68
480.34	11978.86
480.52	12081.85
480.70	12229.30
480.88	12205.89
481.06	12201.21
481.24	12421.22
481.41	12449.31
481.59	12699.75
481.77	12664.64
481.95	12781.67
482.13	12943.16
482.31	12975.93
482.49	13425.31
482.67	13050.83
482.85	13233.39
483.03	13369.14
483.21	13701.50
483.39	13832.57
483.57	13549.36
483.74	13888.74
483.92	14068.96
484.10	13994.06
484.28	14267.91
484.46	14298.33
484.64	14572.18
484.82	14368.55
485.00	14256.20
485.18	14721.97
485.35	14857.72
485.53	14801.55
485.71	14799.21
485.89	15145.61
486.07	15063.69
486.25	15344.55
486.43	15197.10
486.61	15157.31
486.78	15852.45
486.96	15639.46
487.14	16018.63
487.32	15648.82
487.50	16109.91
487.68	16442.26
487.85	16533.54
488.03	16573.33
488.21	16697.38
488.39	16561.63
488.57	16753.55
488.75	17179.53
488.92	17153.79
489.10	17209.96
489.28	17322.30
489.46	17635.94
489.64	17418.27
489.81	17987.02
489.99	18057.23
490.17	18001.06
490.35	18586.19
490.53	18490.23
490.70	18548.75
490.88	18520.66
491.06	18726.63
491.24	18656.41
491.41	18661.09
491.59	18834.29
491.77	18845.99
491.95	19051.96
492.13	19147.92
492.30	19180.69
492.48	19470.92
492.66	19639.44
492.84	19733.06
493.01	19903.92
493.19	19630.07
493.37	20233.93
493.54	20067.75
493.72	20240.95
493.90	20451.60
494.08	20390.75
494.25	20594.37
494.43	20868.22
494.61	21006.31
494.79	21050.78
494.96	21067.16
495.14	21188.87
495.32	21245.04
495.49	21277.81
495.67	21408.88
495.85	21565.70
496.02	21671.02
496.20	21795.07
496.38	21656.98
496.55	22008.06
496.73	22590.85
496.91	22104.02
497.09	22438.72
497.26	22742.99
497.44	22593.19
497.62	22595.53
497.79	23012.15
497.97	22977.04
498.14	23129.17
498.32	23190.03
498.50	23063.64
498.67	23264.92
498.85	23381.95
499.03	23648.77
499.20	23599.62
499.38	23969.43
499.56	24140.29
499.73	23859.42
499.91	24037.30
500.08	24067.73
500.26	24547.54
500.44	24173.05
500.61	24217.52
500.79	24224.54
500.97	24329.87
501.14	24732.44
501.32	24685.63
501.49	24774.57
501.67	24751.17
501.84	25127.99
502.02	24992.24
502.20	24868.19
502.37	25242.68
502.55	25202.89
502.72	25132.67
502.90	25394.81
503.07	25415.88
503.25	25530.56
503.43	25570.35
503.60	25685.04
503.78	25710.78
503.95	25886.32
504.13	25785.68
504.30	26106.34
504.48	26068.89
504.65	26260.81
504.83	26359.11
505.01	26464.44
505.18	26389.54
505.36	26731.26
505.53	26616.57
505.71	27164.26
505.88	27047.23
506.06	26511.25
506.23	26909.14
506.41	26691.47
506.58	27110.43
506.76	27363.20
506.93	27206.39
507.11	27395.97
507.28	27433.42
507.46	27119.79
507.63	27562.15
507.81	27412.35
507.98	27592.58
508.16	27608.96
508.33	28091.11
508.50	27910.89
508.68	27723.65
508.85	28205.80
509.03	27971.74
509.20	28163.67
509.38	28631.77
509.55	28678.58
509.73	28858.81
509.90	28603.69
510.08	28842.42
510.25	28587.30
510.42	28856.46
510.60	29057.75
510.77	29322.23
510.95	29123.29
511.12	29067.11
511.30	29006.26
511.47	29111.58
511.64	29509.47
511.82	29869.92
511.99	29113.92
512.17	29488.41
512.34	29277.76
512.51	29378.40
512.69	30038.44
512.86	30228.02
513.04	30204.61
513.21	30036.09
513.38	30246.74
513.56	29839.49
513.73	30115.67
513.90	30462.07
514.08	29956.52
514.25	30368.45
514.43	30352.07
514.60	30441.01
514.77	30944.22
514.95	30747.62
515.12	30590.80
515.29	31164.23
515.47	31466.16
515.64	31248.49
515.81	31227.43
515.99	31152.53
516.16	31496.59
516.33	31105.72
516.51	31400.63
516.68	31091.68
516.85	31234.45
517.03	31063.59
517.20	31456.80
517.37	31608.93
517.54	31875.76
517.72	31704.90
517.89	31641.70
518.06	31641.70
518.24	31564.46
518.41	31854.69
518.58	31910.86
518.75	31613.62
518.93	32442.17
519.10	32470.25
519.27	32016.19
519.45	32163.64
519.62	32369.61
519.79	32704.31
519.96	32428.12
520.14	32863.46
520.31	32776.86
520.48	32779.20
520.65	32552.17
520.83	33184.12
521.00	33233.27
521.17	32816.65
521.34	33467.32
521.52	33404.13
521.69	33254.33
521.86	33347.95
522.03	33743.50
522.20	33469.66
522.38	33724.78
522.55	33453.28
522.72	33528.17
522.89	33926.07
523.07	33612.43
523.24	33652.22
523.41	33897.98
523.58	33706.05
523.75	34183.52
523.92	34312.25
524.10	34384.81
524.27	34129.69
524.44	34621.20
524.61	34361.40
524.78	34373.11
524.96	34658.65
525.13	34953.56
525.30	34803.77
525.47	34838.87
525.64	34951.22
525.81	34948.88
525.98	35260.17
526.16	34352.04
526.33	35126.76
526.50	35386.56
526.67	35166.55
526.84	34969.94
527.01	34869.30
527.18	35227.40
527.36	35393.58
527.53	35718.92
527.70	35887.43
527.87	35810.20
528.04	35103.35
528.21	35772.75
528.38	35196.98
528.55	35945.95
528.72	35915.52
528.89	35866.37
529.07	35864.03
529.24	36161.28
529.41	35941.27
529.58	35880.41
529.75	35737.64
529.92	36070.00
530.09	36119.15
530.26	36315.75
530.43	36285.33
530.60	36208.09
530.77	36336.82
530.94	37127.92
531.11	36666.83
531.28	36758.11
531.46	36732.37
531.63	36601.30
531.80	36910.25
531.97	36591.94
532.14	36765.14
532.31	36774.50
532.48	36854.08
532.65	36971.10
532.82	37390.06
532.99	37397.08
533.16	36919.61
533.33	37216.86
533.50	37151.32
533.67	37626.45
533.84	36975.78
534.01	37415.80
534.18	37544.53
534.35	37158.34
534.52	37338.57
534.69	37273.03
534.86	37504.74
535.03	37560.92
535.20	37958.81
535.37	38085.20
535.54	37741.14
535.71	37673.26
535.88	37904.98
536.05	37897.95
536.22	37874.55
536.38	38239.67
536.55	37699.01
536.72	38038.39
536.89	37539.85
537.06	37706.03
537.23	38127.33
537.40	38115.62
537.57	38459.68
537.74	38391.81
537.91	38529.90
538.08	38438.62
538.25	37883.91
538.42	38384.79
538.59	38852.89
538.75	38089.88
538.92	38508.83
539.09	38576.71
539.26	38464.36
539.43	38532.24
539.60	39115.03
539.77	38457.34
539.94	39077.58
540.11	38857.57
540.28	38546.28
540.44	38593.09
540.61	39009.71
540.78	38733.53
540.95	38618.84
541.12	38841.19
541.29	39271.85
541.46	39199.29
541.62	39103.33
541.79	39440.37
541.96	38789.70
542.13	39379.51
542.30	39449.73
542.47	39419.30
542.63	39625.27
542.80	39447.39
542.97	39828.90
543.14	40601.27
543.31	39962.31
543.48	40062.95
543.64	40399.99
543.81	39861.66
543.98	40477.22
544.15	39646.33
544.32	40343.81
544.48	40435.10
544.65	40376.58
544.82	40615.32
544.99	40341.47
545.16	40254.87
545.32	40102.74
545.49	40622.34
545.66	40694.89
545.83	40336.79
546.00	40669.15
546.16	40636.38
546.33	40346.15
546.50	40418.71
546.67	40624.68
546.83	40154.23
547.00	40570.85
547.17	40378.92
547.34	40872.78
547.50	41001.50
547.67	40928.95
547.84	41139.60
548.00	41364.29
548.17	40856.39
548.34	40708.94
548.51	41092.79
548.67	41179.39
548.84	41205.13
549.01	41249.60
549.18	40809.58
549.34	41214.49
549.51	41284.71
549.68	41663.88
549.84	40809.58
550.01	41631.11
550.18	40884.48
550.34	41104.49
550.51	41404.08
550.68	41478.97
550.84	41432.16
551.01	41605.36
551.18	41254.28
551.34	41291.73
551.51	41661.54
551.68	41654.51
551.84	42335.61
552.01	41432.16
552.18	41963.46
552.34	40964.06
552.51	41799.63
552.68	41769.20
552.84	41914.31
553.01	42272.42
553.18	41799.63
553.34	41649.83
553.51	41659.20
553.67	42094.53
553.84	42106.24
554.01	42249.01
554.17	42546.26
554.34	42136.66
554.51	42167.09
554.67	42485.40
554.84	42288.80
555.00	42162.41
555.17	42096.88
555.33	42618.81
555.50	42101.56
555.67	42611.79
555.83	42541.58
556.00	42239.65
556.16	42740.52
556.33	42742.86
556.50	42527.53
556.66	42728.82
556.83	42349.65
556.99	42904.36
557.16	42665.63
557.32	42583.71
557.49	42618.81
557.65	42330.93
557.82	42698.39
557.98	42644.56
558.15	42572.00
558.32	43131.39
558.48	42454.98
558.65	42520.51
558.81	42890.32
558.98	43091.60
559.14	42918.40
559.31	42670.31
559.47	43133.73
559.64	43037.77
559.80	42934.79
559.97	42932.45
560.13	42911.38
560.30	42979.26
560.46	43145.44
560.63	42377.74
560.79	42981.60
560.96	43033.09
561.12	43152.46
561.29	43107.99
561.45	43157.14
561.61	43442.68
561.78	43302.25
561.94	43335.02
562.11	43187.56
562.27	42974.58
562.44	43351.40
562.60	43096.28
562.77	43285.87
562.93	43044.79
563.10	43475.45
563.26	43339.70
563.42	43351.40
563.59	43339.70
563.75	42808.40
563.92	43810.15
564.08	43761.00
564.24	43796.10
564.41	43482.47
564.57	43311.61
564.74	43377.15
564.90	43711.84
565.07	43217.99
565.23	43395.87
565.39	43559.71
565.56	43475.45
565.72	43627.59
565.88	43557.37
566.05	43550.35
566.21	43150.12
566.38	43145.44
566.54	43496.52
566.70	43498.86
566.87	44156.55
567.03	43501.20
567.19	44215.06
567.36	43973.98
567.52	43618.22
567.68	44093.35
567.85	43950.58
568.01	43901.43
568.17	43456.73
568.34	43749.29
568.50	43746.95
568.66	43697.80
568.83	43856.96
568.99	43655.67
569.15	43833.55
569.32	43459.07
569.48	43543.33
569.64	43955.26
569.81	43599.50
569.97	44100.37
570.13	43564.39
570.30	43540.99
570.46	43622.90
570.62	43793.76
570.78	43559.71
570.95	43927.17
571.11	44252.51
571.27	43739.93
571.43	44126.12
571.60	43852.28
571.76	43899.09
571.92	43999.73
572.09	44072.29
572.25	44170.59
572.41	43756.32
572.57	43957.60
572.74	44390.60
572.90	43903.77
573.06	43875.68
573.22	43950.58
573.38	44034.84
573.55	43569.07
573.71	44449.11
573.87	44224.42
574.03	43641.63
574.20	43744.61
574.36	43571.41
574.52	44210.38
574.68	44392.94
574.84	44102.71
575.01	43824.19
575.17	44311.02
575.33	43831.21
575.49	44030.16
575.65	44367.20
575.82	44678.49
575.98	44009.09
576.14	44573.16
576.30	44112.08
576.46	44053.56
576.62	43777.38
576.79	44233.78
576.95	43508.22
577.11	44289.96
577.27	44086.33
577.43	43899.09
577.59	44119.10
577.75	44313.36
577.92	44088.67
578.08	43856.96
578.24	44069.95
578.40	43620.56
578.56	44250.17
578.72	44072.29
578.88	44275.91
579.04	43908.45
579.21	44261.87
579.37	43913.13
579.53	44020.80
579.69	43758.66
579.85	43992.71
580.01	44191.65
580.17	44121.44
580.33	44212.72
580.49	44034.84
580.65	44432.73
580.82	44163.57
580.98	44165.91
581.14	44048.88
581.30	44362.51
581.46	44664.44
581.62	43805.47
581.78	44060.58
581.94	44636.36
582.10	44165.91
582.26	44367.20
582.42	44416.35
582.58	44439.75
582.74	44093.35
582.90	44381.24
583.06	44676.15
583.22	44292.30
583.38	44615.29
583.54	44128.46
583.70	44065.27
583.86	43906.11
584.02	44311.02
584.18	44224.42
584.34	44076.97
584.50	44067.61
584.66	44154.21
584.82	44034.84
584.98	44692.53
585.14	44147.18
585.30	44154.21
585.46	44430.39
585.62	44163.57
585.78	44278.25
585.94	43863.98
586.10	44102.71
586.26	44432.73
586.42	43997.39
586.58	43981.01
586.74	44327.41
586.90	43952.92
587.06	44086.33
587.22	44556.78
587.38	43803.13
587.54	44680.83
587.70	44617.63
587.86	44397.62
588.02	44559.12
588.18	44589.55
588.34	44266.55
588.49	43882.70
588.65	44287.62
588.81	44172.93
588.97	43716.53
589.13	44423.37
589.29	44273.57
589.45	44718.28
589.61	44252.51
589.77	44655.08
589.93	44619.97
590.08	44561.46
590.24	44619.97
