SpectraSuite Data File
++++++++++++++++++++++++++++++++++++
Date: Fri Oct 25 11:26:42 EDT 2013
User: price-jones
Dark Spectrum Present: No
Reference Spectrum Present: No
Number of Sampled Component Spectra: 1
Spectrometers: USB2+H05261
Integration Time (usec): 100000 (USB2+H05261)
Spectra Averaged: 1 (USB2+H05261)
Boxcar Smoothing: 0 (USB2+H05261)
Correct for Electrical Dark: No (USB2+H05261)
Strobe/Lamp Enabled: No (USB2+H05261)
Correct for Detector Non-linearity: No (USB2+H05261)
Correct for Stray Light: No (USB2+H05261)
Number of Pixels in Processed Spectrum: 2048
>>>>>Begin Processed Spectral Data<<<<<
365.73	250.44
365.92	250.44
366.12	250.44
366.32	184.90
366.52	77.24
366.72	128.73
366.91	67.88
367.11	102.98
367.31	182.56
367.51	147.45
367.70	67.88
367.90	105.32
368.10	159.16
368.30	131.07
368.49	77.24
368.69	222.35
368.89	236.39
369.09	198.95
369.28	187.24
369.48	166.18
369.68	215.33
369.87	231.71
370.07	208.31
370.27	259.80
370.47	386.19
370.66	554.71
370.86	627.26
371.06	678.76
371.25	709.18
371.45	650.67
371.65	655.35
371.84	648.33
372.04	636.63
372.24	695.14
372.44	765.36
372.63	753.65
372.83	744.29
373.03	760.67
373.22	779.40
373.42	800.46
373.62	814.51
373.81	798.12
374.01	844.93
374.21	938.55
374.40	873.02
374.60	840.25
374.79	837.91
374.99	730.25
375.19	847.27
375.38	889.40
375.58	854.30
375.78	875.36
375.97	844.93
376.17	828.55
376.37	887.06
376.56	882.38
376.76	844.93
376.95	854.30
377.15	919.83
377.35	891.74
377.54	950.26
377.74	957.28
377.93	905.79
378.13	882.38
378.33	919.83
378.52	889.40
378.72	1006.43
378.91	994.73
379.11	973.66
379.31	884.72
379.50	905.79
379.70	915.15
379.89	1011.11
380.09	1018.13
380.28	999.41
380.48	1086.01
380.68	1008.77
380.87	1071.97
381.07	887.06
381.26	1114.10
381.46	999.41
381.65	1074.31
381.85	1001.75
382.04	1128.14
382.24	1067.28
382.43	1046.22
382.63	1128.14
382.83	1118.78
383.02	1135.16
383.22	1102.39
383.41	1090.69
383.61	1100.05
383.80	1163.25
384.00	1071.97
384.19	1142.18
384.39	1196.01
384.58	1198.35
384.78	1118.78
384.97	1291.98
385.17	1165.59
385.36	1226.44
385.56	1219.42
385.75	1165.59
385.95	1228.78
386.14	1249.85
386.34	1191.33
386.53	1219.42
386.72	1200.69
386.92	1245.16
387.11	1252.19
387.31	1224.10
387.50	1301.34
387.70	1179.63
387.89	1350.49
388.09	1287.29
388.28	1235.80
388.48	1282.61
388.67	1362.19
388.86	1324.74
389.06	1376.24
389.25	1488.58
389.45	1420.71
389.64	1373.89
389.84	1334.11
390.03	1406.66
390.22	1430.07
390.42	1476.88
390.61	1362.19
390.81	1423.05
391.00	1369.21
391.19	1495.60
391.39	1528.37
391.58	1493.26
391.78	1565.82
391.97	1519.01
392.16	1629.01
392.36	1554.12
392.55	1523.69
392.75	1572.84
392.94	1645.40
393.13	1563.48
393.33	1542.41
393.52	1584.54
393.71	1554.12
393.91	1561.14
394.10	1624.33
394.29	1699.23
394.49	1568.16
394.68	1633.69
394.88	1593.90
395.07	1673.48
395.26	1724.97
395.46	1685.19
395.65	1729.66
395.84	1839.66
396.04	1757.74
396.23	1898.17
396.42	1696.89
396.62	1771.79
396.81	1837.32
397.00	1673.48
397.19	1830.30
397.39	1802.21
397.58	1837.32
397.77	1893.49
397.97	1863.07
398.16	1792.85
398.35	1952.01
398.55	1818.60
398.74	1858.39
398.93	1909.88
399.12	1921.58
399.32	2029.24
399.51	1989.46
399.70	2008.18
399.90	2047.97
400.09	2038.61
400.28	2125.21
400.47	2054.99
400.67	2092.44
400.86	2132.23
401.05	2108.82
401.24	2073.71
401.44	2169.68
401.63	2242.23
401.82	2186.06
402.01	2083.08
402.21	2176.70
402.40	2328.83
402.59	2314.79
402.78	2225.85
402.97	2200.10
403.17	2211.81
403.36	2197.76
403.55	2363.94
403.74	2352.24
403.93	2310.11
404.13	2401.39
404.32	2415.43
404.51	2399.05
404.70	2516.08
404.89	2469.27
405.09	2352.24
405.28	2504.37
405.47	2487.99
405.66	2469.27
405.85	2502.03
406.05	2502.03
406.24	2569.91
406.43	2567.57
406.62	2595.65
406.81	2623.74
407.00	2457.56
407.20	2612.04
407.39	2532.46
407.58	2626.08
407.77	2764.17
407.96	2750.13
408.15	2780.56
408.34	2670.55
408.54	2773.53
408.73	2825.03
408.92	2813.32
409.11	2869.50
409.30	2960.78
409.49	2780.56
409.68	2956.10
409.87	3049.72
410.07	2998.23
410.26	3141.00
410.45	2963.12
410.64	3021.63
410.83	3124.62
411.02	3112.91
411.21	3129.30
411.40	3082.49
411.59	3243.98
411.78	3246.32
411.98	3218.24
412.17	3300.16
412.36	3300.16
412.55	3396.12
412.74	3389.10
412.93	3466.33
413.12	3485.06
413.31	3571.66
413.50	3585.70
413.69	3653.58
413.88	3655.92
414.07	3585.70
414.26	3712.09
414.45	3735.50
414.64	3719.11
414.83	3815.07
415.02	3749.54
415.22	3808.05
415.41	3845.50
415.60	3847.84
415.79	3925.08
415.98	3964.87
416.17	3981.25
416.36	3918.06
416.55	3999.98
416.74	4180.20
416.93	4152.11
417.12	4159.13
417.31	4147.43
417.50	4362.76
417.69	4362.76
417.88	4451.70
418.07	4325.31
418.26	4287.86
418.45	4278.50
418.64	4498.51
418.83	4468.08
419.02	4557.02
419.21	4505.53
419.39	4533.62
419.58	4437.66
419.77	4388.50
419.96	4482.13
420.15	4550.00
420.34	4807.46
420.53	4648.30
420.72	4681.07
420.91	4676.39
421.10	4718.52
421.29	4798.10
421.48	4688.09
421.67	4791.08
421.86	4706.82
422.05	4802.78
422.24	5076.62
422.43	4950.23
422.61	4802.78
422.80	5053.22
422.99	5001.72
423.18	4887.04
423.37	4978.32
423.56	4997.04
423.75	4917.47
423.94	4802.78
424.13	4589.79
424.32	4809.80
424.50	4990.02
424.69	5067.26
424.88	5135.14
425.07	4954.91
425.26	4856.61
425.45	4858.95
425.64	4880.02
425.83	4994.70
426.01	4994.70
426.20	5123.43
426.39	5088.32
426.58	4973.64
426.77	5224.08
426.96	5238.12
427.15	5123.43
427.33	5165.56
427.52	5221.74
427.71	5263.86
427.90	5362.17
428.09	5420.68
428.28	5149.18
428.46	5411.32
428.65	5245.14
428.84	5561.11
429.03	5526.00
429.22	5268.55
429.40	5490.90
429.59	5472.17
429.78	5275.57
429.97	5245.14
430.16	5628.99
430.34	5696.86
430.53	5579.84
430.72	5451.11
430.91	5717.93
431.10	5633.67
431.28	5678.14
431.47	5844.32
431.66	5813.89
431.85	5830.27
432.03	5951.98
432.22	6150.93
432.41	6148.59
432.60	5902.83
432.79	5968.37
432.97	5994.11
433.16	6127.52
433.35	6029.22
433.54	6057.31
433.72	6279.66
433.91	6260.93
434.10	6204.76
434.28	6010.50
434.47	6239.87
434.66	6324.13
434.85	6314.77
435.03	6462.22
435.22	6424.77
435.41	6443.49
435.59	6450.52
435.78	6523.07
435.97	6525.41
436.16	6389.66
436.34	6480.94
436.53	6595.63
436.72	6857.77
436.90	6328.81
437.09	6686.91
437.28	6679.89
437.46	6413.07
437.65	6663.51
437.84	6871.81
438.02	6705.63
438.21	6759.47
438.40	6724.36
438.58	7019.27
438.77	7119.91
438.96	7068.42
439.14	7204.17
439.33	7265.02
439.52	7349.28
439.70	7180.76
439.89	7358.64
440.08	7417.16
440.26	7426.52
440.45	7353.96
440.63	7527.16
440.82	7730.79
441.01	7552.91
441.19	7709.72
441.38	7754.19
441.57	7712.07
441.75	7936.76
441.94	8121.66
442.12	7817.39
442.31	8201.24
442.50	8004.63
442.68	7997.61
442.87	8142.72
443.05	8201.24
443.24	8283.16
443.43	8142.72
443.61	8299.54
443.80	8500.83
443.98	7962.50
444.17	8025.70
444.35	8156.77
444.54	8557.00
444.73	8386.14
444.91	8355.71
445.10	8416.57
445.28	8301.88
445.47	8498.49
445.65	8489.12
445.84	8535.93
446.02	8517.21
446.21	8409.54
446.39	8369.76
446.58	8657.64
446.77	8542.96
446.95	8454.02
447.14	8489.12
447.32	8519.55
447.51	8711.47
447.69	8568.70
447.88	8617.85
448.06	8589.77
448.25	8617.85
448.43	8557.00
448.62	8500.83
448.80	8606.15
448.99	8798.07
449.17	8659.98
449.36	8676.37
449.54	8879.99
449.73	8837.86
449.91	9032.13
450.10	9177.24
450.28	9104.68
450.46	9092.98
450.65	9048.51
450.83	9090.64
451.02	9069.58
451.20	9233.41
451.39	9331.72
451.57	9027.45
451.76	9231.07
451.94	9439.38
452.13	9504.92
452.31	9378.53
452.49	9254.48
452.68	9472.15
452.86	9502.58
453.05	9483.85
453.23	9647.69
453.42	9303.63
453.60	9528.32
453.78	9518.96
453.97	9556.41
454.15	9511.94
454.34	9502.58
454.52	9743.65
454.70	9933.23
454.89	9874.72
455.07	9764.72
455.26	9902.81
455.44	10115.80
455.62	10010.47
455.81	9963.66
455.99	9928.55
456.17	10146.22
456.36	10080.69
456.54	10391.98
456.73	10410.70
456.91	10387.30
457.09	10394.32
457.28	10560.50
457.46	10452.83
457.64	10562.84
457.83	10813.28
458.01	10274.95
458.19	10876.47
458.38	10773.49
458.56	10824.98
458.74	10860.09
458.93	10757.10
459.11	10815.62
459.29	10841.36
459.48	10972.43
459.66	10916.26
459.84	10860.09
460.03	11445.22
460.21	11030.94
460.39	11049.67
460.57	11154.99
460.76	11246.27
460.94	11201.80
461.12	11398.41
461.31	11236.91
461.49	11105.84
461.67	11206.48
461.85	11569.27
462.04	11185.42
462.22	11477.99
462.40	11758.85
462.59	11477.99
462.77	11534.16
462.95	11875.88
463.13	11822.05
463.32	11480.33
463.50	11768.21
463.68	11920.35
463.86	12049.08
464.05	11868.86
464.23	11831.41
464.41	11894.60
464.59	11805.66
464.78	12278.45
464.96	12123.98
465.14	12016.31
465.32	11913.33
465.50	12280.79
465.69	12374.41
465.87	12203.55
466.05	12095.89
466.23	12156.74
466.41	12180.15
466.60	12585.06
466.78	12226.96
466.96	12231.64
467.14	12573.36
467.32	12435.27
467.51	12674.00
467.69	12341.64
467.87	12629.53
468.05	12617.83
468.23	12589.74
468.41	12568.68
468.60	12842.52
468.78	13111.68
468.96	12868.27
469.14	13067.21
469.32	12987.63
469.50	12774.64
469.69	13137.43
469.87	13074.23
470.05	13069.55
470.23	13312.97
470.41	13249.77
470.59	13420.63
470.77	12992.31
470.95	13331.69
471.14	13619.58
471.32	13191.26
471.50	13783.41
471.68	13848.95
471.86	13898.10
472.04	13884.06
472.22	14249.18
472.40	13635.96
472.58	13919.17
472.77	14183.65
472.95	14497.28
473.13	14628.35
473.31	13982.36
473.49	14104.07
473.67	14298.33
473.85	14597.92
474.03	14565.15
474.21	14450.47
474.39	14930.28
474.57	14602.60
474.75	14944.32
474.93	15073.05
475.12	15152.63
475.30	15096.46
475.48	15094.11
475.66	14956.02
475.84	15400.72
476.02	15431.15
476.20	15627.76
476.38	16013.95
476.56	16060.76
476.74	16212.89
476.92	15957.77
477.10	15960.11
477.28	16367.37
477.46	16643.55
477.64	16505.46
477.82	16554.61
478.00	17015.69
478.18	16968.88
478.36	17067.19
478.54	17312.94
478.72	17137.40
478.90	17563.38
479.08	17675.73
479.26	17848.93
479.44	17771.69
479.62	17738.92
479.80	17963.61
479.98	18359.16
480.16	18738.33
480.34	18394.27
480.52	18712.58
480.70	18501.93
480.88	18618.96
481.06	18948.98
481.24	19126.86
481.41	19199.41
481.59	19351.55
481.77	19882.85
481.95	19421.77
482.13	19934.34
482.31	19875.83
482.49	20109.88
482.67	20334.57
482.85	20540.54
483.03	20711.40
483.21	21006.31
483.39	21207.59
483.57	20830.77
483.74	21392.50
483.92	21598.46
484.10	21486.12
484.28	21521.23
484.46	22104.02
484.64	22457.44
484.82	22427.01
485.00	22476.16
485.18	22902.14
485.35	22733.62
485.53	23098.75
485.71	23122.15
485.89	23475.57
486.07	23541.11
486.25	23513.02
486.43	23555.15
486.61	23873.46
486.78	24301.78
486.96	24566.26
487.14	24493.71
487.32	25163.10
487.50	24929.05
487.68	25102.25
487.85	25200.55
488.03	25858.24
488.21	26017.40
488.39	26017.40
488.57	26347.41
488.75	26288.90
488.92	26422.31
489.10	26841.26
489.28	26831.90
489.46	27398.31
489.64	26883.39
489.81	27936.63
489.99	27765.78
490.17	27798.54
490.35	28243.24
490.53	27990.47
490.70	28659.86
490.88	28795.61
491.06	28701.99
491.24	28936.04
491.41	29441.60
491.59	29460.32
491.77	29413.51
491.95	30078.22
492.13	29853.53
492.30	30059.50
492.48	30347.39
492.66	30480.80
492.84	30347.39
493.01	30824.86
493.19	30787.41
493.37	31281.26
493.54	31393.61
493.72	31468.50
493.90	31845.33
494.08	32250.24
494.25	32137.90
494.43	32320.46
494.61	32264.28
494.79	32580.26
494.96	32624.73
495.14	33031.98
495.32	33509.45
495.49	33457.96
495.67	33350.29
495.85	33982.24
496.02	33708.40
496.20	34125.01
496.38	34625.89
496.55	34115.65
496.73	34904.41
496.91	34972.28
497.09	34859.94
497.26	35007.39
497.44	34888.03
497.62	35264.85
497.79	35899.14
497.97	35147.82
498.14	35978.72
498.32	36264.26
498.50	36203.41
498.67	36748.75
498.85	36374.27
499.03	36823.65
499.20	36809.61
499.38	36943.02
499.56	37111.53
499.73	37731.78
499.91	37130.26
500.08	37926.04
500.26	37996.26
500.44	38190.52
500.61	37556.24
500.79	37699.01
500.97	38469.04
501.14	38932.47
501.32	38909.07
501.49	38747.57
501.67	38548.62
501.84	39126.74
502.02	39063.54
502.20	39503.56
502.37	39117.37
502.55	39498.88
502.72	39908.47
502.90	40229.13
503.07	39892.09
503.25	40182.32
503.43	39913.16
503.60	40348.50
503.78	40378.92
503.95	40472.54
504.13	40596.59
504.30	41069.38
504.48	41116.19
504.65	41558.55
504.83	41336.20
505.01	41511.74
505.18	41228.54
505.36	41738.77
505.53	41446.21
505.71	41680.26
505.88	41790.27
506.06	41701.32
506.23	42068.79
506.41	42373.06
506.58	42405.83
506.76	42401.14
506.93	42824.78
507.11	42487.74
507.28	42518.17
507.46	42796.70
507.63	42890.32
507.81	43721.21
507.98	43438.00
508.16	43367.79
508.33	43805.47
508.50	43688.44
508.68	43908.45
508.85	43941.22
509.03	43915.47
509.20	44172.93
509.38	45139.57
509.55	44142.50
509.73	45024.89
509.90	44942.97
510.08	44645.72
510.25	44851.69
510.42	44732.32
510.60	45371.28
510.77	45315.11
510.95	46038.34
511.12	45514.06
511.30	45806.62
511.47	45460.23
511.64	45720.02
511.82	45827.69
511.99	46052.38
512.17	46375.37
512.34	46007.91
512.51	46227.92
512.69	47082.22
512.86	46429.21
513.04	46920.72
513.21	46766.24
513.38	46653.90
513.56	47213.29
513.73	47475.43
513.90	47105.62
514.08	46904.34
514.25	47463.72
514.43	47173.50
514.60	47693.10
514.77	47868.64
514.95	47604.16
515.12	47632.24
515.29	47690.76
515.47	47999.71
515.64	48275.89
515.81	48545.05
515.99	48460.79
516.16	48357.81
516.33	48509.94
516.51	48540.37
516.68	48701.87
516.85	48896.13
517.03	48996.77
517.20	49282.32
517.37	48802.51
517.54	48966.35
517.72	49102.10
517.89	49083.37
518.06	49675.53
518.24	49364.24
518.41	49514.03
518.58	49645.10
518.75	49593.61
518.93	49886.18
519.10	49420.41
519.27	49947.03
519.45	50054.70
519.62	50220.87
519.79	50365.99
519.96	49827.66
520.14	50326.20
520.31	50265.34
520.48	50490.04
520.65	50815.37
520.83	50979.21
521.00	50576.64
521.17	50534.51
521.34	50857.50
521.52	51140.71
521.69	50955.80
521.86	51089.21
522.03	51178.15
522.20	51566.68
522.38	51744.56
522.55	51339.65
522.72	51306.88
522.89	51709.46
523.07	51725.84
523.24	51547.96
523.41	51751.59
523.58	51826.48
523.75	51896.70
523.92	51702.43
524.10	51922.44
524.27	52215.01
524.44	52360.12
524.61	52217.35
524.78	52320.34
524.96	52669.08
525.13	52523.96
525.30	52374.17
525.47	52725.25
525.64	52512.26
525.81	52739.29
525.98	52797.80
526.16	52750.99
526.33	52849.30
526.50	53038.88
526.67	53015.47
526.84	53200.38
527.01	52931.22
527.18	53132.50
527.36	53052.92
527.53	53064.63
527.70	53450.81
527.87	53598.27
528.04	53567.84
528.21	53673.16
528.38	53392.30
528.55	53645.08
528.72	53256.55
528.89	53558.48
529.07	53443.79
529.24	53579.54
529.41	53944.67
529.58	53839.34
529.75	53755.08
529.92	53991.48
530.09	53996.16
530.26	53961.05
530.43	54213.83
530.60	53839.34
530.77	54120.21
530.94	54131.91
531.11	54019.56
531.28	54527.46
531.46	54272.34
531.63	54326.17
531.80	54438.52
531.97	54361.28
532.14	54862.16
532.31	54485.33
532.48	54644.49
532.65	54644.49
532.82	54789.60
532.99	54602.36
533.16	54756.83
533.33	54651.51
533.50	55260.05
533.67	54883.22
533.84	54649.17
534.01	54939.39
534.18	55089.19
534.35	55264.73
534.52	55220.26
534.69	55128.98
534.86	55295.16
535.03	55058.76
535.20	55377.08
535.37	55482.40
535.54	55550.27
535.71	55648.58
535.88	55634.53
536.05	55669.64
536.22	55880.29
536.38	55561.98
536.55	55772.63
536.72	55714.11
536.89	55564.32
537.06	55866.25
537.23	55791.35
537.40	55760.92
537.57	56032.42
537.74	55901.36
537.91	56147.11
538.08	55962.21
538.25	55807.73
538.42	55941.14
538.59	56289.88
538.75	56175.20
538.92	56207.97
539.09	56268.82
539.26	56404.57
539.43	56353.08
539.60	56425.64
539.77	56310.95
539.94	56582.45
540.11	56449.04
540.28	56376.48
540.44	56636.28
540.61	56694.80
540.78	56601.18
540.95	56336.69
541.12	56420.95
541.29	56690.12
541.46	56591.81
541.62	56509.89
541.79	56678.41
541.96	56633.94
542.13	56582.45
542.30	57022.47
542.47	57057.58
542.63	57055.24
542.80	57155.88
542.97	57120.77
543.14	57673.14
543.31	57467.17
543.48	57530.37
543.64	57652.08
543.81	57593.56
543.98	57467.17
544.15	57429.72
544.32	57415.68
544.48	57741.02
544.65	57396.96
544.82	57539.73
544.99	57462.49
545.16	57633.35
545.32	57530.37
545.49	57886.13
545.66	57776.12
545.83	57701.23
546.00	57752.72
546.16	57607.61
546.33	57588.88
546.50	57516.32
546.67	57968.05
546.83	57553.77
547.00	57918.90
547.17	58066.35
547.34	57801.87
547.50	58014.86
547.67	58164.65
547.84	58122.52
548.00	58080.39
548.17	58347.21
548.34	58052.31
548.51	58337.85
548.67	58239.55
548.84	58440.84
549.01	58143.59
549.18	58368.28
549.34	58379.98
549.51	58321.47
549.68	58564.88
549.84	58546.16
550.01	58660.85
550.18	58321.47
550.34	58403.39
550.51	58623.40
550.68	58379.98
550.84	58375.30
551.01	58684.25
551.18	58550.84
551.34	58651.48
551.51	58880.86
551.68	58742.77
551.84	58857.45
552.01	58621.06
552.18	58805.96
552.34	58639.78
552.51	58983.84
552.68	58756.81
552.84	58829.37
553.01	59077.46
553.18	58960.44
553.34	59093.85
553.51	59040.01
553.67	58969.80
553.84	59166.40
554.01	59107.89
554.17	59096.19
554.34	59168.74
554.51	59098.53
554.67	59145.34
554.84	59194.49
555.00	59262.36
555.17	59377.05
555.33	59208.53
555.50	58951.07
555.67	59208.53
555.83	59159.38
556.00	59421.52
556.16	59594.72
556.33	59412.16
556.50	59208.53
556.66	59526.84
556.83	59178.10
556.99	59475.35
557.16	59648.55
557.32	59646.21
557.49	59618.13
557.65	59538.55
557.82	59447.27
557.98	59629.83
558.15	59501.10
558.32	59606.42
558.48	59770.26
558.65	59655.57
558.81	59653.23
558.98	59693.02
559.14	59657.91
559.31	59854.52
559.47	59737.49
559.64	59814.73
559.80	59693.02
559.97	59714.09
560.13	59627.49
560.30	59700.04
560.46	59793.67
560.63	60016.02
560.79	59742.17
560.96	60009.00
561.12	59948.14
561.29	59994.95
561.45	59980.91
561.61	59819.41
561.78	59765.58
561.94	59952.82
562.11	59812.39
562.27	60067.51
562.44	59927.08
562.60	60168.15
562.77	60051.12
562.93	59887.29
563.10	60388.16
563.26	59964.52
563.42	60343.69
563.59	60310.92
563.75	59952.82
563.92	60076.87
564.08	60151.77
564.24	60289.86
564.41	60252.41
564.57	60093.25
564.74	60233.69
564.90	60341.35
565.07	60502.85
565.23	60144.75
565.39	60289.86
565.56	60229.01
565.72	60229.01
565.88	60238.37
566.05	60243.05
566.21	60397.52
566.38	60348.37
566.54	60423.27
566.70	60371.78
566.87	60425.61
567.03	60350.71
567.19	60594.13
567.36	60633.92
567.52	60254.75
567.68	60729.88
567.85	60348.37
568.01	60582.43
568.17	60449.02
568.34	60676.05
568.50	60339.01
568.66	60395.18
568.83	60472.42
568.99	60392.84
569.15	60619.88
569.32	60395.18
569.48	60472.42
569.64	60713.50
569.81	60704.13
569.97	60465.40
570.13	60434.97
570.30	60376.46
570.46	60509.87
570.62	60804.78
570.78	60479.44
570.95	60631.58
571.11	60755.63
571.27	60577.75
571.43	60458.38
571.60	60774.35
571.76	60669.03
571.92	60575.40
572.09	60619.88
572.25	60645.62
572.41	60559.02
572.57	60608.17
572.74	60828.18
572.90	60774.35
573.06	60680.73
573.22	60729.88
573.38	60821.16
573.55	60807.12
573.71	61048.19
573.87	60755.63
574.03	60650.30
574.20	60935.85
574.36	60659.66
574.52	60839.89
574.68	60783.71
574.84	60980.32
575.01	61008.40
575.17	61076.28
575.33	60788.39
575.49	60643.28
575.65	60973.30
575.82	60830.52
575.98	61066.92
576.14	61132.45
576.30	61127.77
576.46	60858.61
576.62	60856.27
576.79	60933.51
576.95	60734.56
577.11	60856.27
577.27	60863.29
577.43	61071.60
577.59	60816.48
577.75	60975.64
577.92	60786.05
578.08	60938.19
578.24	61024.79
578.40	61095.00
578.56	61097.34
578.72	60828.18
578.88	61132.45
579.04	61139.47
579.21	60839.89
579.37	61127.77
579.53	61130.11
579.69	60659.66
579.85	60945.21
580.01	60793.07
580.17	60769.67
580.33	61120.75
580.49	61031.81
580.65	60947.55
580.82	60886.70
580.98	61050.53
581.14	61139.47
581.30	60970.96
581.46	61052.87
581.62	61003.72
581.78	60917.12
581.94	60809.46
582.10	61066.92
582.26	60837.54
582.42	61087.98
582.58	60942.87
582.74	60828.18
582.90	60970.96
583.06	61031.81
583.22	61041.17
583.38	61043.51
583.54	61048.19
583.70	61111.39
583.86	61172.24
584.02	61172.24
584.18	61212.03
584.34	61251.82
584.50	61137.13
584.66	60956.91
584.82	61045.85
584.98	61289.27
585.14	61240.12
585.30	61073.94
585.46	61146.50
585.62	61029.47
585.78	61024.79
585.94	61202.67
586.10	60956.91
586.26	61017.77
586.42	61069.26
586.58	61186.28
586.74	61258.84
586.90	61106.71
587.06	61027.13
587.22	61300.97
587.38	61251.82
587.54	61092.66
587.70	61247.14
587.86	61183.94
588.02	61062.24
588.18	61240.12
588.34	61125.43
588.49	61076.28
