SpectraSuite Data File
++++++++++++++++++++++++++++++++++++
Date: Fri Oct 25 11:33:08 EDT 2013
User: price-jones
Dark Spectrum Present: No
Reference Spectrum Present: No
Number of Sampled Component Spectra: 1
Spectrometers: USB2+H05261
Integration Time (usec): 100000 (USB2+H05261)
Spectra Averaged: 1 (USB2+H05261)
Boxcar Smoothing: 0 (USB2+H05261)
Correct for Electrical Dark: No (USB2+H05261)
Strobe/Lamp Enabled: No (USB2+H05261)
Correct for Detector Non-linearity: No (USB2+H05261)
Correct for Stray Light: No (USB2+H05261)
Number of Pixels in Processed Spectrum: 2048
>>>>>Begin Processed Spectral Data<<<<<
365.73	301.93
365.92	301.93
366.12	301.93
366.32	163.84
366.52	229.37
366.72	215.33
366.91	154.48
367.11	182.56
367.31	110.01
367.51	215.33
367.70	257.46
367.90	273.84
368.10	222.35
368.30	196.60
368.49	196.60
368.69	217.67
368.89	255.12
369.09	184.90
369.28	273.84
369.48	194.26
369.68	182.56
369.87	262.14
370.07	182.56
370.27	248.10
370.47	339.38
370.66	533.64
370.86	552.37
371.06	524.28
371.25	578.11
371.45	479.81
371.65	578.11
371.84	554.71
372.04	615.56
372.24	634.29
372.44	540.66
372.63	596.84
372.83	592.16
373.03	610.88
373.22	528.96
373.42	596.84
373.62	671.73
373.81	662.37
374.01	737.27
374.21	608.54
374.40	547.69
374.60	641.31
374.79	709.18
374.99	650.67
375.19	641.31
375.38	648.33
375.58	669.39
375.78	699.82
375.97	629.60
376.17	763.01
376.37	734.93
376.56	725.57
376.76	608.54
376.95	718.54
377.15	734.93
377.35	720.88
377.54	723.23
377.74	676.41
377.93	737.27
378.13	767.70
378.33	774.72
378.52	718.54
378.72	791.10
378.91	793.44
379.11	674.07
379.31	699.82
379.50	741.95
379.70	732.59
379.89	653.01
380.09	664.71
380.28	755.99
380.48	716.20
380.68	697.48
380.87	779.40
381.07	704.50
381.26	809.83
381.46	767.70
381.65	774.72
381.85	688.12
382.04	748.97
382.24	823.87
382.43	774.72
382.63	795.78
382.83	788.76
383.02	716.20
383.22	779.40
383.41	765.36
383.61	828.55
383.80	875.36
384.00	744.29
384.19	905.79
384.39	847.27
384.58	746.63
384.78	847.27
384.97	968.98
385.17	858.98
385.36	798.12
385.56	833.23
385.75	798.12
385.95	887.06
386.14	870.68
386.34	851.96
386.53	866.00
386.72	870.68
386.92	891.74
387.11	896.43
387.31	894.08
387.50	849.61
387.70	828.55
387.89	887.06
388.09	863.66
388.28	894.08
388.48	884.72
388.67	849.61
388.86	898.77
389.06	1013.45
389.25	858.98
389.45	912.81
389.64	940.90
389.84	971.32
390.03	929.19
390.22	924.51
390.42	924.51
390.61	952.60
390.81	997.07
391.00	933.87
391.19	990.05
391.39	1062.60
391.58	1036.86
391.78	1081.33
391.97	1100.05
392.16	1034.52
392.36	961.96
392.55	1095.37
392.75	1121.12
392.94	1032.18
393.13	1062.60
393.33	1167.93
393.52	1104.73
393.71	1144.52
393.91	1083.67
394.10	1006.43
394.29	1121.12
394.49	1060.26
394.68	1200.69
394.88	1142.18
395.07	1069.62
395.26	1151.54
395.46	1100.05
395.65	1172.61
395.84	1270.91
396.04	1111.75
396.23	1245.16
396.42	1210.06
396.62	1254.53
396.81	1200.69
397.00	1203.04
397.19	1242.82
397.39	1193.67
397.58	1287.29
397.77	1263.89
397.97	1315.38
398.16	1336.45
398.35	1310.70
398.55	1233.46
398.74	1348.15
398.93	1371.55
399.12	1357.51
399.32	1301.34
399.51	1369.21
399.70	1397.30
399.90	1336.45
400.09	1306.02
400.28	1212.40
400.47	1409.00
400.67	1444.11
400.86	1439.43
401.05	1383.26
401.24	1359.85
401.44	1420.71
401.63	1404.32
401.82	1437.09
402.01	1554.12
402.21	1488.58
402.40	1411.34
402.59	1519.01
402.78	1558.80
402.97	1481.56
403.17	1614.97
403.36	1551.78
403.55	1530.71
403.74	1661.78
403.93	1614.97
404.13	1598.59
404.32	1633.69
404.51	1563.48
404.70	1657.10
404.89	1659.44
405.09	1809.23
405.28	1708.59
405.47	1685.19
405.66	1806.89
405.85	1689.87
406.05	1701.57
406.24	1776.47
406.43	1736.68
406.62	1764.76
406.81	1816.26
407.00	1867.75
407.20	1806.89
407.39	1760.08
407.58	1844.34
407.77	1895.83
407.96	1961.37
408.15	1961.37
408.34	1863.07
408.54	1900.52
408.73	1912.22
408.92	1942.64
409.11	2038.61
409.30	2024.56
409.49	2008.18
409.68	1949.67
409.87	2076.06
410.07	2054.99
410.26	2047.97
410.45	2132.23
410.64	2134.57
410.83	2132.23
411.02	2122.87
411.21	2134.57
411.40	2143.93
411.59	2246.91
411.78	2190.74
411.98	2141.59
412.17	2370.96
412.36	2314.79
412.55	2338.20
412.74	2401.39
412.93	2438.84
413.12	2300.75
413.31	2441.18
413.50	2370.96
413.69	2417.77
413.88	2487.99
414.07	2478.63
414.26	2565.23
414.45	2539.48
414.64	2560.55
414.83	2490.33
415.02	2602.68
415.22	2635.44
415.41	2586.29
415.60	2663.53
415.79	2743.11
415.98	2651.83
416.17	2675.23
416.36	2832.05
416.55	2724.38
416.74	2787.58
416.93	2785.24
417.12	2918.65
417.31	2986.52
417.50	2888.22
417.69	2906.95
417.88	2937.37
418.07	2967.80
418.26	2965.46
418.45	3052.06
418.64	3155.04
418.83	3082.49
419.02	3115.25
419.21	3066.10
419.39	3136.32
419.58	3042.70
419.77	3080.14
419.96	3164.40
420.15	3150.36
420.34	3300.16
420.53	3295.47
420.72	3368.03
420.91	3286.11
421.10	3253.34
421.29	3368.03
421.48	3218.24
421.67	3304.84
421.86	3276.75
422.05	3253.34
422.24	3265.05
422.43	3515.48
422.61	3346.97
422.80	3447.61
422.99	3351.65
423.18	3363.35
423.37	3548.25
423.56	3520.17
423.75	3421.86
423.94	3316.54
424.13	3283.77
424.32	3267.39
424.50	3410.16
424.69	3578.68
424.88	3410.16
425.07	3466.33
425.26	3372.71
425.45	3508.46
425.64	3349.31
425.83	3379.73
426.01	3461.65
426.20	3468.67
426.39	3588.04
426.58	3471.01
426.77	3492.08
426.96	3506.12
427.15	3681.66
427.33	3723.79
427.52	3496.76
427.71	3531.87
427.90	3578.68
428.09	3768.26
428.28	3719.11
428.46	3616.13
428.65	3634.85
428.84	3822.09
429.03	3779.97
429.22	3688.68
429.40	3819.75
429.59	3868.91
429.78	3857.20
429.97	3632.51
430.16	3808.05
430.34	3981.25
430.53	3941.46
430.72	3880.61
430.91	3892.31
431.10	3932.10
431.28	3964.87
431.47	4044.45
431.66	4086.58
431.85	3992.95
432.03	3948.48
432.22	4074.87
432.41	4074.87
432.60	4159.13
432.79	4156.79
432.97	4131.05
433.16	4102.96
433.35	4067.85
433.54	4124.02
433.72	4201.26
433.91	4292.54
434.10	4177.86
434.28	4292.54
434.47	4329.99
434.66	4257.43
434.85	4212.96
435.03	4360.42
435.22	4311.27
435.41	4470.42
435.59	4425.95
435.78	4454.04
435.97	4395.53
436.16	4517.23
436.34	4283.18
436.53	4407.23
436.72	4582.77
436.90	4568.73
437.09	4503.19
437.28	4409.57
437.46	4545.32
437.65	4573.41
437.84	4606.17
438.02	4655.33
438.21	4699.80
438.40	4575.75
438.58	4844.91
438.77	4826.18
438.96	4748.95
439.14	4755.97
439.33	4947.89
439.52	4929.17
439.70	4936.19
439.89	5111.73
440.08	5111.73
440.26	5125.77
440.45	5090.67
440.63	5085.98
440.82	5221.74
441.01	5247.48
441.19	5308.34
441.38	5282.59
441.57	5261.52
441.75	5394.93
441.94	5540.05
442.12	5448.77
442.31	5432.38
442.50	5504.94
442.68	5390.25
442.87	5486.22
443.05	5495.58
443.24	5605.58
443.43	5603.24
443.61	5518.98
443.80	5860.70
443.98	5561.11
444.17	5437.06
444.35	5643.03
444.54	5715.59
444.73	5741.33
444.91	5778.78
445.10	5701.54
445.28	5685.16
445.47	5535.37
445.65	5696.86
445.84	5921.56
446.02	5811.55
446.21	5692.18
446.39	5664.10
446.58	5846.66
446.77	5851.34
446.95	5582.18
447.14	5715.59
447.32	5884.11
447.51	5811.55
447.69	5790.49
447.88	5893.47
448.06	5905.17
448.25	5799.85
448.43	5811.55
448.62	5898.15
448.80	5795.17
448.99	5954.32
449.17	5949.64
449.36	6005.81
449.54	5940.28
449.73	6209.44
449.91	6230.51
450.10	6094.76
450.28	6209.44
450.46	6197.74
450.65	6296.04
450.83	6209.44
451.02	6171.99
451.20	6244.55
451.39	6059.65
451.57	6293.70
451.76	6179.01
451.94	6274.98
452.13	6314.77
452.31	6347.53
452.49	6186.04
452.68	6406.05
452.86	6296.04
453.05	6487.96
453.23	6490.31
453.42	6368.60
453.60	6469.24
453.78	6417.75
453.97	6513.71
454.15	6516.05
454.34	6403.71
454.52	6677.55
454.70	6595.63
454.89	6595.63
455.07	6789.89
455.26	6663.51
455.44	6822.66
455.62	6731.38
455.81	6581.59
455.99	6930.33
456.17	6633.08
456.36	6792.23
456.54	6829.68
456.73	6963.09
456.91	6998.20
457.09	7052.03
457.28	7157.36
457.46	7023.95
457.64	7164.38
457.83	7178.42
458.01	6932.67
458.19	7148.00
458.38	7129.27
458.56	7080.12
458.74	7279.07
458.93	7190.13
459.11	7253.32
459.29	7377.37
459.48	7400.77
459.66	7311.83
459.84	7311.83
460.03	7569.29
460.21	7440.56
460.39	7426.52
460.57	7613.76
460.76	7566.95
460.94	7714.41
461.12	7585.68
461.31	7557.59
461.49	7695.68
461.67	7517.80
461.85	7815.05
462.04	7782.28
462.22	8049.10
462.40	7843.14
462.59	7861.86
462.77	7749.51
462.95	7915.69
463.13	7784.62
463.32	7992.93
463.50	8145.06
463.68	7803.35
463.86	8079.53
464.05	7868.88
464.23	7941.44
464.41	8077.19
464.59	7950.80
464.78	8217.62
464.96	8128.68
465.14	8091.23
465.32	8182.51
465.50	7971.86
465.69	8269.11
465.87	8112.30
466.05	8056.12
466.23	8154.43
466.41	8219.96
466.60	8542.96
466.78	8044.42
466.96	8067.83
467.14	8217.62
467.32	8362.73
467.51	8437.63
467.69	8257.41
467.87	8505.51
468.05	8655.30
468.23	8388.48
468.41	8503.17
468.60	8489.12
468.78	8643.60
468.96	8615.51
469.14	8643.60
469.32	8751.26
469.50	8674.03
469.69	8819.14
469.87	8896.38
470.05	8908.08
470.23	8887.01
470.41	8912.76
470.59	8858.93
470.77	8938.51
470.95	8847.22
471.14	9217.03
471.32	8884.67
471.50	9081.28
471.68	9032.13
471.86	9406.61
472.04	9249.80
472.22	9540.02
472.40	9195.96
472.58	9385.55
472.77	9415.98
472.95	9369.16
473.13	9694.50
473.31	9680.46
473.49	9516.62
473.67	9577.47
473.85	9816.21
474.03	9528.32
474.21	9750.67
474.39	9788.12
474.57	9895.78
474.75	9947.28
474.93	10146.22
475.12	9954.30
475.30	10207.08
475.48	10139.20
475.66	10157.92
475.84	10104.09
476.02	10408.36
476.20	10211.76
476.38	10621.35
476.56	10700.93
476.74	10787.53
476.92	10525.39
477.10	10609.65
477.28	11021.58
477.46	10857.75
477.64	10920.94
477.82	10965.41
478.00	11117.54
478.18	11225.21
478.36	11597.35
478.54	11627.78
478.72	11630.12
478.90	11499.05
479.08	11590.33
479.26	11831.41
479.44	11705.02
479.62	11962.48
479.80	11925.03
479.98	12025.67
480.16	12381.43
480.34	12138.02
480.52	12449.31
480.70	12395.48
480.88	12318.24
481.06	12374.41
481.24	12561.66
481.41	12603.78
481.59	12685.70
481.77	12947.84
481.95	13107.00
482.13	13317.65
482.31	13224.03
482.49	13446.38
482.67	13537.66
482.85	13654.69
483.03	13647.66
483.21	13902.78
483.39	13886.40
483.57	13989.38
483.74	14127.47
483.92	14139.18
484.10	13937.89
484.28	14464.51
484.46	14579.20
484.64	14843.68
484.82	14335.78
485.00	14871.76
485.18	15204.12
485.35	15389.02
485.53	15250.93
485.71	15400.72
485.89	15609.03
486.07	15501.37
486.25	15618.39
486.43	15948.41
486.61	15768.19
486.78	15786.91
486.96	16194.17
487.14	16388.43
487.32	16365.03
487.50	16496.10
487.68	16514.82
487.85	16821.43
488.03	16947.82
488.21	17273.15
488.39	17020.38
488.57	17390.18
488.75	17455.72
488.92	17343.37
489.10	17769.35
489.28	17383.16
489.46	18139.15
489.64	18001.06
489.81	18448.10
489.99	18455.12
490.17	18291.29
490.35	18532.36
490.53	18618.96
490.70	18752.37
490.88	19021.53
491.06	19192.39
491.24	19070.68
491.41	19103.45
491.59	19531.77
491.77	19321.12
491.95	19908.60
492.13	19709.65
492.30	19924.98
492.48	19707.31
492.66	19978.81
492.84	20065.41
493.01	20500.75
493.19	20519.48
493.37	20589.69
493.54	20879.92
493.72	21032.05
493.90	20989.92
494.08	20706.72
494.25	21364.41
494.43	21303.56
494.61	21584.42
494.79	21348.03
494.96	21528.25
495.14	21387.82
495.32	22031.46
495.49	21935.50
495.67	21811.45
495.85	22354.46
496.02	22504.25
496.20	22672.77
496.38	22434.03
496.55	22801.50
496.73	22916.19
496.91	23147.90
497.09	22913.84
497.26	23358.55
497.44	23534.09
497.62	23494.30
497.79	23903.89
497.97	23274.29
498.14	23974.11
498.32	23798.57
498.50	23826.65
498.67	24299.44
498.85	24439.87
499.03	24582.65
499.20	24505.41
499.38	24645.84
499.56	24781.59
499.73	24971.18
499.91	24697.33
500.08	25017.99
500.26	24828.40
500.44	24868.19
500.61	25294.17
500.79	24776.91
500.97	25233.32
501.14	25752.91
501.32	25394.81
501.49	25703.76
501.67	25413.54
501.84	25928.45
502.02	25713.13
502.20	25750.57
502.37	25921.43
502.55	26015.05
502.72	26246.77
502.90	26370.82
503.07	26232.72
503.25	25921.43
503.43	26197.62
503.60	26565.08
503.78	26925.52
503.95	26972.33
504.13	27206.39
504.30	26871.69
504.48	27395.97
504.65	27056.59
504.83	27248.52
505.01	27330.44
505.18	27461.51
505.36	27625.34
505.53	27674.49
505.71	27688.54
505.88	27484.91
506.06	27498.95
506.23	27873.44
506.41	27747.05
506.58	28048.98
506.76	27969.40
506.93	28379.00
507.11	28088.77
507.28	28629.43
507.46	28517.09
507.63	28744.12
507.81	28566.24
507.98	28456.23
508.16	28971.15
508.33	28800.29
508.50	29156.05
508.68	28989.88
508.85	29326.91
509.03	29226.27
509.20	29230.95
509.38	29633.52
509.55	29556.28
509.73	29734.17
509.90	29696.72
510.08	29909.71
510.25	29699.06
510.42	30022.05
510.60	30043.12
510.77	30560.37
510.95	30031.41
511.12	30338.02
511.30	30373.13
511.47	30513.56
511.64	30469.09
511.82	30621.23
511.99	30717.19
512.17	30796.77
512.34	30635.27
512.51	31644.04
512.69	31110.40
512.86	31536.38
513.04	31550.42
513.21	31026.14
513.38	31201.68
513.56	31587.87
513.73	31417.01
513.90	31857.03
514.08	31285.94
514.25	31718.94
514.43	31594.89
514.60	31952.99
514.77	31702.56
514.95	32254.92
515.12	32456.21
515.29	32116.83
515.47	32584.94
515.64	33158.37
515.81	32238.54
515.99	32606.00
516.16	32477.27
516.33	32479.61
516.51	32587.28
516.68	32807.29
516.85	32706.65
517.03	33345.61
517.20	32863.46
517.37	33022.62
517.54	33390.08
517.72	33244.97
517.89	33404.13
518.06	33635.84
518.24	33312.84
518.41	33488.38
518.58	33532.86
518.75	33319.87
518.93	33860.53
519.10	33436.89
519.27	33804.36
519.45	33930.75
519.62	33970.54
519.79	34309.91
519.96	34265.44
520.14	34340.34
520.31	34134.37
520.48	34426.94
520.65	34146.08
520.83	34916.11
521.00	35108.04
521.17	34831.85
521.34	34731.21
521.52	34948.88
521.69	34876.32
521.86	34974.63
522.03	35082.29
522.20	35398.26
522.38	35599.55
522.55	35629.98
522.72	35398.26
522.89	35651.04
523.07	36020.84
523.24	35775.09
523.41	35786.79
523.58	35681.47
523.75	35728.28
523.92	35732.96
524.10	35833.60
524.27	36189.36
524.44	36168.30
524.61	36601.30
524.78	36210.43
524.96	36280.64
525.13	36526.40
525.30	36315.75
525.47	36933.65
525.64	36491.29
525.81	36687.90
525.98	37029.62
526.16	36914.93
526.33	36783.86
526.50	37027.28
526.67	36781.52
526.84	36493.63
527.01	37186.43
527.18	36863.44
527.36	37326.86
527.53	37556.24
527.70	37270.69
527.87	37570.28
528.04	37261.33
528.21	37687.31
528.38	37514.11
528.55	37881.57
528.72	37827.74
528.89	37380.70
529.07	37656.88
529.24	37825.40
529.41	37696.67
529.58	37479.00
529.75	37916.68
529.92	38192.86
530.09	38129.67
530.26	38267.76
530.43	38370.74
530.60	38080.52
530.77	37790.29
530.94	38557.99
531.11	38129.67
531.28	38586.07
531.46	38508.83
531.63	38735.87
531.80	38520.54
531.97	38799.06
532.14	38930.13
532.31	38632.88
532.48	39299.94
532.65	39299.94
532.82	38766.29
532.99	39042.48
533.16	38590.75
533.33	39044.82
533.50	39475.48
533.67	38852.89
533.84	39143.12
534.01	39742.30
534.18	39456.75
534.35	39849.96
534.52	39409.94
534.69	39651.02
534.86	39622.93
535.03	40051.25
535.20	39952.94
535.37	39941.24
535.54	39934.22
535.71	39835.92
535.88	40013.80
536.05	39861.66
536.22	40142.53
536.38	40318.07
536.55	40088.70
536.72	40273.60
536.89	40257.21
537.06	40327.43
537.23	40741.71
537.40	40634.04
537.57	40093.38
537.74	40442.12
537.91	40718.30
538.08	40627.02
538.25	40027.84
538.42	40172.96
538.59	40828.30
538.75	40439.78
538.92	40987.46
539.09	41148.96
539.26	40816.60
539.43	40854.05
539.60	40804.90
539.77	40769.79
539.94	41469.61
540.11	40718.30
540.28	41364.29
540.44	40807.24
540.61	41141.94
540.78	41078.74
540.95	41343.22
541.12	41411.10
541.29	41329.18
541.46	41532.81
541.62	41888.57
541.79	41752.82
541.96	41546.85
542.13	41542.17
542.30	41507.06
542.47	41837.08
542.63	41806.65
542.80	41921.34
542.97	42504.13
543.14	42347.31
543.31	41984.53
543.48	42232.63
543.64	42752.23
543.81	42497.11
543.98	42569.66
544.15	42391.78
544.32	42504.13
544.48	42880.95
544.65	42684.35
544.82	42747.54
544.99	42581.37
545.16	42792.01
545.32	42843.51
545.49	43171.18
545.66	43236.72
545.83	43026.07
546.00	43189.91
546.16	42925.42
546.33	43187.56
546.50	42740.52
546.67	43086.92
546.83	42665.63
547.00	43349.06
547.17	43531.62
547.34	42895.00
547.50	43229.69
547.67	44051.22
547.84	43676.74
548.00	43721.21
548.17	43833.55
548.34	43737.59
548.51	43856.96
548.67	43861.64
548.84	43590.14
549.01	44002.07
549.18	43414.60
549.34	43962.28
549.51	44296.98
549.68	44013.77
549.84	43861.64
550.01	44254.85
550.18	43377.15
550.34	44294.64
550.51	44477.20
550.68	44430.39
550.84	43608.86
551.01	43934.20
551.18	43753.97
551.34	44149.53
551.51	43847.60
551.68	44072.29
551.84	44196.34
552.01	44304.00
552.18	44268.89
552.34	44556.78
552.51	44397.62
552.68	44161.23
552.84	44701.89
553.01	44854.03
553.18	44353.15
553.34	44729.98
553.51	44650.40
553.67	44456.14
553.84	44884.45
554.01	45275.32
554.17	44495.92
554.34	45244.90
554.51	45261.28
554.67	44975.73
554.84	45670.87
555.00	44619.97
555.17	44971.05
555.33	45347.88
555.50	45015.52
555.67	45261.28
555.83	45102.12
556.00	45312.77
556.16	45745.77
556.33	45326.81
556.50	45216.81
556.66	45331.50
556.83	45497.67
556.99	45935.35
557.16	45528.10
557.32	45450.86
557.49	45256.60
557.65	45151.27
557.82	45305.75
557.98	45673.21
558.15	45427.46
558.32	45525.76
558.48	45102.12
558.65	45677.90
558.81	45879.18
558.98	45483.63
559.14	45574.91
559.31	45851.09
559.47	45551.51
559.64	45780.88
559.80	45787.90
559.97	46080.47
560.13	45705.98
560.30	45546.82
560.46	46300.48
560.63	46384.74
560.79	46546.23
560.96	46387.08
561.12	46073.45
561.29	46003.23
561.45	46251.33
561.61	46241.96
561.78	46169.41
561.94	46183.45
562.11	45956.42
562.27	46354.31
562.44	46368.35
562.60	46155.36
562.77	46309.84
562.93	46108.55
563.10	46375.37
563.26	46454.95
563.42	46871.57
563.59	46335.59
563.75	46499.42
563.92	46478.36
564.08	46129.62
564.24	46593.04
564.41	46485.38
564.57	46366.01
564.74	46588.36
564.90	46185.79
565.07	46281.75
565.23	46660.92
565.39	46534.53
565.56	46902.00
565.72	46618.79
565.88	46782.63
566.05	46766.24
566.21	46625.81
566.38	46916.04
566.54	46801.35
566.70	46827.10
566.87	46724.11
567.03	46567.30
567.19	47313.93
567.36	46710.07
567.52	47105.62
567.68	47290.52
567.85	46607.09
568.01	47243.71
568.17	47077.54
568.34	46899.65
568.50	47110.30
568.66	46597.73
568.83	47117.32
568.99	46955.83
569.15	47185.20
569.32	46784.97
569.48	47147.75
569.64	47117.32
569.81	47145.41
569.97	47079.88
570.13	47580.75
570.30	46770.93
570.46	46829.44
570.62	47047.11
570.78	46962.85
570.95	46670.28
571.11	47569.05
571.27	46958.17
571.43	46810.71
571.60	46768.58
571.76	46960.51
571.92	46892.63
572.09	46993.28
572.25	47004.98
572.41	47168.82
572.57	47140.73
572.74	47466.06
572.90	47192.22
573.06	47388.83
573.22	47267.12
573.38	47524.58
573.55	47400.53
573.71	48023.11
573.87	47367.76
574.03	47601.82
574.20	47456.70
574.36	47580.75
574.52	47044.77
574.68	47503.51
574.84	47618.20
575.01	47683.73
575.17	47428.62
575.33	47566.71
575.49	47775.02
575.65	47271.80
575.82	47538.62
575.98	47360.74
576.14	47402.87
576.30	47873.32
576.46	47573.73
576.62	47292.86
576.79	47566.71
576.95	47033.07
577.11	47351.38
577.27	47716.50
577.43	47295.21
577.59	47611.18
577.75	47243.71
577.92	47276.48
578.08	47683.73
578.24	47435.64
578.40	47777.36
578.56	47440.32
578.72	47885.02
578.88	47622.88
579.04	47342.02
579.21	47384.15
579.37	47578.41
579.53	47667.35
579.69	47372.44
579.85	47576.07
580.01	47606.50
580.17	47320.95
580.33	47828.85
580.49	47854.59
580.65	47725.86
580.82	47519.90
580.98	47452.02
581.14	47407.55
581.30	47494.15
581.46	47573.73
581.62	47756.29
581.78	47409.89
581.94	47718.84
582.10	47831.19
582.26	47847.57
582.42	47618.20
582.58	48100.35
582.74	47739.91
582.90	47966.94
583.06	47983.32
583.22	47437.98
583.38	47875.66
583.54	47885.02
583.70	47742.25
583.86	47878.00
584.02	47880.34
584.18	48013.75
584.34	47929.49
584.50	48121.41
584.66	47641.60
584.82	48065.24
584.98	48041.84
585.14	47835.87
585.30	47793.74
585.46	47821.83
585.62	47650.97
585.78	47798.42
585.94	47491.81
586.10	47690.76
586.26	47896.72
586.42	47751.61
586.58	47962.26
586.74	47566.71
586.90	47887.36
587.06	47772.67
587.22	47966.94
587.38	48060.56
587.54	47997.37
587.70	47924.81
587.86	47746.93
588.02	47707.14
588.18	47943.53
588.34	47908.43
588.49	48172.91
588.65	47814.80
588.81	48100.35
588.97	48222.06
589.13	48287.59
589.29	47714.16
589.45	47901.40
589.61	47943.53
589.77	48170.57
589.93	48229.08
