SpectraSuite Data File
++++++++++++++++++++++++++++++++++++
Date: Fri Oct 25 11:33:51 EDT 2013
User: price-jones
Dark Spectrum Present: No
Reference Spectrum Present: No
Number of Sampled Component Spectra: 1
Spectrometers: USB2+H05261
Integration Time (usec): 100000 (USB2+H05261)
Spectra Averaged: 1 (USB2+H05261)
Boxcar Smoothing: 0 (USB2+H05261)
Correct for Electrical Dark: No (USB2+H05261)
Strobe/Lamp Enabled: No (USB2+H05261)
Correct for Detector Non-linearity: No (USB2+H05261)
Correct for Stray Light: No (USB2+H05261)
Number of Pixels in Processed Spectrum: 2048
>>>>>Begin Processed Spectral Data<<<<<
365.73	320.65
365.92	320.65
366.12	320.65
366.32	191.92
366.52	208.31
366.72	238.73
366.91	238.73
367.11	224.69
367.31	203.63
367.51	102.98
367.70	131.07
367.90	234.05
368.10	208.31
368.30	182.56
368.49	142.77
368.69	238.73
368.89	105.32
369.09	133.41
369.28	227.03
369.48	210.65
369.68	259.80
369.87	301.93
370.07	217.67
370.27	264.48
370.47	334.70
370.66	475.13
370.86	564.07
371.06	596.84
371.25	566.41
371.45	550.03
371.65	552.37
371.84	543.00
372.04	526.62
372.24	512.58
372.44	617.90
372.63	608.54
372.83	638.97
373.03	613.22
373.22	662.37
373.42	573.43
373.62	615.56
373.81	653.01
374.01	643.65
374.21	653.01
374.40	589.82
374.60	627.26
374.79	706.84
374.99	631.94
375.19	643.65
375.38	671.73
375.58	664.71
375.78	718.54
375.97	683.44
376.17	727.91
376.37	660.03
376.56	608.54
376.76	690.46
376.95	688.12
377.15	631.94
377.35	645.99
377.54	734.93
377.74	709.18
377.93	669.39
378.13	770.04
378.33	748.97
378.52	685.78
378.72	741.95
378.91	688.12
379.11	636.63
379.31	751.31
379.50	653.01
379.70	753.65
379.89	723.23
380.09	716.20
380.28	727.91
380.48	805.14
380.68	744.29
380.87	739.61
381.07	770.04
381.26	753.65
381.46	779.40
381.65	800.46
381.85	840.25
382.04	781.74
382.24	814.51
382.43	760.67
382.63	692.80
382.83	791.10
383.02	795.78
383.22	763.01
383.41	653.01
383.61	877.70
383.80	795.78
384.00	809.83
384.19	784.08
384.39	861.32
384.58	863.66
384.78	826.21
384.97	814.51
385.17	830.89
385.36	868.34
385.56	805.14
385.75	854.30
385.95	849.61
386.14	873.02
386.34	870.68
386.53	828.55
386.72	884.72
386.92	922.17
387.11	983.02
387.31	884.72
387.50	912.81
387.70	936.21
387.89	844.93
388.09	863.66
388.28	931.53
388.48	880.04
388.67	966.64
388.86	936.21
389.06	936.21
389.25	922.17
389.45	987.71
389.64	973.66
389.84	1013.45
390.03	901.11
390.22	938.55
390.42	1008.77
390.61	952.60
390.81	880.04
391.00	973.66
391.19	1004.09
391.39	1036.86
391.58	1067.28
391.78	1011.11
391.97	1039.20
392.16	1032.18
392.36	1100.05
392.55	1011.11
392.75	1015.79
392.94	1027.50
393.13	954.94
393.33	1071.97
393.52	1107.07
393.71	1118.78
393.91	1095.37
394.10	1067.28
394.29	1071.97
394.49	1144.52
394.68	1090.69
394.88	1069.62
395.07	1067.28
395.26	1121.12
395.46	1078.99
395.65	1144.52
395.84	1174.95
396.04	1299.00
396.23	1231.12
396.42	1324.74
396.62	1240.48
396.81	1266.23
397.00	1153.88
397.19	1196.01
397.39	1181.97
397.58	1294.32
397.77	1226.44
397.97	1186.65
398.16	1301.34
398.35	1315.38
398.55	1301.34
398.74	1231.12
398.93	1296.66
399.12	1352.83
399.32	1296.66
399.51	1343.47
399.70	1287.29
399.90	1338.79
400.09	1329.42
400.28	1420.71
400.47	1392.62
400.67	1343.47
400.86	1411.34
401.05	1390.28
401.24	1397.30
401.44	1409.00
401.63	1444.11
401.82	1418.36
402.01	1378.58
402.21	1455.81
402.40	1521.35
402.59	1444.11
402.78	1423.05
402.97	1509.65
403.17	1462.83
403.36	1467.52
403.55	1488.58
403.74	1614.97
403.93	1474.54
404.13	1696.89
404.32	1568.16
404.51	1614.97
404.70	1629.01
404.89	1636.03
405.09	1710.93
405.28	1664.12
405.47	1636.03
405.66	1708.59
405.85	1753.06
406.05	1748.38
406.24	1689.87
406.43	1802.21
406.62	1750.72
406.81	1778.81
407.00	1792.85
407.20	1792.85
407.39	1832.64
407.58	1820.94
407.77	1860.73
407.96	1806.89
408.15	1823.28
408.34	1851.36
408.54	1912.22
408.73	1935.62
408.92	1928.60
409.11	1937.96
409.30	2085.42
409.49	1968.39
409.68	2012.86
409.87	2080.74
410.07	2101.80
410.26	2003.50
410.45	2047.97
410.64	2022.22
410.83	2003.50
411.02	2139.25
411.21	2076.06
411.40	2193.08
411.59	2115.84
411.78	2172.02
411.98	2237.55
412.17	2246.91
412.36	2279.68
412.55	2300.75
412.74	2284.36
412.93	2300.75
413.12	2396.71
413.31	2406.07
413.50	2499.69
413.69	2368.62
413.88	2401.39
414.07	2438.84
414.26	2401.39
414.45	2532.46
414.64	2520.76
414.83	2539.48
415.02	2553.52
415.22	2539.48
415.41	2567.57
415.60	2614.38
415.79	2684.59
415.98	2654.17
416.17	2799.28
416.36	2719.70
416.55	2733.75
416.74	2827.37
416.93	2789.92
417.12	2829.71
417.31	2939.71
417.50	2944.39
417.69	2956.10
417.88	2855.45
418.07	2855.45
418.26	2984.18
418.45	2925.67
418.64	3000.57
418.83	3000.57
419.02	3059.08
419.21	2953.76
419.39	3016.95
419.58	2988.86
419.77	2986.52
419.96	3136.32
420.15	3035.67
420.34	3033.33
420.53	3094.19
420.72	3115.25
420.91	3098.87
421.10	3295.47
421.29	3304.84
421.48	3232.28
421.67	3300.16
421.86	3311.86
422.05	3396.12
422.24	3274.41
422.43	3372.71
422.61	3311.86
422.80	3363.35
422.99	3353.99
423.18	3302.50
423.37	3517.83
423.56	3358.67
423.75	3485.06
423.94	3323.56
424.13	3164.40
424.32	3220.58
424.50	3466.33
424.69	3353.99
424.88	3503.78
425.07	3391.44
425.26	3384.41
425.45	3471.01
425.64	3407.82
425.83	3339.94
426.01	3471.01
426.20	3379.73
426.39	3410.16
426.58	3332.92
426.77	3613.79
426.96	3473.36
427.15	3417.18
427.33	3611.45
427.52	3478.04
427.71	3543.57
427.90	3634.85
428.09	3585.70
428.28	3623.15
428.46	3700.39
428.65	3599.74
428.84	3850.18
429.03	3878.27
429.22	3583.36
429.40	3749.54
429.59	3672.30
429.78	3524.85
429.97	3536.55
430.16	3728.47
430.34	3819.75
430.53	3796.35
430.72	3908.69
430.91	3887.63
431.10	3838.48
431.28	3957.85
431.47	4021.04
431.66	4018.70
431.85	3929.76
432.03	3906.35
432.22	4152.11
432.41	3932.10
432.60	4224.67
432.79	4060.83
432.97	4067.85
433.16	4102.96
433.35	4140.41
433.54	4044.45
433.72	4159.13
433.91	4177.86
434.10	4175.52
434.28	4222.33
434.47	4173.18
434.66	4161.47
434.85	4348.72
435.03	4287.86
435.22	4227.01
435.41	4360.42
435.59	4376.80
435.78	4318.29
435.97	4313.61
436.16	4252.75
436.34	4381.48
436.53	4337.01
436.72	4421.27
436.90	4430.63
437.09	4435.32
437.28	4351.06
437.46	4580.43
437.65	4585.11
437.84	4552.34
438.02	4524.26
438.21	4510.21
438.40	4573.41
438.58	4610.86
438.77	4760.65
438.96	4709.16
439.14	4924.49
439.33	4814.48
439.52	4973.64
439.70	4882.36
439.89	5074.28
440.08	5020.45
440.26	5060.24
440.45	4971.30
440.63	5057.90
440.82	5228.76
441.01	5188.97
441.19	5135.14
441.38	5235.78
441.57	5125.77
441.75	5275.57
441.94	5481.53
442.12	5296.63
442.31	5408.98
442.50	5434.72
442.68	5416.00
442.87	5343.44
443.05	5535.37
443.24	5437.06
443.43	5418.34
443.61	5516.64
443.80	5741.33
443.98	5399.62
444.17	5308.34
444.35	5385.57
444.54	5533.03
444.73	5502.60
444.91	5701.54
445.10	5767.08
445.28	5533.03
445.47	5661.76
445.65	5558.77
445.84	5624.31
446.02	5809.21
446.21	5626.65
446.39	5788.14
446.58	5661.76
446.77	5802.19
446.95	5650.05
447.14	5734.31
447.32	5792.83
447.51	5771.76
447.69	5689.84
447.88	5902.83
448.06	5692.18
448.25	5750.70
448.43	5736.65
448.62	5816.23
448.80	5652.39
448.99	5654.73
449.17	5823.25
449.36	5832.62
449.54	5898.15
449.73	6129.86
449.91	6043.26
450.10	6005.81
450.28	6164.97
450.46	6160.29
450.65	6038.58
450.83	6277.32
451.02	6087.73
451.20	6120.50
451.39	6272.64
451.57	5919.21
451.76	5991.77
451.94	6143.91
452.13	6263.27
452.31	6195.40
452.49	6139.23
452.68	6258.59
452.86	6186.04
453.05	6406.05
453.23	6291.36
453.42	6251.57
453.60	6249.23
453.78	6455.20
453.97	6223.48
454.15	6354.55
454.34	6197.74
454.52	6403.71
454.70	6427.11
454.89	6434.13
455.07	6438.81
455.26	6469.24
455.44	6490.31
455.62	6590.95
455.81	6764.15
455.99	6691.59
456.17	6719.68
456.36	6883.52
456.54	6923.30
456.73	6892.88
456.91	6946.71
457.09	6974.80
457.28	7105.87
457.46	6890.54
457.64	7140.97
457.83	7000.54
458.01	7012.24
458.19	7082.46
458.38	6986.50
458.56	7211.19
458.74	7274.38
458.93	7169.06
459.11	7234.60
459.29	7119.91
459.48	7316.51
459.66	7206.51
459.84	7414.82
460.03	7370.35
460.21	7234.60
460.39	7220.55
460.57	7431.20
460.76	7307.15
460.94	7529.50
461.12	7375.03
461.31	7520.14
461.49	7463.97
461.67	7370.35
461.85	7887.61
462.04	7520.14
462.22	7974.21
462.40	7712.07
462.59	7651.21
462.77	7700.36
462.95	7822.07
463.13	7637.17
463.32	7754.19
463.50	7723.77
463.68	7964.84
463.86	7793.98
464.05	7866.54
464.23	7744.83
464.41	7801.01
464.59	7786.96
464.78	8180.17
464.96	8105.28
465.14	7929.74
465.32	8149.75
465.50	8088.89
465.69	8030.38
465.87	8077.19
466.05	8262.09
466.23	8159.11
466.41	8102.93
466.60	8351.03
466.78	8098.25
466.96	8044.42
467.14	8074.85
467.32	8112.30
467.51	8315.92
467.69	8025.70
467.87	8140.38
468.05	8159.11
468.23	8386.14
468.41	8243.37
468.60	8395.50
468.78	8400.18
468.96	8327.63
469.14	8446.99
469.32	8489.12
469.50	8430.61
469.69	8732.54
469.87	8826.16
470.05	8922.12
470.23	8929.14
470.41	8753.60
470.59	8608.49
470.77	8812.12
470.95	8896.38
471.14	8835.52
471.32	8758.28
471.50	8769.99
471.68	9046.17
471.86	9252.14
472.04	9050.85
472.22	9158.52
472.40	9100.00
472.58	9165.54
472.77	9104.68
472.95	9217.03
473.13	9600.88
473.31	9284.91
473.49	9430.02
473.67	9277.88
473.85	9518.96
474.03	9535.34
474.21	9685.14
474.39	9757.69
474.57	9720.24
474.75	9848.97
474.93	9776.42
475.12	9982.38
475.30	10171.97
475.48	10003.45
475.66	10087.71
475.84	10003.45
476.02	10251.55
476.20	10230.48
476.38	10401.34
476.56	10574.54
476.74	10293.68
476.92	10420.06
477.10	10396.66
477.28	10661.14
477.46	10803.91
477.64	10839.02
477.82	10946.69
478.00	11281.38
478.18	10988.82
478.36	11176.06
478.54	11370.32
478.72	11255.64
478.90	11562.25
479.08	11719.06
479.26	11686.29
479.44	11676.93
479.62	11726.08
479.80	11761.19
479.98	11915.67
480.16	12196.53
480.34	12070.14
480.52	12248.02
480.70	12126.32
480.88	12098.23
481.06	12580.38
481.24	12484.42
481.41	12479.74
481.59	12390.80
481.77	12755.92
481.95	12826.14
482.13	12940.82
482.31	12685.70
482.49	13582.13
482.67	13224.03
482.85	13394.89
483.03	13242.75
483.21	13685.11
483.39	13715.54
483.57	13767.03
483.74	13708.52
483.92	13909.80
484.10	13425.31
484.28	14260.88
484.46	14546.43
484.64	14633.03
484.82	14375.57
485.00	14394.29
485.18	14743.03
485.35	15028.58
485.53	14897.51
485.71	14941.98
485.89	15403.07
486.07	15169.01
486.25	15204.12
486.43	15185.40
486.61	15419.45
486.78	15875.85
486.96	15822.02
487.14	16046.71
487.32	16142.67
487.50	16507.80
487.68	16264.38
487.85	16278.43
488.03	16676.32
488.21	16776.96
488.39	16791.00
488.57	17050.80
488.75	17067.19
488.92	17088.25
489.10	17434.65
489.28	17326.99
489.46	17535.29
489.64	17724.88
489.81	17902.76
489.99	18104.04
490.17	18125.11
490.35	18286.61
490.53	18448.10
490.70	18642.37
490.88	18258.52
491.06	18735.99
491.24	18511.30
491.41	18934.93
491.59	19005.15
491.77	18897.49
491.95	19098.77
492.13	19302.40
492.30	19396.02
492.48	19606.67
492.66	19583.26
492.84	19648.80
493.01	19906.26
493.19	20100.52
493.37	20589.69
493.54	20262.02
493.72	20545.22
493.90	20573.31
494.08	20680.97
494.25	20807.36
494.43	21036.74
494.61	20985.24
494.79	20945.45
494.96	21202.91
495.14	21366.75
495.32	21605.49
495.49	21542.29
495.67	21635.91
495.85	21607.83
496.02	22113.38
496.20	22101.68
496.38	22125.08
496.55	22176.58
496.73	22415.31
496.91	22176.58
497.09	22522.98
497.26	23054.28
497.44	22637.66
497.62	23016.83
497.79	23370.25
497.97	23183.01
498.14	23360.89
498.32	23845.38
498.50	23566.85
498.67	23545.79
498.85	23852.40
499.03	23632.39
499.20	23723.67
499.38	24126.24
499.56	24252.63
499.73	24304.12
499.91	24329.87
500.08	24599.03
500.26	24341.57
500.44	24659.88
500.61	24706.70
500.79	24290.08
500.97	24861.17
501.14	25076.50
501.32	25036.71
501.49	24875.21
501.67	24992.24
501.84	25198.21
502.02	25427.58
502.20	25404.17
502.37	25462.69
502.55	25727.17
502.72	25736.53
502.90	25759.94
503.07	26050.16
503.25	25741.21
503.43	25663.97
503.60	25958.88
503.78	26195.28
503.95	26300.60
504.13	26319.32
504.30	26689.13
504.48	26778.07
504.65	26541.68
504.83	26644.66
505.01	26981.70
505.18	27077.66
505.36	27115.11
505.53	26801.47
505.71	27201.71
505.88	27508.32
506.06	27208.73
506.23	27187.66
506.41	27412.35
506.58	27646.41
506.76	27796.20
506.93	27843.01
507.11	27716.62
507.28	28018.55
507.46	28004.51
507.63	28149.62
507.81	28304.10
507.98	28226.86
508.16	28371.97
508.33	28753.48
508.50	28531.13
508.68	28554.54
508.85	28966.47
509.03	28584.96
509.20	28634.11
509.38	28870.51
509.55	29090.52
509.73	28807.31
509.90	28975.83
510.08	29165.42
510.25	29268.40
510.42	29572.67
510.60	29563.31
510.77	29558.63
510.95	29764.59
511.12	29584.37
511.30	29862.90
511.47	29998.65
511.64	29677.99
511.82	29900.34
511.99	29893.32
512.17	30122.69
512.34	30125.04
512.51	30560.37
512.69	31007.42
512.86	30572.08
513.04	30628.25
513.21	30462.07
513.38	30897.41
513.56	30672.72
513.73	31311.69
513.90	30696.13
514.08	30565.06
514.25	31218.07
514.43	31288.28
514.60	31489.57
514.77	31379.56
514.95	31723.62
515.12	31686.17
515.29	31587.87
515.47	31571.49
515.64	32046.62
515.81	31634.68
515.99	31955.33
516.16	31957.67
516.33	31941.29
516.51	32261.94
516.68	31695.53
516.85	32072.36
517.03	32322.80
517.20	32732.39
517.37	32184.71
517.54	32643.45
517.72	32315.78
517.89	32416.42
518.06	32861.12
518.24	32582.60
518.41	32638.77
518.58	32664.52
518.75	32699.62
518.93	33069.43
519.10	33312.84
519.27	33362.00
519.45	33015.60
519.62	33359.66
519.79	33745.84
519.96	33127.94
520.14	33373.70
520.31	33076.45
520.48	33699.03
520.65	33649.88
520.83	34251.40
521.00	34176.50
521.17	33993.94
521.34	34450.35
521.52	34267.78
521.69	34366.09
521.86	34005.64
522.03	34590.78
522.20	34773.34
522.38	34895.05
522.55	34761.64
522.72	34583.76
522.89	34569.71
523.07	35274.21
523.24	35157.19
523.41	35239.11
523.58	35065.91
523.75	34960.58
523.92	35051.86
524.10	35559.76
524.27	34958.24
524.44	35379.54
524.61	35615.93
524.78	35952.97
524.96	35761.05
525.13	36172.98
525.30	35604.23
525.47	35679.13
525.64	35768.07
525.81	36084.04
525.98	36027.87
526.16	35503.59
526.33	35651.04
526.50	35800.83
526.67	35800.83
526.84	36683.22
527.01	35901.48
527.18	36290.01
527.36	36404.69
527.53	36591.94
527.70	36744.07
527.87	36795.56
528.04	36629.38
528.21	37099.83
528.38	36655.13
528.55	37006.21
528.72	36603.64
528.89	37099.83
529.07	37167.71
529.24	36837.69
529.41	37315.16
529.58	37214.52
529.75	37266.01
529.92	37439.21
530.09	37567.94
530.26	37469.64
530.43	37464.96
530.60	37240.26
530.77	37546.87
530.94	37785.61
531.11	37727.10
531.28	37401.76
531.46	37940.08
531.63	38068.81
531.80	38078.18
531.97	37670.92
532.14	38085.20
532.31	37968.17
532.48	38323.93
532.65	38089.88
532.82	37766.88
532.99	38888.00
533.16	38073.49
533.33	38436.28
533.50	38462.02
533.67	38185.84
533.84	38146.05
534.01	38550.96
534.18	38614.16
534.35	39154.82
534.52	39065.88
534.69	39068.22
534.86	38953.54
535.03	39037.80
535.20	39367.81
535.37	39154.82
535.54	39086.95
535.71	38951.20
535.88	39112.69
536.05	39309.30
536.22	39714.21
536.38	39379.51
536.55	39344.41
536.72	39608.89
536.89	39601.86
537.06	39739.96
537.23	39803.15
537.40	39393.56
537.57	39435.69
537.74	39311.64
537.91	40114.44
538.08	39555.05
538.25	39997.41
538.42	40006.78
538.59	39999.76
538.75	39896.77
538.92	40046.57
539.09	40451.48
539.26	40498.29
539.43	40364.88
539.60	40453.82
539.77	40060.61
539.94	40570.85
540.11	40292.32
540.28	40292.32
540.44	40842.35
540.61	40577.87
540.78	40175.30
540.95	40526.38
541.12	40084.01
541.29	40690.21
541.46	40692.55
541.62	40952.35
541.79	40769.79
541.96	40498.29
542.13	40715.96
542.30	41001.50
542.47	40865.75
542.63	41256.62
542.80	41132.57
542.97	41696.64
543.14	41736.43
543.31	41432.16
543.48	41478.97
543.64	41481.31
543.81	41701.32
543.98	41883.89
544.15	41888.57
544.32	41935.38
544.48	41965.81
544.65	41834.74
544.82	42148.37
544.99	41631.11
545.16	41675.58
545.32	41720.05
545.49	41865.16
545.66	42183.48
545.83	42139.00
546.00	42237.31
546.16	41933.04
546.33	42029.00
546.50	41853.46
546.67	42438.59
546.83	41914.31
547.00	42429.23
547.17	41902.61
547.34	42183.48
547.50	42464.34
547.67	42822.44
547.84	42801.38
548.00	42564.98
548.17	42925.42
548.34	43215.65
548.51	42557.96
548.67	42518.17
548.84	43072.88
549.01	42527.53
549.18	43119.69
549.34	43540.99
549.51	43702.48
549.68	43599.50
549.84	42969.90
550.01	43299.91
550.18	42707.76
550.34	43119.69
550.51	43737.59
550.68	43625.25
550.84	42873.93
551.01	43927.17
551.18	43304.59
551.34	43452.05
551.51	43407.58
551.68	43590.14
551.84	43328.00
552.01	43339.70
552.18	43662.69
552.34	43344.38
552.51	43576.09
552.68	43475.45
552.84	43798.44
553.01	43672.06
553.18	43653.33
553.34	43632.27
553.51	43693.12
553.67	43786.74
553.84	44142.50
554.01	44201.02
554.17	43770.36
554.34	44339.11
554.51	44116.76
554.67	44390.60
554.84	44650.40
555.00	43995.05
555.17	44149.53
555.33	44584.86
555.50	44484.22
555.67	44158.89
555.83	44718.28
556.00	44690.19
556.16	44605.93
556.33	44790.83
556.50	44304.00
556.66	44289.96
556.83	44301.66
556.99	44428.05
557.16	44837.64
557.32	44680.83
557.49	44781.47
557.65	44376.56
557.82	44664.44
557.98	44760.40
558.15	44697.21
558.32	45013.18
558.48	44252.51
558.65	45036.59
558.81	45090.42
558.98	45083.40
559.14	44643.38
559.31	44641.04
559.47	45036.59
559.64	44807.22
559.80	45574.91
559.97	45595.98
560.13	44809.56
560.30	45165.32
560.46	45432.14
560.63	45514.06
560.79	45223.83
560.96	45291.71
561.12	45450.86
561.29	45291.71
561.45	45228.51
561.61	45254.26
561.78	45038.93
561.94	45067.02
562.11	45221.49
562.27	45537.46
562.44	46036.00
562.60	45380.65
562.77	45181.70
562.93	45593.64
563.10	45865.14
563.26	45518.74
563.42	45705.98
563.59	45308.09
563.75	45331.50
563.92	45907.27
564.08	45572.57
564.24	45303.41
564.41	45574.91
564.57	45469.59
564.74	45670.87
564.90	45647.47
565.07	45326.81
565.23	45588.95
565.39	45696.62
565.56	46085.15
565.72	45610.02
565.88	45865.14
566.05	46202.18
566.21	45872.16
566.38	45455.54
566.54	45914.29
566.70	46031.32
566.87	45937.69
567.03	45373.63
567.19	45722.37
567.36	45799.60
567.52	45975.14
567.68	46307.50
567.85	46408.14
568.01	46171.75
568.17	46560.28
568.34	46230.26
568.50	46057.06
568.66	45904.93
568.83	46244.30
568.99	45752.79
569.15	45841.73
569.32	45841.73
569.48	46377.72
569.64	46696.03
569.81	46316.86
569.97	46698.37
570.13	46356.65
570.30	45947.06
570.46	46415.16
570.62	45820.67
570.78	46014.93
570.95	46384.74
571.11	46696.03
571.27	46370.69
571.43	46277.07
571.60	46155.36
571.76	46209.20
571.92	45968.12
572.09	46054.72
572.25	45993.87
572.41	46244.30
572.57	46630.49
572.74	46637.51
572.90	46637.51
573.06	46693.69
573.22	46691.35
573.38	46225.58
573.55	46646.88
573.71	47253.08
573.87	46660.92
574.03	46501.76
574.20	46735.82
574.36	46246.65
574.52	46864.55
574.68	46852.84
574.84	46656.24
575.01	46845.82
575.17	46674.96
575.33	46679.64
575.49	46593.04
575.65	47049.45
575.82	47093.92
575.98	46653.90
576.14	46773.27
576.30	46780.29
576.46	46625.81
576.62	47138.39
576.79	46752.20
576.95	46623.47
577.11	46351.97
577.27	46635.17
577.43	47023.70
577.59	46930.08
577.75	46550.91
577.92	46452.61
578.08	46731.14
578.24	46487.72
578.40	46483.04
578.56	46681.98
578.72	46539.21
578.88	46747.52
579.04	47042.43
579.21	46693.69
579.37	46761.56
579.53	46707.73
579.69	46492.40
579.85	46780.29
580.01	46672.62
580.17	46866.89
580.33	47091.58
580.49	47000.30
580.65	46892.63
580.82	46827.10
580.98	46813.05
581.14	46188.13
581.30	46850.50
581.46	46646.88
581.62	46691.35
581.78	46686.67
581.94	46787.31
582.10	46967.53
582.26	47009.66
582.42	46869.23
582.58	46990.94
582.74	47133.71
582.90	47126.69
583.06	47346.70
583.22	47248.39
583.38	46864.55
583.54	46810.71
583.70	46969.87
583.86	47222.65
584.02	46749.86
584.18	47370.10
584.34	47625.22
584.50	47096.26
584.66	47433.30
584.82	46836.46
584.98	47318.61
585.14	47040.09
585.30	46990.94
585.46	47112.64
585.62	46681.98
585.78	47007.32
585.94	46857.52
586.10	46557.94
586.26	46663.26
586.42	47318.61
586.58	47129.03
586.74	47194.56
586.90	46747.52
587.06	46894.97
587.22	47288.18
587.38	47004.98
587.54	47550.32
587.70	47718.84
587.86	47358.40
588.02	47229.67
588.18	46951.15
588.34	47117.32
588.49	47192.22
588.65	47122.01
588.81	46827.10
588.97	47100.94
589.13	47384.15
589.29	47175.84
589.45	47421.59
589.61	47215.63
589.77	47229.67
589.93	47566.71
