SpectraSuite Data File
++++++++++++++++++++++++++++++++++++
Date: Fri Oct 25 10:43:45 EDT 2013
User: price-jones
Dark Spectrum Present: No
Reference Spectrum Present: No
Number of Sampled Component Spectra: 1
Spectrometers: USB2+H05261
Integration Time (usec): 100000 (USB2+H05261)
Spectra Averaged: 1 (USB2+H05261)
Boxcar Smoothing: 0 (USB2+H05261)
Correct for Electrical Dark: No (USB2+H05261)
Strobe/Lamp Enabled: No (USB2+H05261)
Correct for Detector Non-linearity: No (USB2+H05261)
Correct for Stray Light: No (USB2+H05261)
Number of Pixels in Processed Spectrum: 2048
>>>>>Begin Processed Spectral Data<<<<<
365.73	166.18
365.92	166.18
366.12	166.18
366.32	44.47
366.52	0.00
366.72	25.75
366.91	42.13
367.11	79.58
367.31	0.00
367.51	11.70
367.70	0.00
367.90	88.94
368.10	9.36
368.30	42.13
368.49	81.92
368.69	91.28
368.89	32.77
369.09	39.79
369.28	30.43
369.48	135.75
369.68	72.56
369.87	100.64
370.07	42.13
370.27	131.07
370.47	269.16
370.66	411.93
370.86	411.93
371.06	456.40
371.25	479.81
371.45	409.59
371.65	461.09
371.84	428.32
372.04	489.17
372.24	479.81
372.44	482.15
372.63	433.00
372.83	454.06
373.03	486.83
373.22	491.51
373.42	482.15
373.62	496.19
373.81	514.92
374.01	580.45
374.21	622.58
374.40	538.32
374.60	566.41
374.79	535.98
374.99	596.84
375.19	552.37
375.38	571.09
375.58	695.14
375.78	550.03
375.97	631.94
376.17	660.03
376.37	594.50
376.56	622.58
376.76	531.30
376.95	624.92
377.15	599.18
377.35	587.47
377.54	620.24
377.74	624.92
377.93	608.54
378.13	702.16
378.33	788.76
378.52	653.01
378.72	692.80
378.91	603.86
379.11	608.54
379.31	592.16
379.50	664.71
379.70	744.29
379.89	634.29
380.09	711.52
380.28	678.76
380.48	702.16
380.68	617.90
380.87	653.01
381.07	737.27
381.26	779.40
381.46	648.33
381.65	723.23
381.85	662.37
382.04	706.84
382.24	711.52
382.43	662.37
382.63	702.16
382.83	709.18
383.02	690.46
383.22	690.46
383.41	660.03
383.61	669.39
383.80	730.25
384.00	786.42
384.19	875.36
384.39	805.14
384.58	758.33
384.78	812.17
384.97	919.83
385.17	819.19
385.36	725.57
385.56	741.95
385.75	793.44
385.95	795.78
386.14	805.14
386.34	795.78
386.53	816.85
386.72	866.00
386.92	873.02
387.11	877.70
387.31	891.74
387.50	896.43
387.70	819.19
387.89	894.08
388.09	938.55
388.28	887.06
388.48	894.08
388.67	922.17
388.86	833.23
389.06	898.77
389.25	954.94
389.45	971.32
389.64	990.05
389.84	1013.45
390.03	978.34
390.22	964.30
390.42	980.68
390.61	1001.75
390.81	1013.45
391.00	1025.15
391.19	1006.43
391.39	1025.15
391.58	994.73
391.78	1055.58
391.97	990.05
392.16	1076.65
392.36	1069.62
392.55	1015.79
392.75	1025.15
392.94	863.66
393.13	1036.86
393.33	929.19
393.52	1076.65
393.71	1095.37
393.91	1015.79
394.10	1153.88
394.29	1104.73
394.49	1151.54
394.68	1188.99
394.88	1090.69
395.07	1132.82
395.26	1254.53
395.46	1249.85
395.65	1259.21
395.84	1191.33
396.04	1291.98
396.23	1102.39
396.42	1205.38
396.62	1249.85
396.81	1263.89
397.00	1221.76
397.19	1327.08
397.39	1284.95
397.58	1282.61
397.77	1263.89
397.97	1345.81
398.16	1437.09
398.35	1380.92
398.55	1481.56
398.74	1420.71
398.93	1533.05
399.12	1540.07
399.32	1401.98
399.51	1568.16
399.70	1516.67
399.90	1570.50
400.09	1561.14
400.28	1523.69
400.47	1598.59
400.67	1593.90
400.86	1596.25
401.05	1652.42
401.24	1617.31
401.44	1675.82
401.63	1614.97
401.82	1769.44
402.01	1743.70
402.21	1717.95
402.40	1720.29
402.59	1643.06
402.78	1636.03
402.97	1689.87
403.17	1746.04
403.36	1720.29
403.55	1813.92
403.74	1963.71
403.93	1811.57
404.13	1802.21
404.32	1783.49
404.51	1820.94
404.70	1879.45
404.89	1802.21
405.09	1970.73
405.28	1956.69
405.47	1872.43
405.66	1942.64
405.85	2036.27
406.05	1923.92
406.24	1935.62
406.43	1959.03
406.62	2097.12
406.81	2036.27
407.00	2024.56
407.20	2024.56
407.39	2005.84
407.58	2230.53
407.77	2069.03
407.96	2031.58
408.15	2237.55
408.34	2237.55
408.54	2272.66
408.73	2239.89
408.92	2352.24
409.11	2253.94
409.30	2338.20
409.49	2242.23
409.68	2267.98
409.87	2272.66
410.07	2179.04
410.26	2237.55
410.45	2321.81
410.64	2319.47
410.83	2443.52
411.02	2530.12
411.21	2576.93
411.40	2422.45
411.59	2567.57
411.78	2495.01
411.98	2523.10
412.17	2546.50
412.36	2553.52
412.55	2609.70
412.74	2726.72
412.93	2759.49
413.12	2712.68
413.31	2876.52
413.50	2710.34
413.69	2785.24
413.88	2801.62
414.07	2775.88
414.26	2902.26
414.45	2932.69
414.64	3002.91
414.83	2932.69
415.02	3000.57
415.22	3110.57
415.41	3063.76
415.60	3145.68
415.79	3173.77
415.98	3234.62
416.17	3309.52
416.36	3073.12
416.55	3141.00
416.74	3328.24
416.93	3164.40
417.12	3206.53
417.31	3440.59
417.50	3297.81
417.69	3281.43
417.88	3428.88
418.07	3353.99
418.26	3353.99
418.45	3414.84
418.64	3548.25
418.83	3595.06
419.02	3611.45
419.21	3550.59
419.39	3412.50
419.58	3541.23
419.77	3513.14
419.96	3438.25
420.15	3604.42
420.34	3684.00
420.53	3679.32
420.72	3756.56
420.91	3843.16
421.10	3768.26
421.29	3829.12
421.48	3691.02
421.67	3829.12
421.86	3744.86
422.05	3765.92
422.24	3716.77
422.43	3824.44
422.61	3808.05
422.80	3779.97
422.99	3999.98
423.18	3810.39
423.37	3913.38
423.56	3852.52
423.75	3801.03
423.94	3812.73
424.13	3679.32
424.32	3758.90
424.50	3737.84
424.69	3845.50
424.88	3964.87
425.07	3796.35
425.26	3770.60
425.45	3798.69
425.64	3747.20
425.83	3969.55
426.01	3918.06
426.20	3976.57
426.39	4039.76
426.58	3894.65
426.77	3936.78
426.96	3873.59
427.15	3847.84
427.33	4102.96
427.52	4030.40
427.71	4241.05
427.90	4105.30
428.09	4112.32
428.28	4028.06
428.46	4205.94
428.65	3990.61
428.84	4093.60
429.03	4327.65
429.22	4070.19
429.40	4081.89
429.59	4009.34
429.78	3999.98
429.97	3950.82
430.16	3971.89
430.34	4053.81
430.53	4215.30
430.72	4187.22
430.91	4168.49
431.10	4255.09
431.28	4470.42
431.47	4519.57
431.66	4568.73
431.85	4372.12
432.03	4589.79
432.22	4580.43
432.41	4407.23
432.60	4664.69
432.79	4638.94
432.97	4667.03
433.16	4442.34
433.35	4542.98
433.54	4571.07
433.72	4587.45
433.91	4521.92
434.10	4746.61
434.28	4748.95
434.47	4650.64
434.66	4954.91
434.85	4854.27
435.03	4795.76
435.22	4997.04
435.41	5132.79
435.59	5071.94
435.78	4999.38
435.97	4999.38
436.16	5046.20
436.34	5004.07
436.53	4905.76
436.72	5240.46
436.90	5137.48
437.09	5071.94
437.28	4933.85
437.46	5158.54
437.65	5174.92
437.84	5001.72
438.02	5111.73
438.21	5160.88
438.40	5015.77
438.58	5310.68
438.77	5408.98
438.96	5448.77
439.14	5439.40
439.33	5563.45
439.52	5584.52
439.70	5572.82
439.89	5551.75
440.08	5479.19
440.26	5802.19
440.45	5774.10
440.63	5799.85
440.82	6160.29
441.01	5856.02
441.19	5942.62
441.38	6101.78
441.57	6003.47
441.75	6146.25
441.94	6216.46
442.12	6167.31
442.31	6179.01
442.50	6272.64
442.68	6157.95
442.87	6267.95
443.05	6101.78
443.24	6429.45
443.43	6328.81
443.61	6497.33
443.80	6497.33
443.98	6174.33
444.17	6008.16
444.35	6356.90
444.54	6387.32
444.73	6466.90
444.91	6314.77
445.10	6279.66
445.28	6389.66
445.47	6291.36
445.65	6324.13
445.84	6424.77
446.02	6548.82
446.21	6324.13
446.39	6361.58
446.58	6630.74
446.77	6691.59
446.95	6588.61
447.14	6593.29
447.32	6642.44
447.51	6403.71
447.69	6347.53
447.88	6693.93
448.06	6565.20
448.25	6612.01
448.43	6726.70
448.62	6593.29
448.80	6555.84
448.99	6691.59
449.17	6733.72
449.36	6766.49
449.54	6888.20
449.73	6970.12
449.91	7124.59
450.10	7035.65
450.28	7070.76
450.46	7258.00
450.65	7155.02
450.83	6991.18
451.02	7173.74
451.20	7215.87
451.39	7176.08
451.57	7187.79
451.76	7089.48
451.94	7091.82
452.13	7115.23
452.31	6995.86
452.49	6904.58
452.68	7059.06
452.86	7133.95
453.05	7253.32
453.23	7140.97
453.42	7297.79
453.60	7265.02
453.78	7375.03
453.97	7344.60
454.15	7297.79
454.34	7159.70
454.52	7426.52
454.70	7435.88
454.89	7339.92
455.07	7513.12
455.26	7609.08
455.44	7808.03
455.62	7709.72
455.81	7571.63
455.99	7524.82
456.17	7838.45
456.36	7726.11
456.54	7791.64
456.73	7920.37
456.91	8173.15
457.09	7962.50
457.28	8217.62
457.46	7981.23
457.64	7920.37
457.83	7911.01
458.01	7819.73
458.19	8154.43
458.38	7829.09
458.56	8023.36
458.74	8037.40
458.93	8219.96
459.11	8170.81
459.29	8152.09
459.48	8088.89
459.66	8353.37
459.84	8320.60
460.03	8205.92
460.21	8219.96
460.39	8542.96
460.57	8449.33
460.76	8383.80
460.94	8524.23
461.12	8388.48
461.31	8367.42
461.49	8545.30
461.67	8655.30
461.85	8772.33
462.04	8685.73
462.22	9151.49
462.40	8704.45
462.59	8833.18
462.77	8856.59
462.95	8819.14
463.13	8938.51
463.32	8835.52
463.50	8936.17
463.68	8755.94
463.86	8868.29
464.05	8805.10
464.23	8765.31
464.41	8802.75
464.59	8730.20
464.78	9090.64
464.96	9025.11
465.14	8788.71
465.32	8765.31
465.50	9055.53
465.69	9334.06
465.87	9139.79
466.05	9153.84
466.23	9132.77
466.41	9043.83
466.60	9231.07
466.78	9013.40
466.96	9015.74
467.14	9001.70
467.32	9270.86
467.51	9277.88
467.69	8917.44
467.87	9327.03
468.05	9448.74
468.23	9226.39
468.41	9371.50
468.60	9430.02
468.78	9530.66
468.96	9327.03
469.14	9706.20
469.32	9542.36
469.50	9371.50
469.69	9558.75
469.87	9764.72
470.05	9820.89
470.23	9689.82
470.41	9514.28
470.59	9668.75
470.77	9736.63
470.95	9750.67
471.14	9930.89
471.32	9947.28
471.50	9954.30
471.68	10260.91
471.86	10321.76
472.04	10136.86
472.22	10441.13
472.40	10115.80
472.58	10207.08
472.77	10225.80
472.95	10518.37
473.13	10675.18
473.31	10366.23
473.49	10595.61
473.67	10403.68
473.85	10576.88
474.03	10654.12
474.21	10658.80
474.39	11000.52
474.57	10979.45
474.75	10920.94
474.93	10974.77
475.12	10960.73
475.30	11131.59
475.48	10972.43
475.66	11213.51
475.84	11112.86
476.02	11580.97
476.20	11183.08
476.38	11534.16
476.56	11728.42
476.74	11573.95
476.92	11562.25
477.10	11637.14
477.28	11948.43
477.46	11789.28
477.64	12112.27
477.82	12236.32
478.00	12477.40
478.18	12559.31
478.36	12449.31
478.54	12676.34
478.72	12442.29
478.90	12849.54
479.08	13022.74
479.26	12835.50
479.44	12908.05
479.62	12964.23
479.80	13149.13
479.98	13165.51
480.16	13488.51
480.34	13303.60
480.52	13540.00
480.70	13692.13
480.88	13650.00
481.06	13853.63
481.24	13937.89
481.41	13884.06
481.59	14349.82
481.77	14083.00
481.95	14221.10
482.13	14527.71
482.31	14338.12
482.49	14628.35
482.67	14614.30
482.85	14689.20
483.03	14829.63
483.21	15199.44
483.39	15077.73
483.57	15180.71
483.74	15372.64
483.92	15424.13
484.10	15328.17
484.28	15754.15
484.46	15985.86
484.64	16135.65
484.82	15777.55
485.00	16051.39
485.18	16226.93
485.35	16437.58
485.53	16102.89
485.71	15948.41
485.89	16159.06
486.07	16393.11
486.25	16400.13
486.43	16683.34
486.61	16748.87
486.78	17305.92
486.96	17240.39
487.14	17617.21
487.32	17481.46
487.50	17752.96
487.68	17818.50
487.85	17792.75
488.03	18155.54
488.21	18511.30
488.39	18342.78
488.57	18457.46
488.75	18668.11
488.92	19044.94
489.10	19232.18
489.28	19152.60
489.46	19419.42
489.64	19414.74
489.81	19983.49
489.99	20046.69
490.17	19983.49
490.35	20121.59
490.53	20081.80
490.70	20393.09
490.88	20400.11
491.06	20767.57
491.24	20397.77
491.41	20444.58
491.59	20577.99
491.77	20559.27
491.95	20563.95
492.13	21181.85
492.30	20992.26
492.48	21429.94
492.66	21593.78
492.84	21703.79
493.01	21989.33
493.19	22080.61
493.37	21916.78
493.54	21902.73
493.72	22237.43
493.90	22075.93
494.08	22735.96
494.25	22747.67
494.43	22927.89
494.61	23075.34
494.79	23239.18
494.96	23222.80
495.14	23065.98
495.32	23683.88
495.49	23494.30
495.67	23814.95
495.85	24025.60
496.02	23871.12
496.20	24159.01
496.38	24063.05
496.55	24257.31
496.73	24582.65
496.91	24332.21
497.09	24751.17
497.26	24709.04
497.44	24812.02
497.62	24779.25
497.79	25270.76
497.97	25202.89
498.14	25263.74
498.32	25317.57
498.50	25397.15
498.67	25834.83
498.85	25558.65
499.03	26003.35
499.20	26160.17
499.38	25982.29
499.56	26026.76
499.73	26139.10
499.91	26228.04
500.08	26146.12
500.26	25916.75
500.44	26319.32
500.61	26377.84
500.79	26326.35
500.97	26665.72
501.14	26895.10
501.32	26876.37
501.49	26806.16
501.67	26726.58
501.84	27005.10
502.02	27201.71
502.20	27171.28
502.37	27524.70
502.55	27498.95
502.72	27620.66
502.90	27948.34
503.07	27702.58
503.25	28086.43
503.43	27466.19
503.60	27969.40
503.78	27847.69
503.95	28203.46
504.13	27990.47
504.30	28074.73
504.48	28126.22
504.65	28430.49
504.83	28709.01
505.01	28802.63
505.18	28795.61
505.36	29032.00
505.53	28919.66
505.71	29287.12
505.88	29338.62
506.06	28821.36
506.23	29542.24
506.41	29289.46
506.58	29247.33
506.76	29537.56
506.93	29502.45
507.11	29785.66
507.28	29773.95
507.46	29560.97
507.63	29504.79
507.81	29495.43
507.98	29757.57
508.16	29818.42
508.33	30359.09
508.50	30579.10
508.68	30693.79
508.85	30682.08
509.03	30897.41
509.20	30534.63
509.38	30574.42
509.55	30665.70
509.73	31342.11
509.90	30960.61
510.08	31049.55
510.25	31115.08
510.42	31040.18
510.60	31220.41
510.77	31353.82
510.95	31634.68
511.12	31648.72
511.30	31548.08
511.47	32060.66
511.64	32266.63
511.82	32149.60
511.99	31983.42
512.17	31777.45
512.34	31796.18
512.51	32334.50
512.69	32666.86
512.86	32577.92
513.04	32783.88
513.21	32430.46
513.38	32744.09
513.56	32329.82
513.73	32568.55
513.90	32542.81
514.08	33039.00
514.25	32900.91
514.43	33020.28
514.60	33132.62
514.77	33476.68
514.95	33081.13
515.12	33352.63
515.29	33060.07
515.47	33654.56
515.64	33312.84
515.81	33282.42
515.99	33804.36
516.16	33558.60
516.33	33350.29
516.51	33282.42
516.68	32847.08
516.85	33113.90
517.03	33359.66
517.20	33542.22
517.37	33790.31
517.54	33715.42
517.72	34000.96
517.89	33591.37
518.06	33514.13
518.24	33684.99
518.41	34082.88
518.58	34057.14
518.75	34316.93
518.93	34031.39
519.10	34368.43
519.27	34775.68
519.45	34998.03
519.62	34771.00
519.79	34871.64
519.96	34904.41
520.14	34902.07
520.31	35023.78
520.48	35384.22
520.65	35079.95
520.83	35887.43
521.00	35686.15
521.17	35786.79
521.34	35332.73
521.52	35564.44
521.69	35770.41
521.86	35988.08
522.03	36046.59
522.20	35817.22
522.38	35901.48
522.55	35782.11
522.72	36065.31
522.89	36350.86
523.07	36580.23
523.24	36027.87
523.41	36481.93
523.58	36655.13
523.75	36744.07
523.92	36762.79
524.10	37172.39
524.27	37404.10
524.44	36652.79
524.61	36973.44
524.78	37291.76
524.96	37350.27
525.13	37043.66
525.30	37359.63
525.47	37792.63
525.64	36851.73
525.81	37120.90
525.98	36861.10
526.16	37081.11
526.33	36837.69
526.50	36786.20
526.67	37050.68
526.84	37390.06
527.01	37081.11
527.18	37387.72
527.36	37617.09
527.53	38057.11
527.70	38426.92
527.87	38213.93
528.04	37425.17
528.21	38459.68
528.38	37909.66
528.55	38134.35
528.72	38412.87
528.89	38401.17
529.07	38150.73
529.24	37883.91
529.41	38447.98
529.58	38337.98
529.75	38506.49
529.92	38817.78
530.09	38586.07
530.26	38707.78
530.43	39068.22
530.60	39108.01
530.77	38543.94
530.94	38775.66
531.11	38850.55
531.28	38932.47
531.46	39278.87
531.63	38892.68
531.80	39086.95
531.97	38827.15
532.14	39337.38
532.31	38820.13
532.48	39150.14
532.65	39007.37
532.82	39136.10
532.99	39566.76
533.16	39316.32
533.33	39475.48
533.50	39957.63
533.67	39641.65
533.84	39770.38
534.01	39416.96
534.18	39533.99
534.35	39875.71
534.52	39714.21
534.69	40123.80
534.86	40409.35
535.03	39995.07
535.20	40336.79
535.37	40699.58
535.54	40781.49
535.71	40121.46
535.88	39962.31
536.05	40179.98
536.22	40540.42
536.38	40421.05
536.55	40526.38
536.72	40542.76
536.89	40076.99
537.06	40315.73
537.23	40788.52
537.40	40268.92
537.57	40802.56
537.74	41069.38
537.91	41305.77
538.08	41132.57
538.25	40535.74
538.42	41116.19
538.59	41179.39
538.75	40940.65
538.92	40847.03
539.09	41123.21
539.26	41256.62
539.43	41006.19
539.60	41013.21
539.77	40882.14
539.94	41530.47
540.11	40818.94
540.28	41411.10
540.44	41329.18
540.61	41244.92
540.78	40978.10
540.95	40978.10
541.12	40919.59
541.29	41244.92
541.46	41689.62
541.62	41741.11
541.79	41958.78
541.96	41455.57
542.13	41434.50
542.30	41326.84
542.47	41888.57
542.63	41703.67
542.80	41769.20
542.97	42241.99
543.14	42197.52
543.31	42356.67
543.48	42007.94
543.64	42429.23
543.81	42499.45
543.98	41832.39
544.15	42492.43
544.32	42506.47
544.48	42726.48
544.65	42164.75
544.82	43133.73
544.99	42492.43
545.16	42471.36
545.32	42270.08
545.49	43044.79
545.66	43267.14
545.83	42937.13
546.00	43047.13
546.16	42763.93
546.33	42710.10
546.50	42607.11
546.67	43084.58
546.83	42473.70
547.00	42801.38
547.17	43044.79
547.34	42424.55
547.50	42979.26
547.67	43002.66
547.84	43353.74
548.00	43442.68
548.17	43569.07
548.34	43393.53
548.51	43576.09
548.67	43208.63
548.84	43442.68
549.01	43309.27
549.18	43667.37
549.34	43398.21
549.51	43585.46
549.68	43856.96
549.84	43304.59
550.01	43753.97
550.18	43119.69
550.34	43625.25
550.51	43508.22
550.68	43152.46
550.84	43168.84
551.01	43742.27
551.18	43831.21
551.34	43091.60
551.51	44030.16
551.68	43936.54
551.84	43917.81
552.01	43899.09
552.18	44009.09
552.34	43578.43
552.51	44098.03
552.68	43779.72
552.84	43873.34
553.01	44194.00
553.18	43636.95
553.34	44055.90
553.51	44179.95
553.67	44037.18
553.84	44498.26
554.01	44524.01
554.17	44528.69
554.34	44072.29
554.51	44194.00
554.67	44243.15
554.84	44273.57
555.00	44219.74
555.17	44383.58
555.33	44610.61
555.50	44669.12
555.67	44776.79
555.83	44526.35
556.00	44102.71
556.16	44549.76
556.33	44495.92
556.50	44624.65
556.66	44643.38
556.83	44065.27
556.99	44432.73
557.16	44992.12
557.32	44264.21
557.49	44898.50
557.65	44678.49
557.82	44823.60
557.98	44493.58
558.15	44624.65
558.32	44928.92
558.48	44610.61
558.65	44493.58
558.81	44311.02
558.98	44493.58
559.14	44765.09
559.31	44610.61
559.47	45071.70
559.64	44701.89
559.80	44844.66
559.97	45050.63
560.13	44470.18
560.30	44982.76
560.46	44783.81
560.63	45366.60
560.79	44914.88
560.96	45670.87
561.12	44842.32
561.29	44891.48
561.45	45319.79
561.61	44992.12
561.78	44732.32
561.94	44776.79
562.11	44987.44
562.27	45223.83
562.44	45235.53
562.60	44884.45
562.77	44961.69
562.93	45434.48
563.10	45539.80
563.26	44905.52
563.42	45556.19
563.59	45207.45
563.75	45408.73
563.92	45628.74
564.08	45343.20
564.24	45371.28
564.41	45436.82
564.57	45418.10
564.74	45240.21
564.90	45130.21
565.07	45624.06
565.23	45642.79
565.39	45200.43
565.56	45289.37
565.72	45195.74
565.88	45294.05
566.05	45270.64
566.21	45249.58
566.38	45057.65
566.54	45305.75
566.70	45521.08
566.87	45624.06
567.03	45375.97
567.19	46127.28
567.36	45986.85
567.52	45418.10
567.68	45626.40
567.85	45240.21
568.01	45886.20
568.17	45748.11
568.34	45668.53
568.50	45518.74
568.66	45270.64
568.83	45593.64
568.99	45471.93
569.15	45663.85
569.32	45315.11
569.48	45464.91
569.64	45820.67
569.81	45642.79
569.97	45378.31
570.13	45734.07
570.30	45125.53
570.46	45219.15
570.62	45109.14
570.78	45106.80
570.95	45443.84
571.11	45361.92
571.27	45652.15
571.43	45415.76
571.60	45235.53
571.76	45862.80
571.92	45813.65
572.09	45558.53
572.25	45418.10
572.41	46010.25
572.57	45581.93
572.74	46012.59
572.90	45478.95
573.06	45851.09
573.22	45413.41
573.38	45895.56
573.55	45308.09
573.71	45720.02
573.87	45663.85
574.03	45769.18
574.20	45675.55
574.36	45675.55
574.52	45947.06
574.68	45713.00
574.84	45886.20
575.01	45647.47
575.17	46038.34
575.33	45404.05
575.49	45600.66
575.65	45563.21
575.82	45607.68
575.98	45500.01
576.14	45970.46
576.30	45551.51
576.46	45830.03
576.62	45638.11
576.79	45392.35
576.95	45167.66
577.11	45570.23
577.27	46113.23
577.43	45886.20
577.59	45567.89
577.75	45797.26
577.92	45429.80
578.08	45603.00
578.24	45205.11
578.40	45853.44
578.56	45837.05
578.72	45818.33
578.88	45890.88
579.04	46054.72
579.21	45794.92
579.37	45818.33
579.53	45991.53
579.69	45724.71
579.85	45916.63
580.01	45729.39
580.17	45783.22
580.33	45958.76
580.49	45982.16
580.65	45420.44
580.82	45703.64
580.98	45457.88
581.14	45944.72
581.30	46223.24
581.46	45509.38
581.62	45909.61
581.78	45748.11
581.94	46036.00
582.10	45471.93
582.26	46052.38
582.42	45860.46
582.58	46028.98
582.74	45481.29
582.90	46066.42
583.06	46218.56
583.22	45815.99
583.38	46354.31
583.54	46354.31
583.70	46101.53
583.86	45628.74
584.02	45591.30
584.18	45958.76
584.34	45858.12
584.50	45813.65
584.66	46141.32
584.82	45551.51
584.98	45710.66
585.14	45701.30
585.30	45720.02
585.46	45682.58
585.62	45670.87
585.78	45525.76
585.94	46014.93
586.10	45720.02
586.26	45565.55
586.42	45923.65
586.58	45921.31
586.74	45862.80
586.90	45872.16
587.06	46071.10
587.22	46108.55
587.38	45975.14
587.54	45860.46
587.70	46508.79
587.86	46167.07
588.02	45900.25
588.18	46003.23
588.34	45492.99
588.49	45177.02
588.65	45181.70
588.81	45593.64
588.97	45666.19
589.13	45404.05
589.29	45034.25
589.45	45907.27
589.61	45839.39
589.77	46178.77
589.93	46080.47
590.08	45879.18
