SpectraSuite Data File
++++++++++++++++++++++++++++++++++++
Date: Fri Oct 25 11:26:39 EDT 2013
User: price-jones
Dark Spectrum Present: No
Reference Spectrum Present: No
Number of Sampled Component Spectra: 1
Spectrometers: USB2+H05261
Integration Time (usec): 100000 (USB2+H05261)
Spectra Averaged: 1 (USB2+H05261)
Boxcar Smoothing: 0 (USB2+H05261)
Correct for Electrical Dark: No (USB2+H05261)
Strobe/Lamp Enabled: No (USB2+H05261)
Correct for Detector Non-linearity: No (USB2+H05261)
Correct for Stray Light: No (USB2+H05261)
Number of Pixels in Processed Spectrum: 2048
>>>>>Begin Processed Spectral Data<<<<<
365.73	205.97
365.92	205.97
366.12	205.97
366.32	227.03
366.52	191.92
366.72	133.41
366.91	138.09
367.11	161.50
367.31	107.66
367.51	81.92
367.70	142.77
367.90	81.92
368.10	180.22
368.30	133.41
368.49	173.20
368.69	159.16
368.89	124.05
369.09	98.30
369.28	145.11
369.48	166.18
369.68	196.60
369.87	184.90
370.07	149.79
370.27	341.72
370.47	332.36
370.66	629.60
370.86	606.20
371.06	727.91
371.25	650.67
371.45	636.63
371.65	627.26
371.84	699.82
372.04	638.97
372.24	667.05
372.44	777.06
372.63	763.01
372.83	746.63
373.03	718.54
373.22	753.65
373.42	828.55
373.62	812.17
373.81	732.59
374.01	795.78
374.21	847.27
374.40	851.96
374.60	760.67
374.79	929.19
374.99	830.89
375.19	858.98
375.38	849.61
375.58	830.89
375.78	903.45
375.97	840.25
376.17	931.53
376.37	896.43
376.56	938.55
376.76	823.87
376.95	873.02
377.15	959.62
377.35	882.38
377.54	966.64
377.74	849.61
377.93	929.19
378.13	987.71
378.33	976.00
378.52	910.47
378.72	884.72
378.91	926.85
379.11	992.39
379.31	950.26
379.50	936.21
379.70	1053.24
379.89	1041.54
380.09	891.74
380.28	936.21
380.48	950.26
380.68	917.49
380.87	1022.81
381.07	1020.47
381.26	1027.50
381.46	976.00
381.65	1081.33
381.85	1006.43
382.04	990.05
382.24	1015.79
382.43	1006.43
382.63	1011.11
382.83	1015.79
383.02	1193.67
383.22	1060.26
383.41	1107.07
383.61	1067.28
383.80	1043.88
384.00	1235.80
384.19	1055.58
384.39	1130.48
384.58	1074.31
384.78	1203.04
384.97	1188.99
385.17	1151.54
385.36	1200.69
385.56	1184.31
385.75	1158.57
385.95	1210.06
386.14	1221.76
386.34	1160.91
386.53	1170.27
386.72	1167.93
386.92	1317.72
387.11	1193.67
387.31	1306.02
387.50	1299.00
387.70	1256.87
387.89	1203.04
388.09	1238.14
388.28	1303.68
388.48	1301.34
388.67	1287.29
388.86	1270.91
389.06	1343.47
389.25	1313.04
389.45	1341.13
389.64	1291.98
389.84	1420.71
390.03	1409.00
390.22	1390.28
390.42	1341.13
390.61	1378.58
390.81	1397.30
391.00	1437.09
391.19	1467.52
391.39	1495.60
391.58	1495.60
391.78	1486.24
391.97	1465.18
392.16	1504.96
392.36	1591.56
392.55	1664.12
392.75	1540.07
392.94	1535.39
393.13	1614.97
393.33	1497.94
393.52	1523.69
393.71	1570.50
393.91	1598.59
394.10	1572.84
394.29	1643.06
394.49	1502.62
394.68	1675.82
394.88	1647.74
395.07	1710.93
395.26	1720.29
395.46	1689.87
395.65	1748.38
395.84	1720.29
396.04	1776.47
396.23	1811.57
396.42	1778.81
396.62	1776.47
396.81	1832.64
397.00	1778.81
397.19	1790.51
397.39	1746.04
397.58	1874.77
397.77	1748.38
397.97	1811.57
398.16	1778.81
398.35	1942.64
398.55	1724.97
398.74	1994.14
398.93	1923.92
399.12	1877.11
399.32	1930.94
399.51	1895.83
399.70	1968.39
399.90	1959.03
400.09	2120.53
400.28	1952.01
400.47	2050.31
400.67	2012.86
400.86	2097.12
401.05	2129.89
401.24	2125.21
401.44	2045.63
401.63	2195.42
401.82	2122.87
402.01	2083.08
402.21	2043.29
402.40	2260.96
402.59	2134.57
402.78	2310.11
402.97	2258.62
403.17	2326.49
403.36	2263.30
403.55	2305.43
403.74	2342.88
403.93	2385.01
404.13	2466.92
404.32	2314.79
404.51	2338.20
404.70	2422.45
404.89	2452.88
405.09	2499.69
405.28	2452.88
405.47	2518.42
405.66	2462.24
405.85	2445.86
406.05	2548.84
406.24	2614.38
406.43	2583.95
406.62	2647.15
406.81	2649.49
407.00	2640.12
407.20	2548.84
407.39	2710.34
407.58	2752.47
407.77	2810.98
407.96	2789.92
408.15	2801.62
408.34	2736.09
408.54	2895.24
408.73	2775.88
408.92	2827.37
409.11	2937.37
409.30	2944.39
409.49	2848.43
409.68	3038.02
409.87	2963.12
410.07	3019.29
410.26	3094.19
410.45	3080.14
410.64	3028.65
410.83	2977.16
411.02	3131.64
411.21	3236.96
411.40	3178.45
411.59	3251.00
411.78	3211.22
411.98	3276.75
412.17	3400.80
412.36	3389.10
412.55	3339.94
412.74	3454.63
412.93	3529.53
413.12	3372.71
413.31	3662.94
413.50	3440.59
413.69	3452.29
413.88	3592.72
414.07	3588.04
414.26	3606.77
414.45	3616.13
414.64	3733.15
414.83	3700.39
415.02	3688.68
415.22	3847.84
415.41	3786.99
415.60	3934.44
415.79	3892.31
415.98	4135.73
416.17	4065.51
416.36	4109.98
416.55	4072.53
416.74	4046.79
416.93	4119.34
417.12	4205.94
417.31	4051.47
417.50	4231.69
417.69	4234.03
417.88	4414.25
418.07	4365.10
418.26	4358.08
418.45	4353.40
418.64	4571.07
418.83	4477.44
419.02	4482.13
419.21	4470.42
419.39	4329.99
419.58	4531.28
419.77	4479.79
419.96	4425.95
420.15	4638.94
420.34	4636.60
420.53	4634.26
420.72	4802.78
420.91	4791.08
421.10	4723.20
421.29	4765.33
421.48	4617.88
421.67	4755.97
421.86	4770.01
422.05	4828.53
422.24	4849.59
422.43	4882.36
422.61	4812.14
422.80	4851.93
422.99	4959.60
423.18	5036.83
423.37	5135.14
423.56	4973.64
423.75	4908.10
423.94	4746.61
424.13	4596.81
424.32	4816.82
424.50	4971.30
424.69	5149.18
424.88	5146.84
425.07	4891.72
425.26	4877.68
425.45	4973.64
425.64	5018.11
425.83	4959.60
426.01	5109.39
426.20	5041.51
426.39	4980.66
426.58	4947.89
426.77	5078.96
426.96	5291.95
427.15	5233.44
427.33	5228.76
427.52	5205.35
427.71	5327.06
427.90	5235.78
428.09	5327.06
428.28	5533.03
428.46	5359.83
428.65	5329.40
428.84	5455.79
429.03	5610.26
429.22	5416.00
429.40	5547.07
429.59	5481.53
429.78	5313.02
429.97	5327.06
430.16	5507.28
430.34	5720.27
430.53	5692.18
430.72	5526.00
430.91	5720.27
431.10	5645.37
431.28	5909.85
431.47	5823.25
431.66	5867.72
431.85	5970.71
432.03	6054.97
432.22	6078.37
432.41	5975.39
432.60	6033.90
432.79	5949.64
432.97	6190.72
433.16	6141.57
433.35	5980.07
433.54	6342.85
433.72	6115.82
433.91	6197.74
434.10	6195.40
434.28	6054.97
434.47	6059.65
434.66	6237.53
434.85	6466.90
435.03	6384.98
435.22	6399.02
435.41	6539.46
435.59	6417.75
435.78	6436.47
435.97	6502.01
436.16	6516.05
436.34	6431.79
436.53	6647.12
436.72	6761.81
436.90	6438.81
437.09	6548.82
437.28	6553.50
437.46	6710.32
437.65	6623.72
437.84	6761.81
438.02	6841.39
438.21	6862.45
438.40	6768.83
438.58	7087.14
438.77	6988.84
438.96	6899.90
439.14	6993.52
439.33	7094.16
439.52	7332.90
439.70	7152.68
439.89	7356.30
440.08	7440.56
440.26	7431.20
440.45	7545.89
440.63	7679.30
440.82	7691.00
441.01	7576.31
441.19	7665.25
441.38	7744.83
441.57	7808.03
441.75	7632.49
441.94	7934.42
442.12	7911.01
442.31	8098.25
442.50	8102.93
442.68	7784.62
442.87	8283.16
443.05	8210.60
443.24	8336.99
443.43	8070.17
443.61	8175.49
443.80	8531.25
443.98	8208.26
444.17	8053.78
444.35	8273.79
444.54	8325.29
444.73	8201.24
444.91	8229.32
445.10	8423.59
445.28	8461.04
445.47	8327.63
445.65	8416.57
445.84	8514.87
446.02	8519.55
446.21	8526.57
446.39	8152.09
446.58	8678.71
446.77	8638.92
446.95	8252.73
447.14	8442.31
447.32	8573.38
447.51	8554.66
447.69	8542.96
447.88	8636.58
448.06	8369.76
448.25	8627.21
448.43	8755.94
448.62	8465.72
448.80	8589.77
448.99	8786.37
449.17	8681.05
449.36	8669.34
449.54	8952.55
449.73	9078.94
449.91	9078.94
450.10	8802.75
450.28	9221.71
450.46	8966.59
450.65	9074.26
450.83	9158.52
451.02	9092.98
451.20	9210.01
451.39	9350.44
451.57	8990.00
451.76	9160.86
451.94	9226.39
452.13	9345.76
452.31	9282.56
452.49	9188.94
452.68	9390.23
452.86	9376.19
453.05	9453.42
453.23	9504.92
453.42	9628.96
453.60	9390.23
453.78	9689.82
453.97	9551.73
454.15	9493.21
454.34	9575.13
454.52	9715.56
454.70	9738.97
454.89	9741.31
455.07	9713.22
455.26	9678.12
455.44	9935.57
455.62	9989.41
455.81	10193.03
455.99	10155.58
456.17	10157.92
456.36	10157.92
456.54	10164.95
456.73	10429.43
456.91	10494.96
457.09	10497.30
457.28	10663.48
457.46	10361.55
457.64	10541.77
457.83	10326.44
458.01	10356.87
458.19	10691.57
458.38	10609.65
458.56	10897.53
458.74	10747.74
458.93	10679.86
459.11	10855.40
459.29	10972.43
459.48	10881.15
459.66	10885.83
459.84	11021.58
460.03	11283.72
460.21	11112.86
460.39	10909.24
460.57	10796.89
460.76	11157.33
460.94	11232.23
461.12	11185.42
461.31	11110.52
461.49	11063.71
461.67	11084.78
461.85	11662.89
462.04	11435.86
462.22	11426.50
462.40	11672.25
462.59	11503.73
462.77	11328.19
462.95	11690.98
463.13	11506.07
463.32	11681.61
463.50	11836.09
463.68	11999.93
463.86	11871.20
464.05	11768.21
464.23	11826.73
464.41	11948.43
464.59	11707.36
464.78	12203.55
464.96	11990.56
465.14	12006.95
465.32	11950.78
465.50	12131.00
465.69	11950.78
465.87	12198.87
466.05	12180.15
466.23	12152.06
466.41	12079.50
466.60	12528.89
466.78	12114.61
466.96	12098.23
467.14	12283.13
467.32	12386.12
467.51	12666.98
467.69	12334.62
467.87	12510.16
468.05	12645.91
468.23	12549.95
468.41	12580.38
468.60	12858.90
468.78	12875.29
468.96	12603.78
469.14	12620.17
469.32	13004.02
469.50	12538.25
469.69	13078.91
469.87	13212.32
470.05	13107.00
470.23	13266.16
470.41	13275.52
470.59	13294.24
470.77	13022.74
470.95	13511.91
471.14	13486.17
471.32	13247.43
471.50	13659.37
471.68	13661.71
471.86	13626.60
472.04	13823.20
472.22	14267.91
472.40	13743.63
472.58	13767.03
472.77	13949.59
472.95	14401.32
473.13	14537.07
473.31	14052.58
473.49	14293.65
473.67	14143.86
473.85	14445.79
474.03	14499.62
474.21	14455.15
474.39	14813.25
474.57	14693.88
474.75	15047.30
474.93	14946.66
475.12	15213.48
475.30	15171.35
475.48	15147.95
475.66	15253.27
475.84	15538.82
476.02	15552.86
476.20	15356.25
476.38	15653.50
476.56	15910.96
476.74	16016.29
476.92	15866.49
477.10	15873.51
477.28	16224.59
477.46	16418.86
477.64	16428.22
477.82	16699.72
478.00	16896.33
478.18	16910.37
478.36	17055.48
478.54	17121.02
478.72	17123.36
478.90	17294.22
479.08	17362.09
479.26	17689.77
479.44	17731.90
479.62	17980.00
479.80	18125.11
479.98	18209.37
480.16	18754.71
480.34	18284.26
480.52	18867.06
480.70	18848.33
480.88	18782.80
481.06	19176.01
481.24	19007.49
481.41	19152.60
481.59	19417.08
481.77	19601.99
481.95	19672.20
482.13	19913.28
482.31	19805.61
482.49	20542.88
482.67	20006.90
482.85	20475.01
483.03	20629.48
483.21	21025.03
483.39	21376.11
483.57	20805.02
483.74	21170.15
483.92	21546.97
484.10	21769.32
484.28	21844.22
484.46	22267.86
484.64	22527.66
484.82	22068.91
485.00	22530.00
485.18	23009.81
485.35	23070.66
485.53	22808.52
485.71	23225.14
485.89	23590.26
486.07	23410.04
486.25	23765.80
486.43	23831.33
486.61	23946.02
486.78	24191.78
486.96	24271.36
487.14	24638.82
487.32	24477.32
487.50	25116.29
487.68	24994.58
487.85	25301.19
488.03	25687.38
488.21	26054.84
488.39	25797.38
488.57	26380.18
488.75	26169.53
488.92	26260.81
489.10	26834.24
489.28	26686.79
489.46	27000.42
489.64	27061.27
489.81	27814.93
489.99	28217.50
490.17	28067.70
490.35	28350.91
490.53	28418.78
490.70	28926.68
490.88	28137.92
491.06	29069.45
491.24	28968.81
491.41	28924.34
491.59	29366.70
491.77	29476.71
491.95	29855.87
492.13	29862.90
492.30	29818.42
492.48	30307.60
492.66	30256.11
492.84	30288.87
493.01	30871.67
493.19	31232.11
493.37	31161.89
493.54	31482.55
493.72	31454.46
493.90	31522.34
494.08	31974.06
494.25	32114.49
494.43	31978.74
494.61	32519.40
494.79	32671.54
494.96	32781.54
495.14	32994.53
495.32	33322.21
495.49	33539.88
495.67	33188.80
495.85	33514.13
496.02	33956.49
496.20	34136.71
496.38	34485.45
496.55	34185.86
496.73	34976.97
496.91	34766.32
497.09	35260.17
497.26	34824.83
497.44	34969.94
497.62	35454.44
497.79	35845.30
497.97	35557.42
498.14	35793.81
498.32	36100.42
498.50	36259.58
498.67	36570.87
498.85	36870.46
499.03	37137.28
499.20	36807.26
499.38	37336.23
499.56	37275.37
499.73	37057.70
499.91	37689.65
500.08	37783.27
500.26	37457.93
500.44	37474.32
500.61	38232.65
500.79	37998.60
500.97	38031.36
501.14	39154.82
501.32	38904.38
501.49	38539.26
501.67	38934.81
501.84	38906.73
502.02	38785.02
502.20	39208.65
502.37	39545.69
502.55	39096.31
502.72	39632.29
502.90	39580.80
503.07	39796.13
503.25	39922.52
503.43	39723.57
503.60	40491.27
503.78	40238.49
503.95	40458.50
504.13	40758.09
504.30	40999.16
504.48	40470.20
504.65	40938.31
504.83	41329.18
505.01	41216.83
505.18	41352.58
505.36	41696.64
505.53	41879.21
505.71	41965.81
505.88	42106.24
506.06	41701.32
506.23	42323.91
506.41	41722.39
506.58	42419.87
506.76	42625.84
506.93	42450.30
507.11	42574.34
507.28	42880.95
507.46	43051.81
507.63	43023.73
507.81	43669.72
507.98	43370.13
508.16	43529.28
508.33	43480.13
508.50	43679.08
508.68	43533.96
508.85	44243.15
509.03	43854.62
509.20	44189.31
509.38	44226.76
509.55	44341.45
509.73	44626.99
509.90	44935.95
510.08	44921.90
510.25	44725.30
510.42	44729.98
510.60	45586.61
510.77	45453.20
510.95	45563.21
511.12	45165.32
511.30	45439.16
511.47	45523.42
511.64	45659.17
511.82	45996.21
511.99	46113.23
512.17	46078.13
512.34	46431.55
512.51	46822.42
512.69	46859.87
512.86	46691.35
513.04	46693.69
513.21	46557.94
513.38	46667.94
513.56	47416.91
513.73	46962.85
513.90	47796.08
514.08	47309.25
514.25	47908.43
514.43	47393.51
514.60	47824.17
514.77	47419.25
514.95	47952.90
515.12	47477.77
515.29	47852.25
515.47	48074.60
515.64	48334.40
515.81	47943.53
515.99	48313.34
516.16	48495.90
516.33	48477.18
516.51	48769.74
516.68	48486.54
516.85	48767.40
517.03	48755.70
517.20	49333.81
517.37	48765.06
517.54	49249.55
517.72	49380.62
517.89	49254.23
518.06	49514.03
518.24	49780.85
518.41	49565.52
518.58	49785.54
518.75	49354.88
518.93	49523.40
519.10	49673.19
519.27	49712.98
519.45	49624.04
519.62	49984.48
519.79	50314.50
519.96	50124.91
520.14	50373.01
520.31	50431.52
520.48	50501.74
520.65	50248.96
520.83	50447.91
521.00	50843.46
521.17	50761.54
521.34	50775.58
521.52	50878.57
521.69	50838.78
521.86	51505.83
522.03	51185.18
522.20	51381.78
522.38	51573.70
522.55	51419.23
522.72	51302.20
522.89	51414.55
523.07	51627.54
523.24	51456.68
523.41	51810.10
523.58	51854.57
523.75	52121.39
523.92	51931.81
524.10	52259.48
524.27	52530.98
524.44	52395.23
524.61	52175.22
524.78	52215.01
524.96	51842.87
525.13	52357.78
525.30	52687.80
525.47	52568.43
525.64	52301.61
525.81	52811.85
525.98	52655.03
526.16	52872.70
526.33	52952.28
526.50	53132.50
526.67	53106.76
526.84	52870.36
527.01	52956.96
527.18	53020.16
527.36	52828.23
527.53	53120.80
527.70	53450.81
527.87	53640.40
528.04	53467.20
528.21	53556.14
528.38	53914.24
528.55	53937.65
528.72	53556.14
528.89	53579.54
529.07	53499.97
529.24	53420.39
529.41	53834.66
529.58	53865.09
529.75	53691.89
529.92	53853.39
530.09	53638.06
530.26	53907.22
530.43	54312.13
530.60	54160.00
530.77	54298.09
530.94	54220.85
531.11	54110.85
531.28	54223.19
531.46	54625.76
531.63	54604.70
531.80	54190.42
531.97	54628.10
532.14	54616.40
532.31	54419.80
532.48	54862.16
532.65	54707.68
532.82	54532.14
532.99	54862.16
533.16	54611.72
533.33	54927.69
533.50	55269.41
533.67	54981.52
533.84	54876.20
534.01	54974.50
534.18	54810.67
534.35	55508.14
534.52	55243.66
534.69	55208.56
534.86	55395.80
535.03	55056.42
535.20	55423.89
535.37	55491.76
535.54	55636.87
535.71	55271.75
535.88	55426.23
536.05	55709.43
536.22	55615.81
536.38	55751.56
536.55	55835.82
536.72	55735.18
536.89	55454.31
537.06	55784.33
537.23	55973.91
537.40	55632.19
537.57	55969.23
537.74	56142.43
537.91	56193.92
538.08	56097.96
538.25	55583.04
538.42	56137.75
538.59	56128.39
538.75	56067.53
538.92	56404.57
539.09	56432.66
539.26	56383.51
539.43	56282.86
539.60	56282.86
539.77	56322.65
539.94	56573.09
540.11	56367.12
540.28	56418.61
540.44	56530.96
540.61	56549.68
540.78	56395.21
540.95	56521.60
541.12	56491.17
541.29	56502.87
541.46	56575.43
541.62	56537.98
541.79	56825.87
541.96	56530.96
542.13	56807.14
542.30	56851.61
542.47	56947.57
542.63	57221.42
542.80	56973.32
542.97	57418.02
543.14	57368.87
543.31	57345.47
543.48	57322.06
543.64	57380.57
543.81	57509.30
543.98	57350.15
544.15	57322.06
544.32	57703.57
544.48	57591.22
544.65	57549.09
544.82	57729.31
544.99	57385.25
545.16	57757.40
545.32	57659.10
545.49	57902.51
545.66	57722.29
545.83	57755.06
546.00	57677.82
546.16	57724.63
546.33	57806.55
546.50	57570.16
546.67	57865.06
546.83	57495.26
547.00	57832.30
547.17	57829.96
547.34	57822.93
547.50	57989.11
547.67	58162.31
547.84	58176.36
548.00	58087.42
548.17	58220.83
548.34	58038.26
548.51	58211.46
548.67	58197.42
548.84	58272.32
549.01	58164.65
549.18	58258.27
549.34	58150.61
549.51	58443.18
549.68	58508.71
549.84	58440.84
550.01	58438.50
550.18	58300.40
550.34	58681.91
550.51	58681.91
550.68	58630.42
550.84	58408.07
551.01	58686.59
551.18	58351.90
551.34	58632.76
551.51	58686.59
551.68	58717.02
551.84	58700.64
552.01	58724.04
552.18	58656.17
552.34	58639.78
552.51	58621.06
552.68	58784.90
552.84	58969.80
553.01	58904.26
553.18	58899.58
553.34	58843.41
553.51	58801.28
553.67	58845.75
553.84	59112.57
554.01	59112.57
554.17	59224.92
554.34	58934.69
554.51	59175.76
554.67	59089.16
554.84	59208.53
555.00	59042.35
555.17	58932.35
555.33	59201.51
555.50	59084.48
555.67	59255.34
555.83	59276.41
556.00	59295.13
556.16	59524.50
556.33	59274.07
556.50	59292.79
556.66	59278.75
556.83	59082.14
556.99	59489.40
557.16	59620.47
557.32	59585.36
557.49	59702.38
557.65	59332.58
557.82	59367.69
557.98	59501.10
558.15	59655.57
558.32	59583.02
558.48	59388.75
558.65	59505.78
558.81	59688.34
558.98	59803.03
559.14	59634.51
559.31	59721.11
559.47	59636.85
559.64	59908.35
559.80	59788.98
559.97	59791.33
560.13	59845.16
560.30	59751.54
560.46	59901.33
560.63	59992.61
560.79	60013.68
560.96	59814.73
561.12	59917.71
561.29	59852.18
561.45	60053.47
561.61	59866.22
561.78	59859.20
561.94	59962.18
562.11	59882.61
562.27	60233.69
562.44	60264.11
562.60	60135.38
562.77	59931.76
562.93	59777.28
563.10	60189.22
563.26	60039.42
563.42	60441.99
563.59	60310.92
563.75	60046.44
563.92	60168.15
564.08	60079.21
564.24	60287.52
564.41	60446.68
564.57	60217.30
564.74	60219.64
564.90	60163.47
565.07	60268.79
565.23	60161.13
565.39	60130.70
565.56	60474.76
565.72	60282.84
565.88	60441.99
566.05	60207.94
566.21	60142.41
566.38	60280.50
566.54	60385.82
566.70	60470.08
566.87	60355.39
567.03	60210.28
567.19	60465.40
567.36	60439.65
567.52	60362.42
567.68	60615.19
567.85	60474.76
568.01	60484.12
568.17	60427.95
568.34	60556.68
568.50	60418.59
568.66	60547.32
568.83	60362.42
568.99	60537.96
569.15	60493.49
569.32	60413.91
569.48	60519.23
569.64	60484.12
569.81	60542.64
569.97	60427.95
570.13	60411.57
570.30	60339.01
570.46	60605.83
570.62	60741.58
570.78	60683.07
570.95	60643.28
571.11	60640.94
571.27	60704.13
571.43	60486.46
571.60	60685.41
571.76	60706.47
571.92	60310.92
572.09	60793.07
572.25	60743.92
572.41	60889.04
572.57	60729.88
572.74	60774.35
572.90	60706.47
573.06	60659.66
573.22	60687.75
573.38	60449.02
573.55	60673.71
573.71	60898.40
573.87	60970.96
574.03	60711.16
574.20	60734.56
574.36	60685.41
574.52	60832.86
574.68	60921.80
574.84	61055.21
575.01	60903.08
575.17	60821.16
575.33	60736.90
575.49	60610.51
575.65	60776.69
575.82	60982.66
575.98	60860.95
576.14	60917.12
576.30	60720.52
576.46	60657.32
576.62	60886.70
576.79	60779.03
576.95	60814.14
577.11	61055.21
577.27	60996.70
577.43	60940.53
577.59	60835.20
577.75	60816.48
577.92	60722.86
578.08	60903.08
578.24	60781.37
578.40	61050.53
578.56	61228.41
578.72	60924.14
578.88	61013.08
579.04	61235.44
579.21	60882.02
579.37	61116.07
579.53	61022.45
579.69	60835.20
579.85	60963.93
580.01	60987.34
580.17	60636.26
580.33	61041.17
580.49	61179.26
580.65	61003.72
580.82	61120.75
580.98	60917.12
581.14	60940.53
581.30	61111.39
581.46	60977.98
581.62	60977.98
581.78	60807.12
581.94	61095.00
582.10	60863.29
582.26	61071.60
582.42	61097.34
582.58	60830.52
582.74	60905.42
582.90	60807.12
583.06	61139.47
583.22	61027.13
583.38	61141.81
583.54	60996.70
583.70	61010.74
583.86	61017.77
584.02	60945.21
584.18	61226.07
584.34	61066.92
584.50	60975.64
584.66	60823.50
584.82	60900.74
584.98	61111.39
585.14	61261.18
585.30	60926.49
585.46	61118.41
585.62	61242.46
585.78	61141.81
585.94	60865.63
586.10	61219.05
586.26	60940.53
586.42	61226.07
586.58	61153.52
586.74	61099.68
586.90	61057.56
587.06	60914.78
587.22	60985.00
587.38	60938.19
587.54	61230.75
587.70	61375.87
587.86	60889.04
588.02	61153.52
588.18	61165.22
588.34	61015.43
588.49	61212.03
