SpectraSuite Data File
++++++++++++++++++++++++++++++++++++
Date: Fri Oct 25 10:44:06 EDT 2013
User: price-jones
Dark Spectrum Present: No
Reference Spectrum Present: No
Number of Sampled Component Spectra: 1
Spectrometers: USB2+H05261
Integration Time (usec): 100000 (USB2+H05261)
Spectra Averaged: 1 (USB2+H05261)
Boxcar Smoothing: 0 (USB2+H05261)
Correct for Electrical Dark: No (USB2+H05261)
Strobe/Lamp Enabled: No (USB2+H05261)
Correct for Detector Non-linearity: No (USB2+H05261)
Correct for Stray Light: No (USB2+H05261)
Number of Pixels in Processed Spectrum: 2048
>>>>>Begin Processed Spectral Data<<<<<
365.73	91.28
365.92	91.28
366.12	91.28
366.32	37.45
366.52	11.70
366.72	53.83
366.91	42.13
367.11	60.85
367.31	25.75
367.51	16.38
367.70	0.00
367.90	65.54
368.10	58.51
368.30	39.79
368.49	0.00
368.69	81.92
368.89	112.35
369.09	135.75
369.28	58.51
369.48	86.60
369.68	100.64
369.87	81.92
370.07	39.79
370.27	107.66
370.47	191.92
370.66	409.59
370.86	353.42
371.06	444.70
371.25	486.83
371.45	416.62
371.65	493.85
371.84	475.13
372.04	397.89
372.24	491.51
372.44	479.81
372.63	486.83
372.83	603.86
373.03	547.69
373.22	526.62
373.42	538.32
373.62	475.13
373.81	514.92
374.01	606.20
374.21	578.11
374.40	540.66
374.60	538.32
374.79	580.45
374.99	491.51
375.19	514.92
375.38	596.84
375.58	702.16
375.78	624.92
375.97	599.18
376.17	655.35
376.37	620.24
376.56	589.82
376.76	589.82
376.95	571.09
377.15	641.31
377.35	660.03
377.54	671.73
377.74	592.16
377.93	582.79
378.13	667.05
378.33	599.18
378.52	718.54
378.72	685.78
378.91	648.33
379.11	645.99
379.31	554.71
379.50	620.24
379.70	636.63
379.89	650.67
380.09	599.18
380.28	688.12
380.48	636.63
380.68	697.48
380.87	718.54
381.07	683.44
381.26	730.25
381.46	734.93
381.65	739.61
381.85	669.39
382.04	650.67
382.24	723.23
382.43	662.37
382.63	706.84
382.83	685.78
383.02	734.93
383.22	727.91
383.41	772.38
383.61	788.76
383.80	748.97
384.00	772.38
384.19	830.89
384.39	830.89
384.58	802.80
384.78	760.67
384.97	856.64
385.17	826.21
385.36	774.72
385.56	791.10
385.75	917.49
385.95	910.47
386.14	847.27
386.34	866.00
386.53	868.34
386.72	814.51
386.92	915.15
387.11	837.91
387.31	877.70
387.50	816.85
387.70	863.66
387.89	833.23
388.09	870.68
388.28	854.30
388.48	868.34
388.67	915.15
388.86	910.47
389.06	980.68
389.25	1078.99
389.45	901.11
389.64	961.96
389.84	896.43
390.03	1006.43
390.22	1036.86
390.42	1034.52
390.61	1034.52
390.81	1008.77
391.00	1048.56
391.19	1102.39
391.39	1074.31
391.58	1128.14
391.78	1111.75
391.97	1046.22
392.16	1076.65
392.36	1043.88
392.55	1076.65
392.75	968.98
392.94	1004.09
393.13	1006.43
393.33	947.92
393.52	1048.56
393.71	1116.44
393.91	1114.10
394.10	1165.59
394.29	1118.78
394.49	1158.57
394.68	1156.22
394.88	1231.12
395.07	1224.10
395.26	1184.31
395.46	1196.01
395.65	1266.23
395.84	1219.42
396.04	1247.51
396.23	1170.27
396.42	1191.33
396.62	1235.80
396.81	1228.78
397.00	1259.21
397.19	1336.45
397.39	1282.61
397.58	1406.66
397.77	1345.81
397.97	1462.83
398.16	1437.09
398.35	1519.01
398.55	1416.02
398.74	1423.05
398.93	1509.65
399.12	1554.12
399.32	1437.09
399.51	1514.33
399.70	1575.18
399.90	1652.42
400.09	1561.14
400.28	1652.42
400.47	1554.12
400.67	1643.06
400.86	1610.29
401.05	1694.55
401.24	1668.80
401.44	1685.19
401.63	1631.35
401.82	1706.25
402.01	1659.44
402.21	1657.10
402.40	1682.85
402.59	1762.42
402.78	1760.08
402.97	1802.21
403.17	1813.92
403.36	1757.74
403.55	1916.90
403.74	1942.64
403.93	1863.07
404.13	1895.83
404.32	1820.94
404.51	1893.49
404.70	1975.41
404.89	1884.13
405.09	1916.90
405.28	1980.09
405.47	1998.82
405.66	2094.78
405.85	2047.97
406.05	1851.36
406.24	2059.67
406.43	2050.31
406.62	2113.50
406.81	2057.33
407.00	1996.48
407.20	1970.73
407.39	2169.68
407.58	2111.16
407.77	2216.49
407.96	2223.51
408.15	2324.15
408.34	2275.00
408.54	2225.85
408.73	2296.07
408.92	2253.94
409.11	2195.42
409.30	2312.45
409.49	2310.11
409.68	2331.17
409.87	2258.62
410.07	2399.05
410.26	2347.56
410.45	2480.97
410.64	2511.39
410.83	2539.48
411.02	2511.39
411.21	2583.95
411.40	2642.46
411.59	2663.53
411.78	2661.19
411.98	2597.99
412.17	2745.45
412.36	2586.29
412.55	2698.64
412.74	2738.43
412.93	2726.72
413.12	2700.98
413.31	2794.60
413.50	2836.73
413.69	2902.26
413.88	2981.84
414.07	3016.95
414.26	2923.33
414.45	2932.69
414.64	2916.31
414.83	3045.04
415.02	3014.61
415.22	3066.10
415.41	3159.72
415.60	3080.14
415.79	3258.03
415.98	3290.79
416.17	3295.47
416.36	3234.62
416.55	3286.11
416.74	3323.56
416.93	3253.34
417.12	3253.34
417.31	3281.43
417.50	3473.36
417.69	3412.50
417.88	3379.73
418.07	3447.61
418.26	3433.57
418.45	3475.70
418.64	3538.89
418.83	3609.11
419.02	3545.91
419.21	3662.94
419.39	3630.17
419.58	3609.11
419.77	3517.83
419.96	3698.05
420.15	3693.37
420.34	3698.05
420.53	3808.05
420.72	3873.59
420.91	3864.22
421.10	3796.35
421.29	4030.40
421.48	3686.34
421.67	3889.97
421.86	3861.88
422.05	3838.48
422.24	3744.86
422.43	3770.60
422.61	3871.25
422.80	3990.61
422.99	3904.01
423.18	3997.64
423.37	4007.00
423.56	3829.12
423.75	3941.46
423.94	3960.19
424.13	3761.24
424.32	3899.33
424.50	4100.62
424.69	3983.59
424.88	4060.83
425.07	3981.25
425.26	3868.91
425.45	4021.04
425.64	4079.55
425.83	3936.78
426.01	4039.76
426.20	4077.21
426.39	4018.70
426.58	4014.02
426.77	4028.06
426.96	3866.56
427.15	4147.43
427.33	4070.19
427.52	4135.73
427.71	4119.34
427.90	4109.98
428.09	4175.52
428.28	4203.60
428.46	4166.15
428.65	4278.50
428.84	4264.46
429.03	4444.68
429.22	4133.39
429.40	4102.96
429.59	4212.96
429.78	3988.27
429.97	3838.48
430.16	4042.11
430.34	4107.64
430.53	4182.54
430.72	4306.59
430.91	4081.89
431.10	4346.37
431.28	4507.87
431.47	4662.35
431.66	4482.13
431.85	4669.37
432.03	4559.36
432.22	4615.54
432.41	4718.52
432.60	4629.58
432.79	4861.29
432.97	4849.59
433.16	4765.33
433.35	4737.24
433.54	4674.05
433.72	4847.25
433.91	4664.69
434.10	4828.53
434.28	4812.14
434.47	4734.90
434.66	4915.12
434.85	4901.08
435.03	5034.49
435.22	4943.21
435.41	5078.96
435.59	5118.75
435.78	5093.01
435.97	5184.29
436.16	5329.40
436.34	5320.04
436.53	5469.83
436.72	5385.57
436.90	5153.86
437.09	5273.23
437.28	5062.58
437.46	5198.33
437.65	5212.37
437.84	5048.54
438.02	5074.28
438.21	5221.74
438.40	5256.84
438.58	5291.95
438.77	5458.13
438.96	5441.75
439.14	5556.43
439.33	5554.09
439.52	5668.78
439.70	5788.14
439.89	5785.80
440.08	5692.18
440.26	5664.10
440.45	5727.29
440.63	5919.21
440.82	5886.45
441.01	5874.74
441.19	6038.58
441.38	6214.12
441.57	6059.65
441.75	6125.18
441.94	6335.83
442.12	6387.32
442.31	6422.43
442.50	6415.41
442.68	6207.10
442.87	6335.83
443.05	6300.72
443.24	6558.18
443.43	6492.65
443.61	6609.67
443.80	6656.48
443.98	6459.88
444.17	6408.39
444.35	6352.21
444.54	6787.55
444.73	6583.93
444.91	6595.63
445.10	6450.52
445.28	6511.37
445.47	6396.68
445.65	6347.53
445.84	6532.44
446.02	6551.16
446.21	6696.27
446.39	6642.44
446.58	6759.47
446.77	6806.28
446.95	6619.04
447.14	6707.98
447.32	6710.32
447.51	6766.49
447.69	6635.42
447.88	6691.59
448.06	6836.70
448.25	6850.75
448.43	6822.66
448.62	6876.49
448.80	6764.15
448.99	6890.54
449.17	6855.43
449.36	6984.16
449.54	6986.50
449.73	7183.10
449.91	7236.94
450.10	7220.55
450.28	7192.47
450.46	7227.57
450.65	7066.08
450.83	7377.37
451.02	7236.94
451.20	7192.47
451.39	7339.92
451.57	7197.15
451.76	7206.51
451.94	7124.59
452.13	7236.94
452.31	7250.98
452.49	7225.23
452.68	7126.93
452.86	7201.83
453.05	7438.22
453.23	7492.05
453.42	7190.13
453.60	7431.20
453.78	7379.71
453.97	7412.48
454.15	7487.37
454.34	7211.19
454.52	7634.83
454.70	7559.93
454.89	7625.47
455.07	7566.95
455.26	7676.96
455.44	7824.41
455.62	7775.26
455.81	7915.69
455.99	7803.35
456.17	7831.43
456.36	8013.99
456.54	8287.84
456.73	7950.80
456.91	8140.38
457.09	8224.64
457.28	8255.07
457.46	8114.64
457.64	8180.17
457.83	8079.53
458.01	8056.12
458.19	8243.37
458.38	8093.57
458.56	8168.47
458.74	8234.00
458.93	8348.69
459.11	8414.23
459.29	8362.73
459.48	8641.26
459.66	8479.76
459.84	8432.95
460.03	8472.74
460.21	8552.32
460.39	8662.32
460.57	8561.68
460.76	8812.12
460.94	8578.06
461.12	8641.26
461.31	8835.52
461.49	8545.30
461.67	8847.22
461.85	8767.65
462.04	8812.12
462.22	9174.90
462.40	8830.84
462.59	8917.44
462.77	8938.51
462.95	8929.14
463.13	8905.74
463.32	9097.66
463.50	8971.27
463.68	9212.35
463.86	9364.48
464.05	8833.18
464.23	9029.79
464.41	9092.98
464.59	9050.85
464.78	9231.07
464.96	9394.91
465.14	9020.42
465.32	9394.91
465.50	9474.49
465.69	9572.79
465.87	9317.67
466.05	9202.99
466.23	9212.35
466.41	9252.14
466.60	9647.69
466.78	9437.04
466.96	9275.54
467.14	9193.62
467.32	9214.69
467.51	9666.41
467.69	9291.93
467.87	9504.92
468.05	9572.79
468.23	9635.99
468.41	9603.22
468.60	9561.09
468.78	9914.51
468.96	9617.26
469.14	9858.34
469.32	9989.41
469.50	9504.92
469.69	9572.79
469.87	9921.53
470.05	9856.00
470.23	9802.16
470.41	9802.16
470.59	10085.37
470.77	9989.41
470.95	9949.62
471.14	10214.10
471.32	10101.75
471.50	10417.72
471.68	10326.44
471.86	10436.45
472.04	10333.47
472.22	10721.99
472.40	10221.12
472.58	10534.75
472.77	10546.45
472.95	10689.23
473.13	10836.68
473.31	10335.81
473.49	10387.30
473.67	10663.48
473.85	10717.31
474.03	11037.97
474.21	10885.83
474.39	10981.79
474.57	11243.93
474.75	11054.35
474.93	11250.96
475.12	10902.22
475.30	11405.43
475.48	11321.17
475.66	11325.85
475.84	11234.57
476.02	11758.85
476.20	11534.16
476.38	11831.41
476.56	11786.94
476.74	11964.82
476.92	11889.92
477.10	11613.74
477.28	12074.82
477.46	12123.98
477.64	12060.78
477.82	12395.48
478.00	12608.47
478.18	12379.09
478.36	12711.45
478.54	12891.67
478.72	12786.35
478.90	13008.70
479.08	12985.29
479.26	13130.41
479.44	13209.98
479.62	13275.52
479.80	13366.80
479.98	13432.33
480.16	13687.45
480.34	13476.80
480.52	13802.14
480.70	13874.70
480.88	13645.32
481.06	14061.94
481.24	14064.28
481.41	14097.05
481.59	14707.93
481.77	14553.45
481.95	14551.11
482.13	14731.33
482.31	14551.11
482.49	15077.73
482.67	14991.13
482.85	15229.87
483.03	15314.13
483.21	15669.89
483.39	15283.70
483.57	15403.07
483.74	15728.40
483.92	16065.44
484.10	15704.99
484.28	16231.62
484.46	15941.39
484.64	16456.31
484.82	15964.79
485.00	16355.66
485.18	16320.56
485.35	16706.74
485.53	16156.72
485.71	16432.90
485.89	16704.40
486.07	16610.78
486.25	16744.19
486.43	16791.00
486.61	17247.41
486.78	17366.78
486.96	17558.70
487.14	17710.83
487.32	17867.65
487.50	18286.61
487.68	18136.81
487.85	18534.70
488.03	18890.46
488.21	18752.37
488.39	18551.09
488.57	18670.45
488.75	18970.04
488.92	19164.31
489.10	19559.86
489.28	19721.35
489.46	19711.99
489.64	19800.93
489.81	20240.95
489.99	20283.08
490.17	20290.10
490.35	20381.38
490.53	20367.34
490.70	20596.71
490.88	20741.83
491.06	20870.56
491.24	21085.89
491.41	21010.99
491.59	21132.70
491.77	21198.23
491.95	21231.00
492.13	21563.36
492.30	21797.41
492.48	21633.57
492.66	21802.09
492.84	21951.88
493.01	22405.95
493.19	22438.72
493.37	22129.77
493.54	22490.21
493.72	22803.84
493.90	22824.90
494.08	23014.49
494.25	22977.04
494.43	23264.92
494.61	23793.89
494.79	23709.63
494.96	23454.51
495.14	23814.95
495.32	23896.87
495.49	23726.01
495.67	23995.17
495.85	24566.26
496.02	24339.23
496.20	24287.74
496.38	24587.33
496.55	24915.00
496.73	25062.46
496.91	24865.85
497.09	25130.33
497.26	25165.44
497.44	25486.09
497.62	25397.15
497.79	25539.93
497.97	25371.41
498.14	25373.75
498.32	25619.50
498.50	25893.35
498.67	26485.50
498.85	26277.19
499.03	26373.16
499.20	26366.13
499.38	26391.88
499.56	26525.29
499.73	26745.30
499.91	26639.98
500.08	26335.71
500.26	26506.57
500.44	26787.43
500.61	26639.98
500.79	26740.62
500.97	27236.81
501.14	27524.70
501.32	27138.51
501.49	27201.71
501.67	27487.25
501.84	27503.64
502.02	27828.97
502.20	27828.97
502.37	28074.73
502.55	28030.26
502.72	28308.78
502.90	28444.53
503.07	28006.85
503.25	28320.48
503.43	28322.82
503.60	28472.62
503.78	28292.40
503.95	28437.51
504.13	28879.87
504.30	29366.70
504.48	28748.80
504.65	29369.04
504.83	29149.03
505.01	29022.64
505.18	29111.58
505.36	29666.29
505.53	29663.95
505.71	30176.53
505.88	29780.98
506.06	29263.72
506.23	29998.65
506.41	29586.71
506.58	30066.52
506.76	30340.36
506.93	30073.54
507.11	29886.30
507.28	30314.62
507.46	30244.40
507.63	29771.61
507.81	30511.22
507.98	30543.99
508.16	30630.59
508.33	30740.60
508.50	31185.30
508.68	30904.43
508.85	31288.28
509.03	31136.15
509.20	31508.29
509.38	31288.28
509.55	31297.64
509.73	31828.95
509.90	31543.40
510.08	31454.46
510.25	31845.33
510.42	31503.61
510.60	31931.93
510.77	31414.67
510.95	32341.52
511.12	31913.20
511.30	32430.46
511.47	32439.82
511.64	32594.30
511.82	33053.05
511.99	32058.32
512.17	32589.62
512.34	32339.18
512.51	33207.52
512.69	33015.60
512.86	33153.69
513.04	33029.64
513.21	32987.51
513.38	32725.37
513.56	33109.22
513.73	32680.90
513.90	33202.84
514.08	33090.49
514.25	33418.17
514.43	33326.89
514.60	33207.52
514.77	33638.18
514.95	33900.32
515.12	33551.58
515.29	33897.98
515.47	34473.75
515.64	34260.76
515.81	34183.52
515.99	33968.19
516.16	34525.24
516.33	33783.29
516.51	33825.42
516.68	33565.62
516.85	33560.94
517.03	33897.98
517.20	33986.92
517.37	34459.71
517.54	34848.24
517.72	34670.36
517.89	33947.13
518.06	34148.42
518.24	34398.85
518.41	34555.67
518.58	34569.71
518.75	34763.98
518.93	35033.14
519.10	35267.19
519.27	35449.75
519.45	35002.71
519.62	35597.21
519.79	35723.60
519.96	35353.79
520.14	35868.71
520.31	35571.46
520.48	35786.79
520.65	35765.73
520.83	36119.15
521.00	36236.17
521.17	35962.33
521.34	36245.54
521.52	36582.57
521.69	36051.27
521.86	36566.19
522.03	36875.14
522.20	36495.97
522.38	36912.59
522.55	36418.74
522.72	36257.24
522.89	36400.01
523.07	36554.49
523.24	36893.86
523.41	37106.85
523.58	36957.06
523.75	37507.08
523.92	37352.61
524.10	37656.88
524.27	37359.63
524.44	37589.00
524.61	37617.09
524.78	37542.19
524.96	37727.10
525.13	37865.19
525.30	38124.99
525.47	37776.25
525.64	37848.80
525.81	37722.41
525.98	37902.64
526.16	37441.55
526.33	37528.15
526.50	37668.58
526.67	37589.00
526.84	37750.50
527.01	37436.87
527.18	38204.56
527.36	38431.60
527.53	38249.03
527.70	38986.30
527.87	38738.21
528.04	38462.02
528.21	38539.26
528.38	39042.48
528.55	39049.50
528.72	39281.21
528.89	39321.00
529.07	39178.23
529.24	39070.56
529.41	39377.17
529.58	38998.01
529.75	39433.35
529.92	39447.39
530.09	39342.06
530.26	39253.12
530.43	39693.15
530.60	39615.91
530.77	39550.37
530.94	40114.44
531.11	39564.42
531.28	39833.58
531.46	40465.52
531.63	39814.85
531.80	39667.40
531.97	39510.58
532.14	39971.67
532.31	39318.66
532.48	39737.62
532.65	39875.71
532.82	40137.85
532.99	40231.47
533.16	40121.46
533.33	40280.62
533.50	40189.34
533.67	39885.07
533.84	39751.66
534.01	40240.83
534.18	40708.94
534.35	40517.01
534.52	40540.42
534.69	40629.36
534.86	40760.43
535.03	40711.28
535.20	41127.89
535.37	41027.25
535.54	41359.61
535.71	41069.38
535.88	40968.74
536.05	40781.49
536.22	40877.46
536.38	40636.38
536.55	40807.24
536.72	40928.95
536.89	40734.68
537.06	40638.72
537.23	41539.83
537.40	40818.94
537.57	41535.15
537.74	41514.08
537.91	41832.39
538.08	41780.90
538.25	41177.04
538.42	41565.57
538.59	41490.68
538.75	41357.27
538.92	41588.98
539.09	41586.64
539.26	41471.95
539.43	41509.40
539.60	41956.44
539.77	42220.92
539.94	41453.23
540.11	41654.51
540.28	41631.11
540.44	41872.18
540.61	41495.36
540.78	42092.19
540.95	41659.20
541.12	41830.05
541.29	42288.80
541.46	41860.48
541.62	41904.95
541.79	42457.32
541.96	41701.32
542.13	41930.70
542.30	42103.90
542.47	42485.40
542.63	42244.33
542.80	42340.29
542.97	42726.48
543.14	42679.67
543.31	43061.18
543.48	43033.09
543.64	43302.25
543.81	43161.82
543.98	43180.54
544.15	43100.97
544.32	43302.25
544.48	43688.44
544.65	43363.11
544.82	43215.65
544.99	43267.14
545.16	43339.70
545.32	43164.16
545.49	43606.52
545.66	43590.14
545.83	44069.95
546.00	43599.50
546.16	43737.59
546.33	43484.81
546.50	43110.33
546.67	43339.70
546.83	42906.70
547.00	43571.41
547.17	43683.76
547.34	43735.25
547.50	43178.20
547.67	44081.65
547.84	43782.06
548.00	43990.37
548.17	43899.09
548.34	43700.14
548.51	44046.54
548.67	44353.15
548.84	44388.26
549.01	44397.62
549.18	44107.40
549.34	43931.86
549.51	44273.57
549.68	44318.04
549.84	44069.95
550.01	44617.63
550.18	44137.82
550.34	43672.06
550.51	43880.36
550.68	44011.43
550.84	43615.88
551.01	44130.80
551.18	44179.95
551.34	43971.64
551.51	44758.06
551.68	44715.93
551.84	44694.87
552.01	44727.64
552.18	44126.12
552.34	44243.15
552.51	44694.87
552.68	44652.74
552.84	44708.91
553.01	44751.04
553.18	44477.20
553.34	44706.57
553.51	44126.12
553.67	44940.63
553.84	45261.28
554.01	44762.75
554.17	45155.96
554.34	45069.36
554.51	45354.90
554.67	45015.52
554.84	44978.07
555.00	44692.53
555.17	44858.71
555.33	45219.15
555.50	44825.94
555.67	44748.70
555.83	44748.70
556.00	45141.91
556.16	45563.21
556.33	45010.84
556.50	45425.12
556.66	45361.92
556.83	44610.61
556.99	45598.32
557.16	45631.08
557.32	45284.68
557.49	45815.99
557.65	44893.82
557.82	45516.40
557.98	45481.29
558.15	45083.40
558.32	45181.70
558.48	45081.06
558.65	45397.03
558.81	44957.01
558.98	45235.53
559.14	45572.57
559.31	45207.45
559.47	45862.80
559.64	45769.18
559.80	45581.93
559.97	46033.66
560.13	45504.70
560.30	45698.96
560.46	45563.21
560.63	45645.13
560.79	46047.70
560.96	46096.85
561.12	45518.74
561.29	45399.37
561.45	45851.09
561.61	45689.60
561.78	45792.58
561.94	45698.96
562.11	45666.19
562.27	45647.47
562.44	45595.98
562.60	45617.04
562.77	45883.86
562.93	45851.09
563.10	46272.39
563.26	45691.94
563.42	45514.06
563.59	45368.94
563.75	46080.47
563.92	45588.95
564.08	45811.31
564.24	46096.85
564.41	45841.73
564.57	45970.46
564.74	45904.93
564.90	46045.36
565.07	46019.61
565.23	46024.29
565.39	45801.94
565.56	46206.86
565.72	45848.75
565.88	45378.31
566.05	45591.30
566.21	45481.29
566.38	46050.04
566.54	46122.60
566.70	45949.40
566.87	46120.26
567.03	46157.70
567.19	46438.57
567.36	46333.24
567.52	45839.39
567.68	46211.54
567.85	46138.98
568.01	46019.61
568.17	46061.74
568.34	46206.86
568.50	45743.43
568.66	46206.86
568.83	46174.09
568.99	45654.49
569.15	46473.68
569.32	46183.45
569.48	45900.25
569.64	46476.02
569.81	46216.22
569.97	46190.47
570.13	45914.29
570.30	45986.85
570.46	45858.12
570.62	45654.49
570.78	45673.21
570.95	45404.05
571.11	46202.18
571.27	46040.68
571.43	46050.04
571.60	46302.82
571.76	45991.53
571.92	46010.25
572.09	46490.06
572.25	46218.56
572.41	46171.75
572.57	45954.08
572.74	46600.07
572.90	46733.48
573.06	46319.20
573.22	46574.32
573.38	46000.89
573.55	46169.41
573.71	46099.19
573.87	46010.25
574.03	45914.29
574.20	46518.15
574.36	46593.04
574.52	46696.03
574.68	46281.75
574.84	46469.00
575.01	46403.46
575.17	46171.75
575.33	46284.09
575.49	46321.54
575.65	46272.39
575.82	46295.80
575.98	46010.25
576.14	46691.35
576.30	46466.66
576.46	46817.74
576.62	46115.58
576.79	46424.53
576.95	46312.18
577.11	46351.97
577.27	46576.66
577.43	46445.59
577.59	46326.22
577.75	46532.19
577.92	45918.97
578.08	46328.56
578.24	46279.41
578.40	46117.92
578.56	46808.37
578.72	46443.25
578.88	46927.74
579.04	46492.40
579.21	45965.78
579.37	46031.32
579.53	46120.26
579.69	46122.60
579.85	46373.03
580.01	46447.93
580.17	46506.44
580.33	46274.73
580.49	46714.75
580.65	46492.40
580.82	46586.02
580.98	46124.94
581.14	46017.27
581.30	46553.26
581.46	46782.63
581.62	46625.81
581.78	46101.53
581.94	46506.44
582.10	46181.11
582.26	46555.60
582.42	46309.84
582.58	46618.79
582.74	46106.21
582.90	46593.04
583.06	46717.09
583.22	47004.98
583.38	46492.40
583.54	46864.55
583.70	46143.66
583.86	46892.63
584.02	46188.13
584.18	46909.02
584.34	46368.35
584.50	46197.49
584.66	46190.47
584.82	46134.30
584.98	46562.62
585.14	46674.96
585.30	46429.21
585.46	46726.46
585.62	46230.26
585.78	46548.57
585.94	46295.80
586.10	46279.41
586.26	46031.32
586.42	46679.64
586.58	46660.92
586.74	46476.02
586.90	46909.02
587.06	46389.42
587.22	46600.07
587.38	46171.75
587.54	46717.09
587.70	46850.50
587.86	46366.01
588.02	46632.83
588.18	46450.27
588.34	46281.75
588.49	45975.14
588.65	45504.70
588.81	45841.73
588.97	46171.75
589.13	46277.07
589.29	46433.89
589.45	46508.79
589.61	46536.87
589.77	46469.00
589.93	46515.81
