SpectraSuite Data File
++++++++++++++++++++++++++++++++++++
Date: Fri Oct 25 11:22:59 EDT 2013
User: price-jones
Dark Spectrum Present: No
Reference Spectrum Present: No
Number of Sampled Component Spectra: 1
Spectrometers: USB2+H05261
Integration Time (usec): 100000 (USB2+H05261)
Spectra Averaged: 1 (USB2+H05261)
Boxcar Smoothing: 0 (USB2+H05261)
Correct for Electrical Dark: No (USB2+H05261)
Strobe/Lamp Enabled: No (USB2+H05261)
Correct for Detector Non-linearity: No (USB2+H05261)
Correct for Stray Light: No (USB2+H05261)
Number of Pixels in Processed Spectrum: 2048
>>>>>Begin Processed Spectral Data<<<<<
365.73	273.84
365.92	273.84
366.12	273.84
366.32	184.90
366.52	95.96
366.72	102.98
366.91	126.39
367.11	166.18
367.31	100.64
367.51	39.79
367.70	126.39
367.90	124.05
368.10	53.83
368.30	42.13
368.49	30.43
368.69	238.73
368.89	114.69
369.09	177.88
369.28	170.86
369.48	173.20
369.68	159.16
369.87	212.99
370.07	224.69
370.27	241.08
370.47	355.76
370.66	554.71
370.86	638.97
371.06	613.22
371.25	662.37
371.45	641.31
371.65	809.83
371.84	720.88
372.04	788.76
372.24	706.84
372.44	692.80
372.63	798.12
372.83	730.25
373.03	737.27
373.22	709.18
373.42	793.44
373.62	697.48
373.81	779.40
374.01	774.72
374.21	788.76
374.40	823.87
374.60	828.55
374.79	826.21
374.99	814.51
375.19	844.93
375.38	821.53
375.58	758.33
375.78	912.81
375.97	891.74
376.17	861.32
376.37	856.64
376.56	847.27
376.76	898.77
376.95	873.02
377.15	884.72
377.35	791.10
377.54	805.14
377.74	898.77
377.93	847.27
378.13	959.62
378.33	973.66
378.52	966.64
378.72	922.17
378.91	882.38
379.11	908.13
379.31	947.92
379.50	908.13
379.70	1034.52
379.89	940.90
380.09	987.71
380.28	919.83
380.48	980.68
380.68	1020.47
380.87	910.47
381.07	1050.90
381.26	1020.47
381.46	1034.52
381.65	1032.18
381.85	1123.46
382.04	1097.71
382.24	1090.69
382.43	964.30
382.63	1067.28
382.83	1097.71
383.02	1160.91
383.22	1100.05
383.41	1001.75
383.61	1109.41
383.80	1111.75
384.00	1184.31
384.19	1212.40
384.39	1184.31
384.58	1205.38
384.78	1177.29
384.97	1090.69
385.17	1060.26
385.36	1153.88
385.56	1198.35
385.75	1219.42
385.95	1132.82
386.14	1207.72
386.34	1137.50
386.53	1186.65
386.72	1247.51
386.92	1266.23
387.11	1270.91
387.31	1282.61
387.50	1221.76
387.70	1167.93
387.89	1214.74
388.09	1193.67
388.28	1266.23
388.48	1315.38
388.67	1352.83
388.86	1313.04
389.06	1416.02
389.25	1334.11
389.45	1277.93
389.64	1357.51
389.84	1399.64
390.03	1401.98
390.22	1404.32
390.42	1364.53
390.61	1355.17
390.81	1392.62
391.00	1495.60
391.19	1444.11
391.39	1411.34
391.58	1453.47
391.78	1530.71
391.97	1535.39
392.16	1504.96
392.36	1472.20
392.55	1528.37
392.75	1453.47
392.94	1507.30
393.13	1540.07
393.33	1444.11
393.52	1540.07
393.71	1619.65
393.91	1593.90
394.10	1621.99
394.29	1584.54
394.49	1654.76
394.68	1582.20
394.88	1701.57
395.07	1720.29
395.26	1713.27
395.46	1682.85
395.65	1729.66
395.84	1727.32
396.04	1792.85
396.23	1774.13
396.42	1692.21
396.62	1633.69
396.81	1743.70
397.00	1774.13
397.19	1736.68
397.39	1818.60
397.58	1884.13
397.77	1830.30
397.97	1912.22
398.16	1827.96
398.35	1898.17
398.55	1877.11
398.74	1900.52
398.93	2008.18
399.12	1921.58
399.32	1942.64
399.51	2033.93
399.70	2052.65
399.90	1947.33
400.09	1935.62
400.28	2108.82
400.47	2122.87
400.67	2040.95
400.86	2076.06
401.05	2155.63
401.24	2111.16
401.44	2169.68
401.63	2139.25
401.82	2176.70
402.01	2129.89
402.21	2148.61
402.40	2289.04
402.59	2181.38
402.78	2216.49
402.97	2277.34
403.17	2349.90
403.36	2090.10
403.55	2326.49
403.74	2328.83
403.93	2289.04
404.13	2368.62
404.32	2427.14
404.51	2338.20
404.70	2385.01
404.89	2417.77
405.09	2408.41
405.28	2532.46
405.47	2375.64
405.66	2509.05
405.85	2516.08
406.05	2406.07
406.24	2516.08
406.43	2572.25
406.62	2588.63
406.81	2684.59
407.00	2726.72
407.20	2576.93
407.39	2628.42
407.58	2832.05
407.77	2752.47
407.96	2747.79
408.15	2810.98
408.34	2808.64
408.54	2909.29
408.73	2803.96
408.92	2846.09
409.11	2991.20
409.30	2897.58
409.49	2988.86
409.68	3026.31
409.87	2930.35
410.07	2958.44
410.26	3016.95
410.45	3016.95
410.64	3009.93
410.83	3023.97
411.02	3063.76
411.21	3208.87
411.40	3176.11
411.59	3206.53
411.78	3229.94
411.98	3246.32
412.17	3328.24
412.36	3232.28
412.55	3330.58
412.74	3485.06
412.93	3428.88
413.12	3269.73
413.31	3566.98
413.50	3433.57
413.69	3426.54
413.88	3655.92
414.07	3529.53
414.26	3574.00
414.45	3536.55
414.64	3742.52
414.83	3784.65
415.02	3691.02
415.22	3777.62
415.41	3836.14
415.60	3894.65
415.79	3899.33
415.98	3913.38
416.17	4077.21
416.36	3962.53
416.55	4058.49
416.74	4037.42
416.93	4138.07
417.12	4131.05
417.31	4229.35
417.50	4259.78
417.69	4386.16
417.88	4311.27
418.07	4219.99
418.26	4465.74
418.45	4306.59
418.64	4507.87
418.83	4526.60
419.02	4322.97
419.21	4648.30
419.39	4505.53
419.58	4440.00
419.77	4575.75
419.96	4697.46
420.15	4580.43
420.34	4732.56
420.53	4786.40
420.72	4774.69
420.91	4596.81
421.10	4695.11
421.29	4826.18
421.48	4702.14
421.67	4734.90
421.86	4751.29
422.05	4826.18
422.24	4760.65
422.43	5039.17
422.61	4929.17
422.80	4924.49
422.99	4896.40
423.18	4809.80
423.37	4987.68
423.56	5074.28
423.75	4980.66
423.94	4891.72
424.13	4552.34
424.32	4891.72
424.50	5055.56
424.69	5210.03
424.88	5170.24
425.07	5107.05
425.26	4901.08
425.45	4837.89
425.64	5004.07
425.83	5060.24
426.01	5151.52
426.20	5144.50
426.39	5165.56
426.58	5097.69
426.77	5153.86
426.96	5327.06
427.15	5149.18
427.33	5233.44
427.52	5287.27
427.71	5270.89
427.90	5193.65
428.09	5430.04
428.28	5540.05
428.46	5380.89
428.65	5458.13
428.84	5591.54
429.03	5694.52
429.22	5420.68
429.40	5530.69
429.59	5495.58
429.78	5394.93
429.97	5371.53
430.16	5448.77
430.34	5556.43
430.53	5687.50
430.72	5738.99
430.91	5671.12
431.10	5497.92
431.28	5750.70
431.47	5923.90
431.66	5940.28
431.85	5757.72
432.03	5802.19
432.22	6090.07
432.41	6104.12
432.60	5837.30
432.79	5980.07
432.97	5982.41
433.16	6122.84
433.35	6031.56
433.54	6143.91
433.72	6195.40
433.91	6321.79
434.10	6399.02
434.28	5998.79
434.47	6183.70
434.66	6338.17
434.85	6258.59
435.03	6352.21
435.22	6317.11
435.41	6513.71
435.59	6361.58
435.78	6406.05
435.97	6553.50
436.16	6553.50
436.34	6424.77
436.53	6604.99
436.72	6743.08
436.90	6551.16
437.09	6586.27
437.28	6464.56
437.46	6597.97
437.65	6920.96
437.84	6820.32
438.02	6747.76
438.21	6836.70
438.40	6855.43
438.58	6988.84
438.77	7162.04
438.96	7030.97
439.14	7267.36
439.33	7138.63
439.52	7201.83
439.70	7325.88
439.89	7314.17
440.08	7318.86
440.26	7428.86
440.45	7332.90
440.63	7517.80
440.82	7698.02
441.01	7468.65
441.19	7599.72
441.38	7763.56
441.57	7953.14
441.75	7988.25
441.94	8112.30
442.12	8016.33
442.31	8126.34
442.50	7985.91
442.68	8194.22
442.87	8102.93
443.05	7943.78
443.24	8292.52
443.43	8058.46
443.61	8320.60
443.80	8468.06
443.98	8112.30
444.17	8006.97
444.35	8290.18
444.54	8444.65
444.73	8355.71
444.91	8395.50
445.10	8533.59
445.28	8547.64
445.47	8332.31
445.65	8372.10
445.84	8449.33
446.02	8580.40
446.21	8489.12
446.39	8484.44
446.58	8634.24
446.77	8456.36
446.95	8486.78
447.14	8273.79
447.32	8681.05
447.51	8592.11
447.69	8489.12
447.88	8645.94
448.06	8512.53
448.25	8638.92
448.43	8645.94
448.62	8887.01
448.80	8610.83
448.99	8589.77
449.17	8847.22
449.36	8809.78
449.54	9001.70
449.73	9195.96
449.91	9195.96
450.10	9060.21
450.28	9132.77
450.46	9111.71
450.65	8894.04
450.83	9231.07
451.02	9107.02
451.20	9217.03
451.39	9263.84
451.57	9184.26
451.76	9123.41
451.94	9224.05
452.13	9378.53
452.31	9273.20
452.49	9343.42
452.68	9460.45
452.86	9259.16
453.05	9591.52
453.23	9544.70
453.42	9476.83
453.60	9432.36
453.78	9530.66
453.97	9540.02
454.15	9605.56
454.34	9544.70
454.52	9858.34
454.70	9731.95
454.89	9872.38
455.07	9666.41
455.26	9785.78
455.44	10169.63
455.62	9996.43
455.81	9916.85
455.99	10008.13
456.17	10195.37
456.36	10150.90
456.54	10333.47
456.73	10333.47
456.91	10588.58
457.09	10441.13
457.28	10541.77
457.46	10331.12
457.64	10705.61
457.83	10523.05
458.01	10525.39
458.19	10785.19
458.38	10513.69
458.56	10775.83
458.74	10640.08
458.93	11012.22
459.11	10771.15
459.29	10918.60
459.48	11012.22
459.66	10736.04
459.84	10904.56
460.03	10984.13
460.21	11288.40
460.39	10916.26
460.57	11260.32
460.76	11059.03
460.94	11115.20
461.12	11309.47
461.31	11241.59
461.49	11213.51
461.67	11236.91
461.85	11534.16
462.04	11393.73
462.22	11569.27
462.40	11714.38
462.59	11709.70
462.77	11859.49
462.95	11705.02
463.13	11786.94
463.32	11709.70
463.50	11955.46
463.68	11927.37
463.86	11967.16
464.05	11751.83
464.23	12093.55
464.41	12039.72
464.59	11880.56
464.78	12131.00
464.96	12166.10
465.14	12028.01
465.32	12229.30
465.50	12355.69
465.69	12374.41
465.87	12400.16
466.05	12233.98
466.23	12161.42
466.41	12170.79
466.60	12793.37
466.78	12273.77
466.96	12255.04
467.14	12308.88
467.32	12463.35
467.51	12514.84
467.69	12292.49
467.87	12774.64
468.05	12748.90
468.23	12458.67
468.41	12774.64
468.60	12844.86
468.78	12807.41
468.96	12477.40
469.14	12903.37
469.32	13114.02
469.50	12744.22
469.69	13186.58
469.87	13130.41
470.05	13277.86
470.23	13245.09
470.41	13146.79
470.59	13420.63
470.77	13195.94
470.95	13429.99
471.14	13841.93
471.32	13291.90
471.50	13497.87
471.68	14050.24
471.86	13628.94
472.04	13848.95
472.22	14026.83
472.40	13930.87
472.58	13961.30
472.77	14078.32
472.95	14195.35
473.13	14782.82
473.31	14193.01
473.49	14040.87
473.67	14331.10
473.85	14429.40
474.03	14614.30
474.21	14696.22
474.39	14803.89
474.57	14836.66
474.75	14995.81
474.93	15035.60
475.12	15056.67
475.30	15403.07
475.48	15159.65
475.66	15428.81
475.84	15206.46
476.02	15620.74
476.20	15639.46
476.38	15723.72
476.56	16133.31
476.74	16184.80
476.92	15910.96
477.10	15985.86
477.28	16334.60
477.46	16325.24
477.64	16507.80
477.82	16968.88
478.00	17076.55
478.18	17062.51
478.36	17128.04
478.54	17088.25
478.72	17413.59
478.90	17572.74
479.08	17893.40
479.26	17844.24
479.44	17741.26
479.62	18265.54
479.80	18274.90
479.98	18267.88
480.16	18560.45
480.34	18382.57
480.52	18885.78
480.70	18899.83
480.88	18780.46
481.06	18960.68
481.24	18883.44
481.41	19126.86
481.59	19548.15
481.77	19580.92
481.95	19695.61
482.13	19896.89
482.31	19882.85
482.49	20772.25
482.67	20746.51
482.85	20470.33
483.03	20959.50
483.21	21064.82
483.39	21275.47
483.57	21228.66
483.74	21326.96
483.92	21556.33
484.10	21427.60
484.28	21715.49
484.46	22417.65
484.64	22843.63
484.82	21916.78
485.00	22522.98
485.18	23068.32
485.35	22998.10
485.53	22918.53
485.71	23068.32
485.89	23974.11
486.07	23520.04
486.25	23939.00
486.43	23674.52
486.61	24416.47
486.78	24044.32
486.96	24692.65
487.14	24833.08
487.32	24744.14
487.50	25095.22
487.68	25092.88
487.85	25600.78
488.03	25582.06
488.21	26019.74
488.39	26068.89
488.57	26506.57
488.75	26129.74
488.92	26712.53
489.10	27068.30
489.28	27056.59
489.46	27133.83
489.64	27445.12
489.81	27793.86
489.99	27744.71
490.17	27981.10
490.35	28650.50
490.53	28175.37
490.70	28610.71
490.88	28643.48
491.06	28940.72
491.24	29163.08
491.41	29352.66
491.59	29067.11
491.77	29593.73
491.95	30157.80
492.13	29890.98
492.30	30148.44
492.48	30319.30
492.66	30525.27
492.84	30682.08
493.01	30969.97
493.19	31150.19
493.37	31269.56
493.54	31557.44
493.72	31674.47
493.90	31597.23
494.08	32088.74
494.25	31910.86
494.43	32350.88
494.61	32526.42
494.79	32615.37
494.96	32793.25
495.14	32910.27
495.32	33544.56
495.49	33345.61
495.67	33521.15
495.85	33776.27
496.02	34068.84
496.20	34143.74
496.38	33979.90
496.55	34618.86
496.73	34932.50
496.91	35264.85
497.09	35005.05
497.26	35299.96
497.44	35070.59
497.62	35311.66
497.79	35775.09
497.97	35723.60
498.14	36257.24
498.32	36449.16
498.50	36573.21
498.67	36739.39
498.85	36577.89
499.03	36814.29
499.20	37331.54
499.38	37518.79
499.56	37287.07
499.73	37371.33
499.91	37872.21
500.08	38178.82
500.26	37745.82
500.44	37909.66
500.61	38141.37
500.79	38232.65
500.97	38218.61
501.14	38773.31
501.32	38651.61
501.49	39147.80
501.67	39173.55
501.84	39356.11
502.02	39494.20
502.20	39655.70
502.37	39496.54
502.55	39325.68
502.72	39573.78
502.90	40058.27
503.07	39749.32
503.25	40325.09
503.43	39859.32
503.60	40194.02
503.78	40528.72
503.95	40411.69
504.13	40903.20
504.30	41088.10
504.48	40858.73
504.65	41287.05
504.83	41469.61
505.01	41900.27
505.18	41450.89
505.36	41668.56
505.53	41890.91
505.71	42340.29
505.88	42504.13
506.06	41556.21
506.23	42904.36
506.41	42478.38
506.58	42429.23
506.76	42333.27
506.93	43007.34
507.11	42883.30
507.28	42923.08
507.46	42674.99
507.63	43241.40
507.81	43578.43
507.98	43412.26
508.16	43533.96
508.33	43604.18
508.50	43838.23
508.68	44308.68
508.85	44257.19
509.03	44210.38
509.20	44273.57
509.38	44662.10
509.55	44753.38
509.73	45219.15
509.90	45352.56
510.08	44989.78
510.25	45170.00
510.42	45221.49
510.60	45242.56
510.77	45511.72
510.95	46263.03
511.12	45518.74
511.30	45411.07
511.47	45729.39
511.64	46134.30
511.82	46082.81
511.99	45965.78
512.17	46209.20
512.34	46206.86
512.51	46396.44
512.69	46822.42
512.86	46759.22
513.04	46983.91
513.21	46829.44
513.38	47112.64
513.56	47281.16
513.73	47681.39
513.90	47470.75
514.08	47166.48
514.25	47669.69
514.43	48083.97
514.60	48175.25
514.77	47796.08
514.95	47842.89
515.12	48479.52
515.29	47793.74
515.47	48587.18
515.64	48858.68
515.81	48678.46
515.99	48722.93
516.16	48966.35
516.33	48554.41
516.51	49195.72
516.68	48818.89
516.85	49013.16
517.03	49268.28
517.20	49120.82
517.37	49158.27
517.54	49298.70
517.72	49579.57
517.89	49226.15
518.06	49467.22
518.24	49932.99
518.41	49663.83
518.58	49851.07
518.75	49537.44
518.93	50272.37
519.10	49935.33
519.27	50124.91
519.45	49876.82
519.62	50396.42
519.79	50567.27
519.96	50333.22
520.14	50351.94
520.31	50354.29
520.48	50677.28
520.65	50885.59
520.83	51056.45
521.00	51033.04
521.17	50913.67
521.34	50990.91
521.52	51168.79
521.69	51072.83
521.86	51569.02
522.03	51292.84
522.20	51704.77
522.38	51662.64
522.55	51416.89
522.72	51793.71
522.89	51489.45
523.07	51629.88
523.24	51817.12
523.41	51943.51
523.58	51983.30
523.75	52083.94
523.92	52278.21
524.10	52165.86
524.27	52392.89
524.44	52430.34
524.61	52285.23
524.78	52552.05
524.96	52406.94
525.13	52910.15
525.30	52701.84
525.47	53052.92
525.64	52870.36
525.81	52926.53
525.98	53385.28
526.16	52989.73
526.33	53062.29
526.50	52928.87
526.67	53167.61
526.84	53183.99
527.01	52978.03
527.18	53095.05
527.36	53389.96
527.53	53315.06
527.70	53511.67
527.87	53689.55
528.04	53380.60
528.21	53380.60
528.38	53319.74
528.55	53972.75
528.72	53495.28
528.89	53614.65
529.07	53642.74
529.24	53649.76
529.41	53827.64
529.58	53996.16
529.75	53663.80
529.92	54052.33
530.09	54372.99
530.26	54040.63
530.43	54354.26
530.60	54012.54
530.77	54281.70
530.94	54482.99
531.11	54443.20
531.28	54578.95
531.46	54466.61
531.63	54630.44
531.80	54740.45
531.97	54717.04
532.14	54623.42
532.31	54756.83
532.48	54908.97
532.65	54934.71
532.82	55014.29
532.99	54850.45
533.16	54923.01
533.33	55058.76
533.50	55419.20
533.67	55126.64
533.84	55168.77
534.01	55075.15
534.18	55042.38
534.35	55667.30
534.52	55650.92
534.69	55580.70
534.86	55569.00
535.03	55353.67
535.20	55475.38
535.37	55580.70
535.54	55533.89
535.71	55477.72
535.88	55709.43
536.05	55805.39
536.22	55856.88
536.38	55978.59
536.55	55751.56
536.72	56109.66
536.89	55810.07
537.06	55833.48
537.23	55987.95
537.40	55950.51
537.57	55950.51
537.74	55903.70
537.91	56268.82
538.08	56151.79
538.25	55784.33
538.42	56114.34
538.59	56442.02
538.75	56016.04
538.92	56289.88
539.09	56484.15
539.26	56058.17
539.43	56559.05
539.60	56573.09
539.77	56598.83
539.94	56596.49
540.11	56580.11
540.28	56540.32
540.44	56601.18
540.61	56830.55
540.78	56664.37
540.95	56692.46
541.12	56860.97
541.29	56666.71
541.46	56830.55
541.62	56942.89
541.79	57001.41
541.96	56652.67
542.13	56638.62
542.30	56926.51
542.47	56987.36
542.63	57212.06
542.80	57293.97
542.97	57317.38
543.14	57551.43
543.31	57396.96
543.48	57502.28
543.64	57609.95
543.81	57638.03
543.98	57490.58
544.15	57509.30
544.32	57708.25
544.48	57780.81
544.65	57649.74
544.82	57633.35
544.99	57673.14
545.16	57752.72
545.32	57635.69
545.49	57979.75
545.66	57914.22
545.83	57928.26
546.00	57762.08
546.16	57834.64
546.33	57925.92
546.50	57804.21
546.67	57890.81
546.83	57799.53
547.00	57928.26
547.17	58162.31
547.34	58049.97
547.50	58183.38
547.67	58321.47
547.84	58082.73
548.00	58213.80
548.17	58464.24
548.34	58464.24
548.51	58581.27
548.67	58340.19
548.84	58363.60
549.01	58394.03
549.18	58307.43
549.34	58494.67
549.51	58571.91
549.68	58672.55
549.84	58574.25
550.01	58487.65
550.18	58396.37
550.34	58623.40
550.51	58815.32
550.68	58681.91
550.84	58548.50
551.01	58733.40
551.18	58836.39
551.34	58775.53
551.51	58794.26
551.68	58770.85
551.84	58848.09
552.01	58637.44
552.18	59009.59
552.34	58705.32
552.51	58920.65
552.68	58848.09
552.84	58890.22
553.01	59278.75
553.18	59000.22
553.34	59065.76
553.51	58887.88
553.67	59154.70
553.84	59341.94
554.01	59103.21
554.17	59295.13
554.34	59217.89
554.51	59173.42
554.67	59260.02
554.84	59220.23
555.00	59224.92
555.17	58958.09
555.33	59063.42
555.50	59264.70
555.67	59182.79
555.83	59302.15
556.00	59339.60
556.16	59606.42
556.33	59636.85
556.50	59241.30
556.66	59660.26
556.83	59351.30
556.99	59620.47
557.16	59688.34
557.32	59709.41
557.49	59653.23
557.65	59641.53
557.82	59604.08
557.98	59662.60
558.15	59508.12
558.32	59788.98
558.48	59674.30
558.65	59653.23
558.81	59536.21
558.98	59866.22
559.14	59812.39
559.31	59742.17
559.47	60004.31
559.64	60107.30
559.80	59964.52
559.97	60016.02
560.13	59877.93
560.30	59866.22
560.46	59920.05
560.63	59887.29
560.79	59915.37
560.96	60114.32
561.12	60102.62
561.29	60203.26
561.45	59990.27
561.61	60030.06
561.78	60004.31
561.94	60121.34
562.11	60137.72
562.27	60154.11
562.44	60083.89
562.60	60186.88
562.77	60130.70
562.93	59969.21
563.10	60266.45
563.26	60273.48
563.42	60250.07
563.59	60294.54
563.75	60193.90
563.92	60280.50
564.08	60123.68
564.24	60385.82
564.41	60182.19
564.57	60292.20
564.74	60245.39
564.90	60439.65
565.07	60310.92
565.23	60254.75
565.39	60346.03
565.56	60453.70
565.72	60397.52
565.88	60378.80
566.05	60374.12
566.21	60573.06
566.38	60341.35
566.54	60509.87
566.70	60610.51
566.87	60615.19
567.03	60388.16
567.19	60692.43
567.36	60671.37
567.52	60575.40
567.68	60856.27
567.85	60748.60
568.01	60570.72
568.17	60470.08
568.34	60638.60
568.50	60584.77
568.66	60500.51
568.83	60645.62
568.99	60711.16
569.15	60636.26
569.32	60427.95
569.48	60671.37
569.64	60907.76
569.81	60533.28
569.97	60589.45
570.13	60734.56
570.30	60486.46
570.46	60664.35
570.62	60769.67
570.78	60781.37
570.95	60495.83
571.11	60830.52
571.27	60680.73
571.43	60622.22
571.60	60835.20
571.76	60638.60
571.92	60736.90
572.09	60816.48
572.25	60713.50
572.41	60715.84
572.57	60837.54
572.74	60982.66
572.90	60872.65
573.06	60853.93
573.22	60594.13
573.38	60949.89
573.55	60905.42
573.71	60968.61
573.87	60870.31
574.03	60748.60
574.20	60802.44
574.36	60900.74
574.52	61106.71
574.68	61031.81
574.84	60924.14
575.01	60968.61
575.17	61158.20
575.33	60893.72
575.49	60858.61
575.65	61092.66
575.82	60989.68
575.98	60996.70
576.14	61041.17
576.30	61013.08
576.46	60963.93
576.62	60912.44
576.79	61048.19
576.95	60907.76
577.11	61045.85
577.27	61141.81
577.43	61031.81
577.59	60849.25
577.75	60989.68
577.92	60774.35
578.08	61169.90
578.24	61041.17
578.40	61080.96
578.56	61073.94
578.72	60985.00
578.88	61113.73
579.04	61277.57
579.21	60987.34
579.37	61226.07
579.53	61300.97
579.69	61052.87
579.85	60987.34
580.01	60954.57
580.17	61031.81
580.33	61066.92
580.49	61284.59
580.65	61151.18
580.82	61031.81
580.98	60825.84
581.14	60940.53
581.30	61317.35
581.46	61085.64
581.62	61071.60
581.78	61237.78
581.94	61097.34
582.10	61144.16
582.26	60989.68
582.42	61104.37
582.58	61139.47
582.74	60823.50
582.90	61183.94
583.06	61258.84
583.22	60989.68
583.38	61256.50
583.54	61207.35
583.70	61193.31
583.86	61263.52
584.02	61151.18
584.18	61141.81
584.34	61193.31
584.50	61172.24
584.66	60872.65
584.82	61137.13
584.98	61202.67
585.14	61371.19
585.30	61160.54
585.46	61174.58
585.62	61378.21
585.78	61183.94
585.94	61104.37
586.10	61263.52
586.26	61137.13
586.42	61233.10
586.58	61268.20
586.74	61228.41
586.90	61228.41
587.06	61235.44
587.22	61317.35
587.38	61277.57
587.54	61298.63
587.70	61315.01
587.86	61179.26
588.02	61247.14
588.18	61380.55
588.34	61146.50
588.49	61153.52
