SpectraSuite Data File
++++++++++++++++++++++++++++++++++++
Date: Fri Oct 25 11:23:38 EDT 2013
User: price-jones
Dark Spectrum Present: No
Reference Spectrum Present: No
Number of Sampled Component Spectra: 1
Spectrometers: USB2+H05261
Integration Time (usec): 100000 (USB2+H05261)
Spectra Averaged: 1 (USB2+H05261)
Boxcar Smoothing: 0 (USB2+H05261)
Correct for Electrical Dark: No (USB2+H05261)
Strobe/Lamp Enabled: No (USB2+H05261)
Correct for Detector Non-linearity: No (USB2+H05261)
Correct for Stray Light: No (USB2+H05261)
Number of Pixels in Processed Spectrum: 2048
>>>>>Begin Processed Spectral Data<<<<<
365.73	227.03
365.92	227.03
366.12	227.03
366.32	184.90
366.52	98.30
366.72	198.95
366.91	117.03
367.11	145.11
367.31	79.58
367.51	70.22
367.70	30.43
367.90	70.22
368.10	119.37
368.30	86.60
368.49	135.75
368.69	149.79
368.89	227.03
369.09	142.77
369.28	140.43
369.48	196.60
369.68	182.56
369.87	180.22
370.07	142.77
370.27	241.08
370.47	271.50
370.66	568.75
370.86	627.26
371.06	695.14
371.25	596.84
371.45	650.67
371.65	678.76
371.84	657.69
372.04	690.46
372.24	711.52
372.44	681.10
372.63	713.86
372.83	723.23
373.03	758.33
373.22	674.07
373.42	807.48
373.62	772.38
373.81	770.04
374.01	809.83
374.21	917.49
374.40	765.36
374.60	849.61
374.79	718.54
374.99	795.78
375.19	791.10
375.38	833.23
375.58	854.30
375.78	793.44
375.97	823.87
376.17	901.11
376.37	870.68
376.56	891.74
376.76	837.91
376.95	924.51
377.15	933.87
377.35	866.00
377.54	880.04
377.74	863.66
377.93	858.98
378.13	898.77
378.33	894.08
378.52	957.28
378.72	896.43
378.91	866.00
379.11	922.17
379.31	1001.75
379.50	978.34
379.70	945.58
379.89	983.02
380.09	950.26
380.28	915.15
380.48	999.41
380.68	952.60
380.87	973.66
381.07	943.24
381.26	1060.26
381.46	990.05
381.65	980.68
381.85	1071.97
382.04	990.05
382.24	1067.28
382.43	1071.97
382.63	1046.22
382.83	1027.50
383.02	1078.99
383.22	1076.65
383.41	1125.80
383.61	1097.71
383.80	1109.41
384.00	1139.84
384.19	1102.39
384.39	1196.01
384.58	1128.14
384.78	1055.58
384.97	1121.12
385.17	1100.05
385.36	1130.48
385.56	1158.57
385.75	1116.44
385.95	1181.97
386.14	1291.98
386.34	1214.74
386.53	1263.89
386.72	1217.08
386.92	1287.29
387.11	1198.35
387.31	1310.70
387.50	1200.69
387.70	1158.57
387.89	1291.98
388.09	1196.01
388.28	1170.27
388.48	1324.74
388.67	1350.49
388.86	1334.11
389.06	1289.64
389.25	1322.40
389.45	1352.83
389.64	1397.30
389.84	1397.30
390.03	1409.00
390.22	1357.51
390.42	1373.89
390.61	1397.30
390.81	1355.17
391.00	1378.58
391.19	1511.99
391.39	1455.81
391.58	1446.45
391.78	1397.30
391.97	1430.07
392.16	1373.89
392.36	1423.05
392.55	1420.71
392.75	1479.22
392.94	1437.09
393.13	1462.83
393.33	1563.48
393.52	1584.54
393.71	1629.01
393.91	1584.54
394.10	1610.29
394.29	1685.19
394.49	1603.27
394.68	1593.90
394.88	1617.31
395.07	1591.56
395.26	1652.42
395.46	1610.29
395.65	1694.55
395.84	1724.97
396.04	1675.82
396.23	1682.85
396.42	1802.21
396.62	1769.44
396.81	1820.94
397.00	1748.38
397.19	1739.02
397.39	1858.39
397.58	1905.20
397.77	1771.79
397.97	1825.62
398.16	1832.64
398.35	1867.75
398.55	1886.47
398.74	1849.02
398.93	1891.15
399.12	1959.03
399.32	1762.42
399.51	1881.79
399.70	2111.16
399.90	2047.97
400.09	2005.84
400.28	2001.16
400.47	2047.97
400.67	2031.58
400.86	2073.71
401.05	2054.99
401.24	2115.84
401.44	2139.25
401.63	2139.25
401.82	2125.21
402.01	2071.37
402.21	2106.48
402.40	2223.51
402.59	2155.63
402.78	2300.75
402.97	2209.47
403.17	2214.15
403.36	2193.08
403.55	2218.83
403.74	2328.83
403.93	2420.11
404.13	2352.24
404.32	2387.35
404.51	2457.56
404.70	2370.96
404.89	2359.26
405.09	2471.61
405.28	2399.05
405.47	2420.11
405.66	2511.39
405.85	2466.92
406.05	2525.44
406.24	2595.65
406.43	2480.97
406.62	2511.39
406.81	2672.89
407.00	2567.57
407.20	2579.27
407.39	2590.97
407.58	2579.27
407.77	2670.55
407.96	2726.72
408.15	2766.51
408.34	2623.74
408.54	2747.79
408.73	2855.45
408.92	2890.56
409.11	2946.73
409.30	2953.76
409.49	3019.29
409.68	2932.69
409.87	2923.33
410.07	2970.14
410.26	2974.82
410.45	2972.48
410.64	3077.80
410.83	3232.28
411.02	3075.46
411.21	3105.89
411.40	3211.22
411.59	3199.51
411.78	3236.96
411.98	3098.87
412.17	3218.24
412.36	3283.77
412.55	3297.81
412.74	3370.37
412.93	3414.84
413.12	3290.79
413.31	3482.72
413.50	3459.31
413.69	3468.67
413.88	3489.74
414.07	3571.66
414.26	3466.33
414.45	3634.85
414.64	3644.21
414.83	3758.90
415.02	3796.35
415.22	3831.46
415.41	3932.10
415.60	3840.82
415.79	3880.61
415.98	3955.51
416.17	4056.15
416.36	3999.98
416.55	4032.74
416.74	3992.95
416.93	3946.14
417.12	4196.58
417.31	4203.60
417.50	4182.54
417.69	4374.46
417.88	4308.93
418.07	4222.33
418.26	4266.80
418.45	4329.99
418.64	4470.42
418.83	4472.76
419.02	4507.87
419.21	4589.79
419.39	4348.72
419.58	4631.92
419.77	4479.79
419.96	4702.14
420.15	4526.60
420.34	4507.87
420.53	4514.89
420.72	4655.33
420.91	4575.75
421.10	4627.24
421.29	4760.65
421.48	4753.63
421.67	4844.91
421.86	4891.72
422.05	4777.03
422.24	4835.55
422.43	4798.10
422.61	4842.57
422.80	5069.60
422.99	4950.23
423.18	4896.40
423.37	4945.55
423.56	4922.15
423.75	4922.15
423.94	4908.10
424.13	4582.77
424.32	4762.99
424.50	5008.75
424.69	5128.11
424.88	5085.98
425.07	4978.32
425.26	4887.04
425.45	5055.56
425.64	4884.70
425.83	5107.05
426.01	5008.75
426.20	5011.09
426.39	5174.92
426.58	5163.22
426.77	5179.61
426.96	5135.14
427.15	5167.90
427.33	5231.10
427.52	5083.64
427.71	5144.50
427.90	5280.25
428.09	5390.25
428.28	5259.18
428.46	5331.74
428.65	5305.99
428.84	5563.45
429.03	5511.96
429.22	5387.91
429.40	5401.96
429.59	5514.30
429.78	5259.18
429.97	5322.38
430.16	5472.17
430.34	5621.97
430.53	5643.03
430.72	5652.39
430.91	5668.78
431.10	5511.96
431.28	5682.82
431.47	5757.72
431.66	6080.71
431.85	5753.04
432.03	5844.32
432.22	5877.09
432.41	5921.56
432.60	5942.62
432.79	5888.79
432.97	5947.30
433.16	5984.75
433.35	5942.62
433.54	6157.95
433.72	6232.85
433.91	6335.83
434.10	6235.19
434.28	6136.88
434.47	6242.21
434.66	6286.68
434.85	6232.85
435.03	6448.18
435.22	6160.29
435.41	6490.31
435.59	6487.96
435.78	6427.11
435.97	6438.81
436.16	6366.26
436.34	6368.60
436.53	6558.18
436.72	6771.17
436.90	6424.77
437.09	6541.80
437.28	6530.09
437.46	6532.44
437.65	6829.68
437.84	6808.62
438.02	6745.42
438.21	6712.66
438.40	6881.18
438.58	6949.05
438.77	7054.37
438.96	6993.52
439.14	7243.96
439.33	7016.93
439.52	7290.77
439.70	7164.38
439.89	7410.14
440.08	7227.57
440.26	7393.75
440.45	7496.74
440.63	7342.26
440.82	7688.66
441.01	7449.93
441.19	7527.16
441.38	7824.41
441.57	7674.62
441.75	7726.11
441.94	7995.27
442.12	8053.78
442.31	8088.89
442.50	8152.09
442.68	7985.91
442.87	8109.96
443.05	8046.76
443.24	8264.43
443.43	8072.51
443.61	8301.88
443.80	8407.20
443.98	8124.00
444.17	7847.82
444.35	8175.49
444.54	8243.37
444.73	8278.47
444.91	8311.24
445.10	8500.83
445.28	8341.67
445.47	8224.64
445.65	8407.20
445.84	8358.05
446.02	8472.74
446.21	8664.66
446.39	8318.26
446.58	8407.20
446.77	8482.10
446.95	8252.73
447.14	8531.25
447.32	8603.81
447.51	8456.36
447.69	8458.70
447.88	8624.87
448.06	8418.91
448.25	8348.69
448.43	8407.20
448.62	8594.45
448.80	8552.32
448.99	8585.08
449.17	8690.41
449.36	8446.99
449.54	8791.05
449.73	9001.70
449.91	9186.60
450.10	8954.89
450.28	9083.62
450.46	8952.55
450.65	9184.26
450.83	9123.41
451.02	8971.27
451.20	9188.94
451.39	9217.03
451.57	9085.96
451.76	9006.38
451.94	9102.34
452.13	9415.98
452.31	9387.89
452.49	9291.93
452.68	9317.67
452.86	9451.08
453.05	9551.73
453.23	9584.49
453.42	9348.10
453.60	9380.87
453.78	9549.39
453.97	9425.34
454.15	9598.54
454.34	9556.41
454.52	9748.33
454.70	9802.16
454.89	9699.18
455.07	9645.35
455.26	9781.10
455.44	9884.08
455.62	10017.49
455.81	9888.76
455.99	9806.84
456.17	10118.14
456.36	9942.60
456.54	10228.14
456.73	10354.53
456.91	10537.09
457.09	10347.51
457.28	10530.07
457.46	10375.59
457.64	10567.52
457.83	10581.56
458.01	10366.23
458.19	10513.69
458.38	10581.56
458.56	10670.50
458.74	10949.03
458.93	10750.08
459.11	10834.34
459.29	10677.52
459.48	10822.64
459.66	10871.79
459.84	10984.13
460.03	11236.91
460.21	11213.51
460.39	11150.31
460.57	10958.39
460.76	11300.11
460.94	11183.08
461.12	11005.20
461.31	11234.57
461.49	11185.42
461.67	11260.32
461.85	11386.71
462.04	11243.93
462.22	11557.57
462.40	11421.81
462.59	11428.84
462.77	11485.01
462.95	11545.86
463.13	11672.25
463.32	11698.00
463.50	11822.05
463.68	11737.79
463.86	12025.67
464.05	11683.95
464.23	11803.32
464.41	11990.56
464.59	11805.66
464.78	12058.44
464.96	12182.49
465.14	11932.05
465.32	12079.50
465.50	12175.47
465.69	12257.39
465.87	12039.72
466.05	12049.08
466.23	12084.19
466.41	12381.43
466.60	12549.95
466.78	12044.40
466.96	12322.92
467.14	12187.17
467.32	12367.39
467.51	12688.04
467.69	12088.87
467.87	12531.23
468.05	12416.54
468.23	12372.07
468.41	12578.04
468.60	12652.94
468.78	12886.99
468.96	12741.88
469.14	12910.40
469.32	12961.89
469.50	12704.43
469.69	12996.99
469.87	13174.88
470.05	13074.23
470.23	13259.13
470.41	13188.92
470.59	13195.94
470.77	13128.06
470.95	13259.13
471.14	13413.61
471.32	13123.38
471.50	13640.64
471.68	13708.52
471.86	13479.15
472.04	13701.50
472.22	13942.57
472.40	13687.45
472.58	13907.46
472.77	14141.52
472.95	14200.03
473.13	14492.60
473.31	14284.29
473.49	14211.73
473.67	14164.92
473.85	14333.44
474.03	14661.12
474.21	14607.28
474.39	14658.78
474.57	14930.28
474.75	15000.49
474.93	14771.12
475.12	14869.42
475.30	15356.25
475.48	15040.28
475.66	15314.13
475.84	15414.77
476.02	15480.30
476.20	15229.87
476.38	15789.25
476.56	16018.63
476.74	15910.96
476.92	15995.22
477.10	15880.53
477.28	15964.79
477.46	16453.97
477.64	16224.59
477.82	16730.15
478.00	17067.19
478.18	16774.62
478.36	16826.11
478.54	17287.20
478.72	17172.51
478.90	17191.23
479.08	17263.79
479.26	17846.58
479.44	17865.31
479.62	17905.10
479.80	18026.81
479.98	18209.37
480.16	18618.96
480.34	18209.37
480.52	18602.58
480.70	18551.09
480.88	18462.15
481.06	18560.45
481.24	18860.04
481.41	18864.72
481.59	19180.69
481.77	19379.64
481.95	19475.60
482.13	19761.14
482.31	19896.89
482.49	20039.67
482.67	20355.64
482.85	20524.16
483.03	20542.88
483.21	20950.14
483.39	21228.66
483.57	20950.14
483.74	21310.58
483.92	21287.17
484.10	21469.73
484.28	21516.54
484.46	21900.39
484.64	22216.36
484.82	21944.86
485.00	22380.20
485.18	22981.72
485.35	22576.81
485.53	22728.94
485.71	23264.92
485.89	23304.71
486.07	23367.91
486.25	23491.96
486.43	23655.79
486.61	23716.65
486.78	24025.60
486.96	24381.36
487.14	24769.89
487.32	24442.21
487.50	25167.78
487.68	25167.78
487.85	25144.38
488.03	25518.86
488.21	25813.77
488.39	25914.41
488.57	26258.47
488.75	26040.80
488.92	26778.07
489.10	26955.95
489.28	27197.02
489.46	27370.22
489.64	27459.16
489.81	27562.15
489.99	27707.26
490.17	27887.48
490.35	28060.68
490.53	28105.15
490.70	28409.42
490.88	28547.51
491.06	28692.63
491.24	28563.90
491.41	28929.02
491.59	29041.37
491.77	29287.12
491.95	29429.90
492.13	29502.45
492.30	29940.13
492.48	30265.47
492.66	30342.70
492.84	30246.74
493.01	30607.19
493.19	30735.92
493.37	31115.08
493.54	31016.78
493.72	31637.02
493.90	31700.22
494.08	31613.62
494.25	32095.77
494.43	31700.22
494.61	32184.71
494.79	32257.26
494.96	32439.82
495.14	33158.37
495.32	33319.87
495.49	33104.54
495.67	33041.34
495.85	33535.20
496.02	33659.24
496.20	34132.03
496.38	34092.24
496.55	34082.88
496.73	34876.32
496.91	34927.81
497.09	34712.49
497.26	34955.90
497.44	34749.93
497.62	35512.95
497.79	36156.60
497.97	35564.44
498.14	35854.67
498.32	36044.25
498.50	36465.55
498.67	36488.95
498.85	36119.15
499.03	36807.26
499.20	36723.01
499.38	37153.66
499.56	37022.59
499.73	37109.19
499.91	37722.41
500.08	37855.82
500.26	37743.48
500.44	37546.87
500.61	38022.00
500.79	37656.88
500.97	38174.14
501.14	38319.25
501.32	38946.51
501.49	38529.90
501.67	38834.17
501.84	38925.45
502.02	38988.64
502.20	39435.69
502.37	39283.55
502.55	39281.21
502.72	39318.66
502.90	39480.16
503.07	39704.85
503.25	40201.04
503.43	39983.37
503.60	40399.99
503.78	40357.86
503.95	40540.42
504.13	40753.41
504.30	41282.37
504.48	40580.21
504.65	40879.80
504.83	40608.29
505.01	41263.64
505.18	41411.10
505.36	41785.58
505.53	41535.15
505.71	41530.47
505.88	42124.96
506.06	41593.66
506.23	41876.86
506.41	41942.40
506.58	42389.44
506.76	42190.50
506.93	42600.09
507.11	42670.31
507.28	42450.30
507.46	42904.36
507.63	42838.83
507.81	43482.47
507.98	43246.08
508.16	43377.15
508.33	43515.24
508.50	43234.38
508.68	43796.10
508.85	43707.16
509.03	43522.26
509.20	44076.97
509.38	44208.04
509.55	44470.18
509.73	44715.93
509.90	44498.26
510.08	44861.05
510.25	44678.49
510.42	44751.04
510.60	44765.09
510.77	45200.43
510.95	45287.03
511.12	45422.78
511.30	45322.13
511.47	45750.45
511.64	45752.79
511.82	45881.52
511.99	45530.44
512.17	45511.72
512.34	45925.99
512.51	46185.79
512.69	46101.53
512.86	46234.94
513.04	47049.45
513.21	46838.80
513.38	46703.05
513.56	47147.75
513.73	46876.25
513.90	47145.41
514.08	47159.45
514.25	47416.91
514.43	47583.09
514.60	47524.58
514.77	47395.85
514.95	47887.36
515.12	47676.71
515.29	47594.79
515.47	48039.50
515.64	48055.88
515.81	48065.24
515.99	48381.21
516.16	48666.76
516.33	48327.38
516.51	48594.20
516.68	48739.32
516.85	48781.45
517.03	48465.47
517.20	49270.62
517.37	48875.07
517.54	49118.48
517.72	48985.07
517.89	49404.03
518.06	49382.96
518.24	49605.31
518.41	49125.50
518.58	49450.84
518.75	49272.96
518.93	49581.91
519.10	49673.19
519.27	49979.80
519.45	49865.11
519.62	49989.16
519.79	49986.82
519.96	49773.83
520.14	50183.43
520.31	50246.62
520.48	50562.59
520.65	50522.80
520.83	50951.12
521.00	50576.64
521.17	50665.58
521.34	50742.81
521.52	50604.72
521.69	50951.12
521.86	51367.74
522.03	51381.78
522.20	51229.65
522.38	51466.04
522.55	51262.41
522.72	51351.35
522.89	51538.60
523.07	52011.38
523.24	51845.21
523.41	51831.16
523.58	51442.63
523.75	51990.32
523.92	52224.37
524.10	52458.43
524.27	51934.15
524.44	52399.91
524.61	52067.56
524.78	52390.55
524.96	52388.21
525.13	52165.86
525.30	52514.60
525.47	52655.03
525.64	52067.56
525.81	52743.97
525.98	52666.73
526.16	52540.35
526.33	52942.92
526.50	53191.01
526.67	52900.79
526.84	52884.40
527.01	52788.44
527.18	52907.81
527.36	52870.36
527.53	53104.41
527.70	53127.82
527.87	53230.80
528.04	53272.93
528.21	53396.98
528.38	53413.37
528.55	53757.42
528.72	53556.14
528.89	53289.32
529.07	53497.62
529.24	53448.47
529.41	53783.17
529.58	53572.52
529.75	53506.99
529.92	54108.50
530.09	53993.82
530.26	53949.35
530.43	54157.66
530.60	53710.61
530.77	53942.33
530.94	54019.56
531.11	53956.37
531.28	54475.97
531.46	54267.66
531.63	54375.33
531.80	54237.23
531.97	54532.14
532.14	54607.04
532.31	54541.50
532.48	54567.25
532.65	54700.66
532.82	54590.66
532.99	54728.75
533.16	54656.19
533.33	54805.98
533.50	54972.16
533.67	55049.40
533.84	54459.58
534.01	54784.92
534.18	54930.03
534.35	55253.03
534.52	55136.00
534.69	55189.83
534.86	55241.32
535.03	55433.25
535.20	55290.48
535.37	55285.79
535.54	55473.04
535.71	55311.54
535.88	55735.18
536.05	55505.80
536.22	55749.22
536.38	55725.81
536.55	55496.44
536.72	55587.72
536.89	55393.46
537.06	55791.35
537.23	55793.69
537.40	55613.47
537.57	55538.57
537.74	55786.67
537.91	56280.52
538.08	55971.57
538.25	55835.82
538.42	55831.14
538.59	56044.13
538.75	55997.32
538.92	56074.55
539.09	56095.62
539.26	56287.54
539.43	56177.54
539.60	56165.84
539.77	56287.54
539.94	56399.89
540.11	56411.59
540.28	56292.22
540.44	56458.40
540.61	56488.83
540.78	56432.66
540.95	56493.51
541.12	56320.31
541.29	56437.34
541.46	56736.93
541.62	56488.83
541.79	56495.85
541.96	56715.86
542.13	56357.76
542.30	56926.51
542.47	56842.25
542.63	56963.96
542.80	56875.02
542.97	56996.73
543.14	57130.14
543.31	57357.17
543.48	57076.30
543.64	57577.18
543.81	57366.53
543.98	57270.57
544.15	57396.96
544.32	57462.49
544.48	57715.27
544.65	57352.49
544.82	57635.69
544.99	57389.94
545.16	57497.60
545.32	57401.64
545.49	57822.93
545.66	57869.75
545.83	57591.22
546.00	57794.85
546.16	57684.84
546.33	57516.32
546.50	57893.15
546.67	57942.30
546.83	57471.85
547.00	57822.93
547.17	57935.28
547.34	57968.05
547.50	57888.47
547.67	58122.52
547.84	58024.22
548.00	58166.99
548.17	58333.17
548.34	57949.32
548.51	58272.32
548.67	58305.09
548.84	58335.51
549.01	58134.23
549.18	58047.63
549.34	58230.19
549.51	58379.98
549.68	58323.81
549.84	58372.96
550.01	58618.72
550.18	58543.82
550.34	58440.84
550.51	58578.93
550.68	58583.61
550.84	58461.90
551.01	58644.46
551.18	58541.48
551.34	58621.06
551.51	58717.02
551.68	58702.98
551.84	58677.23
552.01	58382.32
552.18	58810.64
552.34	58616.38
552.51	58714.68
552.68	58532.12
552.84	58651.48
553.01	58848.09
553.18	58791.92
553.34	58808.30
553.51	58794.26
553.67	59040.01
553.84	58838.73
554.01	58908.94
554.17	59040.01
554.34	59103.21
554.51	59089.16
554.67	59238.96
554.84	59093.85
555.00	59161.72
555.17	59171.08
555.33	59203.85
555.50	59030.65
555.67	59119.59
555.83	59096.19
556.00	59309.18
556.16	59592.38
556.33	59444.93
556.50	59255.34
556.66	59407.48
556.83	59222.58
556.99	59540.89
557.16	59489.40
557.32	59702.38
557.49	59730.47
557.65	59561.95
557.82	59501.10
557.98	59470.67
558.15	59311.52
558.32	59487.06
558.48	59381.73
558.65	59447.27
558.81	59714.09
558.98	59547.91
559.14	59550.25
559.31	59671.96
559.47	59568.97
559.64	59943.46
559.80	59716.43
559.97	59735.15
560.13	59650.89
560.30	59618.13
560.46	59690.68
560.63	59924.74
560.79	59861.54
560.96	59852.18
561.12	59908.35
561.29	59903.67
561.45	60207.94
561.61	59887.29
561.78	59770.26
561.94	59856.86
562.11	59702.38
562.27	59950.48
562.44	60074.53
562.60	60034.74
562.77	60037.08
562.93	59821.75
563.10	60088.57
563.26	60097.94
563.42	60205.60
563.59	60102.62
563.75	59971.55
563.92	60196.24
564.08	60151.77
564.24	60236.03
564.41	60317.95
564.57	60161.13
564.74	60317.95
564.90	60196.24
565.07	60081.55
565.23	60025.38
565.39	60093.25
565.56	60329.65
565.72	60374.12
565.88	60221.98
566.05	60212.62
566.21	60299.22
566.38	60278.16
566.54	60327.31
566.70	60472.42
566.87	60427.95
567.03	60161.13
567.19	60327.31
567.36	60292.20
567.52	60353.05
567.68	60568.38
567.85	60509.87
568.01	60355.39
568.17	60568.38
568.34	60427.95
568.50	60369.44
568.66	60116.66
568.83	60559.02
568.99	60427.95
569.15	60252.41
569.32	60533.28
569.48	60420.93
569.64	60491.15
569.81	60638.60
569.97	60397.52
570.13	60547.32
570.30	60336.67
570.46	60608.17
570.62	60662.00
570.78	60612.85
570.95	60512.21
571.11	60673.71
571.27	60554.34
571.43	60509.87
571.60	60676.05
571.76	60488.80
571.92	60589.45
572.09	60526.25
572.25	60664.35
572.41	60575.40
572.57	60743.92
572.74	60926.49
572.90	60781.37
573.06	60591.79
573.22	60528.59
573.38	60804.78
573.55	60521.57
573.71	60654.98
573.87	60893.72
574.03	60409.23
574.20	60760.31
574.36	60481.78
574.52	60753.29
574.68	60821.16
574.84	60849.25
575.01	60750.94
575.17	60722.86
575.33	60772.01
575.49	60828.18
575.65	60797.76
575.82	61029.47
575.98	60886.70
576.14	60963.93
576.30	61041.17
576.46	60690.09
576.62	60743.92
576.79	60874.99
576.95	60640.94
577.11	60945.21
577.27	60804.78
577.43	60631.58
577.59	61034.15
577.75	60769.67
577.92	60591.79
578.08	60800.10
578.24	60966.27
578.40	61022.45
578.56	60985.00
578.72	60807.12
578.88	60931.17
579.04	61186.28
579.21	60975.64
579.37	61029.47
579.53	60968.61
579.69	60734.56
579.85	60917.12
580.01	60926.49
580.17	60816.48
580.33	61029.47
580.49	61052.87
580.65	60863.29
580.82	60802.44
580.98	60870.31
581.14	60835.20
581.30	61130.11
581.46	60994.36
581.62	60992.02
581.78	60872.65
581.94	61247.14
582.10	61010.74
582.26	60985.00
582.42	61003.72
582.58	61022.45
582.74	61123.09
582.90	60973.30
583.06	61001.38
583.22	60638.60
583.38	61078.62
583.54	60928.83
583.70	61020.11
583.86	60860.95
584.02	60870.31
584.18	61144.16
584.34	61216.71
584.50	61073.94
584.66	61087.98
584.82	60982.66
584.98	61099.68
585.14	61240.12
585.30	60853.93
585.46	61169.90
585.62	61102.03
585.78	61244.80
585.94	60996.70
586.10	60956.91
586.26	61106.71
586.42	61193.31
586.58	61151.18
586.74	60879.67
586.90	61165.22
587.06	60956.91
587.22	61205.01
587.38	61165.22
587.54	61432.04
587.70	61284.59
587.86	61223.73
588.02	61062.24
588.18	61322.04
588.34	61095.00
588.49	61041.17
