SpectraSuite Data File
++++++++++++++++++++++++++++++++++++
Date: Fri Oct 25 11:22:37 EDT 2013
User: price-jones
Dark Spectrum Present: No
Reference Spectrum Present: No
Number of Sampled Component Spectra: 1
Spectrometers: USB2+H05261
Integration Time (usec): 100000 (USB2+H05261)
Spectra Averaged: 1 (USB2+H05261)
Boxcar Smoothing: 0 (USB2+H05261)
Correct for Electrical Dark: No (USB2+H05261)
Strobe/Lamp Enabled: No (USB2+H05261)
Correct for Detector Non-linearity: No (USB2+H05261)
Correct for Stray Light: No (USB2+H05261)
Number of Pixels in Processed Spectrum: 2048
>>>>>Begin Processed Spectral Data<<<<<
365.73	152.13
365.92	152.13
366.12	152.13
366.32	91.28
366.52	133.41
366.72	187.24
366.91	112.35
367.11	152.13
367.31	147.45
367.51	98.30
367.70	175.54
367.90	208.31
368.10	93.62
368.30	84.26
368.49	168.52
368.69	135.75
368.89	98.30
369.09	149.79
369.28	212.99
369.48	60.85
369.68	166.18
369.87	147.45
370.07	210.65
370.27	201.29
370.47	304.27
370.66	561.73
370.86	545.34
371.06	662.37
371.25	711.52
371.45	657.69
371.65	669.39
371.84	660.03
372.04	613.22
372.24	727.91
372.44	664.71
372.63	695.14
372.83	667.05
373.03	737.27
373.22	784.08
373.42	777.06
373.62	777.06
373.81	837.91
374.01	777.06
374.21	882.38
374.40	809.83
374.60	866.00
374.79	809.83
374.99	849.61
375.19	828.55
375.38	840.25
375.58	870.68
375.78	840.25
375.97	784.08
376.17	882.38
376.37	849.61
376.56	837.91
376.76	875.36
376.95	800.46
377.15	915.15
377.35	898.77
377.54	889.40
377.74	880.04
377.93	952.60
378.13	870.68
378.33	903.45
378.52	847.27
378.72	894.08
378.91	931.53
379.11	1029.84
379.31	933.87
379.50	896.43
379.70	976.00
379.89	891.74
380.09	894.08
380.28	938.55
380.48	945.58
380.68	954.94
380.87	983.02
381.07	1015.79
381.26	1022.81
381.46	1006.43
381.65	976.00
381.85	973.66
382.04	1001.75
382.24	1151.54
382.43	1163.25
382.63	1022.81
382.83	1088.35
383.02	1130.48
383.22	1067.28
383.41	1004.09
383.61	1104.73
383.80	1172.61
384.00	1135.16
384.19	1181.97
384.39	1102.39
384.58	1177.29
384.78	1156.22
384.97	1158.57
385.17	1135.16
385.36	1125.80
385.56	1071.97
385.75	1188.99
385.95	1181.97
386.14	1153.88
386.34	1135.16
386.53	1142.18
386.72	1167.93
386.92	1219.42
387.11	1303.68
387.31	1270.91
387.50	1212.40
387.70	1247.51
387.89	1287.29
388.09	1301.34
388.28	1240.48
388.48	1348.15
388.67	1282.61
388.86	1320.06
389.06	1387.94
389.25	1329.42
389.45	1355.17
389.64	1308.36
389.84	1369.21
390.03	1406.66
390.22	1371.55
390.42	1486.24
390.61	1420.71
390.81	1352.83
391.00	1493.26
391.19	1418.36
391.39	1423.05
391.58	1397.30
391.78	1451.13
391.97	1439.43
392.16	1486.24
392.36	1507.30
392.55	1511.99
392.75	1586.88
392.94	1502.62
393.13	1547.09
393.33	1596.25
393.52	1605.61
393.71	1570.50
393.91	1507.30
394.10	1582.20
394.29	1561.14
394.49	1657.10
394.68	1614.97
394.88	1497.94
395.07	1724.97
395.26	1713.27
395.46	1629.01
395.65	1769.44
395.84	1739.02
396.04	1736.68
396.23	1860.73
396.42	1771.79
396.62	1844.34
396.81	1811.57
397.00	1722.63
397.19	1774.13
397.39	1891.15
397.58	1926.26
397.77	1837.32
397.97	1853.70
398.16	1825.62
398.35	1888.81
398.55	1853.70
398.74	1902.86
398.93	1975.41
399.12	1884.13
399.32	1921.58
399.51	2019.88
399.70	2031.58
399.90	1954.35
400.09	1966.05
400.28	2012.86
400.47	2080.74
400.67	2176.70
400.86	2097.12
401.05	2047.97
401.24	2122.87
401.44	2090.10
401.63	2160.31
401.82	2256.28
402.01	2162.66
402.21	2246.91
402.40	2057.33
402.59	2246.91
402.78	2232.87
402.97	2267.98
403.17	2324.15
403.36	2324.15
403.55	2265.64
403.74	2331.17
403.93	2452.88
404.13	2424.80
404.32	2431.82
404.51	2342.88
404.70	2429.48
404.89	2394.37
405.09	2434.16
405.28	2438.84
405.47	2436.50
405.66	2396.71
405.85	2487.99
406.05	2520.76
406.24	2480.97
406.43	2551.18
406.62	2605.02
406.81	2820.35
407.00	2548.84
407.20	2628.42
407.39	2628.42
407.58	2787.58
407.77	2768.85
407.96	2789.92
408.15	2672.89
408.34	2712.68
408.54	2792.26
408.73	2782.90
408.92	2846.09
409.11	2745.45
409.30	2874.18
409.49	3000.57
409.68	2848.43
409.87	2902.26
410.07	3002.91
410.26	3054.40
410.45	3047.38
410.64	3066.10
410.83	3145.68
411.02	3201.85
411.21	3126.96
411.40	3101.21
411.59	3229.94
411.78	3183.13
411.98	3201.85
412.17	3332.92
412.36	3386.76
412.55	3372.71
412.74	3346.97
412.93	3410.16
413.12	3468.67
413.31	3669.96
413.50	3445.27
413.69	3456.97
413.88	3515.48
414.07	3471.01
414.26	3749.54
414.45	3775.28
414.64	3665.28
414.83	3728.47
415.02	3845.50
415.22	3878.27
415.41	3864.22
415.60	3794.01
415.79	3742.52
415.98	3992.95
416.17	3840.82
416.36	4060.83
416.55	4145.09
416.74	4053.81
416.93	4011.68
417.12	4163.81
417.31	4175.52
417.50	4283.18
417.69	4440.00
417.88	4304.25
418.07	4217.65
418.26	4234.03
418.45	4325.31
418.64	4500.85
418.83	4430.63
419.02	4528.94
419.21	4587.45
419.39	4554.68
419.58	4477.44
419.77	4367.44
419.96	4573.41
420.15	4807.46
420.34	4610.86
420.53	4821.50
420.72	4655.33
420.91	4837.89
421.10	4828.53
421.29	4887.04
421.48	4690.43
421.67	4873.00
421.86	4830.87
422.05	4674.05
422.24	4861.29
422.43	4837.89
422.61	4823.84
422.80	5015.77
422.99	4994.70
423.18	5172.58
423.37	5151.52
423.56	5039.17
423.75	5006.41
423.94	4837.89
424.13	4667.03
424.32	4915.12
424.50	5004.07
424.69	5121.09
424.88	5069.60
425.07	5074.28
425.26	4858.95
425.45	4997.04
425.64	4985.34
425.83	5064.92
426.01	5142.16
426.20	5151.52
426.39	5135.14
426.58	5039.17
426.77	5074.28
426.96	5214.71
427.15	5029.81
427.33	5172.58
427.52	5296.63
427.71	5228.76
427.90	5156.20
428.09	5317.70
428.28	5345.78
428.46	5408.98
428.65	5327.06
428.84	5671.12
429.03	5516.64
429.22	5493.24
429.40	5425.36
429.59	5572.82
429.78	5441.75
429.97	5420.68
430.16	5626.65
430.34	5584.52
430.53	5724.95
430.72	5687.50
430.91	5699.20
431.10	5416.00
431.28	5799.85
431.47	5912.19
431.66	5825.59
431.85	5652.39
432.03	6019.86
432.22	6057.31
432.41	5940.28
432.60	6029.22
432.79	6015.18
432.97	5963.68
433.16	6216.46
433.35	5991.77
433.54	6094.76
433.72	6291.36
433.91	6010.50
434.10	6249.23
434.28	6174.33
434.47	6202.42
434.66	6319.45
434.85	6312.42
435.03	6312.42
435.22	6399.02
435.41	6516.05
435.59	6452.86
435.78	6483.28
435.97	6429.45
436.16	6478.60
436.34	6396.68
436.53	6530.09
436.72	6806.28
436.90	6593.29
437.09	6686.91
437.28	6569.88
437.46	6764.15
437.65	6707.98
437.84	6607.33
438.02	6766.49
438.21	6867.13
438.40	6796.92
438.58	6949.05
438.77	7045.01
438.96	7007.56
439.14	7274.38
439.33	7133.95
439.52	7192.47
439.70	7199.49
439.89	7407.80
440.08	7438.22
440.26	7529.50
440.45	7342.26
440.63	7559.93
440.82	7655.89
441.01	7389.07
441.19	7779.94
441.38	7976.55
441.57	7929.74
441.75	7803.35
441.94	7925.05
442.12	7939.10
442.31	8126.34
442.50	7995.27
442.68	8131.02
442.87	7953.14
443.05	8112.30
443.24	8407.20
443.43	8112.30
443.61	8269.11
443.80	8308.90
443.98	8166.13
444.17	7932.08
444.35	8299.54
444.54	8409.54
444.73	8390.82
444.91	8376.78
445.10	8259.75
445.28	8514.87
445.47	8362.73
445.65	8299.54
445.84	8491.46
446.02	8446.99
446.21	8348.69
446.39	8587.43
446.58	8594.45
446.77	8547.64
446.95	8369.76
447.14	8493.80
447.32	8484.44
447.51	8442.31
447.69	8552.32
447.88	8769.99
448.06	8718.50
448.25	8582.74
448.43	8641.26
448.62	8671.68
448.80	8461.04
448.99	8709.13
449.17	8748.92
449.36	8683.39
449.54	8964.25
449.73	9111.71
449.91	9050.85
450.10	9088.30
450.28	9149.15
450.46	8985.32
450.65	9111.71
450.83	9195.96
451.02	9067.24
451.20	9289.59
451.39	9102.34
451.57	9366.82
451.76	9191.28
451.94	9259.16
452.13	9338.74
452.31	9493.21
452.49	9242.78
452.68	9659.39
452.86	9472.15
453.05	9439.38
453.23	9495.55
453.42	9359.80
453.60	9401.93
453.78	9624.28
453.97	9540.02
454.15	9525.98
454.34	9434.70
454.52	9937.91
454.70	9823.23
454.89	9844.29
455.07	9987.07
455.26	9806.84
455.44	10061.96
455.62	10038.56
455.81	9813.87
455.99	10186.01
456.17	10066.64
456.36	10239.84
456.54	10190.69
456.73	10509.01
456.91	10609.65
457.09	10506.66
457.28	10621.35
457.46	10469.22
457.64	10480.92
457.83	10562.84
458.01	10654.12
458.19	10888.17
458.38	10677.52
458.56	10761.78
458.74	10712.63
458.93	10714.97
459.11	10768.80
459.29	10855.40
459.48	11056.69
459.66	10920.94
459.84	10963.07
460.03	11232.23
460.21	11360.96
460.39	11068.39
460.57	11171.38
460.76	11101.16
460.94	11463.94
461.12	11407.77
461.31	11412.45
461.49	11267.34
461.67	11297.77
461.85	11499.05
462.04	11520.12
462.22	11775.24
462.40	11459.26
462.59	11389.05
462.77	11564.59
462.95	11756.51
463.13	11726.08
463.32	11737.79
463.50	11709.70
463.68	12060.78
463.86	12009.29
464.05	11688.64
464.23	11815.02
464.41	11908.65
464.59	11768.21
464.78	12196.53
464.96	12116.95
465.14	12058.44
465.32	12109.93
465.50	12360.37
465.69	12358.03
465.87	12072.48
466.05	12313.56
466.23	12308.88
466.41	12374.41
466.60	12676.34
466.78	12358.03
466.96	12358.03
467.14	12634.21
467.32	12601.44
467.51	12465.69
467.69	12292.49
467.87	12624.85
468.05	12617.83
468.23	12617.83
468.41	12727.83
468.60	12748.90
468.78	12819.11
468.96	12847.20
469.14	12961.89
469.32	13064.87
469.50	12968.91
469.69	13282.54
469.87	13359.78
470.05	13284.88
470.23	13362.12
470.41	13305.95
470.59	13268.50
470.77	13315.31
470.95	13247.43
471.14	13862.99
471.32	13355.10
471.50	13654.69
471.68	13767.03
471.86	13870.01
472.04	13912.14
472.22	14115.77
472.40	13521.27
472.58	13895.76
472.77	14132.15
472.95	14335.78
473.13	14672.82
473.31	14361.53
473.49	14572.18
473.67	14335.78
473.85	14417.70
474.03	14630.69
474.21	14700.90
474.39	14726.65
474.57	14738.35
474.75	14916.23
474.93	15281.36
475.12	15147.95
475.30	15236.89
475.48	15021.56
475.66	15330.51
475.84	15335.19
476.02	15672.23
476.20	15765.85
476.38	15999.90
476.56	16170.76
476.74	16126.29
476.92	16161.40
477.10	16013.95
477.28	16322.90
477.46	16217.57
477.64	16404.81
477.82	16559.29
478.00	16783.98
478.18	16931.44
478.36	16961.86
478.54	17436.99
478.72	17303.58
478.90	17497.84
479.08	17788.07
479.26	18024.47
479.44	17956.59
479.62	17898.08
479.80	18380.23
479.98	18370.86
480.16	18801.52
480.34	18588.53
480.52	18558.11
480.70	18829.61
480.88	18258.52
481.06	19030.90
481.24	19122.18
481.41	19248.57
481.59	19627.73
481.77	20086.48
481.95	19906.26
482.13	20208.19
482.31	19812.63
482.49	20678.63
482.67	20365.00
482.85	20582.67
483.03	20659.91
483.21	21010.99
483.39	21289.51
483.57	20968.86
483.74	21263.77
483.92	21401.86
484.10	21378.45
484.28	22012.74
484.46	22417.65
484.64	22644.68
484.82	22478.50
485.00	22408.29
485.18	22984.06
485.35	23187.69
485.53	23159.60
485.71	23239.18
485.89	23761.12
486.07	23824.31
486.25	23613.66
486.43	23847.72
486.61	24051.34
486.78	24428.17
486.96	24484.34
487.14	24753.51
487.32	24851.81
487.50	25170.12
487.68	25319.92
487.85	25495.46
488.03	25891.01
488.21	26047.82
488.39	25905.05
488.57	26405.92
488.75	26185.91
488.92	26647.00
489.10	27054.25
489.28	27180.64
489.46	27412.35
489.64	27358.52
489.81	28261.97
489.99	27861.74
490.17	28346.23
490.35	28610.71
490.53	28456.23
490.70	28524.11
490.88	28624.75
491.06	29186.48
491.24	29057.75
491.41	29202.86
491.59	29752.89
491.77	29708.42
491.95	30096.95
492.13	30085.25
492.30	30000.99
492.48	30340.36
492.66	30885.71
492.84	30775.70
493.01	30813.15
493.19	31211.04
493.37	31402.97
493.54	31763.41
493.72	31665.11
493.90	31747.03
494.08	31901.50
494.25	32570.90
494.43	32601.32
494.61	32514.72
494.79	32982.83
494.96	32921.98
495.14	33111.56
495.32	33221.56
495.49	33418.17
495.67	33729.46
495.85	33937.77
496.02	33982.24
496.20	34256.08
496.38	34284.17
496.55	34518.22
496.73	35243.79
496.91	34972.28
497.09	35208.68
497.26	35800.83
497.44	35370.18
497.62	35906.16
497.79	36077.02
497.97	35831.26
498.14	36313.41
498.32	36552.15
498.50	36704.28
498.67	37223.88
498.85	36954.72
499.03	37151.32
499.20	37097.49
499.38	37539.85
499.56	37773.91
499.73	37958.81
499.91	37762.20
500.08	38237.33
500.26	37975.19
500.44	38281.80
500.61	38447.98
500.79	38356.70
500.97	38504.15
501.14	38878.64
501.32	38700.76
501.49	39079.92
501.67	39393.56
501.84	39512.92
502.02	39643.99
502.20	39655.70
502.37	39672.08
502.55	39398.24
502.72	40182.32
502.90	39981.03
503.07	39971.67
503.25	40357.86
503.43	39763.36
503.60	40414.03
503.78	40601.27
503.95	40655.11
504.13	40823.62
504.30	41132.57
504.48	41064.70
504.65	41179.39
504.83	41614.72
505.01	41682.60
505.18	41682.60
505.36	41645.15
505.53	42101.56
505.71	42085.17
505.88	42103.90
506.06	42031.34
506.23	42057.09
506.41	42218.58
506.58	42490.09
506.76	42902.02
506.93	43082.24
507.11	42412.85
507.28	42988.62
507.46	43000.32
507.63	43707.16
507.81	43501.20
507.98	43281.19
508.16	43426.30
508.33	43746.95
508.50	43835.89
508.68	44205.70
508.85	44261.87
509.03	44121.44
509.20	44615.29
509.38	44580.18
509.55	44432.73
509.73	44896.16
509.90	44554.44
510.08	44797.85
510.25	45572.57
510.42	45200.43
510.60	45443.84
510.77	45535.12
510.95	45668.53
511.12	45345.54
511.30	45457.88
511.47	45876.84
511.64	45998.55
511.82	46600.07
511.99	46232.60
512.17	46237.28
512.34	46239.62
512.51	46986.25
512.69	46820.08
512.86	46864.55
513.04	46878.59
513.21	47002.64
513.38	46920.72
513.56	47210.95
513.73	47040.09
513.90	47271.80
514.08	47157.11
514.25	47229.67
514.43	47959.92
514.60	47782.04
514.77	47634.58
514.95	48006.73
515.12	48083.97
515.29	48477.18
515.47	47985.66
515.64	48758.04
515.81	48622.29
515.99	48666.76
516.16	48898.47
516.33	48732.29
516.51	49165.29
516.68	48900.81
516.85	48935.92
517.03	49205.08
517.20	49226.15
517.37	49223.81
517.54	49542.12
517.72	49724.68
517.89	49448.50
518.06	49792.56
518.24	49647.44
518.41	49790.22
518.58	50155.34
518.75	49698.94
518.93	50028.95
519.10	49743.41
519.27	50323.86
519.45	50171.72
519.62	50279.39
519.79	50183.43
519.96	50436.20
520.14	50461.95
520.31	50255.98
520.48	50358.97
520.65	50468.97
520.83	51278.80
521.00	51185.18
521.17	51068.15
521.34	50883.25
521.52	51426.25
521.69	51332.63
521.86	51475.40
522.03	51803.08
522.20	51435.61
522.38	51814.78
522.55	51559.66
522.72	51838.18
522.89	51494.13
523.07	51938.83
523.24	51959.89
523.41	51877.97
523.58	51847.55
523.75	52388.21
523.92	52294.59
524.10	52334.38
524.27	52189.27
524.44	52713.55
524.61	52638.65
524.78	52809.51
524.96	52526.30
525.13	52566.09
525.30	53003.77
525.47	53001.43
525.64	52699.50
525.81	52910.15
525.98	53106.76
526.16	52779.08
526.33	53069.31
526.50	53422.73
526.67	53240.17
526.84	53399.32
527.01	53263.57
527.18	53125.48
527.36	53153.57
527.53	53305.70
527.70	53932.96
527.87	53811.26
528.04	53586.57
528.21	53872.11
528.38	53242.51
528.55	53939.99
528.72	53528.05
528.89	53762.11
529.07	53727.00
529.24	53673.16
529.41	54169.36
529.58	54124.89
529.75	53914.24
529.92	53951.69
530.09	54239.57
530.26	54279.36
530.43	54485.33
530.60	54129.57
530.77	54141.27
530.94	54302.77
531.11	54429.16
531.28	54356.60
531.46	54370.64
531.63	54763.85
531.80	54520.44
531.97	54892.58
532.14	54925.35
532.31	54705.34
532.48	54997.91
532.65	54925.35
532.82	55007.27
532.99	54948.76
533.16	54775.56
533.33	54827.05
533.50	55318.56
533.67	55140.68
533.84	54974.50
534.01	55358.35
534.18	55461.33
534.35	55517.51
534.52	55723.47
534.69	55580.70
534.86	55592.40
535.03	55025.99
535.20	55667.30
535.37	55309.20
535.54	55561.98
535.71	55676.66
535.88	55718.79
536.05	55744.54
536.22	55945.83
536.38	55784.33
536.55	55697.73
536.72	55826.46
536.89	55735.18
537.06	55901.36
537.23	55987.95
537.40	55779.65
537.57	56053.49
537.74	56130.73
537.91	56226.69
538.08	56142.43
538.25	56261.80
538.42	56264.14
538.59	56493.51
538.75	56048.81
538.92	56432.66
539.09	56388.19
539.26	56523.94
539.43	56207.97
539.60	56601.18
539.77	56502.87
539.94	56793.10
540.11	56416.27
540.28	56502.87
540.44	56657.35
540.61	56704.16
540.78	56397.55
540.95	56868.00
541.12	56783.74
541.29	56580.11
541.46	56987.36
541.62	56601.18
541.79	56851.61
541.96	56732.25
542.13	56797.78
542.30	57069.28
542.47	57116.09
542.63	57385.25
542.80	57130.14
542.97	57240.14
543.14	57563.14
543.31	57476.54
543.48	57616.97
543.64	57656.76
543.81	57518.67
543.98	57780.81
544.15	57593.56
544.32	57691.86
544.48	57890.81
544.65	57521.01
544.82	57839.32
544.99	57722.29
545.16	57949.32
545.32	57635.69
545.49	57930.60
545.66	58089.76
545.83	57951.66
546.00	57876.77
546.16	57893.15
546.33	57834.64
546.50	57851.02
546.67	57839.32
546.83	57942.30
547.00	58005.50
547.17	58241.89
547.34	57977.41
547.50	58260.62
547.67	58328.49
547.84	58241.89
548.00	58342.53
548.17	58504.03
548.34	58401.05
548.51	58550.84
548.67	58714.68
548.84	58323.81
549.01	58328.49
549.18	58585.95
549.34	58239.55
549.51	58759.15
549.68	58651.48
549.84	58719.36
550.01	58539.14
550.18	58361.26
550.34	58831.71
550.51	58749.79
550.68	58735.74
550.84	58527.44
551.01	58798.94
551.18	58773.19
551.34	58890.22
551.51	58803.62
551.68	58719.36
551.84	58885.54
552.01	58637.44
552.18	58761.49
552.34	58831.71
552.51	59011.93
552.68	58660.85
552.84	59004.91
553.01	59128.95
553.18	58965.12
553.34	59018.95
553.51	59114.91
553.67	59131.29
553.84	59047.04
554.01	59379.39
554.17	59285.77
554.34	59217.89
554.51	59171.08
554.67	59175.76
554.84	59344.28
555.00	59302.15
555.17	59133.63
555.33	59227.26
555.50	59100.87
555.67	59189.81
555.83	59449.61
556.00	59360.67
556.16	59781.96
556.33	59599.40
556.50	59611.10
556.66	59618.13
556.83	59260.02
556.99	59671.96
557.16	59561.95
557.32	59922.40
557.49	59992.61
557.65	59697.70
557.82	59585.36
557.98	59583.02
558.15	59671.96
558.32	59737.49
558.48	59667.28
558.65	59723.45
558.81	59964.52
558.98	59756.22
559.14	59931.76
559.31	59852.18
559.47	60046.44
559.64	59824.09
559.80	59882.61
559.97	60011.34
560.13	59704.73
560.30	59873.24
560.46	60203.26
560.63	59999.63
560.79	60135.38
560.96	60158.79
561.12	60069.85
561.29	60191.56
561.45	60123.68
561.61	59980.91
561.78	60121.34
561.94	60006.65
562.11	60095.60
562.27	60243.05
562.44	60119.00
562.60	60210.28
562.77	60130.70
562.93	60102.62
563.10	60243.05
563.26	60030.06
563.42	60425.61
563.59	60299.22
563.75	60158.79
563.92	60430.29
564.08	60229.01
564.24	60559.02
564.41	60362.42
564.57	60516.89
564.74	60451.36
564.90	60467.74
565.07	60552.00
565.23	60381.14
565.39	60528.59
565.56	60416.25
565.72	60357.74
565.88	60498.17
566.05	60390.50
566.21	60467.74
566.38	60554.34
566.54	60451.36
566.70	60619.88
566.87	60636.26
567.03	60334.33
567.19	60715.84
567.36	60376.46
567.52	60547.32
567.68	60654.98
567.85	60561.36
568.01	60549.66
568.17	60591.79
568.34	60654.98
568.50	60624.56
568.66	60699.45
568.83	60636.26
568.99	60514.55
569.15	60570.72
569.32	60706.47
569.48	60493.49
569.64	60615.19
569.81	60582.43
569.97	60441.99
570.13	60678.39
570.30	60720.52
570.46	60973.30
570.62	60844.57
570.78	60811.80
570.95	60842.23
571.11	60823.50
571.27	60671.37
571.43	60846.91
571.60	61029.47
571.76	60823.50
571.92	60793.07
572.09	60764.99
572.25	60870.31
572.41	60886.70
572.57	60842.23
572.74	61200.33
572.90	60842.23
573.06	60739.24
573.22	60903.08
573.38	60802.44
573.55	60968.61
573.71	60987.34
573.87	60877.33
574.03	60853.93
574.20	60924.14
574.36	61038.83
574.52	60992.02
574.68	60968.61
574.84	60910.10
575.01	61057.56
575.17	61095.00
575.33	61071.60
575.49	61017.77
575.65	61034.15
575.82	60896.06
575.98	61174.58
576.14	61188.63
576.30	61293.95
576.46	61055.21
576.62	60823.50
576.79	60942.87
576.95	60830.52
577.11	61141.81
577.27	61116.07
577.43	61045.85
577.59	60783.71
577.75	61085.64
577.92	60919.46
578.08	61036.49
578.24	61165.22
578.40	61329.06
578.56	61319.70
578.72	61048.19
578.88	61221.39
579.04	61268.20
579.21	61268.20
579.37	61303.31
579.53	61343.10
579.69	60832.86
579.85	61235.44
580.01	61249.48
580.17	60926.49
580.33	61066.92
580.49	60942.87
580.65	61130.11
580.82	61064.58
580.98	61027.13
581.14	60945.21
581.30	61256.50
581.46	61123.09
581.62	61216.71
581.78	61095.00
581.94	61148.84
582.10	61048.19
582.26	61226.07
582.42	61233.10
582.58	61141.81
582.74	61148.84
582.90	61092.66
583.06	61113.73
583.22	61085.64
583.38	61352.46
583.54	61205.01
583.70	61226.07
583.86	61202.67
584.02	61024.79
584.18	61223.73
584.34	61298.63
584.50	61272.88
584.66	61209.69
584.82	61031.81
584.98	61223.73
585.14	61284.59
585.30	61109.05
585.46	61027.13
585.62	61268.20
585.78	61535.02
585.94	61118.41
586.10	61146.50
586.26	61284.59
586.42	61315.01
586.58	61319.70
586.74	61354.80
586.90	61457.79
587.06	61375.87
587.22	61432.04
587.38	61179.26
587.54	61462.47
587.70	61361.82
587.86	61350.12
588.02	61305.65
588.18	61399.27
588.34	61378.21
588.49	61247.14
