SpectraSuite Data File
++++++++++++++++++++++++++++++++++++
Date: Fri Oct 25 11:25:04 EDT 2013
User: price-jones
Dark Spectrum Present: No
Reference Spectrum Present: No
Number of Sampled Component Spectra: 1
Spectrometers: USB2+H05261
Integration Time (usec): 100000 (USB2+H05261)
Spectra Averaged: 1 (USB2+H05261)
Boxcar Smoothing: 0 (USB2+H05261)
Correct for Electrical Dark: No (USB2+H05261)
Strobe/Lamp Enabled: No (USB2+H05261)
Correct for Detector Non-linearity: No (USB2+H05261)
Correct for Stray Light: No (USB2+H05261)
Number of Pixels in Processed Spectrum: 2048
>>>>>Begin Processed Spectral Data<<<<<
365.73	236.39
365.92	236.39
366.12	236.39
366.32	145.11
366.52	133.41
366.72	142.77
366.91	88.94
367.11	154.48
367.31	187.24
367.51	74.90
367.70	140.43
367.90	88.94
368.10	95.96
368.30	180.22
368.49	163.84
368.69	140.43
368.89	131.07
369.09	105.32
369.28	203.63
369.48	140.43
369.68	194.26
369.87	159.16
370.07	243.42
370.27	229.37
370.47	360.44
370.66	571.09
370.86	653.01
371.06	669.39
371.25	676.41
371.45	641.31
371.65	676.41
371.84	685.78
372.04	741.95
372.24	669.39
372.44	734.93
372.63	748.97
372.83	812.17
373.03	777.06
373.22	746.63
373.42	755.99
373.62	821.53
373.81	788.76
374.01	842.59
374.21	830.89
374.40	861.32
374.60	875.36
374.79	816.85
374.99	891.74
375.19	849.61
375.38	819.19
375.58	798.12
375.78	837.91
375.97	856.64
376.17	908.13
376.37	840.25
376.56	917.49
376.76	868.34
376.95	873.02
377.15	868.34
377.35	760.67
377.54	880.04
377.74	959.62
377.93	809.83
378.13	844.93
378.33	898.77
378.52	966.64
378.72	964.30
378.91	961.96
379.11	912.81
379.31	898.77
379.50	952.60
379.70	966.64
379.89	1004.09
380.09	980.68
380.28	926.85
380.48	856.64
380.68	985.37
380.87	971.32
381.07	976.00
381.26	1036.86
381.46	1004.09
381.65	1036.86
381.85	973.66
382.04	997.07
382.24	1076.65
382.43	1043.88
382.63	973.66
382.83	1039.20
383.02	1043.88
383.22	1081.33
383.41	978.34
383.61	1128.14
383.80	1116.44
384.00	1027.50
384.19	1116.44
384.39	1224.10
384.58	1090.69
384.78	1128.14
384.97	1142.18
385.17	1055.58
385.36	1163.25
385.56	1116.44
385.75	1170.27
385.95	1200.69
386.14	1252.19
386.34	1095.37
386.53	1224.10
386.72	1174.95
386.92	1191.33
387.11	1160.91
387.31	1277.93
387.50	1287.29
387.70	1233.46
387.89	1268.57
388.09	1200.69
388.28	1242.82
388.48	1249.85
388.67	1217.08
388.86	1296.66
389.06	1259.21
389.25	1397.30
389.45	1273.25
389.64	1404.32
389.84	1406.66
390.03	1486.24
390.22	1423.05
390.42	1355.17
390.61	1338.79
390.81	1313.04
391.00	1397.30
391.19	1455.81
391.39	1444.11
391.58	1397.30
391.78	1526.03
391.97	1514.33
392.16	1490.92
392.36	1519.01
392.55	1511.99
392.75	1441.77
392.94	1465.18
393.13	1465.18
393.33	1493.26
393.52	1495.60
393.71	1519.01
393.91	1526.03
394.10	1483.90
394.29	1577.52
394.49	1710.93
394.68	1596.25
394.88	1621.99
395.07	1645.40
395.26	1703.91
395.46	1715.61
395.65	1717.95
395.84	1732.00
396.04	1734.34
396.23	1657.10
396.42	1675.82
396.62	1696.89
396.81	1844.34
397.00	1774.13
397.19	1755.40
397.39	1741.36
397.58	1895.83
397.77	1750.72
397.97	1802.21
398.16	1788.17
398.35	1865.41
398.55	1809.23
398.74	1919.24
398.93	1947.33
399.12	1933.28
399.32	1968.39
399.51	1949.67
399.70	1975.41
399.90	1858.39
400.09	1902.86
400.28	2008.18
400.47	1975.41
400.67	1963.71
400.86	2054.99
401.05	2129.89
401.24	1996.48
401.44	2125.21
401.63	2059.67
401.82	2146.27
402.01	2076.06
402.21	2078.40
402.40	2232.87
402.59	2162.66
402.78	2249.25
402.97	2209.47
403.17	2267.98
403.36	2275.00
403.55	2286.70
403.74	2289.04
403.93	2406.07
404.13	2438.84
404.32	2277.34
404.51	2249.25
404.70	2410.75
404.89	2368.62
405.09	2408.41
405.28	2441.18
405.47	2469.27
405.66	2483.31
405.85	2483.31
406.05	2382.67
406.24	2492.67
406.43	2558.21
406.62	2609.70
406.81	2726.72
407.00	2647.15
407.20	2490.33
407.39	2525.44
407.58	2768.85
407.77	2698.64
407.96	2733.75
408.15	2778.22
408.34	2693.96
408.54	2787.58
408.73	2607.36
408.92	2871.84
409.11	2794.60
409.30	2754.81
409.49	2836.73
409.68	2890.56
409.87	2867.16
410.07	2923.33
410.26	2942.05
410.45	2892.90
410.64	3068.44
410.83	3007.59
411.02	2988.86
411.21	3251.00
411.40	3054.40
411.59	3279.09
411.78	3208.87
411.98	3141.00
412.17	3192.49
412.36	3199.51
412.55	3426.54
412.74	3178.45
412.93	3426.54
413.12	3389.10
413.31	3517.83
413.50	3391.44
413.69	3466.33
413.88	3571.66
414.07	3468.67
414.26	3506.12
414.45	3592.72
414.64	3637.19
414.83	3674.64
415.02	3765.92
415.22	3744.86
415.41	3843.16
415.60	3948.48
415.79	3908.69
415.98	3840.82
416.17	3950.82
416.36	3906.35
416.55	4016.36
416.74	3967.21
416.93	3995.29
417.12	4182.54
417.31	4166.15
417.50	4187.22
417.69	4255.09
417.88	4273.82
418.07	4201.26
418.26	4238.71
418.45	4215.30
418.64	4493.83
418.83	4320.63
419.02	4327.65
419.21	4547.66
419.39	4400.21
419.58	4400.21
419.77	4383.82
419.96	4575.75
420.15	4561.70
420.34	4610.86
420.53	4447.02
420.72	4671.71
420.91	4779.37
421.10	4713.84
421.29	4854.27
421.48	4730.22
421.67	4781.71
421.86	4823.84
422.05	4739.58
422.24	4802.78
422.43	4755.97
422.61	4851.93
422.80	4863.63
422.99	4884.70
423.18	4835.55
423.37	4889.38
423.56	4821.50
423.75	4807.46
423.94	4816.82
424.13	4777.03
424.32	4727.88
424.50	5125.77
424.69	5027.47
424.88	5018.11
425.07	4905.76
425.26	4805.12
425.45	4936.19
425.64	4985.34
425.83	4877.68
426.01	5046.20
426.20	5071.94
426.39	4908.10
426.58	5008.75
426.77	5032.15
426.96	5107.05
427.15	5081.30
427.33	5242.80
427.52	4954.91
427.71	5420.68
427.90	5184.29
428.09	5184.29
428.28	5313.02
428.46	5350.46
428.65	5184.29
428.84	5348.12
429.03	5572.82
429.22	5362.17
429.40	5373.87
429.59	5479.19
429.78	5369.19
429.97	5263.86
430.16	5427.70
430.34	5558.77
430.53	5502.60
430.72	5582.18
430.91	5493.24
431.10	5701.54
431.28	5884.11
431.47	5736.65
431.66	5788.14
431.85	5610.26
432.03	5849.00
432.22	5921.56
432.41	5891.13
432.60	5813.89
432.79	5956.66
432.97	5905.17
433.16	5966.03
433.35	5961.34
433.54	6024.54
433.72	6043.26
433.91	6003.47
434.10	6045.60
434.28	6015.18
434.47	6118.16
434.66	6122.84
434.85	6305.40
435.03	6162.63
435.22	6167.31
435.41	6342.85
435.59	6417.75
435.78	6422.43
435.97	6282.00
436.16	6415.41
436.34	6516.05
436.53	6392.00
436.72	6565.20
436.90	6422.43
437.09	6502.01
437.28	6342.85
437.46	6663.51
437.65	6572.22
437.84	6574.56
438.02	6710.32
438.21	6745.42
438.40	6736.06
438.58	6752.45
438.77	6965.43
438.96	7045.01
439.14	7035.65
439.33	7206.51
439.52	7075.44
439.70	7063.74
439.89	7140.97
440.08	7456.95
440.26	7339.92
440.45	7262.68
440.63	7468.65
440.82	7555.25
441.01	7281.41
441.19	7428.86
441.38	7742.49
441.57	7569.29
441.75	7810.37
441.94	7815.05
442.12	7941.44
442.31	7878.24
442.50	7815.05
442.68	7985.91
442.87	7960.16
443.05	8023.36
443.24	8269.11
443.43	7829.09
443.61	8067.83
443.80	8486.78
443.98	8009.31
444.17	7758.88
444.35	8011.65
444.54	8264.43
444.73	8149.75
444.91	8166.13
445.10	8210.60
445.28	8304.22
445.47	8210.60
445.65	8231.66
445.84	8461.04
446.02	8465.72
446.21	8252.73
446.39	8311.24
446.58	8432.95
446.77	8442.31
446.95	8124.00
447.14	8297.20
447.32	8486.78
447.51	8423.59
447.69	8360.39
447.88	8456.36
448.06	8315.92
448.25	8470.40
448.43	8432.95
448.62	8407.20
448.80	8367.42
448.99	8636.58
449.17	8587.43
449.36	8655.30
449.54	8791.05
449.73	8858.93
449.91	9032.13
450.10	8889.35
450.28	8966.59
450.46	8887.01
450.65	8924.46
450.83	9008.72
451.02	8954.89
451.20	9273.20
451.39	9144.47
451.57	8975.95
451.76	9301.29
451.94	9097.66
452.13	9048.51
452.31	9177.24
452.49	9041.49
452.68	9067.24
452.86	9060.21
453.05	9298.95
453.23	9462.79
453.42	9296.61
453.60	9160.86
453.78	9296.61
453.97	9277.88
454.15	9174.90
454.34	9413.63
454.52	9575.13
454.70	9664.07
454.89	9689.82
455.07	9760.03
455.26	9715.56
455.44	9956.64
455.62	9600.88
455.81	9675.77
455.99	10001.11
456.17	10017.49
456.36	10061.96
456.54	10085.37
456.73	9951.96
456.91	10284.31
457.09	10391.98
457.28	10607.31
457.46	10232.82
457.64	10431.77
457.83	10490.28
458.01	10167.29
458.19	10644.76
458.38	10361.55
458.56	10562.84
458.74	10504.32
458.93	10750.08
459.11	10651.78
459.29	10623.69
459.48	10785.19
459.66	10546.45
459.84	10635.39
460.03	10949.03
460.21	10801.57
460.39	10902.22
460.57	10686.89
460.76	11047.33
460.94	11147.97
461.12	11194.78
461.31	11052.01
461.49	11204.14
461.67	11002.86
461.85	11304.79
462.04	11213.51
462.22	11712.04
462.40	11487.35
462.59	11489.69
462.77	11536.50
462.95	11438.20
463.13	11534.16
463.32	11515.44
463.50	11480.33
463.68	11709.70
463.86	11623.10
464.05	11651.19
464.23	11723.74
464.41	11831.41
464.59	11667.57
464.78	11969.50
464.96	11606.72
465.14	11793.96
465.32	12067.80
465.50	12180.15
465.69	12077.16
465.87	12133.34
466.05	11960.14
466.23	11896.94
466.41	12191.85
466.60	12285.47
466.78	11929.71
466.96	12109.93
467.14	12135.68
467.32	12435.27
467.51	12652.94
467.69	12042.06
467.87	12498.46
468.05	12641.23
468.23	12320.58
468.41	12336.96
468.60	12400.16
468.78	12767.62
468.96	12681.02
469.14	12737.20
469.32	12968.91
469.50	12437.61
469.69	13041.46
469.87	12999.34
470.05	12959.55
470.23	13020.40
470.41	12854.22
470.59	13296.58
470.77	13167.85
470.95	13151.47
471.14	13336.37
471.32	12931.46
471.50	13448.72
471.68	13467.44
471.86	13633.62
472.04	13631.28
472.22	13989.38
472.40	13778.73
472.58	13729.58
472.77	13654.69
472.95	13872.36
473.13	14202.37
473.31	14061.94
473.49	13893.42
473.67	13858.31
473.85	14202.37
474.03	14792.19
474.21	14527.71
474.39	14778.14
474.57	14707.93
474.75	14728.99
474.93	14857.72
475.12	14878.79
475.30	14820.27
475.48	15073.05
475.66	15016.88
475.84	15080.07
476.02	15288.38
476.20	15286.04
476.38	15597.33
476.56	16191.83
476.74	15719.04
476.92	15506.05
477.10	15372.64
477.28	15831.38
477.46	16287.79
477.64	16191.83
477.82	16297.15
478.00	16671.64
478.18	16369.71
478.36	17149.11
478.54	17191.23
478.72	16954.84
478.90	16978.25
479.08	17415.93
479.26	17497.84
479.44	17617.21
479.62	17542.32
479.80	18038.51
479.98	18059.57
480.16	18373.21
480.34	18057.23
480.52	18506.62
480.70	18471.51
480.88	18228.09
481.06	18508.96
481.24	18572.15
481.41	18913.87
481.59	19028.56
481.77	19290.70
481.95	19246.23
482.13	19424.11
482.31	19552.84
482.49	20049.03
482.67	20086.48
482.85	20114.56
483.03	20343.94
483.21	20816.72
483.39	20767.57
483.57	20711.40
483.74	21013.33
483.92	21104.61
484.10	20865.88
484.28	21343.35
484.46	21692.08
484.64	22003.38
484.82	21841.88
485.00	21991.67
485.18	22551.06
485.35	22735.96
485.53	22616.60
485.71	22483.19
485.89	23597.28
486.07	23463.87
486.25	23168.96
486.43	23325.78
486.61	23789.20
486.78	23761.12
486.96	23971.77
487.14	24210.50
487.32	24568.60
487.50	24451.58
487.68	24772.23
487.85	25242.68
488.03	25369.07
488.21	25628.87
488.39	25727.17
488.57	25879.30
488.75	26082.93
488.92	26211.66
489.10	26286.56
489.28	26249.11
489.46	27047.23
489.64	26443.37
489.81	27805.56
489.99	27477.89
490.17	27772.80
490.35	28025.57
490.53	27892.16
490.70	28362.61
490.88	28130.90
491.06	28664.54
491.24	28276.01
491.41	28673.90
491.59	29046.05
491.77	29383.09
491.95	29284.78
492.13	29413.51
492.30	29738.85
492.48	29947.15
492.66	29893.32
492.84	30033.75
493.01	30611.87
493.19	30567.40
493.37	30962.95
493.54	31236.79
493.72	31402.97
493.90	31269.56
494.08	31414.67
494.25	31456.80
494.43	31828.95
494.61	32048.96
494.79	32636.43
494.96	32292.37
495.14	32205.77
495.32	33057.73
495.49	33067.09
495.67	33151.35
495.85	33092.83
496.02	33612.43
496.20	33532.86
496.38	33717.76
496.55	33797.34
496.73	34801.43
496.91	34490.13
497.09	34256.08
497.26	34768.66
497.44	34855.26
497.62	34852.92
497.79	35292.94
497.97	35629.98
498.14	35880.41
498.32	35772.75
498.50	35847.64
498.67	36280.64
498.85	36257.24
499.03	36428.10
499.20	36734.71
499.38	36411.71
499.56	36732.37
499.73	37076.43
499.91	37287.07
500.08	37069.40
500.26	36989.83
500.44	37638.15
500.61	37488.36
500.79	37792.63
500.97	38227.97
501.14	38412.87
501.32	38260.74
501.49	38068.81
501.67	38656.29
501.84	38768.63
502.02	38188.18
502.20	38417.55
502.37	38927.79
502.55	38632.88
502.72	39292.91
502.90	39517.60
503.07	39442.71
503.25	39688.46
503.43	39550.37
503.60	39959.97
503.78	39484.84
503.95	40158.91
504.13	40016.14
504.30	40194.02
504.48	39936.56
504.65	40311.05
504.83	40545.10
505.01	40526.38
505.18	41067.04
505.36	41216.83
505.53	40912.56
505.71	41537.49
505.88	41811.33
506.06	41275.35
506.23	41565.57
506.41	41579.62
506.58	41883.89
506.76	41694.30
506.93	42359.02
507.11	41869.84
507.28	42366.04
507.46	42511.15
507.63	42581.37
507.81	42993.30
507.98	42850.53
508.16	43047.13
508.33	42932.45
508.50	43555.03
508.68	43192.25
508.85	43496.52
509.03	43735.25
509.20	43756.32
509.38	43821.85
509.55	44346.13
509.73	44212.72
509.90	44765.09
510.08	44402.30
510.25	44734.66
510.42	44027.82
510.60	44706.57
510.77	44914.88
510.95	44863.39
511.12	44584.86
511.30	44570.82
511.47	45148.93
511.64	45071.70
511.82	45242.56
511.99	45085.74
512.17	45492.99
512.34	45881.52
512.51	46085.15
512.69	46122.60
512.86	46082.81
513.04	46440.91
513.21	46237.28
513.38	46323.88
513.56	46579.00
513.73	47056.47
513.90	47012.00
514.08	46391.76
514.25	47079.88
514.43	47065.83
514.60	47215.63
514.77	46894.97
514.95	47435.64
515.12	47203.92
515.29	47285.84
515.47	47239.03
515.64	47442.66
515.81	47672.03
515.99	48154.18
516.16	47838.21
516.33	47929.49
516.51	48432.71
516.68	48123.75
516.85	48032.47
517.03	48685.48
517.20	48753.36
517.37	48144.82
517.54	48783.79
517.72	48652.72
517.89	48545.05
518.06	49118.48
518.24	49219.13
518.41	48910.17
518.58	49179.34
518.75	48945.28
518.93	49389.98
519.10	49041.24
519.27	49617.02
519.45	49579.57
519.62	49397.01
519.79	49720.00
519.96	49640.42
520.14	50260.66
520.31	49785.54
520.48	49820.64
520.65	49951.71
520.83	50188.11
521.00	50277.05
521.17	50190.45
521.34	50557.91
521.52	50993.25
521.69	50766.22
521.86	50754.52
522.03	50511.10
522.20	51054.11
522.38	51468.38
522.55	50873.88
522.72	51456.68
522.89	51168.79
523.07	51372.42
523.24	51423.91
523.41	51152.41
523.58	51538.60
523.75	51711.80
523.92	51210.92
524.10	51765.63
524.27	51760.95
524.44	51601.79
524.61	51992.66
524.78	51856.91
524.96	52093.30
525.13	52184.58
525.30	52090.96
525.47	52126.07
525.64	52067.56
525.81	52292.25
525.98	52392.89
526.16	52285.23
526.33	52191.61
526.50	52842.27
526.67	52683.12
526.84	52739.29
527.01	52584.82
527.18	52612.90
527.36	52645.67
527.53	52800.15
527.70	53221.44
527.87	53333.79
528.04	53277.61
528.21	53191.01
528.38	53158.25
528.55	53258.89
528.72	53179.31
528.89	53240.17
529.07	53132.50
529.24	53237.83
529.41	53371.24
529.58	53518.69
529.75	53450.81
529.92	53616.99
530.09	53401.66
530.26	53474.22
530.43	53710.61
530.60	53537.41
530.77	53738.70
530.94	53932.96
531.11	53633.38
531.28	54068.72
531.46	53963.39
531.63	53965.73
531.80	54052.33
531.97	54368.30
532.14	54209.15
532.31	54167.02
532.48	54150.63
532.65	54646.83
532.82	54305.11
532.99	54478.31
533.16	54295.75
533.33	54621.08
533.50	54656.19
533.67	54871.52
533.84	54422.14
534.01	54656.19
534.18	54656.19
534.35	54967.48
534.52	55107.91
534.69	55000.25
534.86	55114.94
535.03	54880.88
535.20	55100.89
535.37	54993.23
535.54	55075.15
535.71	55040.04
535.88	55508.14
536.05	55327.92
536.22	55356.01
536.38	55157.06
536.55	55498.78
536.72	55407.50
536.89	55187.49
537.06	55154.72
537.23	55526.87
537.40	55428.57
537.57	55510.49
537.74	55627.51
537.91	55854.54
538.08	55674.32
538.25	55615.81
538.42	55566.66
538.59	55847.52
538.75	55636.87
538.92	56114.34
539.09	55660.28
539.26	55959.87
539.43	55793.69
539.60	55990.30
539.77	55992.64
539.94	56320.31
540.11	56186.90
540.28	56212.65
540.44	56320.31
540.61	56044.13
540.78	56048.81
540.95	56222.01
541.12	56212.65
541.29	56395.21
541.46	56486.49
541.62	56420.95
541.79	56685.43
541.96	56282.86
542.13	56474.79
542.30	56638.62
542.47	56746.29
542.63	56797.78
542.80	56624.58
542.97	57003.75
543.14	57020.13
543.31	56884.38
543.48	57134.82
543.64	57366.53
543.81	57326.74
543.98	57263.55
544.15	57359.51
544.32	57275.25
544.48	57392.28
544.65	57216.74
544.82	57186.31
544.99	57038.86
545.16	57350.15
545.32	56992.04
545.49	57516.32
545.66	57511.64
545.83	57490.58
546.00	57652.08
546.16	57506.96
546.33	57080.98
546.50	57333.76
546.67	57478.88
546.83	57301.00
547.00	57455.47
547.17	57521.01
547.34	57607.61
547.50	57808.89
547.67	57965.71
547.84	57736.34
548.00	57911.88
548.17	58284.02
548.34	57897.83
548.51	58073.37
548.67	57909.53
548.84	57883.79
549.01	57963.37
549.18	58045.29
549.34	58127.20
549.51	58108.48
549.68	58197.42
549.84	58049.97
550.01	58225.51
550.18	58127.20
550.34	58106.14
550.51	58426.79
550.68	58052.31
550.84	58056.99
551.01	58389.34
551.18	58284.02
551.34	58433.81
551.51	58445.52
551.68	58438.50
551.84	58410.41
552.01	58129.54
552.18	58405.73
552.34	58279.34
552.51	58857.45
552.68	58473.60
552.84	58546.16
553.01	58576.59
553.18	58735.74
553.34	58745.11
553.51	58557.86
553.67	58649.14
553.84	58684.25
554.01	58944.05
554.17	58805.96
554.34	58890.22
554.51	58590.63
554.67	59032.99
554.84	58829.37
555.00	58864.47
555.17	58862.13
555.33	58880.86
555.50	58941.71
555.67	58852.77
555.83	58766.17
556.00	58918.31
556.16	59185.13
556.33	59194.49
556.50	59089.16
556.66	59189.81
556.83	58841.07
556.99	59068.10
557.16	59334.92
557.32	59297.47
557.49	59320.88
557.65	59262.36
557.82	59292.79
557.98	59264.70
558.15	59253.00
558.32	59206.19
558.48	59133.63
558.65	59014.27
558.81	59391.09
558.98	59243.64
559.14	59730.47
559.31	59363.01
559.47	59398.12
559.64	59590.04
559.80	59625.15
559.97	59613.44
560.13	59372.37
560.30	59552.59
560.46	59622.81
560.63	59578.34
560.79	59657.91
560.96	59601.74
561.12	59533.87
561.29	59700.04
561.45	59718.77
561.61	59697.70
561.78	59578.34
561.94	59620.47
562.11	59505.78
562.27	59568.97
562.44	59723.45
562.60	59913.03
562.77	59898.99
562.93	59763.24
563.10	59821.75
563.26	59714.09
563.42	60009.00
563.59	59819.41
563.75	59887.29
563.92	59966.87
564.08	59835.80
564.24	60051.12
564.41	60030.06
564.57	60039.42
564.74	59957.50
564.90	59985.59
565.07	59807.71
565.23	59798.35
565.39	59976.23
565.56	60023.04
565.72	59880.27
565.88	59906.01
566.05	59901.33
566.21	59945.80
566.38	60086.23
566.54	60278.16
566.70	60182.19
566.87	60346.03
567.03	59999.63
567.19	60383.48
567.36	59969.21
567.52	60245.39
567.68	60331.99
567.85	60163.47
568.01	60308.58
568.17	60109.64
568.34	60285.18
568.50	60072.19
568.66	60090.91
568.83	60397.52
568.99	60229.01
569.15	60289.86
569.32	59985.59
569.48	60126.02
569.64	60203.26
569.81	60369.44
569.97	60158.79
570.13	60278.16
570.30	60053.47
570.46	60205.60
570.62	60411.57
570.78	60334.33
570.95	60320.29
571.11	60563.70
571.27	60481.78
571.43	60374.12
571.60	60247.73
571.76	60371.78
571.92	60500.51
572.09	60385.82
572.25	60329.65
572.41	60275.82
572.57	60654.98
572.74	60530.93
572.90	60350.71
573.06	60631.58
573.22	60540.30
573.38	60404.55
573.55	60582.43
573.71	60671.37
573.87	60430.29
574.03	60376.46
574.20	60544.98
574.36	60427.95
574.52	60434.97
574.68	60779.03
574.84	60683.07
575.01	60706.47
575.17	60371.78
575.33	60402.21
575.49	60451.36
575.65	60519.23
575.82	60685.41
575.98	60582.43
576.14	60739.24
576.30	60781.37
576.46	60420.93
576.62	60537.96
576.79	60537.96
576.95	60495.83
577.11	60640.94
577.27	60814.14
577.43	60662.00
577.59	60622.22
577.75	60547.32
577.92	60692.43
578.08	60577.75
578.24	60711.16
578.40	60722.86
578.56	60750.94
578.72	60722.86
578.88	60912.44
579.04	60858.61
579.21	60811.80
579.37	60839.89
579.53	60629.24
579.69	60570.72
579.85	60671.37
580.01	60589.45
580.17	60687.75
580.33	60750.94
580.49	60640.94
580.65	60739.24
580.82	60750.94
580.98	60678.39
581.14	60683.07
581.30	60903.08
581.46	60727.54
581.62	60636.26
581.78	60626.90
581.94	60867.97
582.10	60666.69
582.26	60715.84
582.42	60580.09
582.58	60783.71
582.74	60940.53
582.90	60837.54
583.06	60699.45
583.22	60725.20
583.38	60760.31
583.54	60760.31
583.70	60825.84
583.86	60882.02
584.02	60837.54
584.18	60821.16
584.34	60828.18
584.50	60774.35
584.66	60603.49
584.82	60350.71
584.98	61106.71
585.14	60917.12
585.30	60708.82
585.46	60914.78
585.62	60907.76
585.78	61029.47
585.94	60725.20
586.10	60774.35
586.26	60999.04
586.42	60905.42
586.58	60945.21
586.74	60917.12
586.90	60830.52
587.06	60774.35
587.22	61003.72
587.38	60919.46
587.54	61057.56
587.70	61134.79
587.86	60872.65
588.02	60835.20
588.18	61104.37
588.34	60985.00
588.49	60870.31
