SpectraSuite Data File
++++++++++++++++++++++++++++++++++++
Date: Fri Oct 25 11:33:18 EDT 2013
User: price-jones
Dark Spectrum Present: No
Reference Spectrum Present: No
Number of Sampled Component Spectra: 1
Spectrometers: USB2+H05261
Integration Time (usec): 100000 (USB2+H05261)
Spectra Averaged: 1 (USB2+H05261)
Boxcar Smoothing: 0 (USB2+H05261)
Correct for Electrical Dark: No (USB2+H05261)
Strobe/Lamp Enabled: No (USB2+H05261)
Correct for Detector Non-linearity: No (USB2+H05261)
Correct for Stray Light: No (USB2+H05261)
Number of Pixels in Processed Spectrum: 2048
>>>>>Begin Processed Spectral Data<<<<<
365.73	292.57
365.92	292.57
366.12	292.57
366.32	198.95
366.52	147.45
366.72	203.63
366.91	131.07
367.11	161.50
367.31	159.16
367.51	191.92
367.70	114.69
367.90	234.05
368.10	135.75
368.30	156.82
368.49	168.52
368.69	210.65
368.89	217.67
369.09	194.26
369.28	217.67
369.48	201.29
369.68	227.03
369.87	276.18
370.07	269.16
370.27	257.46
370.47	327.68
370.66	486.83
370.86	404.91
371.06	524.28
371.25	547.69
371.45	554.71
371.65	521.94
371.84	559.39
372.04	557.05
372.24	538.32
372.44	571.09
372.63	676.41
372.83	550.03
373.03	629.60
373.22	601.52
373.42	624.92
373.62	624.92
373.81	676.41
374.01	667.05
374.21	676.41
374.40	596.84
374.60	692.80
374.79	636.63
374.99	629.60
375.19	638.97
375.38	617.90
375.58	634.29
375.78	655.35
375.97	667.05
376.17	706.84
376.37	704.50
376.56	706.84
376.76	613.22
376.95	681.10
377.15	725.57
377.35	685.78
377.54	730.25
377.74	727.91
377.93	692.80
378.13	699.82
378.33	748.97
378.52	751.31
378.72	706.84
378.91	704.50
379.11	770.04
379.31	636.63
379.50	697.48
379.70	732.59
379.89	720.88
380.09	713.86
380.28	737.27
380.48	781.74
380.68	798.12
380.87	758.33
381.07	807.48
381.26	816.85
381.46	746.63
381.65	788.76
381.85	763.01
382.04	821.53
382.24	840.25
382.43	795.78
382.63	767.70
382.83	788.76
383.02	842.59
383.22	887.06
383.41	798.12
383.61	767.70
383.80	894.08
384.00	816.85
384.19	833.23
384.39	849.61
384.58	858.98
384.78	788.76
384.97	926.85
385.17	830.89
385.36	800.46
385.56	842.59
385.75	772.38
385.95	793.44
386.14	973.66
386.34	954.94
386.53	915.15
386.72	882.38
386.92	903.45
387.11	924.51
387.31	910.47
387.50	851.96
387.70	854.30
387.89	985.37
388.09	889.40
388.28	915.15
388.48	894.08
388.67	917.49
388.86	959.62
389.06	849.61
389.25	961.96
389.45	1013.45
389.64	924.51
389.84	1013.45
390.03	1043.88
390.22	954.94
390.42	968.98
390.61	926.85
390.81	1034.52
391.00	968.98
391.19	957.28
391.39	985.37
391.58	1008.77
391.78	1011.11
391.97	1041.54
392.16	987.71
392.36	1083.67
392.55	1062.60
392.75	1086.01
392.94	1046.22
393.13	1095.37
393.33	1090.69
393.52	1128.14
393.71	1125.80
393.91	1121.12
394.10	1114.10
394.29	1123.46
394.49	1090.69
394.68	1116.44
394.88	1064.94
395.07	1153.88
395.26	1081.33
395.46	1055.58
395.65	1174.95
395.84	1191.33
396.04	1212.40
396.23	1163.25
396.42	1144.52
396.62	1135.16
396.81	1217.08
397.00	1261.55
397.19	1224.10
397.39	1224.10
397.58	1181.97
397.77	1184.31
397.97	1200.69
398.16	1275.59
398.35	1364.53
398.55	1266.23
398.74	1378.58
398.93	1317.72
399.12	1233.46
399.32	1221.76
399.51	1306.02
399.70	1348.15
399.90	1341.13
400.09	1378.58
400.28	1383.26
400.47	1390.28
400.67	1416.02
400.86	1394.96
401.05	1411.34
401.24	1469.86
401.44	1502.62
401.63	1476.88
401.82	1453.47
402.01	1394.96
402.21	1434.75
402.40	1413.68
402.59	1530.71
402.78	1451.13
402.97	1563.48
403.17	1502.62
403.36	1549.43
403.55	1586.88
403.74	1607.95
403.93	1600.93
404.13	1591.56
404.32	1600.93
404.51	1661.78
404.70	1633.69
404.89	1645.40
405.09	1680.50
405.28	1757.74
405.47	1720.29
405.66	1647.74
405.85	1767.10
406.05	1708.59
406.24	1675.82
406.43	1764.76
406.62	1795.19
406.81	1783.49
407.00	1919.24
407.20	1818.60
407.39	1722.63
407.58	1827.96
407.77	1790.51
407.96	1844.34
408.15	1937.96
408.34	1853.70
408.54	1980.09
408.73	1785.83
408.92	1977.75
409.11	1921.58
409.30	1975.41
409.49	2069.03
409.68	1984.77
409.87	2071.37
410.07	2033.93
410.26	2047.97
410.45	1937.96
410.64	2120.53
410.83	2155.63
411.02	2054.99
411.21	2181.38
411.40	2155.63
411.59	2246.91
411.78	2179.04
411.98	2218.83
412.17	2181.38
412.36	2303.09
412.55	2349.90
412.74	2277.34
412.93	2385.01
413.12	2244.57
413.31	2495.01
413.50	2387.35
413.69	2335.85
413.88	2511.39
414.07	2560.55
414.26	2471.61
414.45	2572.25
414.64	2487.99
414.83	2583.95
415.02	2572.25
415.22	2691.62
415.41	2661.19
415.60	2635.44
415.79	2635.44
415.98	2771.19
416.17	2590.97
416.36	2705.66
416.55	2684.59
416.74	2988.86
416.93	2738.43
417.12	2909.29
417.31	2829.71
417.50	2839.07
417.69	2979.50
417.88	2960.78
418.07	2888.22
418.26	3012.27
418.45	2974.82
418.64	3145.68
418.83	3101.21
419.02	2953.76
419.21	3073.12
419.39	3126.96
419.58	2995.89
419.77	3080.14
419.96	3243.98
420.15	3148.02
420.34	3194.83
420.53	3368.03
420.72	3236.96
420.91	3241.64
421.10	3403.14
421.29	3169.09
421.48	3318.88
421.67	3330.58
421.86	3183.13
422.05	3353.99
422.24	3215.90
422.43	3286.11
422.61	3393.78
422.80	3361.01
422.99	3508.46
423.18	3361.01
423.37	3435.91
423.56	3393.78
423.75	3389.10
423.94	3297.81
424.13	3246.32
424.32	3346.97
424.50	3342.28
424.69	3417.18
424.88	3459.31
425.07	3515.48
425.26	3365.69
425.45	3368.03
425.64	3356.33
425.83	3440.59
426.01	3569.32
426.20	3442.93
426.39	3419.52
426.58	3494.42
426.77	3456.97
426.96	3524.85
427.15	3471.01
427.33	3527.19
427.52	3559.95
427.71	3662.94
427.90	3555.27
428.09	3684.00
428.28	3627.83
428.46	3751.88
428.65	3662.94
428.84	3791.67
429.03	3875.93
429.22	3721.45
429.40	3885.29
429.59	3782.31
429.78	3644.21
429.97	3578.68
430.16	3623.15
430.34	3810.39
430.53	3981.25
430.72	3885.29
430.91	3955.51
431.10	3941.46
431.28	3777.62
431.47	4007.00
431.66	4079.55
431.85	3908.69
432.03	4152.11
432.22	4028.06
432.41	4173.18
432.60	4119.34
432.79	4070.19
432.97	4184.88
433.16	4196.58
433.35	4028.06
433.54	4156.79
433.72	4170.83
433.91	4273.82
434.10	4184.88
434.28	4105.30
434.47	4182.54
434.66	4259.78
434.85	4454.04
435.03	4503.19
435.22	4297.22
435.41	4573.41
435.59	4428.29
435.78	4397.87
435.97	4596.81
436.16	4393.19
436.34	4428.29
436.53	4493.83
436.72	4528.94
436.90	4573.41
437.09	4395.53
437.28	4442.34
437.46	4575.75
437.65	4461.06
437.84	4477.44
438.02	4608.51
438.21	4512.55
438.40	4512.55
438.58	4681.07
438.77	4762.99
438.96	4760.65
439.14	4959.60
439.33	4912.78
439.52	4926.83
439.70	4870.65
439.89	5018.11
440.08	4922.15
440.26	4973.64
440.45	5097.69
440.63	5121.09
440.82	5233.44
441.01	5151.52
441.19	5228.76
441.38	5088.32
441.57	5270.89
441.75	5439.40
441.94	5469.83
442.12	5364.51
442.31	5502.60
442.50	5481.53
442.68	5404.30
442.87	5416.00
443.05	5425.36
443.24	5537.71
443.43	5472.17
443.61	5589.20
443.80	5853.68
443.98	5593.88
444.17	5256.84
444.35	5455.79
444.54	5771.76
444.73	5540.05
444.91	5654.73
445.10	5666.44
445.28	5699.20
445.47	5589.20
445.65	5591.54
445.84	5720.27
446.02	5778.78
446.21	5872.40
446.39	5689.84
446.58	5916.87
446.77	5710.91
446.95	5605.58
447.14	5680.48
447.32	5774.10
447.51	5722.61
447.69	5701.54
447.88	5893.47
448.06	5776.44
448.25	5891.13
448.43	5863.04
448.62	5935.60
448.80	5783.46
448.99	5980.07
449.17	5774.10
449.36	5898.15
449.54	5954.32
449.73	6193.06
449.91	6003.47
450.10	6171.99
450.28	6249.23
450.46	6324.13
450.65	6120.50
450.83	6239.87
451.02	6125.18
451.20	6181.35
451.39	6197.74
451.57	6289.02
451.76	6043.26
451.94	6263.27
452.13	6246.89
452.31	6235.19
452.49	6223.48
452.68	6387.32
452.86	6396.68
453.05	6490.31
453.23	6359.24
453.42	6321.79
453.60	6415.41
453.78	6555.84
453.97	6490.31
454.15	6291.36
454.34	6359.24
454.52	6525.41
454.70	6462.22
454.89	6579.25
455.07	6485.62
455.26	6511.37
455.44	6724.36
455.62	6736.06
455.81	6661.16
455.99	6867.13
456.17	6787.55
456.36	6656.48
456.54	6918.62
456.73	6817.98
456.91	7054.37
457.09	6848.41
457.28	7066.08
457.46	6946.71
457.64	7267.36
457.83	7213.53
458.01	7178.42
458.19	7288.43
458.38	7180.76
458.56	7281.41
458.74	7353.96
458.93	7243.96
459.11	7349.28
459.29	7295.45
459.48	7297.79
459.66	7201.83
459.84	7618.44
460.03	7489.71
460.21	7426.52
460.39	7309.49
460.57	7564.61
460.76	7506.10
460.94	7606.74
461.12	7545.89
461.31	7475.67
461.49	7609.08
461.67	7452.27
461.85	7700.36
462.04	7632.49
462.22	8126.34
462.40	7648.87
462.59	7719.09
462.77	7775.26
462.95	7969.52
463.13	7822.07
463.32	7737.81
463.50	7817.39
463.68	8070.17
463.86	7866.54
464.05	7770.58
464.23	7936.76
464.41	7943.78
464.59	7861.86
464.78	8187.19
464.96	7990.59
465.14	7899.31
465.32	8140.38
465.50	8205.92
465.69	8198.90
465.87	8191.88
466.05	8177.83
466.23	8241.03
466.41	8393.16
466.60	8418.91
466.78	8161.45
466.96	8238.69
467.14	8336.99
467.32	8449.33
467.51	8421.25
467.69	8222.30
467.87	8336.99
468.05	8547.64
468.23	8456.36
468.41	8304.22
468.60	8554.66
468.78	8425.93
468.96	8613.17
469.14	8627.21
469.32	8711.47
469.50	8526.57
469.69	8744.24
469.87	8987.66
470.05	8606.15
470.23	8617.85
470.41	8828.50
470.59	8755.94
470.77	8725.52
470.95	9050.85
471.14	9128.09
471.32	8877.65
471.50	9008.72
471.68	9312.99
471.86	9191.28
472.04	9179.58
472.22	9261.50
472.40	9177.24
472.58	9116.39
472.77	9301.29
472.95	9469.81
473.13	9755.35
473.31	9469.81
473.49	9528.32
473.67	9516.62
473.85	9673.43
474.03	9830.25
474.21	9839.61
474.39	9888.76
474.57	9863.02
474.75	9935.57
474.93	10279.63
475.12	9982.38
475.30	10104.09
475.48	10122.82
475.66	10160.27
475.84	9966.00
476.02	10384.96
476.20	10345.17
476.38	10539.43
476.56	10705.61
476.74	10789.87
476.92	10485.60
477.10	10682.20
477.28	10789.87
477.46	10724.33
477.64	10995.84
477.82	10871.79
478.00	11208.83
478.18	11075.42
478.36	11492.03
478.54	11580.97
478.72	11302.45
478.90	11674.59
479.08	11637.14
479.26	11761.19
479.44	11950.78
479.62	11791.62
479.80	12123.98
479.98	12241.00
480.16	12444.63
480.34	12147.38
480.52	12606.13
480.70	12439.95
480.88	12292.49
481.06	12353.35
481.24	12622.51
481.41	12503.14
481.59	13121.04
481.77	13032.10
481.95	13097.64
482.13	13104.66
482.31	13296.58
482.49	13626.60
482.67	13535.32
482.85	13610.22
483.03	13551.70
483.21	13640.64
483.39	13980.02
483.57	13696.82
483.74	14045.55
483.92	14075.98
484.10	14080.66
484.28	14272.59
484.46	14410.68
484.64	14906.87
484.82	14682.18
485.00	14614.30
485.18	14864.74
485.35	15316.47
485.53	15131.56
485.71	15398.38
485.89	15435.83
486.07	15606.69
486.25	15363.28
486.43	15494.35
486.61	15648.82
486.78	15866.49
486.96	16184.80
487.14	16074.80
487.32	16362.69
487.50	16638.87
487.68	16386.09
487.85	16772.28
488.03	16872.92
488.21	17322.30
488.39	17095.27
488.57	17020.38
488.75	17104.64
488.92	17539.97
489.10	17774.03
489.28	17516.57
489.46	17802.11
489.64	17600.83
489.81	18307.67
489.99	18012.76
490.17	18200.01
490.35	18569.81
490.53	18455.12
490.70	18813.23
490.88	18822.59
491.06	19243.88
491.24	18937.27
491.41	19143.24
491.59	19513.05
491.77	19194.73
491.95	19293.04
492.13	19583.26
492.30	19896.89
492.48	20027.96
492.66	19777.53
492.84	20053.71
493.01	20505.43
493.19	20266.70
493.37	20299.47
493.54	20339.26
493.72	20954.82
493.90	20805.02
494.08	20741.83
494.25	20992.26
494.43	21275.47
494.61	21509.52
494.79	21659.32
494.96	21362.07
495.14	21827.84
495.32	21895.71
495.49	21876.99
495.67	22031.46
495.85	22267.86
496.02	21884.01
496.20	22656.39
496.38	22403.61
496.55	22698.52
496.73	23342.16
496.91	22733.62
497.09	22911.50
497.26	23112.79
497.44	23061.30
497.62	23253.22
497.79	23625.37
497.97	23480.25
498.14	23672.18
498.32	23983.47
498.50	23768.14
498.67	24053.69
498.85	23892.19
499.03	24231.57
499.20	24318.17
499.38	24622.44
499.56	24545.20
499.73	24540.52
499.91	24648.18
500.08	24706.70
500.26	24730.10
500.44	25057.78
500.61	25111.61
500.79	24996.92
500.97	25092.88
501.14	25579.71
501.32	25450.99
501.49	25710.78
501.67	25804.41
501.84	25986.97
502.02	25998.67
502.20	26001.01
502.37	26073.57
502.55	26052.50
502.72	26127.40
502.90	25935.48
503.07	26382.52
503.25	26214.00
503.43	26309.96
503.60	26682.11
503.78	26867.01
503.95	26649.34
504.13	26843.60
504.30	26771.05
504.48	26787.43
504.65	26925.52
504.83	27040.21
505.01	27679.18
505.18	27995.15
505.36	27152.55
505.53	27559.81
505.71	27447.46
505.88	27604.28
506.06	27419.38
506.23	27707.26
506.41	27660.45
506.58	28072.39
506.76	28283.03
506.93	28411.76
507.11	28009.19
507.28	28510.07
507.46	28393.04
507.63	28718.37
507.81	28367.29
507.98	28266.65
508.16	28577.94
508.33	28760.50
508.50	28989.88
508.68	28999.24
508.85	29359.68
509.03	28826.04
509.20	29429.90
509.38	29553.94
509.55	29724.80
509.73	29633.52
509.90	29755.23
510.08	29876.94
510.25	29535.22
510.42	29764.59
510.60	29773.95
510.77	29881.62
510.95	30260.79
511.12	30246.74
511.30	30075.88
511.47	30548.67
511.64	30237.38
511.82	30787.41
511.99	30602.50
512.17	30689.10
512.34	30497.18
512.51	30801.45
512.69	30916.14
512.86	30998.06
513.04	31094.02
513.21	31145.51
513.38	31295.30
513.56	31405.31
513.73	31250.83
513.90	30874.01
514.08	31491.91
514.25	31466.16
514.43	31449.78
514.60	31674.47
514.77	31718.94
514.95	32039.59
515.12	31730.64
515.29	31627.66
515.47	31810.22
515.64	32114.49
515.81	32039.59
515.99	32224.50
516.16	32868.14
516.33	32355.57
516.51	32929.00
516.68	32664.52
516.85	32844.74
517.03	32723.03
517.20	32910.27
517.37	33022.62
517.54	33069.43
517.72	32776.86
517.89	32957.08
518.06	32917.29
518.24	33163.05
518.41	33167.73
518.58	33635.84
518.75	33317.53
518.93	33708.40
519.10	33734.14
519.27	33778.61
519.45	33706.05
519.62	33993.94
519.79	34127.35
519.96	33853.51
520.14	34232.68
520.31	33722.44
520.48	34235.02
520.65	34653.97
520.83	34583.76
521.00	34747.59
521.17	34389.49
521.34	34565.03
521.52	34546.31
521.69	35145.48
521.86	34866.96
522.03	35367.84
522.20	35182.93
522.38	35508.27
522.55	35269.53
522.72	35318.68
522.89	35257.83
523.07	35700.19
523.24	35711.89
523.41	35665.08
523.58	35463.80
523.75	35714.23
523.92	35739.98
524.10	35854.67
524.27	36048.93
524.44	36116.81
524.61	36282.98
524.78	36362.56
524.96	36449.16
525.13	36208.09
525.30	36385.97
525.47	36048.93
525.64	36414.05
525.81	36549.81
525.98	36797.90
526.16	36488.95
526.33	36376.61
526.50	37020.25
526.67	36563.85
526.84	36985.15
527.01	36950.04
527.18	36889.18
527.36	37254.31
527.53	37205.16
527.70	37165.37
527.87	37198.13
528.04	37258.99
528.21	37493.04
528.38	37284.73
528.55	37312.82
528.72	37397.08
528.89	37336.23
529.07	37607.73
529.24	37455.59
529.41	37858.17
529.58	37972.85
529.75	37940.08
529.92	38061.79
530.09	37713.05
530.26	37830.08
530.43	38141.37
530.60	37727.10
530.77	37502.40
530.94	38309.89
531.11	37694.33
531.28	38314.57
531.46	38419.89
531.63	38398.83
531.80	38038.39
531.97	38682.03
532.14	38485.43
532.31	38469.04
532.48	38836.51
532.65	38632.88
532.82	39098.65
532.99	38986.30
533.16	38843.53
533.33	38904.38
533.50	39342.06
533.67	39084.61
533.84	39133.76
534.01	38981.62
534.18	39150.14
534.35	39201.63
534.52	39285.89
534.69	39798.47
534.86	39852.30
535.03	39428.66
535.20	39531.65
535.37	39768.04
535.54	39934.22
535.71	39803.15
535.88	39981.03
536.05	39667.40
536.22	39908.47
536.38	40030.18
536.55	39964.65
536.72	39828.90
536.89	39999.76
537.06	40325.09
537.23	40612.98
537.40	40154.23
537.57	40013.80
537.74	40154.23
537.91	40818.94
538.08	40517.01
538.25	40273.60
538.42	40629.36
538.59	40734.68
538.75	40793.20
538.92	40706.60
539.09	40577.87
539.26	40708.94
539.43	40596.59
539.60	40638.72
539.77	40919.59
539.94	41153.64
540.11	41104.49
540.28	41198.11
540.44	40760.43
540.61	40797.88
540.78	41198.11
540.95	41254.28
541.12	41851.12
541.29	41062.36
541.46	41331.52
541.62	41542.17
541.79	41684.94
541.96	41324.50
542.13	41397.06
542.30	41780.90
542.47	41628.77
542.63	41759.84
542.80	41535.15
542.97	42099.22
543.14	42169.43
543.31	42054.75
543.48	42059.43
543.64	42766.27
543.81	42747.54
543.98	42150.71
544.15	42024.32
544.32	42361.36
544.48	42876.27
544.65	42394.12
544.82	42717.12
544.99	42216.24
545.16	42480.72
545.32	42363.70
545.49	43157.14
545.66	43126.71
545.83	42878.61
546.00	42934.79
546.16	43122.03
546.33	43021.39
546.50	42859.89
546.67	42855.21
546.83	42251.35
547.00	43262.46
547.17	43077.56
547.34	42993.30
547.50	43358.42
547.67	43456.73
547.84	43295.23
548.00	43065.86
548.17	43562.05
548.34	43328.00
548.51	43381.83
548.67	43753.97
548.84	43456.73
549.01	43505.88
549.18	43789.08
549.34	43718.87
549.51	43892.07
549.68	43938.88
549.84	44051.22
550.01	44271.23
550.18	43468.43
550.34	43777.38
550.51	44041.86
550.68	43985.69
550.84	43896.75
551.01	44198.68
551.18	44009.09
551.34	43838.23
551.51	43901.43
551.68	44062.93
551.84	43952.92
552.01	44013.77
552.18	44357.83
552.34	44168.25
552.51	44418.69
552.68	44304.00
552.84	44430.39
553.01	44715.93
553.18	44601.25
553.34	44524.01
553.51	43849.94
553.67	44444.43
553.84	44624.65
554.01	44650.40
554.17	44769.77
554.34	45186.38
554.51	44521.67
554.67	45099.78
554.84	44690.19
555.00	45226.17
555.17	44802.53
555.33	45008.50
555.50	44910.20
555.67	45099.78
555.83	44919.56
556.00	45024.89
556.16	45794.92
556.33	45563.21
556.50	44788.49
556.66	44903.18
556.83	45298.73
556.99	45518.74
557.16	45338.52
557.32	45551.51
557.49	45308.09
557.65	45184.04
557.82	45214.47
557.98	45291.71
558.15	45579.59
558.32	45705.98
558.48	45207.45
558.65	45851.09
558.81	45504.70
558.98	45481.29
559.14	45474.27
559.31	45511.72
559.47	45441.50
559.64	45701.30
559.80	46227.92
559.97	45811.31
560.13	45523.42
560.30	45595.98
560.46	46010.25
560.63	46082.81
560.79	46024.29
560.96	46209.20
561.12	46038.34
561.29	45837.05
561.45	46230.26
561.61	46143.66
561.78	45853.44
561.94	45933.01
562.11	45911.95
562.27	46124.94
562.44	45989.19
562.60	45965.78
562.77	46064.08
562.93	45881.52
563.10	46834.12
563.26	46057.06
563.42	46651.56
563.59	46094.51
563.75	46026.63
563.92	46270.05
564.08	46487.72
564.24	46337.93
564.41	46237.28
564.57	46546.23
564.74	46150.68
564.90	46272.39
565.07	46649.22
565.23	46307.50
565.39	46131.96
565.56	46918.38
565.72	46195.15
565.88	46469.00
566.05	46527.51
566.21	46295.80
566.38	46948.81
566.54	46649.22
566.70	46298.14
566.87	46909.02
567.03	46244.30
567.19	46857.52
567.36	46946.47
567.52	46642.20
567.68	47026.04
567.85	46567.30
568.01	46674.96
568.17	46745.18
568.34	46997.96
568.50	46630.49
568.66	46515.81
568.83	46621.13
568.99	46665.60
569.15	46703.05
569.32	46649.22
569.48	46583.68
569.64	46918.38
569.81	46951.15
569.97	47229.67
570.13	46965.19
570.30	46883.27
570.46	46789.65
570.62	46880.93
570.78	46761.56
570.95	47105.62
571.11	46857.52
571.27	46808.37
571.43	46667.94
571.60	47012.00
571.76	46777.95
571.92	46862.21
572.09	46869.23
572.25	47189.88
572.41	46567.30
572.57	47037.75
572.74	47536.28
572.90	46850.50
573.06	46801.35
573.22	47437.98
573.38	47337.33
573.55	47243.71
573.71	47735.23
573.87	47508.19
574.03	47393.51
574.20	47536.28
574.36	47342.02
574.52	47313.93
574.68	47091.58
574.84	47606.50
575.01	47660.33
575.17	47377.12
575.33	47196.90
575.49	47342.02
575.65	47363.08
575.82	47466.06
575.98	47079.88
576.14	47573.73
576.30	47760.97
576.46	47349.04
576.62	47189.88
576.79	47463.72
576.95	46909.02
577.11	47124.35
577.27	47122.01
577.43	47278.82
577.59	47384.15
577.75	47168.82
577.92	47295.21
578.08	47463.72
578.24	47295.21
578.40	47571.39
578.56	47033.07
578.72	47131.37
578.88	47978.64
579.04	47849.91
579.21	47019.02
579.37	47423.93
579.53	47746.93
579.69	47508.19
579.85	47035.41
580.01	47255.42
580.17	47311.59
580.33	47330.31
580.49	47042.43
580.65	47948.21
580.82	47756.29
580.98	47412.23
581.14	46841.14
581.30	47760.97
581.46	47615.86
581.62	47966.94
581.78	47171.16
581.94	47489.47
582.10	47470.75
582.26	47592.45
582.42	47580.75
582.58	47735.23
582.74	47758.63
582.90	47529.26
583.06	47634.58
583.22	47379.46
583.38	47337.33
583.54	47576.07
583.70	47480.11
583.86	47515.22
584.02	47775.02
584.18	47620.54
584.34	47807.78
584.50	48041.84
584.66	48034.81
584.82	47775.02
584.98	47847.57
585.14	47707.14
585.30	47562.03
585.46	47863.96
585.62	47552.66
585.78	47632.24
585.94	47667.35
586.10	47512.88
586.26	47814.80
586.42	47845.23
586.58	48044.18
586.74	47718.84
586.90	47526.92
587.06	47349.04
587.22	47852.25
587.38	48076.94
587.54	48189.29
587.70	48247.80
587.86	47917.79
588.02	47711.82
588.18	47849.91
588.34	47784.38
588.49	47557.35
588.65	47866.30
588.81	47498.83
588.97	47746.93
589.13	47629.90
589.29	48072.26
589.45	48231.42
589.61	47744.59
589.77	47906.08
589.93	48390.58
