SpectraSuite Data File
++++++++++++++++++++++++++++++++++++
Date: Fri Oct 25 11:23:52 EDT 2013
User: price-jones
Dark Spectrum Present: No
Reference Spectrum Present: No
Number of Sampled Component Spectra: 1
Spectrometers: USB2+H05261
Integration Time (usec): 100000 (USB2+H05261)
Spectra Averaged: 1 (USB2+H05261)
Boxcar Smoothing: 0 (USB2+H05261)
Correct for Electrical Dark: No (USB2+H05261)
Strobe/Lamp Enabled: No (USB2+H05261)
Correct for Detector Non-linearity: No (USB2+H05261)
Correct for Stray Light: No (USB2+H05261)
Number of Pixels in Processed Spectrum: 2048
>>>>>Begin Processed Spectral Data<<<<<
365.73	236.39
365.92	236.39
366.12	236.39
366.32	159.16
366.52	133.41
366.72	184.90
366.91	95.96
367.11	112.35
367.31	133.41
367.51	72.56
367.70	154.48
367.90	100.64
368.10	196.60
368.30	81.92
368.49	107.66
368.69	126.39
368.89	126.39
369.09	142.77
369.28	135.75
369.48	248.10
369.68	168.52
369.87	191.92
370.07	217.67
370.27	154.48
370.47	306.61
370.66	519.60
370.86	601.52
371.06	627.26
371.25	674.07
371.45	582.79
371.65	585.13
371.84	692.80
372.04	676.41
372.24	690.46
372.44	669.39
372.63	732.59
372.83	828.55
373.03	753.65
373.22	863.66
373.42	746.63
373.62	828.55
373.81	798.12
374.01	784.08
374.21	800.46
374.40	816.85
374.60	833.23
374.79	770.04
374.99	791.10
375.19	851.96
375.38	847.27
375.58	821.53
375.78	863.66
375.97	828.55
376.17	933.87
376.37	866.00
376.56	877.70
376.76	908.13
376.95	830.89
377.15	870.68
377.35	884.72
377.54	814.51
377.74	917.49
377.93	887.06
378.13	968.98
378.33	973.66
378.52	901.11
378.72	1006.43
378.91	898.77
379.11	898.77
379.31	901.11
379.50	922.17
379.70	896.43
379.89	894.08
380.09	1034.52
380.28	1060.26
380.48	973.66
380.68	896.43
380.87	938.55
381.07	999.41
381.26	959.62
381.46	985.37
381.65	997.07
381.85	1039.20
382.04	1097.71
382.24	1102.39
382.43	994.73
382.63	1086.01
382.83	1135.16
383.02	1114.10
383.22	1149.20
383.41	1121.12
383.61	1109.41
383.80	1149.20
384.00	1118.78
384.19	1135.16
384.39	1121.12
384.58	1090.69
384.78	1067.28
384.97	1146.86
385.17	1163.25
385.36	1146.86
385.56	1179.63
385.75	1160.91
385.95	1153.88
386.14	1186.65
386.34	1247.51
386.53	1207.72
386.72	1270.91
386.92	1254.53
387.11	1226.44
387.31	1221.76
387.50	1174.95
387.70	1181.97
387.89	1270.91
388.09	1322.40
388.28	1231.12
388.48	1245.16
388.67	1280.27
388.86	1327.08
389.06	1287.29
389.25	1306.02
389.45	1434.75
389.64	1289.64
389.84	1315.38
390.03	1341.13
390.22	1427.73
390.42	1432.41
390.61	1348.15
390.81	1460.49
391.00	1401.98
391.19	1441.77
391.39	1427.73
391.58	1441.77
391.78	1476.88
391.97	1533.05
392.16	1511.99
392.36	1474.54
392.55	1544.75
392.75	1554.12
392.94	1535.39
393.13	1483.90
393.33	1476.88
393.52	1540.07
393.71	1551.78
393.91	1542.41
394.10	1549.43
394.29	1488.58
394.49	1598.59
394.68	1572.84
394.88	1579.86
395.07	1631.35
395.26	1640.72
395.46	1668.80
395.65	1734.34
395.84	1624.33
396.04	1832.64
396.23	1785.83
396.42	1795.19
396.62	1799.87
396.81	1884.13
397.00	1732.00
397.19	1853.70
397.39	1813.92
397.58	1820.94
397.77	1760.08
397.97	1994.14
398.16	1888.81
398.35	1881.79
398.55	1886.47
398.74	1863.07
398.93	1900.52
399.12	1975.41
399.32	1884.13
399.51	1898.17
399.70	2043.29
399.90	2019.88
400.09	2094.78
400.28	2141.59
400.47	1949.67
400.67	2022.22
400.86	2045.63
401.05	1984.77
401.24	2064.35
401.44	2141.59
401.63	2143.93
401.82	2083.08
402.01	2139.25
402.21	2099.46
402.40	2188.40
402.59	2146.27
402.78	2188.40
402.97	2172.02
403.17	2221.17
403.36	2211.81
403.55	2275.00
403.74	2417.77
403.93	2387.35
404.13	2445.86
404.32	2427.14
404.51	2473.95
404.70	2466.92
404.89	2464.58
405.09	2525.44
405.28	2562.89
405.47	2534.80
405.66	2567.57
405.85	2562.89
406.05	2597.99
406.24	2630.76
406.43	2672.89
406.62	2626.08
406.81	2630.76
407.00	2562.89
407.20	2576.93
407.39	2672.89
407.58	2689.28
407.77	2733.75
407.96	2642.46
408.15	2703.32
408.34	2822.69
408.54	2832.05
408.73	2827.37
408.92	2815.66
409.11	2789.92
409.30	2916.31
409.49	2953.76
409.68	3080.14
409.87	2944.39
410.07	2925.67
410.26	3005.25
410.45	2967.80
410.64	3021.63
410.83	3096.53
411.02	3023.97
411.21	3162.06
411.40	3145.68
411.59	3108.23
411.78	3290.79
411.98	3143.34
412.17	3332.92
412.36	3398.46
412.55	3377.39
412.74	3449.95
412.93	3304.84
413.12	3438.25
413.31	3520.17
413.50	3499.10
413.69	3510.80
413.88	3466.33
414.07	3548.25
414.26	3702.73
414.45	3695.71
414.64	3705.07
414.83	3702.73
415.02	3840.82
415.22	3805.71
415.41	3866.56
415.60	3810.39
415.79	3892.31
415.98	4053.81
416.17	4056.15
416.36	3857.20
416.55	3955.51
416.74	4084.23
416.93	4072.53
417.12	4086.58
417.31	4021.04
417.50	4133.39
417.69	4365.10
417.88	4238.71
418.07	4264.46
418.26	4297.22
418.45	4346.37
418.64	4475.10
418.83	4390.84
419.02	4390.84
419.21	4402.55
419.39	4589.79
419.58	4472.76
419.77	4496.17
419.96	4535.96
420.15	4652.98
420.34	4458.72
420.53	4671.71
420.72	4781.71
420.91	4702.14
421.10	4704.48
421.29	4732.56
421.48	4620.22
421.67	4791.08
421.86	4856.61
422.05	4767.67
422.24	4870.65
422.43	4816.82
422.61	4873.00
422.80	4929.17
422.99	4926.83
423.18	4985.34
423.37	4933.85
423.56	4901.08
423.75	4966.62
423.94	4851.93
424.13	4629.58
424.32	4720.86
424.50	5123.43
424.69	5100.03
424.88	5163.22
425.07	4889.38
425.26	4954.91
425.45	5013.43
425.64	4971.30
425.83	4997.04
426.01	5093.01
426.20	4987.68
426.39	5006.41
426.58	5109.39
426.77	5093.01
426.96	5125.77
427.15	5121.09
427.33	5083.64
427.52	5324.72
427.71	5247.48
427.90	5118.75
428.09	5359.83
428.28	5474.51
428.46	5158.54
428.65	5418.34
428.84	5628.99
429.03	5607.92
429.22	5430.04
429.40	5565.79
429.59	5666.44
429.78	5146.84
429.97	5313.02
430.16	5420.68
430.34	5535.37
430.53	5729.63
430.72	5856.02
430.91	5612.60
431.10	5537.71
431.28	5647.71
431.47	5734.31
431.66	5856.02
431.85	5746.02
432.03	5980.07
432.22	6078.37
432.41	5884.11
432.60	5956.66
432.79	6005.81
432.97	5968.37
433.16	6061.99
433.35	5968.37
433.54	6069.01
433.72	6193.06
433.91	6071.35
434.10	6223.48
434.28	6024.54
434.47	6331.15
434.66	6274.98
434.85	6260.93
435.03	6300.72
435.22	6342.85
435.41	6555.84
435.59	6384.98
435.78	6377.96
435.97	6455.20
436.16	6462.22
436.34	6600.31
436.53	6551.16
436.72	6656.48
436.90	6452.86
437.09	6583.93
437.28	6633.08
437.46	6642.44
437.65	6579.25
437.84	6780.53
438.02	6642.44
438.21	6911.60
438.40	6738.40
438.58	7089.48
438.77	7063.74
438.96	7023.95
439.14	7185.44
439.33	6949.05
439.52	7204.17
439.70	7250.98
439.89	7262.68
440.08	7311.83
440.26	7548.23
440.45	7286.09
440.63	7332.90
440.82	7660.57
441.01	7508.44
441.19	7763.56
441.38	7700.36
441.57	7824.41
441.75	7747.17
441.94	7875.90
442.12	7946.12
442.31	7812.71
442.50	8049.10
442.68	7903.99
442.87	8088.89
443.05	8229.32
443.24	8142.72
443.43	8187.19
443.61	8236.35
443.80	8468.06
443.98	8166.13
444.17	7981.23
444.35	8329.97
444.54	8365.07
444.73	8180.17
444.91	8432.95
445.10	8505.51
445.28	8465.72
445.47	8215.28
445.65	8451.67
445.84	8533.59
446.02	8376.78
446.21	8430.61
446.39	8463.38
446.58	8564.02
446.77	8571.04
446.95	8346.35
447.14	8404.86
447.32	8430.61
447.51	8524.23
447.69	8458.70
447.88	8500.83
448.06	8496.14
448.25	8589.77
448.43	8664.66
448.62	8697.43
448.80	8505.51
448.99	8732.54
449.17	8610.83
449.36	8854.25
449.54	8865.95
449.73	9104.68
449.91	9097.66
450.10	9001.70
450.28	9069.58
450.46	9125.75
450.65	8985.32
450.83	9186.60
451.02	9055.53
451.20	9291.93
451.39	9268.52
451.57	9158.52
451.76	9085.96
451.94	9202.99
452.13	9357.46
452.31	9404.27
452.49	9263.84
452.68	9401.93
452.86	9315.33
453.05	9514.28
453.23	9591.52
453.42	9561.09
453.60	9486.19
453.78	9591.52
453.97	9483.85
454.15	9554.07
454.34	9619.60
454.52	9797.48
454.70	9694.50
454.89	9661.73
455.07	9781.10
455.26	9596.20
455.44	10094.73
455.62	9989.41
455.81	9898.13
455.99	10061.96
456.17	10073.67
456.36	10153.24
456.54	10305.38
456.73	10258.57
456.91	10436.45
457.09	10431.77
457.28	10593.26
457.46	10499.64
457.64	10586.24
457.83	10644.76
458.01	10483.26
458.19	10759.44
458.38	10527.73
458.56	10644.76
458.74	10757.10
458.93	10792.21
459.11	10698.59
459.29	10721.99
459.48	10736.04
459.66	10918.60
459.84	10998.18
460.03	11000.52
460.21	11178.40
460.39	10902.22
460.57	11159.67
460.76	11260.32
460.94	11255.64
461.12	11234.57
461.31	11335.21
461.49	11112.86
461.67	11229.89
461.85	11302.45
462.04	11159.67
462.22	11683.95
462.40	11674.59
462.59	11829.07
462.77	11419.47
462.95	11620.76
463.13	11468.62
463.32	11599.70
463.50	11733.11
463.68	11730.76
463.86	11702.68
464.05	11805.66
464.23	11770.55
464.41	11878.22
464.59	11751.83
464.78	12002.27
464.96	12116.95
465.14	12035.03
465.32	12077.16
465.50	12194.19
465.69	12241.00
465.87	12198.87
466.05	12180.15
466.23	12540.59
466.41	12278.45
466.60	12369.73
466.78	12278.45
466.96	12161.42
467.14	12549.95
467.32	12428.24
467.51	12571.02
467.69	12152.06
467.87	12659.96
468.05	12444.63
468.23	12648.26
468.41	12276.11
468.60	12877.63
468.78	12891.67
468.96	12769.96
469.14	12652.94
469.32	12938.48
469.50	12868.27
469.69	12954.87
469.87	13252.11
470.05	13165.51
470.23	12989.97
470.41	13294.24
470.59	13238.07
470.77	13282.54
470.95	13233.39
471.14	13827.88
471.32	13284.88
471.50	13788.10
471.68	13472.12
471.86	13774.05
472.04	13750.65
472.22	14277.27
472.40	13727.24
472.58	13741.29
472.77	14078.32
472.95	14249.18
473.13	14794.53
473.31	14111.09
473.49	14277.27
473.67	14024.49
473.85	14401.32
474.03	14691.54
474.21	14682.18
474.39	14780.48
474.57	14871.76
474.75	15166.67
474.93	15173.69
475.12	15037.94
475.30	15169.01
475.48	15040.28
475.66	15363.28
475.84	15140.93
476.02	15302.42
476.20	15487.32
476.38	15791.59
476.56	16046.71
476.74	15920.32
476.92	15875.85
477.10	15770.53
477.28	16126.29
477.46	16264.38
477.64	16456.31
477.82	16573.33
478.00	17060.16
478.18	16592.06
478.36	16992.29
478.54	17172.51
478.72	17146.76
478.90	17657.00
479.08	17743.60
479.26	17607.85
479.44	17799.77
479.62	17820.84
479.80	18092.34
479.98	18185.96
480.16	18534.70
480.34	18284.26
480.52	18586.19
480.70	18740.67
480.88	18153.20
481.06	19101.11
481.24	19073.03
481.41	19253.25
481.59	19571.56
481.77	19466.24
481.95	19365.59
482.13	19964.77
482.31	19658.16
482.49	20355.64
482.67	20212.87
482.85	20844.81
483.03	21027.37
483.21	20891.62
483.39	21097.59
483.57	20952.48
483.74	21284.83
483.92	21453.35
484.10	21682.72
484.28	21624.21
484.46	21851.24
484.64	22207.00
484.82	21841.88
485.00	22160.19
485.18	23204.07
485.35	23016.83
485.53	22857.67
485.71	23342.16
485.89	23234.50
486.07	23318.76
486.25	23524.72
486.43	23585.58
486.61	24107.52
486.78	24128.58
486.96	24166.03
487.14	24781.59
487.32	24748.82
487.50	24709.04
487.68	25008.62
487.85	25394.81
488.03	25682.70
488.21	26164.85
488.39	25951.86
488.57	26377.84
488.75	26150.81
488.92	26780.41
489.10	26443.37
489.28	27030.85
489.46	27346.82
489.64	27433.42
489.81	27587.89
489.99	27704.92
490.17	27878.12
490.35	28163.67
490.53	28336.87
490.70	28697.31
490.88	28425.81
491.06	28978.17
491.24	28772.21
491.41	29160.73
491.59	29661.61
491.77	29165.42
491.95	29916.73
492.13	30005.67
492.30	30197.59
492.48	30003.33
492.66	30335.68
492.84	30398.88
493.01	30787.41
493.19	30871.67
493.37	31042.53
493.54	31510.63
493.72	31519.99
493.90	31611.28
494.08	31957.67
494.25	32107.47
494.43	32280.67
494.61	32470.25
494.79	32856.44
494.96	32484.30
495.14	32795.59
495.32	33539.88
495.49	33186.46
495.67	33493.07
495.85	33219.22
496.02	34080.54
496.20	33977.56
496.38	34354.38
496.55	34293.53
496.73	34752.27
496.91	34738.23
497.09	35063.57
497.26	34829.51
497.44	35005.05
497.62	35510.61
497.79	35814.88
497.97	35665.08
498.14	35983.40
498.32	36559.17
498.50	36341.50
498.67	36734.71
498.85	36629.38
499.03	36980.46
499.20	36636.41
499.38	36924.29
499.56	37046.00
499.73	37581.98
499.91	37689.65
500.08	37853.48
500.26	37982.21
500.44	37790.29
500.61	37825.40
500.79	37874.55
500.97	38686.71
501.14	38951.20
501.32	38719.48
501.49	38682.03
501.67	38906.73
501.84	38885.66
502.02	39208.65
502.20	39608.89
502.37	39339.72
502.55	39166.52
502.72	39751.66
502.90	39412.28
503.07	39505.90
503.25	39948.26
503.43	39929.54
503.60	40250.19
503.78	40407.01
503.95	39880.39
504.13	40722.98
504.30	40751.07
504.48	40521.69
504.65	41132.57
504.83	41490.68
505.01	41415.78
505.18	41123.21
505.36	41511.74
505.53	41556.21
505.71	42024.32
505.88	42078.15
506.06	41750.48
506.23	41961.12
506.41	41841.76
506.58	42117.94
506.76	42108.58
506.93	42745.20
507.11	42508.81
507.28	43138.41
507.46	43337.36
507.63	43283.53
507.81	43522.26
507.98	43187.56
508.16	43063.52
508.33	43704.82
508.50	43957.60
508.68	43714.19
508.85	43976.33
509.03	43983.35
509.20	44364.85
509.38	44301.66
509.55	44470.18
509.73	44304.00
509.90	44755.72
510.08	44907.86
510.25	44559.12
510.42	44924.24
510.60	45453.20
510.77	45209.79
510.95	45249.58
511.12	45336.18
511.30	45717.68
511.47	45612.36
511.64	45748.11
511.82	45799.60
511.99	45703.64
512.17	45958.76
512.34	46057.06
512.51	46684.33
512.69	46384.74
512.86	46380.06
513.04	46630.49
513.21	46644.54
513.38	46909.02
513.56	47222.65
513.73	47224.99
513.90	47182.86
514.08	47278.82
514.25	47580.75
514.43	47454.36
514.60	47409.89
514.77	47646.29
514.95	48041.84
515.12	47807.78
515.29	47655.65
515.47	48046.52
515.64	48329.72
515.81	48348.45
515.99	48568.46
516.16	48385.89
516.33	48472.49
516.51	48975.71
516.68	48381.21
516.85	48837.62
517.03	48889.11
517.20	49141.89
517.37	49069.33
517.54	49277.64
517.72	48978.05
517.89	48783.79
518.06	49392.33
518.24	49537.44
518.41	49502.33
518.58	49509.35
518.75	49549.14
518.93	49598.29
519.10	49289.34
519.27	49455.52
519.45	49965.76
519.62	49909.58
519.79	50019.59
519.96	50082.78
520.14	50281.73
520.31	50148.32
520.48	50747.50
520.65	50459.61
520.83	50733.45
521.00	50742.81
521.17	50361.31
521.34	50555.57
521.52	51082.19
521.69	51035.38
521.86	51248.37
522.03	51613.49
522.20	51550.30
522.38	51700.09
522.55	51498.81
522.72	51208.58
522.89	51695.41
523.07	51672.01
523.24	51526.89
523.41	51571.36
523.58	51606.47
523.75	51969.26
523.92	51899.04
524.10	51885.00
524.27	52266.50
524.44	52226.71
524.61	52570.77
524.78	52320.34
524.96	52409.28
525.13	52533.32
525.30	52708.86
525.47	52488.85
525.64	52591.84
525.81	52816.53
525.98	52699.50
526.16	52591.84
526.33	52739.29
526.50	53174.63
526.67	53069.31
526.84	52954.62
527.01	52842.27
527.18	53036.54
527.36	53045.90
527.53	53317.40
527.70	53535.07
527.87	53165.27
528.04	53497.62
528.21	53476.56
528.38	53385.28
528.55	53595.93
528.72	53514.01
528.89	53504.65
529.07	53780.83
529.24	53652.10
529.41	54129.57
529.58	53939.99
529.75	53577.20
529.92	53811.26
530.09	53998.50
530.26	53797.21
530.43	54377.67
530.60	53759.76
530.77	53748.06
530.94	54288.73
531.11	53970.41
531.28	54120.21
531.46	54347.24
531.63	54405.75
531.80	54356.60
531.97	54408.09
532.14	54625.76
532.31	54571.93
532.48	54848.11
532.65	54890.24
532.82	54487.67
532.99	54419.80
533.16	54590.66
533.33	54787.26
533.50	55164.09
533.67	54822.37
533.84	54564.91
534.01	55077.49
534.18	55365.37
534.35	55475.38
534.52	55297.50
534.69	55231.96
534.86	55367.71
535.03	55007.27
535.20	55524.53
535.37	55416.86
535.54	55444.95
535.71	55426.23
535.88	55716.45
536.05	55412.18
536.22	55700.07
536.38	55667.30
536.55	55540.91
536.72	55824.12
536.89	55707.09
537.06	55774.97
537.23	55833.48
537.40	55435.59
537.57	55987.95
537.74	56285.20
537.91	56287.54
538.08	56095.62
538.25	55838.16
538.42	56041.79
538.59	55950.51
538.75	55889.65
538.92	56210.31
539.09	56317.97
539.26	55983.27
539.43	56203.28
539.60	56362.44
539.77	56212.65
539.94	56530.96
540.11	56470.11
540.28	56509.89
540.44	56545.00
540.61	56706.50
540.78	56507.55
540.95	56561.39
541.12	56605.86
541.29	56683.09
541.46	56575.43
541.62	56769.69
541.79	56825.87
541.96	56645.65
542.13	56521.60
542.30	56561.39
542.47	56793.10
542.63	57045.88
542.80	56949.92
542.97	57183.97
543.14	57242.48
543.31	57008.43
543.48	57322.06
543.64	57513.98
543.81	57251.84
543.98	57542.07
544.15	57425.04
544.32	57794.85
544.48	57588.88
544.65	57474.20
544.82	57415.68
544.99	57244.82
545.16	57623.99
545.32	57375.89
545.49	57752.72
545.66	57876.77
545.83	57904.85
546.00	57958.69
546.16	57792.51
546.33	57649.74
546.50	57661.44
546.67	57932.94
546.83	57724.63
547.00	57874.43
547.17	57755.06
547.34	57958.69
547.50	57939.96
547.67	58206.78
547.84	58045.29
548.00	58085.07
548.17	58277.00
548.34	58047.63
548.51	58368.28
548.67	58052.31
548.84	58405.73
549.01	58199.76
549.18	58199.76
549.34	58405.73
549.51	58492.33
549.68	58450.20
549.84	58405.73
550.01	58391.68
550.18	58298.06
550.34	58342.53
550.51	58562.54
550.68	58604.67
550.84	58239.55
551.01	58684.25
551.18	58635.10
551.34	58784.90
551.51	58546.16
551.68	58639.78
551.84	58592.97
552.01	58539.14
552.18	58614.04
552.34	58611.70
552.51	58740.42
552.68	58611.70
552.84	58738.08
553.01	58979.16
553.18	58805.96
553.34	58983.84
553.51	58922.99
553.67	58955.75
553.84	59103.21
554.01	58979.16
554.17	58838.73
554.34	59058.74
554.51	59117.25
554.67	59203.85
554.84	59182.79
555.00	59103.21
555.17	59011.93
555.33	59035.33
555.50	59028.31
555.67	59274.07
555.83	59274.07
556.00	59164.06
556.16	59341.94
556.33	59454.29
556.50	59351.30
556.66	59440.24
556.83	59185.13
556.99	59419.18
557.16	59732.81
557.32	59835.80
557.49	59739.83
557.65	59231.94
557.82	59295.13
557.98	59543.23
558.15	59496.42
558.32	59646.21
558.48	59428.54
558.65	59552.59
558.81	59526.84
558.98	59655.57
559.14	59737.49
559.31	59515.14
559.47	59831.11
559.64	59922.40
559.80	59770.26
559.97	59695.36
560.13	59828.77
560.30	59868.56
560.46	59997.29
560.63	59924.74
560.79	59742.17
560.96	60086.23
561.12	59983.25
561.29	59922.40
561.45	59774.94
561.61	59810.05
561.78	59791.33
561.94	59957.50
562.11	59854.52
562.27	59880.27
562.44	60076.87
562.60	60303.90
562.77	60154.11
562.93	60074.53
563.10	60224.32
563.26	60140.07
563.42	60322.63
563.59	60025.38
563.75	60137.72
563.92	60079.21
564.08	60100.28
564.24	60261.77
564.41	60090.91
564.57	60189.22
564.74	60088.57
564.90	60231.35
565.07	60360.08
565.23	60287.52
565.39	60331.99
565.56	60315.61
565.72	60240.71
565.88	60409.23
566.05	60404.55
566.21	60437.31
566.38	60233.69
566.54	60533.28
566.70	60434.97
566.87	60575.40
567.03	60163.47
567.19	60460.72
567.36	60477.10
567.52	60360.08
567.68	60690.09
567.85	60507.53
568.01	60570.72
568.17	60261.77
568.34	60683.07
568.50	60409.23
568.66	60367.10
568.83	60406.89
568.99	60327.31
569.15	60619.88
569.32	60463.06
569.48	60441.99
569.64	60687.75
569.81	60671.37
569.97	60458.38
570.13	60544.98
570.30	60383.48
570.46	60687.75
570.62	60425.61
570.78	60788.39
570.95	60552.00
571.11	60816.48
571.27	60493.49
571.43	60685.41
571.60	60654.98
571.76	60617.53
571.92	60601.15
572.09	60692.43
572.25	60662.00
572.41	60643.28
572.57	60640.94
572.74	60774.35
572.90	60610.51
573.06	60633.92
573.22	60530.93
573.38	60711.16
573.55	60734.56
573.71	60966.27
573.87	60912.44
574.03	60577.75
574.20	60830.52
574.36	60449.02
574.52	60757.97
574.68	61010.74
574.84	60781.37
575.01	60729.88
575.17	60910.10
575.33	60697.11
575.49	60772.01
575.65	60729.88
575.82	60624.56
575.98	60800.10
576.14	61017.77
576.30	60886.70
576.46	60865.63
576.62	60865.63
576.79	60825.84
576.95	60659.66
577.11	60973.30
577.27	60818.82
577.43	60874.99
577.59	60942.87
577.75	60938.19
577.92	60874.99
578.08	60949.89
578.24	60858.61
578.40	61102.03
578.56	60933.51
578.72	60825.84
578.88	61188.63
579.04	60987.34
579.21	61144.16
579.37	60980.32
579.53	61146.50
579.69	60919.46
579.85	60870.31
580.01	60928.83
580.17	60865.63
580.33	60989.68
580.49	61066.92
580.65	61127.77
580.82	60921.80
580.98	60825.84
581.14	61050.53
581.30	61029.47
581.46	60938.19
581.62	61097.34
581.78	61078.62
581.94	61076.28
582.10	60940.53
582.26	61034.15
582.42	61013.08
582.58	61055.21
582.74	61041.17
582.90	61123.09
583.06	60992.02
583.22	60823.50
583.38	61071.60
583.54	61095.00
583.70	61034.15
583.86	61066.92
584.02	60882.02
584.18	61247.14
584.34	61024.79
584.50	61080.96
584.66	60973.30
584.82	60928.83
584.98	61130.11
585.14	61331.40
585.30	60928.83
585.46	61169.90
585.62	61141.81
585.78	61228.41
585.94	61130.11
586.10	61139.47
586.26	61080.96
586.42	61214.37
586.58	61240.12
586.74	61197.99
586.90	61139.47
587.06	60989.68
587.22	61272.88
587.38	61200.33
587.54	61240.12
587.70	61048.19
587.86	61375.87
588.02	61071.60
588.18	61382.89
588.34	61214.37
588.49	61123.09
