SpectraSuite Data File
++++++++++++++++++++++++++++++++++++
Date: Fri Oct 25 10:48:29 EDT 2013
User: price-jones
Dark Spectrum Present: No
Reference Spectrum Present: No
Number of Sampled Component Spectra: 1
Spectrometers: USB2+H05261
Integration Time (usec): 100000 (USB2+H05261)
Spectra Averaged: 1 (USB2+H05261)
Boxcar Smoothing: 0 (USB2+H05261)
Correct for Electrical Dark: No (USB2+H05261)
Strobe/Lamp Enabled: No (USB2+H05261)
Correct for Detector Non-linearity: No (USB2+H05261)
Correct for Stray Light: No (USB2+H05261)
Number of Pixels in Processed Spectrum: 2048
>>>>>Begin Processed Spectral Data<<<<<
365.73	140.43
365.92	140.43
366.12	140.43
366.32	60.85
366.52	74.90
366.72	79.58
366.91	0.00
367.11	42.13
367.31	147.45
367.51	30.43
367.70	28.09
367.90	88.94
368.10	44.47
368.30	77.24
368.49	37.45
368.69	44.47
368.89	74.90
369.09	98.30
369.28	149.79
369.48	84.26
369.68	117.03
369.87	114.69
370.07	9.36
370.27	175.54
370.47	182.56
370.66	425.98
370.86	451.72
371.06	524.28
371.25	526.62
371.45	482.15
371.65	486.83
371.84	444.70
372.04	496.19
372.24	543.00
372.44	552.37
372.63	608.54
372.83	571.09
373.03	550.03
373.22	587.47
373.42	486.83
373.62	550.03
373.81	622.58
374.01	554.71
374.21	594.50
374.40	524.28
374.60	638.97
374.79	624.92
374.99	622.58
375.19	650.67
375.38	617.90
375.58	667.05
375.78	613.22
375.97	521.94
376.17	636.63
376.37	617.90
376.56	585.13
376.76	610.88
376.95	528.96
377.15	664.71
377.35	732.59
377.54	648.33
377.74	622.58
377.93	674.07
378.13	603.86
378.33	706.84
378.52	688.12
378.72	674.07
378.91	643.65
379.11	685.78
379.31	681.10
379.50	688.12
379.70	674.07
379.89	695.14
380.09	709.18
380.28	765.36
380.48	774.72
380.68	753.65
380.87	755.99
381.07	755.99
381.26	760.67
381.46	716.20
381.65	772.38
381.85	753.65
382.04	739.61
382.24	760.67
382.43	800.46
382.63	755.99
382.83	718.54
383.02	809.83
383.22	809.83
383.41	681.10
383.61	753.65
383.80	847.27
384.00	833.23
384.19	737.27
384.39	793.44
384.58	765.36
384.78	798.12
384.97	908.13
385.17	868.34
385.36	765.36
385.56	844.93
385.75	753.65
385.95	805.14
386.14	840.25
386.34	849.61
386.53	863.66
386.72	884.72
386.92	912.81
387.11	922.17
387.31	985.37
387.50	877.70
387.70	863.66
387.89	870.68
388.09	866.00
388.28	973.66
388.48	938.55
388.67	1004.09
388.86	990.05
389.06	1032.18
389.25	994.73
389.45	1036.86
389.64	1081.33
389.84	1036.86
390.03	1027.50
390.22	1041.54
390.42	1053.24
390.61	1029.84
390.81	954.94
391.00	1032.18
391.19	1088.35
391.39	1135.16
391.58	1104.73
391.78	1090.69
391.97	1034.52
392.16	1034.52
392.36	1078.99
392.55	1050.90
392.75	1006.43
392.94	1053.24
393.13	1097.71
393.33	1025.15
393.52	1078.99
393.71	1048.56
393.91	1198.35
394.10	1158.57
394.29	1282.61
394.49	1167.93
394.68	1320.06
394.88	1275.59
395.07	1256.87
395.26	1249.85
395.46	1163.25
395.65	1284.95
395.84	1280.27
396.04	1254.53
396.23	1238.14
396.42	1196.01
396.62	1259.21
396.81	1252.19
397.00	1188.99
397.19	1245.16
397.39	1331.76
397.58	1366.87
397.77	1336.45
397.97	1411.34
398.16	1502.62
398.35	1511.99
398.55	1366.87
398.74	1500.28
398.93	1537.73
399.12	1526.03
399.32	1441.77
399.51	1500.28
399.70	1589.22
399.90	1626.67
400.09	1661.78
400.28	1661.78
400.47	1572.84
400.67	1664.12
400.86	1689.87
401.05	1643.06
401.24	1755.40
401.44	1682.85
401.63	1680.50
401.82	1753.06
402.01	1764.76
402.21	1816.26
402.40	1739.02
402.59	1699.23
402.78	1788.17
402.97	1790.51
403.17	1816.26
403.36	1776.47
403.55	1804.55
403.74	1804.55
403.93	1802.21
404.13	1912.22
404.32	1832.64
404.51	1905.20
404.70	1942.64
404.89	1919.24
405.09	2071.37
405.28	1973.07
405.47	2003.50
405.66	1916.90
405.85	1973.07
406.05	2012.86
406.24	2045.63
406.43	2031.58
406.62	2078.40
406.81	2090.10
407.00	2012.86
407.20	2045.63
407.39	2160.31
407.58	2289.04
407.77	2132.23
407.96	2207.13
408.15	2328.83
408.34	2263.30
408.54	2263.30
408.73	2214.15
408.92	2319.47
409.11	2335.85
409.30	2312.45
409.49	2249.25
409.68	2291.38
409.87	2338.20
410.07	2392.03
410.26	2455.22
410.45	2396.71
410.64	2469.27
410.83	2415.43
411.02	2532.46
411.21	2530.12
411.40	2605.02
411.59	2626.08
411.78	2506.71
411.98	2623.74
412.17	2670.55
412.36	2656.51
412.55	2710.34
412.74	2703.32
412.93	2719.70
413.12	2768.85
413.31	2942.05
413.50	2836.73
413.69	2782.90
413.88	2867.16
414.07	2909.29
414.26	2906.95
414.45	2963.12
414.64	3112.91
414.83	3110.57
415.02	3012.27
415.22	3131.64
415.41	3026.31
415.60	3185.47
415.79	3143.34
415.98	3407.82
416.17	3269.73
416.36	3239.30
416.55	3248.66
416.74	3288.45
416.93	3293.13
417.12	3258.03
417.31	3417.18
417.50	3246.32
417.69	3513.14
417.88	3522.51
418.07	3482.72
418.26	3382.07
418.45	3609.11
418.64	3564.64
418.83	3693.37
419.02	3644.21
419.21	3581.02
419.39	3592.72
419.58	3588.04
419.77	3559.95
419.96	3765.92
420.15	3735.50
420.34	3889.97
420.53	3709.75
420.72	3791.67
420.91	3775.28
421.10	3899.33
421.29	3875.93
421.48	3644.21
421.67	3836.14
421.86	3971.89
422.05	3815.07
422.24	3786.99
422.43	3749.54
422.61	3962.53
422.80	3969.55
422.99	4025.72
423.18	3946.14
423.37	4121.68
423.56	4035.08
423.75	3992.95
423.94	3967.21
424.13	3597.40
424.32	3756.56
424.50	3950.82
424.69	4152.11
424.88	3932.10
425.07	4042.11
425.26	4060.83
425.45	3850.18
425.64	3962.53
425.83	3948.48
426.01	3988.27
426.20	4023.38
426.39	4042.11
426.58	4067.85
426.77	3904.01
426.96	4117.00
427.15	4170.83
427.33	4002.32
427.52	4128.70
427.71	4189.56
427.90	4091.26
428.09	4070.19
428.28	4152.11
428.46	4297.22
428.65	4210.62
428.84	4292.54
429.03	4447.02
429.22	4107.64
429.40	4044.45
429.59	4187.22
429.78	3936.78
429.97	3927.42
430.16	4016.36
430.34	4152.11
430.53	4196.58
430.72	4208.28
430.91	4346.37
431.10	4402.55
431.28	4486.81
431.47	4702.14
431.66	4835.55
431.85	4557.02
432.03	4643.62
432.22	4915.12
432.41	4676.39
432.60	4692.77
432.79	4664.69
432.97	4737.24
433.16	4779.37
433.35	4606.17
433.54	4725.54
433.72	4667.03
433.91	4585.11
434.10	4678.73
434.28	4753.63
434.47	4950.23
434.66	4964.28
434.85	4830.87
435.03	4971.30
435.22	5217.05
435.41	5137.48
435.59	5123.43
435.78	5055.56
435.97	5111.73
436.16	5071.94
436.34	5078.96
436.53	5144.50
436.72	5373.87
436.90	5191.31
437.09	5270.89
437.28	5013.43
437.46	5114.07
437.65	5139.82
437.84	5301.31
438.02	5256.84
438.21	5228.76
438.40	5273.23
438.58	5355.15
438.77	5556.43
438.96	5282.59
439.14	5671.12
439.33	5582.18
439.52	5598.56
439.70	5610.26
439.89	5837.30
440.08	5795.17
440.26	5781.12
440.45	5804.53
440.63	5797.51
440.82	6003.47
441.01	6019.86
441.19	6083.05
441.38	6181.35
441.57	6237.53
441.75	6019.86
441.94	6370.94
442.12	6363.92
442.31	6347.53
442.50	6452.86
442.68	6195.40
442.87	6338.17
443.05	6328.81
443.24	6471.58
443.43	6408.39
443.61	6614.35
443.80	6619.04
443.98	6340.51
444.17	6232.85
444.35	6403.71
444.54	6726.70
444.73	6354.55
444.91	6509.03
445.10	6530.09
445.28	6562.86
445.47	6333.49
445.65	6544.14
445.84	6516.05
446.02	6766.49
446.21	6682.23
446.39	6722.02
446.58	6724.36
446.77	6679.89
446.95	6504.35
447.14	6768.83
447.32	6827.34
447.51	6642.44
447.69	6693.93
447.88	6817.98
448.06	6640.10
448.25	6675.21
448.43	6909.26
448.62	6722.02
448.80	6689.25
448.99	6839.05
449.17	6958.41
449.36	6686.91
449.54	7124.59
449.73	7047.35
449.91	7171.40
450.10	7232.26
450.28	7152.68
450.46	7159.70
450.65	7148.00
450.83	7302.47
451.02	7360.98
451.20	7384.39
451.39	7250.98
451.57	7155.02
451.76	7286.09
451.94	7344.60
452.13	7187.79
452.31	7382.05
452.49	7059.06
452.68	7171.40
452.86	7178.42
453.05	7426.52
453.23	7524.82
453.42	7358.64
453.60	7433.54
453.78	7494.40
453.97	7466.31
454.15	7536.52
454.34	7426.52
454.52	7632.49
454.70	7449.93
454.89	7681.64
455.07	7667.60
455.26	7545.89
455.44	7751.85
455.62	7793.98
455.81	7836.11
455.99	7796.32
456.17	7789.30
456.36	7880.58
456.54	8081.87
456.73	7913.35
456.91	8322.94
457.09	8187.19
457.28	8435.29
457.46	8201.24
457.64	8241.03
457.83	8196.56
458.01	7988.25
458.19	8217.62
458.38	8091.23
458.56	8367.42
458.74	8397.84
458.93	8065.49
459.11	8241.03
459.29	8276.13
459.48	8336.99
459.66	8395.50
459.84	8549.98
460.03	8596.79
460.21	8559.34
460.39	8540.61
460.57	8552.32
460.76	8498.49
460.94	8784.03
461.12	8659.98
461.31	8645.94
461.49	8638.92
461.67	8767.65
461.85	8821.48
462.04	8704.45
462.22	9235.75
462.40	8868.29
462.59	8741.90
462.77	8936.17
462.95	9083.62
463.13	9062.55
463.32	8947.87
463.50	8947.87
463.68	9043.83
463.86	9015.74
464.05	8987.66
464.23	8861.27
464.41	8978.30
464.59	8940.85
464.78	9359.80
464.96	9315.33
465.14	9132.77
465.32	9294.27
465.50	9305.97
465.69	9366.82
465.87	9233.41
466.05	9270.86
466.23	9301.29
466.41	9294.27
466.60	9430.02
466.78	9217.03
466.96	9266.18
467.14	9294.27
467.32	9334.06
467.51	9666.41
467.69	9401.93
467.87	9481.51
468.05	9584.49
468.23	9551.73
468.41	9404.27
468.60	9556.41
468.78	9699.18
468.96	9720.24
469.14	9790.46
469.32	9820.89
469.50	9720.24
469.69	9860.68
469.87	9760.03
470.05	9886.42
470.23	9909.83
470.41	9984.73
470.59	10057.28
470.77	10066.64
470.95	10106.43
471.14	10178.99
471.32	9813.87
471.50	10305.38
471.68	10366.23
471.86	10410.70
472.04	10654.12
472.22	10780.51
472.40	10335.81
472.58	10511.35
472.77	10413.04
472.95	10494.96
473.13	10707.95
473.31	10729.02
473.49	10679.86
473.67	10689.23
473.85	10736.04
474.03	10974.77
474.21	10930.30
474.39	11150.31
474.57	11009.88
474.75	11375.00
474.93	11220.53
475.12	11213.51
475.30	11426.50
475.48	11344.58
475.66	11337.56
475.84	11269.68
476.02	11543.52
476.20	11389.05
476.38	11791.62
476.56	11880.56
476.74	11908.65
476.92	12039.72
477.10	11850.13
477.28	12163.76
477.46	12229.30
477.64	12416.54
477.82	12482.08
478.00	12610.81
478.18	12896.35
478.36	12657.62
478.54	12734.85
478.72	12699.75
478.90	12954.87
479.08	13273.18
479.26	13095.30
479.44	13186.58
479.62	13364.46
479.80	13413.61
479.98	13687.45
480.16	13872.36
480.34	13596.17
480.52	13764.69
480.70	13865.33
480.88	13802.14
481.06	13867.67
481.24	14059.60
481.41	14244.50
481.59	14663.46
481.77	14682.18
481.95	14682.18
482.13	14370.89
482.31	14733.67
482.49	15049.64
482.67	14843.68
482.85	15171.35
483.03	15321.15
483.21	15349.23
483.39	15473.28
483.57	15311.78
483.74	15648.82
483.92	15742.44
484.10	15637.12
484.28	15915.64
484.46	15955.43
484.64	16442.26
484.82	15988.20
485.00	16290.13
485.18	16573.33
485.35	16540.57
485.53	16184.80
485.71	16229.27
485.89	16744.19
486.07	16690.36
486.25	17018.04
486.43	16664.61
486.61	17055.48
486.78	17422.95
486.96	17685.09
487.14	18045.53
487.32	18005.74
487.50	17987.02
487.68	18312.35
487.85	18471.51
488.03	18651.73
488.21	18703.22
488.39	18780.46
488.57	18822.59
488.75	19040.26
488.92	19101.11
489.10	19405.38
489.28	19356.23
489.46	19971.79
489.64	19761.14
489.81	19789.23
489.99	20456.28
490.17	20243.29
490.35	20891.62
490.53	20161.37
490.70	20645.87
490.88	20402.45
491.06	20718.42
491.24	21003.97
491.41	20926.73
491.59	20975.88
491.77	20802.68
491.95	21331.64
492.13	21390.16
492.30	21738.90
492.48	21944.86
492.66	22040.82
492.84	22066.57
493.01	22319.35
493.19	21937.84
493.37	22560.42
493.54	22670.43
493.72	22778.09
493.90	22792.14
494.08	23108.11
494.25	23255.56
494.43	23557.49
494.61	23714.31
494.79	23917.93
494.96	23639.41
495.14	23679.20
495.32	23412.38
495.49	23934.32
495.67	24137.94
495.85	24027.94
496.02	24217.52
496.20	24470.30
496.38	24683.29
496.55	24652.86
496.73	25085.86
496.91	25177.14
497.09	25439.28
497.26	25130.33
497.44	25310.55
497.62	25502.48
497.79	25755.26
497.97	25256.72
498.14	26115.70
498.32	25572.69
498.50	26057.18
498.67	26309.96
498.85	26295.92
499.03	26424.65
499.20	26462.10
499.38	26349.75
499.56	26684.45
499.73	26845.94
499.91	26703.17
500.08	26682.11
500.26	26506.57
500.44	26794.45
500.61	27105.74
500.79	26532.31
500.97	27269.58
501.14	27344.48
501.32	27681.52
501.49	27290.65
501.67	27737.69
501.84	27695.56
502.02	27878.12
502.20	27892.16
502.37	28540.49
502.55	27901.53
502.72	28301.76
502.90	28343.89
503.07	28238.56
503.25	28362.61
503.43	28245.58
503.60	28589.64
503.78	28545.17
503.95	28290.06
504.13	28980.51
504.30	29078.82
504.48	28720.71
504.65	29022.64
504.83	29408.83
505.01	29621.82
505.18	29378.40
505.36	29759.91
505.53	29659.27
505.71	30160.14
505.88	30312.28
506.06	29687.36
506.23	30059.50
506.41	29696.72
506.58	30249.08
506.76	30019.71
506.93	30639.95
507.11	30185.89
507.28	30429.30
507.46	30139.08
507.63	30433.99
507.81	30649.32
507.98	30312.28
508.16	30581.44
508.33	30944.22
508.50	30862.30
508.68	31131.47
508.85	31412.33
509.03	31197.00
509.20	31323.39
509.38	31482.55
509.55	31487.23
509.73	31515.31
509.90	31625.32
510.08	31538.72
510.25	31805.54
510.42	32027.89
510.60	31784.48
510.77	31999.80
510.95	32327.48
511.12	32294.71
511.30	32486.64
511.47	32589.62
511.64	32811.97
511.82	32615.37
511.99	32535.79
512.17	32924.32
512.34	32477.27
512.51	32968.79
512.69	32973.47
512.86	32882.19
513.04	33303.48
513.21	33046.02
513.38	32900.91
513.56	33233.27
513.73	32905.59
513.90	33586.69
514.08	33209.86
514.25	33366.68
514.43	33600.73
514.60	33226.24
514.77	33748.18
514.95	33956.49
515.12	33881.60
515.29	33874.57
515.47	34342.68
515.64	34602.48
515.81	34089.90
515.99	33862.87
516.16	33965.85
516.33	33521.15
516.51	33872.23
516.68	33483.70
516.85	33731.80
517.03	34078.20
517.20	34616.52
517.37	34401.19
517.54	34700.78
517.72	34590.78
517.89	34422.26
518.06	34593.12
518.24	34284.17
518.41	34759.30
518.58	34721.85
518.75	34707.80
518.93	35379.54
519.10	35344.43
519.27	35136.12
519.45	35543.38
519.62	35613.59
519.79	35957.65
519.96	35941.27
520.14	35985.74
520.31	35419.33
520.48	35814.88
520.65	35962.33
520.83	36119.15
521.00	36334.48
521.17	35613.59
521.34	36350.86
521.52	36587.25
521.69	36243.20
521.86	37060.04
522.03	36945.36
522.20	36961.74
522.38	36833.01
522.55	36935.99
522.72	36898.55
522.89	36587.25
523.07	36760.45
523.24	36549.81
523.41	37195.79
523.58	36912.59
523.75	37710.71
523.92	37443.89
524.10	37425.17
524.27	37551.56
524.44	38059.45
524.61	38129.67
524.78	37862.85
524.96	38183.50
525.13	38188.18
525.30	38195.20
525.47	38405.85
525.64	38143.71
525.81	38178.82
525.98	38010.30
526.16	37958.81
526.33	37986.89
526.50	37848.80
526.67	37750.50
526.84	37965.83
527.01	37940.08
527.18	38366.06
527.36	38614.16
527.53	38417.55
527.70	38948.85
527.87	39070.56
528.04	39079.92
528.21	38909.07
528.38	38904.38
528.55	38913.75
528.72	39030.77
528.89	39702.51
529.07	39213.34
529.24	39016.73
529.41	39353.77
529.58	39407.60
529.75	38899.70
529.92	39419.30
530.09	39475.48
530.26	39454.41
530.43	39976.35
530.60	39339.72
530.77	39756.34
530.94	39985.71
531.11	40252.53
531.28	39636.97
531.46	39791.45
531.63	39826.56
531.80	40325.09
531.97	39814.85
532.14	40126.14
532.31	39501.22
532.48	40149.55
532.65	40168.27
532.82	40004.44
532.99	40449.14
533.16	40058.27
533.33	40348.50
533.50	40442.12
533.67	40350.84
533.84	40289.98
534.01	40416.37
534.18	40416.37
534.35	40676.17
534.52	40758.09
534.69	40664.47
534.86	40793.20
535.03	40870.43
535.20	40968.74
535.37	41504.72
535.54	41106.83
535.71	41127.89
535.88	41113.85
536.05	41284.71
536.22	41155.98
536.38	41240.24
536.55	41132.57
536.72	41254.28
536.89	40940.65
537.06	41268.33
537.23	41198.11
537.40	41436.84
537.57	41750.48
537.74	41689.62
537.91	42195.18
538.08	41785.58
538.25	41724.73
538.42	41460.25
538.59	41825.37
538.75	41818.35
538.92	41745.80
539.09	41539.83
539.26	41717.71
539.43	42017.30
539.60	42223.26
539.77	41675.58
539.94	41926.02
540.11	41612.38
540.28	41914.31
540.44	41872.18
540.61	41808.99
540.78	41977.51
540.95	42087.51
541.12	42176.45
541.29	42359.02
541.46	42029.00
541.62	42380.08
541.79	42417.53
541.96	42117.94
542.13	42185.82
542.30	42932.45
542.47	42543.92
542.63	42630.52
542.80	42782.65
542.97	43047.13
543.14	43545.67
543.31	42766.27
543.48	43360.76
543.64	43716.53
543.81	43428.64
543.98	43225.01
544.15	43180.54
544.32	43611.20
544.48	43709.50
544.65	43243.74
544.82	43653.33
544.99	42920.74
545.16	43430.98
545.32	43381.83
545.49	43505.88
545.66	43519.92
545.83	43728.23
546.00	44318.04
546.16	43875.68
546.33	43489.49
546.50	43356.08
546.67	44027.82
546.83	43667.37
547.00	43421.62
547.17	44051.22
547.34	43468.43
547.50	44053.56
547.67	43807.81
547.84	43978.67
548.00	44292.30
548.17	44030.16
548.34	44406.98
548.51	44479.54
548.67	44304.00
548.84	44898.50
549.01	44294.64
549.18	44128.46
549.34	44332.09
549.51	44465.50
549.68	44570.82
549.84	44531.03
550.01	44734.66
550.18	44299.32
550.34	44374.22
550.51	44488.90
550.68	44493.58
550.84	44315.70
551.01	44655.08
551.18	44652.74
551.34	44837.64
551.51	44608.27
551.68	45144.25
551.84	45092.76
552.01	44598.91
552.18	44641.04
552.34	44268.89
552.51	45006.16
552.68	44626.99
552.84	45326.81
553.01	44971.05
553.18	44657.42
553.34	44662.10
553.51	45057.65
553.67	45242.56
553.84	45340.86
554.01	45050.63
554.17	45324.47
554.34	45326.81
554.51	45345.54
554.67	45202.77
554.84	45450.86
555.00	45212.13
555.17	45497.67
555.33	45116.17
555.50	45422.78
555.67	45167.66
555.83	45291.71
556.00	45130.21
556.16	45446.18
556.33	45989.19
556.50	45563.21
556.66	45778.54
556.83	45488.31
556.99	45535.12
557.16	45603.00
557.32	45792.58
557.49	45841.73
557.65	45298.73
557.82	45485.97
557.98	45544.48
558.15	45600.66
558.32	45792.58
558.48	45420.44
558.65	45408.73
558.81	45500.01
558.98	46028.98
559.14	45708.32
559.31	45666.19
559.47	45972.80
559.64	46071.10
559.80	46085.15
559.97	45607.68
560.13	45500.01
560.30	45848.75
560.46	45874.50
560.63	45839.39
560.79	46160.05
560.96	46298.14
561.12	45542.14
561.29	46234.94
561.45	45921.31
561.61	46464.32
561.78	45872.16
561.94	45804.28
562.11	46075.79
562.27	45790.24
562.44	45984.51
562.60	46174.09
562.77	46443.25
562.93	46054.72
563.10	46209.20
563.26	46045.36
563.42	46230.26
563.59	46181.11
563.75	45652.15
563.92	46373.03
564.08	46522.83
564.24	46461.97
564.41	46309.84
564.57	46241.96
564.74	46288.77
564.90	46333.24
565.07	46192.81
565.23	46358.99
565.39	46234.94
565.56	46274.73
565.72	46480.70
565.88	46160.05
566.05	46398.78
566.21	46204.52
566.38	46724.11
566.54	46103.87
566.70	46747.52
566.87	47084.56
567.03	46354.31
567.19	47070.51
567.36	46759.22
567.52	46382.40
567.68	46660.92
567.85	46714.75
568.01	46450.27
568.17	46178.77
568.34	46728.80
568.50	46579.00
568.66	46267.71
568.83	46195.15
568.99	46646.88
569.15	46485.38
569.32	46424.53
569.48	46358.99
569.64	46419.84
569.81	46625.81
569.97	46660.92
570.13	46602.41
570.30	46373.03
570.46	46256.01
570.62	46422.19
570.78	46391.76
570.95	46164.73
571.11	46672.62
571.27	46625.81
571.43	46738.16
571.60	47220.31
571.76	46513.47
571.92	46452.61
572.09	46501.76
572.25	46497.08
572.41	46658.58
572.57	46892.63
572.74	47239.03
572.90	46539.21
573.06	46983.91
573.22	46920.72
573.38	46534.53
573.55	46492.40
573.71	47009.66
573.87	46244.30
574.03	46735.82
574.20	46866.89
574.36	46361.33
574.52	46864.55
574.68	46494.74
574.84	46934.76
575.01	47026.04
575.17	46698.37
575.33	46461.97
575.49	46375.37
575.65	46546.23
575.82	46981.57
575.98	46899.65
576.14	46902.00
576.30	47327.97
576.46	46487.72
576.62	46773.27
576.79	46588.36
576.95	46071.10
577.11	46763.90
577.27	46796.67
577.43	46623.47
577.59	46632.83
577.75	46330.90
577.92	46429.21
578.08	46382.40
578.24	46394.10
578.40	46770.93
578.56	46541.55
578.72	46801.35
578.88	46923.06
579.04	46866.89
579.21	46703.05
579.37	46232.60
579.53	46705.39
579.69	46342.61
579.85	46473.68
580.01	47096.26
580.17	46684.33
580.33	46700.71
580.49	47009.66
580.65	47119.66
580.82	47119.66
580.98	46791.99
581.14	46703.05
581.30	46890.29
581.46	46883.27
581.62	47079.88
581.78	46623.47
581.94	47360.74
582.10	47210.95
582.26	47047.11
582.42	46904.34
582.58	46766.24
582.74	47236.69
582.90	46911.36
583.06	46983.91
583.22	46967.53
583.38	47082.22
583.54	47061.15
583.70	47023.70
583.86	46550.91
584.02	46511.13
584.18	47061.15
584.34	47164.14
584.50	46976.89
584.66	46497.08
584.82	46852.84
584.98	46607.09
585.14	47103.28
585.30	46899.65
585.46	47077.54
585.62	46658.58
585.78	46801.35
585.94	46204.52
586.10	46644.54
586.26	46733.48
586.42	47063.49
586.58	46845.82
586.74	46829.44
586.90	46822.42
587.06	46749.86
587.22	46714.75
587.38	46361.33
587.54	46927.74
587.70	47119.66
587.86	46981.57
588.02	46728.80
588.18	47105.62
588.34	46890.29
588.49	46452.61
588.65	46340.27
588.81	46059.40
588.97	46429.21
589.13	45858.12
589.29	46031.32
589.45	46553.26
589.61	46665.60
589.77	47114.98
