SpectraSuite Data File
++++++++++++++++++++++++++++++++++++
Date: Fri Oct 25 11:22:28 EDT 2013
User: price-jones
Dark Spectrum Present: No
Reference Spectrum Present: No
Number of Sampled Component Spectra: 1
Spectrometers: USB2+H05261
Integration Time (usec): 100000 (USB2+H05261)
Spectra Averaged: 1 (USB2+H05261)
Boxcar Smoothing: 0 (USB2+H05261)
Correct for Electrical Dark: No (USB2+H05261)
Strobe/Lamp Enabled: No (USB2+H05261)
Correct for Detector Non-linearity: No (USB2+H05261)
Correct for Stray Light: No (USB2+H05261)
Number of Pixels in Processed Spectrum: 2048
>>>>>Begin Processed Spectral Data<<<<<
365.73	306.61
365.92	306.61
366.12	306.61
366.32	175.54
366.52	126.39
366.72	149.79
366.91	93.62
367.11	121.71
367.31	107.66
367.51	112.35
367.70	131.07
367.90	180.22
368.10	135.75
368.30	119.37
368.49	152.13
368.69	154.48
368.89	131.07
369.09	93.62
369.28	128.73
369.48	205.97
369.68	154.48
369.87	163.84
370.07	236.39
370.27	243.42
370.47	236.39
370.66	631.94
370.86	552.37
371.06	683.44
371.25	720.88
371.45	655.35
371.65	760.67
371.84	748.97
372.04	723.23
372.24	772.38
372.44	716.20
372.63	685.78
372.83	704.50
373.03	795.78
373.22	763.01
373.42	770.04
373.62	723.23
373.81	732.59
374.01	791.10
374.21	840.25
374.40	802.80
374.60	784.08
374.79	830.89
374.99	816.85
375.19	788.76
375.38	908.13
375.58	828.55
375.78	903.45
375.97	856.64
376.17	861.32
376.37	922.17
376.56	917.49
376.76	823.87
376.95	898.77
377.15	891.74
377.35	873.02
377.54	863.66
377.74	903.45
377.93	901.11
378.13	898.77
378.33	910.47
378.52	884.72
378.72	957.28
378.91	964.30
379.11	954.94
379.31	936.21
379.50	1006.43
379.70	1048.56
379.89	1001.75
380.09	959.62
380.28	910.47
380.48	931.53
380.68	964.30
380.87	985.37
381.07	973.66
381.26	1083.67
381.46	1006.43
381.65	1102.39
381.85	1029.84
382.04	1006.43
382.24	1118.78
382.43	1095.37
382.63	1095.37
382.83	1067.28
383.02	1081.33
383.22	1123.46
383.41	1095.37
383.61	1130.48
383.80	1088.35
384.00	1144.52
384.19	1083.67
384.39	1193.67
384.58	1160.91
384.78	1226.44
384.97	1151.54
385.17	1118.78
385.36	1181.97
385.56	1245.16
385.75	1156.22
385.95	1167.93
386.14	1146.86
386.34	1158.57
386.53	1137.50
386.72	1158.57
386.92	1111.75
387.11	1275.59
387.31	1210.06
387.50	1263.89
387.70	1299.00
387.89	1254.53
388.09	1228.78
388.28	1343.47
388.48	1308.36
388.67	1390.28
388.86	1423.05
389.06	1317.72
389.25	1329.42
389.45	1313.04
389.64	1376.24
389.84	1364.53
390.03	1409.00
390.22	1301.34
390.42	1467.52
390.61	1479.22
390.81	1345.81
391.00	1465.18
391.19	1432.41
391.39	1399.64
391.58	1563.48
391.78	1434.75
391.97	1430.07
392.16	1444.11
392.36	1554.12
392.55	1409.00
392.75	1504.96
392.94	1547.09
393.13	1544.75
393.33	1493.26
393.52	1500.28
393.71	1664.12
393.91	1542.41
394.10	1589.22
394.29	1579.86
394.49	1626.67
394.68	1582.20
394.88	1671.14
395.07	1689.87
395.26	1696.89
395.46	1739.02
395.65	1769.44
395.84	1678.16
396.04	1799.87
396.23	1767.10
396.42	1755.40
396.62	1708.59
396.81	1785.83
397.00	1748.38
397.19	1870.09
397.39	1692.21
397.58	1870.09
397.77	1820.94
397.97	1879.45
398.16	1898.17
398.35	1849.02
398.55	1961.37
398.74	1895.83
398.93	1998.82
399.12	1956.69
399.32	1916.90
399.51	2001.16
399.70	2054.99
399.90	1886.47
400.09	1991.80
400.28	2069.03
400.47	1959.03
400.67	2073.71
400.86	2005.84
401.05	2050.31
401.24	2179.04
401.44	2141.59
401.63	2165.00
401.82	2129.89
402.01	2045.63
402.21	2181.38
402.40	2237.55
402.59	2223.51
402.78	2232.87
402.97	2310.11
403.17	2359.26
403.36	2417.77
403.55	2340.54
403.74	2368.62
403.93	2448.20
404.13	2427.14
404.32	2450.54
404.51	2497.35
404.70	2399.05
404.89	2420.11
405.09	2567.57
405.28	2436.50
405.47	2462.24
405.66	2569.91
405.85	2455.22
406.05	2583.95
406.24	2644.81
406.43	2637.78
406.62	2600.34
406.81	2670.55
407.00	2569.91
407.20	2635.44
407.39	2771.19
407.58	2684.59
407.77	2747.79
407.96	2626.08
408.15	2806.30
408.34	2684.59
408.54	2794.60
408.73	2810.98
408.92	2778.22
409.11	2864.82
409.30	2902.26
409.49	2942.05
409.68	2993.55
409.87	2944.39
410.07	2904.60
410.26	3007.59
410.45	2993.55
410.64	3073.12
410.83	3253.34
411.02	3201.85
411.21	3251.00
411.40	3243.98
411.59	3241.64
411.78	3171.43
411.98	3159.72
412.17	3316.54
412.36	3307.18
412.55	3461.65
412.74	3346.97
412.93	3398.46
413.12	3496.76
413.31	3569.32
413.50	3566.98
413.69	3475.70
413.88	3672.30
414.07	3644.21
414.26	3599.74
414.45	3660.60
414.64	3810.39
414.83	3772.94
415.02	3861.88
415.22	3810.39
415.41	3747.20
415.60	3815.07
415.79	3943.80
415.98	4112.32
416.17	4035.08
416.36	4025.72
416.55	4121.68
416.74	4149.77
416.93	4114.66
417.12	4205.94
417.31	4322.97
417.50	4184.88
417.69	4229.35
417.88	4430.63
418.07	4219.99
418.26	4299.56
418.45	4578.09
418.64	4552.34
418.83	4447.02
419.02	4407.23
419.21	4641.28
419.39	4617.88
419.58	4622.56
419.77	4566.39
419.96	4507.87
420.15	4800.44
420.34	4706.82
420.53	4587.45
420.72	4908.10
420.91	4903.42
421.10	4891.72
421.29	4884.70
421.48	4781.71
421.67	4861.29
421.86	4772.35
422.05	4861.29
422.24	4887.04
422.43	4975.98
422.61	4887.04
422.80	4992.36
422.99	4954.91
423.18	5224.08
423.37	5177.26
423.56	4844.91
423.75	5130.45
423.94	4985.34
424.13	4695.11
424.32	4912.78
424.50	5011.09
424.69	5235.78
424.88	4882.36
425.07	4905.76
425.26	4922.15
425.45	4938.53
425.64	5057.90
425.83	5015.77
426.01	5135.14
426.20	5097.69
426.39	5350.46
426.58	5151.52
426.77	5153.86
426.96	5109.39
427.15	5320.04
427.33	5273.23
427.52	5191.31
427.71	5207.69
427.90	5383.23
428.09	5277.91
428.28	5406.64
428.46	5462.81
428.65	5500.26
428.84	5540.05
429.03	5612.60
429.22	5451.11
429.40	5675.80
429.59	5593.88
429.78	5554.09
429.97	5334.08
430.16	5640.69
430.34	5783.46
430.53	5776.44
430.72	5626.65
430.91	5771.76
431.10	5858.36
431.28	5755.38
431.47	5951.98
431.66	6057.31
431.85	5879.43
432.03	5940.28
432.22	6071.35
432.41	6113.48
432.60	5994.11
432.79	6069.01
432.97	6307.74
433.16	6160.29
433.35	6181.35
433.54	6246.89
433.72	6094.76
433.91	6230.51
434.10	6300.72
434.28	6333.49
434.47	6296.04
434.66	6272.64
434.85	6363.92
435.03	6361.58
435.22	6483.28
435.41	6757.13
435.59	6464.56
435.78	6595.63
435.97	6539.46
436.16	6604.99
436.34	6595.63
436.53	6754.79
436.72	6626.06
436.90	6380.30
437.09	6759.47
437.28	6445.84
437.46	6502.01
437.65	6710.32
437.84	6899.90
438.02	6710.32
438.21	6825.00
438.40	6698.61
438.58	7112.89
438.77	7260.34
438.96	7028.63
439.14	7201.83
439.33	7267.36
439.52	7267.36
439.70	7272.04
439.89	7531.84
440.08	7595.04
440.26	7536.52
440.45	7524.82
440.63	7517.80
440.82	7641.85
441.01	7695.68
441.19	7768.24
441.38	7798.66
441.57	7789.30
441.75	8063.15
441.94	8049.10
442.12	8194.22
442.31	8119.32
442.50	8334.65
442.68	7981.23
442.87	8245.71
443.05	8353.37
443.24	8273.79
443.43	8262.09
443.61	8322.94
443.80	8425.93
443.98	8219.96
444.17	8013.99
444.35	8465.72
444.54	8458.70
444.73	8402.52
444.91	8269.11
445.10	8500.83
445.28	8493.80
445.47	8528.91
445.65	8369.76
445.84	8566.36
446.02	8587.43
446.21	8439.97
446.39	8519.55
446.58	8629.56
446.77	8585.08
446.95	8580.40
447.14	8739.56
447.32	8681.05
447.51	8514.87
447.69	8461.04
447.88	8498.49
448.06	8809.78
448.25	8542.96
448.43	8802.75
448.62	8755.94
448.80	8659.98
448.99	8657.64
449.17	9020.42
449.36	8816.80
449.54	9001.70
449.73	9067.24
449.91	9231.07
450.10	9135.11
450.28	9144.47
450.46	9231.07
450.65	9219.37
450.83	9025.11
451.02	9312.99
451.20	9348.10
451.39	9308.31
451.57	9184.26
451.76	9247.46
451.94	9453.42
452.13	9507.26
452.31	9497.89
452.49	9341.08
452.68	9273.20
452.86	9425.34
453.05	9628.96
453.23	9650.03
453.42	9408.95
453.60	9472.15
453.78	9968.34
453.97	9624.28
454.15	9500.23
454.34	9771.74
454.52	9816.21
454.70	9961.32
454.89	9968.34
455.07	10080.69
455.26	10036.22
455.44	9954.30
455.62	9926.21
455.81	10162.61
455.99	10284.31
456.17	10216.44
456.36	10230.48
456.54	10307.72
456.73	10422.41
456.91	10558.16
457.09	10532.41
457.28	10651.78
457.46	10630.71
457.64	10630.71
457.83	10494.96
458.01	10656.46
458.19	10864.77
458.38	10778.17
458.56	10904.56
458.74	10890.51
458.93	10771.15
459.11	10958.39
459.29	10780.51
459.48	10747.74
459.66	10628.37
459.84	11147.97
460.03	11147.97
460.21	11243.93
460.39	11180.74
460.57	11199.46
460.76	11461.60
460.94	11372.66
461.12	11536.50
461.31	11365.64
461.49	11403.09
461.67	11377.34
461.85	11669.91
462.04	11599.70
462.22	11662.89
462.40	11623.10
462.59	11616.08
462.77	11800.98
462.95	11978.86
463.13	11822.05
463.32	11920.35
463.50	11995.25
463.68	12159.08
463.86	12018.65
464.05	11829.07
464.23	11962.48
464.41	12044.40
464.59	11756.51
464.78	12318.24
464.96	12030.35
465.14	12009.29
465.32	12156.74
465.50	12189.51
465.69	12503.14
465.87	12379.09
466.05	12313.56
466.23	12531.23
466.41	12299.52
466.60	12795.71
466.78	12269.09
466.96	12545.27
467.14	12404.84
467.32	12650.60
467.51	12765.28
467.69	12367.39
467.87	12805.07
468.05	12851.88
468.23	12556.97
468.41	12662.30
468.60	12868.27
468.78	12908.05
468.96	12592.08
469.14	12856.56
469.32	13156.15
469.50	12903.37
469.69	13001.68
469.87	13289.56
470.05	13198.28
470.23	13481.49
470.41	13252.11
470.59	13472.12
470.77	13378.50
470.95	13308.29
471.14	13570.43
471.32	13397.23
471.50	13638.30
471.68	13844.27
471.86	14242.16
472.04	14083.00
472.22	14462.17
472.40	13825.54
472.58	13996.40
472.77	14396.64
472.95	14232.80
473.13	14867.08
473.31	14120.45
473.49	14223.44
473.67	14499.62
473.85	14693.88
474.03	14806.23
474.21	14766.44
474.39	14918.57
474.57	14888.15
474.75	15042.62
474.93	15339.87
475.12	14876.44
475.30	15194.76
475.48	15260.29
475.66	15316.47
475.84	15396.04
476.02	15367.96
476.20	15662.86
476.38	15695.63
476.56	16238.64
476.74	16191.83
476.92	16159.06
477.10	15880.53
477.28	16400.13
477.46	16215.23
477.64	16723.13
477.82	16662.27
478.00	17362.09
478.18	17357.41
478.36	17362.09
478.54	17462.74
478.72	17565.72
478.90	17898.08
479.08	17797.43
479.26	18082.98
479.44	18267.88
479.62	18270.22
479.80	18300.65
479.98	18597.90
480.16	18916.21
480.34	18473.85
480.52	18902.17
480.70	18618.96
480.88	19192.39
481.06	18909.19
481.24	18958.34
481.41	19592.62
481.59	19604.33
481.77	19665.18
481.95	20095.84
482.13	20058.39
482.31	19793.91
482.49	20872.90
482.67	20491.39
482.85	20816.72
483.03	20732.47
483.21	20919.71
483.39	21165.46
483.57	21214.62
483.74	21614.85
483.92	21799.75
484.10	21544.63
484.28	21869.97
484.46	22258.49
484.64	22707.88
484.82	22214.02
485.00	22803.84
485.18	23225.14
485.35	23283.65
485.53	23538.77
485.71	23105.77
485.89	24051.34
486.07	23913.25
486.25	23826.65
486.43	24025.60
486.61	24355.61
486.78	24231.57
486.96	24301.78
487.14	24865.85
487.32	25085.86
487.50	25312.89
487.68	25586.74
487.85	25743.55
488.03	25914.41
488.21	26106.34
488.39	26218.68
488.57	26300.60
488.75	26387.20
488.92	26906.80
489.10	27232.13
489.28	27440.44
489.46	27276.60
489.64	27330.44
489.81	28201.11
489.99	28535.81
490.17	28549.85
490.35	28257.29
490.53	28425.81
490.70	28978.17
490.88	28957.11
491.06	29579.69
491.24	29280.10
491.41	29448.62
491.59	29879.28
491.77	29675.65
491.95	30377.81
492.13	30162.48
492.30	30295.89
492.48	30445.69
492.66	30927.84
492.84	30749.96
493.01	30859.96
493.19	31304.67
493.37	31503.61
493.54	31571.49
493.72	31983.42
493.90	31800.86
494.08	32297.05
494.25	32360.25
494.43	32751.12
494.61	32910.27
494.79	32737.07
494.96	33085.81
495.14	32889.21
495.32	33771.59
495.49	33724.78
495.67	34019.69
495.85	34043.09
496.02	34068.84
496.20	34302.89
496.38	34506.52
496.55	34724.19
496.73	35314.00
496.91	35241.45
497.09	35154.85
497.26	35311.66
497.44	35243.79
497.62	35538.69
497.79	36290.01
497.97	35885.09
498.14	36268.94
498.32	36919.61
498.50	36809.61
498.67	37048.34
498.85	37090.47
499.03	37296.44
499.20	37340.91
499.38	37378.36
499.56	37518.79
499.73	37947.11
499.91	38234.99
500.08	38387.13
500.26	37914.34
500.44	38565.01
500.61	38307.55
500.79	38445.64
500.97	38520.54
501.14	39398.24
501.32	39283.55
501.49	39222.70
501.67	39143.12
501.84	39695.49
502.02	39686.12
502.20	39416.96
502.37	39875.71
502.55	39676.76
502.72	40032.52
502.90	40428.07
503.07	40313.39
503.25	40018.48
503.43	40559.14
503.60	40879.80
503.78	40905.54
503.95	41486.00
504.13	41221.52
504.30	41270.67
504.48	41069.38
504.65	41331.52
504.83	41909.63
505.01	42148.37
505.18	41717.71
505.36	42583.71
505.53	41794.95
505.71	42258.37
505.88	42553.28
506.06	42298.16
506.23	42148.37
506.41	42265.39
506.58	43070.54
506.76	42763.93
506.93	43016.71
507.11	43012.02
507.28	43337.36
507.46	43510.56
507.63	43449.70
507.81	44037.18
507.98	43812.49
508.16	43658.01
508.33	44009.09
508.50	44009.09
508.68	44142.50
508.85	44231.44
509.03	44172.93
509.20	44839.98
509.38	45050.63
509.55	45017.86
509.73	45132.55
509.90	45085.74
510.08	45326.81
510.25	44959.35
510.42	45237.87
510.60	45972.80
510.77	45968.12
510.95	45972.80
511.12	45757.47
511.30	46012.59
511.47	46431.55
511.64	46366.01
511.82	46609.43
511.99	46487.72
512.17	46525.17
512.34	46604.75
512.51	46997.96
512.69	47040.09
512.86	46838.80
513.04	47051.79
513.21	47201.58
513.38	47253.08
513.56	47494.15
513.73	47536.28
513.90	47372.44
514.08	47508.19
514.25	47899.06
514.43	47983.32
514.60	48210.35
514.77	47906.08
514.95	47875.66
515.12	48123.75
515.29	48486.54
515.47	48652.72
515.64	48769.74
515.81	48376.53
515.99	49017.84
516.16	48987.41
516.33	48910.17
516.51	49184.02
516.68	48659.74
516.85	49083.37
517.03	49460.20
517.20	49469.56
517.37	49502.33
517.54	49804.26
517.72	49549.14
517.89	49961.08
518.06	49675.53
518.24	49605.31
518.41	50099.17
518.58	50258.32
518.75	49979.80
518.93	50141.30
519.10	49785.54
519.27	50380.03
519.45	50340.24
519.62	50246.62
519.79	50513.44
519.96	50361.31
520.14	50543.87
520.31	50752.18
520.48	51063.47
520.65	50880.91
520.83	51320.93
521.00	51341.99
521.17	51444.98
521.34	51229.65
521.52	51175.81
521.69	51444.98
521.86	51653.28
522.03	51334.97
522.20	51737.54
522.38	51943.51
522.55	52055.85
522.72	51873.29
522.89	51786.69
523.07	52114.37
523.24	52123.73
523.41	52172.88
523.58	52154.16
523.75	52460.77
523.92	52683.12
524.10	52514.60
524.27	52495.88
524.44	52493.54
524.61	52928.87
524.78	52669.08
524.96	52788.44
525.13	52989.73
525.30	52938.24
525.47	52837.59
525.64	53476.56
525.81	52830.57
525.98	53176.97
526.16	53137.18
526.33	53141.86
526.50	53633.38
526.67	53219.10
526.84	53546.78
527.01	53155.91
527.18	53382.94
527.36	53539.75
527.53	53579.54
527.70	53621.67
527.87	53811.26
528.04	53764.45
528.21	53535.07
528.38	53663.80
528.55	54010.20
528.72	53935.30
528.89	53874.45
529.07	53717.64
529.24	53790.19
529.41	54192.76
529.58	54106.16
529.75	53998.50
529.92	54286.39
530.09	54480.65
530.26	54555.55
530.43	54450.22
530.60	54424.48
530.77	54408.09
530.94	54770.88
531.11	54560.23
531.28	54752.15
531.46	54787.26
531.63	54822.37
531.80	54667.89
531.97	54759.17
532.14	54834.07
532.31	55042.38
532.48	55011.95
532.65	55189.83
532.82	54969.82
532.99	55220.26
533.16	54986.21
533.33	55253.03
533.50	55203.88
533.67	55236.64
533.84	55178.13
534.01	55482.40
534.18	55381.76
534.35	55643.90
534.52	55622.83
534.69	55840.50
534.86	55662.62
535.03	55557.30
535.20	55580.70
535.37	55646.24
535.54	55849.86
535.71	55463.67
535.88	55686.03
536.05	55779.65
536.22	55976.25
536.38	56210.31
536.55	56090.94
536.72	56041.79
536.89	56048.81
537.06	56039.45
537.23	56343.72
537.40	56011.36
537.57	56074.55
537.74	56135.41
537.91	56420.95
538.08	56615.22
538.25	56062.85
538.42	56306.27
538.59	56573.09
538.75	56341.38
538.92	56594.15
539.09	56395.21
539.26	56659.69
539.43	56697.14
539.60	56624.58
539.77	56769.69
539.94	57130.14
540.11	56715.86
540.28	56816.50
540.44	56900.76
540.61	56830.55
540.78	56680.75
540.95	56629.26
541.12	56645.65
541.29	56818.84
541.46	57083.33
541.62	57043.54
541.79	57293.97
541.96	57022.47
542.13	56907.79
542.30	57013.11
542.47	57258.87
542.63	57303.34
542.80	57392.28
542.97	57434.41
543.14	57731.65
543.31	57446.11
543.48	57696.55
543.64	57794.85
543.81	57822.93
543.98	57499.94
544.15	57602.92
544.32	57834.64
544.48	57946.98
544.65	57743.36
544.82	57855.70
544.99	57670.80
545.16	57883.79
545.32	57612.29
545.49	58171.67
545.66	58288.70
545.83	58185.72
546.00	58323.81
546.16	58047.63
546.33	57881.45
546.50	57797.19
546.67	58127.20
546.83	57762.08
547.00	58213.80
547.17	58106.14
547.34	58457.22
547.50	58277.00
547.67	58536.80
547.84	58286.36
548.00	58621.06
548.17	58644.46
548.34	58307.43
548.51	58646.80
548.67	58761.49
548.84	58330.83
549.01	58326.15
549.18	58539.14
549.34	58625.74
549.51	58632.76
549.68	58794.26
549.84	58801.28
550.01	58927.67
550.18	58773.19
550.34	58805.96
550.51	58974.48
550.68	58855.11
550.84	58623.40
551.01	58897.24
551.18	58871.49
551.34	58871.49
551.51	58841.07
551.68	59049.38
551.84	58890.22
552.01	59009.59
552.18	59070.44
552.34	58990.86
552.51	58962.78
552.68	59077.46
552.84	58951.07
553.01	59276.41
553.18	59234.28
553.34	59178.10
553.51	58939.37
553.67	59419.18
553.84	59426.20
554.01	59253.00
554.17	59625.15
554.34	59496.42
554.51	59320.88
554.67	59473.01
554.84	59433.22
555.00	59330.24
555.17	59433.22
555.33	59327.90
555.50	59423.86
555.67	59316.20
555.83	59384.07
556.00	59419.18
556.16	59686.00
556.33	59711.75
556.50	59428.54
556.66	59622.81
556.83	59524.50
556.99	59971.55
557.16	59819.41
557.32	59880.27
557.49	59889.63
557.65	59618.13
557.82	59817.07
557.98	59901.33
558.15	59861.54
558.32	59910.69
558.48	59800.69
558.65	59931.76
558.81	59863.88
558.98	59936.44
559.14	59742.17
559.31	59882.61
559.47	60121.34
559.64	60154.11
559.80	60182.19
559.97	60107.30
560.13	60144.75
560.30	60123.68
560.46	60168.15
560.63	60182.19
560.79	59927.08
560.96	60233.69
561.12	60355.39
561.29	60233.69
561.45	60161.13
561.61	60168.15
561.78	60107.30
561.94	60219.64
562.11	60320.29
562.27	60406.89
562.44	60280.50
562.60	60315.61
562.77	60303.90
562.93	60210.28
563.10	60397.52
563.26	60268.79
563.42	60603.49
563.59	60348.37
563.75	60324.97
563.92	60280.50
564.08	60254.75
564.24	60477.10
564.41	60530.93
564.57	60615.19
564.74	60404.55
564.90	60441.99
565.07	60460.72
565.23	60704.13
565.39	60526.25
565.56	60619.88
565.72	60493.49
565.88	60664.35
566.05	60563.70
566.21	60643.28
566.38	60612.85
566.54	60729.88
566.70	60697.11
566.87	60615.19
567.03	60540.30
567.19	60713.50
567.36	60729.88
567.52	60544.98
567.68	60910.10
567.85	60732.22
568.01	60603.49
568.17	60673.71
568.34	60764.99
568.50	60685.41
568.66	60540.30
568.83	60774.35
568.99	60767.33
569.15	60807.12
569.32	60818.82
569.48	60865.63
569.64	60935.85
569.81	60935.85
569.97	60680.73
570.13	60769.67
570.30	60706.47
570.46	60956.91
570.62	60849.25
570.78	60933.51
570.95	60905.42
571.11	60926.49
571.27	60863.29
571.43	61036.49
571.60	61031.81
571.76	60926.49
571.92	61073.94
572.09	60931.17
572.25	61022.45
572.41	60839.89
572.57	61139.47
572.74	61233.10
572.90	60945.21
573.06	61118.41
573.22	60872.65
573.38	61132.45
573.55	61034.15
573.71	61167.56
573.87	61120.75
574.03	60985.00
574.20	61013.08
574.36	61027.13
574.52	60940.53
574.68	61179.26
574.84	61118.41
575.01	61263.52
575.17	61193.31
575.33	61057.56
575.49	61066.92
575.65	61240.12
575.82	60999.04
575.98	61268.20
576.14	61329.06
576.30	61263.52
576.46	61118.41
576.62	61235.44
576.79	60982.66
576.95	60985.00
577.11	61179.26
577.27	61235.44
577.43	61165.22
577.59	61123.09
577.75	61155.86
577.92	61048.19
578.08	61071.60
578.24	61160.54
578.40	61240.12
578.56	61113.73
578.72	61291.61
578.88	61298.63
579.04	61338.42
579.21	61319.70
579.37	61375.87
579.53	61286.93
579.69	60982.66
579.85	61090.32
580.01	61291.61
580.17	61052.87
580.33	61298.63
580.49	61329.06
580.65	61279.91
580.82	61296.29
580.98	60994.36
581.14	61237.78
581.30	61359.48
581.46	61305.65
581.62	61043.51
581.78	61118.41
581.94	61483.53
582.10	61125.43
582.26	61099.68
582.42	61408.64
582.58	61324.38
582.74	61193.31
582.90	61284.59
583.06	61329.06
583.22	61151.18
583.38	61366.51
583.54	61235.44
583.70	61312.67
583.86	61415.66
584.02	61134.79
584.18	61469.49
584.34	61591.20
584.50	61092.66
584.66	61087.98
584.82	61144.16
584.98	61441.40
585.14	61406.30
585.30	61366.51
585.46	61329.06
585.62	61338.42
585.78	61497.58
585.94	61212.03
586.10	61469.49
586.26	61214.37
586.42	61361.82
586.58	61549.07
586.74	61427.36
586.90	61322.04
587.06	61368.85
587.22	61343.10
587.38	61132.45
587.54	61579.49
587.70	61652.05
587.86	61329.06
588.02	61403.95
588.18	61375.87
588.34	61439.06
