SpectraSuite Data File
++++++++++++++++++++++++++++++++++++
Date: Fri Oct 25 11:25:51 EDT 2013
User: price-jones
Dark Spectrum Present: No
Reference Spectrum Present: No
Number of Sampled Component Spectra: 1
Spectrometers: USB2+H05261
Integration Time (usec): 100000 (USB2+H05261)
Spectra Averaged: 1 (USB2+H05261)
Boxcar Smoothing: 0 (USB2+H05261)
Correct for Electrical Dark: No (USB2+H05261)
Strobe/Lamp Enabled: No (USB2+H05261)
Correct for Detector Non-linearity: No (USB2+H05261)
Correct for Stray Light: No (USB2+H05261)
Number of Pixels in Processed Spectrum: 2048
>>>>>Begin Processed Spectral Data<<<<<
365.73	234.05
365.92	234.05
366.12	234.05
366.32	177.88
366.52	79.58
366.72	203.63
366.91	145.11
367.11	145.11
367.31	124.05
367.51	175.54
367.70	149.79
367.90	98.30
368.10	180.22
368.30	138.09
368.49	149.79
368.69	236.39
368.89	168.52
369.09	208.31
369.28	196.60
369.48	173.20
369.68	191.92
369.87	203.63
370.07	177.88
370.27	273.84
370.47	358.10
370.66	543.00
370.86	629.60
371.06	620.24
371.25	751.31
371.45	711.52
371.65	751.31
371.84	704.50
372.04	669.39
372.24	716.20
372.44	671.73
372.63	702.16
372.83	741.95
373.03	669.39
373.22	709.18
373.42	760.67
373.62	734.93
373.81	727.91
374.01	709.18
374.21	819.19
374.40	882.38
374.60	798.12
374.79	805.14
374.99	816.85
375.19	812.17
375.38	828.55
375.58	772.38
375.78	889.40
375.97	849.61
376.17	842.59
376.37	887.06
376.56	919.83
376.76	854.30
376.95	905.79
377.15	929.19
377.35	875.36
377.54	929.19
377.74	905.79
377.93	961.96
378.13	912.81
378.33	924.51
378.52	980.68
378.72	903.45
378.91	1025.15
379.11	947.92
379.31	863.66
379.50	912.81
379.70	961.96
379.89	1062.60
380.09	1034.52
380.28	971.32
380.48	952.60
380.68	983.02
380.87	964.30
381.07	1069.62
381.26	1006.43
381.46	1034.52
381.65	1001.75
381.85	987.71
382.04	1069.62
382.24	1034.52
382.43	1060.26
382.63	994.73
382.83	1036.86
383.02	1137.50
383.22	1151.54
383.41	1025.15
383.61	1121.12
383.80	1149.20
384.00	1179.63
384.19	1097.71
384.39	1132.82
384.58	1137.50
384.78	1174.95
384.97	1200.69
385.17	1090.69
385.36	1160.91
385.56	1137.50
385.75	1184.31
385.95	1231.12
386.14	1207.72
386.34	1174.95
386.53	1128.14
386.72	1254.53
386.92	1210.06
387.11	1291.98
387.31	1287.29
387.50	1284.95
387.70	1301.34
387.89	1212.40
388.09	1240.48
388.28	1181.97
388.48	1226.44
388.67	1266.23
388.86	1277.93
389.06	1303.68
389.25	1343.47
389.45	1327.08
389.64	1376.24
389.84	1394.96
390.03	1416.02
390.22	1451.13
390.42	1390.28
390.61	1404.32
390.81	1390.28
391.00	1399.64
391.19	1434.75
391.39	1376.24
391.58	1427.73
391.78	1549.43
391.97	1549.43
392.16	1441.77
392.36	1591.56
392.55	1598.59
392.75	1533.05
392.94	1483.90
393.13	1465.18
393.33	1483.90
393.52	1507.30
393.71	1666.46
393.91	1586.88
394.10	1657.10
394.29	1624.33
394.49	1619.65
394.68	1636.03
394.88	1591.56
395.07	1654.76
395.26	1600.93
395.46	1785.83
395.65	1664.12
395.84	1739.02
396.04	1692.21
396.23	1830.30
396.42	1820.94
396.62	1762.42
396.81	1743.70
397.00	1799.87
397.19	1722.63
397.39	1830.30
397.58	1905.20
397.77	1788.17
397.97	1856.04
398.16	1973.07
398.35	1879.45
398.55	1708.59
398.74	1921.58
398.93	1944.99
399.12	1905.20
399.32	1893.49
399.51	1877.11
399.70	1977.75
399.90	1900.52
400.09	2059.67
400.28	2062.01
400.47	2045.63
400.67	1984.77
400.86	2040.95
401.05	2038.61
401.24	2026.90
401.44	2111.16
401.63	2143.93
401.82	2193.08
402.01	2132.23
402.21	2230.53
402.40	2310.11
402.59	2244.57
402.78	2127.55
402.97	2193.08
403.17	2263.30
403.36	2211.81
403.55	2335.85
403.74	2333.51
403.93	2335.85
404.13	2373.30
404.32	2324.15
404.51	2401.39
404.70	2429.48
404.89	2373.30
405.09	2576.93
405.28	2431.82
405.47	2375.64
405.66	2424.80
405.85	2605.02
406.05	2525.44
406.24	2518.42
406.43	2441.18
406.62	2572.25
406.81	2689.28
407.00	2628.42
407.20	2581.61
407.39	2541.82
407.58	2726.72
407.77	2640.12
407.96	2801.62
408.15	2705.66
408.34	2785.24
408.54	2766.51
408.73	2827.37
408.92	2705.66
409.11	2810.98
409.30	2913.97
409.49	2761.83
409.68	2932.69
409.87	3002.91
410.07	3007.59
410.26	2944.39
410.45	3068.44
410.64	2935.03
410.83	3054.40
411.02	3054.40
411.21	3180.79
411.40	3157.38
411.59	3159.72
411.78	3159.72
411.98	3129.30
412.17	3325.90
412.36	3363.35
412.55	3339.94
412.74	3407.82
412.93	3358.67
413.12	3346.97
413.31	3534.21
413.50	3503.78
413.69	3576.34
413.88	3655.92
414.07	3672.30
414.26	3625.49
414.45	3637.19
414.64	3695.71
414.83	3815.07
415.02	3843.16
415.22	3779.97
415.41	3786.99
415.60	3892.31
415.79	3875.93
415.98	4049.13
416.17	3974.23
416.36	3983.59
416.55	3976.57
416.74	3999.98
416.93	4093.60
417.12	4035.08
417.31	4182.54
417.50	4063.17
417.69	4147.43
417.88	4369.78
418.07	4257.43
418.26	4224.67
418.45	4477.44
418.64	4610.86
418.83	4528.94
419.02	4505.53
419.21	4470.42
419.39	4479.79
419.58	4528.94
419.77	4463.40
419.96	4519.57
420.15	4636.60
420.34	4690.43
420.53	4613.20
420.72	4746.61
420.91	4589.79
421.10	4863.63
421.29	4791.08
421.48	4631.92
421.67	4692.77
421.86	4873.00
422.05	4779.37
422.24	4748.95
422.43	4959.60
422.61	4887.04
422.80	4922.15
422.99	4954.91
423.18	5015.77
423.37	5006.41
423.56	4999.38
423.75	4959.60
423.94	4952.57
424.13	4713.84
424.32	4798.10
424.50	4863.63
424.69	4938.53
424.88	5081.30
425.07	4889.38
425.26	4725.54
425.45	4842.57
425.64	5013.43
425.83	4999.38
426.01	5034.49
426.20	5186.63
426.39	5020.45
426.58	5053.22
426.77	5090.67
426.96	5170.24
427.15	5149.18
427.33	5303.65
427.52	5151.52
427.71	5270.89
427.90	5210.03
428.09	5357.49
428.28	5322.38
428.46	5348.12
428.65	5392.59
428.84	5411.32
429.03	5694.52
429.22	5460.47
429.40	5528.35
429.59	5467.49
429.78	5301.31
429.97	5291.95
430.16	5425.36
430.34	5647.71
430.53	5673.46
430.72	5654.73
430.91	5701.54
431.10	5666.44
431.28	5692.18
431.47	5797.51
431.66	5893.47
431.85	5755.38
432.03	5785.80
432.22	5942.62
432.41	5694.52
432.60	5921.56
432.79	5963.68
432.97	6043.26
433.16	6038.58
433.35	6073.69
433.54	6026.88
433.72	6181.35
433.91	6190.72
434.10	6010.50
434.28	6237.53
434.47	6146.25
434.66	6174.33
434.85	6293.70
435.03	6375.62
435.22	6230.51
435.41	6307.74
435.59	6352.21
435.78	6471.58
435.97	6373.28
436.16	6331.15
436.34	6466.90
436.53	6504.35
436.72	6743.08
436.90	6464.56
437.09	6541.80
437.28	6382.64
437.46	6586.27
437.65	6574.56
437.84	6724.36
438.02	6771.17
438.21	6876.49
438.40	6773.51
438.58	7087.14
438.77	7115.23
438.96	6946.71
439.14	7171.40
439.33	7183.10
439.52	7356.30
439.70	7187.79
439.89	7246.30
440.08	7360.98
440.26	7375.03
440.45	7431.20
440.63	7578.65
440.82	7681.64
441.01	7489.71
441.19	7658.23
441.38	7740.15
441.57	7857.18
441.75	7817.39
441.94	8119.32
442.12	7957.82
442.31	7946.12
442.50	8084.21
442.68	7700.36
442.87	7929.74
443.05	8051.44
443.24	8304.22
443.43	8318.26
443.61	8252.73
443.80	8524.23
443.98	8053.78
444.17	7845.48
444.35	8133.36
444.54	8336.99
444.73	8367.42
444.91	8341.67
445.10	8449.33
445.28	8411.89
445.47	8226.98
445.65	8262.09
445.84	8409.54
446.02	8542.96
446.21	8475.08
446.39	8278.47
446.58	8510.19
446.77	8648.28
446.95	8353.37
447.14	8348.69
447.32	8386.14
447.51	8334.65
447.69	8421.25
447.88	8360.39
448.06	8669.34
448.25	8468.06
448.43	8732.54
448.62	8535.93
448.80	8542.96
448.99	8664.66
449.17	8713.81
449.36	8805.10
449.54	8711.47
449.73	8725.52
449.91	8943.19
450.10	9046.17
450.28	9015.74
450.46	9132.77
450.65	8929.14
450.83	8999.36
451.02	9128.09
451.20	9060.21
451.39	9219.37
451.57	9294.27
451.76	9062.55
451.94	9172.56
452.13	9486.19
452.31	9345.76
452.49	9224.05
452.68	9373.85
452.86	9413.63
453.05	9411.29
453.23	9488.53
453.42	9380.87
453.60	9174.90
453.78	9596.20
453.97	9317.67
454.15	9633.64
454.34	9511.94
454.52	9661.73
454.70	9612.58
454.89	9839.61
455.07	9856.00
455.26	9783.44
455.44	9839.61
455.62	9860.68
455.81	9933.23
455.99	10071.33
456.17	9916.85
456.36	9961.32
456.54	10267.93
456.73	10363.89
456.91	10462.19
457.09	10441.13
457.28	10555.82
457.46	10555.82
457.64	10583.90
457.83	10614.33
458.01	10410.70
458.19	10775.83
458.38	10740.72
458.56	10792.21
458.74	10523.05
458.93	10675.18
459.11	10635.39
459.29	10654.12
459.48	10895.19
459.66	10855.40
459.84	10991.16
460.03	11124.57
460.21	10888.17
460.39	10747.74
460.57	10881.15
460.76	11049.67
460.94	11070.73
461.12	11164.36
461.31	11239.25
461.49	11126.91
461.67	11485.01
461.85	11534.16
462.04	11267.34
462.22	11751.83
462.40	11543.52
462.59	11499.05
462.77	11545.86
462.95	11641.82
463.13	11531.82
463.32	11676.93
463.50	11819.71
463.68	11702.68
463.86	11623.10
464.05	11796.30
464.23	11623.10
464.41	11819.71
464.59	11562.25
464.78	12219.94
464.96	12086.53
465.14	11969.50
465.32	11978.86
465.50	12093.55
465.69	12121.63
465.87	12177.81
466.05	12175.47
466.23	12152.06
466.41	12336.96
466.60	12308.88
466.78	12056.10
466.96	12393.14
467.14	12100.57
467.32	12259.73
467.51	12463.35
467.69	12173.13
467.87	12402.50
468.05	12713.79
468.23	12313.56
468.41	12631.87
468.60	12575.70
468.78	12706.77
468.96	12762.94
469.14	12681.02
469.32	13139.77
469.50	12669.32
469.69	13219.35
469.87	12929.12
470.05	13275.52
470.23	13081.25
470.41	13275.52
470.59	13146.79
470.77	12999.34
470.95	13123.38
471.14	13448.72
471.32	13160.83
471.50	13387.86
471.68	13504.89
471.86	13521.27
472.04	13778.73
472.22	14272.59
472.40	13481.49
472.58	13699.16
472.77	13900.44
472.95	14164.92
473.13	14668.14
473.31	14005.77
473.49	14087.68
473.67	14171.94
473.85	14284.29
474.03	14771.12
474.21	14506.64
474.39	14920.92
474.57	14672.82
474.75	14958.36
474.93	14829.63
475.12	14871.76
475.30	15302.42
475.48	15044.96
475.66	15391.36
475.84	15044.96
476.02	15496.69
476.20	15307.10
476.38	15644.14
476.56	15779.89
476.74	16208.21
476.92	15988.20
477.10	15899.26
477.28	16180.12
477.46	16180.12
477.64	16496.10
477.82	16381.41
478.00	16851.86
478.18	16870.58
478.36	16912.71
478.54	17181.87
478.72	17221.66
478.90	17401.88
479.08	17406.56
479.26	17703.81
479.44	17846.58
479.62	17619.55
479.80	17965.95
479.98	18036.17
480.16	18202.35
480.34	18113.41
480.52	18562.79
480.70	18707.90
480.88	18637.69
481.06	18867.06
481.24	19131.54
481.41	19154.94
481.59	19178.35
481.77	19442.83
481.95	19506.02
482.13	19758.80
482.31	19740.08
482.49	20290.10
482.67	20142.65
482.85	20383.73
483.03	20835.45
483.21	20758.21
483.39	20905.66
483.57	20781.62
483.74	21249.72
483.92	21057.80
484.10	21160.78
484.28	21682.72
484.46	21998.70
484.64	22560.42
484.82	21970.61
485.00	22321.69
485.18	22480.85
485.35	22848.31
485.53	22827.24
485.71	23477.91
485.89	23417.06
486.07	22845.97
486.25	23473.23
486.43	23611.32
486.61	24016.24
486.78	24058.37
486.96	24257.31
487.14	24491.37
487.32	24482.00
487.50	24994.58
487.68	24933.73
487.85	25298.85
488.03	25568.01
488.21	25773.98
488.39	25963.56
488.57	26132.08
488.75	26010.37
488.92	26487.84
489.10	26401.24
489.28	26871.69
489.46	27285.97
489.64	27377.25
489.81	27496.61
489.99	27878.12
490.17	27611.30
490.35	28130.90
490.53	28247.93
490.70	28121.54
490.88	28133.24
491.06	28734.76
491.24	28467.94
491.41	29443.94
491.59	29413.51
491.77	29364.36
491.95	29617.14
492.13	29830.13
492.30	29940.13
492.48	29783.32
492.66	30188.23
492.84	30017.37
493.01	30630.59
493.19	30773.36
493.37	30820.17
493.54	31159.55
493.72	31391.26
493.90	31236.79
494.08	31826.60
494.25	32048.96
494.43	31756.39
494.61	32318.12
494.79	32517.06
494.96	32411.74
495.14	32734.73
495.32	33556.26
495.49	33481.36
495.67	33174.75
495.85	33460.30
496.02	33834.78
496.20	33692.01
496.38	33935.43
496.55	33783.29
496.73	34986.33
496.91	34405.88
497.09	34843.56
497.26	35002.71
497.44	35342.09
497.62	35185.27
497.79	35945.95
497.97	35152.51
498.14	35611.25
498.32	36018.50
498.50	35950.63
498.67	35995.10
498.85	36292.35
499.03	36378.95
499.20	36339.16
499.38	37053.02
499.56	37273.03
499.73	37038.98
499.91	37266.01
500.08	37525.81
500.26	37394.74
500.44	37322.18
500.61	37865.19
500.79	37691.99
500.97	38050.09
501.14	38836.51
501.32	38295.85
501.49	38218.61
501.67	38483.09
501.84	38829.49
502.02	38504.15
502.20	39115.03
502.37	39093.97
502.55	39634.63
502.72	39557.39
502.90	39627.61
503.07	39938.90
503.25	40046.57
503.43	39325.68
503.60	40282.96
503.78	40149.55
503.95	40556.80
504.13	40671.49
504.30	40334.45
504.48	40746.39
504.65	40226.79
504.83	41055.34
505.01	41603.02
505.18	41443.87
505.36	41645.15
505.53	41027.25
505.71	41794.95
505.88	41570.25
506.06	41741.11
506.23	41605.36
506.41	41729.41
506.58	42108.58
506.76	42124.96
506.93	42337.95
507.11	42312.20
507.28	42696.05
507.46	42609.45
507.63	42735.84
507.81	42721.80
507.98	42925.42
508.16	42967.55
508.33	43143.09
508.50	43419.28
508.68	43576.09
508.85	44500.61
509.03	43885.04
509.20	44013.77
509.38	44081.65
509.55	44540.39
509.73	44275.91
509.90	44217.40
510.08	44451.45
510.25	44938.29
510.42	44465.50
510.60	44863.39
510.77	45322.13
510.95	45319.79
511.12	45078.72
511.30	45191.06
511.47	45324.47
511.64	45333.84
511.82	46043.02
511.99	45675.55
512.17	45745.77
512.34	45652.15
512.51	45930.67
512.69	46623.47
512.86	46351.97
513.04	46344.95
513.21	46639.86
513.38	46567.30
513.56	46916.04
513.73	46829.44
513.90	46784.97
514.08	46845.82
514.25	47323.29
514.43	47374.78
514.60	47590.11
514.77	47086.90
514.95	47763.31
515.12	47456.70
515.29	47487.13
515.47	47782.04
515.64	48285.25
515.81	47901.40
515.99	48198.65
516.16	48128.44
516.33	48128.44
516.51	48669.10
516.68	48311.00
516.85	48718.25
517.03	48961.67
517.20	48849.32
517.37	48830.60
517.54	48741.66
517.72	48669.10
517.89	48856.34
518.06	49483.61
518.24	49062.31
518.41	49326.79
518.58	49125.50
518.75	49102.10
518.93	49422.75
519.10	48982.73
519.27	49673.19
519.45	49811.28
519.62	49553.82
519.79	50260.66
519.96	49801.92
520.14	50028.95
520.31	50263.00
520.48	50199.81
520.65	50513.44
520.83	50733.45
521.00	50541.53
521.17	50553.23
521.34	50600.04
521.52	50597.70
521.69	50583.66
521.86	50848.14
522.03	50997.93
522.20	51480.08
522.38	51409.87
522.55	51316.25
522.72	51679.03
522.89	51267.09
523.07	51580.73
523.24	51646.26
523.41	51613.49
523.58	51290.50
523.75	51735.20
523.92	51966.91
524.10	52013.73
524.27	51896.70
524.44	52114.37
524.61	51995.00
524.78	52231.40
524.96	52299.27
525.13	52121.39
525.30	52233.74
525.47	52552.05
525.64	52732.27
525.81	52568.43
525.98	52837.59
526.16	52893.77
526.33	52800.15
526.50	52917.17
526.67	52575.45
526.84	53141.86
527.01	52910.15
527.18	52875.04
527.36	52542.69
527.53	52940.58
527.70	53539.75
527.87	53401.66
528.04	53237.83
528.21	53506.99
528.38	53169.95
528.55	53401.66
528.72	53345.49
528.89	53361.87
529.07	53532.73
529.24	53401.66
529.41	53778.49
529.58	53780.83
529.75	53652.10
529.92	53656.78
530.09	53886.15
530.26	54064.03
530.43	54026.59
530.60	53609.97
530.77	53750.40
530.94	54202.13
531.11	54309.79
531.28	54019.56
531.46	54152.97
531.63	54316.81
531.80	54199.79
531.97	54485.33
532.14	54312.13
532.31	54515.76
532.48	54719.38
532.65	54581.29
532.82	54370.64
532.99	54752.15
533.16	54557.89
533.33	54838.75
533.50	54740.45
533.67	54876.20
533.84	54817.69
534.01	54955.78
534.18	54623.42
534.35	55306.86
534.52	54948.76
534.69	54993.23
534.86	55231.96
535.03	54899.61
535.20	55014.29
535.37	55206.22
535.54	55451.97
535.71	55288.13
535.88	55391.12
536.05	55526.87
536.22	55671.98
536.38	55522.19
536.55	55676.66
536.72	55585.38
536.89	55566.66
537.06	55543.25
537.23	55861.57
537.40	55604.11
537.57	55976.25
537.74	55639.22
537.91	55999.66
538.08	55758.58
538.25	55889.65
538.42	55646.24
538.59	56184.56
538.75	56018.38
538.92	56067.53
539.09	56245.41
539.26	56016.04
539.43	55931.78
539.60	56172.86
539.77	56165.84
539.94	56388.19
540.11	56151.79
540.28	56243.07
540.44	56484.15
540.61	56285.20
540.78	56388.19
540.95	56381.16
541.12	56207.97
541.29	56479.47
541.46	56516.92
541.62	56369.46
541.79	56612.88
541.96	56430.32
542.13	56559.05
542.30	56685.43
542.47	56853.95
542.63	56837.57
542.80	56830.55
542.97	57111.41
543.14	57193.33
543.31	57118.43
543.48	57125.46
543.64	57436.75
543.81	57616.97
543.98	57308.02
544.15	57174.61
544.32	57289.29
544.48	57771.44
544.65	57495.26
544.82	57813.57
544.99	57261.21
545.16	57425.04
545.32	57497.60
545.49	57504.62
545.66	57649.74
545.83	57647.39
546.00	57694.21
546.16	57523.35
546.33	57499.94
546.50	57539.73
546.67	57832.30
546.83	57481.22
547.00	57827.62
547.17	57542.07
547.34	57701.23
547.50	57853.36
547.67	57841.66
547.84	57958.69
548.00	58085.07
548.17	58391.68
548.34	57937.62
548.51	58211.46
548.67	58120.18
548.84	58087.42
549.01	58150.61
549.18	57937.62
549.34	58255.93
549.51	58328.49
549.68	58447.86
549.84	58209.12
550.01	58494.67
550.18	58354.24
550.34	58417.43
550.51	58635.10
550.68	58431.47
550.84	58234.87
551.01	58714.68
551.18	58548.50
551.34	58347.21
551.51	58438.50
551.68	58625.74
551.84	58653.82
552.01	58557.86
552.18	58663.19
552.34	58436.16
552.51	58637.44
552.68	58702.98
552.84	58534.46
553.01	59051.72
553.18	58808.30
553.34	58798.94
553.51	58780.21
553.67	58625.74
553.84	59002.56
554.01	59023.63
554.17	58941.71
554.34	58855.11
554.51	59049.38
554.67	59093.85
554.84	59016.61
555.00	58930.01
555.17	59065.76
555.33	59128.95
555.50	58967.46
555.67	58958.09
555.83	59077.46
556.00	59065.76
556.16	59468.33
556.33	59196.83
556.50	59271.73
556.66	59508.12
556.83	59154.70
556.99	59477.69
557.16	59402.80
557.32	59540.89
557.49	59599.40
557.65	59363.01
557.82	59372.37
557.98	59421.52
558.15	59627.49
558.32	59358.33
558.48	59381.73
558.65	59316.20
558.81	59515.14
558.98	59519.82
559.14	59627.49
559.31	59786.64
559.47	59473.01
559.64	59587.70
559.80	59821.75
559.97	59714.09
560.13	59662.60
560.30	59578.34
560.46	59763.24
560.63	59664.94
560.79	59800.69
560.96	59948.14
561.12	59957.50
561.29	59866.22
561.45	59758.56
561.61	59976.23
561.78	59697.70
561.94	59826.43
562.11	59781.96
562.27	59711.75
562.44	59920.05
562.60	59934.10
562.77	59849.84
562.93	59667.28
563.10	60053.47
563.26	59763.24
563.42	60039.42
563.59	60172.83
563.75	59723.45
563.92	60163.47
564.08	59997.29
564.24	60107.30
564.41	60004.31
564.57	60212.62
564.74	60083.89
564.90	60135.38
565.07	60041.76
565.23	59936.44
565.39	60067.51
565.56	60182.19
565.72	60154.11
565.88	60102.62
566.05	59980.91
566.21	60170.49
566.38	60264.11
566.54	60238.37
566.70	60500.51
566.87	60247.73
567.03	60149.43
567.19	60404.55
567.36	60406.89
567.52	60210.28
567.68	60437.31
567.85	60357.74
568.01	60245.39
568.17	60292.20
568.34	60411.57
568.50	60523.91
568.66	60306.24
568.83	60537.96
568.99	60210.28
569.15	60402.21
569.32	60488.80
569.48	60477.10
569.64	60519.23
569.81	60413.91
569.97	60088.57
570.13	60439.65
570.30	60509.87
570.46	60310.92
570.62	60582.43
570.78	60472.42
570.95	60500.51
571.11	60463.06
571.27	60495.83
571.43	60390.50
571.60	60566.04
571.76	60465.40
571.92	60645.62
572.09	60509.87
572.25	60336.67
572.41	60509.87
572.57	60589.45
572.74	60687.75
572.90	60573.06
573.06	60582.43
573.22	60729.88
573.38	60666.69
573.55	60561.36
573.71	60917.12
573.87	60828.18
574.03	60603.49
574.20	60676.05
574.36	60495.83
574.52	60753.29
574.68	60811.80
574.84	60790.73
575.01	60673.71
575.17	60760.31
575.33	60479.44
575.49	60685.41
575.65	60645.62
575.82	60898.40
575.98	60795.42
576.14	60851.59
576.30	60889.04
576.46	60650.30
576.62	60512.21
576.79	60640.94
576.95	60615.19
577.11	60580.09
577.27	60860.95
577.43	60807.12
577.59	60685.41
577.75	60821.16
577.92	60699.45
578.08	60863.29
578.24	60683.07
578.40	60970.96
578.56	60924.14
578.72	60856.27
578.88	61013.08
579.04	61256.50
579.21	60842.23
579.37	61048.19
579.53	61219.05
579.69	60713.50
579.85	60865.63
580.01	60797.76
580.17	60779.03
580.33	60638.60
580.49	60839.89
580.65	61071.60
580.82	60931.17
580.98	60933.51
581.14	60846.91
581.30	60966.27
581.46	60919.46
581.62	60774.35
581.78	60835.20
581.94	60788.39
582.10	60722.86
582.26	60839.89
582.42	60615.19
582.58	60844.57
582.74	60664.35
582.90	60959.25
583.06	60753.29
583.22	60786.05
583.38	61120.75
583.54	60839.89
583.70	61041.17
583.86	60942.87
584.02	60844.57
584.18	60949.89
584.34	60938.19
584.50	61097.34
584.66	60776.69
584.82	60633.92
584.98	61151.18
585.14	61113.73
585.30	60980.32
585.46	61080.96
585.62	61141.81
585.78	61279.91
585.94	60652.64
586.10	61055.21
586.26	60800.10
586.42	61181.60
586.58	61003.72
586.74	60851.59
586.90	60914.78
587.06	61029.47
587.22	61087.98
587.38	60982.66
587.54	61092.66
587.70	61186.28
587.86	61076.28
588.02	61066.92
588.18	61062.24
588.34	61160.54
588.49	61013.08
