SpectraSuite Data File
++++++++++++++++++++++++++++++++++++
Date: Fri Oct 25 10:46:54 EDT 2013
User: price-jones
Dark Spectrum Present: No
Reference Spectrum Present: No
Number of Sampled Component Spectra: 1
Spectrometers: USB2+H05261
Integration Time (usec): 100000 (USB2+H05261)
Spectra Averaged: 1 (USB2+H05261)
Boxcar Smoothing: 0 (USB2+H05261)
Correct for Electrical Dark: No (USB2+H05261)
Strobe/Lamp Enabled: No (USB2+H05261)
Correct for Detector Non-linearity: No (USB2+H05261)
Correct for Stray Light: No (USB2+H05261)
Number of Pixels in Processed Spectrum: 2048
>>>>>Begin Processed Spectral Data<<<<<
365.73	95.96
365.92	95.96
366.12	95.96
366.32	32.77
366.52	28.09
366.72	63.19
366.91	21.06
367.11	35.11
367.31	37.45
367.51	0.00
367.70	77.24
367.90	70.22
368.10	49.15
368.30	23.41
368.49	42.13
368.69	81.92
368.89	102.98
369.09	0.00
369.28	0.00
369.48	14.04
369.68	124.05
369.87	51.49
370.07	93.62
370.27	154.48
370.47	163.84
370.66	442.36
370.86	496.19
371.06	440.02
371.25	545.34
371.45	444.70
371.65	493.85
371.84	535.98
372.04	369.80
372.24	447.04
372.44	561.73
372.63	566.41
372.83	543.00
373.03	585.13
373.22	533.64
373.42	524.28
373.62	517.26
373.81	479.81
374.01	575.77
374.21	491.51
374.40	496.19
374.60	561.73
374.79	655.35
374.99	622.58
375.19	528.96
375.38	587.47
375.58	662.37
375.78	636.63
375.97	664.71
376.17	655.35
376.37	547.69
376.56	685.78
376.76	655.35
376.95	617.90
377.15	713.86
377.35	685.78
377.54	653.01
377.74	648.33
377.93	669.39
378.13	716.20
378.33	704.50
378.52	655.35
378.72	716.20
378.91	669.39
379.11	641.31
379.31	727.91
379.50	638.97
379.70	704.50
379.89	674.07
380.09	699.82
380.28	685.78
380.48	713.86
380.68	681.10
380.87	671.73
381.07	702.16
381.26	748.97
381.46	657.69
381.65	606.20
381.85	706.84
382.04	601.52
382.24	681.10
382.43	664.71
382.63	657.69
382.83	784.08
383.02	695.14
383.22	744.29
383.41	753.65
383.61	760.67
383.80	770.04
384.00	812.17
384.19	805.14
384.39	791.10
384.58	800.46
384.78	774.72
384.97	807.48
385.17	748.97
385.36	870.68
385.56	784.08
385.75	767.70
385.95	772.38
386.14	807.48
386.34	840.25
386.53	898.77
386.72	823.87
386.92	905.79
387.11	847.27
387.31	823.87
387.50	882.38
387.70	779.40
387.89	861.32
388.09	793.44
388.28	809.83
388.48	884.72
388.67	915.15
388.86	994.73
389.06	964.30
389.25	999.41
389.45	994.73
389.64	966.64
389.84	952.60
390.03	1001.75
390.22	968.98
390.42	1071.97
390.61	1013.45
390.81	1086.01
391.00	1022.81
391.19	1090.69
391.39	1074.31
391.58	1015.79
391.78	1093.03
391.97	1121.12
392.16	1034.52
392.36	1013.45
392.55	1041.54
392.75	994.73
392.94	983.02
393.13	1020.47
393.33	1032.18
393.52	999.41
393.71	1146.86
393.91	1114.10
394.10	1093.03
394.29	1149.20
394.49	1167.93
394.68	1198.35
394.88	1263.89
395.07	1207.72
395.26	1224.10
395.46	1172.61
395.65	1200.69
395.84	1327.08
396.04	1160.91
396.23	1163.25
396.42	1254.53
396.62	1158.57
396.81	1296.66
397.00	1221.76
397.19	1256.87
397.39	1214.74
397.58	1294.32
397.77	1315.38
397.97	1387.94
398.16	1465.18
398.35	1458.15
398.55	1444.11
398.74	1497.94
398.93	1500.28
399.12	1502.62
399.32	1462.83
399.51	1516.67
399.70	1589.22
399.90	1572.84
400.09	1570.50
400.28	1593.90
400.47	1451.13
400.67	1647.74
400.86	1621.99
401.05	1636.03
401.24	1647.74
401.44	1621.99
401.63	1680.50
401.82	1600.93
402.01	1577.52
402.21	1619.65
402.40	1706.25
402.59	1687.53
402.78	1715.61
402.97	1720.29
403.17	1741.36
403.36	1825.62
403.55	1743.70
403.74	1853.70
403.93	1830.30
404.13	1830.30
404.32	1811.57
404.51	1816.26
404.70	1877.11
404.89	1837.32
405.09	1884.13
405.28	1954.35
405.47	1916.90
405.66	1940.30
405.85	1973.07
406.05	1987.11
406.24	1989.46
406.43	2031.58
406.62	2087.76
406.81	2209.47
407.00	2022.22
407.20	2022.22
407.39	2071.37
407.58	2169.68
407.77	2188.40
407.96	2118.18
408.15	2260.96
408.34	2111.16
408.54	2211.81
408.73	2167.34
408.92	2237.55
409.11	2253.94
409.30	2260.96
409.49	2122.87
409.68	2286.70
409.87	2228.19
410.07	2249.25
410.26	2387.35
410.45	2307.77
410.64	2375.64
410.83	2338.20
411.02	2523.10
411.21	2626.08
411.40	2499.69
411.59	2651.83
411.78	2551.18
411.98	2490.33
412.17	2619.06
412.36	2656.51
412.55	2614.38
412.74	2722.04
412.93	2651.83
413.12	2605.02
413.31	2796.94
413.50	2775.88
413.69	2787.58
413.88	2853.11
414.07	2810.98
414.26	2970.14
414.45	3012.27
414.64	2939.71
414.83	2998.23
415.02	3061.42
415.22	2972.48
415.41	3056.74
415.60	2963.12
415.79	3145.68
415.98	3159.72
416.17	3255.69
416.36	3080.14
416.55	3162.06
416.74	3213.56
416.93	3180.79
417.12	3318.88
417.31	3258.03
417.50	3272.07
417.69	3482.72
417.88	3351.65
418.07	3309.52
418.26	3377.39
418.45	3361.01
418.64	3466.33
418.83	3471.01
419.02	3499.10
419.21	3522.51
419.39	3527.19
419.58	3557.61
419.77	3520.17
419.96	3494.42
420.15	3698.05
420.34	3723.79
420.53	3616.13
420.72	3686.34
420.91	3700.39
421.10	3660.60
421.29	3850.18
421.48	3786.99
421.67	3662.94
421.86	3705.07
422.05	3674.64
422.24	3801.03
422.43	3716.77
422.61	3791.67
422.80	3840.82
422.99	3976.57
423.18	3899.33
423.37	3850.18
423.56	3906.35
423.75	3847.84
423.94	3873.59
424.13	3721.45
424.32	3705.07
424.50	3882.95
424.69	4077.21
424.88	3957.85
425.07	3955.51
425.26	3934.44
425.45	3758.90
425.64	3882.95
425.83	3686.34
426.01	4002.32
426.20	3840.82
426.39	3932.10
426.58	3934.44
426.77	3815.07
426.96	3859.54
427.15	3819.75
427.33	3957.85
427.52	4109.98
427.71	3990.61
427.90	4182.54
428.09	4173.18
428.28	4145.09
428.46	3978.91
428.65	3971.89
428.84	4102.96
429.03	4184.88
429.22	4163.81
429.40	4159.13
429.59	3978.91
429.78	3885.29
429.97	3913.38
430.16	4114.66
430.34	4067.85
430.53	4145.09
430.72	4259.78
430.91	4189.56
431.10	4355.74
431.28	4557.02
431.47	4400.21
431.66	4685.75
431.85	4423.61
432.03	4491.49
432.22	4521.92
432.41	4484.47
432.60	4571.07
432.79	4638.94
432.97	4816.82
433.16	4519.57
433.35	4723.20
433.54	4594.47
433.72	4674.05
433.91	4533.62
434.10	4739.58
434.28	4734.90
434.47	4732.56
434.66	4791.08
434.85	4912.78
435.03	4901.08
435.22	4863.63
435.41	5013.43
435.59	4903.42
435.78	5158.54
435.97	4861.29
436.16	4943.21
436.34	5034.49
436.53	5181.95
436.72	5081.30
436.90	5109.39
437.09	5043.85
437.28	4964.28
437.46	5184.29
437.65	5125.77
437.84	5245.14
438.02	4987.68
438.21	5001.72
438.40	4964.28
438.58	5357.49
438.77	5233.44
438.96	5348.12
439.14	5416.00
439.33	5584.52
439.52	5483.88
439.70	5598.56
439.89	5547.07
440.08	5600.90
440.26	5596.22
440.45	5710.91
440.63	5734.31
440.82	5893.47
441.01	5867.72
441.19	5893.47
441.38	6057.31
441.57	5996.45
441.75	6054.97
441.94	6040.92
442.12	6061.99
442.31	6239.87
442.50	6317.11
442.68	6174.33
442.87	6279.66
443.05	6232.85
443.24	6340.51
443.43	6218.80
443.61	6403.71
443.80	6612.01
443.98	6293.70
444.17	6225.82
444.35	6518.39
444.54	6518.39
444.73	6209.44
444.91	6307.74
445.10	6307.74
445.28	6230.51
445.47	6242.21
445.65	6338.17
445.84	6499.67
446.02	6462.22
446.21	6296.04
446.39	6471.58
446.58	6476.26
446.77	6499.67
446.95	6429.45
447.14	6555.84
447.32	6654.14
447.51	6558.18
447.69	6555.84
447.88	6520.73
448.06	6546.48
448.25	6485.62
448.43	6595.63
448.62	6544.14
448.80	6509.03
448.99	6597.97
449.17	6698.61
449.36	6597.97
449.54	6834.36
449.73	6977.14
449.91	6820.32
450.10	6881.18
450.28	6995.86
450.46	7045.01
450.65	7068.42
450.83	7033.31
451.02	6932.67
451.20	7199.49
451.39	7014.59
451.57	7080.12
451.76	7068.42
451.94	7073.10
452.13	7143.32
452.31	7157.36
452.49	6888.20
452.68	7045.01
452.86	7150.34
453.05	7204.17
453.23	7173.74
453.42	7208.85
453.60	7094.16
453.78	7300.13
453.97	7234.60
454.15	7234.60
454.34	7187.79
454.52	7379.71
454.70	7248.64
454.89	7583.34
455.07	7555.25
455.26	7459.29
455.44	7630.15
455.62	7744.83
455.81	7616.10
455.99	7793.98
456.17	7644.19
456.36	7541.21
456.54	7777.60
456.73	7812.71
456.91	7871.22
457.09	8131.02
457.28	8114.64
457.46	7786.96
457.64	7950.80
457.83	7793.98
458.01	7850.16
458.19	8222.30
458.38	7885.26
458.56	8278.47
458.74	7976.55
458.93	8154.43
459.11	8093.57
459.29	8189.53
459.48	8182.51
459.66	8198.90
459.84	8238.69
460.03	8329.97
460.21	8418.91
460.39	8395.50
460.57	8568.70
460.76	8369.76
460.94	8486.78
461.12	8505.51
461.31	8559.34
461.49	8432.95
461.67	8423.59
461.85	8664.66
462.04	8608.49
462.22	9100.00
462.40	8828.50
462.59	8706.79
462.77	8772.33
462.95	8723.18
463.13	8727.86
463.32	8842.54
463.50	8720.84
463.68	8879.99
463.86	8947.87
464.05	8767.65
464.23	8837.86
464.41	8842.54
464.59	8898.72
464.78	9067.24
464.96	9046.17
465.14	8709.13
465.32	9032.13
465.50	9177.24
465.69	9331.72
465.87	9046.17
466.05	8933.82
466.23	9132.77
466.41	8884.67
466.60	9399.59
466.78	8968.93
466.96	9118.73
467.14	9165.54
467.32	9207.67
467.51	9430.02
467.69	9067.24
467.87	9350.44
468.05	9383.21
468.23	9439.38
468.41	9366.82
468.60	9352.78
468.78	9387.89
468.96	9284.91
469.14	9682.80
469.32	9544.70
469.50	9458.10
469.69	9673.43
469.87	9724.93
470.05	9399.59
470.23	9870.04
470.41	9738.97
470.59	9872.38
470.77	9771.74
470.95	9846.63
471.14	9970.68
471.32	9755.35
471.50	10022.17
471.68	10092.39
471.86	10239.84
472.04	10052.60
472.22	10375.59
472.40	10265.59
472.58	10366.23
472.77	10352.19
472.95	10354.53
473.13	10637.73
473.31	10370.91
473.49	10422.41
473.67	10546.45
473.85	10588.58
474.03	10827.32
474.21	10911.58
474.39	10808.59
474.57	10759.44
474.75	10904.56
474.93	10956.05
475.12	11009.88
475.30	11028.60
475.48	11103.50
475.66	11297.77
475.84	10984.13
476.02	11405.43
476.20	11047.33
476.38	11307.13
476.56	11440.54
476.74	11676.93
476.92	11754.17
477.10	11592.67
477.28	12011.63
477.46	11957.80
477.64	11967.16
477.82	12154.40
478.00	12311.22
478.18	12360.37
478.36	12556.97
478.54	12524.21
478.72	12507.82
478.90	12652.94
479.08	12720.81
479.26	12940.82
479.44	13069.55
479.62	12800.39
479.80	13228.71
479.98	13085.94
480.16	13371.48
480.34	13437.02
480.52	13500.21
480.70	13502.55
480.88	13437.02
481.06	13722.56
481.24	13923.85
481.41	14052.58
481.59	14054.92
481.77	14293.65
481.95	14338.12
482.13	14483.24
482.31	14457.49
482.49	14516.00
482.67	14595.58
482.85	14944.32
483.03	14918.57
483.21	14906.87
483.39	15396.04
483.57	15304.76
483.74	15241.57
483.92	15372.64
484.10	15548.18
484.28	15779.89
484.46	15932.03
484.64	16238.64
484.82	15440.51
485.00	16039.69
485.18	16336.94
485.35	16147.36
485.53	15990.54
485.71	15758.83
485.89	16266.72
486.07	16306.51
486.25	16313.53
486.43	16755.90
486.61	16961.86
486.78	16807.39
486.96	17322.30
487.14	17469.76
487.32	17603.17
487.50	17647.64
487.68	17928.50
487.85	18094.68
488.03	18171.92
488.21	18487.89
488.39	18380.23
488.57	18621.30
488.75	18738.33
488.92	18750.03
489.10	19159.63
489.28	19534.11
489.46	19566.88
489.64	19742.42
489.81	20191.80
489.99	19953.07
490.17	19995.20
490.35	20142.65
490.53	20091.16
490.70	19917.96
490.88	20325.21
491.06	20634.16
491.24	20559.27
491.41	20350.96
491.59	20205.84
491.77	20517.14
491.95	20655.23
492.13	20980.56
492.30	21345.69
492.48	21708.47
492.66	21785.71
492.84	21848.90
493.01	22141.47
493.19	21532.93
493.37	22008.06
493.54	22134.45
493.72	22169.55
493.90	22609.58
494.08	22476.16
494.25	22906.82
494.43	22986.40
494.61	22984.06
494.79	23103.43
494.96	22951.29
495.14	22963.00
495.32	23498.98
495.49	23239.18
495.67	23662.82
495.85	23555.15
496.02	24049.00
496.20	24063.05
496.38	24144.97
496.55	24091.13
496.73	24510.09
496.91	24425.83
497.09	24545.20
497.26	24903.30
497.44	24699.67
497.62	25191.19
497.79	24884.58
497.97	25202.89
498.14	25111.61
498.32	25727.17
498.50	25212.25
498.67	25989.31
498.85	25598.44
499.03	25806.75
499.20	25914.41
499.38	26113.36
499.56	25996.33
499.73	26480.82
499.91	26230.38
500.08	26209.32
500.26	26246.77
500.44	26382.52
500.61	26621.25
500.79	26300.60
500.97	26857.65
501.14	27180.64
501.32	26967.65
501.49	26867.01
501.67	27098.72
501.84	27119.79
502.02	27239.15
502.20	26984.04
502.37	27627.68
502.55	27311.71
502.72	27639.39
502.90	27665.13
503.07	27667.47
503.25	28121.54
503.43	27733.01
503.60	28107.49
503.78	28151.96
503.95	28144.94
504.13	28327.50
504.30	28884.55
504.48	28460.91
504.65	28751.14
504.83	28950.09
505.01	29221.59
505.18	28610.71
505.36	28980.51
505.53	29144.35
505.71	29331.59
505.88	29539.90
506.06	28980.51
506.23	29427.56
506.41	29324.57
506.58	29357.34
506.76	29647.57
506.93	29673.31
507.11	29542.24
507.28	29741.19
507.46	29638.20
507.63	29813.74
507.81	29780.98
507.98	29577.35
508.16	30213.98
508.33	30010.35
508.50	30368.45
508.68	30389.52
508.85	30958.27
509.03	31072.95
509.20	30895.07
509.38	31108.06
509.55	31012.10
509.73	31105.72
509.90	31187.64
510.08	31115.08
510.25	31482.55
510.42	31379.56
510.60	31363.18
510.77	31611.28
510.95	31709.58
511.12	31353.82
511.30	32018.53
511.47	32102.79
511.64	32084.06
511.82	32273.65
511.99	31765.75
512.17	32266.63
512.34	32299.39
512.51	32458.55
512.69	32378.97
512.86	32416.42
513.04	32694.94
513.21	32416.42
513.38	32690.26
513.56	32673.88
513.73	32400.04
513.90	32854.10
514.08	32699.62
514.25	33022.62
514.43	33352.63
514.60	33020.28
514.77	32783.88
514.95	33589.03
515.12	33453.28
515.29	33312.84
515.47	33584.35
515.64	34188.21
515.81	33209.86
515.99	33715.42
516.16	33354.97
516.33	33502.43
516.51	33783.29
516.68	33303.48
516.85	32905.59
517.03	33237.95
517.20	33631.16
517.37	33986.92
517.54	34363.75
517.72	33923.72
517.89	34043.09
518.06	34164.80
518.24	34403.53
518.41	34155.44
518.58	34174.16
518.75	34384.81
518.93	34639.93
519.10	34307.57
519.27	34866.96
519.45	34969.94
519.62	35260.17
519.79	35215.70
519.96	35246.13
520.14	35756.36
520.31	35192.30
520.48	35288.26
520.65	35480.18
520.83	35861.69
521.00	35606.57
521.17	35728.28
521.34	35332.73
521.52	35978.72
521.69	36102.76
521.86	35981.06
522.03	35995.10
522.20	36357.88
522.38	36313.41
522.55	36198.73
522.72	36500.65
522.89	36065.31
523.07	36339.16
523.24	36208.09
523.41	36531.08
523.58	36737.05
523.75	37289.42
523.92	37046.00
524.10	37202.82
524.27	37291.76
524.44	37153.66
524.61	37312.82
524.78	37699.01
524.96	37626.45
525.13	37457.93
525.30	37890.93
525.47	37600.71
525.64	37118.56
525.81	37036.64
525.98	37720.07
526.16	37809.01
526.33	37411.12
526.50	37497.72
526.67	37556.24
526.84	37581.98
527.01	37471.98
527.18	37694.33
527.36	37577.30
527.53	38120.31
527.70	38328.61
527.87	38630.54
528.04	38043.07
528.21	38106.26
528.38	38337.98
528.55	38773.31
528.72	38955.88
528.89	38906.73
529.07	38293.50
529.24	38452.66
529.41	38380.10
529.58	38342.66
529.75	38557.99
529.92	38550.96
530.09	38618.84
530.26	39042.48
530.43	39145.46
530.60	38967.58
530.77	38953.54
530.94	39119.71
531.11	39168.87
531.28	39608.89
531.46	39414.62
531.63	39292.91
531.80	39321.00
531.97	39358.45
532.14	39313.98
532.31	39225.04
532.48	39215.68
532.65	39234.40
532.82	39409.94
532.99	39206.31
533.16	39459.09
533.33	39599.52
533.50	39711.87
533.67	39777.40
533.84	39409.94
534.01	39353.77
534.18	39761.02
534.35	40065.29
534.52	40112.10
534.69	40287.64
534.86	40067.63
535.03	40240.83
535.20	40713.62
535.37	40617.66
535.54	40402.33
535.71	40488.93
535.88	40044.23
536.05	40870.43
536.22	40601.27
536.38	40818.94
536.55	40505.31
536.72	40055.93
536.89	40472.54
537.06	40730.00
537.23	41198.11
537.40	40781.49
537.57	40905.54
537.74	40989.80
537.91	41481.31
538.08	40776.81
538.25	40622.34
538.42	41322.16
538.59	41420.46
538.75	41256.62
538.92	40917.25
539.09	41483.66
539.26	41460.25
539.43	41209.81
539.60	41291.73
539.77	41200.45
539.94	41563.23
540.11	41310.46
540.28	41500.04
540.44	41621.75
540.61	41415.78
540.78	41535.15
540.95	41720.05
541.12	41193.43
541.29	41387.69
541.46	41385.35
541.62	41801.97
541.79	41876.86
541.96	41820.69
542.13	41965.81
542.30	42110.92
542.47	42143.69
542.63	41757.50
542.80	41949.42
542.97	42183.48
543.14	42824.78
543.31	42684.35
543.48	42637.54
543.64	43002.66
543.81	43061.18
543.98	42609.45
544.15	42660.94
544.32	42447.96
544.48	42869.25
544.65	42583.71
544.82	42953.51
544.99	42408.17
545.16	42976.92
545.32	42637.54
545.49	43232.04
545.66	43583.12
545.83	43051.81
546.00	43384.17
546.16	42859.89
546.33	42211.56
546.50	42927.77
546.67	43152.46
546.83	42962.87
547.00	42904.36
547.17	42824.78
547.34	43335.02
547.50	43772.70
547.67	43332.68
547.84	43349.06
548.00	43688.44
548.17	43856.96
548.34	43662.69
548.51	43852.28
548.67	43971.64
548.84	44102.71
549.01	43646.31
549.18	43398.21
549.34	43894.41
549.51	43723.55
549.68	43604.18
549.84	43625.25
550.01	44369.54
550.18	43580.78
550.34	43868.66
550.51	43704.82
550.68	43707.16
550.84	43660.35
551.01	44100.37
551.18	43887.39
551.34	43758.66
551.51	44114.42
551.68	44151.87
551.84	44285.28
552.01	44453.79
552.18	44289.96
552.34	43995.05
552.51	44268.89
552.68	44189.31
552.84	44456.14
553.01	44823.60
553.18	44039.52
553.34	44203.36
553.51	44488.90
553.67	44315.70
553.84	44772.11
554.01	44587.21
554.17	44591.89
554.34	44294.64
554.51	44711.25
554.67	44657.42
554.84	44737.00
555.00	45233.19
555.17	44713.59
555.33	44903.18
555.50	44854.03
555.67	44477.20
555.83	44327.41
556.00	44802.53
556.16	44671.46
556.33	44961.69
556.50	44582.52
556.66	44680.83
556.83	44858.71
556.99	45233.19
557.16	45336.18
557.32	44898.50
557.49	45230.85
557.65	44729.98
557.82	44931.26
557.98	44643.38
558.15	45031.91
558.32	45118.51
558.48	44921.90
558.65	45193.40
558.81	45174.68
558.98	44949.99
559.14	45153.62
559.31	44933.60
559.47	44989.78
559.64	45633.42
559.80	45113.83
559.97	45654.49
560.13	45441.50
560.30	45263.62
560.46	45731.73
560.63	45399.37
560.79	45708.32
560.96	45741.09
561.12	45385.33
561.29	45195.74
561.45	45345.54
561.61	45624.06
561.78	45338.52
561.94	45563.21
562.11	45656.83
562.27	45368.94
562.44	45434.48
562.60	45174.68
562.77	45801.94
562.93	45514.06
563.10	45675.55
563.26	45446.18
563.42	46017.27
563.59	45160.64
563.75	45528.10
563.92	45841.73
564.08	45469.59
564.24	45830.03
564.41	46007.91
564.57	45450.86
564.74	45745.77
564.90	45633.42
565.07	45595.98
565.23	45387.67
565.39	45778.54
565.56	45748.11
565.72	45689.60
565.88	45743.43
566.05	45567.89
566.21	45947.06
566.38	45720.02
566.54	45584.27
566.70	46354.31
566.87	46057.06
567.03	45963.44
567.19	46335.59
567.36	45928.33
567.52	45696.62
567.68	46246.65
567.85	46059.40
568.01	45565.55
568.17	45598.32
568.34	46412.82
568.50	45722.37
568.66	45888.54
568.83	46225.58
568.99	45701.30
569.15	45851.09
569.32	45839.39
569.48	45457.88
569.64	46059.40
569.81	45869.82
569.97	45907.27
570.13	46220.90
570.30	45881.52
570.46	45549.17
570.62	46005.57
570.78	45818.33
570.95	46010.25
571.11	46202.18
571.27	46003.23
571.43	46094.51
571.60	46064.08
571.76	46251.33
571.92	45839.39
572.09	46113.23
572.25	46134.30
572.41	46614.11
572.57	45982.16
572.74	46270.05
572.90	46073.45
573.06	46284.09
573.22	46225.58
573.38	46031.32
573.55	46014.93
573.71	46174.09
573.87	46277.07
574.03	45998.55
574.20	46358.99
574.36	45951.74
574.52	46520.49
574.68	45799.60
574.84	46330.90
575.01	46323.88
575.17	46452.61
575.33	45462.57
575.49	46178.77
575.65	46003.23
575.82	46122.60
575.98	46122.60
576.14	46412.82
576.30	46305.16
576.46	45846.41
576.62	45937.69
576.79	46153.02
576.95	46040.68
577.11	45923.65
577.27	46047.70
577.43	46351.97
577.59	45942.38
577.75	46204.52
577.92	45848.75
578.08	45993.87
578.24	45722.37
578.40	46026.63
578.56	46340.27
578.72	46302.82
578.88	46124.94
579.04	45937.69
579.21	46373.03
579.37	46197.49
579.53	46330.90
579.69	45764.49
579.85	46232.60
580.01	46293.46
580.17	46391.76
580.33	46267.71
580.49	46459.63
580.65	46361.33
580.82	46410.48
580.98	45984.51
581.14	45991.53
581.30	46501.76
581.46	46473.68
581.62	46349.63
581.78	46588.36
581.94	46801.35
582.10	46059.40
582.26	46703.05
582.42	46347.29
582.58	46564.96
582.74	46106.21
582.90	45881.52
583.06	46358.99
583.22	46829.44
583.38	46656.24
583.54	46567.30
583.70	46312.18
583.86	46562.62
584.02	46197.49
584.18	46492.40
584.34	46714.75
584.50	46801.35
584.66	46288.77
584.82	45670.87
584.98	46710.07
585.14	46190.47
585.30	46110.89
585.46	45968.12
585.62	46075.79
585.78	46195.15
585.94	46227.92
586.10	46461.97
586.26	46108.55
586.42	46602.41
586.58	46705.39
586.74	46660.92
586.90	46443.25
587.06	46064.08
587.22	46426.87
587.38	46192.81
587.54	46466.66
587.70	46773.27
587.86	46286.43
588.02	46176.43
588.18	46836.46
588.34	46223.24
588.49	46021.95
588.65	46106.21
588.81	45361.92
588.97	46066.42
589.13	45530.44
589.29	46183.45
589.45	45914.29
589.61	45804.28
589.77	46602.41
589.93	46522.83
590.08	46899.65
