SpectraSuite Data File
++++++++++++++++++++++++++++++++++++
Date: Fri Oct 25 11:26:06 EDT 2013
User: price-jones
Dark Spectrum Present: No
Reference Spectrum Present: No
Number of Sampled Component Spectra: 1
Spectrometers: USB2+H05261
Integration Time (usec): 100000 (USB2+H05261)
Spectra Averaged: 1 (USB2+H05261)
Boxcar Smoothing: 0 (USB2+H05261)
Correct for Electrical Dark: No (USB2+H05261)
Strobe/Lamp Enabled: No (USB2+H05261)
Correct for Detector Non-linearity: No (USB2+H05261)
Correct for Stray Light: No (USB2+H05261)
Number of Pixels in Processed Spectrum: 2048
>>>>>Begin Processed Spectral Data<<<<<
365.73	243.42
365.92	243.42
366.12	243.42
366.32	135.75
366.52	32.77
366.72	142.77
366.91	107.66
367.11	177.88
367.31	170.86
367.51	65.54
367.70	72.56
367.90	133.41
368.10	100.64
368.30	154.48
368.49	126.39
368.69	238.73
368.89	198.95
369.09	163.84
369.28	168.52
369.48	175.54
369.68	154.48
369.87	196.60
370.07	257.46
370.27	259.80
370.47	330.02
370.66	578.11
370.86	681.10
371.06	709.18
371.25	671.73
371.45	674.07
371.65	711.52
371.84	669.39
372.04	636.63
372.24	706.84
372.44	671.73
372.63	795.78
372.83	732.59
373.03	692.80
373.22	746.63
373.42	744.29
373.62	688.12
373.81	812.17
374.01	793.44
374.21	716.20
374.40	802.80
374.60	828.55
374.79	805.14
374.99	741.95
375.19	898.77
375.38	828.55
375.58	753.65
375.78	929.19
375.97	830.89
376.17	891.74
376.37	912.81
376.56	891.74
376.76	936.21
376.95	915.15
377.15	800.46
377.35	954.94
377.54	915.15
377.74	943.24
377.93	947.92
378.13	854.30
378.33	976.00
378.52	851.96
378.72	945.58
378.91	952.60
379.11	950.26
379.31	889.40
379.50	1004.09
379.70	950.26
379.89	1076.65
380.09	987.71
380.28	964.30
380.48	959.62
380.68	961.96
380.87	945.58
381.07	1046.22
381.26	997.07
381.46	1004.09
381.65	1069.62
381.85	1088.35
382.04	1118.78
382.24	1043.88
382.43	1121.12
382.63	1013.45
382.83	1034.52
383.02	1146.86
383.22	1109.41
383.41	1181.97
383.61	1083.67
383.80	1163.25
384.00	1097.71
384.19	1132.82
384.39	1062.60
384.58	1088.35
384.78	1097.71
384.97	1104.73
385.17	1093.03
385.36	1086.01
385.56	1083.67
385.75	1200.69
385.95	1137.50
386.14	1165.59
386.34	1238.14
386.53	1277.93
386.72	1242.82
386.92	1249.85
387.11	1287.29
387.31	1240.48
387.50	1254.53
387.70	1214.74
387.89	1188.99
388.09	1170.27
388.28	1308.36
388.48	1200.69
388.67	1413.68
388.86	1320.06
389.06	1233.46
389.25	1369.21
389.45	1338.79
389.64	1411.34
389.84	1425.39
390.03	1308.36
390.22	1315.38
390.42	1355.17
390.61	1331.76
390.81	1385.60
391.00	1373.89
391.19	1504.96
391.39	1549.43
391.58	1439.43
391.78	1430.07
391.97	1516.67
392.16	1453.47
392.36	1577.52
392.55	1516.67
392.75	1462.83
392.94	1462.83
393.13	1561.14
393.33	1584.54
393.52	1603.27
393.71	1605.61
393.91	1570.50
394.10	1516.67
394.29	1582.20
394.49	1535.39
394.68	1717.95
394.88	1624.33
395.07	1703.91
395.26	1685.19
395.46	1696.89
395.65	1713.27
395.84	1722.63
396.04	1863.07
396.23	1739.02
396.42	1760.08
396.62	1764.76
396.81	1664.12
397.00	1701.57
397.19	1767.10
397.39	1774.13
397.58	1827.96
397.77	1746.04
397.97	1820.94
398.16	1923.92
398.35	1898.17
398.55	1842.00
398.74	1928.60
398.93	1879.45
399.12	1900.52
399.32	1799.87
399.51	2008.18
399.70	1996.48
399.90	1914.56
400.09	2073.71
400.28	2104.14
400.47	2078.40
400.67	2118.18
400.86	2136.91
401.05	2047.97
401.24	2108.82
401.44	2186.06
401.63	2092.44
401.82	2122.87
402.01	2162.66
402.21	2207.13
402.40	2150.95
402.59	2125.21
402.78	2246.91
402.97	2282.02
403.17	2284.36
403.36	2225.85
403.55	2242.23
403.74	2331.17
403.93	2307.77
404.13	2310.11
404.32	2293.72
404.51	2298.41
404.70	2469.27
404.89	2363.94
405.09	2534.80
405.28	2452.88
405.47	2396.71
405.66	2534.80
405.85	2443.52
406.05	2490.33
406.24	2562.89
406.43	2647.15
406.62	2644.81
406.81	2600.34
407.00	2579.27
407.20	2509.05
407.39	2588.63
407.58	2803.96
407.77	2736.09
407.96	2747.79
408.15	2822.69
408.34	2766.51
408.54	2836.73
408.73	2839.07
408.92	2843.75
409.11	2867.16
409.30	2913.97
409.49	2789.92
409.68	2825.03
409.87	2892.90
410.07	2892.90
410.26	2951.42
410.45	3047.38
410.64	3019.29
410.83	3077.80
411.02	3115.25
411.21	3110.57
411.40	3171.43
411.59	3330.58
411.78	3283.77
411.98	3239.30
412.17	3309.52
412.36	3255.69
412.55	3269.73
412.74	3213.56
412.93	3424.20
413.12	3379.73
413.31	3550.59
413.50	3501.44
413.69	3499.10
413.88	3620.81
414.07	3529.53
414.26	3700.39
414.45	3674.64
414.64	3712.09
414.83	3765.92
415.02	3627.83
415.22	3908.69
415.41	3882.95
415.60	3936.78
415.79	3864.22
415.98	3915.72
416.17	3887.63
416.36	3908.69
416.55	4011.68
416.74	4035.08
416.93	3988.27
417.12	4018.70
417.31	4086.58
417.50	4154.45
417.69	4135.73
417.88	4245.73
418.07	4219.99
418.26	4159.13
418.45	4266.80
418.64	4390.84
418.83	4400.21
419.02	4381.48
419.21	4362.76
419.39	4561.70
419.58	4491.49
419.77	4421.27
419.96	4638.94
420.15	4524.26
420.34	4648.30
420.53	4592.13
420.72	4777.03
420.91	4688.09
421.10	4592.13
421.29	4751.29
421.48	4695.11
421.67	4737.24
421.86	4718.52
422.05	4781.71
422.24	4819.16
422.43	4758.31
422.61	4865.97
422.80	4966.62
422.99	4919.81
423.18	4924.49
423.37	4901.08
423.56	4990.02
423.75	4910.44
423.94	4730.22
424.13	4723.20
424.32	4762.99
424.50	4975.98
424.69	5128.11
424.88	5088.32
425.07	4910.44
425.26	4936.19
425.45	4912.78
425.64	4950.23
425.83	4910.44
426.01	5174.92
426.20	5027.47
426.39	5102.37
426.58	4992.36
426.77	5088.32
426.96	5294.29
427.15	5048.54
427.33	5203.01
427.52	5219.39
427.71	5123.43
427.90	5170.24
428.09	5294.29
428.28	5413.66
428.46	5305.99
428.65	5294.29
428.84	5654.73
429.03	5528.35
429.22	5266.21
429.40	5614.95
429.59	5423.02
429.78	5259.18
429.97	5207.69
430.16	5509.62
430.34	5507.28
430.53	5511.96
430.72	5631.33
430.91	5430.04
431.10	5516.64
431.28	5633.67
431.47	5687.50
431.66	5755.38
431.85	5582.18
432.03	5746.02
432.22	6115.82
432.41	6012.84
432.60	5975.39
432.79	5919.21
432.97	6001.13
433.16	6057.31
433.35	5989.43
433.54	5942.62
433.72	5891.13
433.91	6099.44
434.10	6127.52
434.28	6008.16
434.47	6300.72
434.66	6333.49
434.85	6340.51
435.03	6230.51
435.22	6408.39
435.41	6537.12
435.59	6235.19
435.78	6328.81
435.97	6392.00
436.16	6242.21
436.34	6462.22
436.53	6413.07
436.72	6822.66
436.90	6427.11
437.09	6768.83
437.28	6483.28
437.46	6684.57
437.65	6544.14
437.84	6658.82
438.02	6679.89
438.21	6834.36
438.40	6715.00
438.58	6764.15
438.77	7133.95
438.96	6927.99
439.14	7122.25
439.33	7063.74
439.52	7190.13
439.70	7173.74
439.89	7089.48
440.08	7215.87
440.26	7391.41
440.45	7250.98
440.63	7351.62
440.82	7527.16
441.01	7501.42
441.19	7517.80
441.38	7737.81
441.57	7761.22
441.75	7592.70
441.94	8023.36
442.12	7908.67
442.31	7957.82
442.50	8011.65
442.68	7892.29
442.87	7896.97
443.05	7978.89
443.24	8030.38
443.43	8063.15
443.61	8210.60
443.80	8503.17
443.98	8042.08
444.17	8037.40
444.35	8257.41
444.54	8386.14
444.73	8325.29
444.91	8231.66
445.10	8147.40
445.28	8423.59
445.47	8147.40
445.65	8344.01
445.84	8325.29
446.02	8383.80
446.21	8463.38
446.39	8348.69
446.58	8667.00
446.77	8409.54
446.95	8262.09
447.14	8339.33
447.32	8549.98
447.51	8465.72
447.69	8329.97
447.88	8533.59
448.06	8423.59
448.25	8451.67
448.43	8573.38
448.62	8606.15
448.80	8648.28
448.99	8730.20
449.17	8755.94
449.36	8634.24
449.54	8702.11
449.73	8929.14
449.91	8882.33
450.10	8779.35
450.28	9050.85
450.46	9071.92
450.65	9041.49
450.83	9041.49
451.02	9114.05
451.20	9191.28
451.39	9202.99
451.57	9128.09
451.76	9219.37
451.94	9123.41
452.13	9329.38
452.31	9261.50
452.49	9057.87
452.68	9261.50
452.86	9535.34
453.05	9217.03
453.23	9343.42
453.42	9373.85
453.60	9151.49
453.78	9579.81
453.97	9317.67
454.15	9432.36
454.34	9518.96
454.52	9586.83
454.70	9596.20
454.89	9680.46
455.07	9792.80
455.26	9788.12
455.44	10001.11
455.62	9738.97
455.81	9783.44
455.99	10127.50
456.17	9977.70
456.36	9804.50
456.54	10415.38
456.73	10223.46
456.91	10619.01
457.09	10576.88
457.28	10476.24
457.46	10246.87
457.64	10579.22
457.83	10445.81
458.01	10204.74
458.19	10759.44
458.38	10345.17
458.56	10860.09
458.74	10724.33
458.93	10546.45
459.11	10782.85
459.29	10878.81
459.48	10644.76
459.66	10843.70
459.84	11080.10
460.03	11033.29
460.21	10965.41
460.39	11028.60
460.57	11000.52
460.76	11262.66
460.94	11070.73
461.12	11185.42
461.31	11171.38
461.49	11206.48
461.67	11122.23
461.85	11466.28
462.04	11367.98
462.22	11779.92
462.40	11473.31
462.59	11356.28
462.77	11396.07
462.95	11686.29
463.13	11534.16
463.32	11485.01
463.50	11651.19
463.68	11580.97
463.86	11803.32
464.05	11693.32
464.23	11590.33
464.41	11641.82
464.59	11683.95
464.78	12196.53
464.96	11971.84
465.14	11726.08
465.32	11985.88
465.50	12147.38
465.69	12138.02
465.87	12102.91
466.05	12119.29
466.23	12032.69
466.41	12184.83
466.60	12421.22
466.78	12093.55
466.96	12318.24
467.14	11941.41
467.32	12463.35
467.51	12411.86
467.69	12072.48
467.87	12313.56
468.05	12386.12
468.23	12414.20
468.41	12287.81
468.60	12446.97
468.78	12678.68
468.96	12484.42
469.14	12622.51
469.32	12964.23
469.50	12589.74
469.69	12849.54
469.87	13142.11
470.05	13018.06
470.23	12994.65
470.41	13348.08
470.59	13455.74
470.77	13254.45
470.95	13081.25
471.14	13565.74
471.32	13364.46
471.50	13521.27
471.68	13479.15
471.86	13666.39
472.04	13762.35
472.22	13968.32
472.40	13781.07
472.58	13673.41
472.77	13905.12
472.95	14031.51
473.13	14434.08
473.31	13848.95
473.49	14005.77
473.67	14024.49
473.85	14101.73
474.03	14310.04
474.21	14375.57
474.39	14848.36
474.57	14471.53
474.75	15012.20
474.93	14927.94
475.12	14909.21
475.30	15105.82
475.48	15051.99
475.66	15169.01
475.84	15098.80
476.02	15241.57
476.20	15414.77
476.38	15793.94
476.56	16058.42
476.74	15744.78
476.92	15873.51
477.10	15894.58
477.28	16002.24
477.46	16123.95
477.64	16226.93
477.82	16538.23
478.00	17013.35
478.18	16713.77
478.36	16945.48
478.54	17039.10
478.72	17151.45
478.90	17458.06
479.08	17551.68
479.26	17748.28
479.44	17879.35
479.62	17603.17
479.80	17778.71
479.98	18232.77
480.16	18434.06
480.34	18274.90
480.52	18553.43
480.70	18881.10
480.88	18499.59
481.06	18700.88
481.24	18836.63
481.41	18883.44
481.59	19356.23
481.77	19150.26
481.95	19372.61
482.13	19702.63
482.31	19613.69
482.49	20100.52
482.67	20201.16
482.85	20688.00
483.03	20458.62
483.21	20634.16
483.39	20919.71
483.57	20870.56
483.74	21036.74
483.92	21275.47
484.10	21235.68
484.28	21525.91
484.46	22274.88
484.64	21994.01
484.82	21860.60
485.00	22157.85
485.18	22642.34
485.35	22799.16
485.53	22754.69
485.71	23051.94
485.89	23529.41
486.07	23246.20
486.25	23014.49
486.43	23611.32
486.61	23688.56
486.78	23812.61
486.96	24180.07
487.14	24549.88
487.32	24589.67
487.50	24629.46
487.68	24835.42
487.85	25172.46
488.03	25624.18
488.21	25984.63
488.39	25598.44
488.57	26015.05
488.75	26017.40
488.92	26382.52
489.10	26665.72
489.28	26401.24
489.46	26845.94
489.64	26944.25
489.81	27431.08
489.99	27782.16
490.17	27615.98
490.35	27997.49
490.53	27824.29
490.70	28105.15
490.88	28048.98
491.06	28699.65
491.24	28826.04
491.41	29109.24
491.59	28996.90
491.77	29074.13
491.95	29780.98
492.13	29603.10
492.30	29663.95
492.48	29951.84
492.66	29788.00
492.84	30401.22
493.01	30305.26
493.19	30525.27
493.37	30796.77
493.54	31211.04
493.72	31283.60
493.90	31236.79
494.08	31587.87
494.25	32112.15
494.43	31714.26
494.61	31976.40
494.79	32121.51
494.96	32194.07
495.14	32503.02
495.32	32912.61
495.49	33198.16
495.67	33071.77
495.85	33116.24
496.02	33673.29
496.20	34036.07
496.38	33837.12
496.55	33942.45
496.73	34899.73
496.91	34384.81
497.09	34871.64
497.26	34712.49
497.44	35318.68
497.62	35330.39
497.79	35754.02
497.97	35239.11
498.14	35899.14
498.32	35789.13
498.50	36098.08
498.67	36418.74
498.85	36137.87
499.03	36535.76
499.20	36329.80
499.38	37212.18
499.56	36914.93
499.73	37165.37
499.91	37453.25
500.08	37193.45
500.26	37268.35
500.44	37581.98
500.61	37649.86
500.79	38167.12
500.97	38057.11
501.14	38410.53
501.32	38321.59
501.49	38127.33
501.67	38452.66
501.84	38682.03
502.02	38593.09
502.20	39072.90
502.37	39276.53
502.55	39431.01
502.72	39351.43
502.90	39482.50
503.07	39400.58
503.25	39587.82
503.43	39704.85
503.60	40067.63
503.78	40315.73
503.95	40030.18
504.13	40285.30
504.30	40573.19
504.48	40013.80
504.65	40460.84
504.83	40950.01
505.01	41375.99
505.18	40865.75
505.36	41324.50
505.53	40919.59
505.71	41558.55
505.88	42096.88
506.06	41467.27
506.23	42113.26
506.41	41397.06
506.58	41345.56
506.76	42319.23
506.93	42071.13
507.11	42038.36
507.28	42454.98
507.46	42323.91
507.63	42625.84
507.81	43044.79
507.98	42541.58
508.16	43065.86
508.33	43435.66
508.50	43309.27
508.68	43803.13
508.85	43466.09
509.03	43367.79
509.20	43969.30
509.38	43990.37
509.55	44423.37
509.73	44680.83
509.90	44488.90
510.08	44236.12
510.25	44383.58
510.42	44821.26
510.60	44790.83
510.77	44685.51
510.95	45254.26
511.12	44737.00
511.30	45081.06
511.47	44957.01
511.64	45359.58
511.82	45500.01
511.99	45394.69
512.17	45546.82
512.34	45661.51
512.51	46068.76
512.69	46073.45
512.86	46192.81
513.04	46312.18
513.21	46761.56
513.38	46600.07
513.56	46738.16
513.73	46426.87
513.90	46574.32
514.08	46550.91
514.25	47173.50
514.43	47093.92
514.60	47334.99
514.77	46937.10
514.95	47189.88
515.12	47562.03
515.29	47686.07
515.47	47756.29
515.64	47845.23
515.81	47615.86
515.99	47826.51
516.16	48320.36
516.33	48364.83
516.51	48540.37
516.68	48533.35
516.85	48231.42
517.03	48788.47
517.20	48617.61
517.37	48711.23
517.54	48470.15
517.72	48554.41
517.89	48928.90
518.06	48837.62
518.24	49310.41
518.41	49001.46
518.58	49406.37
518.75	48952.30
518.93	49523.40
519.10	49305.73
519.27	49492.97
519.45	49432.11
519.62	49989.16
519.79	49729.36
519.96	49930.65
520.14	49811.28
520.31	50096.83
520.48	50178.75
520.65	49951.71
520.83	50593.02
521.00	50623.45
521.17	50443.23
521.34	50162.36
521.52	50417.48
521.69	50843.46
521.86	50866.86
522.03	50890.27
522.20	50979.21
522.38	51054.11
522.55	51290.50
522.72	51138.36
522.89	51199.22
523.07	51543.28
523.24	51288.16
523.41	51334.97
523.58	51363.06
523.75	51812.44
523.92	51171.13
524.10	51753.93
524.27	51873.29
524.44	52004.36
524.61	52032.45
524.78	52039.47
524.96	51915.42
525.13	52060.54
525.30	51842.87
525.47	52310.97
525.64	52058.20
525.81	52327.36
525.98	52666.73
526.16	52322.68
526.33	52643.33
526.50	52811.85
526.67	52608.22
526.84	52839.93
527.01	52629.29
527.18	52676.10
527.36	52811.85
527.53	52994.41
527.70	53268.25
527.87	53174.63
528.04	53102.07
528.21	53020.16
528.38	53120.80
528.55	53469.54
528.72	53111.44
528.89	53485.92
529.07	53347.83
529.24	53226.12
529.41	53439.11
529.58	53350.17
529.75	53827.64
529.92	53989.14
530.09	53502.31
530.26	53691.89
530.43	53801.89
530.60	53631.04
530.77	53743.38
530.94	54054.67
531.11	53928.28
531.28	54099.14
531.46	54075.74
531.63	54150.63
531.80	54251.28
531.97	54136.59
532.14	54384.69
532.31	54237.23
532.48	54742.79
532.65	54513.42
532.82	54583.63
532.99	54438.52
533.16	54365.96
533.33	54424.48
533.50	54688.96
533.67	54609.38
533.84	54593.00
534.01	54621.08
534.18	54857.48
534.35	55093.87
534.52	55112.59
534.69	54894.92
534.86	55498.78
535.03	54773.22
535.20	55028.34
535.37	55173.45
535.54	55449.63
535.71	54869.18
535.88	55470.70
536.05	55180.47
536.22	55463.67
536.38	55508.14
536.55	55400.48
536.72	55508.14
536.89	55306.86
537.06	55414.52
537.23	55639.22
537.40	55519.85
537.57	55622.83
537.74	55793.69
537.91	55725.81
538.08	55973.91
538.25	55524.53
538.42	55936.46
538.59	55868.59
538.75	55767.94
538.92	55765.60
539.09	55945.83
539.26	56114.34
539.43	56004.34
539.60	56142.43
539.77	55992.64
539.94	56282.86
540.11	56135.41
540.28	56214.99
540.44	56137.75
540.61	56203.28
540.78	56182.22
540.95	56418.61
541.12	56278.18
541.29	56399.89
541.46	56451.38
541.62	56502.87
541.79	56779.06
541.96	56395.21
542.13	56322.65
542.30	56580.11
542.47	56804.80
542.63	56582.45
542.80	56713.52
542.97	57043.54
543.14	57111.41
543.31	56875.02
543.48	57127.80
543.64	57279.93
543.81	57240.14
543.98	57301.00
544.15	57399.30
544.32	57102.05
544.48	57382.91
544.65	57102.05
544.82	57286.95
544.99	57148.86
545.16	57530.37
545.32	57380.57
545.49	57621.65
545.66	57818.25
545.83	57607.61
546.00	57736.34
546.16	57446.11
546.33	57724.63
546.50	57308.02
546.67	57579.52
546.83	57364.19
547.00	57495.26
547.17	57607.61
547.34	57769.10
547.50	58021.88
547.67	57944.64
547.84	57939.96
548.00	57858.04
548.17	58038.26
548.34	58071.03
548.51	58169.33
548.67	58169.33
548.84	58003.16
549.01	57956.35
549.18	58124.86
549.34	58337.85
549.51	58202.10
549.68	58319.13
549.84	58033.58
550.01	58295.72
550.18	58078.05
550.34	58307.43
550.51	58309.77
550.68	58452.54
550.84	58080.39
551.01	58349.56
551.18	58363.60
551.34	58162.31
551.51	58387.00
551.68	58342.53
551.84	58372.96
552.01	58174.02
552.18	58644.46
552.34	58424.45
552.51	58501.69
552.68	58398.71
552.84	58632.76
553.01	58859.79
553.18	58820.00
553.34	58805.96
553.51	58656.17
553.67	58749.79
553.84	58780.21
554.01	58724.04
554.17	58913.62
554.34	58979.16
554.51	58714.68
554.67	59138.32
554.84	58939.37
555.00	58953.41
555.17	58958.09
555.33	58918.31
555.50	58986.18
555.67	58791.92
555.83	58997.88
556.00	59016.61
556.16	59437.90
556.33	59222.58
556.50	59128.95
556.66	59138.32
556.83	59236.62
556.99	59316.20
557.16	59318.54
557.32	59313.86
557.49	59426.20
557.65	59236.62
557.82	59465.99
557.98	59267.05
558.15	59428.54
558.32	59498.76
558.48	59360.67
558.65	59409.82
558.81	59674.30
558.98	59283.43
559.14	59634.51
559.31	59505.78
559.47	59398.12
559.64	59545.57
559.80	59676.64
559.97	59763.24
560.13	59407.48
560.30	59517.48
560.46	59737.49
560.63	59767.92
560.79	59622.81
560.96	59793.67
561.12	59662.60
561.29	59772.60
561.45	59777.28
561.61	59753.88
561.78	59847.50
561.94	59629.83
562.11	59592.38
562.27	59625.15
562.44	59983.25
562.60	59962.18
562.77	59931.76
562.93	59784.30
563.10	59824.09
563.26	59718.77
563.42	59863.88
563.59	59985.59
563.75	59994.95
563.92	59824.09
564.08	59772.60
564.24	60001.97
564.41	59924.74
564.57	60076.87
564.74	59950.48
564.90	59999.63
565.07	60086.23
565.23	59868.56
565.39	59936.44
565.56	60200.92
565.72	60011.34
565.88	60032.40
566.05	59985.59
566.21	60046.44
566.38	59983.25
566.54	60369.44
566.70	60093.25
566.87	60168.15
567.03	60009.00
567.19	60212.62
567.36	60144.75
567.52	60175.17
567.68	60434.97
567.85	60322.63
568.01	60250.07
568.17	60280.50
568.34	60425.61
568.50	60053.47
568.66	60308.58
568.83	60339.01
568.99	60154.11
569.15	60221.98
569.32	60339.01
569.48	60296.88
569.64	60446.68
569.81	60343.69
569.97	60282.84
570.13	60147.09
570.30	60238.37
570.46	60292.20
570.62	60650.30
570.78	60514.55
570.95	60310.92
571.11	60584.77
571.27	60322.63
571.43	60495.83
571.60	60800.10
571.76	60397.52
571.92	60397.52
572.09	60378.80
572.25	60481.78
572.41	60589.45
572.57	60598.81
572.74	60631.58
572.90	60587.11
573.06	60587.11
573.22	60339.01
573.38	60650.30
573.55	60339.01
573.71	60767.33
573.87	60493.49
574.03	60376.46
574.20	60519.23
574.36	60528.59
574.52	60860.95
574.68	60477.10
574.84	60654.98
575.01	60619.88
575.17	60589.45
575.33	60603.49
575.49	60596.47
575.65	60804.78
575.82	60666.69
575.98	60774.35
576.14	60853.93
576.30	60764.99
576.46	60608.17
576.62	60575.40
576.79	60657.32
576.95	60549.66
577.11	60727.54
577.27	60680.73
577.43	60741.58
577.59	60622.22
577.75	60509.87
577.92	60615.19
578.08	60605.83
578.24	60823.50
578.40	60830.52
578.56	60874.99
578.72	60842.23
578.88	61041.17
579.04	60949.89
579.21	60774.35
579.37	60767.33
579.53	60734.56
579.69	60680.73
579.85	60608.17
580.01	60793.07
580.17	60673.71
580.33	60683.07
580.49	60959.25
580.65	60666.69
580.82	60802.44
580.98	60619.88
581.14	60589.45
581.30	61111.39
581.46	60652.64
581.62	60996.70
581.78	60673.71
581.94	60912.44
582.10	60837.54
582.26	60757.97
582.42	60837.54
582.58	60858.61
582.74	60884.36
582.90	60814.14
583.06	60870.31
583.22	60601.15
583.38	60713.50
583.54	60727.54
583.70	60996.70
583.86	61050.53
584.02	60814.14
584.18	60949.89
584.34	60814.14
584.50	60800.10
584.66	60947.55
584.82	60701.79
584.98	61092.66
585.14	60879.67
585.30	60809.46
585.46	61027.13
585.62	61027.13
585.78	61169.90
585.94	60654.98
586.10	60720.52
586.26	60776.69
586.42	60968.61
586.58	60947.55
586.74	61006.06
586.90	60879.67
587.06	60970.96
587.22	60924.14
587.38	60989.68
587.54	61118.41
587.70	61038.83
587.86	60982.66
588.02	60893.72
588.18	61158.20
588.34	60980.32
588.49	61022.45
