SpectraSuite Data File
++++++++++++++++++++++++++++++++++++
Date: Fri Oct 25 11:23:20 EDT 2013
User: price-jones
Dark Spectrum Present: No
Reference Spectrum Present: No
Number of Sampled Component Spectra: 1
Spectrometers: USB2+H05261
Integration Time (usec): 100000 (USB2+H05261)
Spectra Averaged: 1 (USB2+H05261)
Boxcar Smoothing: 0 (USB2+H05261)
Correct for Electrical Dark: No (USB2+H05261)
Strobe/Lamp Enabled: No (USB2+H05261)
Correct for Detector Non-linearity: No (USB2+H05261)
Correct for Stray Light: No (USB2+H05261)
Number of Pixels in Processed Spectrum: 2048
>>>>>Begin Processed Spectral Data<<<<<
365.73	161.50
365.92	161.50
366.12	161.50
366.32	154.48
366.52	168.52
366.72	175.54
366.91	159.16
367.11	147.45
367.31	63.19
367.51	184.90
367.70	95.96
367.90	168.52
368.10	170.86
368.30	168.52
368.49	77.24
368.69	152.13
368.89	124.05
369.09	156.82
369.28	105.32
369.48	140.43
369.68	184.90
369.87	227.03
370.07	241.08
370.27	208.31
370.47	402.57
370.66	554.71
370.86	587.47
371.06	667.05
371.25	634.29
371.45	638.97
371.65	718.54
371.84	636.63
372.04	711.52
372.24	711.52
372.44	667.05
372.63	791.10
372.83	699.82
373.03	786.42
373.22	751.31
373.42	816.85
373.62	753.65
373.81	744.29
374.01	816.85
374.21	866.00
374.40	828.55
374.60	800.46
374.79	828.55
374.99	849.61
375.19	819.19
375.38	861.32
375.58	833.23
375.78	856.64
375.97	870.68
376.17	884.72
376.37	819.19
376.56	884.72
376.76	870.68
376.95	931.53
377.15	877.70
377.35	873.02
377.54	882.38
377.74	898.77
377.93	882.38
378.13	938.55
378.33	912.81
378.52	943.24
378.72	983.02
378.91	959.62
379.11	1004.09
379.31	940.90
379.50	999.41
379.70	924.51
379.89	1055.58
380.09	1034.52
380.28	1039.20
380.48	997.07
380.68	933.87
380.87	847.27
381.07	999.41
381.26	1046.22
381.46	997.07
381.65	1032.18
381.85	1006.43
382.04	973.66
382.24	1008.77
382.43	1050.90
382.63	1130.48
382.83	1060.26
383.02	1083.67
383.22	1123.46
383.41	1165.59
383.61	1128.14
383.80	1165.59
384.00	1060.26
384.19	1102.39
384.39	1226.44
384.58	1123.46
384.78	1095.37
384.97	1083.67
385.17	1149.20
385.36	1226.44
385.56	1128.14
385.75	1163.25
385.95	1263.89
386.14	1203.04
386.34	1193.67
386.53	1254.53
386.72	1224.10
386.92	1242.82
387.11	1184.31
387.31	1193.67
387.50	1231.12
387.70	1240.48
387.89	1320.06
388.09	1254.53
388.28	1291.98
388.48	1331.76
388.67	1259.21
388.86	1343.47
389.06	1364.53
389.25	1380.92
389.45	1331.76
389.64	1362.19
389.84	1345.81
390.03	1369.21
390.22	1355.17
390.42	1409.00
390.61	1434.75
390.81	1317.72
391.00	1416.02
391.19	1378.58
391.39	1455.81
391.58	1444.11
391.78	1528.37
391.97	1561.14
392.16	1528.37
392.36	1511.99
392.55	1448.79
392.75	1390.28
392.94	1416.02
393.13	1561.14
393.33	1479.22
393.52	1572.84
393.71	1551.78
393.91	1593.90
394.10	1526.03
394.29	1591.56
394.49	1591.56
394.68	1605.61
394.88	1703.91
395.07	1757.74
395.26	1666.46
395.46	1650.08
395.65	1788.17
395.84	1753.06
396.04	1739.02
396.23	1813.92
396.42	1783.49
396.62	1694.55
396.81	1872.43
397.00	1849.02
397.19	1823.28
397.39	1748.38
397.58	1846.68
397.77	1739.02
397.97	1905.20
398.16	1886.47
398.35	1879.45
398.55	1879.45
398.74	1856.04
398.93	2059.67
399.12	2031.58
399.32	1909.88
399.51	2008.18
399.70	2019.88
399.90	2064.35
400.09	2012.86
400.28	2069.03
400.47	2139.25
400.67	2150.95
400.86	2153.29
401.05	2160.31
401.24	2122.87
401.44	2136.91
401.63	2230.53
401.82	2113.50
402.01	2223.51
402.21	2139.25
402.40	2172.02
402.59	2188.40
402.78	2251.60
402.97	2188.40
403.17	2267.98
403.36	2228.19
403.55	2314.79
403.74	2356.92
403.93	2382.67
404.13	2417.77
404.32	2328.83
404.51	2422.45
404.70	2457.56
404.89	2457.56
405.09	2537.14
405.28	2546.50
405.47	2506.71
405.66	2429.48
405.85	2525.44
406.05	2555.86
406.24	2644.81
406.43	2609.70
406.62	2782.90
406.81	2705.66
407.00	2609.70
407.20	2583.95
407.39	2738.43
407.58	2759.49
407.77	2890.56
407.96	2815.66
408.15	2799.28
408.34	2722.04
408.54	2829.71
408.73	2853.11
408.92	2930.35
409.11	2869.50
409.30	2876.52
409.49	2885.88
409.68	2991.20
409.87	3047.38
410.07	3014.61
410.26	3040.36
410.45	3136.32
410.64	3166.74
410.83	3199.51
411.02	3152.70
411.21	3290.79
411.40	3117.59
411.59	3166.74
411.78	3129.30
411.98	3185.47
412.17	3283.77
412.36	3417.18
412.55	3365.69
412.74	3435.91
412.93	3368.03
413.12	3471.01
413.31	3456.97
413.50	3487.40
413.69	3501.44
413.88	3588.04
414.07	3597.40
414.26	3616.13
414.45	3529.53
414.64	3662.94
414.83	3737.84
415.02	3737.84
415.22	3791.67
415.41	3896.99
415.60	3756.56
415.79	3798.69
415.98	4037.42
416.17	4084.23
416.36	4014.02
416.55	4114.66
416.74	4009.34
416.93	4060.83
417.12	4126.36
417.31	4182.54
417.50	4131.05
417.69	4266.80
417.88	4236.37
418.07	4205.94
418.26	4194.24
418.45	4318.29
418.64	4545.32
418.83	4423.61
419.02	4407.23
419.21	4580.43
419.39	4456.38
419.58	4538.30
419.77	4545.32
419.96	4475.10
420.15	4617.88
420.34	4578.09
420.53	4716.18
420.72	4823.84
420.91	4685.75
421.10	4851.93
421.29	4784.06
421.48	4723.20
421.67	4809.80
421.86	4887.04
422.05	4699.80
422.24	4908.10
422.43	4896.40
422.61	4877.68
422.80	5053.22
422.99	4821.50
423.18	5006.41
423.37	5170.24
423.56	4933.85
423.75	5001.72
423.94	4922.15
424.13	4617.88
424.32	4798.10
424.50	5104.71
424.69	5205.35
424.88	5123.43
425.07	5093.01
425.26	4915.12
425.45	4975.98
425.64	5006.41
425.83	5076.62
426.01	5102.37
426.20	5130.45
426.39	5174.92
426.58	5114.07
426.77	4985.34
426.96	5357.49
427.15	5228.76
427.33	5200.67
427.52	5165.56
427.71	5317.70
427.90	5296.63
428.09	5327.06
428.28	5364.51
428.46	5425.36
428.65	5322.38
428.84	5563.45
429.03	5486.22
429.22	5401.96
429.40	5584.52
429.59	5486.22
429.78	5301.31
429.97	5310.68
430.16	5657.07
430.34	5628.99
430.53	5738.99
430.72	5673.46
430.91	5682.82
431.10	5795.17
431.28	5849.00
431.47	5762.40
431.66	5987.09
431.85	5816.23
432.03	5863.04
432.22	6176.67
432.41	5944.96
432.60	6164.97
432.79	6005.81
432.97	6174.33
433.16	6045.60
433.35	6083.05
433.54	6059.65
433.72	6214.12
433.91	6143.91
434.10	6050.28
434.28	6092.41
434.47	6289.02
434.66	6183.70
434.85	6497.33
435.03	6455.20
435.22	6314.77
435.41	6530.09
435.59	6471.58
435.78	6640.10
435.97	6548.82
436.16	6464.56
436.34	6403.71
436.53	6289.02
436.72	6621.38
436.90	6572.22
437.09	6665.85
437.28	6593.29
437.46	6675.21
437.65	6567.54
437.84	6778.19
438.02	6789.89
438.21	6853.09
438.40	6644.78
438.58	6974.80
438.77	7133.95
438.96	6930.33
439.14	7155.02
439.33	7365.67
439.52	7241.62
439.70	7344.60
439.89	7356.30
440.08	7363.33
440.26	7379.71
440.45	7440.56
440.63	7405.46
440.82	7758.88
441.01	7569.29
441.19	7747.17
441.38	7882.92
441.57	7889.95
441.75	7733.13
441.94	8002.29
442.12	7995.27
442.31	8191.88
442.50	8161.45
442.68	7913.35
442.87	8308.90
443.05	8149.75
443.24	8175.49
443.43	8086.55
443.61	8231.66
443.80	8381.46
443.98	7976.55
444.17	8304.22
444.35	8287.84
444.54	8533.59
444.73	8304.22
444.91	8400.18
445.10	8313.58
445.28	8329.97
445.47	8269.11
445.65	8358.05
445.84	8521.89
446.02	8645.94
446.21	8580.40
446.39	8390.82
446.58	8435.29
446.77	8631.90
446.95	8369.76
447.14	8540.61
447.32	8636.58
447.51	8318.26
447.69	8451.67
447.88	8652.96
448.06	8608.49
448.25	8582.74
448.43	8557.00
448.62	8561.68
448.80	8519.55
448.99	8828.50
449.17	8667.00
449.36	8580.40
449.54	8851.91
449.73	8952.55
449.91	8959.57
450.10	8903.40
450.28	9226.39
450.46	9172.56
450.65	9083.62
450.83	9160.86
451.02	9149.15
451.20	9121.07
451.39	9296.61
451.57	9195.96
451.76	9076.60
451.94	9322.35
452.13	9221.71
452.31	9378.53
452.49	9247.46
452.68	9497.89
452.86	9462.79
453.05	9448.74
453.23	9523.64
453.42	9378.53
453.60	9437.04
453.78	9650.03
453.97	9521.30
454.15	9579.81
454.34	9514.28
454.52	10057.28
454.70	9603.22
454.89	9827.91
455.07	9832.59
455.26	9987.07
455.44	9902.81
455.62	10024.51
455.81	10066.64
455.99	9989.41
456.17	10197.71
456.36	10300.70
456.54	9940.26
456.73	10244.52
456.91	10413.04
457.09	10509.01
457.28	10630.71
457.46	10186.01
457.64	10754.76
457.83	10696.25
458.01	10452.83
458.19	10724.33
458.38	10609.65
458.56	10768.80
458.74	10698.59
458.93	10721.99
459.11	10607.31
459.29	10883.49
459.48	10958.39
459.66	10897.53
459.84	11087.12
460.03	11192.44
460.21	11016.90
460.39	11225.21
460.57	10909.24
460.76	11023.92
460.94	11412.45
461.12	11344.58
461.31	11267.34
461.49	11393.73
461.67	11346.92
461.85	11456.92
462.04	11164.36
462.22	11655.87
462.40	11513.10
462.59	11646.51
462.77	11761.19
462.95	11737.79
463.13	11906.31
463.32	11676.93
463.50	11845.45
463.68	11740.13
463.86	11918.01
464.05	11829.07
464.23	11693.32
464.41	12114.61
464.59	11754.17
464.78	12140.36
464.96	12182.49
465.14	12002.27
465.32	11992.90
465.50	12264.41
465.69	12285.47
465.87	12215.26
466.05	12072.48
466.23	12060.78
466.41	12372.07
466.60	12601.44
466.78	12540.59
466.96	12381.43
467.14	12444.63
467.32	12491.44
467.51	12594.42
467.69	12343.99
467.87	12407.18
468.05	12704.43
468.23	12542.93
468.41	12650.60
468.60	12734.85
468.78	12905.71
468.96	12816.77
469.14	12842.52
469.32	12954.87
469.50	13069.55
469.69	13020.40
469.87	13305.95
470.05	13158.49
470.23	13144.45
470.41	13170.19
470.59	13542.34
470.77	13465.10
470.95	13298.92
471.14	13811.50
471.32	13233.39
471.50	13708.52
471.68	13678.09
471.86	13767.03
472.04	13811.50
472.22	14188.33
472.40	13806.82
472.58	14300.67
472.77	14288.97
472.95	14508.98
473.13	14890.49
473.31	14410.68
473.49	14389.61
473.67	14209.39
473.85	14398.98
474.03	14906.87
474.21	14567.49
474.39	14941.98
474.57	15054.33
474.75	14916.23
474.93	15082.41
475.12	14892.83
475.30	15372.64
475.48	15073.05
475.66	15386.68
475.84	15192.42
476.02	15564.56
476.20	15433.49
476.38	15686.27
476.56	16159.06
476.74	16126.29
476.92	15971.82
477.10	15927.35
477.28	16168.42
477.46	16327.58
477.64	16533.54
477.82	16526.52
478.00	16982.93
478.18	16908.03
478.36	17135.06
478.54	17287.20
478.72	17238.05
478.90	17490.82
479.08	17827.86
479.26	17776.37
479.44	18073.62
479.62	18015.10
479.80	18078.30
479.98	18111.07
480.16	18609.60
480.34	18586.19
480.52	18684.50
480.70	18691.52
480.88	18665.77
481.06	18881.10
481.24	19112.81
481.41	19253.25
481.59	19550.49
481.77	19601.99
481.95	19606.67
482.13	19910.94
482.31	19974.13
482.49	20334.57
482.67	19934.34
482.85	20650.55
483.03	20561.61
483.21	21106.95
483.39	21231.00
483.57	21284.83
483.74	21209.93
483.92	21441.65
484.10	21673.36
484.28	21685.06
484.46	22314.67
484.64	22445.74
484.82	22122.74
485.00	22499.57
485.18	22827.24
485.35	23161.94
485.53	23056.62
485.71	23339.82
485.89	23831.33
486.07	23625.37
486.25	23220.45
486.43	23939.00
486.61	24109.86
486.78	24489.03
486.96	24432.85
487.14	24589.67
487.32	24982.88
487.50	25029.69
487.68	25127.99
487.85	25591.42
488.03	25806.75
488.21	26113.36
488.39	25923.77
488.57	26096.97
488.75	26361.45
488.92	26698.49
489.10	26916.16
489.28	27080.00
489.46	27552.79
489.64	27620.66
489.81	27735.35
489.99	28056.00
490.17	28016.21
490.35	28573.26
490.53	28393.04
490.70	28687.95
490.88	28442.19
491.06	28755.82
491.24	29053.07
491.41	29282.44
491.59	29560.97
491.77	30005.67
491.95	29715.44
492.13	29975.24
492.30	30284.19
492.48	30211.64
492.66	30204.61
492.84	31075.29
493.01	30789.75
493.19	30885.71
493.37	31351.48
493.54	31585.53
493.72	31725.96
493.90	31632.34
494.08	32142.58
494.25	32353.23
494.43	32472.59
494.61	32701.96
494.79	32823.67
494.96	32982.83
495.14	33088.15
495.32	33305.82
495.49	33191.14
495.67	33640.52
495.85	34183.52
496.02	34211.61
496.20	34391.83
496.38	34188.21
496.55	34263.10
496.73	35522.31
496.91	34663.33
497.09	35150.17
497.26	34955.90
497.44	35356.13
497.62	35665.08
497.79	36135.53
497.97	35683.81
498.14	36418.74
498.32	36254.90
498.50	36797.90
498.67	37055.36
498.85	36863.44
499.03	37001.53
499.20	37120.90
499.38	37017.91
499.56	37263.67
499.73	37455.59
499.91	37720.07
500.08	38209.25
500.26	37752.84
500.44	37851.14
500.61	38356.70
500.79	38361.38
500.97	38295.85
501.14	38998.01
501.32	38756.93
501.49	38822.47
501.67	38906.73
501.84	39220.36
502.02	39241.42
502.20	39318.66
502.37	39704.85
502.55	39370.15
502.72	39875.71
502.90	40336.79
503.07	39943.58
503.25	40032.52
503.43	40046.57
503.60	40683.19
503.78	40870.43
503.95	40645.74
504.13	40966.40
504.30	41233.22
504.48	40662.13
504.65	40917.25
504.83	41350.24
505.01	42012.62
505.18	41242.58
505.36	41586.64
505.53	41116.19
505.71	41834.74
505.88	42225.60
506.06	41921.34
506.23	42169.43
506.41	42408.17
506.58	42440.93
506.76	42653.92
506.93	43150.12
507.11	42857.55
507.28	42852.87
507.46	43166.50
507.63	43054.15
507.81	43880.36
507.98	43262.46
508.16	43751.63
508.33	44006.75
508.50	44156.55
508.68	43936.54
508.85	44318.04
509.03	44121.44
509.20	44423.37
509.38	44734.66
509.55	44816.58
509.73	44870.41
509.90	45558.53
510.08	44978.07
510.25	45380.65
510.42	44882.11
510.60	45354.90
510.77	45474.27
510.95	45918.97
511.12	45399.37
511.30	45659.17
511.47	45778.54
511.64	46169.41
511.82	46199.83
511.99	45940.04
512.17	46506.44
512.34	46220.90
512.51	46799.01
512.69	46539.21
512.86	46450.27
513.04	46843.48
513.21	47072.85
513.38	47353.72
513.56	47281.16
513.73	47311.59
513.90	47482.45
514.08	47536.28
514.25	47917.79
514.43	47882.68
514.60	48006.73
514.77	47784.38
514.95	48107.37
515.12	47735.23
515.29	48088.65
515.47	48287.59
515.64	48193.97
515.81	48673.78
515.99	48570.80
516.16	48582.50
516.33	48935.92
516.51	48776.76
516.68	49188.70
516.85	48879.75
517.03	49366.58
517.20	49024.86
517.37	48830.60
517.54	49130.19
517.72	49392.33
517.89	49542.12
518.06	49598.29
518.24	49673.19
518.41	49670.85
518.58	49710.64
518.75	49745.75
518.93	49970.44
519.10	49961.08
519.27	50171.72
519.45	50356.63
519.62	50564.93
519.79	50595.36
519.96	50363.65
520.14	50391.73
520.31	50560.25
520.48	50908.99
520.65	50529.83
520.83	50876.22
521.00	50759.20
521.17	50829.41
521.34	51051.76
521.52	51154.75
521.69	51260.07
521.86	51311.56
522.03	51349.01
522.20	51800.74
522.38	51948.19
522.55	51978.62
522.72	51807.76
522.89	51503.49
523.07	52149.48
523.24	51868.61
523.41	52156.50
523.58	51583.07
523.75	51992.66
523.92	52002.02
524.10	52229.05
524.27	52446.72
524.44	52299.27
524.61	52573.11
524.78	52655.03
524.96	52413.96
525.13	52474.81
525.30	52811.85
525.47	52959.30
525.64	52622.26
525.81	53010.79
525.98	53013.13
526.16	53076.33
526.33	52968.66
526.50	53413.37
526.67	52947.60
526.84	53071.65
527.01	53169.95
527.18	53155.91
527.36	53408.68
527.53	53558.48
527.70	53738.70
527.87	53675.51
528.04	53247.19
528.21	53499.97
528.38	53518.69
528.55	53670.82
528.72	53434.43
528.89	53642.74
529.07	53745.72
529.24	53483.58
529.41	54087.44
529.58	53972.75
529.75	54078.08
529.92	54033.61
530.09	54145.95
530.26	53883.81
530.43	54234.89
530.60	54054.67
530.77	54291.07
530.94	54663.21
531.11	54176.38
531.28	54522.78
531.46	54611.72
531.63	54499.37
531.80	54422.14
531.97	54808.32
532.14	54843.43
532.31	54787.26
532.48	54990.89
532.65	55131.32
532.82	54848.11
532.99	55025.99
533.16	54834.07
533.33	55002.59
533.50	55213.24
533.67	55161.75
533.84	54941.74
534.01	55278.77
534.18	55159.41
534.35	55447.29
534.52	55295.16
534.69	55473.04
534.86	55470.70
535.03	55313.88
535.20	55435.59
535.37	55512.83
535.54	55646.24
535.71	55587.72
535.88	55789.01
536.05	55838.16
536.22	55695.39
536.38	55561.98
536.55	55774.97
536.72	55945.83
536.89	55941.14
537.06	55826.46
537.23	56109.66
537.40	55810.07
537.57	56093.28
537.74	55990.30
537.91	56346.06
538.08	56229.03
538.25	55730.50
538.42	56191.58
538.59	56310.95
538.75	56324.99
538.92	56467.76
539.09	56465.42
539.26	56299.25
539.43	56423.29
539.60	56427.98
539.77	56296.91
539.94	56732.25
540.11	56559.05
540.28	56917.15
540.44	56610.54
540.61	56463.08
540.78	56598.83
540.95	56652.67
541.12	56479.47
541.29	56535.64
541.46	56570.75
541.62	56802.46
541.79	57008.43
541.96	56472.45
542.13	56842.25
542.30	56891.40
542.47	57120.77
542.63	56975.66
542.80	57062.26
542.97	57258.87
543.14	57572.50
543.31	57581.86
543.48	57396.96
543.64	57715.27
543.81	57439.09
543.98	57528.03
544.15	57642.71
544.32	57418.02
544.48	57752.72
544.65	57640.37
544.82	57687.18
544.99	57462.49
545.16	57907.19
545.32	57687.18
545.49	57897.83
545.66	57841.66
545.83	57893.15
546.00	57993.79
546.16	57890.81
546.33	57942.30
546.50	57780.81
546.67	57996.13
546.83	57663.78
547.00	57984.43
547.17	57834.64
547.34	58113.16
547.50	58300.40
547.67	58206.78
547.84	58244.23
548.00	58368.28
548.17	58621.06
548.34	58440.84
548.51	58473.60
548.67	58340.19
548.84	58220.83
549.01	58190.40
549.18	58281.68
549.34	58347.21
549.51	58539.14
549.68	58543.82
549.84	58660.85
550.01	58576.59
550.18	58452.54
550.34	58548.50
550.51	58684.25
550.68	58691.27
550.84	58471.26
551.01	58623.40
551.18	58836.39
551.34	58855.11
551.51	58639.78
551.68	58927.67
551.84	58731.06
552.01	58801.28
552.18	59035.33
552.34	58763.83
552.51	59082.14
552.68	58768.51
552.84	58878.52
553.01	59428.54
553.18	58983.84
553.34	58958.09
553.51	59007.25
553.67	58897.24
553.84	59089.16
554.01	59224.92
554.17	59175.76
554.34	59302.15
554.51	59344.28
554.67	59103.21
554.84	59203.85
555.00	59295.13
555.17	58983.84
555.33	59274.07
555.50	59299.81
555.67	59217.89
555.83	59451.95
556.00	59512.80
556.16	59590.04
556.33	59491.74
556.50	59458.97
556.66	59561.95
556.83	59437.90
556.99	59531.53
557.16	59646.21
557.32	59676.64
557.49	59669.62
557.65	59707.07
557.82	59426.20
557.98	59667.28
558.15	59674.30
558.32	59758.56
558.48	59615.79
558.65	59587.70
558.81	59615.79
558.98	59601.74
559.14	59774.94
559.31	59831.11
559.47	59997.29
559.64	59948.14
559.80	59863.88
559.97	59999.63
560.13	59587.70
560.30	59941.12
560.46	60032.40
560.63	60107.30
560.79	59929.42
560.96	60245.39
561.12	59952.82
561.29	59971.55
561.45	60086.23
561.61	60016.02
561.78	60009.00
561.94	60055.81
562.11	60114.32
562.27	60182.19
562.44	60072.19
562.60	60238.37
562.77	60154.11
562.93	59941.12
563.10	60238.37
563.26	60147.09
563.42	60310.92
563.59	60374.12
563.75	60210.28
563.92	60210.28
564.08	60149.43
564.24	60313.26
564.41	60355.39
564.57	60294.54
564.74	60399.86
564.90	60301.56
565.07	60303.90
565.23	60357.74
565.39	60214.96
565.56	60341.35
565.72	60385.82
565.88	60584.77
566.05	60416.25
566.21	60467.74
566.38	60516.89
566.54	60392.84
566.70	60530.93
566.87	60601.15
567.03	60437.31
567.19	60711.16
567.36	60537.96
567.52	60456.04
567.68	60767.33
567.85	60509.87
568.01	60528.59
568.17	60542.64
568.34	60722.86
568.50	60657.32
568.66	60341.35
568.83	60750.94
568.99	60617.53
569.15	60629.24
569.32	60601.15
569.48	60629.24
569.64	60615.19
569.81	60921.80
569.97	60685.41
570.13	60589.45
570.30	60491.15
570.46	60631.58
570.62	60856.27
570.78	60821.16
570.95	60603.49
571.11	60825.84
571.27	60718.18
571.43	60956.91
571.60	60743.92
571.76	60867.97
571.92	60942.87
572.09	60860.95
572.25	60640.94
572.41	60505.19
572.57	60889.04
572.74	60987.34
572.90	60959.25
573.06	60774.35
573.22	60926.49
573.38	60917.12
573.55	60788.39
573.71	61233.10
573.87	60907.76
574.03	60816.48
574.20	61006.06
574.36	60874.99
574.52	60938.19
574.68	61092.66
574.84	61031.81
575.01	60884.36
575.17	60844.57
575.33	61095.00
575.49	60832.86
575.65	60975.64
575.82	60992.02
575.98	61144.16
576.14	61102.03
576.30	60959.25
576.46	60985.00
576.62	60905.42
576.79	60963.93
576.95	60795.42
577.11	61041.17
577.27	61125.43
577.43	61097.34
577.59	60870.31
577.75	61020.11
577.92	60844.57
578.08	60886.70
578.24	61099.68
578.40	61293.95
578.56	61202.67
578.72	61169.90
578.88	61279.91
579.04	61359.48
579.21	61130.11
579.37	61139.47
579.53	61207.35
579.69	61024.79
579.85	61102.03
580.01	61106.71
580.17	60999.04
580.33	61113.73
580.49	61338.42
580.65	61109.05
580.82	60947.55
580.98	60893.72
581.14	61022.45
581.30	61188.63
581.46	61013.08
581.62	61155.86
581.78	61043.51
581.94	61235.44
582.10	61057.56
582.26	61085.64
582.42	61087.98
582.58	61104.37
582.74	61336.08
582.90	61031.81
583.06	61146.50
583.22	61097.34
583.38	61095.00
583.54	61270.54
583.70	61310.33
583.86	61036.49
584.02	61207.35
584.18	61261.18
584.34	61331.40
584.50	61113.73
584.66	61113.73
584.82	61130.11
584.98	61251.82
585.14	61237.78
585.30	61235.44
585.46	60973.30
585.62	61282.25
585.78	61457.79
585.94	61003.72
586.10	61223.73
586.26	61111.39
586.42	61158.20
586.58	61298.63
586.74	61361.82
586.90	61015.43
587.06	61141.81
587.22	61331.40
587.38	61087.98
587.54	61418.00
587.70	61462.47
587.86	61427.36
588.02	61134.79
588.18	61462.47
588.34	61181.60
588.49	61387.57
