SpectraSuite Data File
++++++++++++++++++++++++++++++++++++
Date: Fri Oct 25 11:26:31 EDT 2013
User: price-jones
Dark Spectrum Present: No
Reference Spectrum Present: No
Number of Sampled Component Spectra: 1
Spectrometers: USB2+H05261
Integration Time (usec): 100000 (USB2+H05261)
Spectra Averaged: 1 (USB2+H05261)
Boxcar Smoothing: 0 (USB2+H05261)
Correct for Electrical Dark: No (USB2+H05261)
Strobe/Lamp Enabled: No (USB2+H05261)
Correct for Detector Non-linearity: No (USB2+H05261)
Correct for Stray Light: No (USB2+H05261)
Number of Pixels in Processed Spectrum: 2048
>>>>>Begin Processed Spectral Data<<<<<
365.73	287.89
365.92	287.89
366.12	287.89
366.32	163.84
366.52	128.73
366.72	175.54
366.91	93.62
367.11	121.71
367.31	149.79
367.51	147.45
367.70	126.39
367.90	203.63
368.10	170.86
368.30	182.56
368.49	131.07
368.69	170.86
368.89	203.63
369.09	133.41
369.28	182.56
369.48	131.07
369.68	273.84
369.87	259.80
370.07	201.29
370.27	255.12
370.47	397.89
370.66	615.56
370.86	603.86
371.06	660.03
371.25	671.73
371.45	643.65
371.65	688.12
371.84	676.41
372.04	725.57
372.24	746.63
372.44	748.97
372.63	763.01
372.83	751.31
373.03	795.78
373.22	777.06
373.42	788.76
373.62	823.87
373.81	772.38
374.01	760.67
374.21	786.42
374.40	816.85
374.60	844.93
374.79	798.12
374.99	844.93
375.19	816.85
375.38	945.58
375.58	875.36
375.78	884.72
375.97	896.43
376.17	959.62
376.37	891.74
376.56	929.19
376.76	877.70
376.95	891.74
377.15	870.68
377.35	866.00
377.54	816.85
377.74	847.27
377.93	898.77
378.13	910.47
378.33	971.32
378.52	908.13
378.72	971.32
378.91	938.55
379.11	966.64
379.31	978.34
379.50	968.98
379.70	1067.28
379.89	976.00
380.09	978.34
380.28	1067.28
380.48	1015.79
380.68	1060.26
380.87	1046.22
381.07	1018.13
381.26	1001.75
381.46	1067.28
381.65	1071.97
381.85	1114.10
382.04	1109.41
382.24	1086.01
382.43	1078.99
382.63	1107.07
382.83	1076.65
383.02	1078.99
383.22	1121.12
383.41	1078.99
383.61	1055.58
383.80	1109.41
384.00	1064.94
384.19	1184.31
384.39	1137.50
384.58	1149.20
384.78	1219.42
384.97	1263.89
385.17	1132.82
385.36	1235.80
385.56	1177.29
385.75	1149.20
385.95	1125.80
386.14	1156.22
386.34	1149.20
386.53	1193.67
386.72	1235.80
386.92	1310.70
387.11	1212.40
387.31	1193.67
387.50	1289.64
387.70	1273.25
387.89	1313.04
388.09	1301.34
388.28	1301.34
388.48	1210.06
388.67	1357.51
388.86	1284.95
389.06	1266.23
389.25	1359.85
389.45	1378.58
389.64	1306.02
389.84	1348.15
390.03	1399.64
390.22	1416.02
390.42	1411.34
390.61	1341.13
390.81	1455.81
391.00	1458.15
391.19	1448.79
391.39	1430.07
391.58	1521.35
391.78	1509.65
391.97	1453.47
392.16	1551.78
392.36	1509.65
392.55	1507.30
392.75	1488.58
392.94	1537.73
393.13	1570.50
393.33	1455.81
393.52	1549.43
393.71	1598.59
393.91	1629.01
394.10	1657.10
394.29	1668.80
394.49	1530.71
394.68	1692.21
394.88	1671.14
395.07	1741.36
395.26	1603.27
395.46	1769.44
395.65	1680.50
395.84	1802.21
396.04	1844.34
396.23	1699.23
396.42	1671.14
396.62	1884.13
396.81	1741.36
397.00	1834.98
397.19	1853.70
397.39	1858.39
397.58	1874.77
397.77	1809.23
397.97	1818.60
398.16	1874.77
398.35	1994.14
398.55	1879.45
398.74	1877.11
398.93	1952.01
399.12	1930.94
399.32	1905.20
399.51	1956.69
399.70	2047.97
399.90	1949.67
400.09	2057.33
400.28	2026.90
400.47	2036.27
400.67	2008.18
400.86	2069.03
401.05	2167.34
401.24	2167.34
401.44	2232.87
401.63	2167.34
401.82	2118.18
402.01	2146.27
402.21	2071.37
402.40	2190.74
402.59	2265.64
402.78	2225.85
402.97	2272.66
403.17	2305.43
403.36	2209.47
403.55	2342.88
403.74	2331.17
403.93	2413.09
404.13	2408.41
404.32	2298.41
404.51	2293.72
404.70	2410.75
404.89	2466.92
405.09	2506.71
405.28	2551.18
405.47	2387.35
405.66	2525.44
405.85	2558.21
406.05	2581.61
406.24	2614.38
406.43	2637.78
406.62	2602.68
406.81	2637.78
407.00	2595.65
407.20	2689.28
407.39	2640.12
407.58	2705.66
407.77	2691.62
407.96	2757.15
408.15	2724.38
408.34	2642.46
408.54	2813.32
408.73	2892.90
408.92	2897.58
409.11	2841.41
409.30	2986.52
409.49	2916.31
409.68	2899.92
409.87	2925.67
410.07	3087.17
410.26	3187.81
410.45	3103.55
410.64	2981.84
410.83	3110.57
411.02	3145.68
411.21	3194.83
411.40	3124.62
411.59	3246.32
411.78	3262.71
411.98	3265.05
412.17	3389.10
412.36	3304.84
412.55	3365.69
412.74	3552.93
412.93	3375.05
413.12	3323.56
413.31	3634.85
413.50	3651.24
413.69	3545.91
413.88	3630.17
414.07	3646.55
414.26	3688.68
414.45	3695.71
414.64	3751.88
414.83	3777.62
415.02	3749.54
415.22	3744.86
415.41	3899.33
415.60	4032.74
415.79	3999.98
415.98	4086.58
416.17	3864.22
416.36	4067.85
416.55	3946.14
416.74	4140.41
416.93	4163.81
417.12	4187.22
417.31	4133.39
417.50	4203.60
417.69	4311.27
417.88	4306.59
418.07	4285.52
418.26	4248.07
418.45	4418.93
418.64	4484.47
418.83	4505.53
419.02	4456.38
419.21	4514.89
419.39	4498.51
419.58	4500.85
419.77	4564.04
419.96	4744.27
420.15	4660.01
420.34	4638.94
420.53	4681.07
420.72	4650.64
420.91	4814.48
421.10	4777.03
421.29	4896.40
421.48	4554.68
421.67	5022.79
421.86	4894.06
422.05	4973.64
422.24	4699.80
422.43	4863.63
422.61	4851.93
422.80	5039.17
422.99	4992.36
423.18	5048.54
423.37	5107.05
423.56	5144.50
423.75	4959.60
423.94	4961.94
424.13	4744.27
424.32	4767.67
424.50	4931.51
424.69	5172.58
424.88	5041.51
425.07	4950.23
425.26	4943.21
425.45	5100.03
425.64	5041.51
425.83	4966.62
426.01	5069.60
426.20	5153.86
426.39	5071.94
426.58	5273.23
426.77	4997.04
426.96	5210.03
427.15	5100.03
427.33	5177.26
427.52	5097.69
427.71	5362.17
427.90	5252.16
428.09	5336.42
428.28	5437.06
428.46	5406.64
428.65	5408.98
428.84	5542.39
429.03	5636.01
429.22	5380.89
429.40	5483.88
429.59	5502.60
429.78	5387.91
429.97	5460.47
430.16	5472.17
430.34	5591.54
430.53	5774.10
430.72	5612.60
430.91	5741.33
431.10	5563.45
431.28	5734.31
431.47	5902.83
431.66	5874.74
431.85	5764.74
432.03	5998.79
432.22	6050.28
432.41	5891.13
432.60	5987.09
432.79	5905.17
432.97	6052.63
433.16	6019.86
433.35	6031.56
433.54	6157.95
433.72	6038.58
433.91	6207.10
434.10	6139.23
434.28	6054.97
434.47	6157.95
434.66	6249.23
434.85	6434.13
435.03	6399.02
435.22	6289.02
435.41	6499.67
435.59	6548.82
435.78	6455.20
435.97	6651.80
436.16	6483.28
436.34	6445.84
436.53	6684.57
436.72	6656.48
436.90	6579.25
437.09	6663.51
437.28	6462.22
437.46	6516.05
437.65	6679.89
437.84	6775.85
438.02	6782.87
438.21	6715.00
438.40	6691.59
438.58	6937.35
438.77	6920.96
438.96	6883.52
439.14	7176.08
439.33	7035.65
439.52	7272.04
439.70	7255.66
439.89	7410.14
440.08	7325.88
440.26	7604.40
440.45	7389.07
440.63	7438.22
440.82	7735.47
441.01	7454.61
441.19	7623.12
441.38	7824.41
441.57	7555.25
441.75	7889.95
441.94	8021.02
442.12	8025.70
442.31	8016.33
442.50	8058.46
442.68	8212.94
442.87	8084.21
443.05	8215.28
443.24	8060.80
443.43	8084.21
443.61	8074.85
443.80	8526.57
443.98	8348.69
444.17	7899.31
444.35	8369.76
444.54	8423.59
444.73	8140.38
444.91	8306.56
445.10	8226.98
445.28	8278.47
445.47	8346.35
445.65	8439.97
445.84	8706.79
446.02	8451.67
446.21	8730.20
446.39	8582.74
446.58	8486.78
446.77	8582.74
446.95	8365.07
447.14	8568.70
447.32	8613.17
447.51	8475.08
447.69	8486.78
447.88	8458.70
448.06	8667.00
448.25	8659.98
448.43	8535.93
448.62	8608.49
448.80	8468.06
448.99	8767.65
449.17	8737.22
449.36	8631.90
449.54	8798.07
449.73	8870.63
449.91	8861.27
450.10	8943.19
450.28	8957.23
450.46	8978.30
450.65	9224.05
450.83	8978.30
451.02	9380.87
451.20	9217.03
451.39	9188.94
451.57	9408.95
451.76	9043.83
451.94	9214.69
452.13	9202.99
452.31	9291.93
452.49	9233.41
452.68	9455.76
452.86	9303.63
453.05	9582.15
453.23	9511.94
453.42	9551.73
453.60	9481.51
453.78	9549.39
453.97	9479.17
454.15	9495.55
454.34	9441.72
454.52	9790.46
454.70	9638.33
454.89	9715.56
455.07	9851.31
455.26	9839.61
455.44	9846.63
455.62	9956.64
455.81	10090.05
455.99	10045.58
456.17	10101.75
456.36	10108.77
456.54	10263.25
456.73	10099.41
456.91	10487.94
457.09	10338.15
457.28	10705.61
457.46	10303.04
457.64	10614.33
457.83	10574.54
458.01	10520.71
458.19	10806.25
458.38	10656.46
458.56	10546.45
458.74	10953.71
458.93	10630.71
459.11	10759.44
459.29	10647.10
459.48	10876.47
459.66	10827.32
459.84	10965.41
460.03	11066.05
460.21	11192.44
460.39	10897.53
460.57	10934.98
460.76	11250.96
460.94	11131.59
461.12	10930.30
461.31	11356.28
461.49	11220.53
461.67	11126.91
461.85	11496.71
462.04	11145.63
462.22	11489.69
462.40	11618.42
462.59	11573.95
462.77	11360.96
462.95	11686.29
463.13	11700.34
463.32	11723.74
463.50	11702.68
463.68	11903.96
463.86	11971.84
464.05	11513.10
464.23	11761.19
464.41	11826.73
464.59	11936.73
464.78	12070.14
464.96	12313.56
465.14	11831.41
465.32	12133.34
465.50	12400.16
465.69	12278.45
465.87	12231.64
466.05	12187.17
466.23	12210.57
466.41	12320.58
466.60	12313.56
466.78	12245.68
466.96	12262.07
467.14	12212.92
467.32	12451.65
467.51	12709.11
467.69	12084.19
467.87	12381.43
468.05	12491.44
468.23	12294.83
468.41	12622.51
468.60	12746.56
468.78	13006.36
468.96	12648.26
469.14	13011.04
469.32	12954.87
469.50	12772.30
469.69	13132.75
469.87	13020.40
470.05	13296.58
470.23	13158.49
470.41	12929.12
470.59	13245.09
470.77	13111.68
470.95	13387.86
471.14	13628.94
471.32	13057.85
471.50	13561.06
471.68	13518.93
471.86	13823.20
472.04	13722.56
472.22	14352.16
472.40	13607.87
472.58	13884.06
472.77	14129.81
472.95	14298.33
473.13	14628.35
473.31	14303.01
473.49	14335.78
473.67	14127.47
473.85	14321.74
474.03	14630.69
474.21	14604.94
474.39	14752.40
474.57	14689.20
474.75	14885.81
474.93	15239.23
475.12	15040.28
475.30	15279.02
475.48	15297.74
475.66	15267.31
475.84	15374.98
476.02	15592.65
476.20	15286.04
476.38	15922.66
476.56	16175.44
476.74	15847.77
476.92	15676.91
477.10	15805.64
477.28	16421.20
477.46	16011.60
477.64	16491.41
477.82	16641.21
478.00	17319.96
478.18	16795.68
478.36	16982.93
478.54	17118.68
478.72	17462.74
478.90	17263.79
479.08	17675.73
479.26	17642.96
479.44	17577.42
479.62	17764.67
479.80	18232.77
479.98	17998.72
480.16	18656.41
480.34	18698.54
480.52	18602.58
480.70	18820.25
480.88	18518.32
481.06	18817.91
481.24	19035.58
481.41	19047.28
481.59	19204.10
481.77	19360.91
481.95	19658.16
482.13	19819.66
482.31	19964.77
482.49	20072.43
482.67	20357.98
482.85	20278.40
483.03	20606.08
483.21	20816.72
483.39	21376.11
483.57	21099.93
483.74	21429.94
483.92	21724.85
484.10	21664.00
484.28	21699.11
484.46	22242.11
484.64	22551.06
484.82	22176.58
485.00	22298.28
485.18	22665.75
485.35	22965.34
485.53	23005.13
485.71	23466.21
485.89	24030.28
486.07	23538.77
486.25	23513.02
486.43	23449.83
486.61	24269.01
486.78	24563.92
486.96	24582.65
487.14	24493.71
487.32	24723.08
487.50	24940.75
487.68	24992.24
487.85	25415.88
488.03	25549.29
488.21	26068.89
488.39	26167.19
488.57	26031.44
488.75	26040.80
488.92	26560.40
489.10	26986.38
489.28	27042.55
489.46	27250.86
489.64	27119.79
489.81	27845.35
489.99	28063.02
490.17	28116.86
490.35	28224.52
490.53	28081.75
490.70	29010.94
490.88	28512.41
491.06	28456.23
491.24	28868.17
491.41	29008.60
491.59	29457.98
491.77	29677.99
491.95	29481.39
492.13	29668.63
492.30	30092.27
492.48	30199.93
492.66	30466.75
492.84	30775.70
493.01	30913.80
493.19	30885.71
493.37	31173.60
493.54	31124.44
493.72	31854.69
493.90	31363.18
494.08	32039.59
494.25	32156.62
494.43	32123.85
494.61	32332.16
494.79	32818.99
494.96	32456.21
495.14	32596.64
495.32	33160.71
495.49	33301.14
495.67	33551.58
495.85	33624.14
496.02	33930.75
496.20	34705.46
496.38	34094.58
496.55	34277.15
496.73	34759.30
496.91	34412.90
497.09	34607.16
497.26	35126.76
497.44	35014.41
497.62	35587.85
497.79	36252.56
497.97	35674.45
498.14	35981.06
498.32	36177.66
498.50	36526.40
498.67	36713.64
498.85	36818.97
499.03	36978.12
499.20	36765.14
499.38	36683.22
499.56	37397.08
499.73	37408.78
499.91	37586.66
500.08	37883.91
500.26	37497.72
500.44	37682.62
500.61	37717.73
500.79	38059.45
500.97	38476.07
501.14	38782.68
501.32	38733.53
501.49	38897.36
501.67	38616.50
501.84	39321.00
502.02	39019.07
502.20	39143.12
502.37	39264.83
502.55	39859.32
502.72	39716.55
502.90	39882.73
503.07	39754.00
503.25	39800.81
503.43	39643.99
503.60	40355.52
503.78	40346.15
503.95	40734.68
504.13	40741.71
504.30	40950.01
504.48	40573.19
504.65	41060.02
504.83	41198.11
505.01	41462.59
505.18	41478.97
505.36	41893.25
505.53	41677.92
505.71	41448.55
505.88	41933.04
506.06	42005.59
506.23	42213.90
506.41	42185.82
506.58	42106.24
506.76	42256.03
506.93	42312.20
507.11	42520.51
507.28	42799.04
507.46	42557.96
507.63	43370.13
507.81	43302.25
507.98	43262.46
508.16	43510.56
508.33	43878.02
508.50	43847.60
508.68	43578.43
508.85	43859.30
509.03	43927.17
509.20	44198.68
509.38	44367.20
509.55	44383.58
509.73	44437.41
509.90	44996.80
510.08	44879.77
510.25	45057.65
510.42	45085.74
510.60	45057.65
510.77	45003.82
510.95	45507.04
511.12	45546.82
511.30	45308.09
511.47	45961.10
511.64	45933.01
511.82	46078.13
511.99	45982.16
512.17	46160.05
512.34	45881.52
512.51	46454.95
512.69	46677.30
512.86	46616.45
513.04	46763.90
513.21	46761.56
513.38	47185.20
513.56	47323.29
513.73	46855.18
513.90	47426.28
514.08	47110.30
514.25	47838.21
514.43	47435.64
514.60	47445.00
514.77	47667.35
514.95	47973.96
515.12	47885.02
515.29	47880.34
515.47	47997.37
515.64	48404.62
515.81	47831.19
515.99	48083.97
516.16	48421.00
516.33	48643.35
516.51	49034.22
516.68	48444.41
516.85	48596.54
517.03	49130.19
517.20	48921.88
517.37	49041.24
517.54	48699.53
517.72	49074.01
517.89	49670.85
518.06	49172.31
518.24	49162.95
518.41	49567.87
518.58	49556.16
518.75	49345.51
518.93	50019.59
519.10	49546.80
519.27	50183.43
519.45	49923.63
519.62	49907.24
519.79	50110.87
519.96	49984.48
520.14	50398.76
520.31	49951.71
520.48	50747.50
520.65	50557.91
520.83	50494.72
521.00	50740.47
521.17	50630.47
521.34	50850.48
521.52	50927.72
521.69	50733.45
521.86	51522.21
522.03	51051.76
522.20	51255.39
522.38	51573.70
522.55	51641.58
522.72	51283.48
522.89	51543.28
523.07	52079.26
523.24	51679.03
523.41	51877.97
523.58	51550.30
523.75	51896.70
523.92	51835.84
524.10	52453.75
524.27	52128.41
524.44	52465.45
524.61	52123.73
524.78	52243.10
524.96	52294.59
525.13	52409.28
525.30	52802.49
525.47	52662.05
525.64	52650.35
525.81	52587.16
525.98	52898.45
526.16	52680.78
526.33	52856.32
526.50	53146.54
526.67	52758.02
526.84	52804.83
527.01	52861.00
527.18	52973.34
527.36	53069.31
527.53	53305.70
527.70	53584.22
527.87	53436.77
528.04	53553.80
528.21	53586.57
528.38	53116.12
528.55	53750.40
528.72	53787.85
528.89	53518.69
529.07	53226.12
529.24	53457.84
529.41	54068.72
529.58	53759.76
529.75	53750.40
529.92	54010.20
530.09	54342.56
530.26	54267.66
530.43	53993.82
530.60	54005.52
530.77	54012.54
530.94	54141.27
531.11	54145.95
531.28	54190.42
531.46	54316.81
531.63	54302.77
531.80	54501.71
531.97	54419.80
532.14	54698.32
532.31	54578.95
532.48	54564.91
532.65	54913.65
532.82	54557.89
532.99	54649.17
533.16	54901.95
533.33	54838.75
533.50	55119.62
533.67	54831.73
533.84	54930.03
534.01	55187.49
534.18	54923.01
534.35	55288.13
534.52	55267.07
534.69	55278.77
534.86	55435.59
535.03	55119.62
535.20	55290.48
535.37	55538.57
535.54	55508.14
535.71	55248.35
535.88	55590.06
536.05	55487.08
536.22	55793.69
536.38	55793.69
536.55	55660.28
536.72	55760.92
536.89	55531.55
537.06	55686.03
537.23	55793.69
537.40	55650.92
537.57	55838.16
537.74	55927.10
537.91	55891.99
538.08	55721.13
538.25	55662.62
538.42	55945.83
538.59	56212.65
538.75	56002.00
538.92	56238.39
539.09	56346.06
539.26	56196.26
539.43	56231.37
539.60	56404.57
539.77	56252.44
539.94	56732.25
540.11	56233.71
540.28	56690.12
540.44	56566.07
540.61	56505.21
540.78	56566.07
540.95	56760.33
541.12	56444.36
541.29	56788.42
541.46	56615.22
541.62	56713.52
541.79	56919.49
541.96	56526.28
542.13	56886.72
542.30	57038.86
542.47	57237.80
542.63	56903.10
542.80	57031.83
542.97	57169.93
543.14	57396.96
543.31	57207.37
543.48	57293.97
543.64	57488.24
543.81	57352.49
543.98	57521.01
544.15	57579.52
544.32	57373.55
544.48	57556.11
544.65	57546.75
544.82	57689.52
544.99	57453.13
545.16	57509.30
545.32	57469.51
545.49	57705.91
545.66	57827.62
545.83	57698.89
546.00	57902.51
546.16	57701.23
546.33	57748.04
546.50	57715.27
546.67	57939.96
546.83	57373.55
547.00	57832.30
547.17	57829.96
547.34	57886.13
547.50	58066.35
547.67	58211.46
547.84	58108.48
548.00	58202.10
548.17	58305.09
548.34	58342.53
548.51	58560.20
548.67	58115.50
548.84	58190.40
549.01	57982.09
549.18	58372.96
549.34	58480.63
549.51	58328.49
549.68	58473.60
549.84	58492.33
550.01	58724.04
550.18	58234.87
550.34	58440.84
550.51	58581.27
550.68	58482.97
550.84	58305.09
551.01	58784.90
551.18	58473.60
551.34	58515.73
551.51	58733.40
551.68	58761.49
551.84	58721.70
552.01	58653.82
552.18	58904.26
552.34	58623.40
552.51	58871.49
552.68	58583.61
552.84	59002.56
553.01	59124.27
553.18	58890.22
553.34	59032.99
553.51	58887.88
553.67	58796.60
553.84	59068.10
554.01	59152.36
554.17	59302.15
554.34	59285.77
554.51	59168.74
554.67	59159.38
554.84	59049.38
555.00	59018.95
555.17	59063.42
555.33	59084.48
555.50	59079.80
555.67	59077.46
555.83	59117.25
556.00	58983.84
556.16	59547.91
556.33	59217.89
556.50	59222.58
556.66	59487.06
556.83	59288.11
556.99	59718.77
557.16	59849.84
557.32	59592.38
557.49	59608.76
557.65	59260.02
557.82	59545.57
557.98	59433.22
558.15	59618.13
558.32	59547.91
558.48	59561.95
558.65	59566.63
558.81	59653.23
558.98	59641.53
559.14	59454.29
559.31	59739.83
559.47	59774.94
559.64	59751.54
559.80	59646.21
559.97	59763.24
560.13	59697.70
560.30	59810.05
560.46	59859.20
560.63	59877.93
560.79	60041.76
560.96	59725.79
561.12	59884.95
561.29	60095.60
561.45	59950.48
561.61	60006.65
561.78	59973.89
561.94	59725.79
562.11	60151.77
562.27	59863.88
562.44	60051.12
562.60	60109.64
562.77	60130.70
562.93	59824.09
563.10	60161.13
563.26	59941.12
563.42	60128.36
563.59	60119.00
563.75	60095.60
563.92	60292.20
564.08	60119.00
564.24	60390.50
564.41	60156.45
564.57	60348.37
564.74	60196.24
564.90	60147.09
565.07	60100.28
565.23	60100.28
565.39	60109.64
565.56	60317.95
565.72	60261.77
565.88	60289.86
566.05	60271.14
566.21	60388.16
566.38	60341.35
566.54	60404.55
566.70	60514.55
566.87	60580.09
567.03	60350.71
567.19	60374.12
567.36	60439.65
567.52	60362.42
567.68	60690.09
567.85	60376.46
568.01	60542.64
568.17	60402.21
568.34	60505.19
568.50	60350.71
568.66	60418.59
568.83	60589.45
568.99	60397.52
569.15	60640.94
569.32	60608.17
569.48	60540.30
569.64	60612.85
569.81	60573.06
569.97	60505.19
570.13	60610.51
570.30	60416.25
570.46	60664.35
570.62	60566.04
570.78	60367.10
570.95	60591.79
571.11	60523.91
571.27	60650.30
571.43	60629.24
571.60	60844.57
571.76	60589.45
571.92	60640.94
572.09	60704.13
572.25	60708.82
572.41	60617.53
572.57	60624.56
572.74	60828.18
572.90	60568.38
573.06	60762.65
573.22	60776.69
573.38	60603.49
573.55	60662.00
573.71	60893.72
573.87	60935.85
574.03	60764.99
574.20	61027.13
574.36	60507.53
574.52	60830.52
574.68	61038.83
574.84	60830.52
575.01	60882.02
575.17	60832.86
575.33	60636.26
575.49	60633.92
575.65	60807.12
575.82	61073.94
575.98	60956.91
576.14	60982.66
576.30	60994.36
576.46	60753.29
576.62	60739.24
576.79	60917.12
576.95	60617.53
577.11	60809.46
577.27	60865.63
577.43	60996.70
577.59	60863.29
577.75	60732.22
577.92	60626.90
578.08	60849.25
578.24	61048.19
578.40	61242.46
578.56	61062.24
578.72	60949.89
578.88	61172.24
579.04	60970.96
579.21	61022.45
579.37	60952.23
579.53	61146.50
579.69	60774.35
579.85	60774.35
580.01	60753.29
580.17	60795.42
580.33	60977.98
580.49	61160.54
580.65	61006.06
580.82	61106.71
580.98	60877.33
581.14	60907.76
581.30	61059.90
581.46	60729.88
581.62	60989.68
581.78	60839.89
581.94	61190.97
582.10	60931.17
582.26	61015.43
582.42	60992.02
582.58	61092.66
582.74	61160.54
582.90	61076.28
583.06	61052.87
583.22	60692.43
583.38	60846.91
583.54	60931.17
583.70	60839.89
583.86	61024.79
584.02	60952.23
584.18	61190.97
584.34	60980.32
584.50	61038.83
584.66	60926.49
584.82	60914.78
584.98	61069.26
585.14	61146.50
585.30	61024.79
585.46	61050.53
585.62	61102.03
585.78	61254.16
585.94	60903.08
586.10	61024.79
586.26	61153.52
586.42	61200.33
586.58	61221.39
586.74	61050.53
586.90	60994.36
587.06	60931.17
587.22	61300.97
587.38	60970.96
587.54	61293.95
587.70	61188.63
587.86	61092.66
588.02	61073.94
588.18	61256.50
588.34	61045.85
