SpectraSuite Data File
++++++++++++++++++++++++++++++++++++
Date: Fri Oct 25 11:22:46 EDT 2013
User: price-jones
Dark Spectrum Present: No
Reference Spectrum Present: No
Number of Sampled Component Spectra: 1
Spectrometers: USB2+H05261
Integration Time (usec): 100000 (USB2+H05261)
Spectra Averaged: 1 (USB2+H05261)
Boxcar Smoothing: 0 (USB2+H05261)
Correct for Electrical Dark: No (USB2+H05261)
Strobe/Lamp Enabled: No (USB2+H05261)
Correct for Detector Non-linearity: No (USB2+H05261)
Correct for Stray Light: No (USB2+H05261)
Number of Pixels in Processed Spectrum: 2048
>>>>>Begin Processed Spectral Data<<<<<
365.73	152.13
365.92	152.13
366.12	152.13
366.32	173.20
366.52	168.52
366.72	93.62
366.91	63.19
367.11	63.19
367.31	88.94
367.51	138.09
367.70	91.28
367.90	135.75
368.10	98.30
368.30	131.07
368.49	117.03
368.69	124.05
368.89	140.43
369.09	196.60
369.28	187.24
369.48	166.18
369.68	124.05
369.87	212.99
370.07	231.71
370.27	198.95
370.47	322.99
370.66	606.20
370.86	671.73
371.06	660.03
371.25	678.76
371.45	671.73
371.65	615.56
371.84	664.71
372.04	634.29
372.24	725.57
372.44	641.31
372.63	744.29
372.83	692.80
373.03	734.93
373.22	755.99
373.42	720.88
373.62	685.78
373.81	877.70
374.01	821.53
374.21	835.57
374.40	826.21
374.60	896.43
374.79	779.40
374.99	763.01
375.19	774.72
375.38	901.11
375.58	870.68
375.78	812.17
375.97	882.38
376.17	828.55
376.37	880.04
376.56	898.77
376.76	919.83
376.95	880.04
377.15	828.55
377.35	884.72
377.54	917.49
377.74	915.15
377.93	816.85
378.13	929.19
378.33	922.17
378.52	875.36
378.72	964.30
378.91	954.94
379.11	873.02
379.31	980.68
379.50	856.64
379.70	931.53
379.89	936.21
380.09	938.55
380.28	929.19
380.48	987.71
380.68	966.64
380.87	973.66
381.07	964.30
381.26	973.66
381.46	983.02
381.65	1055.58
381.85	1039.20
382.04	1018.13
382.24	1071.97
382.43	1034.52
382.63	1039.20
382.83	1090.69
383.02	1132.82
383.22	1107.07
383.41	1020.47
383.61	1081.33
383.80	1121.12
384.00	1078.99
384.19	1132.82
384.39	1088.35
384.58	1123.46
384.78	1130.48
384.97	1156.22
385.17	1179.63
385.36	1228.78
385.56	1177.29
385.75	1160.91
385.95	1163.25
386.14	1198.35
386.34	1151.54
386.53	1210.06
386.72	1167.93
386.92	1301.34
387.11	1203.04
387.31	1308.36
387.50	1249.85
387.70	1291.98
387.89	1299.00
388.09	1277.93
388.28	1277.93
388.48	1273.25
388.67	1259.21
388.86	1313.04
389.06	1259.21
389.25	1359.85
389.45	1329.42
389.64	1390.28
389.84	1409.00
390.03	1411.34
390.22	1413.68
390.42	1378.58
390.61	1306.02
390.81	1371.55
391.00	1472.20
391.19	1486.24
391.39	1416.02
391.58	1387.94
391.78	1533.05
391.97	1554.12
392.16	1465.18
392.36	1561.14
392.55	1423.05
392.75	1476.88
392.94	1500.28
393.13	1540.07
393.33	1554.12
393.52	1504.96
393.71	1612.63
393.91	1584.54
394.10	1591.56
394.29	1582.20
394.49	1638.38
394.68	1671.14
394.88	1659.44
395.07	1629.01
395.26	1645.40
395.46	1626.67
395.65	1802.21
395.84	1809.23
396.04	1781.15
396.23	1743.70
396.42	1626.67
396.62	1734.34
396.81	1788.17
397.00	1762.42
397.19	1774.13
397.39	1799.87
397.58	1729.66
397.77	1802.21
397.97	1764.76
398.16	1886.47
398.35	1830.30
398.55	1970.73
398.74	1902.86
398.93	1888.81
399.12	1942.64
399.32	1914.56
399.51	1926.26
399.70	2062.01
399.90	1895.83
400.09	2043.29
400.28	2050.31
400.47	2059.67
400.67	2017.54
400.86	2076.06
401.05	2113.50
401.24	2148.61
401.44	2097.12
401.63	2202.44
401.82	2157.97
402.01	2118.18
402.21	2155.63
402.40	2223.51
402.59	2165.00
402.78	2090.10
402.97	2286.70
403.17	2321.81
403.36	2307.77
403.55	2214.15
403.74	2263.30
403.93	2317.13
404.13	2352.24
404.32	2373.30
404.51	2317.13
404.70	2483.31
404.89	2408.41
405.09	2464.58
405.28	2420.11
405.47	2457.56
405.66	2555.86
405.85	2424.80
406.05	2518.42
406.24	2581.61
406.43	2511.39
406.62	2614.38
406.81	2595.65
407.00	2651.83
407.20	2644.81
407.39	2670.55
407.58	2773.53
407.77	2661.19
407.96	2698.64
408.15	2752.47
408.34	2813.32
408.54	2832.05
408.73	2761.83
408.92	2717.36
409.11	2906.95
409.30	2965.46
409.49	2792.26
409.68	2897.58
409.87	3021.63
410.07	2913.97
410.26	2960.78
410.45	2946.73
410.64	3038.02
410.83	3028.65
411.02	2937.37
411.21	3117.59
411.40	3138.66
411.59	3162.06
411.78	3199.51
411.98	3225.26
412.17	3258.03
412.36	3262.71
412.55	3400.80
412.74	3417.18
412.93	3583.36
413.12	3492.08
413.31	3538.89
413.50	3403.14
413.69	3428.88
413.88	3548.25
414.07	3461.65
414.26	3625.49
414.45	3686.34
414.64	3688.68
414.83	3894.65
415.02	3847.84
415.22	3740.18
415.41	3974.23
415.60	3845.50
415.79	3936.78
415.98	3995.29
416.17	3948.48
416.36	3957.85
416.55	3953.16
416.74	3927.42
416.93	4028.06
417.12	4039.76
417.31	4217.65
417.50	4102.96
417.69	4278.50
417.88	4292.54
418.07	4252.75
418.26	4372.12
418.45	4346.37
418.64	4269.14
418.83	4409.57
419.02	4290.20
419.21	4540.64
419.39	4524.26
419.58	4587.45
419.77	4585.11
419.96	4580.43
420.15	4568.73
420.34	4622.56
420.53	4500.85
420.72	4788.74
420.91	4723.20
421.10	4772.35
421.29	4924.49
421.48	4652.98
421.67	4870.65
421.86	4709.16
422.05	4720.86
422.24	4812.14
422.43	4929.17
422.61	4887.04
422.80	5048.54
422.99	4826.18
423.18	4994.70
423.37	4947.89
423.56	4987.68
423.75	4922.15
423.94	4901.08
424.13	4540.64
424.32	4807.46
424.50	5029.81
424.69	5062.58
424.88	5158.54
425.07	4994.70
425.26	4809.80
425.45	5018.11
425.64	5057.90
425.83	4943.21
426.01	5184.29
426.20	5195.99
426.39	4985.34
426.58	5088.32
426.77	5025.13
426.96	5139.82
427.15	5142.16
427.33	5219.39
427.52	5287.27
427.71	5228.76
427.90	5430.04
428.09	5242.80
428.28	5453.45
428.46	5385.57
428.65	5203.01
428.84	5575.16
429.03	5313.02
429.22	5310.68
429.40	5549.41
429.59	5378.55
429.78	5355.15
429.97	5125.77
430.16	5514.30
430.34	5603.24
430.53	5589.20
430.72	5643.03
430.91	5528.35
431.10	5708.57
431.28	5841.98
431.47	5771.76
431.66	5872.40
431.85	5703.89
432.03	6022.20
432.22	5956.66
432.41	5858.36
432.60	5888.79
432.79	5818.57
432.97	5963.68
433.16	6127.52
433.35	5961.34
433.54	5956.66
433.72	6132.20
433.91	6132.20
434.10	6228.17
434.28	6073.69
434.47	6216.46
434.66	6370.94
434.85	6286.68
435.03	6356.90
435.22	6443.49
435.41	6380.30
435.59	6403.71
435.78	6368.60
435.97	6478.60
436.16	6434.13
436.34	6576.91
436.53	6487.96
436.72	6787.55
436.90	6396.68
437.09	6712.66
437.28	6609.67
437.46	6703.29
437.65	6707.98
437.84	6726.70
438.02	6754.79
438.21	6923.30
438.40	6696.27
438.58	6986.50
438.77	7138.63
438.96	6932.67
439.14	7063.74
439.33	7136.29
439.52	7190.13
439.70	7206.51
439.89	7447.58
440.08	7447.58
440.26	7342.26
440.45	7513.12
440.63	7384.39
440.82	7576.31
441.01	7463.97
441.19	7613.76
441.38	7620.78
441.57	7683.98
441.75	7798.66
441.94	7871.22
442.12	7894.63
442.31	8042.08
442.50	8128.68
442.68	7941.44
442.87	8215.28
443.05	8028.04
443.24	8259.75
443.43	7922.71
443.61	8018.68
443.80	8458.70
443.98	8060.80
444.17	7829.09
444.35	8088.89
444.54	8327.63
444.73	8194.22
444.91	8362.73
445.10	8255.07
445.28	8215.28
445.47	8524.23
445.65	8297.20
445.84	8311.24
446.02	8592.11
446.21	8524.23
446.39	8306.56
446.58	8613.17
446.77	8538.27
446.95	8365.07
447.14	8491.46
447.32	8535.93
447.51	8283.16
447.69	8575.72
447.88	8482.10
448.06	8442.31
448.25	8571.04
448.43	8596.79
448.62	8655.30
448.80	8557.00
448.99	8875.31
449.17	8844.88
449.36	8662.32
449.54	8917.44
449.73	8961.91
449.91	9029.79
450.10	8922.12
450.28	8997.02
450.46	8926.80
450.65	8999.36
450.83	9163.20
451.02	8917.44
451.20	9291.93
451.39	9151.49
451.57	9151.49
451.76	9088.30
451.94	9380.87
452.13	9387.89
452.31	9252.14
452.49	9139.79
452.68	9327.03
452.86	9317.67
453.05	9343.42
453.23	9518.96
453.42	9345.76
453.60	9415.98
453.78	9570.45
453.97	9540.02
454.15	9647.69
454.34	9657.05
454.52	9624.28
454.70	9846.63
454.89	9912.17
455.07	9680.46
455.26	9830.25
455.44	10188.35
455.62	10026.86
455.81	10005.79
455.99	10003.45
456.17	10202.40
456.36	10008.13
456.54	10249.21
456.73	10181.33
456.91	10480.92
457.09	10284.31
457.28	10597.95
457.46	10101.75
457.64	10707.95
457.83	10448.15
458.01	10324.10
458.19	10654.12
458.38	10574.54
458.56	10932.64
458.74	10700.93
458.93	10633.05
459.11	10920.94
459.29	10661.14
459.48	10899.87
459.66	10853.06
459.84	11122.23
460.03	11105.84
460.21	11117.54
460.39	10927.96
460.57	11080.10
460.76	11077.76
460.94	11206.48
461.12	11250.96
461.31	11215.85
461.49	11323.51
461.67	11262.66
461.85	11463.94
462.04	11403.09
462.22	11779.92
462.40	11728.42
462.59	11667.57
462.77	11337.56
462.95	11843.11
463.13	11768.21
463.32	11459.26
463.50	11803.32
463.68	11955.46
463.86	11803.32
464.05	11700.34
464.23	11632.46
464.41	11885.24
464.59	11606.72
464.78	12135.68
464.96	12152.06
465.14	11927.37
465.32	11868.86
465.50	12065.46
465.69	12175.47
465.87	12329.94
466.05	12135.68
466.23	12255.04
466.41	12173.13
466.60	12334.62
466.78	12175.47
466.96	12393.14
467.14	12271.43
467.32	12325.26
467.51	12585.06
467.69	12243.34
467.87	12442.29
468.05	12627.19
468.23	12500.80
468.41	12430.59
468.60	12648.26
468.78	12788.69
468.96	12767.62
469.14	12795.71
469.32	12922.10
469.50	12753.58
469.69	13074.23
469.87	13280.20
470.05	13221.69
470.23	13158.49
470.41	13074.23
470.59	13406.59
470.77	13144.45
470.95	13263.82
471.14	13542.34
471.32	12905.71
471.50	13460.42
471.68	13437.02
471.86	13664.05
472.04	13895.76
472.22	14104.07
472.40	13586.81
472.58	13877.04
472.77	13963.64
472.95	14012.79
473.13	14387.27
473.31	14225.78
473.49	13984.70
473.67	14183.65
473.85	14338.12
474.03	14672.82
474.21	14555.79
474.39	14787.50
474.57	14785.16
474.75	14890.49
474.93	15056.67
475.12	15059.01
475.30	15433.49
475.48	14927.94
475.66	15379.66
475.84	15169.01
476.02	15332.85
476.20	15323.49
476.38	15688.61
476.56	16100.55
476.74	15981.18
476.92	16016.29
477.10	15974.16
477.28	16081.82
477.46	16074.80
477.64	16299.49
477.82	16444.60
478.00	17099.95
478.18	16783.98
478.36	16964.20
478.54	17053.14
478.72	17301.24
478.90	17493.16
479.08	17755.30
479.26	17874.67
479.44	17507.21
479.62	18094.68
479.80	18202.35
479.98	18232.77
480.16	18445.76
480.34	18455.12
480.52	18799.18
480.70	18792.16
480.88	18614.28
481.06	18747.69
481.24	19012.17
481.41	19236.86
481.59	19264.95
481.77	19587.94
481.95	19852.42
482.13	20030.30
482.31	19726.04
482.49	20205.84
482.67	20084.14
482.85	20699.70
483.03	20680.97
483.21	21015.67
483.39	20877.58
483.57	21060.14
483.74	21113.97
483.92	21516.54
484.10	21483.78
484.28	21851.24
484.46	22204.66
484.64	22321.69
484.82	21874.65
485.00	22448.08
485.18	22752.35
485.35	23283.65
485.53	22604.89
485.71	22948.95
485.89	23639.41
486.07	23398.34
486.25	23330.46
486.43	23597.28
486.61	23796.23
486.78	23955.38
486.96	24177.73
487.14	24636.48
487.32	24514.77
487.50	25319.92
487.68	25151.40
487.85	25530.56
488.03	25287.15
488.21	25621.84
488.39	25818.45
488.57	26389.54
488.75	26127.40
488.92	26616.57
489.10	26717.22
489.28	26892.76
489.46	27150.21
489.64	26824.88
489.81	27658.11
489.99	27587.89
490.17	27505.98
490.35	27950.68
490.53	28191.75
490.70	28847.10
490.88	28095.79
491.06	29006.26
491.24	29118.60
491.41	29106.90
491.59	29429.90
491.77	29537.56
491.95	29486.07
492.13	29628.84
492.30	30024.39
492.48	30293.55
492.66	30281.85
492.84	30054.82
493.01	31117.42
493.19	30361.43
493.37	31150.19
493.54	31323.39
493.72	31393.61
493.90	31405.31
494.08	31826.60
494.25	31978.74
494.43	32360.25
494.61	32369.61
494.79	32594.30
494.96	32664.52
495.14	33022.62
495.32	33139.65
495.49	33130.28
495.67	33710.74
495.85	33177.09
496.02	33806.70
496.20	34146.08
496.38	34368.43
496.55	34412.90
496.73	34899.73
496.91	34656.31
497.09	34895.05
497.26	35157.19
497.44	34995.69
497.62	35435.71
497.79	36023.19
497.97	35505.93
498.14	35828.92
498.32	36533.42
498.50	35999.78
498.67	36488.95
498.85	36825.99
499.03	37020.25
499.20	36524.06
499.38	36807.26
499.56	37254.31
499.73	37439.21
499.91	36933.65
500.08	37394.74
500.26	37710.71
500.44	37729.44
500.61	37958.81
500.79	38213.93
500.97	37982.21
501.14	38508.83
501.32	38815.44
501.49	38759.27
501.67	38866.94
501.84	39276.53
502.02	39489.52
502.20	38836.51
502.37	39679.10
502.55	39360.79
502.72	39796.13
502.90	39695.49
503.07	39915.50
503.25	40013.80
503.43	39622.93
503.60	39828.90
503.78	40470.20
503.95	40648.08
504.13	40634.04
504.30	41043.63
504.48	40491.27
504.65	40779.15
504.83	40755.75
505.01	41289.39
505.18	41265.99
505.36	41684.94
505.53	41174.70
505.71	41832.39
505.88	41900.27
506.06	41879.21
506.23	42253.69
506.41	41993.89
506.58	42710.10
506.76	42452.64
506.93	42490.09
507.11	42717.12
507.28	42513.49
507.46	42319.23
507.63	42923.08
507.81	43079.90
507.98	43246.08
508.16	42906.70
508.33	43461.41
508.50	43241.40
508.68	43674.40
508.85	44411.67
509.03	43971.64
509.20	44376.56
509.38	44502.95
509.55	44507.63
509.73	44718.28
509.90	45017.86
510.08	44526.35
510.25	44584.86
510.42	45074.04
510.60	45485.97
510.77	45059.99
510.95	45633.42
511.12	45537.46
511.30	45663.85
511.47	45689.60
511.64	45806.62
511.82	45610.02
511.99	45792.58
512.17	46115.58
512.34	45902.59
512.51	46487.72
512.69	46260.69
512.86	46913.70
513.04	46665.60
513.21	46927.74
513.38	47007.32
513.56	47318.61
513.73	47393.51
513.90	47323.29
514.08	46799.01
514.25	47447.34
514.43	47826.51
514.60	47547.98
514.77	47608.84
514.95	48053.54
515.12	47580.75
515.29	47512.88
515.47	48175.25
515.64	48603.56
515.81	47859.27
515.99	48301.64
516.16	48694.85
516.33	48568.46
516.51	48732.29
516.68	49059.97
516.85	48601.22
517.03	48975.71
517.20	48641.01
517.37	49057.63
517.54	49071.67
517.72	48767.40
517.89	49474.24
518.06	49572.55
518.24	49359.56
518.41	49317.43
518.58	49476.58
518.75	48954.64
518.93	49734.04
519.10	49656.81
519.27	50099.17
519.45	50052.36
519.62	50225.56
519.79	50082.78
519.96	50206.83
520.14	50365.99
520.31	50007.89
520.48	50450.25
520.65	50466.63
520.83	50850.48
521.00	51002.61
521.17	50672.60
521.34	51154.75
521.52	51093.89
521.69	51033.04
521.86	51152.41
522.03	51124.32
522.20	51213.26
522.38	51459.02
522.55	51412.21
522.72	51587.75
522.89	51601.79
523.07	51819.46
523.24	51552.64
523.41	51466.04
523.58	52037.13
523.75	51817.12
523.92	52020.75
524.10	51763.29
524.27	52308.63
524.44	52200.97
524.61	52219.69
524.78	52500.56
524.96	52315.65
525.13	52231.40
525.30	52963.98
525.47	52549.71
525.64	52928.87
525.81	52720.57
525.98	52795.46
526.16	52928.87
526.33	52701.84
526.50	52912.49
526.67	52769.72
526.84	53090.37
527.01	52966.32
527.18	53279.96
527.36	53102.07
527.53	53123.14
527.70	53563.16
527.87	53450.81
528.04	53394.64
528.21	53069.31
528.38	53284.64
528.55	53577.20
528.72	53609.97
528.89	53396.98
529.07	53453.15
529.24	53326.77
529.41	53893.18
529.58	53771.47
529.75	54059.35
529.92	53984.46
530.09	53932.96
530.26	54047.65
530.43	54052.33
530.60	53897.86
530.77	54127.23
530.94	54363.62
531.11	53748.06
531.28	54230.21
531.46	54213.83
531.63	54347.24
531.80	54478.31
531.97	54616.40
532.14	54401.07
532.31	54805.98
532.48	54717.04
532.65	54822.37
532.82	54738.11
532.99	54869.18
533.16	54810.67
533.33	54820.03
533.50	55070.46
533.67	55030.68
533.84	54810.67
534.01	54920.67
534.18	55217.92
534.35	55290.48
534.52	55313.88
534.69	55194.51
534.86	55466.02
535.03	55199.19
535.20	55159.41
535.37	55140.68
535.54	55487.08
535.71	55288.13
535.88	55477.72
536.05	55711.77
536.22	55763.26
536.38	55676.66
536.55	55611.13
536.72	55760.92
536.89	55473.04
537.06	55997.32
537.23	55749.22
537.40	55758.58
537.57	55847.52
537.74	55870.93
537.91	56034.77
538.08	56037.11
538.25	55831.14
538.42	55927.10
538.59	56229.03
538.75	56102.64
538.92	56191.58
539.09	56193.92
539.26	56287.54
539.43	56231.37
539.60	56427.98
539.77	56409.25
539.94	56605.86
540.11	56402.23
540.28	56519.26
540.44	56587.13
540.61	56638.62
540.78	56622.24
540.95	56313.29
541.12	56542.66
541.29	56657.35
541.46	56507.55
541.62	56690.12
541.79	56891.40
541.96	56395.21
542.13	56638.62
542.30	56921.83
542.47	56938.21
542.63	56935.87
542.80	56662.03
542.97	57198.01
543.14	57240.14
543.31	57317.38
543.48	57305.68
543.64	57413.34
543.81	57485.90
543.98	57394.62
544.15	57429.72
544.32	57553.77
544.48	57769.10
544.65	57600.58
544.82	57614.63
544.99	57200.35
545.16	57628.67
545.32	57448.45
545.49	57724.63
545.66	57741.02
545.83	57535.05
546.00	57867.40
546.16	57888.47
546.33	57729.31
546.50	57675.48
546.67	57633.35
546.83	57616.97
547.00	57872.09
547.17	57652.08
547.34	57902.51
547.50	58216.14
547.67	58202.10
547.84	58124.86
548.00	58251.25
548.17	58459.56
548.34	58239.55
548.51	58323.81
548.67	58300.40
548.84	58199.76
549.01	58305.09
549.18	58394.03
549.34	58291.04
549.51	58302.74
549.68	58412.75
549.84	58349.56
550.01	58508.71
550.18	58277.00
550.34	58394.03
550.51	58761.49
550.68	58539.14
550.84	58431.47
551.01	58546.16
551.18	58583.61
551.34	58728.72
551.51	58564.88
551.68	58609.35
551.84	58770.85
552.01	58461.90
552.18	58864.47
552.34	58372.96
552.51	58791.92
552.68	58527.44
552.84	58672.55
553.01	59107.89
553.18	58906.60
553.34	58979.16
553.51	58885.54
553.67	58815.32
553.84	59018.95
554.01	58960.44
554.17	59138.32
554.34	59040.01
554.51	59147.68
554.67	59112.57
554.84	59171.08
555.00	59194.49
555.17	59028.31
555.33	59238.96
555.50	59119.59
555.67	59047.04
555.83	59257.68
556.00	59351.30
556.16	59414.50
556.33	59426.20
556.50	59316.20
556.66	59281.09
556.83	59185.13
556.99	59475.35
557.16	59667.28
557.32	59531.53
557.49	59583.02
557.65	59365.35
557.82	59297.47
557.98	59440.24
558.15	59398.12
558.32	59517.48
558.48	59313.86
558.65	59470.67
558.81	59480.03
558.98	59821.75
559.14	59800.69
559.31	59662.60
559.47	59704.73
559.64	59847.50
559.80	59854.52
559.97	59891.97
560.13	59683.66
560.30	59791.33
560.46	59945.80
560.63	59835.80
560.79	59898.99
560.96	59845.16
561.12	59934.10
561.29	60039.42
561.45	59945.80
561.61	59987.93
561.78	59880.27
561.94	59931.76
562.11	59852.18
562.27	59887.29
562.44	60079.21
562.60	59924.74
562.77	59852.18
562.93	59889.63
563.10	60210.28
563.26	59929.42
563.42	60453.70
563.59	60011.34
563.75	59992.61
563.92	60303.90
564.08	60030.06
564.24	60100.28
564.41	60303.90
564.57	60299.22
564.74	60083.89
564.90	60397.52
565.07	60088.57
565.23	60198.58
565.39	60231.35
565.56	60142.41
565.72	60221.98
565.88	60416.25
566.05	60207.94
566.21	60025.38
566.38	60458.38
566.54	60594.13
566.70	60282.84
566.87	60502.85
567.03	60331.99
567.19	60432.63
567.36	60647.96
567.52	60350.71
567.68	60427.95
567.85	60381.14
568.01	60507.53
568.17	60243.05
568.34	60484.12
568.50	60484.12
568.66	60275.82
568.83	60603.49
568.99	60257.09
569.15	60622.22
569.32	60416.25
569.48	60528.59
569.64	60470.08
569.81	60594.13
569.97	60594.13
570.13	60587.11
570.30	60575.40
570.46	60563.70
570.62	60676.05
570.78	60640.94
570.95	60687.75
571.11	60690.09
571.27	60587.11
571.43	60734.56
571.60	60676.05
571.76	60563.70
571.92	60605.83
572.09	60638.60
572.25	60683.07
572.41	60633.92
572.57	60470.08
572.74	61090.32
572.90	60830.52
573.06	60591.79
573.22	60507.53
573.38	60788.39
573.55	60708.82
573.71	60865.63
573.87	60690.09
574.03	60612.85
574.20	60921.80
574.36	60605.83
574.52	61059.90
574.68	60870.31
574.84	60844.57
575.01	60781.37
575.17	60851.59
575.33	60769.67
575.49	60715.84
575.65	60900.74
575.82	60945.21
575.98	60746.26
576.14	60856.27
576.30	60795.42
576.46	60743.92
576.62	60757.97
576.79	60786.05
576.95	60809.46
577.11	60753.29
577.27	60924.14
577.43	61069.26
577.59	60750.94
577.75	60839.89
577.92	60669.03
578.08	60900.74
578.24	60858.61
578.40	60867.97
578.56	61181.60
578.72	60687.75
578.88	60903.08
579.04	61230.75
579.21	60987.34
579.37	61146.50
579.53	61237.78
579.69	60896.06
579.85	60662.00
580.01	60970.96
580.17	60797.76
580.33	60963.93
580.49	61059.90
580.65	61031.81
580.82	60985.00
580.98	60753.29
581.14	60589.45
581.30	61066.92
581.46	60865.63
581.62	61076.28
581.78	61031.81
581.94	60947.55
582.10	60877.33
582.26	60858.61
582.42	60713.50
582.58	61118.41
582.74	61041.17
582.90	61118.41
583.06	60952.23
583.22	60966.27
583.38	61209.69
583.54	60940.53
583.70	61125.43
583.86	61106.71
584.02	61120.75
584.18	61090.32
584.34	61071.60
584.50	61265.86
584.66	60884.36
584.82	60666.69
584.98	61312.67
585.14	61031.81
585.30	61095.00
585.46	61024.79
585.62	60935.85
585.78	61310.33
585.94	60874.99
586.10	61347.78
586.26	61038.83
586.42	61151.18
586.58	61162.88
586.74	61251.82
586.90	61092.66
587.06	61116.07
587.22	61169.90
587.38	61322.04
587.54	61291.61
587.70	61087.98
587.86	61212.03
588.02	61209.69
588.18	61338.42
588.34	61343.10
588.49	60989.68
