SpectraSuite Data File
++++++++++++++++++++++++++++++++++++
Date: Fri Oct 25 11:33:55 EDT 2013
User: price-jones
Dark Spectrum Present: No
Reference Spectrum Present: No
Number of Sampled Component Spectra: 1
Spectrometers: USB2+H05261
Integration Time (usec): 100000 (USB2+H05261)
Spectra Averaged: 1 (USB2+H05261)
Boxcar Smoothing: 0 (USB2+H05261)
Correct for Electrical Dark: No (USB2+H05261)
Strobe/Lamp Enabled: No (USB2+H05261)
Correct for Detector Non-linearity: No (USB2+H05261)
Correct for Stray Light: No (USB2+H05261)
Number of Pixels in Processed Spectrum: 2048
>>>>>Begin Processed Spectral Data<<<<<
365.73	255.12
365.92	255.12
366.12	255.12
366.32	182.56
366.52	201.29
366.72	187.24
366.91	145.11
367.11	107.66
367.31	189.58
367.51	222.35
367.70	138.09
367.90	184.90
368.10	220.01
368.30	234.05
368.49	220.01
368.69	166.18
368.89	154.48
369.09	212.99
369.28	187.24
369.48	175.54
369.68	210.65
369.87	217.67
370.07	241.08
370.27	276.18
370.47	283.20
370.66	416.62
370.86	533.64
371.06	594.50
371.25	552.37
371.45	559.39
371.65	545.34
371.84	559.39
372.04	599.18
372.24	559.39
372.44	479.81
372.63	601.52
372.83	571.09
373.03	505.56
373.22	678.76
373.42	559.39
373.62	606.20
373.81	645.99
374.01	678.76
374.21	615.56
374.40	594.50
374.60	720.88
374.79	613.22
374.99	641.31
375.19	629.60
375.38	681.10
375.58	627.26
375.78	718.54
375.97	678.76
376.17	690.46
376.37	690.46
376.56	660.03
376.76	702.16
376.95	716.20
377.15	753.65
377.35	713.86
377.54	664.71
377.74	671.73
377.93	657.69
378.13	683.44
378.33	767.70
378.52	727.91
378.72	702.16
378.91	711.52
379.11	718.54
379.31	725.57
379.50	751.31
379.70	800.46
379.89	727.91
380.09	671.73
380.28	751.31
380.48	772.38
380.68	784.08
380.87	730.25
381.07	709.18
381.26	760.67
381.46	690.46
381.65	779.40
381.85	786.42
382.04	744.29
382.24	741.95
382.43	734.93
382.63	786.42
382.83	800.46
383.02	777.06
383.22	823.87
383.41	814.51
383.61	800.46
383.80	795.78
384.00	828.55
384.19	751.31
384.39	844.93
384.58	777.06
384.78	812.17
384.97	758.33
385.17	791.10
385.36	777.06
385.56	882.38
385.75	833.23
385.95	826.21
386.14	861.32
386.34	875.36
386.53	861.32
386.72	816.85
386.92	830.89
387.11	819.19
387.31	922.17
387.50	945.58
387.70	856.64
387.89	880.04
388.09	945.58
388.28	847.27
388.48	940.90
388.67	940.90
388.86	940.90
389.06	877.70
389.25	999.41
389.45	940.90
389.64	903.45
389.84	983.02
390.03	1006.43
390.22	968.98
390.42	959.62
390.61	915.15
390.81	912.81
391.00	954.94
391.19	947.92
391.39	1004.09
391.58	1015.79
391.78	1020.47
391.97	947.92
392.16	1036.86
392.36	1069.62
392.55	1018.13
392.75	1053.24
392.94	1050.90
393.13	1018.13
393.33	1036.86
393.52	1128.14
393.71	1090.69
393.91	1158.57
394.10	1043.88
394.29	1151.54
394.49	1050.90
394.68	1153.88
394.88	1078.99
395.07	1055.58
395.26	1090.69
395.46	1093.03
395.65	1116.44
395.84	1144.52
396.04	1228.78
396.23	1193.67
396.42	1146.86
396.62	1198.35
396.81	1170.27
397.00	1238.14
397.19	1186.65
397.39	1188.99
397.58	1247.51
397.77	1158.57
397.97	1249.85
398.16	1261.55
398.35	1341.13
398.55	1261.55
398.74	1383.26
398.93	1320.06
399.12	1350.49
399.32	1268.57
399.51	1364.53
399.70	1397.30
399.90	1320.06
400.09	1420.71
400.28	1465.18
400.47	1397.30
400.67	1334.11
400.86	1451.13
401.05	1490.92
401.24	1460.49
401.44	1519.01
401.63	1493.26
401.82	1409.00
402.01	1385.60
402.21	1437.09
402.40	1511.99
402.59	1455.81
402.78	1537.73
402.97	1387.94
403.17	1535.39
403.36	1502.62
403.55	1404.32
403.74	1584.54
403.93	1523.69
404.13	1605.61
404.32	1654.76
404.51	1631.35
404.70	1544.75
404.89	1572.84
405.09	1678.16
405.28	1724.97
405.47	1591.56
405.66	1612.63
405.85	1710.93
406.05	1706.25
406.24	1668.80
406.43	1732.00
406.62	1673.48
406.81	1816.26
407.00	1832.64
407.20	1732.00
407.39	1762.42
407.58	1811.57
407.77	1860.73
407.96	1846.68
408.15	1928.60
408.34	1872.43
408.54	1937.96
408.73	1991.80
408.92	1797.53
409.11	1928.60
409.30	1984.77
409.49	1912.22
409.68	2031.58
409.87	2059.67
410.07	2043.29
410.26	1987.11
410.45	2031.58
410.64	1994.14
410.83	2066.69
411.02	2054.99
411.21	2328.83
411.40	2183.72
411.59	2267.98
411.78	2143.93
411.98	2181.38
412.17	2176.70
412.36	2347.56
412.55	2314.79
412.74	2345.22
412.93	2349.90
413.12	2338.20
413.31	2459.90
413.50	2359.26
413.69	2305.43
413.88	2548.84
414.07	2562.89
414.26	2406.07
414.45	2464.58
414.64	2504.37
414.83	2534.80
415.02	2635.44
415.22	2757.15
415.41	2754.81
415.60	2635.44
415.79	2614.38
415.98	2724.38
416.17	2665.87
416.36	2729.06
416.55	2773.53
416.74	2820.35
416.93	2750.13
417.12	2799.28
417.31	2789.92
417.50	2904.60
417.69	2972.48
417.88	2956.10
418.07	2979.50
418.26	2963.12
418.45	3000.57
418.64	3000.57
418.83	3103.55
419.02	3089.51
419.21	3115.25
419.39	3033.33
419.58	3080.14
419.77	2951.42
419.96	3047.38
420.15	3084.83
420.34	3122.27
420.53	3141.00
420.72	3304.84
420.91	3262.71
421.10	3204.19
421.29	3248.66
421.48	3246.32
421.67	3337.60
421.86	3258.03
422.05	3215.90
422.24	3260.37
422.43	3325.90
422.61	3279.09
422.80	3454.63
422.99	3412.50
423.18	3389.10
423.37	3459.31
423.56	3370.37
423.75	3302.50
423.94	3290.79
424.13	3201.85
424.32	3243.98
424.50	3485.06
424.69	3440.59
424.88	3353.99
425.07	3346.97
425.26	3384.41
425.45	3405.48
425.64	3384.41
425.83	3400.80
426.01	3384.41
426.20	3389.10
426.39	3456.97
426.58	3288.45
426.77	3583.36
426.96	3494.42
427.15	3400.80
427.33	3433.57
427.52	3459.31
427.71	3478.04
427.90	3562.30
428.09	3482.72
428.28	3667.62
428.46	3630.17
428.65	3786.99
428.84	3777.62
429.03	3803.37
429.22	3559.95
429.40	3707.41
429.59	3695.71
429.78	3637.19
429.97	3641.87
430.16	3740.18
430.34	3726.13
430.53	3854.86
430.72	3765.92
430.91	3796.35
431.10	3784.65
431.28	3936.78
431.47	3913.38
431.66	3925.08
431.85	3988.27
432.03	4023.38
432.22	4102.96
432.41	4063.17
432.60	4102.96
432.79	3857.20
432.97	4102.96
433.16	4105.30
433.35	3962.53
433.54	4100.62
433.72	4203.60
433.91	4002.32
434.10	4095.94
434.28	4161.47
434.47	4236.37
434.66	4210.62
434.85	4191.90
435.03	4231.69
435.22	4287.86
435.41	4301.90
435.59	4273.82
435.78	4456.38
435.97	4517.23
436.16	4358.08
436.34	4369.78
436.53	4292.54
436.72	4550.00
436.90	4435.32
437.09	4526.60
437.28	4372.12
437.46	4507.87
437.65	4456.38
437.84	4547.66
438.02	4564.04
438.21	4521.92
438.40	4610.86
438.58	4781.71
438.77	4652.98
438.96	4718.52
439.14	4835.55
439.33	4793.42
439.52	4835.55
439.70	4828.53
439.89	4896.40
440.08	5085.98
440.26	4910.44
440.45	4863.63
440.63	4954.91
440.82	5158.54
441.01	5013.43
441.19	5088.32
441.38	5100.03
441.57	5100.03
441.75	5263.86
441.94	5277.91
442.12	5245.14
442.31	5387.91
442.50	5308.34
442.68	5263.86
442.87	5287.27
443.05	5483.88
443.24	5537.71
443.43	5533.03
443.61	5544.73
443.80	5703.89
443.98	5329.40
444.17	5348.12
444.35	5530.69
444.54	5575.16
444.73	5526.00
444.91	5469.83
445.10	5570.48
445.28	5556.43
445.47	5621.97
445.65	5584.52
445.84	5535.37
446.02	5823.25
446.21	5762.40
446.39	5806.87
446.58	5731.97
446.77	5696.86
446.95	5633.67
447.14	5696.86
447.32	5713.25
447.51	5636.01
447.69	5760.06
447.88	5806.87
448.06	5703.89
448.25	5610.26
448.43	5738.99
448.62	5825.59
448.80	5614.95
448.99	5760.06
449.17	5802.19
449.36	5645.37
449.54	5954.32
449.73	6073.69
449.91	5959.00
450.10	5881.77
450.28	6148.59
450.46	6036.24
450.65	6019.86
450.83	6064.33
451.02	6045.60
451.20	6003.47
451.39	6092.41
451.57	6106.46
451.76	6246.89
451.94	6237.53
452.13	6237.53
452.31	6193.06
452.49	6340.51
452.68	6125.18
452.86	6267.95
453.05	6420.09
453.23	6289.02
453.42	6272.64
453.60	6282.00
453.78	6356.90
453.97	6286.68
454.15	6410.73
454.34	6272.64
454.52	6509.03
454.70	6665.85
454.89	6633.08
455.07	6562.86
455.26	6626.06
455.44	6506.69
455.62	6661.16
455.81	6590.95
455.99	6689.25
456.17	6766.49
456.36	6906.92
456.54	6719.68
456.73	6663.51
456.91	6925.65
457.09	6956.07
457.28	7194.81
457.46	6974.80
457.64	7096.50
457.83	7026.29
458.01	6883.52
458.19	7166.72
458.38	6923.30
458.56	7187.79
458.74	6970.12
458.93	7007.56
459.11	7016.93
459.29	7110.55
459.48	7208.85
459.66	7164.38
459.84	7389.07
460.03	7274.38
460.21	7323.54
460.39	7260.34
460.57	7297.79
460.76	7353.96
460.94	7503.76
461.12	7555.25
461.31	7559.93
461.49	7342.26
461.67	7386.73
461.85	7737.81
462.04	7564.61
462.22	7957.82
462.40	7536.52
462.59	7779.94
462.77	7646.53
462.95	7742.49
463.13	7726.11
463.32	7875.90
463.50	7892.29
463.68	7768.24
463.86	7978.89
464.05	7854.84
464.23	7803.35
464.41	7971.86
464.59	7782.28
464.78	7981.23
464.96	8163.79
465.14	7915.69
465.32	7953.14
465.50	8051.44
465.69	8161.45
465.87	7798.66
466.05	7906.33
466.23	8023.36
466.41	8072.51
466.60	8194.22
466.78	8011.65
466.96	8159.11
467.14	8182.51
467.32	8226.98
467.51	8416.57
467.69	8191.88
467.87	8390.82
468.05	8283.16
468.23	8322.94
468.41	8189.53
468.60	8334.65
468.78	8449.33
468.96	8365.07
469.14	8348.69
469.32	8578.06
469.50	8573.38
469.69	8589.77
469.87	8638.92
470.05	8713.81
470.23	8737.22
470.41	8769.99
470.59	8807.44
470.77	8510.19
470.95	8706.79
471.14	8912.76
471.32	8769.99
471.50	8947.87
471.68	8758.28
471.86	9057.87
472.04	9207.67
472.22	9231.07
472.40	9055.53
472.58	9228.73
472.77	9298.95
472.95	9408.95
473.13	9561.09
473.31	9163.20
473.49	9383.21
473.67	9362.14
473.85	9516.62
474.03	9685.14
474.21	9537.68
474.39	9504.92
474.57	9610.24
474.75	9783.44
474.93	9764.72
475.12	9797.48
475.30	9954.30
475.48	9984.73
475.66	9987.07
475.84	9984.73
476.02	10061.96
476.20	10085.37
476.38	10363.89
476.56	10403.68
476.74	10389.64
476.92	10452.83
477.10	10235.16
477.28	10537.09
477.46	10499.64
477.64	10630.71
477.82	10888.17
478.00	11124.57
478.18	10773.49
478.36	11183.08
478.54	11199.46
478.72	11449.90
478.90	11342.24
479.08	11349.26
479.26	11382.03
479.44	11459.26
479.62	11571.61
479.80	11805.66
479.98	11653.53
480.16	12212.92
480.34	12194.19
480.52	12049.08
480.70	12229.30
480.88	12287.81
481.06	12318.24
481.24	12332.28
481.41	12531.23
481.59	12610.81
481.77	12697.41
481.95	12734.85
482.13	12971.25
482.31	12821.45
482.49	13209.98
482.67	13441.70
482.85	13336.37
483.03	13458.08
483.21	13336.37
483.39	13678.09
483.57	13591.49
483.74	13785.76
483.92	13898.10
484.10	13776.39
484.28	14171.94
484.46	14445.79
484.64	14375.57
484.82	14363.87
485.00	14565.15
485.18	14644.73
485.35	14738.35
485.53	14885.81
485.71	14974.75
485.89	15339.87
486.07	15239.23
486.25	15112.84
486.43	15407.75
486.61	15674.57
486.78	15761.17
486.96	15503.71
487.14	16137.99
487.32	15934.37
487.50	16107.57
487.68	16287.79
487.85	16372.05
488.03	16774.62
488.21	16688.02
488.39	16884.62
488.57	17015.69
488.75	16989.95
488.92	17366.78
489.10	17343.37
489.28	17781.05
489.46	17664.02
489.64	17575.08
489.81	17900.42
489.99	17994.04
490.17	17937.87
490.35	18249.16
490.53	18246.82
490.70	18361.50
490.88	18593.22
491.06	18735.99
491.24	18633.00
491.41	19073.03
491.59	19037.92
491.77	19171.33
491.95	19288.35
492.13	19489.64
492.30	19407.72
492.48	19405.38
492.66	19737.74
492.84	19721.35
493.01	20006.90
493.19	19875.83
493.37	19864.13
493.54	20222.23
493.72	20360.32
493.90	20315.85
494.08	20517.14
494.25	21149.08
494.43	20893.96
494.61	21193.55
494.79	21022.69
494.96	21137.38
495.14	21476.76
495.32	21867.63
495.49	21621.87
495.67	21497.82
495.85	21654.64
496.02	21902.73
496.20	22050.19
496.38	21909.75
496.55	22335.73
496.73	22256.15
496.91	22356.80
497.09	22600.21
497.26	22621.28
497.44	22569.79
497.62	22991.08
497.79	23054.28
497.97	22897.46
498.14	23597.28
498.32	23295.35
498.50	23662.82
498.67	23782.18
498.85	23396.00
499.03	23604.30
499.20	23920.28
499.38	24266.67
499.56	23840.70
499.73	23974.11
499.91	24041.98
500.08	24435.19
500.26	24280.72
500.44	24521.79
500.61	24603.71
500.79	24643.50
500.97	24907.98
501.14	24971.18
501.32	24718.40
501.49	25200.55
501.67	25109.27
501.84	25373.75
502.02	25369.07
502.20	25394.81
502.37	25406.52
502.55	25556.31
502.72	25811.43
502.90	25455.67
503.07	25404.17
503.25	25872.28
503.43	25652.27
503.60	25830.15
503.78	26113.36
503.95	26127.40
504.13	26370.82
504.30	26178.89
504.48	26483.16
504.65	26508.91
504.83	26745.30
505.01	26923.18
505.18	26867.01
505.36	27108.08
505.53	26927.86
505.71	26951.27
505.88	27173.62
506.06	27049.57
506.23	27393.63
506.41	27180.64
506.58	27194.68
506.76	27461.51
506.93	27468.53
507.11	27620.66
507.28	28004.51
507.46	27810.25
507.63	27880.46
507.81	28194.09
507.98	28395.38
508.16	28320.48
508.33	28514.75
508.50	28734.76
508.68	28549.85
508.85	28692.63
509.03	28467.94
509.20	28900.94
509.38	29209.89
509.55	29429.90
509.73	28905.62
509.90	29336.27
510.08	29263.72
510.25	29652.25
510.42	29340.96
510.60	29223.93
510.77	29647.57
510.95	29720.12
511.12	29670.97
511.30	30108.65
511.47	29874.60
511.64	29738.85
511.82	30010.35
511.99	29883.96
512.17	30115.67
512.34	30110.99
512.51	30487.82
512.69	30661.02
512.86	30658.68
513.04	30745.28
513.21	30885.71
513.38	30677.40
513.56	31108.06
513.73	30700.81
513.90	30864.64
514.08	30871.67
514.25	31292.96
514.43	31278.92
514.60	31187.64
514.77	31328.07
514.95	31393.61
515.12	31367.86
515.29	31440.42
515.47	31487.23
515.64	31522.34
515.81	31433.39
515.99	31866.39
516.16	31920.23
516.33	32400.04
516.51	32144.92
516.68	32037.25
516.85	32486.64
517.03	32343.86
517.20	31887.46
517.37	32077.04
517.54	32067.68
517.72	32486.64
517.89	32676.22
518.06	32882.19
518.24	32847.08
518.41	32706.65
518.58	32840.06
518.75	32842.40
518.93	33139.65
519.10	33158.37
519.27	32989.85
519.45	33113.90
519.62	32924.32
519.79	33582.01
519.96	33750.52
520.14	33254.33
520.31	33109.22
520.48	33659.24
520.65	33736.48
520.83	34148.42
521.00	33919.04
521.17	33841.81
521.34	34227.99
521.52	33996.28
521.69	34150.76
521.86	34611.84
522.03	34459.71
522.20	34747.59
522.38	34857.60
522.55	34897.39
522.72	34581.42
522.89	35199.32
523.07	35239.11
523.24	34913.77
523.41	35082.29
523.58	34754.61
523.75	35323.36
523.92	35028.46
524.10	35466.14
524.27	35119.74
524.44	35384.22
524.61	35262.51
524.78	35428.69
524.96	35531.67
525.13	35480.18
525.30	35618.27
525.47	35997.44
525.64	35564.44
525.81	36250.22
525.98	36147.23
526.16	35917.86
526.33	35599.55
526.50	36341.50
526.67	35988.08
526.84	36407.03
527.01	36203.41
527.18	36308.73
527.36	36488.95
527.53	36666.83
527.70	37067.06
527.87	36971.10
528.04	36467.89
528.21	36645.77
528.38	36727.69
528.55	36961.74
528.72	36980.46
528.89	37291.76
529.07	36582.57
529.24	36552.15
529.41	36931.31
529.58	36851.73
529.75	37256.65
529.92	37413.46
530.09	37263.67
530.26	37338.57
530.43	37163.03
530.60	36971.10
530.77	37315.16
530.94	37141.96
531.11	37057.70
531.28	37963.49
531.46	37577.30
531.63	37500.06
531.80	37860.51
531.97	37446.23
532.14	37813.70
532.31	38078.18
532.48	38373.08
532.65	38288.82
532.82	38031.36
532.99	37982.21
533.16	37982.21
533.33	38742.89
533.50	38382.45
533.67	38373.08
533.84	37986.89
534.01	38726.50
534.18	38419.89
534.35	39077.58
534.52	38845.87
534.69	38899.70
534.86	38522.88
535.03	38604.80
535.20	39147.80
535.37	39213.34
535.54	39236.74
535.71	39033.11
535.88	39384.19
536.05	39669.74
536.22	39548.03
536.38	39194.61
536.55	39194.61
536.72	39316.32
536.89	39384.19
537.06	39494.20
537.23	39716.55
537.40	39704.85
537.57	39564.42
537.74	39349.09
537.91	40048.91
538.08	39157.16
538.25	39578.46
538.42	39779.74
538.59	40154.23
538.75	39931.88
538.92	39945.92
539.09	40334.45
539.26	40165.93
539.43	39880.39
539.60	40238.49
539.77	40149.55
539.94	40353.18
540.11	40257.21
540.28	40280.62
540.44	40479.57
540.61	40189.34
540.78	40179.98
540.95	40858.73
541.12	41179.39
541.29	40528.72
541.46	40425.73
541.62	40718.30
541.79	40868.09
541.96	40657.45
542.13	40500.63
542.30	40685.53
542.47	40744.05
542.63	41205.13
542.80	41759.84
542.97	41141.94
543.14	41329.18
543.31	41790.27
543.48	41137.26
543.64	41626.43
543.81	42033.68
543.98	41408.76
544.15	41640.47
544.32	41523.44
544.48	41691.96
544.65	41577.28
544.82	41808.99
544.99	41570.25
545.16	41867.50
545.32	42281.78
545.49	42071.13
545.66	42251.35
545.83	42424.55
546.00	42061.77
546.16	41970.49
546.33	41998.57
546.50	42197.52
546.67	42698.39
546.83	42007.94
547.00	42115.60
547.17	42277.10
547.34	42258.37
547.50	42483.06
547.67	42766.27
547.84	42555.62
548.00	42899.68
548.17	42810.74
548.34	42623.50
548.51	42976.92
548.67	42878.61
548.84	42965.21
549.01	42930.11
549.18	42759.25
549.34	43049.47
549.51	43182.88
549.68	42876.27
549.84	43075.22
550.01	43089.26
550.18	43641.63
550.34	43192.25
550.51	43093.94
550.68	43667.37
550.84	43164.16
551.01	43241.40
551.18	42986.28
551.34	43620.56
551.51	43438.00
551.68	42911.38
551.84	43194.59
552.01	43206.29
552.18	43749.29
552.34	43089.26
552.51	43538.65
552.68	43246.08
552.84	43871.00
553.01	43751.63
553.18	43707.16
553.34	43831.21
553.51	43735.25
553.67	43931.86
553.84	44112.08
554.01	43728.23
554.17	43538.65
554.34	44046.54
554.51	44156.55
554.67	43871.00
554.84	44322.72
555.00	44053.56
555.17	44212.72
555.33	44575.50
555.50	44069.95
555.67	44154.21
555.83	44336.77
556.00	44741.68
556.16	44907.86
556.33	44669.12
556.50	44421.03
556.66	44619.97
556.83	43997.39
556.99	44898.50
557.16	44535.71
557.32	44678.49
557.49	44814.24
557.65	44198.68
557.82	44975.73
557.98	44889.13
558.15	44325.07
558.32	44676.15
558.48	45067.02
558.65	44884.45
558.81	44591.89
558.98	44992.12
559.14	44676.15
559.31	44935.95
559.47	44729.98
559.64	44863.39
559.80	44603.59
559.97	45031.91
560.13	45125.53
560.30	44928.92
560.46	45322.13
560.63	45113.83
560.79	45221.49
560.96	45570.23
561.12	44996.80
561.29	45345.54
561.45	45530.44
561.61	45057.65
561.78	45221.49
561.94	45027.23
562.11	45354.90
562.27	45532.78
562.44	44921.90
562.60	45488.31
562.77	45532.78
562.93	45123.19
563.10	45502.35
563.26	45380.65
563.42	45886.20
563.59	45291.71
563.75	45317.45
563.92	45764.49
564.08	45638.11
564.24	45851.09
564.41	45806.62
564.57	45469.59
564.74	45993.87
564.90	45390.01
565.07	46036.00
565.23	45682.58
565.39	45666.19
565.56	45972.80
565.72	45935.35
565.88	45839.39
566.05	46036.00
566.21	45694.28
566.38	45818.33
566.54	45684.92
566.70	45951.74
566.87	45652.15
567.03	45715.34
567.19	45874.50
567.36	45815.99
567.52	45530.44
567.68	46611.77
567.85	46129.62
568.01	46461.97
568.17	45745.77
568.34	46225.58
568.50	46148.34
568.66	45900.25
568.83	46087.49
568.99	46115.58
569.15	46295.80
569.32	46113.23
569.48	45759.81
569.64	46457.29
569.81	46476.02
569.97	46422.19
570.13	46696.03
570.30	46160.05
570.46	46480.70
570.62	46209.20
570.78	46574.32
570.95	46155.36
571.11	46314.52
571.27	46644.54
571.43	46129.62
571.60	46204.52
571.76	46124.94
571.92	46415.16
572.09	46143.66
572.25	46195.15
572.41	45993.87
572.57	46050.04
572.74	46766.24
572.90	46307.50
573.06	46117.92
573.22	46396.44
573.38	46602.41
573.55	46478.36
573.71	46986.25
573.87	46464.32
574.03	46457.29
574.20	46735.82
574.36	46628.15
574.52	46817.74
574.68	46408.14
574.84	46944.12
575.01	47264.78
575.17	46602.41
575.33	46368.35
575.49	46539.21
575.65	46653.90
575.82	46607.09
575.98	46454.95
576.14	46564.96
576.30	46777.95
576.46	46745.18
576.62	46997.96
576.79	46527.51
576.95	46059.40
577.11	45865.14
577.27	46412.82
577.43	46504.10
577.59	46403.46
577.75	46485.38
577.92	46358.99
578.08	46382.40
578.24	46611.77
578.40	46899.65
578.56	46855.18
578.72	46415.16
578.88	46955.83
579.04	46869.23
579.21	46768.58
579.37	46604.75
579.53	46932.42
579.69	46375.37
579.85	46513.47
580.01	46607.09
580.17	46625.81
580.33	47239.03
580.49	46791.99
580.65	46791.99
580.82	46541.55
580.98	46621.13
581.14	46698.37
581.30	47056.47
581.46	46546.23
581.62	47161.79
581.78	46607.09
581.94	47105.62
582.10	46693.69
582.26	46946.47
582.42	46653.90
582.58	47051.79
582.74	47419.25
582.90	46590.70
583.06	47365.42
583.22	46831.78
583.38	47070.51
583.54	46969.87
583.70	47091.58
583.86	46857.52
584.02	46754.54
584.18	47299.89
584.34	46899.65
584.50	47082.22
584.66	47138.39
584.82	47065.83
584.98	47192.22
585.14	47402.87
585.30	46464.32
585.46	47079.88
585.62	46937.10
585.78	47676.71
585.94	46487.72
586.10	46969.87
586.26	46822.42
586.42	46967.53
586.58	46480.70
586.74	47037.75
586.90	46787.31
587.06	47049.45
587.22	47058.81
587.38	46995.62
587.54	47454.36
587.70	47377.12
587.86	46894.97
588.02	47021.36
588.18	46967.53
588.34	46939.44
588.49	47096.26
588.65	46993.28
588.81	46925.40
588.97	47236.69
589.13	47346.70
589.29	46820.08
589.45	47318.61
589.61	46820.08
589.77	47089.24
589.93	47339.68
590.08	47547.98
