SpectraSuite Data File
++++++++++++++++++++++++++++++++++++
Date: Fri Oct 25 11:25:04 EDT 2013
User: price-jones
Dark Spectrum Present: No
Reference Spectrum Present: No
Number of Sampled Component Spectra: 1
Spectrometers: USB2+H05261
Integration Time (usec): 100000 (USB2+H05261)
Spectra Averaged: 1 (USB2+H05261)
Boxcar Smoothing: 0 (USB2+H05261)
Correct for Electrical Dark: No (USB2+H05261)
Strobe/Lamp Enabled: No (USB2+H05261)
Correct for Detector Non-linearity: No (USB2+H05261)
Correct for Stray Light: No (USB2+H05261)
Number of Pixels in Processed Spectrum: 2048
>>>>>Begin Processed Spectral Data<<<<<
365.73	273.84
365.92	273.84
366.12	273.84
366.32	184.90
366.52	114.69
366.72	205.97
366.91	152.13
367.11	117.03
367.31	128.73
367.51	121.71
367.70	182.56
367.90	149.79
368.10	128.73
368.30	112.35
368.49	196.60
368.69	196.60
368.89	119.37
369.09	152.13
369.28	147.45
369.48	163.84
369.68	208.31
369.87	173.20
370.07	259.80
370.27	271.50
370.47	397.89
370.66	592.16
370.86	660.03
371.06	692.80
371.25	627.26
371.45	620.24
371.65	744.29
371.84	655.35
372.04	643.65
372.24	718.54
372.44	744.29
372.63	819.19
372.83	788.76
373.03	755.99
373.22	683.44
373.42	793.44
373.62	732.59
373.81	816.85
374.01	828.55
374.21	849.61
374.40	847.27
374.60	854.30
374.79	767.70
374.99	866.00
375.19	823.87
375.38	856.64
375.58	854.30
375.78	910.47
375.97	894.08
376.17	922.17
376.37	812.17
376.56	898.77
376.76	833.23
376.95	889.40
377.15	947.92
377.35	938.55
377.54	943.24
377.74	929.19
377.93	929.19
378.13	887.06
378.33	936.21
378.52	924.51
378.72	877.70
378.91	940.90
379.11	952.60
379.31	896.43
379.50	894.08
379.70	952.60
379.89	952.60
380.09	1039.20
380.28	980.68
380.48	1020.47
380.68	1114.10
380.87	950.26
381.07	950.26
381.26	1046.22
381.46	896.43
381.65	1048.56
381.85	1034.52
382.04	1048.56
382.24	1083.67
382.43	1060.26
382.63	938.55
382.83	1039.20
383.02	1043.88
383.22	1064.94
383.41	1179.63
383.61	1100.05
383.80	1069.62
384.00	1067.28
384.19	1118.78
384.39	1160.91
384.58	1160.91
384.78	1107.07
384.97	1163.25
385.17	1078.99
385.36	1228.78
385.56	1247.51
385.75	1167.93
385.95	1181.97
386.14	1170.27
386.34	1184.31
386.53	1256.87
386.72	1233.46
386.92	1329.42
387.11	1240.48
387.31	1249.85
387.50	1228.78
387.70	1198.35
387.89	1210.06
388.09	1242.82
388.28	1282.61
388.48	1282.61
388.67	1294.32
388.86	1299.00
389.06	1327.08
389.25	1378.58
389.45	1296.66
389.64	1331.76
389.84	1394.96
390.03	1425.39
390.22	1369.21
390.42	1259.21
390.61	1306.02
390.81	1418.36
391.00	1479.22
391.19	1537.73
391.39	1420.71
391.58	1488.58
391.78	1420.71
391.97	1523.69
392.16	1432.41
392.36	1561.14
392.55	1575.18
392.75	1523.69
392.94	1493.26
393.13	1556.46
393.33	1507.30
393.52	1563.48
393.71	1558.80
393.91	1596.25
394.10	1652.42
394.29	1607.95
394.49	1533.05
394.68	1629.01
394.88	1715.61
395.07	1659.44
395.26	1591.56
395.46	1685.19
395.65	1739.02
395.84	1607.95
396.04	1783.49
396.23	1834.98
396.42	1816.26
396.62	1771.79
396.81	1820.94
397.00	1790.51
397.19	1886.47
397.39	1753.06
397.58	1734.34
397.77	1708.59
397.97	1757.74
398.16	1928.60
398.35	1820.94
398.55	1963.71
398.74	2005.84
398.93	1942.64
399.12	1872.43
399.32	1849.02
399.51	1907.54
399.70	1977.75
399.90	2029.24
400.09	1935.62
400.28	2001.16
400.47	1984.77
400.67	2052.65
400.86	2052.65
401.05	2106.48
401.24	2113.50
401.44	2038.61
401.63	2202.44
401.82	2104.14
402.01	2113.50
402.21	2136.91
402.40	2153.29
402.59	2162.66
402.78	2190.74
402.97	2232.87
403.17	2256.28
403.36	2279.68
403.55	2258.62
403.74	2347.56
403.93	2382.67
404.13	2298.41
404.32	2396.71
404.51	2349.90
404.70	2387.35
404.89	2394.37
405.09	2452.88
405.28	2422.45
405.47	2457.56
405.66	2532.46
405.85	2511.39
406.05	2387.35
406.24	2520.76
406.43	2527.78
406.62	2567.57
406.81	2736.09
407.00	2628.42
407.20	2546.50
407.39	2642.46
407.58	2722.04
407.77	2738.43
407.96	2782.90
408.15	2740.77
408.34	2754.81
408.54	2825.03
408.73	2782.90
408.92	2855.45
409.11	2944.39
409.30	2883.54
409.49	2890.56
409.68	2899.92
409.87	2862.48
410.07	2932.69
410.26	2918.65
410.45	2928.01
410.64	3040.36
410.83	3087.17
411.02	3126.96
411.21	3122.27
411.40	3052.06
411.59	3260.37
411.78	3150.36
411.98	3164.40
412.17	3201.85
412.36	3225.26
412.55	3361.01
412.74	3410.16
412.93	3419.52
413.12	3339.94
413.31	3480.38
413.50	3531.87
413.69	3541.23
413.88	3599.74
414.07	3684.00
414.26	3623.15
414.45	3679.32
414.64	3723.79
414.83	3644.21
415.02	3765.92
415.22	3765.92
415.41	3866.56
415.60	3838.48
415.79	3899.33
415.98	3971.89
416.17	3934.44
416.36	4025.72
416.55	4079.55
416.74	4056.15
416.93	4030.40
417.12	4105.30
417.31	4126.36
417.50	4138.07
417.69	4379.14
417.88	4243.39
418.07	4292.54
418.26	4301.90
418.45	4301.90
418.64	4461.06
418.83	4435.32
419.02	4290.20
419.21	4585.11
419.39	4514.89
419.58	4491.49
419.77	4458.72
419.96	4554.68
420.15	4671.71
420.34	4496.17
420.53	4510.21
420.72	4486.81
420.91	4643.62
421.10	4688.09
421.29	4692.77
421.48	4716.18
421.67	4580.43
421.86	4819.16
422.05	4870.65
422.24	4713.84
422.43	4983.00
422.61	4861.29
422.80	5015.77
422.99	5130.45
423.18	4999.38
423.37	5039.17
423.56	4938.53
423.75	5020.45
423.94	4858.95
424.13	4578.09
424.32	4758.31
424.50	4961.94
424.69	5048.54
424.88	5100.03
425.07	5027.47
425.26	4880.02
425.45	4856.61
425.64	4992.36
425.83	4959.60
426.01	5142.16
426.20	5128.11
426.39	5111.73
426.58	5074.28
426.77	4938.53
426.96	5048.54
427.15	5132.79
427.33	5142.16
427.52	5280.25
427.71	5132.79
427.90	5034.49
428.09	5273.23
428.28	5448.77
428.46	5390.25
428.65	5518.98
428.84	5544.73
429.03	5458.13
429.22	5287.27
429.40	5549.41
429.59	5476.85
429.78	5291.95
429.97	5275.57
430.16	5479.19
430.34	5460.47
430.53	5715.59
430.72	5640.69
430.91	5703.89
431.10	5582.18
431.28	5760.06
431.47	5921.56
431.66	5921.56
431.85	5809.21
432.03	5813.89
432.22	5954.32
432.41	5968.37
432.60	5870.06
432.79	5977.73
432.97	6076.03
433.16	6071.35
433.35	6085.39
433.54	6052.63
433.72	6146.25
433.91	6150.93
434.10	6188.38
434.28	6132.20
434.47	5975.39
434.66	6223.48
434.85	6333.49
435.03	6202.42
435.22	6333.49
435.41	6427.11
435.59	6314.77
435.78	6399.02
435.97	6502.01
436.16	6352.21
436.34	6450.52
436.53	6492.65
436.72	6635.42
436.90	6375.62
437.09	6597.97
437.28	6532.44
437.46	6658.82
437.65	6607.33
437.84	6644.78
438.02	6815.64
438.21	6787.55
438.40	6579.25
438.58	6991.18
438.77	6995.86
438.96	6911.60
439.14	7098.84
439.33	7136.29
439.52	7229.91
439.70	7258.00
439.89	7386.73
440.08	7243.96
440.26	7382.05
440.45	7311.83
440.63	7573.97
440.82	7604.40
441.01	7571.63
441.19	7627.81
441.38	7859.52
441.57	7562.27
441.75	7861.86
441.94	7974.21
442.12	8032.72
442.31	8004.63
442.50	7971.86
442.68	8023.36
442.87	8046.76
443.05	8219.96
443.24	8184.85
443.43	8257.41
443.61	8315.92
443.80	8271.45
443.98	8222.30
444.17	7857.18
444.35	8271.45
444.54	8423.59
444.73	8348.69
444.91	8280.82
445.10	8336.99
445.28	8201.24
445.47	8114.64
445.65	8486.78
445.84	8456.36
446.02	8414.23
446.21	8264.43
446.39	8559.34
446.58	8549.98
446.77	8322.94
446.95	8205.92
447.14	8381.46
447.32	8486.78
447.51	8262.09
447.69	8304.22
447.88	8475.08
448.06	8475.08
448.25	8461.04
448.43	8374.44
448.62	8407.20
448.80	8507.85
448.99	8760.63
449.17	8643.60
449.36	8603.81
449.54	8805.10
449.73	8854.25
449.91	9004.04
450.10	8732.54
450.28	8851.91
450.46	9064.89
450.65	8957.23
450.83	9100.00
451.02	9121.07
451.20	9198.31
451.39	9001.70
451.57	9163.20
451.76	8982.98
451.94	9067.24
452.13	9312.99
452.31	9198.31
452.49	9210.01
452.68	9387.89
452.86	9198.31
453.05	9404.27
453.23	9366.82
453.42	9430.02
453.60	9275.54
453.78	9542.36
453.97	9317.67
454.15	9547.05
454.34	9465.13
454.52	9624.28
454.70	9540.02
454.89	9586.83
455.07	9729.61
455.26	9706.20
455.44	9851.31
455.62	10026.86
455.81	9879.40
455.99	9956.64
456.17	10080.69
456.36	10068.98
456.54	10036.22
456.73	10384.96
456.91	10361.55
457.09	10525.39
457.28	10607.31
457.46	10207.08
457.64	10675.18
457.83	10586.24
458.01	10363.89
458.19	10530.07
458.38	10670.50
458.56	10597.95
458.74	10747.74
458.93	10504.32
459.11	10761.78
459.29	10775.83
459.48	10775.83
459.66	10764.12
459.84	10888.17
460.03	10986.47
460.21	10843.70
460.39	10785.19
460.57	11068.39
460.76	11080.10
460.94	11096.48
461.12	11197.12
461.31	11257.98
461.49	11323.51
461.67	11283.72
461.85	11360.96
462.04	11377.34
462.22	11791.62
462.40	11798.64
462.59	11421.81
462.77	11681.61
462.95	11541.18
463.13	11456.92
463.32	11562.25
463.50	11843.11
463.68	11714.38
463.86	11981.20
464.05	11723.74
464.23	11721.40
464.41	11585.65
464.59	11728.42
464.78	12107.59
464.96	12079.50
465.14	11758.85
465.32	11997.59
465.50	11953.12
465.69	12208.23
465.87	11932.05
466.05	12112.27
466.23	12241.00
466.41	12411.86
466.60	12547.61
466.78	12257.39
466.96	12210.57
467.14	12386.12
467.32	12383.77
467.51	12451.65
467.69	11990.56
467.87	12336.96
468.05	12795.71
468.23	12589.74
468.41	12549.95
468.60	12674.00
468.78	12912.74
468.96	12772.30
469.14	12713.79
469.32	12877.63
469.50	12556.97
469.69	12971.25
469.87	13057.85
470.05	13207.64
470.23	13074.23
470.41	13029.76
470.59	13099.98
470.77	13069.55
470.95	13085.94
471.14	13380.84
471.32	13291.90
471.50	13294.24
471.68	13750.65
471.86	13706.18
472.04	13703.84
472.22	13933.21
472.40	13748.31
472.58	13839.59
472.77	13996.40
472.95	14288.97
473.13	14780.48
473.31	14078.32
473.49	14153.22
473.67	13870.01
473.85	14382.59
474.03	14916.23
474.21	14644.73
474.39	14693.88
474.57	14490.26
474.75	14726.65
474.93	14934.96
475.12	14815.59
475.30	15180.71
475.48	14960.70
475.66	15353.91
475.84	15307.10
476.02	15377.32
476.20	15578.61
476.38	15550.52
476.56	15786.91
476.74	15939.05
476.92	15719.04
477.10	15646.48
477.28	16259.70
477.46	16285.45
477.64	16423.54
477.82	16697.38
478.00	16821.43
478.18	16713.77
478.36	17050.80
478.54	17261.45
478.72	17357.41
478.90	17312.94
479.08	17399.54
479.26	17446.35
479.44	17507.21
479.62	17877.01
479.80	17823.18
479.98	18141.49
480.16	18815.57
480.34	18394.27
480.52	18778.12
480.70	18370.86
480.88	18434.06
481.06	18625.98
481.24	18995.79
481.41	18944.30
481.59	19604.33
481.77	19625.39
481.95	19508.37
482.13	19803.27
482.31	19520.07
482.49	20194.14
482.67	20070.09
482.85	20362.66
483.03	20360.32
483.21	20657.57
483.39	20711.40
483.57	20898.64
483.74	20985.24
483.92	21235.68
484.10	21216.96
484.28	21549.31
484.46	21996.35
484.64	22338.07
484.82	22001.04
485.00	22284.24
485.18	22506.59
485.35	22642.34
485.53	22586.17
485.71	23243.86
485.89	23358.55
486.07	23206.41
486.25	23276.63
486.43	23431.10
486.61	23946.02
486.78	24159.01
486.96	24020.92
487.14	24905.64
487.32	24716.06
487.50	24797.98
487.68	24776.91
487.85	25174.80
488.03	25717.81
488.21	25853.56
488.39	25724.83
488.57	26272.51
488.75	25848.88
488.92	26389.54
489.10	26529.97
489.28	26518.27
489.46	27087.02
489.64	27051.91
489.81	27817.27
489.99	27716.62
490.17	27728.33
490.35	28156.64
490.53	27957.70
490.70	28430.49
490.88	28091.11
491.06	28615.39
491.24	28514.75
491.41	28968.81
491.59	29113.92
491.77	29120.95
491.95	29729.48
492.13	29853.53
492.30	29923.75
492.48	29886.30
492.66	30202.27
492.84	30349.73
493.01	30202.27
493.19	30689.10
493.37	31079.97
493.54	30850.60
493.72	31775.11
493.90	31211.04
494.08	31524.68
494.25	31761.07
494.43	32081.72
494.61	32144.92
494.79	32631.75
494.96	32437.48
495.14	32854.10
495.32	33326.89
495.49	32954.74
495.67	33055.39
495.85	33514.13
496.02	33799.68
496.20	33956.49
496.38	33970.54
496.55	33951.81
496.73	34780.36
496.91	34398.85
497.09	34836.53
497.26	34843.56
497.44	34969.94
497.62	35323.36
497.79	35732.96
497.97	35243.79
498.14	36224.47
498.32	36084.04
498.50	35885.09
498.67	36634.06
498.85	36456.18
499.03	36753.43
499.20	36488.95
499.38	36472.57
499.56	37027.28
499.73	36886.84
499.91	37535.17
500.08	37371.33
500.26	37397.08
500.44	37574.96
500.61	37659.22
500.79	37509.43
500.97	38188.18
501.14	38443.30
501.32	38239.67
501.49	38377.76
501.67	38988.64
501.84	39138.44
502.02	38541.60
502.20	38960.56
502.37	39328.02
502.55	39143.12
502.72	39639.31
502.90	39515.26
503.07	39089.29
503.25	39723.57
503.43	39948.26
503.60	40367.22
503.78	40025.50
503.95	40055.93
504.13	40795.54
504.30	40641.06
504.48	40336.79
504.65	40776.81
504.83	40779.15
505.01	41148.96
505.18	41034.27
505.36	41343.22
505.53	41247.26
505.71	41387.69
505.88	42146.03
506.06	40982.78
506.23	41914.31
506.41	42017.30
506.58	41801.97
506.76	42174.11
506.93	42359.02
507.11	41963.46
507.28	42499.45
507.46	42569.66
507.63	42550.94
507.81	43021.39
507.98	42892.66
508.16	42976.92
508.33	43267.14
508.50	43793.76
508.68	43620.56
508.85	43688.44
509.03	43620.56
509.20	43854.62
509.38	44676.15
509.55	44357.83
509.73	44411.67
509.90	44479.54
510.08	44587.21
510.25	44514.65
510.42	44673.81
510.60	45476.61
510.77	45130.21
510.95	45186.38
511.12	45083.40
511.30	44980.42
511.47	45401.71
511.64	45565.55
511.82	45698.96
511.99	44999.14
512.17	45972.80
512.34	45879.18
512.51	46316.86
512.69	46464.32
512.86	46040.68
513.04	46342.61
513.21	46646.88
513.38	46941.78
513.56	46911.36
513.73	46937.10
513.90	47143.07
514.08	46834.12
514.25	47285.84
514.43	46883.27
514.60	47220.31
514.77	47180.52
514.95	47728.20
515.12	47349.04
515.29	47578.41
515.47	47854.59
515.64	48121.41
515.81	48011.41
515.99	47751.61
516.16	48130.78
516.33	47863.96
516.51	48472.49
516.68	48446.75
516.85	48416.32
517.03	48877.41
517.20	49214.44
517.37	48629.31
517.54	48755.70
517.72	49509.35
517.89	48638.67
518.06	49134.87
518.24	49045.93
518.41	49097.42
518.58	49261.26
518.75	49153.59
518.93	49404.03
519.10	49244.87
519.27	49666.17
519.45	49483.61
519.62	49771.49
519.79	49825.32
519.96	50122.57
520.14	50087.46
520.31	50057.04
520.48	50513.44
520.65	50024.27
520.83	50548.55
521.00	50630.47
521.17	50574.30
521.34	50829.41
521.52	50948.78
521.69	50798.99
521.86	50784.94
522.03	51107.94
522.20	51199.22
522.38	51058.79
522.55	51379.44
522.72	51185.18
522.89	51402.85
523.07	51444.98
523.24	51323.27
523.41	51903.72
523.58	51351.35
523.75	52062.88
523.92	51861.59
524.10	52013.73
524.27	52289.91
524.44	52205.65
524.61	51896.70
524.78	52224.37
524.96	52217.35
525.13	52128.41
525.30	52411.62
525.47	52313.31
525.64	52346.08
525.81	52645.67
525.98	52727.59
526.16	52662.05
526.33	52750.99
526.50	52884.40
526.67	52823.55
526.84	52800.15
527.01	53109.10
527.18	52587.16
527.36	52706.52
527.53	52781.42
527.70	53455.50
527.87	53045.90
528.04	53226.12
528.21	53244.85
528.38	53411.02
528.55	53268.25
528.72	53633.38
528.89	53411.02
529.07	53394.64
529.24	53389.96
529.41	53570.18
529.58	53443.79
529.75	53776.15
529.92	53588.91
530.09	53801.89
530.26	53663.80
530.43	54150.63
530.60	53846.36
530.77	53907.22
530.94	53876.79
531.11	53769.13
531.28	54061.69
531.46	54167.02
531.63	54459.58
531.80	54190.42
531.97	54288.73
532.14	54363.62
532.31	54593.00
532.48	54452.56
532.65	54789.60
532.82	54267.66
532.99	54775.56
533.16	54600.02
533.33	54934.71
533.50	54841.09
533.67	54967.48
533.84	54845.77
534.01	54625.76
534.18	54878.54
534.35	55089.19
534.52	54894.92
534.69	55051.74
534.86	55210.90
535.03	55042.38
535.20	55276.43
535.37	55344.31
535.54	55114.94
535.71	55140.68
535.88	55393.46
536.05	55437.93
536.22	55522.19
536.38	55604.11
536.55	55423.89
536.72	55557.30
536.89	55337.29
537.06	55451.97
537.23	55643.90
537.40	55601.77
537.57	55629.85
537.74	55683.69
537.91	55908.38
538.08	56074.55
538.25	55796.03
538.42	56090.94
538.59	56219.67
538.75	55725.81
538.92	55868.59
539.09	56114.34
539.26	56027.74
539.43	56219.67
539.60	56149.45
539.77	56034.77
539.94	56324.99
540.11	56467.76
540.28	56299.25
540.44	56488.83
540.61	56463.08
540.78	56390.53
540.95	56250.09
541.12	56332.01
541.29	56224.35
541.46	56568.41
541.62	56416.27
541.79	56720.54
541.96	56306.27
542.13	56521.60
542.30	56451.38
542.47	56722.88
542.63	56680.75
542.80	56685.43
542.97	57242.48
543.14	57258.87
543.31	57013.11
543.48	57132.48
543.64	57322.06
543.81	57401.64
543.98	57394.62
544.15	57474.20
544.32	57127.80
544.48	57532.71
544.65	57425.04
544.82	57303.34
544.99	57202.69
545.16	57361.85
545.32	57396.96
545.49	57911.88
545.66	57443.77
545.83	57509.30
546.00	57668.46
546.16	57525.69
546.33	57518.67
546.50	57403.98
546.67	57722.29
546.83	57485.90
547.00	57654.42
547.17	57724.63
547.34	57865.06
547.50	57909.53
547.67	57956.35
547.84	57902.51
548.00	58134.23
548.17	58309.77
548.34	57993.79
548.51	58059.33
548.67	58143.59
548.84	58150.61
549.01	57975.07
549.18	58298.06
549.34	58195.08
549.51	58351.90
549.68	58370.62
549.84	58445.52
550.01	58651.48
550.18	58028.90
550.34	58307.43
550.51	58349.56
550.68	58403.39
550.84	58106.14
551.01	58412.75
551.18	58597.65
551.34	58286.36
551.51	58497.01
551.68	58621.06
551.84	58635.10
552.01	58443.18
552.18	58424.45
552.34	58489.99
552.51	58628.08
552.68	58480.63
552.84	58621.06
553.01	58752.13
553.18	58822.34
553.34	58983.84
553.51	58681.91
553.67	58859.79
553.84	59037.67
554.01	58962.78
554.17	58887.88
554.34	58995.54
554.51	59040.01
554.67	58946.39
554.84	58918.31
555.00	59009.59
555.17	58958.09
555.33	59121.93
555.50	58782.55
555.67	58885.54
555.83	58979.16
556.00	58941.71
556.16	59325.56
556.33	59000.22
556.50	59133.63
556.66	59150.02
556.83	59157.04
556.99	59271.73
557.16	59669.62
557.32	59501.10
557.49	59700.04
557.65	59306.83
557.82	59489.40
557.98	59477.69
558.15	59550.25
558.32	59688.34
558.48	59292.79
558.65	59517.48
558.81	59313.86
558.98	59559.61
559.14	59707.07
559.31	59627.49
559.47	59585.36
559.64	59491.74
559.80	59693.02
559.97	59793.67
560.13	59465.99
560.30	59639.19
560.46	59742.17
560.63	59711.75
560.79	59852.18
560.96	59800.69
561.12	59859.20
561.29	59793.67
561.45	59732.81
561.61	60011.34
561.78	59718.77
561.94	59578.34
562.11	59810.05
562.27	59884.95
562.44	59917.71
562.60	59737.49
562.77	59821.75
562.93	59803.03
563.10	59943.46
563.26	59920.05
563.42	60179.85
563.59	59793.67
563.75	59920.05
563.92	59983.25
564.08	59910.69
564.24	60027.72
564.41	60081.55
564.57	60158.79
564.74	60062.83
564.90	60051.12
565.07	60090.91
565.23	60004.31
565.39	59943.46
565.56	60191.56
565.72	60018.36
565.88	60268.79
566.05	59877.93
566.21	59959.84
566.38	60062.83
566.54	60128.36
566.70	60467.74
566.87	60306.24
567.03	60163.47
567.19	60261.77
567.36	60275.82
567.52	60214.96
567.68	60580.09
567.85	60327.31
568.01	60570.72
568.17	60023.04
568.34	60353.05
568.50	60233.69
568.66	60233.69
568.83	60631.58
568.99	60371.78
569.15	60299.22
569.32	60395.18
569.48	60233.69
569.64	60484.12
569.81	60472.42
569.97	60170.49
570.13	60189.22
570.30	60341.35
570.46	60460.72
570.62	60495.83
570.78	60357.74
570.95	60491.15
571.11	60626.90
571.27	60598.81
571.43	60596.47
571.60	60568.38
571.76	60669.03
571.92	60542.64
572.09	60559.02
572.25	60521.57
572.41	60533.28
572.57	60514.55
572.74	60736.90
572.90	60563.70
573.06	60509.87
573.22	60589.45
573.38	60807.12
573.55	60638.60
573.71	60783.71
573.87	60718.18
574.03	60544.98
574.20	60797.76
574.36	60739.24
574.52	60645.62
574.68	60673.71
574.84	60919.46
575.01	60495.83
575.17	60715.84
575.33	60596.47
575.49	60708.82
575.65	60601.15
575.82	60903.08
575.98	60603.49
576.14	60884.36
576.30	60743.92
576.46	60502.85
576.62	60851.59
576.79	60725.20
576.95	60594.13
577.11	60907.76
577.27	60842.23
577.43	60788.39
577.59	60896.06
577.75	60701.79
577.92	60708.82
578.08	60727.54
578.24	60839.89
578.40	61006.06
578.56	60783.71
578.72	60828.18
578.88	60753.29
579.04	61097.34
579.21	60769.67
579.37	60938.19
579.53	60956.91
579.69	60547.32
579.85	60650.30
580.01	60886.70
580.17	60692.43
580.33	60919.46
580.49	60800.10
580.65	60776.69
580.82	60797.76
580.98	60863.29
581.14	60823.50
581.30	60999.04
581.46	60987.34
581.62	61006.06
581.78	60877.33
581.94	60781.37
582.10	60797.76
582.26	60963.93
582.42	60790.73
582.58	60996.70
582.74	60961.59
582.90	60828.18
583.06	60783.71
583.22	60739.24
583.38	60816.48
583.54	60945.21
583.70	60975.64
583.86	60858.61
584.02	60821.16
584.18	60919.46
584.34	60942.87
584.50	61127.77
584.66	60781.37
584.82	60900.74
584.98	60884.36
585.14	61097.34
585.30	60734.56
585.46	60903.08
585.62	60928.83
585.78	61226.07
585.94	60673.71
586.10	61034.15
586.26	61066.92
586.42	61097.34
586.58	60940.53
586.74	61013.08
586.90	60952.23
587.06	61055.21
587.22	61315.01
587.38	61050.53
587.54	61289.27
587.70	61195.65
587.86	61024.79
588.02	60853.93
588.18	61141.81
588.34	61027.13
588.49	61010.74
