SpectraSuite Data File
++++++++++++++++++++++++++++++++++++
Date: Fri Oct 25 11:23:51 EDT 2013
User: price-jones
Dark Spectrum Present: No
Reference Spectrum Present: No
Number of Sampled Component Spectra: 1
Spectrometers: USB2+H05261
Integration Time (usec): 100000 (USB2+H05261)
Spectra Averaged: 1 (USB2+H05261)
Boxcar Smoothing: 0 (USB2+H05261)
Correct for Electrical Dark: No (USB2+H05261)
Strobe/Lamp Enabled: No (USB2+H05261)
Correct for Detector Non-linearity: No (USB2+H05261)
Correct for Stray Light: No (USB2+H05261)
Number of Pixels in Processed Spectrum: 2048
>>>>>Begin Processed Spectral Data<<<<<
365.73	238.73
365.92	238.73
366.12	238.73
366.32	154.48
366.52	140.43
366.72	138.09
366.91	182.56
367.11	107.66
367.31	91.28
367.51	126.39
367.70	187.24
367.90	168.52
368.10	93.62
368.30	124.05
368.49	166.18
368.69	149.79
368.89	159.16
369.09	131.07
369.28	156.82
369.48	159.16
369.68	156.82
369.87	205.97
370.07	177.88
370.27	262.14
370.47	325.33
370.66	629.60
370.86	631.94
371.06	678.76
371.25	704.50
371.45	671.73
371.65	695.14
371.84	706.84
372.04	697.48
372.24	734.93
372.44	685.78
372.63	781.74
372.83	767.70
373.03	748.97
373.22	748.97
373.42	704.50
373.62	835.57
373.81	751.31
374.01	812.17
374.21	758.33
374.40	856.64
374.60	882.38
374.79	854.30
374.99	833.23
375.19	828.55
375.38	851.96
375.58	744.29
375.78	873.02
375.97	770.04
376.17	898.77
376.37	702.16
376.56	873.02
376.76	887.06
376.95	828.55
377.15	898.77
377.35	866.00
377.54	898.77
377.74	894.08
377.93	910.47
378.13	849.61
378.33	922.17
378.52	929.19
378.72	947.92
378.91	983.02
379.11	924.51
379.31	903.45
379.50	915.15
379.70	966.64
379.89	917.49
380.09	922.17
380.28	945.58
380.48	1034.52
380.68	938.55
380.87	1020.47
381.07	1039.20
381.26	1008.77
381.46	985.37
381.65	1046.22
381.85	971.32
382.04	1048.56
382.24	1093.03
382.43	1060.26
382.63	1060.26
382.83	1100.05
383.02	1093.03
383.22	1146.86
383.41	1064.94
383.61	1156.22
383.80	1121.12
384.00	1132.82
384.19	1158.57
384.39	1200.69
384.58	1071.97
384.78	1071.97
384.97	1160.91
385.17	1071.97
385.36	1181.97
385.56	1146.86
385.75	1144.52
385.95	1118.78
386.14	1235.80
386.34	1226.44
386.53	1100.05
386.72	1217.08
386.92	1184.31
387.11	1376.24
387.31	1224.10
387.50	1210.06
387.70	1259.21
387.89	1249.85
388.09	1310.70
388.28	1163.25
388.48	1221.76
388.67	1313.04
388.86	1299.00
389.06	1313.04
389.25	1355.17
389.45	1376.24
389.64	1444.11
389.84	1327.08
390.03	1406.66
390.22	1409.00
390.42	1268.57
390.61	1467.52
390.81	1371.55
391.00	1380.92
391.19	1451.13
391.39	1467.52
391.58	1369.21
391.78	1378.58
391.97	1423.05
392.16	1401.98
392.36	1507.30
392.55	1521.35
392.75	1535.39
392.94	1577.52
393.13	1621.99
393.33	1469.86
393.52	1626.67
393.71	1579.86
393.91	1535.39
394.10	1579.86
394.29	1657.10
394.49	1537.73
394.68	1610.29
394.88	1652.42
395.07	1610.29
395.26	1610.29
395.46	1621.99
395.65	1729.66
395.84	1713.27
396.04	1668.80
396.23	1734.34
396.42	1760.08
396.62	1774.13
396.81	1774.13
397.00	1806.89
397.19	1853.70
397.39	1849.02
397.58	1860.73
397.77	1891.15
397.97	1893.49
398.16	1830.30
398.35	2054.99
398.55	1909.88
398.74	1959.03
398.93	1849.02
399.12	1853.70
399.32	1919.24
399.51	1949.67
399.70	2029.24
399.90	1968.39
400.09	1970.73
400.28	2050.31
400.47	2076.06
400.67	2125.21
400.86	1998.82
401.05	2029.24
401.24	2141.59
401.44	2186.06
401.63	2162.66
401.82	2073.71
402.01	2094.78
402.21	2160.31
402.40	2284.36
402.59	2218.83
402.78	2097.12
402.97	2246.91
403.17	2263.30
403.36	2312.45
403.55	2282.02
403.74	2382.67
403.93	2331.17
404.13	2331.17
404.32	2258.62
404.51	2197.76
404.70	2427.14
404.89	2352.24
405.09	2523.10
405.28	2537.14
405.47	2443.52
405.66	2469.27
405.85	2394.37
406.05	2326.49
406.24	2607.36
406.43	2565.23
406.62	2511.39
406.81	2705.66
407.00	2647.15
407.20	2487.99
407.39	2630.76
407.58	2708.00
407.77	2696.30
407.96	2750.13
408.15	2736.09
408.34	2792.26
408.54	2778.22
408.73	2848.43
408.92	2881.20
409.11	2789.92
409.30	2960.78
409.49	2963.12
409.68	2906.95
409.87	2951.42
410.07	2930.35
410.26	2984.18
410.45	2918.65
410.64	3038.02
410.83	3056.74
411.02	3122.27
411.21	3295.47
411.40	3157.38
411.59	3288.45
411.78	3267.39
411.98	3239.30
412.17	3218.24
412.36	3330.58
412.55	3262.71
412.74	3393.78
412.93	3358.67
413.12	3316.54
413.31	3492.08
413.50	3449.95
413.69	3363.35
413.88	3655.92
414.07	3527.19
414.26	3541.23
414.45	3602.08
414.64	3693.37
414.83	3737.84
415.02	3772.94
415.22	3817.41
415.41	3915.72
415.60	3838.48
415.79	3859.54
415.98	3927.42
416.17	3899.33
416.36	4042.11
416.55	4002.32
416.74	4124.02
416.93	4107.64
417.12	4028.06
417.31	4161.47
417.50	4166.15
417.69	4449.36
417.88	4292.54
418.07	4339.35
418.26	4245.73
418.45	4191.90
418.64	4409.57
418.83	4454.04
419.02	4365.10
419.21	4545.32
419.39	4585.11
419.58	4442.34
419.77	4381.48
419.96	4503.19
420.15	4662.35
420.34	4329.99
420.53	4561.70
420.72	4791.08
420.91	4641.28
421.10	4748.95
421.29	4798.10
421.48	4760.65
421.67	4727.88
421.86	4571.07
422.05	4819.16
422.24	4826.18
422.43	4798.10
422.61	5055.56
422.80	5078.96
422.99	4688.09
423.18	5008.75
423.37	5001.72
423.56	4954.91
423.75	4798.10
423.94	4870.65
424.13	4540.64
424.32	4662.35
424.50	5060.24
424.69	5015.77
424.88	4978.32
425.07	5104.71
425.26	4954.91
425.45	5097.69
425.64	5041.51
425.83	4880.02
426.01	5055.56
426.20	5048.54
426.39	5071.94
426.58	5048.54
426.77	4985.34
426.96	5078.96
427.15	5144.50
427.33	5317.70
427.52	5135.14
427.71	5221.74
427.90	5228.76
428.09	5177.26
428.28	5437.06
428.46	5362.17
428.65	5121.09
428.84	5465.15
429.03	5596.22
429.22	5252.16
429.40	5535.37
429.59	5460.47
429.78	5289.61
429.97	5352.81
430.16	5500.26
430.34	5614.95
430.53	5790.49
430.72	5547.07
430.91	5713.25
431.10	5628.99
431.28	5713.25
431.47	5776.44
431.66	5797.51
431.85	5743.67
432.03	5928.58
432.22	5977.73
432.41	5907.51
432.60	5996.45
432.79	6066.67
432.97	5954.32
433.16	5846.66
433.35	6080.71
433.54	5963.68
433.72	6064.33
433.91	6003.47
434.10	6188.38
434.28	6066.67
434.47	6115.82
434.66	6282.00
434.85	6392.00
435.03	6326.47
435.22	6314.77
435.41	6382.64
435.59	6431.79
435.78	6452.86
435.97	6476.26
436.16	6328.81
436.34	6333.49
436.53	6497.33
436.72	6736.06
436.90	6502.01
437.09	6583.93
437.28	6602.65
437.46	6551.16
437.65	6707.98
437.84	6780.53
438.02	6705.63
438.21	6724.36
438.40	6736.06
438.58	6951.39
438.77	6920.96
438.96	6897.56
439.14	7075.44
439.33	7225.23
439.52	7248.64
439.70	7215.87
439.89	7255.66
440.08	7346.94
440.26	7412.48
440.45	7545.89
440.63	7625.47
440.82	7616.10
441.01	7393.75
441.19	7548.23
441.38	7559.93
441.57	7646.53
441.75	7632.49
441.94	7948.46
442.12	7901.65
442.31	8065.49
442.50	7974.21
442.68	7997.61
442.87	7934.42
443.05	8016.33
443.24	8182.51
443.43	8138.04
443.61	8210.60
443.80	8175.49
443.98	8056.12
444.17	7868.88
444.35	8269.11
444.54	8168.47
444.73	8231.66
444.91	8376.78
445.10	8269.11
445.28	8297.20
445.47	8304.22
445.65	8339.33
445.84	8531.25
446.02	8629.56
446.21	8351.03
446.39	8521.89
446.58	8610.83
446.77	8528.91
446.95	8208.26
447.14	8395.50
447.32	8421.25
447.51	8603.81
447.69	8587.43
447.88	8622.53
448.06	8549.98
448.25	8690.41
448.43	8528.91
448.62	8615.51
448.80	8571.04
448.99	8697.43
449.17	8615.51
449.36	8533.59
449.54	8868.29
449.73	8957.23
449.91	9011.06
450.10	8990.00
450.28	9170.22
450.46	9060.21
450.65	9071.92
450.83	9046.17
451.02	8884.67
451.20	9320.01
451.39	9193.62
451.57	9163.20
451.76	9083.62
451.94	9139.79
452.13	9343.42
452.31	9341.08
452.49	9006.38
452.68	9268.52
452.86	9535.34
453.05	9423.00
453.23	9362.14
453.42	9376.19
453.60	9275.54
453.78	9619.60
453.97	9507.26
454.15	9467.47
454.34	9357.46
454.52	9811.53
454.70	9664.07
454.89	9593.86
455.07	9778.76
455.26	9729.61
455.44	9909.83
455.62	9991.75
455.81	9863.02
455.99	10083.03
456.17	10054.94
456.36	10267.93
456.54	10008.13
456.73	10178.99
456.91	10740.72
457.09	10239.84
457.28	10492.62
457.46	10471.56
457.64	10595.61
457.83	10469.22
458.01	10539.43
458.19	10764.12
458.38	10829.66
458.56	10644.76
458.74	10883.49
458.93	10619.01
459.11	10782.85
459.29	10609.65
459.48	10745.40
459.66	10934.98
459.84	10827.32
460.03	11110.52
460.21	10902.22
460.39	11087.12
460.57	10881.15
460.76	11232.23
460.94	11274.36
461.12	11290.74
461.31	11180.74
461.49	11522.46
461.67	11206.48
461.85	11482.67
462.04	11400.75
462.22	11592.67
462.40	11555.22
462.59	11590.33
462.77	11379.68
462.95	11632.46
463.13	11587.99
463.32	11770.55
463.50	11672.25
463.68	11852.47
463.86	11723.74
464.05	11583.31
464.23	11772.89
464.41	11552.88
464.59	11655.87
464.78	12060.78
464.96	12175.47
465.14	11805.66
465.32	12154.40
465.50	12060.78
465.69	12196.53
465.87	11892.26
466.05	12161.42
466.23	12311.22
466.41	12208.23
466.60	12421.22
466.78	12212.92
466.96	12210.57
467.14	12451.65
467.32	12320.58
467.51	12631.87
467.69	12388.46
467.87	12676.34
468.05	12734.85
468.23	12606.13
468.41	12449.31
468.60	12643.57
468.78	12901.03
468.96	12585.06
469.14	12760.60
469.32	13015.72
469.50	12655.28
469.69	12919.76
469.87	13158.49
470.05	13092.96
470.23	13149.13
470.41	13298.92
470.59	13364.46
470.77	13231.05
470.95	13282.54
471.14	13642.98
471.32	13317.65
471.50	13582.13
471.68	13568.09
471.86	13820.86
472.04	13816.18
472.22	13895.76
472.40	13642.98
472.58	13689.79
472.77	13961.30
472.95	14190.67
473.13	14354.51
473.31	13855.97
473.49	14274.93
473.67	14221.10
473.85	14265.57
474.03	14857.72
474.21	14721.97
474.39	14750.06
474.57	14885.81
474.75	14860.06
474.93	15180.71
475.12	15014.54
475.30	15040.28
475.48	15115.18
475.66	15342.21
475.84	15002.83
476.02	15667.55
476.20	15342.21
476.38	15426.47
476.56	16009.26
476.74	15847.77
476.92	15859.47
477.10	16098.20
477.28	16339.28
477.46	16266.72
477.64	16332.26
477.82	16783.98
478.00	16819.09
478.18	16821.43
478.36	16830.79
478.54	17104.64
478.72	17062.51
478.90	17331.67
479.08	17657.00
479.26	17830.20
479.44	17486.14
479.62	17977.65
479.80	17991.70
479.98	18024.47
480.16	18455.12
480.34	18483.21
480.52	18471.51
480.70	18728.97
480.88	18576.83
481.06	18817.91
481.24	19047.28
481.41	19304.74
481.59	19470.92
481.77	19459.21
481.95	19714.33
482.13	19782.21
482.31	19414.74
482.49	20215.21
482.67	20362.66
482.85	20486.71
483.03	20601.40
483.21	20823.75
483.39	21041.42
483.57	20924.39
483.74	21275.47
483.92	21404.20
484.10	21422.92
484.28	21764.64
484.46	22064.23
484.64	22354.46
484.82	21986.99
485.00	22419.99
485.18	23026.19
485.35	22824.90
485.53	22925.55
485.71	22955.97
485.89	23503.66
486.07	23648.77
486.25	23646.43
486.43	23616.01
486.61	23850.06
486.78	24386.04
486.96	23960.06
487.14	24467.96
487.32	25149.06
487.50	25226.29
487.68	24877.55
487.85	25469.71
488.03	25579.71
488.21	26143.78
488.39	25837.17
488.57	26373.16
488.75	26073.57
488.92	26588.49
489.10	27033.19
489.28	26848.29
489.46	26888.07
489.64	26841.26
489.81	27660.45
489.99	27868.76
490.17	27934.29
490.35	28048.98
490.53	28456.23
490.70	28273.67
490.88	28322.82
491.06	28868.17
491.24	28882.21
491.41	29303.51
491.59	29378.40
491.77	29266.06
491.95	29394.79
492.13	29947.15
492.30	30136.74
492.48	30223.34
492.66	30204.61
492.84	30265.47
493.01	30600.16
493.19	30632.93
493.37	30808.47
493.54	31119.76
493.72	31749.37
493.90	31744.69
494.08	32147.26
494.25	31997.46
494.43	32336.84
494.61	32327.48
494.79	32699.62
494.96	32811.97
495.14	32758.14
495.32	33170.07
495.49	33406.47
495.67	33141.99
495.85	33523.49
496.02	33708.40
496.20	33928.41
496.38	33942.45
496.55	33968.19
496.73	35145.48
496.91	34689.08
497.09	34810.79
497.26	34684.40
497.44	34726.53
497.62	35482.52
497.79	35842.96
497.97	35709.55
498.14	36231.49
498.32	35985.74
498.50	36322.77
498.67	36697.26
498.85	36456.18
499.03	37085.79
499.20	36828.33
499.38	36921.95
499.56	37069.40
499.73	37198.13
499.91	37783.27
500.08	37787.95
500.26	37481.34
500.44	37944.76
500.61	38040.73
500.79	37787.95
500.97	38335.63
501.14	38810.76
501.32	38314.57
501.49	38370.74
501.67	39290.57
501.84	39049.50
502.02	38593.09
502.20	39079.92
502.37	39459.09
502.55	39161.84
502.72	39510.58
502.90	39620.59
503.07	39503.56
503.25	40201.04
503.43	40053.59
503.60	40109.76
503.78	40498.29
503.95	40343.81
504.13	40540.42
504.30	41010.87
504.48	40774.47
504.65	40570.85
504.83	40603.61
505.01	41228.54
505.18	41200.45
505.36	41890.91
505.53	41408.76
505.71	41773.88
505.88	42103.90
506.06	41839.42
506.23	41872.18
506.41	41638.13
506.58	42045.38
506.76	42082.83
506.93	42380.08
507.11	42244.33
507.28	43000.32
507.46	42469.02
507.63	42866.91
507.81	42822.44
507.98	42967.55
508.16	43545.67
508.33	43569.07
508.50	43508.22
508.68	44004.41
508.85	43917.81
509.03	43899.09
509.20	44245.49
509.38	44568.48
509.55	44746.36
509.73	44456.14
509.90	44626.99
510.08	44699.55
510.25	44694.87
510.42	44858.71
510.60	45336.18
510.77	45415.76
510.95	45394.69
511.12	45354.90
511.30	45497.67
511.47	45469.59
511.64	45741.09
511.82	46192.81
511.99	46019.61
512.17	46005.57
512.34	46256.01
512.51	46590.70
512.69	46717.09
512.86	46782.63
513.04	46506.44
513.21	46412.82
513.38	47037.75
513.56	46852.84
513.73	46696.03
513.90	46885.61
514.08	46930.08
514.25	47054.13
514.43	47608.84
514.60	47931.83
514.77	47316.27
514.95	47854.59
515.12	47470.75
515.29	47412.23
515.47	47660.33
515.64	48217.38
515.81	48215.04
515.99	48339.08
516.16	48339.08
516.33	48488.88
516.51	49057.63
516.68	48854.00
516.85	48856.34
517.03	48989.75
517.20	49258.91
517.37	48879.75
517.54	48870.39
517.72	48919.54
517.89	49256.57
518.06	49235.51
518.24	49411.05
518.41	49469.56
518.58	49296.36
518.75	49397.01
518.93	49584.25
519.10	49408.71
519.27	49834.69
519.45	49581.91
519.62	49851.07
519.79	49996.18
519.96	49904.90
520.14	49982.14
520.31	50373.01
520.48	50424.50
520.65	50164.70
520.83	50937.08
521.00	51042.40
521.17	50897.29
521.34	50607.06
521.52	50918.35
521.69	51105.60
521.86	50871.54
522.03	51145.39
522.20	51208.58
522.38	51564.34
522.55	51393.48
522.72	51393.48
522.89	51379.44
523.07	51870.95
523.24	51622.86
523.41	51646.26
523.58	51569.02
523.75	51714.14
523.92	51929.47
524.10	51744.56
524.27	52287.57
524.44	52053.51
524.61	52009.04
524.78	52130.75
524.96	52493.54
525.13	52495.88
525.30	52758.02
525.47	52659.71
525.64	52357.78
525.81	52680.78
525.98	52825.89
526.16	52561.41
526.33	52961.64
526.50	53085.69
526.67	52821.21
526.84	53043.56
527.01	52760.36
527.18	52655.03
527.36	53191.01
527.53	53127.82
527.70	53450.81
527.87	53418.05
528.04	53013.13
528.21	53354.85
528.38	53340.81
528.55	53638.06
528.72	53394.64
528.89	53469.54
529.07	53319.74
529.24	53448.47
529.41	53741.04
529.58	53841.68
529.75	53876.79
529.92	53703.59
530.09	53776.15
530.26	53787.85
530.43	54085.10
530.60	54057.01
530.77	53972.75
530.94	54185.74
531.11	53970.41
531.28	54080.42
531.46	54302.77
531.63	54532.14
531.80	54326.17
531.97	54323.83
532.14	54794.28
532.31	54492.35
532.48	54511.08
532.65	54932.37
532.82	54560.23
532.99	54754.49
533.16	54504.06
533.33	55103.23
533.50	55238.98
533.67	54965.14
533.84	54520.44
534.01	54862.16
534.18	54993.23
534.35	55332.60
534.52	55086.85
534.69	55419.20
534.86	55557.30
535.03	55283.45
535.20	55021.31
535.37	55323.24
535.54	55248.35
535.71	55332.60
535.88	55348.99
536.05	55484.74
536.22	55641.56
536.38	55749.22
536.55	55664.96
536.72	55299.84
536.89	55714.11
537.06	55597.09
537.23	55709.43
537.40	55650.92
537.57	55810.07
537.74	56011.36
537.91	55894.33
538.08	56076.90
538.25	55971.57
538.42	56142.43
538.59	56102.64
538.75	56037.11
538.92	55976.25
539.09	56397.55
539.26	56186.90
539.43	56308.61
539.60	56493.51
539.77	56060.51
539.94	56521.60
540.11	56282.86
540.28	56470.11
540.44	56465.42
540.61	56678.41
540.78	56296.91
540.95	56472.45
541.12	56460.74
541.29	56399.89
541.46	56720.54
541.62	56481.81
541.79	56748.63
541.96	56488.83
542.13	56931.19
542.30	56779.06
542.47	57050.56
542.63	56835.23
542.80	56982.68
542.97	57034.17
543.14	57148.86
543.31	57289.29
543.48	57205.03
543.64	57408.66
543.81	57366.53
543.98	57474.20
544.15	57298.65
544.32	57357.17
544.48	57677.82
544.65	57256.53
544.82	57502.28
544.99	57408.66
545.16	57455.47
545.32	57476.54
545.49	57717.61
545.66	57593.56
545.83	57647.39
546.00	57738.68
546.16	57628.67
546.33	57717.61
546.50	57427.38
546.67	57787.83
546.83	57570.16
547.00	57607.61
547.17	57815.91
547.34	57797.19
547.50	57836.98
547.67	58155.29
547.84	57998.48
548.00	58024.22
548.17	58452.54
548.34	58035.92
548.51	58152.95
548.67	58291.04
548.84	57874.43
549.01	58300.40
549.18	58169.33
549.34	58349.56
549.51	58199.76
549.68	58489.99
549.84	58396.37
550.01	58525.10
550.18	58333.17
550.34	58623.40
550.51	58335.51
550.68	58412.75
550.84	58260.62
551.01	58576.59
551.18	58478.28
551.34	58670.21
551.51	58431.47
551.68	58745.11
551.84	58791.92
552.01	58515.73
552.18	58628.08
552.34	58724.04
552.51	58808.30
552.68	58674.89
552.84	58564.88
553.01	59037.67
553.18	58777.87
553.34	59016.61
553.51	58782.55
553.67	58738.08
553.84	59014.27
554.01	59000.22
554.17	59021.29
554.34	58937.03
554.51	59253.00
554.67	59255.34
554.84	59231.94
555.00	59016.61
555.17	58946.39
555.33	59049.38
555.50	59079.80
555.67	59058.74
555.83	59025.97
556.00	59201.51
556.16	59522.16
556.33	59255.34
556.50	59222.58
556.66	59561.95
556.83	59189.81
556.99	59554.93
557.16	59526.84
557.32	59632.17
557.49	59657.91
557.65	59365.35
557.82	59421.52
557.98	59306.83
558.15	59451.95
558.32	59545.57
558.48	59391.09
558.65	59449.61
558.81	59540.89
558.98	59583.02
559.14	59760.90
559.31	59807.71
559.47	59828.77
559.64	59824.09
559.80	59765.58
559.97	59714.09
560.13	59557.27
560.30	59772.60
560.46	59683.66
560.63	59723.45
560.79	59950.48
560.96	59994.95
561.12	60046.44
561.29	59711.75
561.45	60018.36
561.61	59744.51
561.78	59770.26
561.94	59882.61
562.11	59831.11
562.27	59788.98
562.44	60210.28
562.60	59990.27
562.77	60065.17
562.93	60020.70
563.10	60060.49
563.26	59957.50
563.42	60282.84
563.59	59920.05
563.75	60088.57
563.92	60280.50
564.08	60018.36
564.24	60212.62
564.41	60186.88
564.57	60069.85
564.74	60217.30
564.90	60126.02
565.07	60299.22
565.23	60409.23
565.39	60287.52
565.56	60303.90
565.72	60250.07
565.88	60154.11
566.05	60226.66
566.21	60285.18
566.38	60451.36
566.54	60348.37
566.70	60369.44
566.87	60577.75
567.03	60151.77
567.19	60624.56
567.36	60477.10
567.52	60395.18
567.68	60549.66
567.85	60339.01
568.01	60631.58
568.17	60315.61
568.34	60320.29
568.50	60523.91
568.66	60521.57
568.83	60233.69
568.99	60362.42
569.15	60444.33
569.32	60451.36
569.48	60376.46
569.64	60598.81
569.81	60573.06
569.97	60495.83
570.13	60420.93
570.30	60465.40
570.46	60596.47
570.62	60535.62
570.78	60725.20
570.95	60652.64
571.11	60561.36
571.27	60411.57
571.43	60430.29
571.60	60772.01
571.76	60526.25
571.92	60725.20
572.09	60657.32
572.25	60535.62
572.41	60652.64
572.57	60694.77
572.74	60874.99
572.90	60786.05
573.06	60584.77
573.22	60711.16
573.38	60811.80
573.55	60650.30
573.71	60846.91
573.87	60652.64
574.03	60701.79
574.20	60800.10
574.36	60814.14
574.52	60940.53
574.68	60933.51
574.84	60835.20
575.01	60797.76
575.17	60931.17
575.33	60711.16
575.49	60879.67
575.65	60898.40
575.82	60893.72
575.98	60643.28
576.14	61087.98
576.30	60968.61
576.46	60790.73
576.62	60907.76
576.79	60802.44
576.95	60743.92
577.11	60851.59
577.27	60746.26
577.43	60884.36
577.59	60722.86
577.75	60764.99
577.92	60619.88
578.08	60860.95
578.24	61010.74
578.40	61167.56
578.56	60842.23
578.72	60886.70
578.88	60882.02
579.04	61167.56
579.21	60755.63
579.37	61050.53
579.53	61048.19
579.69	60767.33
579.85	60947.55
580.01	61001.38
580.17	60900.74
580.33	61160.54
580.49	60999.04
580.65	61059.90
580.82	61003.72
580.98	60910.10
581.14	60800.10
581.30	60921.80
581.46	60746.26
581.62	61167.56
581.78	60776.69
581.94	61216.71
582.10	61003.72
582.26	60992.02
582.42	60933.51
582.58	60921.80
582.74	60886.70
582.90	60942.87
583.06	60872.65
583.22	60769.67
583.38	60956.91
583.54	61090.32
583.70	61085.64
583.86	61099.68
584.02	60999.04
584.18	61059.90
584.34	61160.54
584.50	61003.72
584.66	60982.66
584.82	60842.23
584.98	61221.39
585.14	61167.56
585.30	60921.80
585.46	61146.50
585.62	61244.80
585.78	61307.99
585.94	60851.59
586.10	61057.56
586.26	60926.49
586.42	61256.50
586.58	61235.44
586.74	61151.18
586.90	61043.51
587.06	61069.26
587.22	61268.20
587.38	61197.99
587.54	61296.29
587.70	61268.20
587.86	61137.13
588.02	61078.62
588.18	61183.94
588.34	61151.18
588.49	61099.68
