SpectraSuite Data File
++++++++++++++++++++++++++++++++++++
Date: Fri Oct 25 11:33:44 EDT 2013
User: price-jones
Dark Spectrum Present: No
Reference Spectrum Present: No
Number of Sampled Component Spectra: 1
Spectrometers: USB2+H05261
Integration Time (usec): 100000 (USB2+H05261)
Spectra Averaged: 1 (USB2+H05261)
Boxcar Smoothing: 0 (USB2+H05261)
Correct for Electrical Dark: No (USB2+H05261)
Strobe/Lamp Enabled: No (USB2+H05261)
Correct for Detector Non-linearity: No (USB2+H05261)
Correct for Stray Light: No (USB2+H05261)
Number of Pixels in Processed Spectrum: 2048
>>>>>Begin Processed Spectral Data<<<<<
365.73	266.82
365.92	266.82
366.12	266.82
366.32	215.33
366.52	257.46
366.72	187.24
366.91	102.98
367.11	145.11
367.31	117.03
367.51	170.86
367.70	170.86
367.90	203.63
368.10	170.86
368.30	234.05
368.49	180.22
368.69	217.67
368.89	257.46
369.09	154.48
369.28	166.18
369.48	220.01
369.68	184.90
369.87	229.37
370.07	236.39
370.27	252.78
370.47	337.04
370.66	456.40
370.86	540.66
371.06	507.90
371.25	585.13
371.45	627.26
371.65	606.20
371.84	582.79
372.04	543.00
372.24	496.19
372.44	596.84
372.63	557.05
372.83	528.96
373.03	557.05
373.22	643.65
373.42	575.77
373.62	580.45
373.81	580.45
374.01	681.10
374.21	624.92
374.40	561.73
374.60	603.86
374.79	592.16
374.99	624.92
375.19	613.22
375.38	685.78
375.58	613.22
375.78	744.29
375.97	662.37
376.17	781.74
376.37	704.50
376.56	688.12
376.76	676.41
376.95	587.47
377.15	620.24
377.35	704.50
377.54	706.84
377.74	685.78
377.93	725.57
378.13	667.05
378.33	704.50
378.52	734.93
378.72	730.25
378.91	730.25
379.11	704.50
379.31	730.25
379.50	798.12
379.70	753.65
379.89	732.59
380.09	697.48
380.28	746.63
380.48	685.78
380.68	690.46
380.87	753.65
381.07	755.99
381.26	734.93
381.46	695.14
381.65	755.99
381.85	704.50
382.04	821.53
382.24	777.06
382.43	786.42
382.63	835.57
382.83	863.66
383.02	840.25
383.22	805.14
383.41	844.93
383.61	798.12
383.80	854.30
384.00	734.93
384.19	802.80
384.39	894.08
384.58	884.72
384.78	784.08
384.97	781.74
385.17	800.46
385.36	840.25
385.56	866.00
385.75	772.38
385.95	837.91
386.14	798.12
386.34	814.51
386.53	777.06
386.72	819.19
386.92	821.53
387.11	880.04
387.31	880.04
387.50	851.96
387.70	891.74
387.89	1001.75
388.09	856.64
388.28	910.47
388.48	877.70
388.67	894.08
388.86	854.30
389.06	938.55
389.25	889.40
389.45	929.19
389.64	924.51
389.84	976.00
390.03	992.39
390.22	992.39
390.42	901.11
390.61	924.51
390.81	884.72
391.00	980.68
391.19	1018.13
391.39	964.30
391.58	1043.88
391.78	1027.50
391.97	1011.11
392.16	978.34
392.36	1043.88
392.55	1018.13
392.75	1076.65
392.94	999.41
393.13	1139.84
393.33	952.60
393.52	1149.20
393.71	1015.79
393.91	1027.50
394.10	1090.69
394.29	1205.38
394.49	1095.37
394.68	992.39
394.88	1102.39
395.07	1172.61
395.26	1149.20
395.46	1069.62
395.65	1097.71
395.84	1170.27
396.04	1217.08
396.23	1198.35
396.42	1137.50
396.62	1191.33
396.81	1207.72
397.00	1249.85
397.19	1238.14
397.39	1242.82
397.58	1261.55
397.77	1198.35
397.97	1238.14
398.16	1273.25
398.35	1315.38
398.55	1280.27
398.74	1352.83
398.93	1299.00
399.12	1320.06
399.32	1261.55
399.51	1420.71
399.70	1343.47
399.90	1366.87
400.09	1366.87
400.28	1409.00
400.47	1359.85
400.67	1469.86
400.86	1399.64
401.05	1420.71
401.24	1387.94
401.44	1373.89
401.63	1469.86
401.82	1439.43
402.01	1437.09
402.21	1474.54
402.40	1509.65
402.59	1526.03
402.78	1551.78
402.97	1556.46
403.17	1460.49
403.36	1533.05
403.55	1593.90
403.74	1619.65
403.93	1626.67
404.13	1654.76
404.32	1657.10
404.51	1626.67
404.70	1533.05
404.89	1619.65
405.09	1650.08
405.28	1624.33
405.47	1633.69
405.66	1703.91
405.85	1654.76
406.05	1675.82
406.24	1736.68
406.43	1692.21
406.62	1874.77
406.81	1832.64
407.00	1764.76
407.20	1790.51
407.39	1783.49
407.58	1975.41
407.77	1867.75
407.96	1893.49
408.15	1867.75
408.34	1944.99
408.54	1888.81
408.73	1846.68
408.92	1952.01
409.11	2043.29
409.30	2054.99
409.49	1980.09
409.68	1928.60
409.87	2052.65
410.07	2031.58
410.26	2045.63
410.45	1956.69
410.64	2087.76
410.83	2111.16
411.02	2127.55
411.21	2162.66
411.40	2165.00
411.59	2188.40
411.78	2160.31
411.98	2186.06
412.17	2209.47
412.36	2284.36
412.55	2277.34
412.74	2370.96
412.93	2408.41
413.12	2221.17
413.31	2375.64
413.50	2422.45
413.69	2354.58
413.88	2534.80
414.07	2509.05
414.26	2441.18
414.45	2633.10
414.64	2506.71
414.83	2621.40
415.02	2525.44
415.22	2548.84
415.41	2700.98
415.60	2682.25
415.79	2752.47
415.98	2675.23
416.17	2663.53
416.36	2750.13
416.55	2778.22
416.74	2836.73
416.93	2773.53
417.12	2815.66
417.31	2813.32
417.50	2909.29
417.69	2970.14
417.88	2977.16
418.07	2911.63
418.26	3026.31
418.45	2916.31
418.64	3070.78
418.83	3026.31
419.02	3084.83
419.21	3101.21
419.39	3136.32
419.58	3084.83
419.77	3136.32
419.96	3211.22
420.15	3236.96
420.34	3190.15
420.53	3173.77
420.72	3077.80
420.91	3201.85
421.10	3290.79
421.29	3295.47
421.48	3290.79
421.67	3293.13
421.86	3363.35
422.05	3311.86
422.24	3393.78
422.43	3353.99
422.61	3428.88
422.80	3449.95
422.99	3428.88
423.18	3379.73
423.37	3337.60
423.56	3368.03
423.75	3391.44
423.94	3283.77
424.13	3138.66
424.32	3255.69
424.50	3353.99
424.69	3492.08
424.88	3471.01
425.07	3489.74
425.26	3407.82
425.45	3412.50
425.64	3375.05
425.83	3407.82
426.01	3564.64
426.20	3478.04
426.39	3431.23
426.58	3424.20
426.77	3529.53
426.96	3658.26
427.15	3517.83
427.33	3534.21
427.52	3754.22
427.71	3646.55
427.90	3506.12
428.09	3679.32
428.28	3578.68
428.46	3691.02
428.65	3698.05
428.84	3805.71
429.03	3887.63
429.22	3716.77
429.40	3831.46
429.59	3784.65
429.78	3632.51
429.97	3709.75
430.16	3810.39
430.34	3864.22
430.53	3983.59
430.72	4004.66
430.91	3840.82
431.10	3878.27
431.28	3946.14
431.47	4119.34
431.66	4039.76
431.85	4124.02
432.03	4049.13
432.22	4105.30
432.41	3978.91
432.60	4081.89
432.79	4114.66
432.97	4124.02
433.16	4039.76
433.35	4147.43
433.54	4044.45
433.72	4149.77
433.91	4072.53
434.10	4210.62
434.28	4152.11
434.47	4308.93
434.66	4332.33
434.85	4278.50
435.03	4348.72
435.22	4404.89
435.41	4400.21
435.59	4442.34
435.78	4531.28
435.97	4418.93
436.16	4512.55
436.34	4322.97
436.53	4449.36
436.72	4550.00
436.90	4358.08
437.09	4624.90
437.28	4407.23
437.46	4575.75
437.65	4479.79
437.84	4601.49
438.02	4554.68
438.21	4624.90
438.40	4524.26
438.58	4826.18
438.77	4922.15
438.96	4823.84
439.14	4870.65
439.33	4952.57
439.52	4875.34
439.70	4880.02
439.89	4968.96
440.08	4798.10
440.26	4922.15
440.45	5057.90
440.63	5111.73
440.82	5329.40
441.01	5228.76
441.19	5135.14
441.38	5343.44
441.57	5320.04
441.75	5263.86
441.94	5397.28
442.12	5423.02
442.31	5343.44
442.50	5469.83
442.68	5291.95
442.87	5420.68
443.05	5467.49
443.24	5643.03
443.43	5654.73
443.61	5631.33
443.80	5764.74
443.98	5554.09
444.17	5455.79
444.35	5551.75
444.54	5905.17
444.73	5596.22
444.91	5631.33
445.10	5666.44
445.28	5514.30
445.47	5680.48
445.65	5467.49
445.84	5650.05
446.02	5729.63
446.21	5647.71
446.39	5619.63
446.58	5846.66
446.77	5738.99
446.95	5689.84
447.14	5633.67
447.32	5734.31
447.51	5717.93
447.69	5820.91
447.88	5870.06
448.06	5987.09
448.25	5891.13
448.43	5736.65
448.62	5884.11
448.80	5750.70
448.99	5996.45
449.17	5921.56
449.36	5998.79
449.54	5935.60
449.73	6195.40
449.91	6029.22
450.10	6052.63
450.28	6097.10
450.46	6296.04
450.65	6113.48
450.83	6024.54
451.02	6092.41
451.20	6164.97
451.39	6230.51
451.57	6204.76
451.76	6059.65
451.94	6274.98
452.13	6375.62
452.31	6356.90
452.49	6214.12
452.68	6223.48
452.86	6239.87
453.05	6274.98
453.23	6382.64
453.42	6335.83
453.60	6420.09
453.78	6377.96
453.97	6537.12
454.15	6284.34
454.34	6399.02
454.52	6455.20
454.70	6623.72
454.89	6558.18
455.07	6647.12
455.26	6595.63
455.44	6869.47
455.62	6637.76
455.81	6698.61
455.99	6820.32
456.17	6597.97
456.36	6792.23
456.54	6677.55
456.73	6918.62
456.91	7126.93
457.09	6988.84
457.28	7140.97
457.46	7023.95
457.64	6998.20
457.83	7101.19
458.01	7042.67
458.19	7272.04
458.38	7045.01
458.56	7234.60
458.74	7126.93
458.93	7176.08
459.11	7267.36
459.29	7225.23
459.48	7332.90
459.66	7258.00
459.84	7389.07
460.03	7419.50
460.21	7503.76
460.39	7368.01
460.57	7405.46
460.76	7524.82
460.94	7403.11
461.12	7623.12
461.31	7562.27
461.49	7658.23
461.67	7648.87
461.85	7728.45
462.04	7644.19
462.22	8021.02
462.40	7763.56
462.59	7749.51
462.77	7836.11
462.95	7691.00
463.13	7838.45
463.32	7815.05
463.50	7761.22
463.68	7882.92
463.86	7964.84
464.05	7922.71
464.23	7845.48
464.41	8004.63
464.59	8035.06
464.78	8198.90
464.96	8201.24
465.14	7932.08
465.32	7901.65
465.50	8152.09
465.69	8234.00
465.87	8152.09
466.05	8138.04
466.23	8173.15
466.41	8065.49
466.60	8388.48
466.78	8189.53
466.96	8250.39
467.14	8273.79
467.32	8245.71
467.51	8374.44
467.69	8336.99
467.87	8355.71
468.05	8318.26
468.23	8306.56
468.41	8255.07
468.60	8498.49
468.78	8589.77
468.96	8510.19
469.14	8615.51
469.32	8753.60
469.50	8451.67
469.69	8564.02
469.87	8875.31
470.05	8896.38
470.23	8692.75
470.41	8814.46
470.59	9039.15
470.77	8730.20
470.95	8769.99
471.14	9132.77
471.32	8861.27
471.50	8975.95
471.68	9202.99
471.86	9090.64
472.04	9032.13
472.22	9427.68
472.40	9111.71
472.58	9287.25
472.77	9296.61
472.95	9446.40
473.13	9685.14
473.31	9348.10
473.49	9582.15
473.67	9542.36
473.85	9668.75
474.03	9937.91
474.21	9783.44
474.39	9954.30
474.57	9956.64
474.75	9912.17
474.93	10076.01
475.12	9940.26
475.30	10090.05
475.48	9980.04
475.66	10083.03
475.84	10125.16
476.02	10242.18
476.20	10324.10
476.38	10441.13
476.56	10656.46
476.74	10462.19
476.92	10331.12
477.10	10434.11
477.28	10562.84
477.46	10494.96
477.64	10810.93
477.82	11028.60
478.00	11393.73
478.18	11218.19
478.36	11267.34
478.54	11243.93
478.72	11590.33
478.90	11557.57
479.08	11672.25
479.26	11857.15
479.44	11798.64
479.62	11690.98
479.80	11915.67
479.98	12039.72
480.16	12266.75
480.34	12161.42
480.52	12383.77
480.70	12416.54
480.88	12159.08
481.06	12400.16
481.24	12627.19
481.41	12814.43
481.59	12725.49
481.77	12814.43
481.95	12978.27
482.13	13008.70
482.31	12919.76
482.49	13497.87
482.67	13294.24
482.85	13621.92
483.03	13680.43
483.21	13650.00
483.39	13729.58
483.57	13605.53
483.74	14216.41
483.92	14097.05
484.10	13832.57
484.28	14396.64
484.46	14544.09
484.64	14511.32
484.82	14604.94
485.00	14743.03
485.18	14794.53
485.35	15154.97
485.53	15215.82
485.71	15119.86
485.89	15477.96
486.07	15510.73
486.25	15606.69
486.43	15585.63
486.61	15606.69
486.78	15826.70
486.96	15838.41
487.14	16152.04
487.32	16308.85
487.50	16493.76
487.68	16477.37
487.85	16744.19
488.03	16673.98
488.21	16861.22
488.39	16994.63
488.57	17383.16
488.75	17092.93
488.92	17692.11
489.10	17862.97
489.28	17827.86
489.46	17689.77
489.64	17469.76
489.81	18272.56
489.99	18307.67
490.17	18422.36
490.35	18462.15
490.53	18462.15
490.70	19044.94
490.88	18663.43
491.06	18944.30
491.24	18831.95
491.41	19082.39
491.59	19501.34
491.77	19276.65
491.95	19501.34
492.13	19770.51
492.30	19686.25
492.48	19461.55
492.66	19854.76
492.84	19932.00
493.01	20453.94
493.19	20287.76
493.37	20568.63
493.54	20128.61
493.72	20669.27
493.90	20472.67
494.08	20790.98
494.25	21135.04
494.43	21120.99
494.61	21357.39
494.79	21451.01
494.96	21561.02
495.14	21944.86
495.32	21656.98
495.49	21893.37
495.67	21928.48
495.85	21965.93
496.02	22132.11
496.20	22436.38
496.38	22396.59
496.55	22759.37
496.73	23035.55
496.91	22782.77
497.09	22794.48
497.26	23065.98
497.44	22637.66
497.62	23119.81
497.79	23339.82
497.97	23562.17
498.14	23482.59
498.32	24049.00
498.50	23555.15
498.67	24041.98
498.85	23587.92
499.03	24304.12
499.20	23646.43
499.38	24467.96
499.56	24414.13
499.73	24421.15
499.91	24584.99
500.08	25097.56
500.26	24407.11
500.44	24844.79
500.61	24704.35
500.79	24786.27
500.97	24980.54
501.14	25406.52
501.32	25357.36
501.49	25397.15
501.67	25631.21
501.84	25764.62
502.02	25366.73
502.20	25565.67
502.37	25912.07
502.55	25792.70
502.72	25979.95
502.90	25752.91
503.07	25954.20
503.25	26291.24
503.43	26174.21
503.60	26295.92
503.78	26639.98
503.95	26452.73
504.13	26785.09
504.30	26565.08
504.48	26862.33
504.65	27204.05
504.83	27407.67
505.01	27529.38
505.18	27087.02
505.36	27342.14
505.53	27541.08
505.71	27564.49
505.88	27515.34
506.06	27496.61
506.23	27601.94
506.41	27751.73
506.58	27714.28
506.76	27929.61
506.93	28123.88
507.11	27821.95
507.28	28233.88
507.46	28545.17
507.63	28093.45
507.81	28521.77
507.98	28327.50
508.16	28701.99
508.33	28519.43
508.50	28683.27
508.68	28613.05
508.85	28982.85
509.03	28931.36
509.20	29193.50
509.38	29509.47
509.55	29371.38
509.73	29340.96
509.90	29612.46
510.08	29504.79
510.25	29493.09
510.42	29921.41
510.60	30008.01
510.77	30033.75
510.95	30279.51
511.12	30314.62
511.30	29907.37
511.47	30438.67
511.64	30426.96
511.82	30176.53
511.99	30352.07
512.17	30298.23
512.34	30492.50
512.51	31075.29
512.69	30822.51
512.86	30656.34
513.04	30916.14
513.21	31012.10
513.38	31496.59
513.56	31342.11
513.73	31482.55
513.90	31346.79
514.08	31503.61
514.25	31810.22
514.43	31370.20
514.60	32058.32
514.77	31711.92
514.95	31938.95
515.12	31660.43
515.29	31494.25
515.47	31938.95
515.64	32198.75
515.81	31477.86
515.99	32540.47
516.16	32760.48
516.33	32617.71
516.51	32666.86
516.68	32299.39
516.85	32273.65
517.03	32996.87
517.20	32776.86
517.37	32978.15
517.54	32638.77
517.72	32814.31
517.89	32914.95
518.06	33163.05
518.24	33436.89
518.41	32811.97
518.58	32938.36
518.75	33390.08
518.93	33493.07
519.10	33518.81
519.27	33303.48
519.45	33755.21
519.62	33804.36
519.79	33909.68
519.96	33970.54
520.14	33869.89
520.31	33722.44
520.48	34230.33
520.65	34387.15
520.83	34550.99
521.00	34869.30
521.17	34188.21
521.34	34728.87
521.52	34387.15
521.69	34440.98
521.86	34983.99
522.03	34796.74
522.20	34855.26
522.38	35208.68
522.55	35531.67
522.72	35070.59
522.89	34625.89
523.07	35707.21
523.24	34969.94
523.41	35480.18
523.58	35122.08
523.75	35842.96
523.92	35360.81
524.10	36093.40
524.27	35744.66
524.44	35999.78
524.61	36180.00
524.78	35683.81
524.96	36219.79
525.13	36170.64
525.30	36191.70
525.47	36060.63
525.64	36481.93
525.81	36797.90
525.98	36540.44
526.16	36753.43
526.33	36378.95
526.50	36868.12
526.67	36533.42
526.84	36580.23
527.01	36844.71
527.18	36680.88
527.36	37125.58
527.53	37041.32
527.70	37401.76
527.87	37193.45
528.04	36781.52
528.21	37055.36
528.38	37097.49
528.55	37523.47
528.72	37376.01
528.89	37436.87
529.07	37532.83
529.24	37177.07
529.41	37759.86
529.58	37591.34
529.75	37462.61
529.92	37734.12
530.09	37638.15
530.26	37811.35
530.43	37656.88
530.60	37991.58
530.77	37745.82
530.94	38075.84
531.11	38108.60
531.28	38057.11
531.46	37865.19
531.63	38335.63
531.80	38513.52
531.97	38483.09
532.14	38569.69
532.31	38162.43
532.48	38389.47
532.65	39086.95
532.82	38281.80
532.99	38557.99
533.16	38731.18
533.33	38857.57
533.50	39047.16
533.67	38944.17
533.84	38714.80
534.01	38436.28
534.18	38464.36
534.35	39386.54
534.52	39522.29
534.69	39613.57
534.86	39545.69
535.03	39337.38
535.20	39866.34
535.37	39676.76
535.54	39445.05
535.71	39805.49
535.88	39962.31
536.05	39503.56
536.22	39665.06
536.38	39913.16
536.55	39784.43
536.72	39658.04
536.89	40041.88
537.06	40243.17
537.23	40161.25
537.40	39899.11
537.57	39648.68
537.74	40247.85
537.91	40353.18
538.08	40048.91
538.25	40226.79
538.42	40701.92
538.59	40282.96
538.75	40107.42
538.92	40643.40
539.09	41024.91
539.26	40737.02
539.43	40353.18
539.60	40751.07
539.77	40823.62
539.94	40985.12
540.11	40821.28
540.28	41015.55
540.44	40999.16
540.61	40942.99
540.78	40835.33
540.95	40982.78
541.12	41083.42
541.29	40992.14
541.46	41057.68
541.62	41315.14
541.79	41418.12
541.96	40868.09
542.13	40769.79
542.30	41212.15
542.47	41563.23
542.63	41858.14
542.80	41570.25
542.97	41612.38
543.14	42087.51
543.31	41949.42
543.48	41832.39
543.64	42277.10
543.81	42021.98
543.98	41961.12
544.15	42071.13
544.32	42216.24
544.48	42328.59
544.65	42859.89
544.82	42284.12
544.99	42178.79
545.16	42096.88
545.32	42419.87
545.49	42773.29
545.66	42532.22
545.83	42454.98
546.00	43217.99
546.16	42674.99
546.33	43426.30
546.50	42328.59
546.67	43367.79
546.83	42239.65
547.00	42471.36
547.17	42740.52
547.34	43145.44
547.50	43262.46
547.67	43461.41
547.84	42813.08
548.00	43100.97
548.17	43562.05
548.34	43253.10
548.51	43225.01
548.67	43533.96
548.84	42918.40
549.01	43147.78
549.18	43278.85
549.34	43196.93
549.51	43538.65
549.68	43522.26
549.84	43510.56
550.01	43573.75
550.18	43763.34
550.34	43686.10
550.51	43658.01
550.68	44046.54
550.84	43531.62
551.01	44072.29
551.18	43601.84
551.34	43653.33
551.51	43856.96
551.68	43531.62
551.84	43917.81
552.01	43889.73
552.18	44037.18
552.34	43732.91
552.51	43903.77
552.68	44247.83
552.84	44037.18
553.01	44282.94
553.18	44378.90
553.34	44336.77
553.51	43955.26
553.67	44048.88
553.84	44240.81
554.01	44385.92
554.17	44123.78
554.34	44767.43
554.51	44687.85
554.67	44678.49
554.84	44821.26
555.00	44549.76
555.17	44634.02
555.33	44500.61
555.50	44790.83
555.67	44704.23
555.83	44809.56
556.00	44821.26
556.16	45429.80
556.33	45207.45
556.50	44879.77
556.66	44851.69
556.83	44978.07
556.99	45371.28
557.16	44994.46
557.32	45109.14
557.49	45621.72
557.65	45127.87
557.82	45399.37
557.98	45617.04
558.15	45476.61
558.32	45645.13
558.48	45305.75
558.65	45193.40
558.81	45315.11
558.98	45228.51
559.14	45031.91
559.31	45689.60
559.47	45715.34
559.64	45549.17
559.80	45425.12
559.97	45558.53
560.13	45160.64
560.30	45310.43
560.46	45649.81
560.63	45626.40
560.79	45738.75
560.96	46040.68
561.12	45869.82
561.29	46019.61
561.45	46085.15
561.61	45586.61
561.78	45649.81
561.94	45500.01
562.11	45792.58
562.27	45769.18
562.44	45450.86
562.60	45925.99
562.77	45890.88
562.93	45563.21
563.10	46480.70
563.26	46155.36
563.42	46560.28
563.59	45635.77
563.75	45638.11
563.92	45965.78
564.08	46045.36
564.24	45996.21
564.41	45881.52
564.57	46188.13
564.74	46335.59
564.90	46415.16
565.07	46356.65
565.23	46148.34
565.39	46174.09
565.56	46447.93
565.72	46497.08
565.88	46373.03
566.05	46609.43
566.21	46333.24
566.38	46183.45
566.54	46681.98
566.70	46461.97
566.87	46473.68
567.03	46553.26
567.19	46632.83
567.36	46281.75
567.52	46487.72
567.68	46794.33
567.85	46574.32
568.01	46878.59
568.17	46424.53
568.34	46518.15
568.50	46410.48
568.66	46564.96
568.83	46197.49
568.99	46766.24
569.15	46630.49
569.32	46244.30
569.48	46300.48
569.64	46684.33
569.81	46918.38
569.97	46630.49
570.13	47004.98
570.30	46244.30
570.46	46766.24
570.62	46927.74
570.78	46890.29
570.95	46497.08
571.11	46597.73
571.27	46752.20
571.43	46770.93
571.60	46909.02
571.76	46632.83
571.92	46820.08
572.09	46754.54
572.25	46787.31
572.41	46909.02
572.57	46941.78
572.74	47365.42
572.90	46656.24
573.06	47012.00
573.22	47227.33
573.38	47114.98
573.55	46932.42
573.71	47129.03
573.87	46951.15
574.03	47023.70
574.20	47136.05
574.36	47068.17
574.52	47419.25
574.68	46892.63
574.84	47159.45
575.01	47555.00
575.17	47374.78
575.33	47398.19
575.49	47175.84
575.65	47215.63
575.82	47122.01
575.98	46646.88
576.14	47241.37
576.30	47475.43
576.46	47365.42
576.62	47091.58
576.79	47236.69
576.95	47168.82
577.11	47187.54
577.27	47054.13
577.43	47419.25
577.59	47264.78
577.75	47004.98
577.92	46796.67
578.08	47384.15
578.24	47147.75
578.40	47562.03
578.56	47260.10
578.72	47082.22
578.88	47117.32
579.04	46979.23
579.21	46937.10
579.37	47573.73
579.53	47384.15
579.69	47112.64
579.85	47171.16
580.01	47262.44
580.17	46993.28
580.33	47538.62
580.49	47028.38
580.65	47285.84
580.82	46862.21
580.98	47379.46
581.14	47028.38
581.30	47566.71
581.46	47393.51
581.62	47571.39
581.78	47096.26
581.94	47594.79
582.10	46756.88
582.26	47543.30
582.42	47035.41
582.58	47381.80
582.74	47468.40
582.90	47168.82
583.06	47880.34
583.22	47180.52
583.38	47199.24
583.54	47503.51
583.70	47065.83
583.86	47274.14
584.02	47356.06
584.18	47849.91
584.34	47896.72
584.50	47533.94
584.66	47477.77
584.82	47398.19
584.98	47819.49
585.14	47737.57
585.30	47428.62
585.46	47271.80
585.62	47606.50
585.78	47264.78
585.94	47297.55
586.10	47426.28
586.26	47480.11
586.42	47604.16
586.58	47505.85
586.74	47330.31
586.90	47482.45
587.06	47152.43
587.22	47604.16
587.38	47311.59
587.54	47817.14
587.70	47906.08
587.86	47786.72
588.02	47456.70
588.18	47395.85
588.34	47627.56
588.49	47320.95
588.65	47718.84
588.81	47648.63
588.97	47915.45
589.13	47775.02
589.29	48011.41
589.45	48013.75
589.61	47817.14
589.77	47810.12
589.93	47477.77
590.08	47714.16
