SpectraSuite Data File
++++++++++++++++++++++++++++++++++++
Date: Fri Oct 25 11:23:52 EDT 2013
User: price-jones
Dark Spectrum Present: No
Reference Spectrum Present: No
Number of Sampled Component Spectra: 1
Spectrometers: USB2+H05261
Integration Time (usec): 100000 (USB2+H05261)
Spectra Averaged: 1 (USB2+H05261)
Boxcar Smoothing: 0 (USB2+H05261)
Correct for Electrical Dark: No (USB2+H05261)
Strobe/Lamp Enabled: No (USB2+H05261)
Correct for Detector Non-linearity: No (USB2+H05261)
Correct for Stray Light: No (USB2+H05261)
Number of Pixels in Processed Spectrum: 2048
>>>>>Begin Processed Spectral Data<<<<<
365.73	257.46
365.92	257.46
366.12	257.46
366.32	147.45
366.52	149.79
366.72	154.48
366.91	135.75
367.11	126.39
367.31	128.73
367.51	114.69
367.70	152.13
367.90	110.01
368.10	147.45
368.30	147.45
368.49	124.05
368.69	145.11
368.89	126.39
369.09	124.05
369.28	147.45
369.48	189.58
369.68	198.95
369.87	220.01
370.07	208.31
370.27	191.92
370.47	306.61
370.66	524.28
370.86	615.56
371.06	695.14
371.25	727.91
371.45	681.10
371.65	697.48
371.84	643.65
372.04	741.95
372.24	739.61
372.44	758.33
372.63	746.63
372.83	690.46
373.03	741.95
373.22	730.25
373.42	763.01
373.62	798.12
373.81	709.18
374.01	816.85
374.21	730.25
374.40	781.74
374.60	823.87
374.79	805.14
374.99	866.00
375.19	816.85
375.38	844.93
375.58	889.40
375.78	880.04
375.97	856.64
376.17	938.55
376.37	887.06
376.56	882.38
376.76	882.38
376.95	816.85
377.15	877.70
377.35	894.08
377.54	887.06
377.74	889.40
377.93	896.43
378.13	901.11
378.33	1015.79
378.52	887.06
378.72	976.00
378.91	936.21
379.11	898.77
379.31	929.19
379.50	1001.75
379.70	1102.39
379.89	1001.75
380.09	1034.52
380.28	1050.90
380.48	901.11
380.68	915.15
380.87	926.85
381.07	1046.22
381.26	1090.69
381.46	1020.47
381.65	1032.18
381.85	999.41
382.04	971.32
382.24	1025.15
382.43	1036.86
382.63	943.24
382.83	1111.75
383.02	1111.75
383.22	1057.92
383.41	1048.56
383.61	1025.15
383.80	1125.80
384.00	1048.56
384.19	1163.25
384.39	1083.67
384.58	1200.69
384.78	1090.69
384.97	1081.33
385.17	1174.95
385.36	1118.78
385.56	1149.20
385.75	1306.02
385.95	1156.22
386.14	1177.29
386.34	1177.29
386.53	1245.16
386.72	1095.37
386.92	1294.32
387.11	1226.44
387.31	1277.93
387.50	1198.35
387.70	1207.72
387.89	1275.59
388.09	1310.70
388.28	1252.19
388.48	1294.32
388.67	1364.53
388.86	1359.85
389.06	1357.51
389.25	1444.11
389.45	1352.83
389.64	1446.45
389.84	1387.94
390.03	1366.87
390.22	1439.43
390.42	1383.26
390.61	1359.85
390.81	1350.49
391.00	1462.83
391.19	1416.02
391.39	1404.32
391.58	1455.81
391.78	1474.54
391.97	1439.43
392.16	1493.26
392.36	1537.73
392.55	1427.73
392.75	1495.60
392.94	1633.69
393.13	1591.56
393.33	1584.54
393.52	1568.16
393.71	1530.71
393.91	1610.29
394.10	1596.25
394.29	1668.80
394.49	1523.69
394.68	1521.35
394.88	1633.69
395.07	1778.81
395.26	1687.53
395.46	1762.42
395.65	1739.02
395.84	1724.97
396.04	1827.96
396.23	1720.29
396.42	1820.94
396.62	1739.02
396.81	1813.92
397.00	1767.10
397.19	1846.68
397.39	1708.59
397.58	1755.40
397.77	1804.55
397.97	1879.45
398.16	1839.66
398.35	1820.94
398.55	1820.94
398.74	1842.00
398.93	1914.56
399.12	1884.13
399.32	1928.60
399.51	1891.15
399.70	1991.80
399.90	2003.50
400.09	1989.46
400.28	2015.20
400.47	1949.67
400.67	1942.64
400.86	2069.03
401.05	2092.44
401.24	2108.82
401.44	2225.85
401.63	2104.14
401.82	2228.19
402.01	2216.49
402.21	2221.17
402.40	2146.27
402.59	2218.83
402.78	2223.51
402.97	2279.68
403.17	2193.08
403.36	2312.45
403.55	2298.41
403.74	2270.32
403.93	2436.50
404.13	2375.64
404.32	2392.03
404.51	2377.98
404.70	2403.73
404.89	2366.28
405.09	2548.84
405.28	2368.62
405.47	2504.37
405.66	2630.76
405.85	2483.31
406.05	2588.63
406.24	2616.72
406.43	2443.52
406.62	2729.06
406.81	2539.48
407.00	2637.78
407.20	2541.82
407.39	2560.55
407.58	2637.78
407.77	2665.87
407.96	2752.47
408.15	2647.15
408.34	2684.59
408.54	2775.88
408.73	2764.17
408.92	2747.79
409.11	2775.88
409.30	2942.05
409.49	2888.22
409.68	3007.59
409.87	3126.96
410.07	2899.92
410.26	3056.74
410.45	3000.57
410.64	2993.55
410.83	3136.32
411.02	3171.43
411.21	3215.90
411.40	3176.11
411.59	3171.43
411.78	3267.39
411.98	3094.19
412.17	3295.47
412.36	3396.12
412.55	3370.37
412.74	3342.28
412.93	3283.77
413.12	3339.94
413.31	3576.34
413.50	3440.59
413.69	3405.48
413.88	3583.36
414.07	3595.06
414.26	3660.60
414.45	3602.08
414.64	3648.90
414.83	3845.50
415.02	3705.07
415.22	3840.82
415.41	3964.87
415.60	3943.80
415.79	3943.80
415.98	4044.45
416.17	3911.04
416.36	4046.79
416.55	3840.82
416.74	4149.77
416.93	4133.39
417.12	4205.94
417.31	4077.21
417.50	4142.75
417.69	4332.33
417.88	4337.01
418.07	4252.75
418.26	4334.67
418.45	4262.12
418.64	4477.44
418.83	4358.08
419.02	4404.89
419.21	4498.51
419.39	4491.49
419.58	4393.19
419.77	4332.33
419.96	4507.87
420.15	4540.64
420.34	4645.96
420.53	4713.84
420.72	4716.18
420.91	4669.37
421.10	4559.36
421.29	4882.36
421.48	4660.01
421.67	4744.27
421.86	4772.35
422.05	4772.35
422.24	4919.81
422.43	4898.74
422.61	4858.95
422.80	4758.31
422.99	4809.80
423.18	4968.96
423.37	4973.64
423.56	5076.62
423.75	4807.46
423.94	4865.97
424.13	4674.05
424.32	4748.95
424.50	5139.82
424.69	5100.03
424.88	5116.41
425.07	4887.04
425.26	4791.08
425.45	4952.57
425.64	5071.94
425.83	4957.25
426.01	5160.88
426.20	5102.37
426.39	5107.05
426.58	4983.00
426.77	5039.17
426.96	5191.31
427.15	5231.10
427.33	5137.48
427.52	5163.22
427.71	5327.06
427.90	5249.82
428.09	5254.50
428.28	5310.68
428.46	5570.48
428.65	5444.09
428.84	5317.70
429.03	5446.43
429.22	5301.31
429.40	5451.11
429.59	5614.95
429.78	5420.68
429.97	5291.95
430.16	5523.66
430.34	5528.35
430.53	5722.61
430.72	5612.60
430.91	5631.33
431.10	5540.05
431.28	5825.59
431.47	5816.23
431.66	5769.42
431.85	5626.65
432.03	5865.38
432.22	5921.56
432.41	6061.99
432.60	5963.68
432.79	5851.34
432.97	6019.86
433.16	6148.59
433.35	5900.49
433.54	6022.20
433.72	6005.81
433.91	6052.63
434.10	6108.80
434.28	6038.58
434.47	6258.59
434.66	6361.58
434.85	6399.02
435.03	6319.45
435.22	6197.74
435.41	6455.20
435.59	6370.94
435.78	6406.05
435.97	6413.07
436.16	6279.66
436.34	6366.26
436.53	6558.18
436.72	6551.16
436.90	6466.90
437.09	6595.63
437.28	6396.68
437.46	6588.61
437.65	6487.96
437.84	6848.41
438.02	6689.25
438.21	6719.68
438.40	6703.29
438.58	6885.86
438.77	7112.89
438.96	6986.50
439.14	7000.54
439.33	7265.02
439.52	7222.89
439.70	7246.30
439.89	7386.73
440.08	7382.05
440.26	7461.63
440.45	7222.89
440.63	7508.44
440.82	7611.42
441.01	7506.10
441.19	7559.93
441.38	7557.59
441.57	7903.99
441.75	7784.62
441.94	8037.40
442.12	7840.79
442.31	8135.70
442.50	8037.40
442.68	7983.57
442.87	8166.13
443.05	8077.19
443.24	8215.28
443.43	8133.36
443.61	8170.81
443.80	8432.95
443.98	8060.80
444.17	7810.37
444.35	8278.47
444.54	8255.07
444.73	8353.37
444.91	8264.43
445.10	8341.67
445.28	8362.73
445.47	8325.29
445.65	8322.94
445.84	8362.73
446.02	8575.72
446.21	8517.21
446.39	8468.06
446.58	8657.64
446.77	8484.44
446.95	8451.67
447.14	8503.17
447.32	8456.36
447.51	8519.55
447.69	8587.43
447.88	8423.59
448.06	8725.52
448.25	8444.65
448.43	8758.28
448.62	8622.53
448.80	8512.53
448.99	8613.17
449.17	8912.76
449.36	8849.57
449.54	8884.67
449.73	8954.89
449.91	9142.13
450.10	8926.80
450.28	9123.41
450.46	9273.20
450.65	9235.75
450.83	9135.11
451.02	8992.34
451.20	9357.46
451.39	9027.45
451.57	9088.30
451.76	9179.58
451.94	9109.36
452.13	9415.98
452.31	9287.25
452.49	9151.49
452.68	9423.00
452.86	9373.85
453.05	9352.78
453.23	9507.26
453.42	9444.06
453.60	9270.86
453.78	9535.34
453.97	9415.98
454.15	9411.29
454.34	9387.89
454.52	9696.84
454.70	9802.16
454.89	9790.46
455.07	9820.89
455.26	9598.54
455.44	9909.83
455.62	9949.62
455.81	9970.68
455.99	9982.38
456.17	10104.09
456.36	9998.77
456.54	10054.94
456.73	10335.81
456.91	10623.69
457.09	10499.64
457.28	10558.16
457.46	10324.10
457.64	10492.62
457.83	10342.83
458.01	10516.03
458.19	10808.59
458.38	10485.60
458.56	10642.42
458.74	10637.73
458.93	10478.58
459.11	10663.48
459.29	10731.36
459.48	10853.06
459.66	10764.12
459.84	10916.26
460.03	11068.39
460.21	10977.11
460.39	11054.35
460.57	10981.79
460.76	11124.57
460.94	11201.80
461.12	11227.55
461.31	11096.48
461.49	11234.57
461.67	11185.42
461.85	11300.11
462.04	11499.05
462.22	11454.58
462.40	11550.54
462.59	11775.24
462.77	11295.43
462.95	11765.87
463.13	11536.50
463.32	11679.27
463.50	11845.45
463.68	11967.16
463.86	12070.14
464.05	11562.25
464.23	11875.88
464.41	11934.39
464.59	11585.65
464.78	12107.59
464.96	11850.13
465.14	11681.61
465.32	12262.07
465.50	12107.59
465.69	12044.40
465.87	12329.94
466.05	12198.87
466.23	11955.46
466.41	12233.98
466.60	12599.10
466.78	12376.75
466.96	12444.63
467.14	12250.36
467.32	12308.88
467.51	12535.91
467.69	12091.21
467.87	12643.57
468.05	12636.55
468.23	12498.46
468.41	12423.56
468.60	12683.36
468.78	12922.10
468.96	12662.30
469.14	12849.54
469.32	13008.70
469.50	12800.39
469.69	12755.92
469.87	13137.43
470.05	13116.36
470.23	13022.74
470.41	13483.83
470.59	13301.26
470.77	12947.84
470.95	13308.29
471.14	13568.09
471.32	13179.56
471.50	13610.22
471.68	13540.00
471.86	13748.31
472.04	13771.71
472.22	13994.06
472.40	13830.23
472.58	14001.08
472.77	13881.72
472.95	14391.95
473.13	14604.94
473.31	14052.58
473.49	14508.98
473.67	14452.81
473.85	14586.22
474.03	14569.83
474.21	14506.64
474.39	14630.69
474.57	14492.60
474.75	14853.04
474.93	14860.06
475.12	14984.11
475.30	15061.35
475.48	15014.54
475.66	15365.62
475.84	15044.96
476.02	15590.31
476.20	15370.30
476.38	15747.12
476.56	16147.36
476.74	16051.39
476.92	15997.56
477.10	15859.47
477.28	16294.81
477.46	16280.77
477.64	16578.01
477.82	16592.06
478.00	16877.60
478.18	16861.22
478.36	16828.45
478.54	17029.74
478.72	17156.13
478.90	17811.48
479.08	17488.48
479.26	17628.92
479.44	17956.59
479.62	18019.78
479.80	18174.26
479.98	18221.07
480.16	18759.39
480.34	18684.50
480.52	18902.17
480.70	18562.79
480.88	18583.85
481.06	18658.75
481.24	19000.47
481.41	19063.66
481.59	19524.75
481.77	19660.50
481.95	19393.68
482.13	19990.52
482.31	19793.91
482.49	20217.55
482.67	20039.67
482.85	20336.91
483.03	20346.28
483.21	20608.42
483.39	20994.61
483.57	20657.57
483.74	21352.71
483.92	21357.39
484.10	21329.30
484.28	21762.30
484.46	22050.19
484.64	22501.91
484.82	22120.40
485.00	22654.05
485.18	22747.67
485.35	23173.64
485.53	23012.15
485.71	23157.26
485.89	23543.45
486.07	23253.22
486.25	23367.91
486.43	23667.50
486.61	23852.40
486.78	24236.25
486.96	24208.16
487.14	24760.53
487.32	24903.30
487.50	25181.82
487.68	25146.72
487.85	24919.68
488.03	25539.93
488.21	26068.89
488.39	25488.43
488.57	26436.35
488.75	26396.56
488.92	26649.34
489.10	26824.88
489.28	26639.98
489.46	27150.21
489.64	27325.75
489.81	27435.76
489.99	27697.90
490.17	27814.93
490.35	28634.11
490.53	28081.75
490.70	28599.01
490.88	28325.16
491.06	28779.23
491.24	28889.23
491.41	29120.95
491.59	29518.84
491.77	29558.63
491.95	29242.65
492.13	30008.01
492.30	29902.68
492.48	30345.05
492.66	30380.15
492.84	30871.67
493.01	30398.88
493.19	30871.67
493.37	30874.01
493.54	31166.57
493.72	31756.39
493.90	31618.30
494.08	31908.52
494.25	31833.63
494.43	32081.72
494.61	32261.94
494.79	32617.71
494.96	32818.99
495.14	32989.85
495.32	32982.83
495.49	33329.23
495.67	33413.49
495.85	33563.28
496.02	34099.26
496.20	33937.77
496.38	34094.58
496.55	34553.33
496.73	34862.28
496.91	34621.20
497.09	35049.52
497.26	35065.91
497.44	35115.06
497.62	34885.68
497.79	35791.47
497.97	35489.54
498.14	36308.73
498.32	36182.34
498.50	36238.51
498.67	36598.96
498.85	36580.23
499.03	36776.84
499.20	36769.82
499.38	37258.99
499.56	37060.04
499.73	36947.70
499.91	37294.10
500.08	37989.24
500.26	37282.39
500.44	37560.92
500.61	37682.62
500.79	37556.24
500.97	38337.98
501.14	38728.84
501.32	38415.21
501.49	38260.74
501.67	38710.12
501.84	39306.96
502.02	38873.96
502.20	38813.10
502.37	38852.89
502.55	39365.47
502.72	39494.20
502.90	39601.86
503.07	39615.91
503.25	39936.56
503.43	39838.26
503.60	40147.21
503.78	40453.82
503.95	40418.71
504.13	40673.83
504.30	40666.81
504.48	40271.26
504.65	41198.11
504.83	40989.80
505.01	41209.81
505.18	41179.39
505.36	41633.45
505.53	41151.30
505.71	41823.03
505.88	41731.75
506.06	41755.16
506.23	41933.04
506.41	42108.58
506.58	42274.76
506.76	42309.86
506.93	42611.79
507.11	42071.13
507.28	43047.13
507.46	43021.39
507.63	42923.08
507.81	43475.45
507.98	43072.88
508.16	43536.30
508.33	43412.26
508.50	43779.72
508.68	43484.81
508.85	43796.10
509.03	44018.46
509.20	44381.24
509.38	44676.15
509.55	44739.34
509.73	44685.51
509.90	44811.90
510.08	44896.16
510.25	44715.93
510.42	44835.30
510.60	45432.14
510.77	45427.46
510.95	45331.50
511.12	45134.89
511.30	45397.03
511.47	45441.50
511.64	45778.54
511.82	45684.92
511.99	45752.79
512.17	45972.80
512.34	46026.63
512.51	46433.89
512.69	46567.30
512.86	46553.26
513.04	46562.62
513.21	46672.62
513.38	47093.92
513.56	47000.30
513.73	46883.27
513.90	47295.21
514.08	46679.64
514.25	47466.06
514.43	47559.69
514.60	47608.84
514.77	47632.24
514.95	47594.79
515.12	47718.84
515.29	47765.65
515.47	48037.16
515.64	48266.53
515.81	47964.60
515.99	48002.05
516.16	48446.75
516.33	48531.01
516.51	48540.37
516.68	48608.25
516.85	48622.29
517.03	48931.24
517.20	48912.52
517.37	49151.25
517.54	48706.55
517.72	48994.43
517.89	49347.86
518.06	49567.87
518.24	49249.55
518.41	49174.66
518.58	49544.46
518.75	49336.15
518.93	49464.88
519.10	49387.64
519.27	50227.90
519.45	49752.77
519.62	49909.58
519.79	50211.51
519.96	50330.88
520.14	50099.17
520.31	50316.84
520.48	50050.02
520.65	50553.23
520.83	50738.13
521.00	50988.57
521.17	50590.68
521.34	50644.51
521.52	51065.81
521.69	50958.14
521.86	51072.83
522.03	51363.06
522.20	51360.72
522.38	51554.98
522.55	51337.31
522.72	51316.25
522.89	51224.96
523.07	51648.60
523.24	51566.68
523.41	52037.13
523.58	51674.35
523.75	51791.37
523.92	51943.51
524.10	52128.41
524.27	52212.67
524.44	52224.37
524.61	52217.35
524.78	52142.45
524.96	52383.53
525.13	52631.63
525.30	52505.24
525.47	52722.91
525.64	52495.88
525.81	52655.03
525.98	52711.20
526.16	52907.81
526.33	52781.42
526.50	53003.77
526.67	52800.15
526.84	53350.17
527.01	53186.33
527.18	52861.00
527.36	53347.83
527.53	52823.55
527.70	53350.17
527.87	53174.63
528.04	53205.06
528.21	53593.59
528.38	53624.01
528.55	53394.64
528.72	53628.69
528.89	53525.71
529.07	53329.11
529.24	53719.98
529.41	53846.36
529.58	53551.46
529.75	53846.36
529.92	53785.51
530.09	54096.80
530.26	54323.83
530.43	54080.42
530.60	54040.63
530.77	53947.01
530.94	54075.74
531.11	54323.83
531.28	54323.83
531.46	54335.54
531.63	54333.20
531.80	54330.86
531.97	54445.54
532.14	54447.88
532.31	54770.88
532.48	54660.87
532.65	54768.54
532.82	54529.80
532.99	54653.85
533.16	54801.30
533.33	54934.71
533.50	55271.75
533.67	54787.26
533.84	54820.03
534.01	54955.78
534.18	55044.72
534.35	55325.58
534.52	55171.11
534.69	55426.23
534.86	55358.35
535.03	55302.18
535.20	55407.50
535.37	55391.12
535.54	55517.51
535.71	55398.14
535.88	55510.49
536.05	55426.23
536.22	55629.85
536.38	55707.09
536.55	55414.52
536.72	55681.34
536.89	55178.13
537.06	55505.80
537.23	55955.19
537.40	55789.01
537.57	55814.76
537.74	55901.36
537.91	55936.46
538.08	55992.64
538.25	55767.94
538.42	56027.74
538.59	56278.18
538.75	56154.13
538.92	56020.72
539.09	56343.72
539.26	56236.05
539.43	56095.62
539.60	56353.08
539.77	56451.38
539.94	56786.08
540.11	56676.07
540.28	56605.86
540.44	56498.19
540.61	56570.75
540.78	56404.57
540.95	56371.80
541.12	56423.29
541.29	56725.22
541.46	56807.14
541.62	56435.00
541.79	56662.03
541.96	56339.04
542.13	56713.52
542.30	56743.95
542.47	56863.32
542.63	57111.41
542.80	57029.49
542.97	56860.97
543.14	57301.00
543.31	57361.85
543.48	57172.27
543.64	57347.81
543.81	57361.85
543.98	57408.66
544.15	57317.38
544.32	57502.28
544.48	57619.31
544.65	57305.68
544.82	57588.88
544.99	57385.25
545.16	57455.47
545.32	57446.11
545.49	57656.76
545.66	57733.99
545.83	57879.11
546.00	57879.11
546.16	57851.02
546.33	57565.48
546.50	57359.51
546.67	57726.97
546.83	57698.89
547.00	57748.04
547.17	57724.63
547.34	58024.22
547.50	58234.87
547.67	58164.65
547.84	58080.39
548.00	58363.60
548.17	58265.30
548.34	58209.12
548.51	58300.40
548.67	58246.57
548.84	58092.10
549.01	58321.47
549.18	58300.40
549.34	58410.41
549.51	58461.90
549.68	58321.47
549.84	58461.90
550.01	58621.06
550.18	58459.56
550.34	58497.01
550.51	58354.24
550.68	58574.25
550.84	58190.40
551.01	58599.99
551.18	58581.27
551.34	58700.64
551.51	58820.00
551.68	58770.85
551.84	58653.82
552.01	58506.37
552.18	58836.39
552.34	58773.19
552.51	58915.96
552.68	58651.48
552.84	58829.37
553.01	59157.04
553.18	58787.24
553.34	59082.14
553.51	58698.30
553.67	58890.22
553.84	59049.38
554.01	59121.93
554.17	59206.19
554.34	59028.31
554.51	59002.56
554.67	58986.18
554.84	59030.65
555.00	59009.59
555.17	59004.91
555.33	59274.07
555.50	59145.34
555.67	58990.86
555.83	59131.29
556.00	59437.90
556.16	59573.66
556.33	59306.83
556.50	59311.52
556.66	59458.97
556.83	59395.77
556.99	59688.34
557.16	59372.37
557.32	59604.08
557.49	59763.24
557.65	59348.96
557.82	59533.87
557.98	59433.22
558.15	59344.28
558.32	59714.09
558.48	59531.53
558.65	59419.18
558.81	59608.76
558.98	59559.61
559.14	59564.29
559.31	59770.26
559.47	59732.81
559.64	59742.17
559.80	59662.60
559.97	59807.71
560.13	59618.13
560.30	59819.41
560.46	59835.80
560.63	59810.05
560.79	59863.88
560.96	60020.70
561.12	60006.65
561.29	59861.54
561.45	59894.31
561.61	59849.84
561.78	59840.48
561.94	59910.69
562.11	59992.61
562.27	59957.50
562.44	60149.43
562.60	60086.23
562.77	60104.96
562.93	59891.97
563.10	60219.64
563.26	60111.98
563.42	60446.68
563.59	59889.63
563.75	60221.98
563.92	60006.65
564.08	59952.82
564.24	60371.78
564.41	60217.30
564.57	60196.24
564.74	60163.47
564.90	60231.35
565.07	60313.26
565.23	60226.66
565.39	60231.35
565.56	60439.65
565.72	60151.77
565.88	60285.18
566.05	60140.07
566.21	60315.61
566.38	60434.97
566.54	60341.35
566.70	60465.40
566.87	60449.02
567.03	60168.15
567.19	60603.49
567.36	60411.57
567.52	60449.02
567.68	60626.90
567.85	60427.95
568.01	60376.46
568.17	60449.02
568.34	60484.12
568.50	60362.42
568.66	60488.80
568.83	60357.74
568.99	60654.98
569.15	60638.60
569.32	60486.46
569.48	60554.34
569.64	60549.66
569.81	60383.48
569.97	60404.55
570.13	60561.36
570.30	60491.15
570.46	60474.76
570.62	60774.35
570.78	60542.64
570.95	60610.51
571.11	60701.79
571.27	60519.23
571.43	60673.71
571.60	60722.86
571.76	60664.35
571.92	60837.54
572.09	60566.04
572.25	60678.39
572.41	60671.37
572.57	60603.49
572.74	60891.38
572.90	60474.76
573.06	60591.79
573.22	60884.36
573.38	60711.16
573.55	60629.24
573.71	60931.17
573.87	60654.98
574.03	60570.72
574.20	60825.84
574.36	60662.00
574.52	60732.22
574.68	60725.20
574.84	60774.35
575.01	60725.20
575.17	60842.23
575.33	60975.64
575.49	60715.84
575.65	60945.21
575.82	60917.12
575.98	60849.25
576.14	60996.70
576.30	60821.16
576.46	61006.06
576.62	60760.31
576.79	60940.53
576.95	60587.11
577.11	60762.65
577.27	60942.87
577.43	60945.21
577.59	60858.61
577.75	60697.11
577.92	60783.71
578.08	60786.05
578.24	60912.44
578.40	61087.98
578.56	60858.61
578.72	60889.04
578.88	60931.17
579.04	60912.44
579.21	60917.12
579.37	61385.23
579.53	61134.79
579.69	60654.98
579.85	60844.57
580.01	60832.86
580.17	60774.35
580.33	61158.20
580.49	61045.85
580.65	60935.85
580.82	60839.89
580.98	60842.23
581.14	60825.84
581.30	61123.09
581.46	60844.57
581.62	60882.02
581.78	60945.21
581.94	61141.81
582.10	61165.22
582.26	61071.60
582.42	60870.31
582.58	61071.60
582.74	61027.13
582.90	61050.53
583.06	60977.98
583.22	60872.65
583.38	61116.07
583.54	60982.66
583.70	61158.20
583.86	61123.09
584.02	61013.08
584.18	60938.19
584.34	61003.72
584.50	61041.17
584.66	60973.30
584.82	60797.76
584.98	61286.93
585.14	61347.78
585.30	60896.06
585.46	61197.99
585.62	61158.20
585.78	61202.67
585.94	61064.58
586.10	61202.67
586.26	61254.16
586.42	61212.03
586.58	61097.34
586.74	60994.36
586.90	61202.67
587.06	61036.49
587.22	61066.92
587.38	61181.60
587.54	61347.78
587.70	61312.67
587.86	61228.41
588.02	61139.47
588.18	61319.70
588.34	61123.09
588.49	61167.56
