SpectraSuite Data File
++++++++++++++++++++++++++++++++++++
Date: Fri Oct 25 11:25:35 EDT 2013
User: price-jones
Dark Spectrum Present: No
Reference Spectrum Present: No
Number of Sampled Component Spectra: 1
Spectrometers: USB2+H05261
Integration Time (usec): 100000 (USB2+H05261)
Spectra Averaged: 1 (USB2+H05261)
Boxcar Smoothing: 0 (USB2+H05261)
Correct for Electrical Dark: No (USB2+H05261)
Strobe/Lamp Enabled: No (USB2+H05261)
Correct for Detector Non-linearity: No (USB2+H05261)
Correct for Stray Light: No (USB2+H05261)
Number of Pixels in Processed Spectrum: 2048
>>>>>Begin Processed Spectral Data<<<<<
365.73	250.44
365.92	250.44
366.12	250.44
366.32	163.84
366.52	159.16
366.72	84.26
366.91	212.99
367.11	138.09
367.31	53.83
367.51	105.32
367.70	98.30
367.90	98.30
368.10	147.45
368.30	138.09
368.49	145.11
368.69	145.11
368.89	191.92
369.09	102.98
369.28	198.95
369.48	140.43
369.68	191.92
369.87	166.18
370.07	259.80
370.27	241.08
370.47	334.70
370.66	610.88
370.86	638.97
371.06	793.44
371.25	718.54
371.45	723.23
371.65	582.79
371.84	627.26
372.04	671.73
372.24	702.16
372.44	695.14
372.63	802.80
372.83	791.10
373.03	758.33
373.22	767.70
373.42	833.23
373.62	772.38
373.81	744.29
374.01	847.27
374.21	781.74
374.40	837.91
374.60	791.10
374.79	725.57
374.99	814.51
375.19	870.68
375.38	844.93
375.58	868.34
375.78	856.64
375.97	821.53
376.17	896.43
376.37	784.08
376.56	858.98
376.76	849.61
376.95	835.57
377.15	901.11
377.35	896.43
377.54	905.79
377.74	887.06
377.93	926.85
378.13	992.39
378.33	924.51
378.52	863.66
378.72	873.02
378.91	978.34
379.11	1006.43
379.31	922.17
379.50	894.08
379.70	1029.84
379.89	924.51
380.09	924.51
380.28	959.62
380.48	1050.90
380.68	1001.75
380.87	959.62
381.07	987.71
381.26	1029.84
381.46	1025.15
381.65	1132.82
381.85	1013.45
382.04	1086.01
382.24	1114.10
382.43	992.39
382.63	1025.15
382.83	1135.16
383.02	1102.39
383.22	1081.33
383.41	1088.35
383.61	1193.67
383.80	1156.22
384.00	971.32
384.19	1137.50
384.39	1104.73
384.58	1078.99
384.78	1149.20
384.97	1111.75
385.17	1170.27
385.36	1203.04
385.56	1224.10
385.75	1184.31
385.95	1170.27
386.14	1200.69
386.34	1181.97
386.53	1224.10
386.72	1062.60
386.92	1301.34
387.11	1247.51
387.31	1235.80
387.50	1233.46
387.70	1240.48
387.89	1308.36
388.09	1249.85
388.28	1224.10
388.48	1268.57
388.67	1371.55
388.86	1373.89
389.06	1261.55
389.25	1343.47
389.45	1287.29
389.64	1315.38
389.84	1268.57
390.03	1343.47
390.22	1371.55
390.42	1406.66
390.61	1418.36
390.81	1434.75
391.00	1406.66
391.19	1446.45
391.39	1427.73
391.58	1341.13
391.78	1425.39
391.97	1472.20
392.16	1453.47
392.36	1561.14
392.55	1411.34
392.75	1500.28
392.94	1526.03
393.13	1519.01
393.33	1556.46
393.52	1537.73
393.71	1511.99
393.91	1528.37
394.10	1476.88
394.29	1535.39
394.49	1596.25
394.68	1568.16
394.88	1547.09
395.07	1636.03
395.26	1743.70
395.46	1687.53
395.65	1689.87
395.84	1818.60
396.04	1795.19
396.23	1877.11
396.42	1734.34
396.62	1797.53
396.81	1792.85
397.00	1687.53
397.19	1717.95
397.39	1797.53
397.58	1699.23
397.77	1732.00
397.97	1813.92
398.16	1769.44
398.35	1856.04
398.55	1940.30
398.74	1919.24
398.93	2071.37
399.12	1942.64
399.32	1825.62
399.51	1930.94
399.70	1987.11
399.90	1998.82
400.09	2019.88
400.28	2005.84
400.47	2005.84
400.67	1982.43
400.86	2015.20
401.05	1949.67
401.24	2101.80
401.44	2146.27
401.63	2062.01
401.82	2139.25
402.01	2080.74
402.21	2125.21
402.40	2239.89
402.59	2249.25
402.78	2277.34
402.97	2265.64
403.17	2275.00
403.36	2282.02
403.55	2363.94
403.74	2253.94
403.93	2305.43
404.13	2436.50
404.32	2345.22
404.51	2392.03
404.70	2387.35
404.89	2340.54
405.09	2593.31
405.28	2579.27
405.47	2506.71
405.66	2518.42
405.85	2459.90
406.05	2583.95
406.24	2586.29
406.43	2478.63
406.62	2628.42
406.81	2663.53
407.00	2565.23
407.20	2630.76
407.39	2670.55
407.58	2691.62
407.77	2663.53
407.96	2733.75
408.15	2745.45
408.34	2682.25
408.54	2764.17
408.73	2883.54
408.92	2799.28
409.11	2906.95
409.30	2878.86
409.49	2906.95
409.68	3070.78
409.87	2920.99
410.07	2995.89
410.26	2937.37
410.45	2881.20
410.64	2993.55
410.83	3141.00
411.02	3094.19
411.21	3178.45
411.40	3056.74
411.59	3126.96
411.78	3236.96
411.98	3119.93
412.17	3239.30
412.36	3229.94
412.55	3445.27
412.74	3421.86
412.93	3468.67
413.12	3375.05
413.31	3445.27
413.50	3557.61
413.69	3330.58
413.88	3552.93
414.07	3590.38
414.26	3527.19
414.45	3751.88
414.64	3632.51
414.83	3796.35
415.02	3627.83
415.22	3733.15
415.41	3854.86
415.60	3833.80
415.79	3936.78
415.98	3997.64
416.17	3894.65
416.36	3936.78
416.55	4023.38
416.74	4102.96
416.93	3992.95
417.12	4105.30
417.31	4018.70
417.50	4093.60
417.69	4259.78
417.88	4245.73
418.07	4222.33
418.26	4318.29
418.45	4500.85
418.64	4447.02
418.83	4372.12
419.02	4418.93
419.21	4489.15
419.39	4645.96
419.58	4447.02
419.77	4432.97
419.96	4447.02
420.15	4564.04
420.34	4470.42
420.53	4521.92
420.72	4596.81
420.91	4652.98
421.10	4704.48
421.29	4762.99
421.48	4702.14
421.67	4758.31
421.86	4854.27
422.05	4877.68
422.24	4805.12
422.43	4781.71
422.61	4940.87
422.80	4805.12
422.99	5008.75
423.18	4983.00
423.37	5179.61
423.56	4994.70
423.75	4975.98
423.94	4720.86
424.13	4657.67
424.32	4662.35
424.50	5004.07
424.69	5125.77
424.88	5137.48
425.07	5020.45
425.26	4973.64
425.45	5015.77
425.64	5109.39
425.83	4943.21
426.01	4968.96
426.20	5022.79
426.39	4980.66
426.58	5085.98
426.77	5153.86
426.96	5231.10
427.15	5128.11
427.33	5132.79
427.52	5125.77
427.71	5238.12
427.90	5195.99
428.09	5247.48
428.28	5167.90
428.46	5359.83
428.65	5266.21
428.84	5453.45
429.03	5533.03
429.22	5322.38
429.40	5397.28
429.59	5542.39
429.78	5179.61
429.97	5397.28
430.16	5486.22
430.34	5687.50
430.53	5535.37
430.72	5664.10
430.91	5738.99
431.10	5621.97
431.28	5799.85
431.47	5741.33
431.66	5769.42
431.85	5804.53
432.03	5827.93
432.22	5951.98
432.41	5860.70
432.60	5856.02
432.79	5893.47
432.97	5944.96
433.16	5963.68
433.35	6008.16
433.54	6038.58
433.72	6155.61
433.91	6059.65
434.10	6108.80
434.28	6143.91
434.47	6104.12
434.66	6420.09
434.85	6284.34
435.03	6253.91
435.22	6317.11
435.41	6464.56
435.59	6485.62
435.78	6490.31
435.97	6399.02
436.16	6314.77
436.34	6441.15
436.53	6544.14
436.72	6712.66
436.90	6331.15
437.09	6616.69
437.28	6630.74
437.46	6569.88
437.65	6499.67
437.84	6829.68
438.02	6668.19
438.21	6649.46
438.40	6665.85
438.58	6808.62
438.77	6881.18
438.96	6967.77
439.14	7194.81
439.33	7047.35
439.52	7176.08
439.70	7328.22
439.89	7185.44
440.08	7283.75
440.26	7117.57
440.45	7297.79
440.63	7403.11
440.82	7639.51
441.01	7419.50
441.19	7716.75
441.38	7662.91
441.57	7754.19
441.75	7740.15
441.94	7754.19
442.12	7880.58
442.31	7892.29
442.50	7999.95
442.68	7995.27
442.87	7925.05
443.05	8124.00
443.24	7974.21
443.43	8018.68
443.61	8032.72
443.80	8423.59
443.98	8011.65
444.17	7903.99
444.35	8152.09
444.54	8243.37
444.73	8208.26
444.91	8367.42
445.10	8231.66
445.28	8180.17
445.47	8344.01
445.65	8397.84
445.84	8458.70
446.02	8346.35
446.21	8348.69
446.39	8339.33
446.58	8603.81
446.77	8479.76
446.95	8142.72
447.14	8315.92
447.32	8393.16
447.51	8622.53
447.69	8475.08
447.88	8540.61
448.06	8524.23
448.25	8678.71
448.43	8629.56
448.62	8613.17
448.80	8507.85
448.99	8638.92
449.17	8767.65
449.36	8674.03
449.54	8746.58
449.73	8964.25
449.91	8879.99
450.10	8896.38
450.28	9001.70
450.46	8997.02
450.65	8964.25
450.83	9034.47
451.02	9109.36
451.20	9102.34
451.39	9114.05
451.57	8938.51
451.76	8851.91
451.94	9195.96
452.13	9376.19
452.31	9563.43
452.49	9067.24
452.68	9296.61
452.86	9434.70
453.05	9467.47
453.23	9523.64
453.42	9240.44
453.60	9638.33
453.78	9460.45
453.97	9275.54
454.15	9415.98
454.34	9195.96
454.52	9944.94
454.70	9650.03
454.89	9806.84
455.07	9870.04
455.26	9940.26
455.44	9933.23
455.62	9764.72
455.81	10012.81
455.99	9865.36
456.17	9848.97
456.36	10101.75
456.54	10073.67
456.73	10085.37
456.91	10441.13
457.09	10270.27
457.28	10277.29
457.46	10326.44
457.64	10518.37
457.83	10345.17
458.01	10384.96
458.19	10576.88
458.38	10560.50
458.56	10658.80
458.74	10679.86
458.93	10766.46
459.11	10714.97
459.29	10714.97
459.48	10759.44
459.66	10792.21
459.84	10775.83
460.03	11007.54
460.21	10960.73
460.39	10841.36
460.57	11159.67
460.76	11084.78
460.94	11124.57
461.12	11136.27
461.31	11267.34
461.49	11246.27
461.67	11152.65
461.85	11571.61
462.04	11328.19
462.22	11627.78
462.40	11639.48
462.59	11520.12
462.77	11318.83
462.95	11529.48
463.13	11616.08
463.32	11623.10
463.50	11592.67
463.68	11709.70
463.86	11702.68
464.05	11716.72
464.23	11779.92
464.41	11859.49
464.59	11709.70
464.78	12276.11
464.96	12102.91
465.14	11744.81
465.32	12252.70
465.50	12222.28
465.69	11873.54
465.87	12290.15
466.05	12016.31
466.23	12074.82
466.41	12248.02
466.60	12468.03
466.78	11997.59
466.96	12028.01
467.14	12266.75
467.32	12425.90
467.51	12465.69
467.69	11997.59
467.87	12395.48
468.05	12500.80
468.23	12482.08
468.41	12362.71
468.60	12475.06
468.78	12596.76
468.96	12367.39
469.14	13036.78
469.32	13011.04
469.50	12758.26
469.69	12704.43
469.87	13074.23
470.05	13214.66
470.23	13226.37
470.41	13128.06
470.59	13252.11
470.77	13228.71
470.95	13081.25
471.14	13565.74
471.32	13277.86
471.50	13399.57
471.68	13614.90
471.86	13429.99
472.04	13540.00
472.22	14003.43
472.40	13886.40
472.58	13474.46
472.77	14045.55
472.95	13982.36
473.13	14904.53
473.31	14256.20
473.49	14015.13
473.67	14157.90
473.85	14431.74
474.03	14595.58
474.21	14616.65
474.39	14651.75
474.57	14707.93
474.75	14658.78
474.93	15066.03
475.12	14939.64
475.30	15035.60
475.48	15248.59
475.66	15073.05
475.84	15248.59
476.02	15365.62
476.20	15346.89
476.38	15660.52
476.56	15873.51
476.74	15578.61
476.92	15854.79
477.10	15889.90
477.28	15997.56
477.46	16205.87
477.64	16262.04
477.82	16460.99
478.00	16753.55
478.18	16645.89
478.36	16908.03
478.54	17153.79
478.72	17081.23
478.90	17429.97
479.08	17713.17
479.26	17591.47
479.44	17729.56
479.62	17972.97
479.80	17614.87
479.98	18195.32
480.16	18394.27
480.34	18228.09
480.52	18747.69
480.70	18787.48
480.88	18202.35
481.06	18712.58
481.24	18628.32
481.41	19040.26
481.59	19468.58
481.77	19168.99
481.95	19482.62
482.13	19562.20
482.31	19929.66
482.49	19943.70
482.67	20123.93
482.85	20217.55
483.03	20659.91
483.21	20519.48
483.39	20882.26
483.57	20900.98
483.74	21280.15
483.92	21153.76
484.10	21078.86
484.28	21692.08
484.46	21722.51
484.64	22178.92
484.82	21996.35
485.00	22026.78
485.18	22408.29
485.35	22546.38
485.53	23070.66
485.71	23098.75
485.89	23489.62
486.07	23426.42
486.25	23187.69
486.43	23311.74
486.61	23585.58
486.78	24004.53
486.96	24259.65
487.14	24299.44
487.32	24636.48
487.50	24835.42
487.68	25170.12
487.85	25055.43
488.03	25469.71
488.21	25596.10
488.39	25713.13
488.57	25743.55
488.75	26244.43
488.92	26106.34
489.10	26906.80
489.28	26565.08
489.46	27009.78
489.64	27080.00
489.81	27683.86
489.99	27761.09
490.17	27484.91
490.35	27880.46
490.53	27995.15
490.70	28341.55
490.88	28362.61
491.06	28629.43
491.24	28706.67
491.41	29132.65
491.59	28957.11
491.77	29158.39
491.95	29399.47
492.13	29659.27
492.30	30017.37
492.48	29947.15
492.66	30199.93
492.84	30089.93
493.01	30525.27
493.19	30171.85
493.37	30836.56
493.54	30780.39
493.72	31246.15
493.90	31754.05
494.08	31559.78
494.25	32067.68
494.43	31910.86
494.61	32287.69
494.79	32233.86
494.96	32390.67
495.14	32765.16
495.32	32938.36
495.49	32884.53
495.67	33134.96
495.85	33120.92
496.02	33804.36
496.20	33741.16
496.38	33998.62
496.55	34536.94
496.73	34550.99
496.91	34813.13
497.09	34724.19
497.26	35040.16
497.44	34602.48
497.62	35049.52
497.79	35618.27
497.97	35480.18
498.14	36086.38
498.32	36180.00
498.50	36332.14
498.67	36346.18
498.85	36400.01
499.03	36781.52
499.20	36439.80
499.38	37034.30
499.56	36802.58
499.73	36723.01
499.91	37038.98
500.08	37514.11
500.26	37270.69
500.44	37450.91
500.61	37663.90
500.79	37193.45
500.97	37930.72
501.14	38047.75
501.32	38426.92
501.49	38579.05
501.67	38377.76
501.84	38841.19
502.02	38855.23
502.20	39042.48
502.37	38862.26
502.55	39335.04
502.72	39208.65
502.90	39555.05
503.07	39393.56
503.25	39812.51
503.43	39833.58
503.60	39725.91
503.78	39861.66
503.95	40231.47
504.13	40332.11
504.30	40727.66
504.48	40226.79
504.65	40690.21
504.83	40837.67
505.01	41134.92
505.18	41195.77
505.36	41191.09
505.53	41467.27
505.71	41371.31
505.88	41415.78
506.06	41404.08
506.23	42033.68
506.41	42064.11
506.58	41888.57
506.76	42085.17
506.93	42323.91
507.11	42078.15
507.28	42321.57
507.46	42422.21
507.63	42799.04
507.81	43110.33
507.98	42857.55
508.16	43328.00
508.33	43466.09
508.50	43407.58
508.68	43363.11
508.85	43831.21
509.03	43377.15
509.20	43992.71
509.38	44488.90
509.55	44175.27
509.73	44371.88
509.90	44343.79
510.08	44238.47
510.25	44643.38
510.42	44928.92
510.60	44802.53
510.77	44762.75
510.95	45397.03
511.12	45256.60
511.30	45280.00
511.47	45415.76
511.64	45081.06
511.82	45745.77
511.99	45132.55
512.17	45659.17
512.34	46038.34
512.51	46667.94
512.69	46405.80
512.86	46085.15
513.04	46300.48
513.21	46375.37
513.38	46747.52
513.56	46918.38
513.73	46241.96
513.90	47007.32
514.08	47009.66
514.25	47075.19
514.43	47466.06
514.60	47489.47
514.77	47583.09
514.95	47798.42
515.12	47430.96
515.29	47426.28
515.47	48165.88
515.64	48065.24
515.81	48112.05
515.99	48102.69
516.16	48350.79
516.33	48299.30
516.51	48755.70
516.68	48322.70
516.85	48449.09
517.03	48830.60
517.20	49031.88
517.37	48940.60
517.54	48477.18
517.72	48868.05
517.89	49102.10
518.06	48910.17
518.24	49010.82
518.41	49415.73
518.58	49425.09
518.75	49221.47
518.93	49439.14
519.10	49123.16
519.27	49642.76
519.45	49736.38
519.62	49834.69
519.79	49797.24
519.96	49839.37
520.14	50082.78
520.31	50003.20
520.48	50279.39
520.65	50260.66
520.83	50483.01
521.00	50642.17
521.17	50209.17
521.34	50464.29
521.52	50937.08
521.69	50429.18
521.86	50787.28
522.03	50955.80
522.20	51341.99
522.38	51580.73
522.55	51320.93
522.72	51515.19
522.89	50810.69
523.07	51800.74
523.24	51304.54
523.41	51622.86
523.58	51508.17
523.75	51990.32
523.92	51475.40
524.10	51896.70
524.27	51973.94
524.44	51945.85
524.61	52065.22
524.78	51936.49
524.96	51784.35
525.13	52011.38
525.30	52142.45
525.47	52650.35
525.64	52280.55
525.81	52699.50
525.98	52538.01
526.16	52626.95
526.33	52575.45
526.50	52971.00
526.67	52406.94
526.84	53036.54
527.01	52669.08
527.18	52828.23
527.36	52786.10
527.53	53036.54
527.70	53153.57
527.87	53361.87
528.04	53027.18
528.21	53223.78
528.38	53366.55
528.55	53621.67
528.72	53176.97
528.89	53359.53
529.07	53364.21
529.24	53186.33
529.41	53607.63
529.58	53991.48
529.75	53574.86
529.92	53343.15
530.09	53642.74
530.26	53808.92
530.43	53907.22
530.60	53619.33
530.77	53595.93
530.94	54110.85
531.11	53804.24
531.28	54267.66
531.46	54110.85
531.63	54026.59
531.80	54183.40
531.97	54136.59
532.14	54511.08
532.31	53989.14
532.48	54447.88
532.65	54377.67
532.82	54571.93
532.99	54621.08
533.16	54679.60
533.33	54515.76
533.50	54969.82
533.67	54667.89
533.84	54773.22
534.01	54923.01
534.18	55028.34
534.35	55133.66
534.52	55238.98
534.69	55302.18
534.86	55316.22
535.03	55065.78
535.20	55070.46
535.37	55033.02
535.54	55498.78
535.71	55250.69
535.88	55339.63
536.05	55475.38
536.22	55246.00
536.38	55384.10
536.55	55503.46
536.72	55484.74
536.89	55327.92
537.06	55554.96
537.23	55901.36
537.40	55365.37
537.57	55683.69
537.74	55599.43
537.91	55856.88
538.08	55803.05
538.25	55484.74
538.42	55686.03
538.59	55831.14
538.75	55868.59
538.92	56037.11
539.09	56095.62
539.26	56123.71
539.43	56172.86
539.60	56088.60
539.77	56205.62
539.94	56353.08
540.11	56168.18
540.28	56306.27
540.44	56222.01
540.61	56516.92
540.78	56217.33
540.95	56397.55
541.12	56488.83
541.29	56210.31
541.46	56425.64
541.62	56545.00
541.79	56655.01
541.96	56254.78
542.13	56640.96
542.30	56559.05
542.47	56800.12
542.63	56797.78
542.80	56662.03
542.97	56704.16
543.14	57006.09
543.31	57389.94
543.48	57022.47
543.64	57420.36
543.81	57291.63
543.98	57457.81
544.15	57268.23
544.32	57425.04
544.48	57663.78
544.65	57174.61
544.82	57399.30
544.99	57141.84
545.16	57375.89
545.32	57272.91
545.49	57851.02
545.66	57890.81
545.83	57668.46
546.00	57722.29
546.16	57729.31
546.33	57420.36
546.50	57616.97
546.67	57748.04
546.83	57331.42
547.00	57804.21
547.17	57546.75
547.34	57911.88
547.50	57921.24
547.67	58035.92
547.84	57876.77
548.00	58241.89
548.17	58157.63
548.34	57895.49
548.51	58267.64
548.67	58021.88
548.84	58056.99
549.01	58094.44
549.18	58155.29
549.34	58389.34
549.51	58185.72
549.68	58045.29
549.84	58370.62
550.01	58387.00
550.18	58071.03
550.34	58513.39
550.51	58323.81
550.68	58417.43
550.84	58223.17
551.01	58630.42
551.18	58504.03
551.34	58461.90
551.51	58539.14
551.68	58443.18
551.84	58445.52
552.01	58546.16
552.18	58560.20
552.34	58403.39
552.51	58677.23
552.68	58365.94
552.84	58607.01
553.01	58988.52
553.18	58789.58
553.34	58794.26
553.51	58660.85
553.67	58850.43
553.84	58904.26
554.01	58993.20
554.17	58794.26
554.34	59004.91
554.51	58915.96
554.67	58887.88
554.84	58850.43
555.00	58960.44
555.17	58986.18
555.33	58958.09
555.50	58930.01
555.67	58960.44
555.83	59007.25
556.00	58958.09
556.16	59269.39
556.33	59189.81
556.50	59035.33
556.66	59323.22
556.83	59178.10
556.99	59269.39
557.16	59487.06
557.32	59437.90
557.49	59536.21
557.65	59208.53
557.82	59451.95
557.98	59386.41
558.15	59391.09
558.32	59355.99
558.48	59290.45
558.65	59306.83
558.81	59601.74
558.98	59451.95
559.14	59419.18
559.31	59477.69
559.47	59566.63
559.64	59711.75
559.80	59653.23
559.97	59611.10
560.13	59447.27
560.30	59590.04
560.46	59503.44
560.63	59693.02
560.79	59435.56
560.96	59831.11
561.12	59870.90
561.29	59704.73
561.45	59875.58
561.61	59786.64
561.78	59800.69
561.94	59770.26
562.11	59763.24
562.27	59891.97
562.44	59779.62
562.60	60018.36
562.77	59882.61
562.93	59812.39
563.10	60175.17
563.26	59875.58
563.42	60086.23
563.59	60126.02
563.75	59950.48
563.92	59987.93
564.08	59901.33
564.24	59994.95
564.41	60102.62
564.57	60018.36
564.74	60130.70
564.90	60097.94
565.07	60023.04
565.23	60090.91
565.39	60013.68
565.56	60221.98
565.72	60144.75
565.88	60126.02
566.05	60009.00
566.21	59999.63
566.38	60147.09
566.54	60168.15
566.70	60287.52
566.87	60411.57
567.03	60039.42
567.19	60474.76
567.36	60140.07
567.52	60128.36
567.68	60320.29
567.85	60207.94
568.01	60589.45
568.17	60065.17
568.34	60210.28
568.50	60327.31
568.66	60151.77
568.83	60299.22
568.99	60231.35
569.15	60210.28
569.32	60257.09
569.48	60339.01
569.64	60453.70
569.81	60498.17
569.97	60226.66
570.13	60392.84
570.30	60205.60
570.46	60535.62
570.62	60432.63
570.78	60416.25
570.95	60303.90
571.11	60629.24
571.27	60603.49
571.43	60402.21
571.60	60516.89
571.76	60453.70
571.92	60460.72
572.09	60624.56
572.25	60521.57
572.41	60657.32
572.57	60481.78
572.74	60821.16
572.90	60484.12
573.06	60575.40
573.22	60521.57
573.38	60704.13
573.55	60402.21
573.71	60816.48
573.87	60619.88
574.03	60591.79
574.20	60645.62
574.36	60582.43
574.52	60530.93
574.68	60629.24
574.84	60767.33
575.01	60809.46
575.17	60374.12
575.33	60704.13
575.49	60587.11
575.65	60683.07
575.82	60516.89
575.98	60636.26
576.14	60753.29
576.30	60795.42
576.46	60795.42
576.62	60615.19
576.79	60685.41
576.95	60580.09
577.11	60727.54
577.27	60802.44
577.43	60767.33
577.59	60921.80
577.75	60610.51
577.92	60645.62
578.08	60619.88
578.24	60872.65
578.40	61048.19
578.56	60837.54
578.72	60884.36
578.88	60811.80
579.04	60954.57
579.21	60786.05
579.37	60816.48
579.53	60989.68
579.69	60722.86
579.85	60734.56
580.01	60860.95
580.17	60772.01
580.33	60626.90
580.49	60900.74
580.65	60755.63
580.82	60690.09
580.98	60828.18
581.14	60755.63
581.30	61092.66
581.46	60849.25
581.62	60933.51
581.78	60666.69
581.94	60650.30
582.10	60795.42
582.26	60767.33
582.42	60687.75
582.58	60793.07
582.74	60617.53
582.90	60882.02
583.06	60952.23
583.22	60669.03
583.38	60985.00
583.54	60851.59
583.70	60949.89
583.86	61041.17
584.02	60863.29
584.18	61111.39
584.34	60954.57
584.50	61010.74
584.66	60900.74
584.82	60701.79
584.98	61214.37
585.14	60987.34
585.30	60863.29
585.46	60963.93
585.62	61055.21
585.78	60935.85
585.94	60832.86
586.10	60975.64
586.26	61038.83
586.42	61029.47
586.58	61144.16
586.74	61020.11
586.90	60839.89
587.06	60968.61
587.22	61041.17
587.38	61008.40
587.54	61111.39
587.70	61205.01
587.86	61155.86
588.02	61085.64
588.18	61151.18
588.34	60914.78
588.49	61052.87
