SpectraSuite Data File
++++++++++++++++++++++++++++++++++++
Date: Fri Oct 25 11:26:32 EDT 2013
User: price-jones
Dark Spectrum Present: No
Reference Spectrum Present: No
Number of Sampled Component Spectra: 1
Spectrometers: USB2+H05261
Integration Time (usec): 100000 (USB2+H05261)
Spectra Averaged: 1 (USB2+H05261)
Boxcar Smoothing: 0 (USB2+H05261)
Correct for Electrical Dark: No (USB2+H05261)
Strobe/Lamp Enabled: No (USB2+H05261)
Correct for Detector Non-linearity: No (USB2+H05261)
Correct for Stray Light: No (USB2+H05261)
Number of Pixels in Processed Spectrum: 2048
>>>>>Begin Processed Spectral Data<<<<<
365.73	208.31
365.92	208.31
366.12	208.31
366.32	149.79
366.52	163.84
366.72	159.16
366.91	105.32
367.11	140.43
367.31	161.50
367.51	138.09
367.70	189.58
367.90	212.99
368.10	51.49
368.30	142.77
368.49	128.73
368.69	191.92
368.89	149.79
369.09	168.52
369.28	147.45
369.48	173.20
369.68	194.26
369.87	217.67
370.07	212.99
370.27	212.99
370.47	315.97
370.66	547.69
370.86	627.26
371.06	603.86
371.25	671.73
371.45	723.23
371.65	699.82
371.84	699.82
372.04	690.46
372.24	716.20
372.44	667.05
372.63	751.31
372.83	676.41
373.03	695.14
373.22	755.99
373.42	744.29
373.62	791.10
373.81	828.55
374.01	821.53
374.21	795.78
374.40	786.42
374.60	875.36
374.79	748.97
374.99	774.72
375.19	849.61
375.38	861.32
375.58	849.61
375.78	917.49
375.97	938.55
376.17	844.93
376.37	828.55
376.56	863.66
376.76	882.38
376.95	940.90
377.15	882.38
377.35	952.60
377.54	931.53
377.74	896.43
377.93	915.15
378.13	947.92
378.33	926.85
378.52	980.68
378.72	924.51
378.91	1001.75
379.11	903.45
379.31	980.68
379.50	1050.90
379.70	997.07
379.89	978.34
380.09	1001.75
380.28	943.24
380.48	961.96
380.68	990.05
380.87	1027.50
381.07	1015.79
381.26	1074.31
381.46	968.98
381.65	990.05
381.85	1053.24
382.04	1011.11
382.24	1071.97
382.43	1057.92
382.63	1036.86
382.83	1064.94
383.02	1130.48
383.22	1029.84
383.41	987.71
383.61	1078.99
383.80	1109.41
384.00	1118.78
384.19	1146.86
384.39	1057.92
384.58	1060.26
384.78	1219.42
384.97	1146.86
385.17	1111.75
385.36	1064.94
385.56	1196.01
385.75	1104.73
385.95	1233.46
386.14	1200.69
386.34	1315.38
386.53	1238.14
386.72	1093.03
386.92	1174.95
387.11	1198.35
387.31	1289.64
387.50	1282.61
387.70	1263.89
387.89	1226.44
388.09	1263.89
388.28	1238.14
388.48	1217.08
388.67	1334.11
388.86	1411.34
389.06	1240.48
389.25	1338.79
389.45	1317.72
389.64	1261.55
389.84	1320.06
390.03	1392.62
390.22	1462.83
390.42	1306.02
390.61	1362.19
390.81	1427.73
391.00	1399.64
391.19	1476.88
391.39	1437.09
391.58	1493.26
391.78	1448.79
391.97	1605.61
392.16	1483.90
392.36	1511.99
392.55	1570.50
392.75	1530.71
392.94	1523.69
393.13	1598.59
393.33	1504.96
393.52	1523.69
393.71	1629.01
393.91	1652.42
394.10	1570.50
394.29	1685.19
394.49	1605.61
394.68	1650.08
394.88	1732.00
395.07	1696.89
395.26	1668.80
395.46	1788.17
395.65	1694.55
395.84	1788.17
396.04	1879.45
396.23	1797.53
396.42	1692.21
396.62	1842.00
396.81	1844.34
397.00	1790.51
397.19	1825.62
397.39	1832.64
397.58	1856.04
397.77	1767.10
397.97	1891.15
398.16	1816.26
398.35	1788.17
398.55	1877.11
398.74	1856.04
398.93	1989.46
399.12	2010.52
399.32	1916.90
399.51	1996.48
399.70	1926.26
399.90	1987.11
400.09	2031.58
400.28	1994.14
400.47	2087.76
400.67	2129.89
400.86	2066.69
401.05	2005.84
401.24	2253.94
401.44	2080.74
401.63	2167.34
401.82	2150.95
402.01	2071.37
402.21	2122.87
402.40	2216.49
402.59	2202.44
402.78	2246.91
402.97	2197.76
403.17	2230.53
403.36	2242.23
403.55	2314.79
403.74	2282.02
403.93	2424.80
404.13	2258.62
404.32	2356.92
404.51	2373.30
404.70	2441.18
404.89	2413.09
405.09	2480.97
405.28	2551.18
405.47	2497.35
405.66	2560.55
405.85	2537.14
406.05	2452.88
406.24	2565.23
406.43	2459.90
406.62	2658.85
406.81	2658.85
407.00	2595.65
407.20	2565.23
407.39	2616.72
407.58	2764.17
407.77	2761.83
407.96	2799.28
408.15	2750.13
408.34	2672.89
408.54	2839.07
408.73	2930.35
408.92	2731.41
409.11	2869.50
409.30	2853.11
409.49	2881.20
409.68	3042.70
409.87	2855.45
410.07	2871.84
410.26	2909.29
410.45	3059.08
410.64	3038.02
410.83	3073.12
411.02	3054.40
411.21	3084.83
411.40	3136.32
411.59	3405.48
411.78	3269.73
411.98	3234.62
412.17	3220.58
412.36	3293.13
412.55	3447.61
412.74	3475.70
412.93	3426.54
413.12	3293.13
413.31	3449.95
413.50	3396.12
413.69	3482.72
413.88	3644.21
414.07	3716.77
414.26	3728.47
414.45	3751.88
414.64	3653.58
414.83	3803.37
415.02	3768.26
415.22	3878.27
415.41	3901.67
415.60	3934.44
415.79	3880.61
415.98	3861.88
416.17	3911.04
416.36	3894.65
416.55	4063.17
416.74	3988.27
416.93	4067.85
417.12	4042.11
417.31	4142.75
417.50	4152.11
417.69	4329.99
417.88	4346.37
418.07	4322.97
418.26	4442.34
418.45	4390.84
418.64	4538.30
418.83	4512.55
419.02	4423.61
419.21	4580.43
419.39	4566.39
419.58	4435.32
419.77	4535.96
419.96	4559.36
420.15	4636.60
420.34	4732.56
420.53	4692.77
420.72	4887.04
420.91	4767.67
421.10	4889.38
421.29	4753.63
421.48	4865.97
421.67	4781.71
421.86	4784.06
422.05	4891.72
422.24	4847.25
422.43	4938.53
422.61	4894.06
422.80	5027.47
422.99	4966.62
423.18	4922.15
423.37	5188.97
423.56	5043.85
423.75	4952.57
423.94	4819.16
424.13	4617.88
424.32	4739.58
424.50	4840.23
424.69	4870.65
424.88	5069.60
425.07	4971.30
425.26	4915.12
425.45	5069.60
425.64	5123.43
425.83	5006.41
426.01	5109.39
426.20	4999.38
426.39	5006.41
426.58	5139.82
426.77	5020.45
426.96	5064.92
427.15	5043.85
427.33	5153.86
427.52	5245.14
427.71	5174.92
427.90	5174.92
428.09	5341.10
428.28	5376.21
428.46	5476.85
428.65	5373.87
428.84	5720.27
429.03	5708.57
429.22	5327.06
429.40	5401.96
429.59	5731.97
429.78	5341.10
429.97	5387.91
430.16	5526.00
430.34	5551.75
430.53	5734.31
430.72	5767.08
430.91	5860.70
431.10	5643.03
431.28	5809.21
431.47	5870.06
431.66	5923.90
431.85	5849.00
432.03	5959.00
432.22	6054.97
432.41	5973.05
432.60	5947.30
432.79	6012.84
432.97	6022.20
433.16	6162.63
433.35	5980.07
433.54	6230.51
433.72	5968.37
433.91	5926.24
434.10	6022.20
434.28	6085.39
434.47	6209.44
434.66	6197.74
434.85	6394.34
435.03	6279.66
435.22	6242.21
435.41	6490.31
435.59	6256.25
435.78	6436.47
435.97	6443.49
436.16	6525.41
436.34	6527.75
436.53	6492.65
436.72	6602.65
436.90	6558.18
437.09	6684.57
437.28	6647.12
437.46	6649.46
437.65	6864.79
437.84	6768.83
438.02	6747.76
438.21	6895.22
438.40	6682.23
438.58	7131.61
438.77	7009.90
438.96	6991.18
439.14	7133.95
439.33	7000.54
439.52	7180.76
439.70	7236.94
439.89	7267.36
440.08	7349.28
440.26	7337.58
440.45	7382.05
440.63	7426.52
440.82	7564.61
441.01	7637.17
441.19	7810.37
441.38	7782.28
441.57	7777.60
441.75	7885.26
441.94	7990.59
442.12	7955.48
442.31	7964.84
442.50	8182.51
442.68	8046.76
442.87	8032.72
443.05	8077.19
443.24	8446.99
443.43	8208.26
443.61	8397.84
443.80	8367.42
443.98	8152.09
444.17	7997.61
444.35	8128.68
444.54	8423.59
444.73	8280.82
444.91	8379.12
445.10	8400.18
445.28	8540.61
445.47	8381.46
445.65	8351.03
445.84	8472.74
446.02	8348.69
446.21	8470.40
446.39	8465.72
446.58	8454.02
446.77	8592.11
446.95	8341.67
447.14	8344.01
447.32	8685.73
447.51	8482.10
447.69	8475.08
447.88	8383.80
448.06	8594.45
448.25	8418.91
448.43	8601.47
448.62	8587.43
448.80	8615.51
448.99	8634.24
449.17	8812.12
449.36	8737.22
449.54	8985.32
449.73	8959.57
449.91	9039.15
450.10	9163.20
450.28	9142.13
450.46	9092.98
450.65	9032.13
450.83	9132.77
451.02	9153.84
451.20	9245.12
451.39	9167.88
451.57	9149.15
451.76	9067.24
451.94	9280.22
452.13	9453.42
452.31	9294.27
452.49	9235.75
452.68	9495.55
452.86	9226.39
453.05	9441.72
453.23	9371.50
453.42	9446.40
453.60	9472.15
453.78	9561.09
453.97	9446.40
454.15	9535.34
454.34	9528.32
454.52	9851.31
454.70	9827.91
454.89	9785.78
455.07	9919.19
455.26	9856.00
455.44	10026.86
455.62	9968.34
455.81	9558.75
455.99	9984.73
456.17	10181.33
456.36	10120.48
456.54	10190.69
456.73	10246.87
456.91	10609.65
457.09	10387.30
457.28	10705.61
457.46	10422.41
457.64	10628.37
457.83	10452.83
458.01	10494.96
458.19	10628.37
458.38	10429.43
458.56	10707.95
458.74	10899.87
458.93	10644.76
459.11	10925.62
459.29	10909.24
459.48	10942.00
459.66	10799.23
459.84	10953.71
460.03	11152.65
460.21	10970.09
460.39	10998.18
460.57	11133.93
460.76	11136.27
460.94	11056.69
461.12	11176.06
461.31	11206.48
461.49	11103.50
461.67	11056.69
461.85	11407.77
462.04	11311.81
462.22	11485.01
462.40	11508.41
462.59	11541.18
462.77	11456.92
462.95	11515.44
463.13	11719.06
463.32	11751.83
463.50	11784.60
463.68	11749.49
463.86	11939.07
464.05	11592.67
464.23	11758.85
464.41	11901.62
464.59	11852.47
464.78	12037.38
464.96	11941.41
465.14	11981.20
465.32	12051.42
465.50	12128.66
465.69	12332.28
465.87	12121.63
466.05	12339.30
466.23	12177.81
466.41	12313.56
466.60	12674.00
466.78	12138.02
466.96	12203.55
467.14	12109.93
467.32	12432.93
467.51	12723.15
467.69	12271.43
467.87	12564.00
468.05	12933.80
468.23	12376.75
468.41	12428.24
468.60	12678.68
468.78	12894.01
468.96	12798.05
469.14	12706.77
469.32	12964.23
469.50	12610.81
469.69	13022.74
469.87	13259.13
470.05	13156.15
470.23	13128.06
470.41	13191.26
470.59	13444.04
470.77	13207.64
470.95	13369.14
471.14	13483.83
471.32	13224.03
471.50	13752.99
471.68	13851.29
471.86	13713.20
472.04	13937.89
472.22	14012.79
472.40	14036.19
472.58	14024.49
472.77	14272.59
472.95	14188.33
473.13	14714.95
473.31	14216.41
473.49	14382.59
473.67	14277.27
473.85	14530.05
474.03	14794.53
474.21	14614.30
474.39	14813.25
474.57	14953.68
474.75	15021.56
474.93	15159.65
475.12	15023.90
475.30	15262.63
475.48	14906.87
475.66	15122.20
475.84	15194.76
476.02	15374.98
476.20	15466.26
476.38	15690.95
476.56	16105.23
476.74	16203.53
476.92	15941.39
477.10	16060.76
477.28	16219.91
477.46	16280.77
477.64	16360.34
477.82	16683.34
478.00	16933.78
478.18	16840.15
478.36	17095.27
478.54	17160.81
478.72	17355.07
478.90	17483.80
479.08	17682.75
479.26	17619.55
479.44	17783.39
479.62	17706.15
479.80	18139.15
479.98	18132.13
480.16	18703.22
480.34	18417.68
480.52	18860.04
480.70	18927.91
480.88	18726.63
481.06	18958.34
481.24	18860.04
481.41	19208.78
481.59	19489.64
481.77	19353.89
481.95	19524.75
482.13	19559.86
482.31	19758.80
482.49	20292.44
482.67	20559.27
482.85	20680.97
483.03	20776.94
483.21	21025.03
483.39	21062.48
483.57	21132.70
483.74	21216.96
483.92	21273.13
484.10	21366.75
484.28	21710.81
484.46	22263.18
484.64	22286.58
484.82	22319.35
485.00	22490.21
485.18	23016.83
485.35	23117.47
485.53	22951.29
485.71	23183.01
485.89	23564.51
486.07	23293.01
486.25	23578.56
486.43	23798.57
486.61	23854.74
486.78	24308.80
486.96	24264.33
487.14	24573.28
487.32	24669.25
487.50	24922.02
487.68	24947.77
487.85	25390.13
488.03	25544.61
488.21	25666.31
488.39	25685.04
488.57	26190.59
488.75	26295.92
488.92	26356.77
489.10	26728.92
489.28	26602.53
489.46	27302.35
489.64	27290.65
489.81	27955.36
489.99	27646.41
490.17	27683.86
490.35	27999.83
490.53	28229.20
490.70	28629.43
490.88	28514.75
491.06	28872.85
491.24	28905.62
491.41	29104.56
491.59	29336.27
491.77	29558.63
491.95	29324.57
492.13	29954.18
492.30	30291.21
492.48	30150.78
492.66	30284.19
492.84	30504.20
493.01	30347.39
493.19	30764.00
493.37	30962.95
493.54	31545.74
493.72	31557.44
493.90	31461.48
494.08	32048.96
494.25	32149.60
494.43	32030.23
494.61	32428.12
494.79	32765.16
494.96	32456.21
495.14	32751.12
495.32	33076.45
495.49	32858.78
495.67	33645.20
495.85	33565.62
496.02	33954.15
496.20	34223.31
496.38	33855.85
496.55	34015.01
496.73	35051.86
496.91	34401.19
497.09	34742.91
497.26	35222.72
497.44	35196.98
497.62	35534.01
497.79	35864.03
497.97	35346.77
498.14	36163.62
498.32	35812.54
498.50	36414.05
498.67	36575.55
498.85	36484.27
499.03	36765.14
499.20	36624.70
499.38	36898.55
499.56	37038.98
499.73	37493.04
499.91	37493.04
500.08	37677.94
500.26	37708.37
500.44	37989.24
500.61	37778.59
500.79	37965.83
500.97	38560.33
501.14	38426.92
501.32	38579.05
501.49	38899.70
501.67	38829.49
501.84	39072.90
502.02	39122.05
502.20	39285.89
502.37	39461.43
502.55	39480.16
502.72	39562.08
502.90	39154.82
503.07	39754.00
503.25	39887.41
503.43	40142.53
503.60	39896.77
503.78	40835.33
503.95	40100.40
504.13	40748.73
504.30	40893.84
504.48	40676.17
504.65	40966.40
504.83	41113.85
505.01	41193.43
505.18	41478.97
505.36	41696.64
505.53	41081.08
505.71	41865.16
505.88	41581.96
506.06	41275.35
506.23	42131.98
506.41	42220.92
506.58	42075.81
506.76	42354.33
506.93	42490.09
507.11	42284.12
507.28	42644.56
507.46	42820.10
507.63	43285.87
507.81	43236.72
507.98	43115.01
508.16	43199.27
508.33	43824.19
508.50	43686.10
508.68	43838.23
508.85	43959.94
509.03	44163.57
509.20	43859.30
509.38	44971.05
509.55	44753.38
509.73	44367.20
509.90	44652.74
510.08	44540.39
510.25	44821.26
510.42	44725.30
510.60	45242.56
510.77	45191.06
510.95	45336.18
511.12	45476.61
511.30	45378.31
511.47	45652.15
511.64	45366.60
511.82	46003.23
511.99	45525.76
512.17	46178.77
512.34	46026.63
512.51	46277.07
512.69	46485.38
512.86	46480.70
513.04	46480.70
513.21	46625.81
513.38	46979.23
513.56	46813.05
513.73	46808.37
513.90	47377.12
514.08	47281.16
514.25	47468.40
514.43	47627.56
514.60	47594.79
514.77	47491.81
514.95	47985.66
515.12	48252.48
515.29	47744.59
515.47	48299.30
515.64	47966.94
515.81	47810.12
515.99	48140.14
516.16	48746.34
516.33	48299.30
516.51	48776.76
516.68	48636.33
516.85	48783.79
517.03	48985.07
517.20	48919.54
517.37	48863.36
517.54	48519.31
517.72	49048.27
517.89	49184.02
518.06	49544.46
518.24	49528.08
518.41	49228.49
518.58	49869.79
518.75	49631.06
518.93	49921.29
519.10	49617.02
519.27	49813.62
519.45	49937.67
519.62	50052.36
519.79	49832.35
519.96	49972.78
520.14	50518.12
520.31	49989.16
520.48	50433.86
520.65	50527.48
520.83	50639.83
521.00	50848.14
521.17	50946.44
521.34	50937.08
521.52	50843.46
521.69	50838.78
521.86	51077.51
522.03	50920.70
522.20	51154.75
522.38	51636.90
522.55	51082.19
522.72	51580.73
522.89	51281.14
523.07	51650.94
523.24	51695.41
523.41	51892.02
523.58	51643.92
523.75	52142.45
523.92	51529.23
524.10	51901.38
524.27	52182.24
524.44	52231.40
524.61	52692.48
524.78	52385.87
524.96	52533.32
525.13	52243.10
525.30	52676.10
525.47	52411.62
525.64	52868.02
525.81	52636.31
525.98	52535.66
526.16	52456.09
526.33	52996.75
526.50	52938.24
526.67	52781.42
526.84	52762.70
527.01	52846.96
527.18	52921.85
527.36	52940.58
527.53	53008.45
527.70	53628.69
527.87	53483.58
528.04	53333.79
528.21	53521.03
528.38	53457.84
528.55	53563.16
528.72	53467.20
528.89	53715.29
529.07	53495.28
529.24	53378.26
529.41	53682.53
529.58	53698.91
529.75	54064.03
529.92	54078.08
530.09	54190.42
530.26	53860.41
530.43	53904.88
530.60	53750.40
530.77	54167.02
530.94	54354.26
531.11	54152.97
531.28	54265.32
531.46	54129.57
531.63	54279.36
531.80	54447.88
531.97	54511.08
532.14	54738.11
532.31	54581.29
532.48	54490.01
532.65	54876.20
532.82	54576.61
532.99	54752.15
533.16	54810.67
533.33	54752.15
533.50	55075.15
533.67	55035.36
533.84	54887.90
534.01	55058.76
534.18	54892.58
534.35	55007.27
534.52	55131.32
534.69	55121.96
534.86	55166.43
535.03	55145.36
535.20	55374.73
535.37	55639.22
535.54	55426.23
535.71	55320.90
535.88	55231.96
536.05	55664.96
536.22	55440.27
536.38	55571.34
536.55	55613.47
536.72	55566.66
536.89	55517.51
537.06	55428.57
537.23	55948.17
537.40	55781.99
537.57	55889.65
537.74	55646.24
537.91	56123.71
538.08	55852.20
538.25	55753.90
538.42	56086.26
538.59	55934.12
538.75	56186.90
538.92	56107.32
539.09	56254.78
539.26	56182.22
539.43	56397.55
539.60	56367.12
539.77	56177.54
539.94	56580.11
540.11	56502.87
540.28	56308.61
540.44	56470.11
540.61	56676.07
540.78	56278.18
540.95	56605.86
541.12	56376.48
541.29	56568.41
541.46	56769.69
541.62	56767.35
541.79	56666.71
541.96	56388.19
542.13	57017.79
542.30	56545.00
542.47	56963.96
542.63	57015.45
542.80	57090.35
542.97	56985.02
543.14	57305.68
543.31	57308.02
543.48	57411.00
543.64	57497.60
543.81	57579.52
543.98	57443.77
544.15	57497.60
544.32	57378.23
544.48	57717.61
544.65	57462.49
544.82	57418.02
544.99	57373.55
545.16	57434.41
545.32	57359.51
545.49	58035.92
545.66	57963.37
545.83	57776.12
546.00	57858.04
546.16	57801.87
546.33	57521.01
546.50	57504.62
546.67	57949.32
546.83	57516.32
547.00	57886.13
547.17	57642.71
547.34	58108.48
547.50	57897.83
547.67	58094.44
547.84	57881.45
548.00	58361.26
548.17	58300.40
548.34	58073.37
548.51	58234.87
548.67	58340.19
548.84	58143.59
549.01	58087.42
549.18	58150.61
549.34	58321.47
549.51	58113.16
549.68	58394.03
549.84	58422.11
550.01	58426.79
550.18	58372.96
550.34	58588.29
550.51	58525.10
550.68	58398.71
550.84	58232.53
551.01	58761.49
551.18	58562.54
551.34	58379.98
551.51	58639.78
551.68	58426.79
551.84	58752.13
552.01	58557.86
552.18	58731.06
552.34	58616.38
552.51	58663.19
552.68	58611.70
552.84	58843.41
553.01	58913.62
553.18	58969.80
553.34	58768.51
553.51	58752.13
553.67	58997.88
553.84	58953.41
554.01	58974.48
554.17	59096.19
554.34	58958.09
554.51	59128.95
554.67	59004.91
554.84	58827.02
555.00	58955.75
555.17	59096.19
555.33	58976.82
555.50	58946.39
555.67	58918.31
555.83	59063.42
556.00	59208.53
556.16	59592.38
556.33	59461.31
556.50	59393.43
556.66	59461.31
556.83	59283.43
556.99	59423.86
557.16	59568.97
557.32	59594.72
557.49	59674.30
557.65	59601.74
557.82	59395.77
557.98	59379.39
558.15	59475.35
558.32	59693.02
558.48	59409.82
558.65	59620.47
558.81	59608.76
558.98	59655.57
559.14	59826.43
559.31	59866.22
559.47	59777.28
559.64	59576.00
559.80	59847.50
559.97	59826.43
560.13	59529.19
560.30	59807.71
560.46	59718.77
560.63	59788.98
560.79	59866.22
560.96	59948.14
561.12	59927.08
561.29	59845.16
561.45	59976.23
561.61	59880.27
561.78	59788.98
561.94	59959.84
562.11	59833.46
562.27	59725.79
562.44	60044.10
562.60	60058.15
562.77	59920.05
562.93	59653.23
563.10	60009.00
563.26	60088.57
563.42	60317.95
563.59	59887.29
563.75	60083.89
563.92	60060.49
564.08	59983.25
564.24	60079.21
564.41	60151.77
564.57	60451.36
564.74	60193.90
564.90	60179.85
565.07	60224.32
565.23	60285.18
565.39	60210.28
565.56	60324.97
565.72	60144.75
565.88	60189.22
566.05	60081.55
566.21	60296.88
566.38	60310.92
566.54	60252.41
566.70	60392.84
566.87	60463.06
567.03	60111.98
567.19	60729.88
567.36	60364.76
567.52	60364.76
567.68	60580.09
567.85	60542.64
568.01	60294.54
568.17	60287.52
568.34	60608.17
568.50	60671.37
568.66	60493.49
568.83	60505.19
568.99	60383.48
569.15	60528.59
569.32	60533.28
569.48	60275.82
569.64	60575.40
569.81	60530.93
569.97	60420.93
570.13	60341.35
570.30	60446.68
570.46	60563.70
570.62	60406.89
570.78	60439.65
570.95	60498.17
571.11	60612.85
571.27	60587.11
571.43	60615.19
571.60	60680.73
571.76	60575.40
571.92	60783.71
572.09	60708.82
572.25	60549.66
572.41	60474.76
572.57	60582.43
572.74	60968.61
572.90	60692.43
573.06	60795.42
573.22	60760.31
573.38	60687.75
573.55	60858.61
573.71	60715.84
573.87	60708.82
574.03	60645.62
574.20	60935.85
574.36	60818.82
574.52	60898.40
574.68	60795.42
574.84	60884.36
575.01	60741.58
575.17	60779.03
575.33	60537.96
575.49	60694.77
575.65	60743.92
575.82	60779.03
575.98	61055.21
576.14	61050.53
576.30	60757.97
576.46	60722.86
576.62	60729.88
576.79	60722.86
576.95	60760.31
577.11	60748.60
577.27	60893.72
577.43	60839.89
577.59	61017.77
577.75	60732.22
577.92	60669.03
578.08	60830.52
578.24	60828.18
578.40	60917.12
578.56	60830.52
578.72	60996.70
578.88	61006.06
579.04	60999.04
579.21	60954.57
579.37	60884.36
579.53	61071.60
579.69	60736.90
579.85	60952.23
580.01	60917.12
580.17	60889.04
580.33	61050.53
580.49	61036.49
580.65	61006.06
580.82	60893.72
580.98	60968.61
581.14	61008.40
581.30	61062.24
581.46	60949.89
581.62	60907.76
581.78	60650.30
581.94	60938.19
582.10	60931.17
582.26	61003.72
582.42	60933.51
582.58	60949.89
582.74	61020.11
582.90	61095.00
583.06	60807.12
583.22	60886.70
583.38	60898.40
583.54	60921.80
583.70	61106.71
583.86	61041.17
584.02	60924.14
584.18	60994.36
584.34	60982.66
584.50	61069.26
584.66	60966.27
584.82	60921.80
584.98	61235.44
585.14	61118.41
585.30	60879.67
585.46	61221.39
585.62	60989.68
585.78	61137.13
585.94	60802.44
586.10	60982.66
586.26	61020.11
586.42	61102.03
586.58	61146.50
586.74	61275.22
586.90	61085.64
587.06	61041.17
587.22	61109.05
587.38	61223.73
587.54	61413.32
587.70	61396.93
587.86	61130.11
588.02	61176.92
588.18	61048.19
588.34	61104.37
588.49	61113.73
