SpectraSuite Data File
++++++++++++++++++++++++++++++++++++
Date: Fri Oct 25 11:25:56 EDT 2013
User: price-jones
Dark Spectrum Present: No
Reference Spectrum Present: No
Number of Sampled Component Spectra: 1
Spectrometers: USB2+H05261
Integration Time (usec): 100000 (USB2+H05261)
Spectra Averaged: 1 (USB2+H05261)
Boxcar Smoothing: 0 (USB2+H05261)
Correct for Electrical Dark: No (USB2+H05261)
Strobe/Lamp Enabled: No (USB2+H05261)
Correct for Detector Non-linearity: No (USB2+H05261)
Correct for Stray Light: No (USB2+H05261)
Number of Pixels in Processed Spectrum: 2048
>>>>>Begin Processed Spectral Data<<<<<
365.73	194.26
365.92	194.26
366.12	194.26
366.32	180.22
366.52	133.41
366.72	154.48
366.91	81.92
367.11	72.56
367.31	154.48
367.51	79.58
367.70	133.41
367.90	163.84
368.10	121.71
368.30	124.05
368.49	110.01
368.69	152.13
368.89	168.52
369.09	121.71
369.28	154.48
369.48	222.35
369.68	220.01
369.87	222.35
370.07	145.11
370.27	147.45
370.47	402.57
370.66	638.97
370.86	582.79
371.06	671.73
371.25	788.76
371.45	678.76
371.65	748.97
371.84	683.44
372.04	592.16
372.24	755.99
372.44	753.65
372.63	795.78
372.83	634.29
373.03	734.93
373.22	739.61
373.42	765.36
373.62	751.31
373.81	760.67
374.01	833.23
374.21	786.42
374.40	788.76
374.60	875.36
374.79	781.74
374.99	905.79
375.19	805.14
375.38	835.57
375.58	842.59
375.78	905.79
375.97	837.91
376.17	873.02
376.37	781.74
376.56	903.45
376.76	943.24
376.95	891.74
377.15	873.02
377.35	957.28
377.54	882.38
377.74	917.49
377.93	908.13
378.13	950.26
378.33	999.41
378.52	915.15
378.72	980.68
378.91	971.32
379.11	933.87
379.31	954.94
379.50	926.85
379.70	868.34
379.89	985.37
380.09	933.87
380.28	997.07
380.48	936.21
380.68	950.26
380.87	940.90
381.07	976.00
381.26	1036.86
381.46	929.19
381.65	983.02
381.85	1048.56
382.04	1179.63
382.24	1086.01
382.43	1048.56
382.63	1132.82
382.83	1048.56
383.02	1125.80
383.22	1193.67
383.41	1060.26
383.61	1212.40
383.80	1071.97
384.00	1151.54
384.19	1135.16
384.39	1205.38
384.58	1123.46
384.78	1132.82
384.97	1221.76
385.17	1057.92
385.36	1181.97
385.56	1203.04
385.75	1116.44
385.95	1219.42
386.14	1277.93
386.34	1270.91
386.53	1224.10
386.72	1238.14
386.92	1268.57
387.11	1254.53
387.31	1277.93
387.50	1299.00
387.70	1263.89
387.89	1301.34
388.09	1228.78
388.28	1252.19
388.48	1107.07
388.67	1254.53
388.86	1299.00
389.06	1331.76
389.25	1303.68
389.45	1420.71
389.64	1385.60
389.84	1306.02
390.03	1348.15
390.22	1322.40
390.42	1334.11
390.61	1380.92
390.81	1371.55
391.00	1446.45
391.19	1427.73
391.39	1467.52
391.58	1509.65
391.78	1434.75
391.97	1502.62
392.16	1490.92
392.36	1493.26
392.55	1530.71
392.75	1636.03
392.94	1474.54
393.13	1483.90
393.33	1593.90
393.52	1612.63
393.71	1584.54
393.91	1579.86
394.10	1554.12
394.29	1577.52
394.49	1586.88
394.68	1650.08
394.88	1617.31
395.07	1636.03
395.26	1640.72
395.46	1675.82
395.65	1692.21
395.84	1678.16
396.04	1750.72
396.23	1675.82
396.42	1755.40
396.62	1778.81
396.81	1713.27
397.00	1809.23
397.19	1802.21
397.39	1809.23
397.58	1802.21
397.77	1851.36
397.97	1834.98
398.16	1966.05
398.35	1954.35
398.55	2024.56
398.74	1837.32
398.93	1919.24
399.12	1947.33
399.32	1839.66
399.51	1966.05
399.70	2066.69
399.90	1856.04
400.09	2036.27
400.28	2012.86
400.47	2073.71
400.67	2059.67
400.86	2113.50
401.05	2076.06
401.24	2106.48
401.44	2080.74
401.63	2132.23
401.82	2221.17
402.01	2083.08
402.21	2080.74
402.40	2186.06
402.59	2069.03
402.78	2237.55
402.97	2190.74
403.17	2165.00
403.36	2197.76
403.55	2218.83
403.74	2413.09
403.93	2366.28
404.13	2354.58
404.32	2377.98
404.51	2342.88
404.70	2436.50
404.89	2333.51
405.09	2516.08
405.28	2413.09
405.47	2509.05
405.66	2518.42
405.85	2565.23
406.05	2523.10
406.24	2560.55
406.43	2637.78
406.62	2600.34
406.81	2665.87
407.00	2579.27
407.20	2586.29
407.39	2708.00
407.58	2761.83
407.77	2658.85
407.96	2665.87
408.15	2691.62
408.34	2825.03
408.54	2841.41
408.73	2820.35
408.92	2813.32
409.11	2796.94
409.30	2860.13
409.49	2899.92
409.68	2956.10
409.87	3007.59
410.07	2876.52
410.26	2942.05
410.45	3045.04
410.64	2956.10
410.83	3162.06
411.02	3138.66
411.21	3117.59
411.40	3115.25
411.59	3232.28
411.78	3183.13
411.98	3206.53
412.17	3213.56
412.36	3396.12
412.55	3440.59
412.74	3485.06
412.93	3379.73
413.12	3351.65
413.31	3529.53
413.50	3389.10
413.69	3510.80
413.88	3550.59
414.07	3538.89
414.26	3679.32
414.45	3585.70
414.64	3681.66
414.83	3641.87
415.02	3772.94
415.22	3836.14
415.41	3892.31
415.60	3754.22
415.79	3911.04
415.98	3960.19
416.17	3999.98
416.36	3981.25
416.55	3983.59
416.74	4070.19
416.93	4004.66
417.12	4119.34
417.31	4203.60
417.50	4166.15
417.69	4219.99
417.88	4077.21
418.07	4273.82
418.26	4315.95
418.45	4252.75
418.64	4444.68
418.83	4425.95
419.02	4428.29
419.21	4629.58
419.39	4533.62
419.58	4435.32
419.77	4376.80
419.96	4521.92
420.15	4737.24
420.34	4667.03
420.53	4542.98
420.72	4613.20
420.91	4688.09
421.10	4774.69
421.29	4814.48
421.48	4713.84
421.67	4718.52
421.86	4929.17
422.05	4737.24
422.24	4809.80
422.43	4741.93
422.61	4793.42
422.80	5008.75
422.99	4901.08
423.18	4917.47
423.37	4950.23
423.56	4945.55
423.75	4898.74
423.94	4791.08
424.13	4540.64
424.32	4809.80
424.50	5050.88
424.69	5067.26
424.88	4952.57
425.07	4952.57
425.26	4844.91
425.45	4812.14
425.64	5055.56
425.83	5011.09
426.01	4938.53
426.20	5090.67
426.39	5121.09
426.58	5001.72
426.77	5165.56
426.96	5060.24
427.15	5135.14
427.33	5191.31
427.52	5158.54
427.71	5317.70
427.90	5345.78
428.09	5399.62
428.28	5322.38
428.46	5334.08
428.65	5310.68
428.84	5458.13
429.03	5483.88
429.22	5303.65
429.40	5469.83
429.59	5533.03
429.78	5327.06
429.97	5350.46
430.16	5502.60
430.34	5558.77
430.53	5664.10
430.72	5771.76
430.91	5626.65
431.10	5565.79
431.28	5682.82
431.47	5643.03
431.66	5657.07
431.85	5727.29
432.03	5881.77
432.22	5968.37
432.41	5776.44
432.60	5820.91
432.79	5776.44
432.97	5884.11
433.16	6031.56
433.35	6113.48
433.54	6057.31
433.72	6197.74
433.91	6092.41
434.10	5895.81
434.28	6001.13
434.47	6239.87
434.66	6164.97
434.85	6146.25
435.03	6136.88
435.22	6361.58
435.41	6574.56
435.59	6319.45
435.78	6499.67
435.97	6504.35
436.16	6352.21
436.34	6377.96
436.53	6518.39
436.72	6614.35
436.90	6572.22
437.09	6642.44
437.28	6401.37
437.46	6754.79
437.65	6684.57
437.84	6679.89
438.02	6588.61
438.21	6754.79
438.40	6726.70
438.58	6958.41
438.77	6986.50
438.96	6736.06
439.14	6932.67
439.33	7283.75
439.52	7288.43
439.70	7173.74
439.89	7318.86
440.08	7250.98
440.26	7351.62
440.45	7346.94
440.63	7410.14
440.82	7571.63
441.01	7641.85
441.19	7658.23
441.38	7639.51
441.57	7681.64
441.75	7782.28
441.94	8053.78
442.12	8053.78
442.31	8098.25
442.50	8051.44
442.68	8100.59
442.87	8044.42
443.05	8046.76
443.24	8205.92
443.43	8135.70
443.61	8039.74
443.80	8374.44
443.98	7981.23
444.17	7934.42
444.35	8114.64
444.54	8161.45
444.73	8435.29
444.91	8318.26
445.10	8348.69
445.28	8442.31
445.47	8290.18
445.65	8159.11
445.84	8255.07
446.02	8470.40
446.21	8446.99
446.39	8334.65
446.58	8542.96
446.77	8500.83
446.95	8184.85
447.14	8386.14
447.32	8533.59
447.51	8519.55
447.69	8681.05
447.88	8538.27
448.06	8594.45
448.25	8465.72
448.43	8596.79
448.62	8255.07
448.80	8477.42
448.99	8645.94
449.17	8685.73
449.36	8683.39
449.54	8784.03
449.73	8798.07
449.91	9090.64
450.10	8940.85
450.28	9034.47
450.46	9071.92
450.65	9268.52
450.83	9027.45
451.02	9004.04
451.20	9142.13
451.39	9273.20
451.57	9139.79
451.76	9064.89
451.94	9074.26
452.13	9394.91
452.31	9235.75
452.49	9109.36
452.68	9390.23
452.86	9228.73
453.05	9408.95
453.23	9315.33
453.42	9284.91
453.60	9287.25
453.78	9411.29
453.97	9303.63
454.15	9565.77
454.34	9617.26
454.52	9731.95
454.70	9533.00
454.89	9621.94
455.07	9813.87
455.26	9853.66
455.44	10031.54
455.62	9923.87
455.81	9851.31
455.99	9893.44
456.17	9900.47
456.36	10019.83
456.54	10106.43
456.73	10228.14
456.91	10335.81
457.09	10513.69
457.28	10511.35
457.46	10171.97
457.64	10420.06
457.83	10506.66
458.01	10647.10
458.19	10581.56
458.38	10640.08
458.56	10391.98
458.74	10574.54
458.93	10583.90
459.11	10733.70
459.29	10714.97
459.48	10789.87
459.66	10820.30
459.84	10857.75
460.03	10942.00
460.21	11049.67
460.39	11098.82
460.57	10986.47
460.76	11103.50
460.94	11101.16
461.12	11173.72
461.31	11201.80
461.49	11169.04
461.67	11192.44
461.85	11367.98
462.04	11220.53
462.22	11637.14
462.40	11775.24
462.59	11562.25
462.77	11726.08
462.95	11683.95
463.13	11314.15
463.32	11473.31
463.50	11782.26
463.68	11796.30
463.86	11676.93
464.05	11882.90
464.23	11655.87
464.41	11866.52
464.59	11822.05
464.78	11985.88
464.96	12177.81
465.14	11941.41
465.32	11894.60
465.50	12189.51
465.69	12018.65
465.87	12042.06
466.05	12203.55
466.23	12006.95
466.41	12290.15
466.60	12533.57
466.78	12142.70
466.96	11981.20
467.14	12145.04
467.32	12353.35
467.51	12393.14
467.69	12322.92
467.87	12493.78
468.05	12559.31
468.23	12493.78
468.41	12535.91
468.60	12762.94
468.78	12917.42
468.96	12779.32
469.14	12559.31
469.32	12798.05
469.50	12688.04
469.69	12975.93
469.87	13085.94
470.05	13125.72
470.23	13118.70
470.41	13167.85
470.59	13186.58
470.77	13209.98
470.95	13275.52
471.14	13469.78
471.32	13039.12
471.50	13376.16
471.68	13610.22
471.86	13441.70
472.04	13785.76
472.22	13841.93
472.40	13659.37
472.58	13781.07
472.77	13603.19
472.95	14134.50
473.13	14466.85
473.31	13865.33
473.49	13956.61
473.67	14040.87
473.85	14352.16
474.03	14581.54
474.21	14705.59
474.39	14649.41
474.57	14696.22
474.75	14932.62
474.93	14895.17
475.12	15129.22
475.30	15035.60
475.48	15119.86
475.66	15124.54
475.84	15082.41
476.02	15199.44
476.20	15199.44
476.38	15606.69
476.56	15915.64
476.74	16039.69
476.92	15847.77
477.10	15655.84
477.28	16421.20
477.46	16236.30
477.64	16189.49
477.82	16439.92
478.00	17064.85
478.18	16807.39
478.36	16964.20
478.54	17071.87
478.72	17167.83
478.90	17043.78
479.08	17544.66
479.26	17954.25
479.44	17645.30
479.62	18050.21
479.80	17900.42
479.98	17898.08
480.16	18548.75
480.34	18450.44
480.52	18658.75
480.70	18684.50
480.88	18457.46
481.06	18368.52
481.24	18654.07
481.41	18927.91
481.59	18890.46
481.77	19332.82
481.95	19260.27
482.13	19594.96
482.31	19679.22
482.49	20163.72
482.67	20285.42
482.85	20397.77
483.03	20458.62
483.21	20826.09
483.39	20688.00
483.57	20905.66
483.74	21036.74
483.92	21376.11
484.10	21191.21
484.28	21535.27
484.46	22127.42
484.64	21956.57
484.82	22113.38
485.00	22288.92
485.18	22335.73
485.35	22977.04
485.53	22827.24
485.71	22974.70
485.89	23606.64
486.07	23309.40
486.25	23527.06
486.43	23927.30
486.61	23810.27
486.78	23920.28
486.96	24142.63
487.14	24240.93
487.32	24533.50
487.50	24732.44
487.68	25132.67
487.85	25312.89
488.03	25591.42
488.21	25900.37
488.39	25614.82
488.57	26089.95
488.75	26419.97
488.92	26263.15
489.10	26483.16
489.28	26998.08
489.46	27143.19
489.64	27098.72
489.81	27613.64
489.99	27386.61
490.17	27934.29
490.35	28210.48
490.53	28058.34
490.70	28334.53
490.88	28367.29
491.06	28467.94
491.24	28519.43
491.41	29289.46
491.59	29287.12
491.77	28774.55
491.95	29827.79
492.13	29720.12
492.30	29940.13
492.48	29750.55
492.66	30103.97
492.84	30169.51
493.01	30817.83
493.19	30668.04
493.37	31204.02
493.54	30890.39
493.72	31461.48
493.90	31543.40
494.08	31854.69
494.25	32053.64
494.43	31817.24
494.61	32144.92
494.79	32524.08
494.96	32577.92
495.14	32828.35
495.32	33256.67
495.49	33284.76
495.67	33404.13
495.85	33624.14
496.02	33621.80
496.20	34031.39
496.38	33968.19
496.55	34225.65
496.73	34689.08
496.91	34277.15
497.09	34466.73
497.26	34859.94
497.44	34913.77
497.62	35049.52
497.79	35498.91
497.97	35524.65
498.14	36194.04
498.32	35917.86
498.50	36205.75
498.67	36381.29
498.85	36046.59
499.03	36720.66
499.20	36582.57
499.38	37022.59
499.56	36999.19
499.73	37036.64
499.91	36912.59
500.08	37151.32
500.26	37266.01
500.44	37853.48
500.61	37558.58
500.79	37195.79
500.97	37888.59
501.14	38614.16
501.32	38380.10
501.49	38459.68
501.67	38249.03
501.84	38890.34
502.02	38899.70
502.20	39047.16
502.37	39225.04
502.55	39185.25
502.72	39079.92
502.90	39370.15
503.07	39365.47
503.25	39328.02
503.43	39915.50
503.60	39852.30
503.78	40622.34
503.95	40219.77
504.13	40526.38
504.30	40790.86
504.48	40322.75
504.65	40282.96
504.83	40942.99
505.01	41001.50
505.18	40985.12
505.36	41488.34
505.53	41530.47
505.71	41556.21
505.88	41675.58
506.06	41762.18
506.23	41696.64
506.41	41474.29
506.58	41888.57
506.76	41968.15
506.93	42377.74
507.11	41734.09
507.28	42078.15
507.46	42756.91
507.63	42649.24
507.81	42916.06
507.98	42686.69
508.16	43082.24
508.33	42756.91
508.50	43328.00
508.68	43302.25
508.85	43753.97
509.03	43704.82
509.20	44128.46
509.38	43573.75
509.55	44205.70
509.73	44502.95
509.90	44460.82
510.08	44334.43
510.25	44395.28
510.42	44830.62
510.60	45158.30
510.77	45106.80
510.95	44973.39
511.12	45205.11
511.30	45184.04
511.47	45537.46
511.64	45471.93
511.82	45570.23
511.99	45134.89
512.17	45427.46
512.34	46012.59
512.51	46232.60
512.69	46284.09
512.86	46160.05
513.04	46796.67
513.21	46358.99
513.38	46473.68
513.56	46663.26
513.73	46714.75
513.90	47122.01
514.08	46497.08
514.25	47107.96
514.43	47274.14
514.60	47374.78
514.77	47519.90
514.95	47316.27
515.12	47662.67
515.29	47484.79
515.47	47660.33
515.64	48109.71
515.81	47868.64
515.99	47845.23
516.16	48694.85
516.33	48395.26
516.51	48432.71
516.68	48224.40
516.85	48533.35
517.03	48973.37
517.20	48720.59
517.37	48758.04
517.54	49104.44
517.72	48875.07
517.89	48992.09
518.06	48879.75
518.24	49492.97
518.41	49081.03
518.58	49186.36
518.75	49057.63
518.93	49375.94
519.10	49275.30
519.27	49546.80
519.45	49553.82
519.62	49851.07
519.79	49951.71
519.96	49708.30
520.14	50192.79
520.31	49921.29
520.48	50417.48
520.65	50274.71
520.83	50745.15
521.00	50688.98
521.17	50255.98
521.34	50780.26
521.52	50602.38
521.69	50623.45
521.86	50976.87
522.03	50707.71
522.20	51164.11
522.38	51349.01
522.55	51304.54
522.72	51267.09
522.89	51213.26
523.07	51569.02
523.24	51250.71
523.41	51515.19
523.58	51367.74
523.75	51784.35
523.92	51667.33
524.10	51973.94
524.27	51842.87
524.44	52065.22
524.61	51725.84
524.78	52346.08
524.96	52069.90
525.13	52273.52
525.30	52322.68
525.47	52552.05
525.64	52458.43
525.81	52280.55
525.98	52535.66
526.16	52467.79
526.33	52828.23
526.50	52940.58
526.67	52526.30
526.84	52762.70
527.01	52575.45
527.18	52561.41
527.36	53162.93
527.53	53160.59
527.70	53279.96
527.87	53085.69
528.04	53088.03
528.21	53432.09
528.38	53230.80
528.55	53352.51
528.72	53258.89
528.89	53235.48
529.07	53153.57
529.24	53169.95
529.41	53684.87
529.58	53254.21
529.75	53408.68
529.92	53921.26
530.09	53659.12
530.26	53804.24
530.43	54038.29
530.60	53727.00
530.77	54040.63
530.94	54080.42
531.11	53909.56
531.28	54012.54
531.46	54033.61
531.63	54337.88
531.80	53982.12
531.97	54424.48
532.14	54630.44
532.31	54225.53
532.48	54382.35
532.65	54607.04
532.82	54527.46
532.99	54443.20
533.16	54375.33
533.33	55173.45
533.50	54791.94
533.67	54569.59
533.84	54747.47
534.01	54574.27
534.18	54850.45
534.35	55086.85
534.52	55028.34
534.69	55007.27
534.86	55014.29
535.03	55161.75
535.20	55035.36
535.37	55306.86
535.54	55377.08
535.71	55253.03
535.88	55466.02
536.05	55344.31
536.22	55224.94
536.38	55337.29
536.55	55693.05
536.72	55693.05
536.89	55585.38
537.06	55367.71
537.23	55632.19
537.40	55426.23
537.57	55599.43
537.74	55611.13
537.91	55899.01
538.08	55929.44
538.25	55615.81
538.42	56107.32
538.59	56142.43
538.75	55938.80
538.92	55793.69
539.09	55962.21
539.26	55854.54
539.43	56104.98
539.60	56238.39
539.77	56081.58
539.94	56310.95
540.11	56388.19
540.28	56535.64
540.44	56437.34
540.61	56278.18
540.78	56310.95
540.95	56282.86
541.12	56257.12
541.29	56308.61
541.46	56561.39
541.62	56573.09
541.79	56624.58
541.96	56273.50
542.13	56573.09
542.30	56676.07
542.47	56743.95
542.63	56835.23
542.80	56811.82
542.97	57083.33
543.14	57041.20
543.31	57216.74
543.48	56982.68
543.64	57263.55
543.81	57301.00
543.98	57387.60
544.15	56987.36
544.32	57221.42
544.48	57516.32
544.65	57284.61
544.82	57579.52
544.99	57303.34
545.16	57567.82
545.32	57471.85
545.49	57616.97
545.66	57396.96
545.83	57607.61
546.00	57621.65
546.16	57476.54
546.33	57539.73
546.50	57504.62
546.67	58000.82
546.83	57703.57
547.00	57722.29
547.17	57600.58
547.34	57511.64
547.50	57776.12
547.67	57893.15
547.84	57813.57
548.00	57946.98
548.17	58075.71
548.34	57846.34
548.51	58127.20
548.67	58234.87
548.84	58246.57
549.01	58042.95
549.18	58052.31
549.34	58124.86
549.51	58323.81
549.68	58347.21
549.84	58241.89
550.01	58312.11
550.18	58232.53
550.34	58389.34
550.51	58230.19
550.68	58239.55
550.84	58138.91
551.01	58475.94
551.18	58370.62
551.34	58485.31
551.51	58447.86
551.68	58504.03
551.84	58637.44
552.01	58431.47
552.18	58602.33
552.34	58445.52
552.51	58702.98
552.68	58347.21
552.84	58726.38
553.01	58691.27
553.18	58667.87
553.34	58988.52
553.51	58665.53
553.67	58707.66
553.84	59004.91
554.01	58873.84
554.17	58745.11
554.34	59016.61
554.51	58791.92
554.67	59100.87
554.84	58864.47
555.00	58920.65
555.17	58908.94
555.33	58871.49
555.50	59030.65
555.67	58859.79
555.83	58794.26
556.00	59065.76
556.16	59334.92
556.33	59128.95
556.50	59114.91
556.66	59302.15
556.83	59054.06
556.99	59250.66
557.16	59482.37
557.32	59353.65
557.49	59683.66
557.65	59290.45
557.82	59402.80
557.98	59178.10
558.15	59519.82
558.32	59526.84
558.48	59262.36
558.65	59442.59
558.81	59360.67
558.98	59487.06
559.14	59400.46
559.31	59405.14
559.47	59468.33
559.64	59796.01
559.80	59545.57
559.97	59678.98
560.13	59723.45
560.30	59877.93
560.46	59728.13
560.63	59543.23
560.79	59777.28
560.96	59714.09
561.12	59842.82
561.29	59714.09
561.45	59770.26
561.61	59655.57
561.78	59543.23
561.94	59777.28
562.11	59608.76
562.27	59601.74
562.44	59971.55
562.60	59957.50
562.77	59669.62
562.93	59590.04
563.10	60055.81
563.26	59835.80
563.42	60140.07
563.59	59997.29
563.75	59973.89
563.92	59983.25
564.08	60062.83
564.24	60196.24
564.41	60116.66
564.57	60128.36
564.74	60032.40
564.90	60142.41
565.07	60116.66
565.23	59964.52
565.39	60236.03
565.56	60299.22
565.72	60088.57
565.88	60193.90
566.05	59969.21
566.21	59973.89
566.38	60088.57
566.54	60238.37
566.70	60315.61
566.87	60292.20
567.03	60170.49
567.19	60259.43
567.36	60224.32
567.52	60266.45
567.68	60296.88
567.85	60236.03
568.01	60327.31
568.17	59929.42
568.34	60327.31
568.50	60240.71
568.66	60151.77
568.83	60378.80
568.99	60221.98
569.15	60409.23
569.32	60310.92
569.48	60205.60
569.64	60364.76
569.81	60406.89
569.97	60257.09
570.13	60409.23
570.30	60430.29
570.46	60544.98
570.62	60399.86
570.78	60289.86
570.95	60402.21
571.11	60502.85
571.27	60299.22
571.43	60458.38
571.60	60568.38
571.76	60430.29
571.92	60617.53
572.09	60544.98
572.25	60594.13
572.41	60460.72
572.57	60542.64
572.74	60699.45
572.90	60624.56
573.06	60608.17
573.22	60486.46
573.38	60690.09
573.55	60659.66
573.71	60757.97
573.87	60463.06
574.03	60329.65
574.20	60624.56
574.36	60521.57
574.52	60729.88
574.68	60835.20
574.84	60694.77
575.01	60706.47
575.17	60755.63
575.33	60336.67
575.49	60659.66
575.65	60846.91
575.82	60870.31
575.98	60781.37
576.14	61029.47
576.30	60814.14
576.46	60580.09
576.62	60659.66
576.79	60629.24
576.95	60750.94
577.11	60669.03
577.27	60942.87
577.43	60790.73
577.59	60732.22
577.75	60786.05
577.92	60669.03
578.08	60591.79
578.24	60629.24
578.40	60842.23
578.56	60872.65
578.72	60650.30
578.88	60919.46
579.04	60851.59
579.21	60860.95
579.37	60912.44
579.53	60994.36
579.69	60631.58
579.85	60652.64
580.01	60776.69
580.17	60584.77
580.33	61001.38
580.49	60952.23
580.65	61006.06
580.82	60921.80
580.98	60757.97
581.14	60767.33
581.30	60924.14
581.46	60774.35
581.62	60867.97
581.78	60764.99
581.94	60970.96
582.10	60959.25
582.26	60739.24
582.42	60690.09
582.58	60968.61
582.74	60903.08
582.90	60926.49
583.06	60825.84
583.22	60776.69
583.38	60903.08
583.54	60954.57
583.70	60931.17
583.86	61076.28
584.02	60762.65
584.18	61090.32
584.34	60938.19
584.50	60949.89
584.66	60802.44
584.82	60835.20
584.98	61043.51
585.14	61043.51
585.30	60809.46
585.46	60818.82
585.62	60928.83
585.78	61174.58
585.94	60903.08
586.10	60790.73
586.26	60961.59
586.42	61059.90
586.58	61022.45
586.74	61057.56
586.90	61116.07
587.06	60938.19
587.22	61247.14
587.38	61052.87
587.54	61043.51
587.70	61141.81
587.86	61134.79
588.02	61041.17
588.18	61144.16
588.34	60900.74
588.49	60697.11
