SpectraSuite Data File
++++++++++++++++++++++++++++++++++++
Date: Fri Oct 25 11:33:14 EDT 2013
User: price-jones
Dark Spectrum Present: No
Reference Spectrum Present: No
Number of Sampled Component Spectra: 1
Spectrometers: USB2+H05261
Integration Time (usec): 100000 (USB2+H05261)
Spectra Averaged: 1 (USB2+H05261)
Boxcar Smoothing: 0 (USB2+H05261)
Correct for Electrical Dark: No (USB2+H05261)
Strobe/Lamp Enabled: No (USB2+H05261)
Correct for Detector Non-linearity: No (USB2+H05261)
Correct for Stray Light: No (USB2+H05261)
Number of Pixels in Processed Spectrum: 2048
>>>>>Begin Processed Spectral Data<<<<<
365.73	250.44
365.92	250.44
366.12	250.44
366.32	187.24
366.52	205.97
366.72	194.26
366.91	175.54
367.11	161.50
367.31	154.48
367.51	161.50
367.70	184.90
367.90	152.13
368.10	126.39
368.30	159.16
368.49	187.24
368.69	180.22
368.89	184.90
369.09	184.90
369.28	173.20
369.48	217.67
369.68	224.69
369.87	156.82
370.07	191.92
370.27	248.10
370.47	325.33
370.66	475.13
370.86	479.81
371.06	482.15
371.25	512.58
371.45	503.22
371.65	594.50
371.84	491.51
372.04	486.83
372.24	526.62
372.44	629.60
372.63	568.75
372.83	610.88
373.03	608.54
373.22	599.18
373.42	580.45
373.62	655.35
373.81	667.05
374.01	667.05
374.21	664.71
374.40	610.88
374.60	631.94
374.79	690.46
374.99	669.39
375.19	643.65
375.38	695.14
375.58	631.94
375.78	688.12
375.97	716.20
376.17	634.29
376.37	634.29
376.56	674.07
376.76	617.90
376.95	685.78
377.15	685.78
377.35	739.61
377.54	685.78
377.74	648.33
377.93	676.41
378.13	648.33
378.33	692.80
378.52	645.99
378.72	734.93
378.91	786.42
379.11	699.82
379.31	669.39
379.50	723.23
379.70	767.70
379.89	809.83
380.09	727.91
380.28	758.33
380.48	753.65
380.68	725.57
380.87	727.91
381.07	727.91
381.26	786.42
381.46	685.78
381.65	746.63
381.85	730.25
382.04	763.01
382.24	753.65
382.43	760.67
382.63	781.74
382.83	873.02
383.02	826.21
383.22	781.74
383.41	809.83
383.61	828.55
383.80	873.02
384.00	849.61
384.19	816.85
384.39	819.19
384.58	791.10
384.78	777.06
384.97	793.44
385.17	854.30
385.36	798.12
385.56	805.14
385.75	877.70
385.95	833.23
386.14	866.00
386.34	837.91
386.53	877.70
386.72	894.08
386.92	891.74
387.11	922.17
387.31	922.17
387.50	884.72
387.70	926.85
387.89	943.24
388.09	894.08
388.28	870.68
388.48	877.70
388.67	926.85
388.86	978.34
389.06	954.94
389.25	908.13
389.45	915.15
389.64	929.19
389.84	1006.43
390.03	954.94
390.22	983.02
390.42	912.81
390.61	954.94
390.81	999.41
391.00	950.26
391.19	992.39
391.39	1001.75
391.58	1032.18
391.78	1034.52
391.97	1032.18
392.16	929.19
392.36	994.73
392.55	938.55
392.75	1043.88
392.94	1015.79
393.13	1086.01
393.33	1088.35
393.52	1137.50
393.71	1043.88
393.91	1057.92
394.10	1086.01
394.29	1090.69
394.49	1029.84
394.68	1111.75
394.88	1104.73
395.07	1076.65
395.26	1167.93
395.46	1163.25
395.65	1207.72
395.84	1200.69
396.04	1128.14
396.23	1240.48
396.42	1210.06
396.62	1240.48
396.81	1200.69
397.00	1247.51
397.19	1299.00
397.39	1334.11
397.58	1266.23
397.77	1235.80
397.97	1287.29
398.16	1221.76
398.35	1357.51
398.55	1207.72
398.74	1287.29
398.93	1373.89
399.12	1369.21
399.32	1306.02
399.51	1357.51
399.70	1439.43
399.90	1341.13
400.09	1392.62
400.28	1341.13
400.47	1380.92
400.67	1334.11
400.86	1406.66
401.05	1387.94
401.24	1406.66
401.44	1373.89
401.63	1493.26
401.82	1425.39
402.01	1366.87
402.21	1533.05
402.40	1542.41
402.59	1535.39
402.78	1495.60
402.97	1441.77
403.17	1469.86
403.36	1603.27
403.55	1486.24
403.74	1554.12
403.93	1617.31
404.13	1715.61
404.32	1577.52
404.51	1593.90
404.70	1605.61
404.89	1514.33
405.09	1771.79
405.28	1678.16
405.47	1568.16
405.66	1638.38
405.85	1776.47
406.05	1776.47
406.24	1727.32
406.43	1696.89
406.62	1764.76
406.81	1870.09
407.00	1755.40
407.20	1781.15
407.39	1872.43
407.58	1811.57
407.77	1858.39
407.96	1912.22
408.15	1893.49
408.34	1872.43
408.54	2005.84
408.73	1933.28
408.92	1853.70
409.11	1984.77
409.30	1984.77
409.49	1984.77
409.68	2019.88
409.87	2005.84
410.07	2118.18
410.26	2111.16
410.45	2024.56
410.64	2052.65
410.83	2003.50
411.02	2207.13
411.21	2253.94
411.40	2118.18
411.59	2249.25
411.78	2232.87
411.98	2017.54
412.17	2230.53
412.36	2239.89
412.55	2193.08
412.74	2361.60
412.93	2392.03
413.12	2361.60
413.31	2413.09
413.50	2361.60
413.69	2471.61
413.88	2441.18
414.07	2569.91
414.26	2499.69
414.45	2546.50
414.64	2544.16
414.83	2609.70
415.02	2544.16
415.22	2644.81
415.41	2670.55
415.60	2637.78
415.79	2675.23
415.98	2820.35
416.17	2745.45
416.36	2764.17
416.55	2827.37
416.74	2853.11
416.93	2773.53
417.12	2789.92
417.31	2874.18
417.50	2855.45
417.69	2949.08
417.88	2984.18
418.07	2993.55
418.26	2874.18
418.45	2918.65
418.64	3098.87
418.83	2984.18
419.02	3066.10
419.21	2995.89
419.39	2998.23
419.58	3030.99
419.77	3157.38
419.96	3183.13
420.15	3197.17
420.34	3246.32
420.53	3122.27
420.72	3185.47
420.91	3339.94
421.10	3255.69
421.29	3293.13
421.48	3279.09
421.67	3239.30
421.86	3456.97
422.05	3262.71
422.24	3435.91
422.43	3393.78
422.61	3414.84
422.80	3318.88
422.99	3557.61
423.18	3508.46
423.37	3456.97
423.56	3421.86
423.75	3506.12
423.94	3379.73
424.13	3204.19
424.32	3365.69
424.50	3503.78
424.69	3581.02
424.88	3426.54
425.07	3382.07
425.26	3478.04
425.45	3419.52
425.64	3503.78
425.83	3557.61
426.01	3531.87
426.20	3665.28
426.39	3564.64
426.58	3517.83
426.77	3637.19
426.96	3597.40
427.15	3520.17
427.33	3599.74
427.52	3625.49
427.71	3592.72
427.90	3655.92
428.09	3714.43
428.28	3630.17
428.46	3763.58
428.65	3669.96
428.84	3716.77
429.03	3712.09
429.22	3798.69
429.40	3700.39
429.59	3857.20
429.78	3791.67
429.97	3595.06
430.16	3831.46
430.34	3871.25
430.53	3908.69
430.72	3899.33
430.91	3850.18
431.10	3822.09
431.28	3997.64
431.47	4056.15
431.66	3953.16
431.85	3934.44
432.03	4156.79
432.22	4159.13
432.41	3985.93
432.60	4035.08
432.79	4088.92
432.97	4212.96
433.16	4124.02
433.35	4177.86
433.54	4102.96
433.72	4194.24
433.91	4266.80
434.10	4163.81
434.28	4271.48
434.47	4346.37
434.66	4358.08
434.85	4294.88
435.03	4407.23
435.22	4418.93
435.41	4409.57
435.59	4262.12
435.78	4468.08
435.97	4325.31
436.16	4411.91
436.34	4360.42
436.53	4517.23
436.72	4514.89
436.90	4475.10
437.09	4475.10
437.28	4524.26
437.46	4540.64
437.65	4545.32
437.84	4545.32
438.02	4634.26
438.21	4641.28
438.40	4629.58
438.58	4793.42
438.77	4910.44
438.96	4851.93
439.14	4908.10
439.33	5008.75
439.52	5011.09
439.70	4894.06
439.89	5008.75
440.08	5125.77
440.26	5039.17
440.45	5036.83
440.63	5139.82
440.82	5125.77
441.01	5170.24
441.19	5294.29
441.38	5235.78
441.57	5336.42
441.75	5427.70
441.94	5338.76
442.12	5476.85
442.31	5432.38
442.50	5493.24
442.68	5458.13
442.87	5537.71
443.05	5664.10
443.24	5631.33
443.43	5750.70
443.61	5593.88
443.80	5792.83
443.98	5437.06
444.17	5455.79
444.35	5664.10
444.54	5668.78
444.73	5551.75
444.91	5547.07
445.10	5884.11
445.28	5734.31
445.47	5675.80
445.65	5694.52
445.84	5781.12
446.02	5767.08
446.21	5795.17
446.39	5703.89
446.58	5727.29
446.77	5785.80
446.95	5778.78
447.14	5692.18
447.32	5806.87
447.51	5563.45
447.69	5640.69
447.88	5954.32
448.06	5975.39
448.25	5895.81
448.43	5851.34
448.62	5933.26
448.80	5940.28
448.99	5949.64
449.17	5982.41
449.36	5954.32
449.54	6052.63
449.73	6087.73
449.91	6284.34
450.10	6160.29
450.28	6289.02
450.46	6120.50
450.65	6176.67
450.83	6061.99
451.02	6193.06
451.20	6216.46
451.39	6064.33
451.57	6225.82
451.76	6216.46
451.94	6317.11
452.13	6317.11
452.31	6356.90
452.49	6029.22
452.68	6209.44
452.86	6387.32
453.05	6345.19
453.23	6555.84
453.42	6436.47
453.60	6380.30
453.78	6382.64
453.97	6417.75
454.15	6441.15
454.34	6525.41
454.52	6619.04
454.70	6572.22
454.89	6583.93
455.07	6768.83
455.26	6616.69
455.44	6960.75
455.62	6619.04
455.81	6839.05
455.99	6778.19
456.17	6932.67
456.36	6815.64
456.54	6927.99
456.73	6935.01
456.91	7150.34
457.09	6995.86
457.28	7021.61
457.46	6895.22
457.64	7180.76
457.83	7178.42
458.01	7119.91
458.19	7229.91
458.38	7016.93
458.56	7470.99
458.74	7344.60
458.93	7185.44
459.11	7236.94
459.29	7255.66
459.48	7208.85
459.66	7232.26
459.84	7410.14
460.03	7564.61
460.21	7501.42
460.39	7386.73
460.57	7562.27
460.76	7623.12
460.94	7602.06
461.12	7536.52
461.31	7564.61
461.49	7700.36
461.67	7548.23
461.85	7948.46
462.04	7695.68
462.22	8365.07
462.40	7985.91
462.59	7719.09
462.77	7845.48
462.95	7875.90
463.13	7751.85
463.32	7847.82
463.50	8088.89
463.68	7969.52
463.86	8058.46
464.05	7751.85
464.23	7913.35
464.41	8063.15
464.59	8121.66
464.78	8224.64
464.96	7894.63
465.14	8044.42
465.32	8077.19
465.50	8180.17
465.69	8166.13
465.87	8030.38
466.05	8170.81
466.23	8135.70
466.41	8454.02
466.60	8395.50
466.78	8119.32
466.96	8318.26
467.14	8416.57
467.32	8170.81
467.51	8505.51
467.69	8065.49
467.87	8418.91
468.05	8615.51
468.23	8435.29
468.41	8468.06
468.60	8505.51
468.78	8669.34
468.96	8531.25
469.14	8779.35
469.32	8798.07
469.50	8573.38
469.69	8620.19
469.87	8695.09
470.05	8704.45
470.23	8954.89
470.41	8926.80
470.59	9055.53
470.77	8875.31
470.95	8884.67
471.14	9221.71
471.32	8833.18
471.50	9013.40
471.68	9036.81
471.86	9439.38
472.04	9198.31
472.22	9511.94
472.40	9210.01
472.58	9376.19
472.77	9394.91
472.95	9352.78
473.13	9804.50
473.31	9486.19
473.49	9657.05
473.67	9544.70
473.85	9745.99
474.03	9504.92
474.21	9792.80
474.39	9760.03
474.57	9830.25
474.75	9900.47
474.93	9980.04
475.12	9968.34
475.30	10160.27
475.48	9788.12
475.66	10083.03
475.84	10218.78
476.02	10300.70
476.20	10221.12
476.38	10560.50
476.56	10649.44
476.74	10628.37
476.92	10403.68
477.10	10520.71
477.28	10729.02
477.46	10967.75
477.64	10787.53
477.82	11073.07
478.00	11410.11
478.18	11075.42
478.36	11229.89
478.54	11524.80
478.72	11480.33
478.90	11438.20
479.08	11737.79
479.26	11620.76
479.44	11531.82
479.62	11765.87
479.80	11702.68
479.98	12018.65
480.16	12566.34
480.34	12070.14
480.52	11978.86
480.70	12432.93
480.88	12411.86
481.06	12545.27
481.24	12638.89
481.41	12666.98
481.59	13071.89
481.77	12987.63
481.95	12863.58
482.13	13018.06
482.31	13202.96
482.49	13481.49
482.67	13408.93
482.85	13619.58
483.03	13551.70
483.21	13694.47
483.39	13909.80
483.57	13640.64
483.74	14075.98
483.92	14239.82
484.10	14129.81
484.28	14579.20
484.46	14623.67
484.64	14630.69
484.82	14338.12
485.00	14806.23
485.18	15173.69
485.35	15190.08
485.53	15159.65
485.71	15075.39
485.89	15658.18
486.07	15332.85
486.25	15702.65
486.43	15599.67
486.61	15613.71
486.78	15917.98
486.96	16163.74
487.14	16320.56
487.32	16353.32
487.50	16395.45
487.68	16655.25
487.85	16650.57
488.03	17041.44
488.21	17270.81
488.39	16994.63
488.57	17158.47
488.75	17268.47
488.92	17341.03
489.10	17921.48
489.28	17706.15
489.46	17898.08
489.64	18160.22
489.81	18319.37
489.99	18284.26
490.17	18139.15
490.35	18625.98
490.53	18906.85
490.70	18747.69
490.88	18848.33
491.06	19190.05
491.24	18944.30
491.41	19206.44
491.59	19398.36
491.77	19126.86
491.95	19566.88
492.13	19697.95
492.30	19777.53
492.48	19964.77
492.66	20042.01
492.84	19955.41
493.01	20435.22
493.19	20273.72
493.37	20709.06
493.54	20678.63
493.72	20676.29
493.90	20800.34
494.08	20966.52
494.25	21139.72
494.43	21308.24
494.61	21544.63
494.79	21373.77
494.96	21102.27
495.14	21743.58
495.32	21865.28
495.49	21926.14
495.67	22010.40
495.85	22307.65
496.02	22405.95
496.20	22476.16
496.38	22651.70
496.55	22443.40
496.73	23297.69
496.91	22693.83
497.09	23115.13
497.26	23227.48
497.44	23316.42
497.62	23520.04
497.79	23676.86
497.97	23262.58
498.14	24006.87
498.32	23871.12
498.50	24130.92
498.67	24261.99
498.85	23955.38
499.03	24393.06
499.20	24280.72
499.38	24327.53
499.56	24725.42
499.73	24372.00
499.91	24746.48
500.08	25003.94
500.26	24638.82
500.44	25308.21
500.61	25050.75
500.79	25032.03
500.97	25266.08
501.14	25422.90
501.32	25516.52
501.49	25394.81
501.67	25954.20
501.84	26052.50
502.02	25989.31
502.20	25841.85
502.37	25907.39
502.55	26188.25
502.72	25893.35
502.90	26501.89
503.07	26216.34
503.25	26176.55
503.43	26328.69
503.60	26808.50
503.78	26363.79
503.95	26349.75
504.13	26962.97
504.30	27040.21
504.48	26710.19
504.65	26869.35
504.83	27243.84
505.01	27669.81
505.18	27566.83
505.36	27494.27
505.53	27480.23
505.71	27601.94
505.88	27651.09
506.06	27328.10
506.23	27878.12
506.41	27718.96
506.58	28065.36
506.76	27538.74
506.93	28201.11
507.11	28011.53
507.28	28418.78
507.46	28109.83
507.63	28481.98
507.81	28821.36
507.98	28474.96
508.16	28753.48
508.33	29078.82
508.50	29008.60
508.68	28907.96
508.85	29380.74
509.03	28699.65
509.20	29369.04
509.38	29567.99
509.55	29832.47
509.73	29556.28
509.90	29488.41
510.08	29771.61
510.25	29736.51
510.42	29961.20
510.60	30038.44
510.77	30277.17
510.95	30543.99
511.12	30361.43
511.30	30277.17
511.47	30506.54
511.64	30859.96
511.82	30499.52
511.99	30766.34
512.17	30939.54
512.34	30817.83
512.51	30913.80
512.69	31068.27
512.86	31187.64
513.04	31660.43
513.21	31400.63
513.38	31328.07
513.56	31489.57
513.73	31321.05
513.90	31367.86
514.08	31161.89
514.25	31498.93
514.43	31913.20
514.60	31622.98
514.77	31840.65
514.95	32222.16
515.12	32121.51
515.29	31943.63
515.47	31817.24
515.64	32395.35
515.81	32055.98
515.99	32655.15
516.16	32683.24
516.33	32355.57
516.51	32800.27
516.68	32526.42
516.85	32634.09
517.03	33214.54
517.20	33001.55
517.37	32765.16
517.54	33228.59
517.72	33439.23
517.89	33263.69
518.06	33544.56
518.24	33207.52
518.41	33074.11
518.58	33542.22
518.75	33472.00
518.93	33930.75
519.10	33727.12
519.27	33551.58
519.45	33785.63
519.62	34155.44
519.79	34164.80
519.96	34092.24
520.14	33970.54
520.31	33858.19
520.48	34019.69
520.65	34267.78
520.83	34600.14
521.00	35077.61
521.17	34600.14
521.34	34616.52
521.52	34913.77
521.69	34890.37
521.86	34780.36
522.03	34766.32
522.20	35119.74
522.38	35342.09
522.55	35171.23
522.72	35374.86
522.89	35360.81
523.07	35751.68
523.24	35201.66
523.41	36140.21
523.58	35866.37
523.75	35833.60
523.92	35817.22
524.10	35866.37
524.27	35971.69
524.44	35889.77
524.61	36046.59
524.78	36154.26
524.96	36608.32
525.13	36830.67
525.30	35983.40
525.47	36488.95
525.64	36421.08
525.81	36753.43
525.98	36563.85
526.16	36755.77
526.33	36697.26
526.50	36804.92
526.67	36563.85
526.84	37076.43
527.01	37053.02
527.18	36973.44
527.36	37205.16
527.53	37373.67
527.70	37706.03
527.87	37633.47
528.04	37205.16
528.21	37411.12
528.38	37771.57
528.55	38101.58
528.72	37500.06
528.89	37827.74
529.07	37446.23
529.24	37209.84
529.41	38206.90
529.58	37605.39
529.75	38080.52
529.92	37858.17
530.09	38080.52
530.26	37961.15
530.43	37862.85
530.60	37584.32
530.77	38054.77
530.94	38061.79
531.11	37926.04
531.28	38019.66
531.46	38464.36
531.63	38492.45
531.80	38253.72
531.97	38836.51
532.14	38515.86
532.31	38672.67
532.48	38796.72
532.65	39384.19
532.82	39089.29
532.99	38988.64
533.16	38667.99
533.33	39089.29
533.50	39501.22
533.67	39058.86
533.84	39166.52
534.01	39253.12
534.18	39159.50
534.35	39349.09
534.52	39461.43
534.69	39283.55
534.86	39370.15
535.03	39798.47
535.20	39625.27
535.37	39529.31
535.54	39461.43
535.71	39945.92
535.88	39896.77
536.05	40163.59
536.22	40100.40
536.38	39838.26
536.55	39782.09
536.72	40032.52
536.89	39772.72
537.06	40458.50
537.23	40594.25
537.40	39974.01
537.57	40175.30
537.74	40282.96
537.91	40627.02
538.08	40495.95
538.25	40252.53
538.42	40718.30
538.59	40837.67
538.75	40896.18
538.92	41060.02
539.09	41289.39
539.26	40964.06
539.43	40907.88
539.60	41022.57
539.77	40973.42
539.94	41483.66
540.11	41184.07
540.28	41448.55
540.44	41322.16
540.61	41331.52
540.78	40769.79
540.95	41588.98
541.12	41392.37
541.29	41404.08
541.46	41497.70
541.62	40933.63
541.79	41546.85
541.96	41244.92
542.13	41521.10
542.30	41645.15
542.47	41794.95
542.63	41633.45
542.80	41731.75
542.97	42197.52
543.14	42387.10
543.31	42387.10
543.48	41853.46
543.64	42398.80
543.81	42555.62
543.98	41958.78
544.15	42436.25
544.32	42443.27
544.48	42859.89
544.65	42623.50
544.82	42712.44
544.99	42281.78
545.16	42656.26
545.32	42529.87
545.49	43037.77
545.66	43253.10
545.83	42981.60
546.00	43131.39
546.16	43037.77
546.33	42717.12
546.50	42492.43
546.67	42953.51
546.83	42682.01
547.00	42583.71
547.17	42677.33
547.34	42738.18
547.50	43416.94
547.67	43505.88
547.84	43227.35
548.00	43274.16
548.17	43508.22
548.34	43990.37
548.51	43716.53
548.67	43496.52
548.84	43524.60
549.01	43845.26
549.18	43468.43
549.34	43386.51
549.51	43304.59
549.68	44243.15
549.84	43501.20
550.01	43833.55
550.18	43660.35
550.34	43927.17
550.51	43852.28
550.68	44151.87
550.84	43852.28
551.01	44142.50
551.18	44128.46
551.34	44112.08
551.51	44210.38
551.68	44032.50
551.84	43807.81
552.01	44182.29
552.18	44493.58
552.34	43920.15
552.51	44285.28
552.68	44020.80
552.84	44332.09
553.01	44289.96
553.18	44392.94
553.34	44912.54
553.51	44329.75
553.67	45045.95
553.84	44596.57
554.01	44959.35
554.17	44472.52
554.34	45139.57
554.51	44760.40
554.67	45050.63
554.84	45343.20
555.00	44795.51
555.17	44486.56
555.33	45230.85
555.50	44505.29
555.67	45081.06
555.83	45340.86
556.00	45216.81
556.16	45720.02
556.33	45581.93
556.50	45024.89
556.66	45406.39
556.83	45120.85
556.99	45949.40
557.16	45282.34
557.32	45633.42
557.49	45214.47
557.65	45235.53
557.82	45003.82
557.98	45696.62
558.15	45808.96
558.32	45813.65
558.48	45460.23
558.65	45521.08
558.81	45720.02
558.98	45647.47
559.14	45280.00
559.31	45478.95
559.47	45769.18
559.64	45584.27
559.80	46050.04
559.97	45722.37
560.13	45476.61
560.30	45469.59
560.46	45918.97
560.63	46478.36
560.79	46157.70
560.96	46157.70
561.12	46033.66
561.29	45935.35
561.45	46258.35
561.61	46000.89
561.78	46192.81
561.94	46096.85
562.11	46003.23
562.27	46246.65
562.44	46014.93
562.60	46466.66
562.77	46113.23
562.93	45900.25
563.10	46515.81
563.26	46225.58
563.42	46845.82
563.59	45853.44
563.75	46108.55
563.92	46452.61
564.08	46066.42
564.24	46571.98
564.41	46155.36
564.57	45972.80
564.74	46646.88
564.90	46520.49
565.07	46508.79
565.23	46445.59
565.39	46471.34
565.56	46684.33
565.72	46539.21
565.88	46494.74
566.05	46263.03
566.21	46358.99
566.38	46522.83
566.54	46822.42
566.70	46518.15
566.87	46590.70
567.03	46480.70
567.19	46787.31
567.36	46398.78
567.52	46721.77
567.68	46801.35
567.85	46976.89
568.01	46784.97
568.17	46775.61
568.34	47019.02
568.50	46941.78
568.66	46658.58
568.83	46827.10
568.99	47009.66
569.15	47016.68
569.32	46855.18
569.48	46871.57
569.64	47234.35
569.81	46885.61
569.97	46892.63
570.13	46876.25
570.30	46948.81
570.46	47281.16
570.62	47157.11
570.78	47189.88
570.95	47042.43
571.11	47309.25
571.27	46911.36
571.43	47107.96
571.60	46981.57
571.76	46894.97
571.92	47051.79
572.09	47173.50
572.25	47124.35
572.41	46756.88
572.57	46986.25
572.74	47845.23
572.90	46909.02
573.06	47253.08
573.22	47414.57
573.38	47388.83
573.55	47402.87
573.71	47547.98
573.87	47316.27
574.03	47056.47
574.20	47311.59
574.36	47388.83
574.52	47304.57
574.68	47250.74
574.84	47320.95
575.01	47358.40
575.17	47569.05
575.33	47400.53
575.49	47203.92
575.65	47533.94
575.82	47730.54
575.98	47213.29
576.14	47798.42
576.30	47674.37
576.46	47491.81
576.62	47236.69
576.79	47056.47
576.95	46946.47
577.11	47498.83
577.27	47356.06
577.43	47353.72
577.59	47103.28
577.75	47395.85
577.92	47339.68
578.08	47255.42
578.24	47463.72
578.40	47730.54
578.56	47576.07
578.72	47452.02
578.88	47260.10
579.04	47555.00
579.21	47620.54
579.37	47583.09
579.53	47899.06
579.69	47304.57
579.85	47498.83
580.01	47498.83
580.17	47145.41
580.33	47725.86
580.49	47585.43
580.65	47709.48
580.82	47676.71
580.98	47241.37
581.14	47297.55
581.30	47473.09
581.46	47395.85
581.62	47264.78
581.78	47086.90
581.94	47484.79
582.10	47292.86
582.26	47875.66
582.42	47449.68
582.58	47592.45
582.74	48046.52
582.90	47812.46
583.06	47716.50
583.22	47531.60
583.38	47234.35
583.54	47885.02
583.70	47868.64
583.86	47562.03
584.02	47728.20
584.18	47920.13
584.34	47796.08
584.50	47831.19
584.66	47995.03
584.82	47772.67
584.98	47739.91
585.14	47859.27
585.30	47421.59
585.46	47868.64
585.62	47870.98
585.78	47402.87
585.94	47215.63
586.10	47812.46
586.26	47445.00
586.42	47859.27
586.58	47929.49
586.74	47463.72
586.90	47505.85
587.06	47662.67
587.22	47826.51
587.38	47494.15
587.54	47812.46
587.70	48044.18
587.86	47882.68
588.02	47435.64
588.18	47779.70
588.34	47625.22
588.49	47875.66
588.65	47856.93
588.81	47622.88
588.97	47913.11
589.13	47903.74
589.29	47772.67
589.45	48322.70
589.61	48105.03
589.77	47927.15
589.93	47702.46
590.08	48292.27
