SpectraSuite Data File
++++++++++++++++++++++++++++++++++++
Date: Fri Oct 25 11:23:22 EDT 2013
User: price-jones
Dark Spectrum Present: No
Reference Spectrum Present: No
Number of Sampled Component Spectra: 1
Spectrometers: USB2+H05261
Integration Time (usec): 100000 (USB2+H05261)
Spectra Averaged: 1 (USB2+H05261)
Boxcar Smoothing: 0 (USB2+H05261)
Correct for Electrical Dark: No (USB2+H05261)
Strobe/Lamp Enabled: No (USB2+H05261)
Correct for Detector Non-linearity: No (USB2+H05261)
Correct for Stray Light: No (USB2+H05261)
Number of Pixels in Processed Spectrum: 2048
>>>>>Begin Processed Spectral Data<<<<<
365.73	250.44
365.92	250.44
366.12	250.44
366.32	163.84
366.52	84.26
366.72	159.16
366.91	117.03
367.11	81.92
367.31	67.88
367.51	42.13
367.70	156.82
367.90	168.52
368.10	88.94
368.30	170.86
368.49	138.09
368.69	170.86
368.89	196.60
369.09	159.16
369.28	149.79
369.48	86.60
369.68	161.50
369.87	210.65
370.07	201.29
370.27	224.69
370.47	348.74
370.66	608.54
370.86	634.29
371.06	720.88
371.25	655.35
371.45	568.75
371.65	657.69
371.84	725.57
372.04	641.31
372.24	678.76
372.44	720.88
372.63	746.63
372.83	706.84
373.03	765.36
373.22	711.52
373.42	816.85
373.62	830.89
373.81	737.27
374.01	842.59
374.21	851.96
374.40	821.53
374.60	889.40
374.79	774.72
374.99	851.96
375.19	812.17
375.38	891.74
375.58	936.21
375.78	826.21
375.97	896.43
376.17	896.43
376.37	898.77
376.56	870.68
376.76	854.30
376.95	795.78
377.15	844.93
377.35	898.77
377.54	903.45
377.74	994.73
377.93	877.70
378.13	858.98
378.33	901.11
378.52	915.15
378.72	954.94
378.91	917.49
379.11	1043.88
379.31	901.11
379.50	936.21
379.70	1013.45
379.89	1011.11
380.09	936.21
380.28	964.30
380.48	943.24
380.68	1008.77
380.87	997.07
381.07	1060.26
381.26	1057.92
381.46	1062.60
381.65	1043.88
381.85	987.71
382.04	1116.44
382.24	1008.77
382.43	1018.13
382.63	1090.69
382.83	1053.24
383.02	1088.35
383.22	1069.62
383.41	1097.71
383.61	1130.48
383.80	1158.57
384.00	1160.91
384.19	1069.62
384.39	1160.91
384.58	1193.67
384.78	1104.73
384.97	1107.07
385.17	1139.84
385.36	1102.39
385.56	1219.42
385.75	1144.52
385.95	1149.20
386.14	1142.18
386.34	1163.25
386.53	1093.03
386.72	1123.46
386.92	1203.04
387.11	1121.12
387.31	1207.72
387.50	1254.53
387.70	1331.76
387.89	1231.12
388.09	1266.23
388.28	1261.55
388.48	1231.12
388.67	1261.55
388.86	1306.02
389.06	1320.06
389.25	1291.98
389.45	1277.93
389.64	1345.81
389.84	1357.51
390.03	1334.11
390.22	1418.36
390.42	1308.36
390.61	1334.11
390.81	1488.58
391.00	1411.34
391.19	1451.13
391.39	1387.94
391.58	1455.81
391.78	1458.15
391.97	1490.92
392.16	1439.43
392.36	1493.26
392.55	1427.73
392.75	1514.33
392.94	1549.43
393.13	1488.58
393.33	1507.30
393.52	1540.07
393.71	1500.28
393.91	1521.35
394.10	1631.35
394.29	1572.84
394.49	1556.46
394.68	1643.06
394.88	1624.33
395.07	1607.95
395.26	1568.16
395.46	1682.85
395.65	1650.08
395.84	1769.44
396.04	1703.91
396.23	1764.76
396.42	1811.57
396.62	1694.55
396.81	1743.70
397.00	1729.66
397.19	1909.88
397.39	1813.92
397.58	1809.23
397.77	1783.49
397.97	1872.43
398.16	1827.96
398.35	1930.94
398.55	1879.45
398.74	1872.43
398.93	1874.77
399.12	1928.60
399.32	1799.87
399.51	1933.28
399.70	1895.83
399.90	1940.30
400.09	1968.39
400.28	2054.99
400.47	2132.23
400.67	2104.14
400.86	2197.76
401.05	2118.18
401.24	2190.74
401.44	2272.66
401.63	2160.31
401.82	2040.95
402.01	2029.24
402.21	2108.82
402.40	2160.31
402.59	2202.44
402.78	2291.38
402.97	2253.94
403.17	2263.30
403.36	2207.13
403.55	2296.07
403.74	2265.64
403.93	2286.70
404.13	2434.16
404.32	2370.96
404.51	2312.45
404.70	2424.80
404.89	2340.54
405.09	2443.52
405.28	2506.71
405.47	2450.54
405.66	2387.35
405.85	2530.12
406.05	2553.52
406.24	2534.80
406.43	2518.42
406.62	2628.42
406.81	2729.06
407.00	2661.19
407.20	2670.55
407.39	2602.68
407.58	2628.42
407.77	2754.81
407.96	2658.85
408.15	2768.85
408.34	2696.30
408.54	2759.49
408.73	2745.45
408.92	2946.73
409.11	2768.85
409.30	2928.01
409.49	2977.16
409.68	2862.48
409.87	2871.84
410.07	2984.18
410.26	2939.71
410.45	3026.31
410.64	3028.65
410.83	3101.21
411.02	3138.66
411.21	3204.19
411.40	3194.83
411.59	3215.90
411.78	3183.13
411.98	3133.98
412.17	3349.31
412.36	3281.43
412.55	3349.31
412.74	3304.84
412.93	3492.08
413.12	3424.20
413.31	3637.19
413.50	3478.04
413.69	3459.31
413.88	3571.66
414.07	3468.67
414.26	3552.93
414.45	3606.77
414.64	3751.88
414.83	3707.41
415.02	3808.05
415.22	3896.99
415.41	3920.40
415.60	3875.93
415.79	3833.80
415.98	3992.95
416.17	3941.46
416.36	3943.80
416.55	3913.38
416.74	4147.43
416.93	4067.85
417.12	4051.47
417.31	4339.35
417.50	4084.23
417.69	4332.33
417.88	4346.37
418.07	4196.58
418.26	4346.37
418.45	4381.48
418.64	4444.68
418.83	4507.87
419.02	4449.36
419.21	4542.98
419.39	4531.28
419.58	4540.64
419.77	4533.62
419.96	4608.51
420.15	4510.21
420.34	4498.51
420.53	4550.00
420.72	4608.51
420.91	4690.43
421.10	4755.97
421.29	4753.63
421.48	4765.33
421.67	4844.91
421.86	4758.31
422.05	4770.01
422.24	4898.74
422.43	4777.03
422.61	4910.44
422.80	4926.83
422.99	4978.32
423.18	4931.51
423.37	5020.45
423.56	4894.06
423.75	4968.96
423.94	4805.12
424.13	4585.11
424.32	4652.98
424.50	5088.32
424.69	4919.81
424.88	5191.31
425.07	4947.89
425.26	4880.02
425.45	4901.08
425.64	4950.23
425.83	5060.24
426.01	4938.53
426.20	5011.09
426.39	5006.41
426.58	5039.17
426.77	5039.17
426.96	5256.84
427.15	5193.65
427.33	5362.17
427.52	5219.39
427.71	5149.18
427.90	5224.08
428.09	5392.59
428.28	5467.49
428.46	5324.72
428.65	5334.08
428.84	5537.71
429.03	5378.55
429.22	5362.17
429.40	5439.40
429.59	5500.26
429.78	5256.84
429.97	5350.46
430.16	5462.81
430.34	5603.24
430.53	5706.23
430.72	5584.52
430.91	5654.73
431.10	5570.48
431.28	5837.30
431.47	5748.36
431.66	5834.96
431.85	5813.89
432.03	5998.79
432.22	5951.98
432.41	5942.62
432.60	5823.25
432.79	5907.51
432.97	6090.07
433.16	6139.23
433.35	6003.47
433.54	6155.61
433.72	6040.92
433.91	6015.18
434.10	6193.06
434.28	6104.12
434.47	6366.26
434.66	6406.05
434.85	6237.53
435.03	6420.09
435.22	6113.48
435.41	6462.22
435.59	6520.73
435.78	6473.92
435.97	6499.67
436.16	6448.18
436.34	6436.47
436.53	6396.68
436.72	6616.69
436.90	6434.13
437.09	6696.27
437.28	6523.07
437.46	6693.93
437.65	6750.10
437.84	6663.51
438.02	6780.53
438.21	6860.11
438.40	6719.68
438.58	7042.67
438.77	7026.29
438.96	7098.84
439.14	7126.93
439.33	7236.94
439.52	7094.16
439.70	7066.08
439.89	7452.27
440.08	7279.07
440.26	7375.03
440.45	7391.41
440.63	7543.55
440.82	7676.96
441.01	7744.83
441.19	7679.30
441.38	7721.43
441.57	7740.15
441.75	7826.75
441.94	7981.23
442.12	7826.75
442.31	8011.65
442.50	7955.48
442.68	7920.37
442.87	8128.68
443.05	8210.60
443.24	8278.47
443.43	8315.92
443.61	8184.85
443.80	8493.80
443.98	8175.49
444.17	7833.77
444.35	8334.65
444.54	8322.94
444.73	8407.20
444.91	8196.56
445.10	8355.71
445.28	8393.16
445.47	8346.35
445.65	8332.31
445.84	8531.25
446.02	8519.55
446.21	8304.22
446.39	8365.07
446.58	8486.78
446.77	8477.42
446.95	8320.60
447.14	8606.15
447.32	8564.02
447.51	8519.55
447.69	8624.87
447.88	8451.67
448.06	8528.91
448.25	8678.71
448.43	8685.73
448.62	8624.87
448.80	8587.43
448.99	8739.56
449.17	8774.67
449.36	8704.45
449.54	8933.82
449.73	8975.95
449.91	8912.76
450.10	8851.91
450.28	9095.32
450.46	9193.62
450.65	9132.77
450.83	9202.99
451.02	9001.70
451.20	9193.62
451.39	9432.36
451.57	9210.01
451.76	9025.11
451.94	9184.26
452.13	9420.66
452.31	9205.33
452.49	9249.80
452.68	9228.73
452.86	9373.85
453.05	9369.16
453.23	9481.51
453.42	9371.50
453.60	9338.74
453.78	9680.46
453.97	9415.98
454.15	9666.41
454.34	9303.63
454.52	9776.42
454.70	9741.31
454.89	9624.28
455.07	9724.93
455.26	9830.25
455.44	9991.75
455.62	9790.46
455.81	9827.91
455.99	10188.35
456.17	10019.83
456.36	9963.66
456.54	10108.77
456.73	10148.56
456.91	10691.57
457.09	10427.09
457.28	10459.85
457.46	10314.74
457.64	10565.18
457.83	10597.95
458.01	10452.83
458.19	10881.15
458.38	10565.18
458.56	10761.78
458.74	10677.52
458.93	10839.02
459.11	10836.68
459.29	10693.91
459.48	10752.42
459.66	10743.06
459.84	10906.90
460.03	11220.53
460.21	11117.54
460.39	11061.37
460.57	11073.07
460.76	11164.36
460.94	11204.14
461.12	11243.93
461.31	11159.67
461.49	11077.76
461.67	11307.13
461.85	11452.24
462.04	11494.37
462.22	11653.53
462.40	11815.02
462.59	11419.47
462.77	11536.50
462.95	11667.57
463.13	11623.10
463.32	11751.83
463.50	11793.96
463.68	11730.76
463.86	11997.59
464.05	11817.36
464.23	11709.70
464.41	11782.26
464.59	11744.81
464.78	12170.79
464.96	12049.08
465.14	12219.94
465.32	12002.27
465.50	12088.87
465.69	12313.56
465.87	12243.34
466.05	12390.80
466.23	12245.68
466.41	12109.93
466.60	12540.59
466.78	12276.11
466.96	12231.64
467.14	12250.36
467.32	12624.85
467.51	12524.21
467.69	12079.50
467.87	12341.64
468.05	12751.24
468.23	12486.76
468.41	12517.18
468.60	12699.75
468.78	12683.36
468.96	12821.45
469.14	12795.71
469.32	13027.42
469.50	12868.27
469.69	13085.94
469.87	13298.92
470.05	13099.98
470.23	13315.31
470.41	13032.10
470.59	13296.58
470.77	13212.32
470.95	13327.01
471.14	13694.47
471.32	13224.03
471.50	13806.82
471.68	13729.58
471.86	13699.16
472.04	13963.64
472.22	14174.28
472.40	13830.23
472.58	14001.08
472.77	14090.02
472.95	14321.74
473.13	14499.62
473.31	13905.12
473.49	14267.91
473.67	14040.87
473.85	14265.57
474.03	14689.20
474.21	14810.91
474.39	14946.66
474.57	14672.82
474.75	14937.30
474.93	15452.22
475.12	14899.85
475.30	15300.08
475.48	15169.01
475.66	15150.29
475.84	15346.89
476.02	15529.45
476.20	15283.70
476.38	15421.79
476.56	16016.29
476.74	16142.67
476.92	16222.25
477.10	16123.95
477.28	16032.67
477.46	16191.83
477.64	16435.24
477.82	16774.62
478.00	16858.88
478.18	16833.13
478.36	17422.95
478.54	17170.17
478.72	16868.24
478.90	17549.34
479.08	17607.85
479.26	17858.29
479.44	17891.06
479.62	17708.49
479.80	17994.04
479.98	18504.28
480.16	18780.46
480.34	18155.54
480.52	18714.92
480.70	18539.38
480.88	18434.06
481.06	18677.48
481.24	18857.70
481.41	18934.93
481.59	19506.02
481.77	19531.77
481.95	19578.58
482.13	19946.05
482.31	19733.06
482.49	20152.01
482.67	20402.45
482.85	20655.23
483.03	20638.84
483.21	20690.34
483.39	21371.43
483.57	21013.33
483.74	21092.91
483.92	21432.29
484.10	21289.51
484.28	21638.25
484.46	21996.35
484.64	22628.30
484.82	22094.66
485.00	22384.88
485.18	22815.54
485.35	23049.60
485.53	22951.29
485.71	22822.56
485.89	23672.18
486.07	23311.74
486.25	23489.62
486.43	24016.24
486.61	24070.07
486.78	24280.72
486.96	24437.53
487.14	24615.41
487.32	24322.85
487.50	24929.05
487.68	24889.26
487.85	25336.30
488.03	25465.03
488.21	26026.76
488.39	25933.14
488.57	26349.75
488.75	26478.48
488.92	26766.37
489.10	27080.00
489.28	26881.05
489.46	26974.67
489.64	27068.30
489.81	28231.54
489.99	27967.06
490.17	27946.00
490.35	28268.99
490.53	28470.28
490.70	28645.82
490.88	28257.29
491.06	28753.48
491.24	29064.77
491.41	29294.14
491.59	29378.40
491.77	29598.41
491.95	29762.25
492.13	29759.91
492.30	29996.31
492.48	30160.14
492.66	30309.94
492.84	30225.68
493.01	30691.44
493.19	30927.84
493.37	31199.34
493.54	31480.21
493.72	31442.76
493.90	31393.61
494.08	31646.38
494.25	32187.05
494.43	32088.74
494.61	32404.72
494.79	32479.61
494.96	32582.60
495.14	32933.68
495.32	33488.38
495.49	33216.88
495.67	33556.26
495.85	33790.31
496.02	33879.25
496.20	34167.14
496.38	33968.19
496.55	34155.44
496.73	34822.49
496.91	34555.67
497.09	35274.21
497.26	35098.67
497.44	35353.79
497.62	35438.05
497.79	35976.37
497.97	35784.45
498.14	36273.62
498.32	36243.20
498.50	36261.92
498.67	36498.31
498.85	36697.26
499.03	37226.22
499.20	36943.02
499.38	37172.39
499.56	37371.33
499.73	37483.68
499.91	37579.64
500.08	37570.28
500.26	37598.37
500.44	37954.13
500.61	38213.93
500.79	38040.73
500.97	38188.18
501.14	38885.66
501.32	38600.12
501.49	38719.48
501.67	39068.22
501.84	39276.53
502.02	38677.35
502.20	39276.53
502.37	39835.92
502.55	39257.81
502.72	39239.08
502.90	39723.57
503.07	39676.76
503.25	40182.32
503.43	40105.08
503.60	40198.70
503.78	40189.34
503.95	40224.45
504.13	40928.95
504.30	40769.79
504.48	40912.56
504.65	41191.09
504.83	40942.99
505.01	41357.27
505.18	41326.84
505.36	41820.69
505.53	41539.83
505.71	41570.25
505.88	41860.48
506.06	41467.27
506.23	42300.50
506.41	42150.71
506.58	42480.72
506.76	42494.77
506.93	42653.92
507.11	42572.00
507.28	42459.66
507.46	42801.38
507.63	43136.07
507.81	43468.43
507.98	43330.34
508.16	43461.41
508.33	43761.00
508.50	44062.93
508.68	43676.74
508.85	44154.21
509.03	44161.23
509.20	43917.81
509.38	44399.96
509.55	44322.72
509.73	44348.47
509.90	44638.70
510.08	44678.49
510.25	45170.00
510.42	44849.35
510.60	45088.08
510.77	45127.87
510.95	45553.85
511.12	45265.96
511.30	45572.57
511.47	45542.14
511.64	45675.55
511.82	45867.48
511.99	45897.91
512.17	46483.04
512.34	46061.74
512.51	46461.97
512.69	46260.69
512.86	46653.90
513.04	47194.56
513.21	46504.10
513.38	46906.68
513.56	46993.28
513.73	47040.09
513.90	46883.27
514.08	47065.83
514.25	47234.35
514.43	47288.18
514.60	47592.45
514.77	47779.70
514.95	47608.84
515.12	47597.13
515.29	48086.31
515.47	47999.71
515.64	48519.31
515.81	48123.75
515.99	48435.05
516.16	48641.01
516.33	48601.22
516.51	48999.12
516.68	48875.07
516.85	48463.13
517.03	49074.01
517.20	49233.17
517.37	49375.94
517.54	49020.18
517.72	49064.65
517.89	49214.44
518.06	49373.60
518.24	49427.43
518.41	49446.16
518.58	49560.84
518.75	49478.92
518.93	49696.59
519.10	49944.69
519.27	49610.00
519.45	49986.82
519.62	50071.08
519.79	50335.56
519.96	50225.56
520.14	50204.49
520.31	50000.86
520.48	50824.73
520.65	50539.19
520.83	51121.98
521.00	50827.07
521.17	50653.87
521.34	50901.97
521.52	50930.06
521.69	50887.93
521.86	51220.28
522.03	51250.71
522.20	51419.23
522.38	51641.58
522.55	51494.13
522.72	51601.79
522.89	51316.25
523.07	51735.20
523.24	51583.07
523.41	51739.88
523.58	51517.53
523.75	52261.82
523.92	51810.10
524.10	52039.47
524.27	52168.20
524.44	52184.58
524.61	52240.76
524.78	52048.83
524.96	52250.12
525.13	52526.30
525.30	52809.51
525.47	52809.51
525.64	52575.45
525.81	53130.16
525.98	52900.79
526.16	52753.33
526.33	52865.68
526.50	53015.47
526.67	52842.27
526.84	52928.87
527.01	52973.34
527.18	53200.38
527.36	53258.89
527.53	53499.97
527.70	53497.62
527.87	53619.33
528.04	53090.37
528.21	53392.30
528.38	53422.73
528.55	53677.85
528.72	53602.95
528.89	53757.42
529.07	53794.87
529.24	53598.27
529.41	53972.75
529.58	54026.59
529.75	53890.83
529.92	54078.08
530.09	54005.52
530.26	53968.07
530.43	54295.75
530.60	54064.03
530.77	54031.27
530.94	54108.50
531.11	53834.66
531.28	54234.89
531.46	54525.12
531.63	54614.06
531.80	54319.15
531.97	54490.01
532.14	54787.26
532.31	54532.14
532.48	54719.38
532.65	54805.98
532.82	54660.87
532.99	54688.96
533.16	54878.54
533.33	54801.30
533.50	54965.14
533.67	55035.36
533.84	54930.03
534.01	55061.10
534.18	55058.76
534.35	55234.30
534.52	55196.85
534.69	55370.05
534.86	55346.65
535.03	55269.41
535.20	55491.76
535.37	55571.34
535.54	55395.80
535.71	55180.47
535.88	55639.22
536.05	55606.45
536.22	55826.46
536.38	55660.28
536.55	55458.99
536.72	55653.26
536.89	55524.53
537.06	56039.45
537.23	56083.92
537.40	55810.07
537.57	56051.15
537.74	56055.83
537.91	56142.43
538.08	56055.83
538.25	55838.16
538.42	55959.87
538.59	56374.14
538.75	56259.46
538.92	55920.08
539.09	56219.67
539.26	56336.69
539.43	56385.85
539.60	56217.33
539.77	56219.67
539.94	56376.48
540.11	56437.34
540.28	56535.64
540.44	56772.03
540.61	56643.30
540.78	56287.54
540.95	56413.93
541.12	56612.88
541.29	56594.15
541.46	56631.60
541.62	56797.78
541.79	56706.50
541.96	56430.32
542.13	56767.35
542.30	56896.08
542.47	56823.53
542.63	57106.73
542.80	57020.13
542.97	57237.80
543.14	57338.44
543.31	57298.65
543.48	57441.43
543.64	57523.35
543.81	57654.42
543.98	57296.31
544.15	57265.89
544.32	57528.03
544.48	57598.24
544.65	57474.20
544.82	57729.31
544.99	57766.76
545.16	57600.58
545.32	57492.92
545.49	58012.52
545.66	57799.53
545.83	57923.58
546.00	57958.69
546.16	57567.82
546.33	57771.44
546.50	57429.72
546.67	57780.81
546.83	57654.42
547.00	57914.22
547.17	57968.05
547.34	57813.57
547.50	58056.99
547.67	58354.24
547.84	58094.44
548.00	58188.06
548.17	58387.00
548.34	58166.99
548.51	58291.04
548.67	58342.53
548.84	58302.74
549.01	58340.19
549.18	58415.09
549.34	58438.50
549.51	58293.38
549.68	58328.49
549.84	58436.16
550.01	58473.60
550.18	58550.84
550.34	58731.06
550.51	58609.35
550.68	58700.64
550.84	58417.43
551.01	58567.23
551.18	58635.10
551.34	58890.22
551.51	58808.30
551.68	58574.25
551.84	58857.45
552.01	58658.51
552.18	58726.38
552.34	58639.78
552.51	58747.45
552.68	58487.65
552.84	58717.02
553.01	59119.59
553.18	58852.77
553.34	58995.54
553.51	58887.88
553.67	58969.80
553.84	59199.17
554.01	59014.27
554.17	59140.66
554.34	59084.48
554.51	59082.14
554.67	59040.01
554.84	59114.91
555.00	59192.15
555.17	59023.63
555.33	58972.14
555.50	59217.89
555.67	59047.04
555.83	59213.21
556.00	59327.90
556.16	59524.50
556.33	59381.73
556.50	59302.15
556.66	59526.84
556.83	59302.15
556.99	59381.73
557.16	59564.29
557.32	59690.68
557.49	59636.85
557.65	59559.61
557.82	59625.15
557.98	59428.54
558.15	59489.40
558.32	59798.35
558.48	59327.90
558.65	59667.28
558.81	59524.50
558.98	59695.36
559.14	59938.78
559.31	59863.88
559.47	59873.24
559.64	59866.22
559.80	59767.92
559.97	59814.73
560.13	59721.11
560.30	59676.64
560.46	59725.79
560.63	59915.37
560.79	59847.50
560.96	59955.16
561.12	59962.18
561.29	59777.28
561.45	59985.59
561.61	59927.08
561.78	59917.71
561.94	59835.80
562.11	60044.10
562.27	60179.85
562.44	60121.34
562.60	59983.25
562.77	60095.60
562.93	60013.68
563.10	60210.28
563.26	59934.10
563.42	60210.28
563.59	60109.64
563.75	60090.91
563.92	60224.32
564.08	60214.96
564.24	60299.22
564.41	60381.14
564.57	60390.50
564.74	60271.14
564.90	60285.18
565.07	60175.17
565.23	60287.52
565.39	60259.43
565.56	60292.20
565.72	60140.07
565.88	60371.78
566.05	60154.11
566.21	60329.65
566.38	60271.14
566.54	60486.46
566.70	60678.39
566.87	60472.42
567.03	60093.25
567.19	60804.78
567.36	60397.52
567.52	60334.33
567.68	60729.88
567.85	60498.17
568.01	60552.00
568.17	60329.65
568.34	60329.65
568.50	60636.26
568.66	60470.08
568.83	60533.28
568.99	60247.73
569.15	60587.11
569.32	60491.15
569.48	60427.95
569.64	60743.92
569.81	60547.32
569.97	60537.96
570.13	60722.86
570.30	60552.00
570.46	60739.24
570.62	60807.12
570.78	60673.71
570.95	60776.69
571.11	60692.43
571.27	60470.08
571.43	60783.71
571.60	60818.82
571.76	60704.13
571.92	60736.90
572.09	60715.84
572.25	60753.29
572.41	60680.73
572.57	60605.83
572.74	60846.91
572.90	60736.90
573.06	60788.39
573.22	60867.97
573.38	60718.18
573.55	60776.69
573.71	61008.40
573.87	60823.50
574.03	60690.09
574.20	60774.35
574.36	60687.75
574.52	60722.86
574.68	60793.07
574.84	60945.21
575.01	60636.26
575.17	60872.65
575.33	60727.54
575.49	60673.71
575.65	60896.06
575.82	60968.61
575.98	60832.86
576.14	61120.75
576.30	60985.00
576.46	60856.27
576.62	60830.52
576.79	60685.41
576.95	60669.03
577.11	61048.19
577.27	61052.87
577.43	60893.72
577.59	60910.10
577.75	60931.17
577.92	60924.14
578.08	60933.51
578.24	61003.72
578.40	61315.01
578.56	60996.70
578.72	60893.72
578.88	61085.64
579.04	61137.13
579.21	61038.83
579.37	61256.50
579.53	61073.94
579.69	60807.12
579.85	60999.04
580.01	61109.05
580.17	61038.83
580.33	61048.19
580.49	60914.78
580.65	61055.21
580.82	61153.52
580.98	61087.98
581.14	60797.76
581.30	60942.87
581.46	61038.83
581.62	61034.15
581.78	60893.72
581.94	61066.92
582.10	61036.49
582.26	60893.72
582.42	60903.08
582.58	61174.58
582.74	61038.83
582.90	61216.71
583.06	61137.13
583.22	61055.21
583.38	61064.58
583.54	61015.43
583.70	61085.64
583.86	61057.56
584.02	60942.87
584.18	61209.69
584.34	61043.51
584.50	61036.49
584.66	61043.51
584.82	60919.46
584.98	61179.26
585.14	61113.73
585.30	60975.64
585.46	60938.19
585.62	61045.85
585.78	61307.99
585.94	60886.70
586.10	61205.01
586.26	61188.63
586.42	61087.98
586.58	61148.84
586.74	61132.45
586.90	61055.21
587.06	61069.26
587.22	61371.19
587.38	61345.44
587.54	61158.20
587.70	61499.92
587.86	61041.17
588.02	61120.75
588.18	61226.07
588.34	61249.48
588.49	61055.21
