SpectraSuite Data File
++++++++++++++++++++++++++++++++++++
Date: Fri Oct 25 10:43:14 EDT 2013
User: price-jones
Dark Spectrum Present: No
Reference Spectrum Present: No
Number of Sampled Component Spectra: 1
Spectrometers: USB2+H05261
Integration Time (usec): 100000 (USB2+H05261)
Spectra Averaged: 1 (USB2+H05261)
Boxcar Smoothing: 0 (USB2+H05261)
Correct for Electrical Dark: No (USB2+H05261)
Strobe/Lamp Enabled: No (USB2+H05261)
Correct for Detector Non-linearity: No (USB2+H05261)
Correct for Stray Light: No (USB2+H05261)
Number of Pixels in Processed Spectrum: 2048
>>>>>Begin Processed Spectral Data<<<<<
365.73	131.07
365.92	131.07
366.12	131.07
366.32	60.85
366.52	0.00
366.72	77.24
366.91	28.09
367.11	30.43
367.31	0.00
367.51	0.00
367.70	25.75
367.90	42.13
368.10	28.09
368.30	21.06
368.49	46.81
368.69	70.22
368.89	49.15
369.09	23.41
369.28	37.45
369.48	4.68
369.68	81.92
369.87	95.96
370.07	93.62
370.27	126.39
370.47	231.71
370.66	418.96
370.86	433.00
371.06	456.40
371.25	454.06
371.45	430.66
371.65	440.02
371.84	416.62
372.04	472.79
372.24	437.68
372.44	491.51
372.63	519.60
372.83	458.74
373.03	489.17
373.22	564.07
373.42	479.81
373.62	521.94
373.81	535.98
374.01	613.22
374.21	496.19
374.40	589.82
374.60	580.45
374.79	561.73
374.99	582.79
375.19	573.43
375.38	517.26
375.58	503.22
375.78	543.00
375.97	620.24
376.17	711.52
376.37	573.43
376.56	594.50
376.76	587.47
376.95	580.45
377.15	657.69
377.35	606.20
377.54	610.88
377.74	695.14
377.93	676.41
378.13	664.71
378.33	610.88
378.52	631.94
378.72	655.35
378.91	695.14
379.11	601.52
379.31	669.39
379.50	620.24
379.70	657.69
379.89	655.35
380.09	685.78
380.28	571.09
380.48	643.65
380.68	629.60
380.87	753.65
381.07	678.76
381.26	744.29
381.46	720.88
381.65	802.80
381.85	653.01
382.04	734.93
382.24	732.59
382.43	709.18
382.63	648.33
382.83	648.33
383.02	683.44
383.22	723.23
383.41	702.16
383.61	692.80
383.80	816.85
384.00	781.74
384.19	800.46
384.39	784.08
384.58	763.01
384.78	791.10
384.97	833.23
385.17	854.30
385.36	774.72
385.56	819.19
385.75	814.51
385.95	828.55
386.14	805.14
386.34	805.14
386.53	840.25
386.72	753.65
386.92	887.06
387.11	903.45
387.31	903.45
387.50	889.40
387.70	926.85
387.89	901.11
388.09	800.46
388.28	908.13
388.48	861.32
388.67	870.68
388.86	959.62
389.06	938.55
389.25	922.17
389.45	917.49
389.64	943.24
389.84	926.85
390.03	990.05
390.22	1034.52
390.42	1043.88
390.61	1004.09
390.81	994.73
391.00	990.05
391.19	1008.77
391.39	1050.90
391.58	987.71
391.78	1088.35
391.97	1086.01
392.16	1050.90
392.36	1036.86
392.55	959.62
392.75	1027.50
392.94	1018.13
393.13	894.08
393.33	1013.45
393.52	1048.56
393.71	1078.99
393.91	1053.24
394.10	1055.58
394.29	1224.10
394.49	1139.84
394.68	1184.31
394.88	1142.18
395.07	1235.80
395.26	1174.95
395.46	1228.78
395.65	1275.59
395.84	1231.12
396.04	1266.23
396.23	1165.59
396.42	1088.35
396.62	1181.97
396.81	1240.48
397.00	1242.82
397.19	1214.74
397.39	1245.16
397.58	1336.45
397.77	1331.76
397.97	1401.98
398.16	1462.83
398.35	1460.49
398.55	1427.73
398.74	1558.80
398.93	1533.05
399.12	1394.96
399.32	1465.18
399.51	1495.60
399.70	1621.99
399.90	1516.67
400.09	1610.29
400.28	1526.03
400.47	1657.10
400.67	1575.18
400.86	1640.72
401.05	1650.08
401.24	1734.34
401.44	1650.08
401.63	1629.01
401.82	1788.17
402.01	1708.59
402.21	1647.74
402.40	1739.02
402.59	1685.19
402.78	1724.97
402.97	1678.16
403.17	1806.89
403.36	1741.36
403.55	1799.87
403.74	1820.94
403.93	1937.96
404.13	1823.28
404.32	1952.01
404.51	1872.43
404.70	1884.13
404.89	1926.26
405.09	1970.73
405.28	1982.43
405.47	2015.20
405.66	1832.64
405.85	2043.29
406.05	2050.31
406.24	2015.20
406.43	2003.50
406.62	2050.31
406.81	2118.18
407.00	1959.03
407.20	2008.18
407.39	2017.54
407.58	2052.65
407.77	2047.97
407.96	2258.62
408.15	2209.47
408.34	2209.47
408.54	2305.43
408.73	2207.13
408.92	2319.47
409.11	2310.11
409.30	2314.79
409.49	2235.21
409.68	2139.25
409.87	2258.62
410.07	2312.45
410.26	2389.69
410.45	2438.84
410.64	2392.03
410.83	2408.41
411.02	2497.35
411.21	2534.80
411.40	2555.86
411.59	2630.76
411.78	2605.02
411.98	2413.09
412.17	2616.72
412.36	2750.13
412.55	2644.81
412.74	2668.21
412.93	2642.46
413.12	2715.02
413.31	2883.54
413.50	2855.45
413.69	2923.33
413.88	2984.18
414.07	2818.00
414.26	2899.92
414.45	2935.03
414.64	2970.14
414.83	3033.33
415.02	3030.99
415.22	3056.74
415.41	3138.66
415.60	3096.53
415.79	3136.32
415.98	3258.03
416.17	3213.56
416.36	3157.38
416.55	3197.17
416.74	3279.09
416.93	3272.07
417.12	3201.85
417.31	3286.11
417.50	3391.44
417.69	3412.50
417.88	3466.33
418.07	3414.84
418.26	3382.07
418.45	3461.65
418.64	3599.74
418.83	3681.66
419.02	3428.88
419.21	3658.26
419.39	3482.72
419.58	3485.06
419.77	3597.40
419.96	3684.00
420.15	3779.97
420.34	3698.05
420.53	3684.00
420.72	3810.39
420.91	3866.56
421.10	3808.05
421.29	3824.44
421.48	3761.24
421.67	3826.78
421.86	3733.15
422.05	3779.97
422.24	3791.67
422.43	3833.80
422.61	3836.14
422.80	3918.06
422.99	3882.95
423.18	3927.42
423.37	3950.82
423.56	3894.65
423.75	3911.04
423.94	3899.33
424.13	3599.74
424.32	3822.09
424.50	3950.82
424.69	3934.44
424.88	3894.65
425.07	3810.39
425.26	3950.82
425.45	3953.16
425.64	3889.97
425.83	3936.78
426.01	4131.05
426.20	4039.76
426.39	4011.68
426.58	3899.33
426.77	3810.39
426.96	3974.23
427.15	3950.82
427.33	4107.64
427.52	4032.74
427.71	4117.00
427.90	4021.04
428.09	4081.89
428.28	4280.84
428.46	4037.42
428.65	4088.92
428.84	4119.34
429.03	4215.30
429.22	4142.75
429.40	4121.68
429.59	4231.69
429.78	3794.01
429.97	3892.31
430.16	4030.40
430.34	4149.77
430.53	4121.68
430.72	4114.66
430.91	4283.18
431.10	4175.52
431.28	4447.02
431.47	4500.85
431.66	4610.86
431.85	4535.96
432.03	4657.67
432.22	4503.19
432.41	4449.36
432.60	4533.62
432.79	4760.65
432.97	4812.14
433.16	4631.92
433.35	4507.87
433.54	4503.19
433.72	4634.26
433.91	4636.60
434.10	4702.14
434.28	4779.37
434.47	4770.01
434.66	4882.36
434.85	4863.63
435.03	4877.68
435.22	5048.54
435.41	5198.33
435.59	5022.79
435.78	5083.64
435.97	5078.96
436.16	4966.62
436.34	5156.20
436.53	5118.75
436.72	5064.92
436.90	4957.25
437.09	5085.98
437.28	5228.76
437.46	5104.71
437.65	5247.48
437.84	5076.62
438.02	5102.37
438.21	5163.22
438.40	5170.24
438.58	5334.08
438.77	5291.95
438.96	5387.91
439.14	5500.26
439.33	5619.63
439.52	5575.16
439.70	5675.80
439.89	5701.54
440.08	5685.16
440.26	5549.41
440.45	5738.99
440.63	5856.02
440.82	5837.30
441.01	5830.27
441.19	6045.60
441.38	5996.45
441.57	6085.39
441.75	5984.75
441.94	6200.08
442.12	6099.44
442.31	6394.34
442.50	6396.68
442.68	6209.44
442.87	6246.89
443.05	6209.44
443.24	6155.61
443.43	6392.00
443.61	6574.56
443.80	6668.19
443.98	6279.66
444.17	6176.67
444.35	6455.20
444.54	6590.95
444.73	6560.52
444.91	6553.50
445.10	6422.43
445.28	6499.67
445.47	6349.87
445.65	6345.19
445.84	6516.05
446.02	6450.52
446.21	6487.96
446.39	6384.98
446.58	6619.04
446.77	6544.14
446.95	6469.24
447.14	6768.83
447.32	6698.61
447.51	6576.91
447.69	6693.93
447.88	6612.01
448.06	6647.12
448.25	6668.19
448.43	6745.42
448.62	6768.83
448.80	6675.21
448.99	6848.41
449.17	7094.16
449.36	6705.63
449.54	6911.60
449.73	7115.23
449.91	7082.46
450.10	7112.89
450.28	7335.24
450.46	7124.59
450.65	7143.32
450.83	7007.56
451.02	7063.74
451.20	7328.22
451.39	7293.11
451.57	7096.50
451.76	7332.90
451.94	7274.38
452.13	7190.13
452.31	7300.13
452.49	7234.60
452.68	7346.94
452.86	7176.08
453.05	7335.24
453.23	7246.30
453.42	7204.17
453.60	7353.96
453.78	7524.82
453.97	7419.50
454.15	7384.39
454.34	7066.08
454.52	7573.97
454.70	7414.82
454.89	7506.10
455.07	7337.58
455.26	7597.38
455.44	7737.81
455.62	7588.02
455.81	7693.34
455.99	7735.47
456.17	7836.11
456.36	7925.05
456.54	7791.64
456.73	7971.86
456.91	8217.62
457.09	8046.76
457.28	8236.35
457.46	8119.32
457.64	8205.92
457.83	8067.83
458.01	7889.95
458.19	8238.69
458.38	7960.16
458.56	8245.71
458.74	8248.05
458.93	8273.79
459.11	8196.56
459.29	8402.52
459.48	8238.69
459.66	8341.67
459.84	8287.84
460.03	8561.68
460.21	8606.15
460.39	8594.45
460.57	8564.02
460.76	8547.64
460.94	8557.00
461.12	8524.23
461.31	8739.56
461.49	8613.17
461.67	8589.77
461.85	8938.51
462.04	8629.56
462.22	9280.22
462.40	9043.83
462.59	8854.25
462.77	9064.89
462.95	8879.99
463.13	8732.54
463.32	9095.32
463.50	8997.02
463.68	9104.68
463.86	8777.01
464.05	8933.82
464.23	8865.95
464.41	8774.67
464.59	8762.97
464.78	8891.70
464.96	9053.19
465.14	9111.71
465.32	9081.28
465.50	9518.96
465.69	9111.71
465.87	9202.99
466.05	9128.09
466.23	9252.14
466.41	9090.64
466.60	9226.39
466.78	9032.13
466.96	9235.75
467.14	9092.98
467.32	9312.99
467.51	9530.66
467.69	9254.48
467.87	9350.44
468.05	9294.27
468.23	9507.26
468.41	9411.29
468.60	9401.93
468.78	9533.00
468.96	9516.62
469.14	9476.83
469.32	9668.75
469.50	9469.81
469.69	9462.79
469.87	9537.68
470.05	9708.54
470.23	9839.61
470.41	9596.20
470.59	9989.41
470.77	9748.33
470.95	10054.94
471.14	10195.37
471.32	9961.32
471.50	10099.41
471.68	10340.49
471.86	10356.87
472.04	10370.91
472.22	10719.65
472.40	10284.31
472.58	10277.29
472.77	10445.81
472.95	10565.18
473.13	10883.49
473.31	10420.06
473.49	10480.92
473.67	10743.06
473.85	10525.39
474.03	11084.78
474.21	10890.51
474.39	10979.45
474.57	11122.23
474.75	11143.29
474.93	11124.57
475.12	10902.22
475.30	11204.14
475.48	10998.18
475.66	11176.06
475.84	11363.30
476.02	11426.50
476.20	11382.03
476.38	11534.16
476.56	11784.60
476.74	11779.92
476.92	11800.98
477.10	11690.98
477.28	12222.28
477.46	11899.28
477.64	12383.77
477.82	12465.69
478.00	12524.21
478.18	12374.41
478.36	12542.93
478.54	12629.53
478.72	12559.31
478.90	12985.29
479.08	13088.28
479.26	13069.55
479.44	13163.17
479.62	13355.10
479.80	13228.71
479.98	13195.94
480.16	13612.56
480.34	13364.46
480.52	14026.83
480.70	13635.96
480.88	13685.11
481.06	13837.25
481.24	13823.20
481.41	14047.90
481.59	14211.73
481.77	14244.50
481.95	14450.47
482.13	14558.13
482.31	14635.37
482.49	14958.36
482.67	14939.64
482.85	14728.99
483.03	14895.17
483.21	15166.67
483.39	15164.33
483.57	15433.49
483.74	15707.34
483.92	15543.50
484.10	15304.76
484.28	15625.42
484.46	16135.65
484.64	16423.54
484.82	15941.39
485.00	16123.95
485.18	16439.92
485.35	16168.42
485.53	16294.81
485.71	15723.72
485.89	16252.68
486.07	16332.26
486.25	16774.62
486.43	16709.08
486.61	16982.93
486.78	17341.03
486.96	17151.45
487.14	17867.65
487.32	17462.74
487.50	17799.77
487.68	18242.14
487.85	18031.49
488.03	18628.32
488.21	18373.21
488.39	18141.49
488.57	18651.73
488.75	18684.50
488.92	18960.68
489.10	19185.37
489.28	19047.28
489.46	19557.52
489.64	19426.45
489.81	19992.86
489.99	19845.40
490.17	20175.42
490.35	20725.44
490.53	20306.49
490.70	20381.38
490.88	20379.04
491.06	20711.40
491.24	20343.94
491.41	20711.40
491.59	20699.70
491.77	20685.65
491.95	21139.72
492.13	21109.29
492.30	21219.30
492.48	21387.82
492.66	21841.88
492.84	21614.85
493.01	22099.34
493.19	21914.44
493.37	21912.10
493.54	22375.52
493.72	22485.53
493.90	22389.56
494.08	22876.40
494.25	22944.27
494.43	22864.69
494.61	23016.83
494.79	23398.34
494.96	23381.95
495.14	23400.68
495.32	23293.01
495.49	23754.10
495.67	23613.66
495.85	23864.10
496.02	24058.37
496.20	24566.26
496.38	24308.80
496.55	24400.08
496.73	24732.44
496.91	24788.61
497.09	24699.67
497.26	25057.78
497.44	24645.84
497.62	25245.02
497.79	25207.57
497.97	24769.89
498.14	25610.14
498.32	25481.41
498.50	25509.50
498.67	25656.95
498.85	25947.18
499.03	26300.60
499.20	26146.12
499.38	26473.80
499.56	26022.08
499.73	26389.54
499.91	26380.18
500.08	26380.18
500.26	26328.69
500.44	26656.36
500.61	26398.90
500.79	26415.29
500.97	26721.90
501.14	26768.71
501.32	27035.53
501.49	26981.70
501.67	26735.94
501.84	27482.57
502.02	27105.74
502.20	27150.21
502.37	27508.32
502.55	27594.92
502.72	27744.71
502.90	27936.63
503.07	28032.60
503.25	28048.98
503.43	27833.65
503.60	28126.22
503.78	28383.68
503.95	28268.99
504.13	28589.64
504.30	28861.15
504.48	28196.43
504.65	28610.71
504.83	29404.15
505.01	28957.11
505.18	28774.55
505.36	29312.87
505.53	29071.79
505.71	29387.77
505.88	29708.42
506.06	29294.14
506.23	29680.33
506.41	29642.88
506.58	29649.91
506.76	29659.27
506.93	29956.52
507.11	29907.37
507.28	29497.77
507.46	29596.07
507.63	29780.98
507.81	29860.55
507.98	29834.81
508.16	30281.85
508.33	29949.50
508.50	30450.37
508.68	30295.89
508.85	30909.11
509.03	30892.73
509.20	30658.68
509.38	30993.37
509.55	30979.33
509.73	30974.65
509.90	31072.95
510.08	31421.69
510.25	31253.17
510.42	31388.92
510.60	31798.52
510.77	31730.64
510.95	31847.67
511.12	31534.04
511.30	31735.32
511.47	32055.98
511.64	32301.73
511.82	32437.48
511.99	32137.90
512.17	31948.31
512.34	32196.41
512.51	32484.30
512.69	32446.85
512.86	32194.07
513.04	32727.71
513.21	32891.55
513.38	32779.20
513.56	32683.24
513.73	32388.33
513.90	32807.29
514.08	32849.42
514.25	32847.08
514.43	33046.02
514.60	33177.09
514.77	33228.59
514.95	33455.62
515.12	33481.36
515.29	33481.36
515.47	33755.21
515.64	33713.08
515.81	33261.35
515.99	33579.67
516.16	33577.33
516.33	33280.08
516.51	33792.65
516.68	33188.80
516.85	33067.09
517.03	33446.26
517.20	33692.01
517.37	33930.75
517.54	34174.16
517.72	33851.17
517.89	33687.33
518.06	33647.54
518.24	33944.79
518.41	34396.51
518.58	34181.18
518.75	34185.86
518.93	34691.42
519.10	34618.86
519.27	34691.42
519.45	34796.74
519.62	35033.14
519.79	35484.86
519.96	35260.17
520.14	35386.56
520.31	34876.32
520.48	35466.14
520.65	34988.67
520.83	35835.94
521.00	35868.71
521.17	35587.85
521.34	36311.07
521.52	35819.56
521.69	36240.86
521.86	36060.63
522.03	35761.05
522.20	36184.68
522.38	36006.80
522.55	36425.76
522.72	36119.15
522.89	35955.31
523.07	36404.69
523.24	36517.04
523.41	36655.13
523.58	36875.14
523.75	37399.42
523.92	36889.18
524.10	37148.98
524.27	37043.66
524.44	37046.00
524.61	36999.19
524.78	37298.78
524.96	37258.99
525.13	37333.89
525.30	37509.43
525.47	37453.25
525.64	37502.40
525.81	37612.41
525.98	37233.24
526.16	37434.53
526.33	36907.91
526.50	37621.77
526.67	37046.00
526.84	37141.96
527.01	37418.14
527.18	37883.91
527.36	37928.38
527.53	38223.29
527.70	38143.71
527.87	38094.56
528.04	38162.43
528.21	38412.87
528.38	38251.38
528.55	38487.77
528.72	38658.63
528.89	39098.65
529.07	38518.20
529.24	38679.69
529.41	38258.40
529.58	38724.16
529.75	38988.64
529.92	39168.87
530.09	38813.10
530.26	39063.54
530.43	38888.00
530.60	38696.08
530.77	38909.07
530.94	39536.33
531.11	39115.03
531.28	39215.68
531.46	39735.27
531.63	39655.70
531.80	39503.56
531.97	39321.00
532.14	39143.12
532.31	39079.92
532.48	39220.36
532.65	39508.24
532.82	39580.80
532.99	39475.48
533.16	39599.52
533.33	39615.91
533.50	40044.23
533.67	39758.68
533.84	39718.89
534.01	40060.61
534.18	39625.27
534.35	40095.72
534.52	40130.83
534.69	39882.73
534.86	40306.37
535.03	40201.04
535.20	40425.73
535.37	40264.24
535.54	40444.46
535.71	40355.52
535.88	40350.84
536.05	39962.31
536.22	40994.48
536.38	40559.14
536.55	40463.18
536.72	40472.54
536.89	40039.54
537.06	40444.46
537.23	41146.62
537.40	40917.25
537.57	41148.96
537.74	40547.44
537.91	41130.23
538.08	41038.95
538.25	40809.58
538.42	40898.52
538.59	41050.66
538.75	40975.76
538.92	41193.43
539.09	41179.39
539.26	40690.21
539.43	41263.64
539.60	41420.46
539.77	40919.59
539.94	41048.32
540.11	41488.34
540.28	41141.94
540.44	41273.01
540.61	40954.69
540.78	41163.00
540.95	41488.34
541.12	40774.47
541.29	41102.15
541.46	41677.92
541.62	41649.83
541.79	41649.83
541.96	41640.47
542.13	41364.29
542.30	41677.92
542.47	41982.19
542.63	42047.72
542.80	42241.99
542.97	42064.11
543.14	42761.59
543.31	42909.04
543.48	42312.20
543.64	42906.70
543.81	42490.09
543.98	42543.92
544.15	42693.71
544.32	42564.98
544.48	43061.18
544.65	42766.27
544.82	42389.44
544.99	42579.03
545.16	42871.59
545.32	42567.32
545.49	42855.21
545.66	42997.98
545.83	42600.09
546.00	42997.98
546.16	42777.97
546.33	42649.24
546.50	42330.93
546.67	43377.15
546.83	42787.33
547.00	42780.31
547.17	42979.26
547.34	43208.63
547.50	42951.17
547.67	43470.77
547.84	42946.49
548.00	43571.41
548.17	43328.00
548.34	43253.10
548.51	43416.94
548.67	43782.06
548.84	43639.29
549.01	43236.72
549.18	43550.35
549.34	43480.13
549.51	43442.68
549.68	43723.55
549.84	43716.53
550.01	43793.76
550.18	42890.32
550.34	43161.82
550.51	43761.00
550.68	43531.62
550.84	43026.07
551.01	43700.14
551.18	43777.38
551.34	43571.41
551.51	43899.09
551.68	44076.97
551.84	44013.77
552.01	43976.33
552.18	44076.97
552.34	43973.98
552.51	44404.64
552.68	44128.46
552.84	44189.31
553.01	44318.04
553.18	44350.81
553.34	44184.63
553.51	43885.04
553.67	44133.14
553.84	44744.02
554.01	44690.19
554.17	44172.93
554.34	44275.91
554.51	44350.81
554.67	44722.96
554.84	44737.00
555.00	44697.21
555.17	44205.70
555.33	44430.39
555.50	45027.23
555.67	44505.29
555.83	44376.56
556.00	44608.27
556.16	45034.25
556.33	44507.63
556.50	44725.30
556.66	44608.27
556.83	44362.51
556.99	44999.14
557.16	44744.02
557.32	44781.47
557.49	45265.96
557.65	44516.99
557.82	44680.83
557.98	44842.32
558.15	44992.12
558.32	44992.12
558.48	44802.53
558.65	44280.60
558.81	44285.28
558.98	44722.96
559.14	44889.13
559.31	44718.28
559.47	45062.33
559.64	44641.04
559.80	44856.37
559.97	45034.25
560.13	44535.71
560.30	45031.91
560.46	45120.85
560.63	44957.01
560.79	45125.53
560.96	45495.33
561.12	44980.42
561.29	45081.06
561.45	44938.29
561.61	44655.08
561.78	44996.80
561.94	45230.85
562.11	45446.18
562.27	45198.09
562.44	45261.28
562.60	45310.43
562.77	45209.79
562.93	45315.11
563.10	45078.72
563.26	44746.36
563.42	45790.24
563.59	45366.60
563.75	45186.38
563.92	45481.29
564.08	45085.74
564.24	45893.22
564.41	45144.25
564.57	45581.93
564.74	44783.81
564.90	45453.20
565.07	44910.20
565.23	45429.80
565.39	45216.81
565.56	45656.83
565.72	45408.73
565.88	45345.54
566.05	45202.77
566.21	45223.83
566.38	45640.45
566.54	45408.73
566.70	45649.81
566.87	45717.68
567.03	45565.55
567.19	46066.42
567.36	45422.78
567.52	45626.40
567.68	45860.46
567.85	45036.59
568.01	45357.24
568.17	45703.64
568.34	45762.15
568.50	45549.17
568.66	45722.37
568.83	45399.37
568.99	45729.39
569.15	45605.34
569.32	45312.77
569.48	45605.34
569.64	46314.52
569.81	45633.42
569.97	45305.75
570.13	45717.68
570.30	45242.56
570.46	45359.58
570.62	45170.00
570.78	45291.71
570.95	45399.37
571.11	45518.74
571.27	45581.93
571.43	45462.57
571.60	45736.41
571.76	45429.80
571.92	45649.81
572.09	45572.57
572.25	45970.46
572.41	45897.91
572.57	45549.17
572.74	46096.85
572.90	45720.02
573.06	46213.88
573.22	45794.92
573.38	45729.39
573.55	45270.64
573.71	45731.73
573.87	46017.27
574.03	45560.87
574.20	45921.31
574.36	45741.09
574.52	45729.39
574.68	45811.31
574.84	45214.47
575.01	45834.71
575.17	45581.93
575.33	45392.35
575.49	45492.99
575.65	45933.01
575.82	45750.45
575.98	45610.02
576.14	45911.95
576.30	45853.44
576.46	45708.32
576.62	45471.93
576.79	45619.38
576.95	45921.31
577.11	45921.31
577.27	45708.32
577.43	45769.18
577.59	45670.87
577.75	45336.18
577.92	45336.18
578.08	45507.04
578.24	45331.50
578.40	45617.04
578.56	45656.83
578.72	45485.97
578.88	46508.79
579.04	45928.33
579.21	45675.55
579.37	45507.04
579.53	45663.85
579.69	45916.63
579.85	45694.28
580.01	45755.13
580.17	45855.78
580.33	45879.18
580.49	45928.33
580.65	45961.10
580.82	45965.78
580.98	45483.63
581.14	45549.17
581.30	45975.14
581.46	46040.68
581.62	45792.58
581.78	45965.78
581.94	46567.30
582.10	45975.14
582.26	46094.51
582.42	46239.62
582.58	45839.39
582.74	46237.28
582.90	46131.96
583.06	45865.14
583.22	46127.28
583.38	45914.29
583.54	45963.44
583.70	46138.98
583.86	45895.56
584.02	46178.77
584.18	45925.99
584.34	45904.93
584.50	46094.51
584.66	45928.33
584.82	45853.44
584.98	45717.68
585.14	45914.29
585.30	45921.31
585.46	45331.50
585.62	45532.78
585.78	46124.94
585.94	45280.00
586.10	45778.54
586.26	45682.58
586.42	45888.54
586.58	45991.53
586.74	45633.42
586.90	46007.91
587.06	45329.16
587.22	45820.67
587.38	45691.94
587.54	46218.56
587.70	45900.25
587.86	46054.72
588.02	45886.20
588.18	46267.71
588.34	45654.49
588.49	45626.40
588.65	45235.53
588.81	45331.50
588.97	45333.84
589.13	45364.26
589.29	45563.21
589.45	45584.27
589.61	45188.72
589.77	46117.92
589.93	45797.26
590.08	45947.06
