SpectraSuite Data File
++++++++++++++++++++++++++++++++++++
Date: Fri Oct 25 10:44:27 EDT 2013
User: price-jones
Dark Spectrum Present: No
Reference Spectrum Present: No
Number of Sampled Component Spectra: 1
Spectrometers: USB2+H05261
Integration Time (usec): 100000 (USB2+H05261)
Spectra Averaged: 1 (USB2+H05261)
Boxcar Smoothing: 0 (USB2+H05261)
Correct for Electrical Dark: No (USB2+H05261)
Strobe/Lamp Enabled: No (USB2+H05261)
Correct for Detector Non-linearity: No (USB2+H05261)
Correct for Stray Light: No (USB2+H05261)
Number of Pixels in Processed Spectrum: 2048
>>>>>Begin Processed Spectral Data<<<<<
365.73	102.98
365.92	102.98
366.12	102.98
366.32	35.11
366.52	25.75
366.72	35.11
366.91	0.00
367.11	67.88
367.31	0.00
367.51	0.00
367.70	0.00
367.90	18.72
368.10	60.85
368.30	53.83
368.49	53.83
368.69	0.00
368.89	0.00
369.09	0.00
369.28	51.49
369.48	0.00
369.68	77.24
369.87	100.64
370.07	53.83
370.27	100.64
370.47	161.50
370.66	451.72
370.86	451.72
371.06	451.72
371.25	463.43
371.45	482.15
371.65	505.56
371.84	428.32
372.04	517.26
372.24	533.64
372.44	465.77
372.63	503.22
372.83	568.75
373.03	493.85
373.22	465.77
373.42	545.34
373.62	533.64
373.81	566.41
374.01	603.86
374.21	554.71
374.40	521.94
374.60	589.82
374.79	587.47
374.99	622.58
375.19	664.71
375.38	638.97
375.58	606.20
375.78	650.67
375.97	587.47
376.17	624.92
376.37	594.50
376.56	770.04
376.76	603.86
376.95	615.56
377.15	585.13
377.35	631.94
377.54	636.63
377.74	655.35
377.93	592.16
378.13	697.48
378.33	645.99
378.52	631.94
378.72	608.54
378.91	662.37
379.11	617.90
379.31	648.33
379.50	688.12
379.70	662.37
379.89	683.44
380.09	840.25
380.28	774.72
380.48	664.71
380.68	685.78
380.87	711.52
381.07	681.10
381.26	706.84
381.46	760.67
381.65	650.67
381.85	627.26
382.04	718.54
382.24	629.60
382.43	699.82
382.63	739.61
382.83	751.31
383.02	699.82
383.22	774.72
383.41	699.82
383.61	730.25
383.80	744.29
384.00	758.33
384.19	791.10
384.39	844.93
384.58	856.64
384.78	873.02
384.97	830.89
385.17	802.80
385.36	748.97
385.56	854.30
385.75	835.57
385.95	828.55
386.14	915.15
386.34	807.48
386.53	889.40
386.72	870.68
386.92	954.94
387.11	901.11
387.31	915.15
387.50	866.00
387.70	854.30
387.89	847.27
388.09	837.91
388.28	931.53
388.48	884.72
388.67	959.62
388.86	950.26
389.06	980.68
389.25	1076.65
389.45	990.05
389.64	1034.52
389.84	1097.71
390.03	1015.79
390.22	1146.86
390.42	1032.18
390.61	1043.88
390.81	1018.13
391.00	1097.71
391.19	1039.20
391.39	1172.61
391.58	1064.94
391.78	1062.60
391.97	1128.14
392.16	1086.01
392.36	1102.39
392.55	1013.45
392.75	1074.31
392.94	992.39
393.13	1048.56
393.33	976.00
393.52	1062.60
393.71	1062.60
393.91	1053.24
394.10	1086.01
394.29	1177.29
394.49	1158.57
394.68	1238.14
394.88	1299.00
395.07	1228.78
395.26	1362.19
395.46	1355.17
395.65	1306.02
395.84	1235.80
396.04	1299.00
396.23	1217.08
396.42	1153.88
396.62	1071.97
396.81	1315.38
397.00	1268.57
397.19	1233.46
397.39	1327.08
397.58	1371.55
397.77	1418.36
397.97	1427.73
398.16	1495.60
398.35	1533.05
398.55	1495.60
398.74	1455.81
398.93	1617.31
399.12	1490.92
399.32	1533.05
399.51	1645.40
399.70	1579.86
399.90	1540.07
400.09	1598.59
400.28	1675.82
400.47	1701.57
400.67	1739.02
400.86	1673.48
401.05	1640.72
401.24	1722.63
401.44	1837.32
401.63	1776.47
401.82	1776.47
402.01	1804.55
402.21	1809.23
402.40	1764.76
402.59	1703.91
402.78	1739.02
402.97	1797.53
403.17	1865.41
403.36	1921.58
403.55	1799.87
403.74	1895.83
403.93	1884.13
404.13	1977.75
404.32	1856.04
404.51	1937.96
404.70	2026.90
404.89	1959.03
405.09	1991.80
405.28	1963.71
405.47	1912.22
405.66	1949.67
405.85	2085.42
406.05	2073.71
406.24	2024.56
406.43	2062.01
406.62	2162.66
406.81	2230.53
407.00	2092.44
407.20	2059.67
407.39	2153.29
407.58	2289.04
407.77	2246.91
407.96	2246.91
408.15	2256.28
408.34	2204.78
408.54	2244.57
408.73	2324.15
408.92	2333.51
409.11	2328.83
409.30	2403.73
409.49	2239.89
409.68	2389.69
409.87	2321.81
410.07	2338.20
410.26	2450.54
410.45	2560.55
410.64	2553.52
410.83	2553.52
411.02	2588.63
411.21	2747.79
411.40	2647.15
411.59	2630.76
411.78	2677.57
411.98	2619.06
412.17	2745.45
412.36	2775.88
412.55	2834.39
412.74	2745.45
412.93	2738.43
413.12	2785.24
413.31	2930.35
413.50	2895.24
413.69	2857.79
413.88	2953.76
414.07	3028.65
414.26	3049.72
414.45	3070.78
414.64	3000.57
414.83	3105.89
415.02	3054.40
415.22	3089.51
415.41	3258.03
415.60	3211.22
415.79	3143.34
415.98	3361.01
416.17	3297.81
416.36	3300.16
416.55	3290.79
416.74	3440.59
416.93	3300.16
417.12	3311.86
417.31	3311.86
417.50	3377.39
417.69	3611.45
417.88	3545.91
418.07	3541.23
418.26	3538.89
418.45	3555.27
418.64	3744.86
418.83	3637.19
419.02	3618.47
419.21	3723.79
419.39	3634.85
419.58	3627.83
419.77	3679.32
419.96	3716.77
420.15	3819.75
420.34	3777.62
420.53	3939.12
420.72	3868.91
420.91	3852.52
421.10	3927.42
421.29	3967.21
421.48	3829.12
421.67	3922.74
421.86	3988.27
422.05	3918.06
422.24	3948.48
422.43	4037.42
422.61	3927.42
422.80	3983.59
422.99	4039.76
423.18	4030.40
423.37	4065.51
423.56	3948.48
423.75	4074.87
423.94	3967.21
424.13	3728.47
424.32	3852.52
424.50	4131.05
424.69	4067.85
424.88	4074.87
425.07	4135.73
425.26	4032.74
425.45	3943.80
425.64	4021.04
425.83	4142.75
426.01	4255.09
426.20	3962.53
426.39	4112.32
426.58	4056.15
426.77	3904.01
426.96	4133.39
427.15	4119.34
427.33	4177.86
427.52	4060.83
427.71	4241.05
427.90	4369.78
428.09	4376.80
428.28	4196.58
428.46	4290.20
428.65	4294.88
428.84	4367.44
429.03	4355.74
429.22	4269.14
429.40	4088.92
429.59	4126.36
429.78	4077.21
429.97	4039.76
430.16	4140.41
430.34	4138.07
430.53	4248.07
430.72	4250.41
430.91	4381.48
431.10	4358.08
431.28	4732.56
431.47	4772.35
431.66	4737.24
431.85	4613.20
432.03	4723.20
432.22	4716.18
432.41	4671.71
432.60	4798.10
432.79	4854.27
432.97	4908.10
433.16	4826.18
433.35	4777.03
433.54	4727.88
433.72	4765.33
433.91	4638.94
434.10	4793.42
434.28	4905.76
434.47	4973.64
434.66	4975.98
434.85	5097.69
435.03	5074.28
435.22	5069.60
435.41	5355.15
435.59	5188.97
435.78	5348.12
435.97	5252.16
436.16	5256.84
436.34	5291.95
436.53	5575.16
436.72	5467.49
436.90	5233.44
437.09	5240.46
437.28	5275.57
437.46	5387.91
437.65	5261.52
437.84	5296.63
438.02	5266.21
438.21	5373.87
438.40	5305.99
438.58	5394.93
438.77	5549.41
438.96	5481.53
439.14	5640.69
439.33	5729.63
439.52	5654.73
439.70	5762.40
439.89	5893.47
440.08	5830.27
440.26	5909.85
440.45	5837.30
440.63	6104.12
440.82	6080.71
441.01	6078.37
441.19	6232.85
441.38	6237.53
441.57	6237.53
441.75	6406.05
441.94	6555.84
442.12	6413.07
442.31	6490.31
442.50	6534.78
442.68	6394.34
442.87	6506.69
443.05	6506.69
443.24	6672.87
443.43	6722.02
443.61	6792.23
443.80	6827.34
443.98	6665.85
444.17	6497.33
444.35	6820.32
444.54	6817.98
444.73	6719.68
444.91	6675.21
445.10	6766.49
445.28	6530.09
445.47	6604.99
445.65	6754.79
445.84	6715.00
446.02	6726.70
446.21	6731.38
446.39	6707.98
446.58	6810.96
446.77	6827.34
446.95	6682.23
447.14	6803.94
447.32	7094.16
447.51	6904.58
447.69	6829.68
447.88	6949.05
448.06	6743.08
448.25	6902.24
448.43	6829.68
448.62	6888.20
448.80	6846.07
448.99	7066.08
449.17	7162.04
449.36	6977.14
449.54	7122.25
449.73	7260.34
449.91	7379.71
450.10	7185.44
450.28	7424.18
450.46	7569.29
450.65	7389.07
450.83	7419.50
451.02	7274.38
451.20	7499.08
451.39	7386.73
451.57	7419.50
451.76	7396.09
451.94	7372.69
452.13	7714.41
452.31	7325.88
452.49	7311.83
452.68	7197.15
452.86	7307.15
453.05	7522.48
453.23	7398.43
453.42	7496.74
453.60	7506.10
453.78	7754.19
453.97	7578.65
454.15	7674.62
454.34	7611.42
454.52	7688.66
454.70	7665.25
454.89	7695.68
455.07	7824.41
455.26	7761.22
455.44	7847.82
455.62	7742.49
455.81	7948.46
455.99	7955.48
456.17	8128.68
456.36	8107.62
456.54	8173.15
456.73	8243.37
456.91	8285.50
457.09	8149.75
457.28	8428.27
457.46	8067.83
457.64	8313.58
457.83	8067.83
458.01	8131.02
458.19	8498.49
458.38	8299.54
458.56	8489.12
458.74	8463.38
458.93	8528.91
459.11	8507.85
459.29	8496.14
459.48	8421.25
459.66	8566.36
459.84	8538.27
460.03	8634.24
460.21	8629.56
460.39	8631.90
460.57	8887.01
460.76	8744.24
460.94	9057.87
461.12	8819.14
461.31	9046.17
461.49	9018.08
461.67	8739.56
461.85	9249.80
462.04	9020.42
462.22	9151.49
462.40	9259.16
462.59	8999.36
462.77	9142.13
462.95	9146.81
463.13	9233.41
463.32	9212.35
463.50	9153.84
463.68	9268.52
463.86	9158.52
464.05	9139.79
464.23	9013.40
464.41	9167.88
464.59	9071.92
464.78	9544.70
464.96	9430.02
465.14	9411.29
465.32	9043.83
465.50	9483.85
465.69	9469.81
465.87	9378.53
466.05	9516.62
466.23	9252.14
466.41	9500.23
466.60	9584.49
466.78	9404.27
466.96	9411.29
467.14	9647.69
467.32	9437.04
467.51	9734.29
467.69	9582.15
467.87	9619.60
468.05	9827.91
468.23	9614.92
468.41	9516.62
468.60	9949.62
468.78	9804.50
468.96	9790.46
469.14	9905.15
469.32	10106.43
469.50	9696.84
469.69	9973.02
469.87	9958.98
470.05	9944.94
470.23	10153.24
470.41	10022.17
470.59	10134.52
470.77	10019.83
470.95	10221.12
471.14	10464.54
471.32	10361.55
471.50	10541.77
471.68	10567.52
471.86	10693.91
472.04	10476.24
472.22	10586.24
472.40	10651.78
472.58	10555.82
472.77	10724.33
472.95	10654.12
473.13	11138.61
473.31	10644.76
473.49	10775.83
473.67	10714.97
473.85	11068.39
474.03	11372.66
474.21	11087.12
474.39	11365.64
474.57	11410.11
474.75	11253.30
474.93	11367.98
475.12	11520.12
475.30	11208.83
475.48	11206.48
475.66	11344.58
475.84	11690.98
476.02	11709.70
476.20	11683.95
476.38	11950.78
476.56	11964.82
476.74	12035.03
476.92	12032.69
477.10	12100.57
477.28	12615.49
477.46	12311.22
477.64	12512.50
477.82	12723.15
478.00	12903.37
478.18	12926.78
478.36	13032.10
478.54	13149.13
478.72	12947.84
478.90	13163.17
479.08	13287.22
479.26	13483.83
479.44	13701.50
479.62	13542.34
479.80	13518.93
479.98	13706.18
480.16	13930.87
480.34	13940.23
480.52	14033.85
480.70	14029.17
480.88	13928.53
481.06	14317.06
481.24	14197.69
481.41	14721.97
481.59	14745.38
481.77	14668.14
481.95	14843.68
482.13	14862.40
482.31	15094.11
482.49	15323.49
482.67	15145.61
482.85	15400.72
483.03	15552.86
483.21	15538.82
483.39	15810.32
483.57	15772.87
483.74	15950.75
483.92	15908.62
484.10	15894.58
484.28	16229.27
484.46	16659.93
484.64	16842.50
484.82	16414.18
485.00	16620.14
485.18	16720.79
485.35	16830.79
485.53	16278.43
485.71	16629.51
485.89	16898.67
486.07	16856.54
486.25	16800.37
486.43	17465.08
486.61	17235.70
486.78	17605.51
486.96	18129.79
487.14	17919.14
487.32	18075.96
487.50	18530.02
487.68	18654.07
487.85	18623.64
488.03	19016.85
488.21	19007.49
488.39	18820.25
488.57	19197.07
488.75	19367.93
488.92	19688.59
489.10	19798.59
489.28	19800.93
489.46	20376.70
489.64	20123.93
489.81	20886.94
489.99	20903.32
490.17	20486.71
490.35	20870.56
490.53	20666.93
490.70	21043.76
490.88	20781.62
491.06	21090.57
491.24	21120.99
491.41	21120.99
491.59	21359.73
491.77	21528.25
491.95	21441.65
492.13	21970.61
492.30	22099.34
492.48	22202.32
492.66	22384.88
492.84	22422.33
493.01	22501.91
493.19	22565.10
493.37	22724.26
493.54	22803.84
493.72	23115.13
493.90	23178.33
494.08	23454.51
494.25	23503.66
494.43	23805.59
494.61	23859.42
494.79	23950.70
494.96	24065.39
495.14	24177.73
495.32	23931.98
495.49	24247.95
495.67	24458.60
495.85	24603.71
496.02	24545.20
496.20	25048.41
496.38	25003.94
496.55	25017.99
496.73	25776.32
496.91	25420.56
497.09	25542.27
497.26	25764.62
497.44	25551.63
497.62	25631.21
497.79	26092.29
497.97	25729.51
498.14	26061.87
498.32	25872.28
498.50	25979.95
498.67	26567.42
498.85	26668.06
499.03	26932.54
499.20	27007.44
499.38	27072.98
499.56	27215.75
499.73	27227.45
499.91	26888.07
500.08	26740.62
500.26	27051.91
500.44	27075.32
500.61	27344.48
500.79	27438.10
500.97	27166.60
501.14	28070.04
501.32	27583.21
501.49	27796.20
501.67	27852.38
501.84	28077.07
502.02	27859.40
502.20	28320.48
502.37	28652.84
502.55	28376.66
502.72	28538.15
502.90	28718.37
503.07	28566.24
503.25	28903.28
503.43	28648.16
503.60	28591.98
503.78	28528.79
503.95	28844.76
504.13	28940.72
504.30	29359.68
504.48	29383.09
504.65	29254.36
504.83	29446.28
505.01	29912.05
505.18	29556.28
505.36	30284.19
505.53	30181.21
505.71	30022.05
505.88	30588.46
506.06	30150.78
506.23	30075.88
506.41	30162.48
506.58	30731.23
506.76	30230.36
506.93	30499.52
507.11	30583.78
507.28	30862.30
507.46	30284.19
507.63	30831.88
507.81	30824.86
507.98	30771.02
508.16	31126.78
508.33	31222.75
508.50	31714.26
508.68	31693.19
508.85	32266.63
509.03	31887.46
509.20	31655.75
509.38	31924.91
509.55	32011.51
509.73	31948.31
509.90	32137.90
510.08	31442.76
510.25	32053.64
510.42	32041.93
510.60	32268.97
510.77	32856.44
510.95	32708.99
511.12	32790.91
511.30	32577.92
511.47	33139.65
511.64	32910.27
511.82	33039.00
511.99	32907.93
512.17	32884.53
512.34	33219.22
512.51	33289.44
512.69	33156.03
512.86	33415.83
513.04	33752.87
513.21	33331.57
513.38	33544.56
513.56	33376.04
513.73	33497.75
513.90	33912.02
514.08	33570.30
514.25	33677.97
514.43	33799.68
514.60	33776.27
514.77	34195.23
514.95	34249.06
515.12	34490.13
515.29	34338.00
515.47	34689.08
515.64	34558.01
515.81	34164.80
515.99	34085.22
516.16	34448.00
516.33	34132.03
516.51	34143.74
516.68	33479.02
516.85	33818.40
517.03	34125.01
517.20	34338.00
517.37	34937.18
517.54	35356.13
517.72	34759.30
517.89	34600.14
518.06	34462.05
518.24	34583.76
518.41	35021.44
518.58	35573.80
518.75	34909.09
518.93	35742.32
519.10	35807.86
519.27	35934.24
519.45	35845.30
519.62	36016.16
519.79	36182.34
519.96	36140.21
520.14	36456.18
520.31	35849.99
520.48	36203.41
520.65	36182.34
520.83	37001.53
521.00	36910.25
521.17	36266.60
521.34	36758.11
521.52	36692.58
521.69	37029.62
521.86	37043.66
522.03	37273.03
522.20	37481.34
522.38	36645.77
522.55	37364.31
522.72	37462.61
522.89	37198.13
523.07	37570.28
523.24	37380.70
523.41	37621.77
523.58	37483.68
523.75	37977.53
523.92	38232.65
524.10	37722.41
524.27	38295.85
524.44	38225.63
524.61	38209.25
524.78	38146.05
524.96	38424.57
525.13	38359.04
525.30	38384.79
525.47	38925.45
525.64	38572.03
525.81	38197.54
525.98	38293.50
526.16	38103.92
526.33	37816.04
526.50	38206.90
526.67	38054.77
526.84	38057.11
527.01	37794.97
527.18	38136.69
527.36	38988.64
527.53	38766.29
527.70	39236.74
527.87	38962.90
528.04	38906.73
528.21	39274.19
528.38	39346.75
528.55	39402.92
528.72	39842.94
528.89	39959.97
529.07	39770.38
529.24	38761.61
529.41	39384.19
529.58	39379.51
529.75	39688.46
529.92	39981.03
530.09	39978.69
530.26	40076.99
530.43	40112.10
530.60	40032.52
530.77	39824.22
530.94	40390.62
531.11	39931.88
531.28	40170.61
531.46	40371.90
531.63	40512.33
531.80	40268.92
531.97	40271.26
532.14	40236.15
532.31	39906.13
532.48	39604.20
532.65	40584.89
532.82	40711.28
532.99	40746.39
533.16	39990.39
533.33	40844.69
533.50	40715.96
533.67	40985.12
533.84	40842.35
534.01	40769.79
534.18	40652.76
534.35	41144.28
534.52	41055.34
534.69	41151.30
534.86	41172.36
535.03	41097.47
535.20	41556.21
535.37	41783.24
535.54	41801.97
535.71	41799.63
535.88	41598.34
536.05	41490.68
536.22	41401.74
536.38	41406.42
536.55	41380.67
536.72	41549.19
536.89	41209.81
537.06	41881.55
537.23	41497.70
537.40	41698.98
537.57	41787.92
537.74	41867.50
537.91	42029.00
538.08	42141.35
538.25	41691.96
538.42	41792.61
538.59	42195.18
538.75	41291.73
538.92	41591.32
539.09	42265.39
539.26	42377.74
539.43	41916.65
539.60	42251.35
539.77	41876.86
539.94	41942.40
540.11	41963.46
540.28	42309.86
540.44	42389.44
540.61	42349.65
540.78	42415.19
540.95	42061.77
541.12	42373.06
541.29	42059.43
541.46	42241.99
541.62	42471.36
541.79	42829.46
541.96	42359.02
542.13	43098.62
542.30	42953.51
542.47	42822.44
542.63	42616.47
542.80	42813.08
542.97	43316.29
543.14	43220.33
543.31	43065.86
543.48	43601.84
543.64	44048.88
543.81	43646.31
543.98	43674.40
544.15	43414.60
544.32	43393.53
544.48	43728.23
544.65	43339.70
544.82	43239.06
544.99	43828.87
545.16	43896.75
545.32	43714.19
545.49	44238.47
545.66	43908.45
545.83	44039.52
546.00	43775.04
546.16	43945.90
546.33	43686.10
546.50	43636.95
546.67	43924.83
546.83	43466.09
547.00	43814.83
547.17	43636.95
547.34	44149.53
547.50	44282.94
547.67	44093.35
547.84	44240.81
548.00	44308.68
548.17	44591.89
548.34	44296.98
548.51	44538.05
548.67	44395.28
548.84	44706.57
549.01	44587.21
549.18	44416.35
549.34	44425.71
549.51	44828.28
549.68	44793.17
549.84	44505.29
550.01	44563.80
550.18	44294.64
550.34	44699.55
550.51	44673.81
550.68	44882.11
550.84	44807.22
551.01	44652.74
551.18	44725.30
551.34	44779.13
551.51	44802.53
551.68	44781.47
551.84	45090.42
552.01	44706.57
552.18	45078.72
552.34	44856.37
552.51	45233.19
552.68	44797.85
552.84	45446.18
553.01	45474.27
553.18	44992.12
553.34	45474.27
553.51	44755.72
553.67	45272.98
553.84	45570.23
554.01	45148.93
554.17	45750.45
554.34	45635.77
554.51	45408.73
554.67	45298.73
554.84	45242.56
555.00	45553.85
555.17	45230.85
555.33	45411.07
555.50	45205.11
555.67	44973.39
555.83	45408.73
556.00	45586.61
556.16	45925.99
556.33	45343.20
556.50	45155.96
556.66	45851.09
556.83	45539.80
556.99	45727.05
557.16	45865.14
557.32	45940.04
557.49	45897.91
557.65	45663.85
557.82	45925.99
557.98	45918.97
558.15	46014.93
558.32	45560.87
558.48	45439.16
558.65	45684.92
558.81	45661.51
558.98	45806.62
559.14	45722.37
559.31	45876.84
559.47	45972.80
559.64	45610.02
559.80	46216.22
559.97	46005.57
560.13	45869.82
560.30	45930.67
560.46	45862.80
560.63	46265.37
560.79	46366.01
560.96	46366.01
561.12	46258.35
561.29	46160.05
561.45	45832.37
561.61	46036.00
561.78	46000.89
561.94	46047.70
562.11	46426.87
562.27	46148.34
562.44	46153.02
562.60	46424.53
562.77	46370.69
562.93	46316.86
563.10	46197.49
563.26	45989.19
563.42	46305.16
563.59	45935.35
563.75	46117.92
563.92	46337.93
564.08	46356.65
564.24	46415.16
564.41	46256.01
564.57	46253.67
564.74	46302.82
564.90	46417.50
565.07	46553.26
565.23	46445.59
565.39	46211.54
565.56	45993.87
565.72	46281.75
565.88	46026.63
566.05	46120.26
566.21	46497.08
566.38	46497.08
566.54	46333.24
566.70	46569.64
566.87	46562.62
567.03	46550.91
567.19	47178.18
567.36	46946.47
567.52	45986.85
567.68	46579.00
567.85	45918.97
568.01	46703.05
568.17	46146.00
568.34	46555.60
568.50	46476.02
568.66	46426.87
568.83	46894.97
568.99	46209.20
569.15	46277.07
569.32	46684.33
569.48	46326.22
569.64	47030.72
569.81	46965.19
569.97	46583.68
570.13	46679.64
570.30	46429.21
570.46	46323.88
570.62	46157.70
570.78	46492.40
570.95	46040.68
571.11	46663.26
571.27	46366.01
571.43	46305.16
571.60	46445.59
571.76	46527.51
571.92	46642.20
572.09	46354.31
572.25	46593.04
572.41	46387.08
572.57	46714.75
572.74	47246.05
572.90	46415.16
573.06	46377.72
573.22	46749.86
573.38	46677.30
573.55	46141.32
573.71	46887.95
573.87	46593.04
574.03	46532.19
574.20	46473.68
574.36	46738.16
574.52	46855.18
574.68	46824.76
574.84	46464.32
575.01	46356.65
575.17	46038.34
575.33	46401.12
575.49	46286.43
575.65	46775.61
575.82	47012.00
575.98	46384.74
576.14	47145.41
576.30	46663.26
576.46	46813.05
576.62	46424.53
576.79	46703.05
576.95	46373.03
577.11	46738.16
577.27	46862.21
577.43	46789.65
577.59	46827.10
577.75	46560.28
577.92	46504.10
578.08	46403.46
578.24	46373.03
578.40	46515.81
578.56	46398.78
578.72	46454.95
578.88	46766.24
579.04	47033.07
579.21	46389.42
579.37	46253.67
579.53	46801.35
579.69	46527.51
579.85	46419.84
580.01	46972.21
580.17	46700.71
580.33	47056.47
580.49	46796.67
580.65	46724.11
580.82	46579.00
580.98	46621.13
581.14	46560.28
581.30	46887.95
581.46	46885.61
581.62	47222.65
581.78	46714.75
581.94	47136.05
582.10	46609.43
582.26	46927.74
582.42	46560.28
582.58	46824.76
582.74	46754.54
582.90	46979.23
583.06	46714.75
583.22	46948.81
583.38	46806.03
583.54	46822.42
583.70	46986.25
583.86	46642.20
584.02	46513.47
584.18	47332.65
584.34	46674.96
584.50	46990.94
584.66	46906.68
584.82	47042.43
584.98	46838.80
585.14	47229.67
585.30	46595.38
585.46	46843.48
585.62	46712.41
585.78	46930.08
585.94	46401.12
586.10	46670.28
586.26	46955.83
586.42	46820.08
586.58	47166.48
586.74	46932.42
586.90	46763.90
587.06	46817.74
587.22	47199.24
587.38	46625.81
587.54	46766.24
587.70	46979.23
587.86	46965.19
588.02	46852.84
588.18	46740.50
588.34	46518.15
588.49	46321.54
588.65	45925.99
588.81	46031.32
588.97	46155.36
589.13	46396.44
589.29	46483.04
589.45	46787.31
589.61	46850.50
589.77	46728.80
589.93	46733.48
