SpectraSuite Data File
++++++++++++++++++++++++++++++++++++
Date: Fri Oct 25 11:25:18 EDT 2013
User: price-jones
Dark Spectrum Present: No
Reference Spectrum Present: No
Number of Sampled Component Spectra: 1
Spectrometers: USB2+H05261
Integration Time (usec): 100000 (USB2+H05261)
Spectra Averaged: 1 (USB2+H05261)
Boxcar Smoothing: 0 (USB2+H05261)
Correct for Electrical Dark: No (USB2+H05261)
Strobe/Lamp Enabled: No (USB2+H05261)
Correct for Detector Non-linearity: No (USB2+H05261)
Correct for Stray Light: No (USB2+H05261)
Number of Pixels in Processed Spectrum: 2048
>>>>>Begin Processed Spectral Data<<<<<
365.73	285.55
365.92	285.55
366.12	285.55
366.32	152.13
366.52	138.09
366.72	163.84
366.91	98.30
367.11	138.09
367.31	124.05
367.51	102.98
367.70	126.39
367.90	147.45
368.10	173.20
368.30	159.16
368.49	159.16
368.69	126.39
368.89	147.45
369.09	156.82
369.28	145.11
369.48	205.97
369.68	166.18
369.87	184.90
370.07	196.60
370.27	191.92
370.47	381.51
370.66	578.11
370.86	685.78
371.06	638.97
371.25	669.39
371.45	622.58
371.65	723.23
371.84	692.80
372.04	734.93
372.24	730.25
372.44	692.80
372.63	758.33
372.83	699.82
373.03	779.40
373.22	704.50
373.42	716.20
373.62	732.59
373.81	779.40
374.01	793.44
374.21	755.99
374.40	823.87
374.60	861.32
374.79	823.87
374.99	837.91
375.19	901.11
375.38	891.74
375.58	894.08
375.78	854.30
375.97	779.40
376.17	961.96
376.37	887.06
376.56	910.47
376.76	898.77
376.95	940.90
377.15	889.40
377.35	858.98
377.54	917.49
377.74	922.17
377.93	875.36
378.13	901.11
378.33	1006.43
378.52	938.55
378.72	926.85
378.91	915.15
379.11	978.34
379.31	973.66
379.50	898.77
379.70	968.98
379.89	957.28
380.09	959.62
380.28	980.68
380.48	957.28
380.68	961.96
380.87	950.26
381.07	959.62
381.26	1011.11
381.46	961.96
381.65	1057.92
381.85	950.26
382.04	1139.84
382.24	1032.18
382.43	968.98
382.63	985.37
382.83	1046.22
383.02	1043.88
383.22	1151.54
383.41	1118.78
383.61	1118.78
383.80	1214.74
384.00	1041.54
384.19	1151.54
384.39	1039.20
384.58	1177.29
384.78	1081.33
384.97	1153.88
385.17	1132.82
385.36	1235.80
385.56	1132.82
385.75	1104.73
385.95	1196.01
386.14	1111.75
386.34	1149.20
386.53	1214.74
386.72	1238.14
386.92	1214.74
387.11	1191.33
387.31	1289.64
387.50	1245.16
387.70	1226.44
387.89	1247.51
388.09	1299.00
388.28	1266.23
388.48	1334.11
388.67	1233.46
388.86	1348.15
389.06	1245.16
389.25	1289.64
389.45	1240.48
389.64	1341.13
389.84	1362.19
390.03	1385.60
390.22	1390.28
390.42	1320.06
390.61	1355.17
390.81	1270.91
391.00	1392.62
391.19	1366.87
391.39	1425.39
391.58	1397.30
391.78	1481.56
391.97	1430.07
392.16	1441.77
392.36	1439.43
392.55	1507.30
392.75	1401.98
392.94	1502.62
393.13	1556.46
393.33	1526.03
393.52	1610.29
393.71	1523.69
393.91	1596.25
394.10	1533.05
394.29	1540.07
394.49	1638.38
394.68	1631.35
394.88	1596.25
395.07	1680.50
395.26	1659.44
395.46	1563.48
395.65	1727.32
395.84	1724.97
396.04	1776.47
396.23	1753.06
396.42	1776.47
396.62	1710.93
396.81	1715.61
397.00	1750.72
397.19	1818.60
397.39	1849.02
397.58	1818.60
397.77	1785.83
397.97	1753.06
398.16	1877.11
398.35	1907.54
398.55	1888.81
398.74	1940.30
398.93	1870.09
399.12	1837.32
399.32	1909.88
399.51	1947.33
399.70	1923.92
399.90	1942.64
400.09	2026.90
400.28	2031.58
400.47	1975.41
400.67	2094.78
400.86	2115.84
401.05	2062.01
401.24	2050.31
401.44	2078.40
401.63	2120.53
401.82	2122.87
402.01	2008.18
402.21	2090.10
402.40	2174.36
402.59	2202.44
402.78	2253.94
402.97	2155.63
403.17	2211.81
403.36	2216.49
403.55	2251.60
403.74	2314.79
403.93	2279.68
404.13	2441.18
404.32	2370.96
404.51	2396.71
404.70	2359.26
404.89	2506.71
405.09	2457.56
405.28	2448.20
405.47	2457.56
405.66	2485.65
405.85	2523.10
406.05	2523.10
406.24	2520.76
406.43	2476.29
406.62	2661.19
406.81	2600.34
407.00	2581.61
407.20	2616.72
407.39	2675.23
407.58	2609.70
407.77	2738.43
407.96	2738.43
408.15	2590.97
408.34	2743.11
408.54	2729.06
408.73	2719.70
408.92	2782.90
409.11	2897.58
409.30	2829.71
409.49	2846.09
409.68	2953.76
409.87	2949.08
410.07	2867.16
410.26	2977.16
410.45	2986.52
410.64	3007.59
410.83	3033.33
411.02	3091.85
411.21	3096.53
411.40	3038.02
411.59	3145.68
411.78	3126.96
411.98	3251.00
412.17	3255.69
412.36	3421.86
412.55	3260.37
412.74	3281.43
412.93	3424.20
413.12	3386.76
413.31	3515.48
413.50	3478.04
413.69	3433.57
413.88	3538.89
414.07	3595.06
414.26	3595.06
414.45	3695.71
414.64	3648.90
414.83	3702.73
415.02	3761.24
415.22	3913.38
415.41	3864.22
415.60	3817.41
415.79	3864.22
415.98	3894.65
416.17	4002.32
416.36	3922.74
416.55	3932.10
416.74	3920.40
416.93	3999.98
417.12	4086.58
417.31	4248.07
417.50	4028.06
417.69	4131.05
417.88	4257.43
418.07	4203.60
418.26	4311.27
418.45	4187.22
418.64	4503.19
418.83	4432.97
419.02	4402.55
419.21	4418.93
419.39	4512.55
419.58	4421.27
419.77	4578.09
419.96	4557.02
420.15	4528.94
420.34	4634.26
420.53	4578.09
420.72	4634.26
420.91	4758.31
421.10	4849.59
421.29	4765.33
421.48	4681.07
421.67	4667.03
421.86	4744.27
422.05	4814.48
422.24	4931.51
422.43	4814.48
422.61	4772.35
422.80	4975.98
422.99	4931.51
423.18	4917.47
423.37	4929.17
423.56	4894.06
423.75	4968.96
423.94	4929.17
424.13	4758.31
424.32	4821.50
424.50	4926.83
424.69	5107.05
424.88	5013.43
425.07	4922.15
425.26	4833.21
425.45	4957.25
425.64	4936.19
425.83	4849.59
426.01	5008.75
426.20	5027.47
426.39	4985.34
426.58	5008.75
426.77	4945.55
426.96	4994.70
427.15	5137.48
427.33	5266.21
427.52	5111.73
427.71	5174.92
427.90	5144.50
428.09	5205.35
428.28	5160.88
428.46	5296.63
428.65	5177.26
428.84	5394.93
429.03	5479.19
429.22	5184.29
429.40	5472.17
429.59	5416.00
429.78	5174.92
429.97	5310.68
430.16	5268.55
430.34	5628.99
430.53	5607.92
430.72	5561.11
430.91	5568.13
431.10	5416.00
431.28	5572.82
431.47	5750.70
431.66	5830.27
431.85	5870.06
432.03	5881.77
432.22	6022.20
432.41	5907.51
432.60	5860.70
432.79	5729.63
432.97	5851.34
433.16	5970.71
433.35	5872.40
433.54	6129.86
433.72	5996.45
433.91	6076.03
434.10	6120.50
434.28	6010.50
434.47	6167.31
434.66	6193.06
434.85	6319.45
435.03	6380.30
435.22	6305.40
435.41	6455.20
435.59	6335.83
435.78	6464.56
435.97	6340.51
436.16	6516.05
436.34	6389.66
436.53	6532.44
436.72	6595.63
436.90	6289.02
437.09	6672.87
437.28	6441.15
437.46	6548.82
437.65	6757.13
437.84	6679.89
438.02	6604.99
438.21	6810.96
438.40	6609.67
438.58	7045.01
438.77	7211.19
438.96	6829.68
439.14	7145.66
439.33	7112.89
439.52	7159.70
439.70	7164.38
439.89	7201.83
440.08	7307.15
440.26	7171.40
440.45	7246.30
440.63	7337.58
440.82	7440.56
441.01	7482.69
441.19	7616.10
441.38	7548.23
441.57	7620.78
441.75	7838.45
441.94	7882.92
442.12	7925.05
442.31	7946.12
442.50	7889.95
442.68	7892.29
442.87	8102.93
443.05	8023.36
443.24	8077.19
443.43	8166.13
443.61	8086.55
443.80	8528.91
443.98	8287.84
444.17	7939.10
444.35	8348.69
444.54	8322.94
444.73	8241.03
444.91	8224.64
445.10	8379.12
445.28	8325.29
445.47	8187.19
445.65	8418.91
445.84	8383.80
446.02	8304.22
446.21	8344.01
446.39	8236.35
446.58	8285.50
446.77	8456.36
446.95	8067.83
447.14	8358.05
447.32	8566.36
447.51	8383.80
447.69	8627.21
447.88	8491.46
448.06	8241.03
448.25	8395.50
448.43	8606.15
448.62	8585.08
448.80	8472.74
448.99	8365.07
449.17	8709.13
449.36	8765.31
449.54	8784.03
449.73	8833.18
449.91	8877.65
450.10	8975.95
450.28	9043.83
450.46	9041.49
450.65	8997.02
450.83	9174.90
451.02	8933.82
451.20	9303.63
451.39	9151.49
451.57	9184.26
451.76	8833.18
451.94	9083.62
452.13	9296.61
452.31	9221.71
452.49	9261.50
452.68	9514.28
452.86	9198.31
453.05	9210.01
453.23	9376.19
453.42	9343.42
453.60	9383.21
453.78	9525.98
453.97	9467.47
454.15	9495.55
454.34	9404.27
454.52	9650.03
454.70	9682.80
454.89	9558.75
455.07	9788.12
455.26	10026.86
455.44	9727.27
455.62	9933.23
455.81	9699.18
455.99	9891.10
456.17	9778.76
456.36	10047.92
456.54	10129.84
456.73	9961.32
456.91	10459.85
457.09	10406.02
457.28	10581.56
457.46	10279.63
457.64	10476.24
457.83	10406.02
458.01	10324.10
458.19	10815.62
458.38	10420.06
458.56	10422.41
458.74	10523.05
458.93	10691.57
459.11	10733.70
459.29	10707.95
459.48	10740.72
459.66	10768.80
459.84	10867.11
460.03	11042.65
460.21	10981.79
460.39	11063.71
460.57	11094.14
460.76	11044.99
460.94	11323.51
461.12	11194.78
461.31	11124.57
461.49	11009.88
461.67	11185.42
461.85	11417.13
462.04	11269.68
462.22	11873.54
462.40	11426.50
462.59	11454.58
462.77	11461.60
462.95	11578.63
463.13	11398.41
463.32	11506.07
463.50	11681.61
463.68	11620.76
463.86	11822.05
464.05	11461.60
464.23	11602.04
464.41	11805.66
464.59	11463.94
464.78	12203.55
464.96	11782.26
465.14	11810.34
465.32	11929.71
465.50	11976.52
465.69	11934.39
465.87	11992.90
466.05	12013.97
466.23	12006.95
466.41	12231.64
466.60	12182.49
466.78	12070.14
466.96	11974.18
467.14	11939.07
467.32	12217.60
467.51	12526.55
467.69	12135.68
467.87	12304.20
468.05	12503.14
468.23	12236.32
468.41	12311.22
468.60	12521.87
468.78	12659.96
468.96	12388.46
469.14	12861.24
469.32	13097.64
469.50	12751.24
469.69	12931.46
469.87	13144.45
470.05	13245.09
470.23	13116.36
470.41	13011.04
470.59	13118.70
470.77	12786.35
470.95	13104.66
471.14	13626.60
471.32	12992.31
471.50	13568.09
471.68	13617.24
471.86	13446.38
472.04	13530.64
472.22	14080.66
472.40	13635.96
472.58	13696.82
472.77	13731.92
472.95	14274.93
473.13	14361.53
473.31	13961.30
473.49	13944.91
473.67	14054.92
473.85	14118.11
474.03	14590.90
474.21	14295.99
474.39	14567.49
474.57	14693.88
474.75	14810.91
474.93	14892.83
475.12	14719.63
475.30	15030.92
475.48	15061.35
475.66	14944.32
475.84	14937.30
476.02	15225.18
476.20	15339.87
476.38	15583.29
476.56	15936.71
476.74	15712.02
476.92	15852.45
477.10	15894.58
477.28	16163.74
477.46	16133.31
477.64	16182.46
477.82	16217.57
478.00	16695.04
478.18	16376.73
478.36	16531.20
478.54	16966.54
478.72	17238.05
478.90	17261.45
479.08	17326.99
479.26	17404.22
479.44	17502.53
479.62	17699.13
479.80	17799.77
479.98	18192.98
480.16	18436.40
480.34	18099.36
480.52	18515.98
480.70	18544.06
480.88	18207.03
481.06	18728.97
481.24	18611.94
481.41	18941.96
481.59	19012.17
481.77	19473.26
481.95	19491.98
482.13	19435.81
482.31	19264.95
482.49	20114.56
482.67	19985.83
482.85	20276.06
483.03	20297.13
483.21	20762.89
483.39	20514.80
483.57	21067.16
483.74	21151.42
483.92	21200.57
484.10	20842.47
484.28	21422.92
484.46	21783.37
484.64	22094.66
484.82	21919.12
485.00	22319.35
485.18	22562.76
485.35	22862.35
485.53	22558.08
485.71	22852.99
485.89	23075.34
486.07	23365.57
486.25	23061.30
486.43	23475.57
486.61	23578.56
486.78	23983.47
486.96	24217.52
487.14	24517.11
487.32	24409.45
487.50	24744.14
487.68	24854.15
487.85	25132.67
488.03	25603.12
488.21	25436.94
488.39	25226.29
488.57	25891.01
488.75	25893.35
488.92	26384.86
489.10	26251.45
489.28	26450.39
489.46	26801.47
489.64	27056.59
489.81	27218.09
489.99	27339.80
490.17	27672.15
490.35	27908.55
490.53	28072.39
490.70	28166.01
490.88	28006.85
491.06	28320.48
491.24	28444.53
491.41	28819.02
491.59	29090.52
491.77	29027.32
491.95	29305.85
492.13	29874.60
492.30	29530.54
492.48	29844.17
492.66	29860.55
492.84	30010.35
493.01	30541.65
493.19	30635.27
493.37	30405.90
493.54	30998.06
493.72	31440.42
493.90	30911.46
494.08	31545.74
494.25	31718.94
494.43	31800.86
494.61	32320.46
494.79	32170.66
494.96	32091.09
495.14	32992.19
495.32	32528.77
495.49	32875.16
495.67	32980.49
495.85	33364.34
496.02	33661.58
496.20	33567.96
496.38	34106.29
496.55	33795.00
496.73	34366.09
496.91	34195.23
497.09	34438.64
497.26	34581.42
497.44	34787.38
497.62	35070.59
497.79	35370.18
497.97	34939.52
498.14	35723.60
498.32	35892.12
498.50	35945.95
498.67	36034.89
498.85	36011.48
499.03	36554.49
499.20	36418.74
499.38	36655.13
499.56	37113.87
499.73	37397.08
499.91	37029.62
500.08	37614.75
500.26	37432.19
500.44	37333.89
500.61	37661.56
500.79	37699.01
500.97	37677.94
501.14	38115.62
501.32	38546.28
501.49	38185.84
501.67	38532.24
501.84	39005.03
502.02	38487.77
502.20	38785.02
502.37	39381.85
502.55	38686.71
502.72	39028.43
502.90	39161.84
503.07	39295.25
503.25	39583.14
503.43	39358.45
503.60	39976.35
503.78	40250.19
503.95	39887.41
504.13	40165.93
504.30	40238.49
504.48	40135.51
504.65	40236.15
504.83	40594.25
505.01	41383.01
505.18	41081.08
505.36	41401.74
505.53	41127.89
505.71	41265.99
505.88	41743.45
506.06	41261.30
506.23	41493.02
506.41	41577.28
506.58	41970.49
506.76	41926.02
506.93	42171.77
507.11	41860.48
507.28	42239.65
507.46	42525.19
507.63	42438.59
507.81	42845.85
507.98	42555.62
508.16	42602.43
508.33	43138.41
508.50	42997.98
508.68	43601.84
508.85	43227.35
509.03	43522.26
509.20	43784.40
509.38	44198.68
509.55	43936.54
509.73	43789.08
509.90	44058.24
510.08	44250.17
510.25	44449.11
510.42	44364.85
510.60	44879.77
510.77	44624.65
510.95	45287.03
511.12	44432.73
511.30	44989.78
511.47	45371.28
511.64	44987.44
511.82	45406.39
511.99	45603.00
512.17	45794.92
512.34	45635.77
512.51	46309.84
512.69	46054.72
512.86	46094.51
513.04	46351.97
513.21	46160.05
513.38	46370.69
513.56	46347.29
513.73	46396.44
513.90	46979.23
514.08	46672.62
514.25	46799.01
514.43	47299.89
514.60	46979.23
514.77	47313.93
514.95	47824.17
515.12	47606.50
515.29	47423.93
515.47	47945.87
515.64	47817.14
515.81	47505.85
515.99	47945.87
516.16	48067.58
516.33	47948.21
516.51	48559.09
516.68	48334.40
516.85	47952.90
517.03	48587.18
517.20	48718.25
517.37	48467.81
517.54	48367.17
517.72	48842.30
517.89	48554.41
518.06	48907.83
518.24	49268.28
518.41	49055.29
518.58	49106.78
518.75	48959.33
518.93	48994.43
519.10	49308.07
519.27	49443.82
519.45	49530.42
519.62	49478.92
519.79	49680.21
519.96	49509.35
520.14	50110.87
520.31	50148.32
520.48	50241.94
520.65	49844.05
520.83	50525.14
521.00	50110.87
521.17	50349.60
521.34	50520.46
521.52	50543.87
521.69	50405.78
521.86	50749.84
522.03	51107.94
522.20	50829.41
522.38	51114.96
522.55	51260.07
522.72	51304.54
522.89	51042.40
523.07	51370.08
523.24	51304.54
523.41	51585.41
523.58	51276.46
523.75	51707.12
523.92	51650.94
524.10	51536.26
524.27	51817.12
524.44	51819.46
524.61	51978.62
524.78	52027.77
524.96	52009.04
525.13	52184.58
525.30	52086.28
525.47	52308.63
525.64	52399.91
525.81	52439.70
525.98	52732.27
526.16	52460.77
526.33	52624.60
526.50	53097.39
526.67	52540.35
526.84	52622.26
527.01	52896.11
527.18	52729.93
527.36	52795.46
527.53	52446.72
527.70	53085.69
527.87	53268.25
528.04	52594.18
528.21	53062.29
528.38	53111.44
528.55	53336.13
528.72	53155.91
528.89	53120.80
529.07	53249.53
529.24	53504.65
529.41	53523.37
529.58	53483.58
529.75	53565.50
529.92	53551.46
530.09	53628.69
530.26	53532.73
530.43	53804.24
530.60	53876.79
530.77	53537.41
530.94	54035.95
531.11	53745.72
531.28	53883.81
531.46	54033.61
531.63	54178.72
531.80	54218.51
531.97	54120.21
532.14	54101.48
532.31	54255.96
532.48	54295.75
532.65	54527.46
532.82	54494.69
532.99	54375.33
533.16	54321.49
533.33	54522.78
533.50	54653.85
533.67	54611.72
533.84	54567.25
534.01	54695.98
534.18	54852.80
534.35	55117.28
534.52	54782.58
534.69	55133.66
534.86	55276.43
535.03	54855.14
535.20	54873.86
535.37	55351.33
535.54	55114.94
535.71	55018.97
535.88	55351.33
536.05	55119.62
536.22	55356.01
536.38	55538.57
536.55	55138.34
536.72	55136.00
536.89	55477.72
537.06	55498.78
537.23	55522.19
537.40	55569.00
537.57	55526.87
537.74	55487.08
537.91	55896.67
538.08	55758.58
538.25	55781.99
538.42	55735.18
538.59	55913.06
538.75	55655.60
538.92	55842.84
539.09	56079.24
539.26	56133.07
539.43	55922.42
539.60	56030.08
539.77	56140.09
539.94	56418.61
540.11	56170.52
540.28	56334.35
540.44	56346.06
540.61	56126.05
540.78	56362.44
540.95	56264.14
541.12	56350.74
541.29	56353.08
541.46	56275.84
541.62	56467.76
541.79	56502.87
541.96	56079.24
542.13	56512.23
542.30	56296.91
542.47	56727.56
542.63	56537.98
542.80	56657.35
542.97	56729.90
543.14	57069.28
543.31	57233.12
543.48	57212.06
543.64	57434.41
543.81	57010.77
543.98	56919.49
544.15	57092.69
544.32	57176.95
544.48	57205.03
544.65	57441.43
544.82	57345.47
544.99	56982.68
545.16	57413.34
545.32	57319.72
545.49	57724.63
545.66	57532.71
545.83	57577.18
546.00	57425.04
546.16	57322.06
546.33	57338.44
546.50	57382.91
546.67	57553.77
546.83	57347.81
547.00	57483.56
547.17	57504.62
547.34	57572.50
547.50	57691.86
547.67	58075.71
547.84	57954.00
548.00	58085.07
548.17	58003.16
548.34	57935.28
548.51	57822.93
548.67	58155.29
548.84	58003.16
549.01	58087.42
549.18	57818.25
549.34	58028.90
549.51	58281.68
549.68	58101.46
549.84	58122.52
550.01	58272.32
550.18	58209.12
550.34	58314.45
550.51	58286.36
550.68	58365.94
550.84	58141.25
551.01	58394.03
551.18	58094.44
551.34	58419.77
551.51	58370.62
551.68	58415.09
551.84	58314.45
552.01	58262.96
552.18	58429.13
552.34	58251.25
552.51	58541.48
552.68	58571.91
552.84	58742.77
553.01	58712.34
553.18	58805.96
553.34	58555.52
553.51	58740.42
553.67	58824.68
553.84	58953.41
554.01	58897.24
554.17	58820.00
554.34	59075.12
554.51	58969.80
554.67	58960.44
554.84	58834.05
555.00	58726.38
555.17	58775.53
555.33	58803.62
555.50	58979.16
555.67	58672.55
555.83	58726.38
556.00	59056.40
556.16	59255.34
556.33	59077.46
556.50	58944.05
556.66	59264.70
556.83	59121.93
556.99	59238.96
557.16	59470.67
557.32	59381.73
557.49	59543.23
557.65	59110.23
557.82	59386.41
557.98	58995.54
558.15	59192.15
558.32	59250.66
558.48	59260.02
558.65	59409.82
558.81	59180.45
558.98	59304.49
559.14	59512.80
559.31	59449.61
559.47	59194.49
559.64	59604.08
559.80	59405.14
559.97	59625.15
560.13	59412.16
560.30	59475.35
560.46	59711.75
560.63	59716.43
560.79	59510.46
560.96	59597.06
561.12	59735.15
561.29	59779.62
561.45	59587.70
561.61	59742.17
561.78	59821.75
561.94	59566.63
562.11	59512.80
562.27	59608.76
562.44	59817.07
562.60	59674.30
562.77	59959.84
562.93	59845.16
563.10	59749.20
563.26	59629.83
563.42	59999.63
563.59	59704.73
563.75	59810.05
563.92	59910.69
564.08	59849.84
564.24	59948.14
564.41	59894.31
564.57	60104.96
564.74	59889.63
564.90	60104.96
565.07	59941.12
565.23	60165.81
565.39	59915.37
565.56	60259.43
565.72	59929.42
565.88	60041.76
566.05	59952.82
566.21	60065.17
566.38	60102.62
566.54	60186.88
566.70	60296.88
566.87	60257.09
567.03	59920.05
567.19	60411.57
567.36	60198.58
567.52	60144.75
567.68	60488.80
567.85	60287.52
568.01	60439.65
568.17	60233.69
568.34	60308.58
568.50	60140.07
568.66	60383.48
568.83	60303.90
568.99	60090.91
569.15	60353.05
569.32	60327.31
569.48	60175.17
569.64	60294.54
569.81	60383.48
569.97	60294.54
570.13	60360.08
570.30	60083.89
570.46	60254.75
570.62	60236.03
570.78	60355.39
570.95	60320.29
571.11	60395.18
571.27	60346.03
571.43	60210.28
571.60	60573.06
571.76	60416.25
571.92	60460.72
572.09	60416.25
572.25	60334.33
572.41	60364.76
572.57	60301.56
572.74	60692.43
572.90	60364.76
573.06	60584.77
573.22	60395.18
573.38	60502.85
573.55	60587.11
573.71	60715.84
573.87	60472.42
574.03	60537.96
574.20	60477.10
574.36	60388.16
574.52	60711.16
574.68	60552.00
574.84	60832.86
575.01	60561.36
575.17	60554.34
575.33	60580.09
575.49	60500.51
575.65	60533.28
575.82	60619.88
575.98	60615.19
576.14	60900.74
576.30	60734.56
576.46	60488.80
576.62	60491.15
576.79	60575.40
576.95	60554.34
577.11	60495.83
577.27	60671.37
577.43	60474.76
577.59	60537.96
577.75	60575.40
577.92	60460.72
578.08	60718.18
578.24	60776.69
578.40	60952.23
578.56	60996.70
578.72	60917.12
578.88	60846.91
579.04	60872.65
579.21	60687.75
579.37	60874.99
579.53	61041.17
579.69	60837.54
579.85	60757.97
580.01	60521.57
580.17	60552.00
580.33	60746.26
580.49	60832.86
580.65	60914.78
580.82	60582.43
580.98	60870.31
581.14	60811.80
581.30	61038.83
581.46	60680.73
581.62	60643.28
581.78	60828.18
581.94	60690.09
582.10	60676.05
582.26	60877.33
582.42	60832.86
582.58	60823.50
582.74	60708.82
582.90	60762.65
583.06	60683.07
583.22	60748.60
583.38	60977.98
583.54	60884.36
583.70	60762.65
583.86	60713.50
584.02	60823.50
584.18	60807.12
584.34	60814.14
584.50	60818.82
584.66	60713.50
584.82	60760.31
584.98	61076.28
585.14	60928.83
585.30	60802.44
585.46	60980.32
585.62	60912.44
585.78	61043.51
585.94	60699.45
586.10	61106.71
586.26	60816.48
586.42	61073.94
586.58	60870.31
586.74	60963.93
586.90	60715.84
587.06	60842.23
587.22	61029.47
587.38	60898.40
587.54	61095.00
587.70	61300.97
587.86	60893.72
588.02	61048.19
588.18	61099.68
588.34	60825.84
588.49	61027.13
