SpectraSuite Data File
++++++++++++++++++++++++++++++++++++
Date: Fri Oct 25 11:34:08 EDT 2013
User: price-jones
Dark Spectrum Present: No
Reference Spectrum Present: No
Number of Sampled Component Spectra: 1
Spectrometers: USB2+H05261
Integration Time (usec): 100000 (USB2+H05261)
Spectra Averaged: 1 (USB2+H05261)
Boxcar Smoothing: 0 (USB2+H05261)
Correct for Electrical Dark: No (USB2+H05261)
Strobe/Lamp Enabled: No (USB2+H05261)
Correct for Detector Non-linearity: No (USB2+H05261)
Correct for Stray Light: No (USB2+H05261)
Number of Pixels in Processed Spectrum: 2048
>>>>>Begin Processed Spectral Data<<<<<
365.73	273.84
365.92	273.84
366.12	273.84
366.32	222.35
366.52	182.56
366.72	166.18
366.91	205.97
367.11	131.07
367.31	177.88
367.51	156.82
367.70	203.63
367.90	198.95
368.10	152.13
368.30	189.58
368.49	173.20
368.69	159.16
368.89	229.37
369.09	238.73
369.28	236.39
369.48	212.99
369.68	243.42
369.87	236.39
370.07	238.73
370.27	306.61
370.47	402.57
370.66	510.24
370.86	500.87
371.06	526.62
371.25	543.00
371.45	519.60
371.65	592.16
371.84	580.45
372.04	543.00
372.24	615.56
372.44	552.37
372.63	559.39
372.83	596.84
373.03	566.41
373.22	664.71
373.42	641.31
373.62	594.50
373.81	648.33
374.01	704.50
374.21	608.54
374.40	638.97
374.60	643.65
374.79	664.71
374.99	671.73
375.19	697.48
375.38	599.18
375.58	660.03
375.78	685.78
375.97	711.52
376.17	758.33
376.37	690.46
376.56	650.67
376.76	685.78
376.95	631.94
377.15	653.01
377.35	758.33
377.54	683.44
377.74	709.18
377.93	751.31
378.13	688.12
378.33	777.06
378.52	767.70
378.72	664.71
378.91	788.76
379.11	723.23
379.31	737.27
379.50	711.52
379.70	695.14
379.89	685.78
380.09	662.37
380.28	725.57
380.48	774.72
380.68	765.36
380.87	683.44
381.07	751.31
381.26	723.23
381.46	791.10
381.65	695.14
381.85	709.18
382.04	807.48
382.24	770.04
382.43	655.35
382.63	653.01
382.83	723.23
383.02	772.38
383.22	767.70
383.41	826.21
383.61	741.95
383.80	866.00
384.00	793.44
384.19	821.53
384.39	835.57
384.58	802.80
384.78	835.57
384.97	833.23
385.17	875.36
385.36	767.70
385.56	800.46
385.75	767.70
385.95	849.61
386.14	950.26
386.34	777.06
386.53	847.27
386.72	823.87
386.92	856.64
387.11	835.57
387.31	866.00
387.50	870.68
387.70	866.00
387.89	877.70
388.09	873.02
388.28	863.66
388.48	940.90
388.67	901.11
388.86	917.49
389.06	842.59
389.25	905.79
389.45	884.72
389.64	912.81
389.84	905.79
390.03	971.32
390.22	912.81
390.42	954.94
390.61	1008.77
390.81	945.58
391.00	1039.20
391.19	947.92
391.39	945.58
391.58	990.05
391.78	1029.84
391.97	1027.50
392.16	952.60
392.36	1090.69
392.55	1062.60
392.75	997.07
392.94	1074.31
393.13	1050.90
393.33	1006.43
393.52	1078.99
393.71	1177.29
393.91	1071.97
394.10	947.92
394.29	1025.15
394.49	1137.50
394.68	1071.97
394.88	1090.69
395.07	1158.57
395.26	1139.84
395.46	1165.59
395.65	1179.63
395.84	1186.65
396.04	1210.06
396.23	1210.06
396.42	1067.28
396.62	1277.93
396.81	1156.22
397.00	1235.80
397.19	1203.04
397.39	1203.04
397.58	1231.12
397.77	1233.46
397.97	1242.82
398.16	1212.40
398.35	1249.85
398.55	1205.38
398.74	1256.87
398.93	1252.19
399.12	1207.72
399.32	1240.48
399.51	1287.29
399.70	1359.85
399.90	1273.25
400.09	1380.92
400.28	1331.76
400.47	1280.27
400.67	1397.30
400.86	1397.30
401.05	1369.21
401.24	1472.20
401.44	1275.59
401.63	1401.98
401.82	1444.11
402.01	1488.58
402.21	1439.43
402.40	1500.28
402.59	1458.15
402.78	1540.07
402.97	1528.37
403.17	1547.09
403.36	1495.60
403.55	1551.78
403.74	1544.75
403.93	1624.33
404.13	1640.72
404.32	1612.63
404.51	1659.44
404.70	1668.80
404.89	1516.67
405.09	1614.97
405.28	1572.84
405.47	1600.93
405.66	1701.57
405.85	1739.02
406.05	1664.12
406.24	1668.80
406.43	1727.32
406.62	1692.21
406.81	1881.79
407.00	1710.93
407.20	1767.10
407.39	1699.23
407.58	1884.13
407.77	1818.60
407.96	1792.85
408.15	1865.41
408.34	1774.13
408.54	1930.94
408.73	1973.07
408.92	1853.70
409.11	1853.70
409.30	1921.58
409.49	1935.62
409.68	1832.64
409.87	1956.69
410.07	1977.75
410.26	1987.11
410.45	2036.27
410.64	2054.99
410.83	2073.71
411.02	2160.31
411.21	2160.31
411.40	2143.93
411.59	2094.78
411.78	2134.57
411.98	2111.16
412.17	2197.76
412.36	2277.34
412.55	2235.21
412.74	2197.76
412.93	2326.49
413.12	2300.75
413.31	2406.07
413.50	2363.94
413.69	2441.18
413.88	2480.97
414.07	2399.05
414.26	2380.32
414.45	2490.33
414.64	2520.76
414.83	2553.52
415.02	2539.48
415.22	2480.97
415.41	2523.10
415.60	2616.72
415.79	2602.68
415.98	2700.98
416.17	2562.89
416.36	2693.96
416.55	2750.13
416.74	2722.04
416.93	2689.28
417.12	2696.30
417.31	2883.54
417.50	2869.50
417.69	2899.92
417.88	2836.73
418.07	2860.13
418.26	2813.32
418.45	2942.05
418.64	3108.23
418.83	3002.91
419.02	3054.40
419.21	2972.48
419.39	3054.40
419.58	3023.97
419.77	3007.59
419.96	3129.30
420.15	3143.34
420.34	3218.24
420.53	3169.09
420.72	3213.56
420.91	3297.81
421.10	3133.98
421.29	3295.47
421.48	3246.32
421.67	3272.07
421.86	3173.77
422.05	3262.71
422.24	3183.13
422.43	3258.03
422.61	3332.92
422.80	3358.67
422.99	3325.90
423.18	3236.96
423.37	3475.70
423.56	3309.52
423.75	3466.33
423.94	3269.73
424.13	3129.30
424.32	3290.79
424.50	3492.08
424.69	3538.89
424.88	3461.65
425.07	3321.22
425.26	3410.16
425.45	3375.05
425.64	3232.28
425.83	3297.81
426.01	3384.41
426.20	3344.63
426.39	3449.95
426.58	3286.11
426.77	3351.65
426.96	3419.52
427.15	3592.72
427.33	3658.26
427.52	3625.49
427.71	3576.34
427.90	3475.70
428.09	3515.48
428.28	3648.90
428.46	3557.61
428.65	3644.21
428.84	3763.58
429.03	3754.22
429.22	3637.19
429.40	3794.01
429.59	3660.60
429.78	3623.15
429.97	3616.13
430.16	3707.41
430.34	3744.86
430.53	3960.19
430.72	3791.67
430.91	3868.91
431.10	3709.75
431.28	3861.88
431.47	3850.18
431.66	3999.98
431.85	3854.86
432.03	3934.44
432.22	4042.11
432.41	3978.91
432.60	3997.64
432.79	3911.04
432.97	4051.47
433.16	4011.68
433.35	4079.55
433.54	4159.13
433.72	4124.02
433.91	4039.76
434.10	4016.36
434.28	4072.53
434.47	4065.51
434.66	4072.53
434.85	4257.43
435.03	4203.60
435.22	4245.73
435.41	4351.06
435.59	4222.33
435.78	4311.27
435.97	4315.95
436.16	4320.63
436.34	4334.67
436.53	4353.40
436.72	4465.74
436.90	4304.25
437.09	4411.91
437.28	4540.64
437.46	4463.40
437.65	4325.31
437.84	4559.36
438.02	4468.08
438.21	4472.76
438.40	4526.60
438.58	4652.98
438.77	4720.86
438.96	4688.09
439.14	4706.82
439.33	4814.48
439.52	4730.22
439.70	4870.65
439.89	4807.46
440.08	4868.31
440.26	4905.76
440.45	4971.30
440.63	4837.89
440.82	5074.28
441.01	4990.02
441.19	5181.95
441.38	5093.01
441.57	4947.89
441.75	5085.98
441.94	5303.65
442.12	5263.86
442.31	5364.51
442.50	5249.82
442.68	5163.22
442.87	5298.97
443.05	5542.39
443.24	5350.46
443.43	5446.43
443.61	5544.73
443.80	5549.41
443.98	5413.66
444.17	5100.03
444.35	5425.36
444.54	5708.57
444.73	5540.05
444.91	5645.37
445.10	5671.12
445.28	5577.50
445.47	5577.50
445.65	5460.47
445.84	5568.13
446.02	5610.26
446.21	5563.45
446.39	5500.26
446.58	5575.16
446.77	5645.37
446.95	5591.54
447.14	5647.71
447.32	5633.67
447.51	5561.11
447.69	5626.65
447.88	5678.14
448.06	5734.31
448.25	5853.68
448.43	5687.50
448.62	5605.58
448.80	5746.02
448.99	5795.17
449.17	5841.98
449.36	5790.49
449.54	5870.06
449.73	5891.13
449.91	5923.90
450.10	5893.47
450.28	5921.56
450.46	5898.15
450.65	5959.00
450.83	6022.20
451.02	5933.26
451.20	6169.65
451.39	5994.11
451.57	6265.61
451.76	6122.84
451.94	6026.88
452.13	6150.93
452.31	6169.65
452.49	6040.92
452.68	6174.33
452.86	6363.92
453.05	6338.17
453.23	6319.45
453.42	6274.98
453.60	6296.04
453.78	6382.64
453.97	6211.78
454.15	6256.25
454.34	6445.84
454.52	6356.90
454.70	6469.24
454.89	6483.28
455.07	6422.43
455.26	6478.60
455.44	6581.59
455.62	6478.60
455.81	6576.91
455.99	6689.25
456.17	6590.95
456.36	6530.09
456.54	6574.56
456.73	6724.36
456.91	6715.00
457.09	6738.40
457.28	6862.45
457.46	7056.72
457.64	6857.77
457.83	6855.43
458.01	7037.99
458.19	6991.18
458.38	6970.12
458.56	7199.49
458.74	6829.68
458.93	6890.54
459.11	7026.29
459.29	7119.91
459.48	7117.57
459.66	7047.35
459.84	7213.53
460.03	7297.79
460.21	7185.44
460.39	7206.51
460.57	7103.53
460.76	7269.70
460.94	7339.92
461.12	7288.43
461.31	7494.40
461.49	7255.66
461.67	7398.43
461.85	7569.29
462.04	7440.56
462.22	7791.64
462.40	7653.55
462.59	7873.56
462.77	7459.29
462.95	7524.82
463.13	7616.10
463.32	7646.53
463.50	7742.49
463.68	7735.47
463.86	7679.30
464.05	7562.27
464.23	7786.96
464.41	7756.54
464.59	7585.68
464.78	8016.33
464.96	7950.80
465.14	7786.96
465.32	7819.73
465.50	7962.50
465.69	7985.91
465.87	8198.90
466.05	7915.69
466.23	7934.42
466.41	7983.57
466.60	8105.28
466.78	8016.33
466.96	8009.31
467.14	7899.31
467.32	7922.71
467.51	8226.98
467.69	7793.98
467.87	8107.62
468.05	8100.59
468.23	8166.13
468.41	8138.04
468.60	8241.03
468.78	8360.39
468.96	8262.09
469.14	8372.10
469.32	8435.29
469.50	8278.47
469.69	8351.03
469.87	8510.19
470.05	8491.46
470.23	8617.85
470.41	8702.11
470.59	8634.24
470.77	8571.04
470.95	8788.71
471.14	8915.10
471.32	8727.86
471.50	8809.78
471.68	8781.69
471.86	8840.20
472.04	8844.88
472.22	9144.47
472.40	8959.57
472.58	9167.88
472.77	9083.62
472.95	9188.94
473.13	9638.33
473.31	9036.81
473.49	9205.33
473.67	9350.44
473.85	9289.59
474.03	9390.23
474.21	9423.00
474.39	9439.38
474.57	9507.26
474.75	9738.97
474.93	9820.89
475.12	9745.99
475.30	9736.63
475.48	9589.17
475.66	9912.17
475.84	9724.93
476.02	9830.25
476.20	9923.87
476.38	10071.33
476.56	10387.30
476.74	10300.70
476.92	10174.31
477.10	10225.80
477.28	10239.84
477.46	10586.24
477.64	10558.16
477.82	10726.68
478.00	11028.60
478.18	10827.32
478.36	10930.30
478.54	11033.29
478.72	11164.36
478.90	11351.60
479.08	11267.34
479.26	11365.64
479.44	11555.22
479.62	11412.45
479.80	11735.45
479.98	11602.04
480.16	12023.33
480.34	11597.35
480.52	11988.22
480.70	11903.96
480.88	12079.50
481.06	12025.67
481.24	12163.76
481.41	12379.09
481.59	12437.61
481.77	12442.29
481.95	12369.73
482.13	12924.44
482.31	12725.49
482.49	13266.16
482.67	13231.05
482.85	12898.69
483.03	13336.37
483.21	13645.32
483.39	13308.29
483.57	13224.03
483.74	13467.44
483.92	13760.01
484.10	13614.90
484.28	13675.75
484.46	14293.65
484.64	14279.61
484.82	14064.28
485.00	14279.61
485.18	14253.86
485.35	14562.81
485.53	14771.12
485.71	14913.89
485.89	15073.05
486.07	15021.56
486.25	14824.95
486.43	15068.37
486.61	15389.02
486.78	15482.64
486.96	15435.83
487.14	15445.20
487.32	15719.04
487.50	15861.81
487.68	16020.97
487.85	16170.76
488.03	16421.20
488.21	16620.14
488.39	16521.84
488.57	16730.15
488.75	16821.43
488.92	17011.01
489.10	17261.45
489.28	17303.58
489.46	17202.94
489.64	17310.60
489.81	17694.45
489.99	17813.82
490.17	17741.26
490.35	18024.47
490.53	18155.54
490.70	18239.79
490.88	17958.93
491.06	18434.06
491.24	18562.79
491.41	18490.23
491.59	18710.24
491.77	18628.32
491.95	18988.77
492.13	19168.99
492.30	19199.41
492.48	19445.17
492.66	19349.21
492.84	19515.39
493.01	19475.60
493.19	19477.94
493.37	19861.79
493.54	20173.08
493.72	20535.86
493.90	20231.59
494.08	20418.83
494.25	20322.87
494.43	20475.01
494.61	20402.45
494.79	20652.89
494.96	20568.63
495.14	21008.65
495.32	21380.79
495.49	21345.69
495.67	20954.82
495.85	21460.37
496.02	21802.09
496.20	21668.68
496.38	21671.02
496.55	21734.21
496.73	22373.18
496.91	21947.20
497.09	22118.06
497.26	22373.18
497.44	22047.85
497.62	22398.93
497.79	22785.12
497.97	22897.46
498.14	23101.09
498.32	23096.41
498.50	23311.74
498.67	23089.38
498.85	23190.03
499.03	23403.02
499.20	23777.50
499.38	23194.71
499.56	23866.44
499.73	24121.56
499.91	23733.03
500.08	24020.92
500.26	24030.28
500.44	24201.14
500.61	24196.46
500.79	23955.38
500.97	24444.56
501.14	24807.34
501.32	25046.07
501.49	24730.10
501.67	24528.81
501.84	24994.58
502.02	24800.32
502.20	25240.34
502.37	25350.34
502.55	25378.43
502.72	25043.73
502.90	25355.02
503.07	25205.23
503.25	25846.54
503.43	25453.33
503.60	25734.19
503.78	25649.93
503.95	25811.43
504.13	26075.91
504.30	26085.27
504.48	25991.65
504.65	26045.48
504.83	26258.47
505.01	26483.16
505.18	26536.99
505.36	26326.35
505.53	26497.20
505.71	26911.48
505.88	26925.52
506.06	26597.85
506.23	27150.21
506.41	26757.00
506.58	26927.86
506.76	27122.13
506.93	27412.35
507.11	27243.84
507.28	27154.90
507.46	27536.40
507.63	27559.81
507.81	28077.07
507.98	27960.04
508.16	27779.82
508.33	27864.08
508.50	28308.78
508.68	27826.63
508.85	28524.11
509.03	28278.35
509.20	28240.90
509.38	28371.97
509.55	28627.09
509.73	28758.16
509.90	28610.71
510.08	28514.75
510.25	29057.75
510.42	28718.37
510.60	28809.65
510.77	28912.64
510.95	29331.59
511.12	29289.46
511.30	29214.57
511.47	29242.65
511.64	29317.55
511.82	29713.10
511.99	29881.62
512.17	29490.75
512.34	29795.02
512.51	30188.23
512.69	30263.13
512.86	30178.87
513.04	30342.70
513.21	30401.22
513.38	30487.82
513.56	30235.04
513.73	30529.95
513.90	30876.35
514.08	30595.48
514.25	30625.91
514.43	30724.21
514.60	30895.07
514.77	30625.91
514.95	31028.48
515.12	30869.33
515.29	30857.62
515.47	31189.98
515.64	31400.63
515.81	31051.89
515.99	31634.68
516.16	31676.81
516.33	31718.94
516.51	31660.43
516.68	31316.37
516.85	31812.56
517.03	31604.25
517.20	32137.90
517.37	31864.05
517.54	32243.22
517.72	32144.92
517.89	31742.35
518.06	32086.40
518.24	32287.69
518.41	32275.99
518.58	32114.49
518.75	31889.80
518.93	32758.14
519.10	32400.04
519.27	32704.31
519.45	32758.14
519.62	32978.15
519.79	32411.74
519.96	33205.18
520.14	32959.42
520.31	32865.80
520.48	33350.29
520.65	33284.76
520.83	33464.98
521.00	33633.50
521.17	33619.46
521.34	33357.32
521.52	33605.41
521.69	33731.80
521.86	33661.58
522.03	34127.35
522.20	34347.36
522.38	34047.77
522.55	34389.49
522.72	33968.19
522.89	34082.88
523.07	34239.70
523.24	34408.22
523.41	33837.12
523.58	34445.66
523.75	34792.06
523.92	34710.14
524.10	34740.57
524.27	34873.98
524.44	34927.81
524.61	34691.42
524.78	35119.74
524.96	35049.52
525.13	35292.94
525.30	35344.43
525.47	35105.70
525.64	35325.71
525.81	35358.47
525.98	35545.72
526.16	35519.97
526.33	35236.77
526.50	35857.01
526.67	35332.73
526.84	35515.29
527.01	35508.27
527.18	35482.52
527.36	36060.63
527.53	35974.03
527.70	36596.62
527.87	36725.35
528.04	36062.97
528.21	36201.07
528.38	36318.09
528.55	36584.91
528.72	36378.95
528.89	36044.25
529.07	36556.83
529.24	36116.81
529.41	36421.08
529.58	36615.34
529.75	36671.51
529.92	36327.45
530.09	36622.36
530.26	36891.52
530.43	37244.94
530.60	36849.39
530.77	36690.24
530.94	37083.45
531.11	36919.61
531.28	37153.66
531.46	37221.54
531.63	37153.66
531.80	37872.21
531.97	36938.33
532.14	37778.59
532.31	37640.50
532.48	37916.68
532.65	37895.61
532.82	37586.66
532.99	37691.99
533.16	37514.11
533.33	38000.94
533.50	37909.66
533.67	38089.88
533.84	37612.41
534.01	38019.66
534.18	37600.71
534.35	38436.28
534.52	38232.65
534.69	38398.83
534.86	38862.26
535.03	38321.59
535.20	38485.43
535.37	38553.30
535.54	38972.26
535.71	38546.28
535.88	38700.76
536.05	38637.56
536.22	38803.74
536.38	38813.10
536.55	38611.82
536.72	38801.40
536.89	38937.15
537.06	38941.83
537.23	39253.12
537.40	38829.49
537.57	38527.56
537.74	39173.55
537.91	39047.16
538.08	39386.54
538.25	38719.48
538.42	39213.34
538.59	39044.82
538.75	39264.83
538.92	39529.31
539.09	39377.17
539.26	39754.00
539.43	39580.80
539.60	39548.03
539.77	39587.82
539.94	40140.19
540.11	40030.18
540.28	39754.00
540.44	39976.35
540.61	40102.74
540.78	39796.13
540.95	39849.96
541.12	39901.45
541.29	39707.19
541.46	39838.26
541.62	40076.99
541.79	40474.88
541.96	39768.04
542.13	39943.58
542.30	39854.64
542.47	40154.23
542.63	40458.50
542.80	41036.61
542.97	40584.89
543.14	40912.56
543.31	40556.80
543.48	40914.90
543.64	41265.99
543.81	41303.43
543.98	41141.94
544.15	40739.36
544.32	41251.94
544.48	41226.20
544.65	41230.88
544.82	41357.27
544.99	41268.33
545.16	41181.73
545.32	41628.77
545.49	41326.84
545.66	41528.13
545.83	41504.72
546.00	41570.25
546.16	41301.09
546.33	41469.61
546.50	41734.09
546.67	41844.10
546.83	41120.87
547.00	41521.10
547.17	41624.09
547.34	41504.72
547.50	41741.11
547.67	41916.65
547.84	41963.46
548.00	42094.53
548.17	42623.50
548.34	42405.83
548.51	42354.33
548.67	42216.24
548.84	42124.96
549.01	42298.16
549.18	42375.40
549.34	42501.79
549.51	43267.14
549.68	42789.67
549.84	42564.98
550.01	42560.30
550.18	42157.73
550.34	42293.48
550.51	42958.19
550.68	43213.31
550.84	42801.38
551.01	42808.40
551.18	42595.41
551.34	42955.85
551.51	42829.46
551.68	42869.25
551.84	42852.87
552.01	42677.33
552.18	43147.78
552.34	42796.70
552.51	43292.89
552.68	42799.04
552.84	43246.08
553.01	43257.78
553.18	43152.46
553.34	43016.71
553.51	42880.95
553.67	43456.73
553.84	43374.81
554.01	43562.05
554.17	43203.95
554.34	43433.32
554.51	43016.71
554.67	43552.69
554.84	43840.57
555.00	43313.95
555.17	43337.36
555.33	44018.46
555.50	43662.69
555.67	43658.01
555.83	43887.39
556.00	43700.14
556.16	44191.65
556.33	44222.08
556.50	43758.66
556.66	43922.49
556.83	44083.99
556.99	43952.92
557.16	44275.91
557.32	44067.61
557.49	44233.78
557.65	44079.31
557.82	44119.10
557.98	44243.15
558.15	44390.60
558.32	44341.45
558.48	44212.72
558.65	44247.83
558.81	44322.72
558.98	44348.47
559.14	44011.43
559.31	44065.27
559.47	44055.90
559.64	44409.32
559.80	44638.70
559.97	44545.08
560.13	44692.53
560.30	44769.77
560.46	44769.77
560.63	44772.11
560.79	44690.19
560.96	44781.47
561.12	45048.29
561.29	44421.03
561.45	44605.93
561.61	44444.43
561.78	44882.11
561.94	44449.11
562.11	44758.06
562.27	44900.84
562.44	45137.23
562.60	44842.32
562.77	45045.95
562.93	44414.01
563.10	45067.02
563.26	44769.77
563.42	45050.63
563.59	44692.53
563.75	44900.84
563.92	45148.93
564.08	45057.65
564.24	45209.79
564.41	44835.30
564.57	44816.58
564.74	45298.73
564.90	44954.67
565.07	44961.69
565.23	45017.86
565.39	45064.67
565.56	45390.01
565.72	45059.99
565.88	45179.36
566.05	44842.32
566.21	45221.49
566.38	45296.39
566.54	45504.70
566.70	45471.93
566.87	45413.41
567.03	44975.73
567.19	45572.57
567.36	45357.24
567.52	45272.98
567.68	45624.06
567.85	45380.65
568.01	45897.91
568.17	45371.28
568.34	45696.62
568.50	45528.10
568.66	45230.85
568.83	45432.14
568.99	45446.18
569.15	45514.06
569.32	45645.13
569.48	45649.81
569.64	45769.18
569.81	45621.72
569.97	45595.98
570.13	45724.71
570.30	45364.26
570.46	45715.34
570.62	45813.65
570.78	45893.22
570.95	45333.84
571.11	45844.07
571.27	45525.76
571.43	45687.26
571.60	45670.87
571.76	45329.16
571.92	45574.91
572.09	45399.37
572.25	45635.77
572.41	45696.62
572.57	45989.19
572.74	46328.56
572.90	45792.58
573.06	45811.31
573.22	45715.34
573.38	45771.52
573.55	46265.37
573.71	46183.45
573.87	46031.32
574.03	45879.18
574.20	46066.42
574.36	45680.24
574.52	46047.70
574.68	45961.10
574.84	45996.21
575.01	46138.98
575.17	45996.21
575.33	45720.02
575.49	46356.65
575.65	45970.46
575.82	46064.08
575.98	45703.64
576.14	45951.74
576.30	46124.94
576.46	45982.16
576.62	45949.40
576.79	45937.69
576.95	45933.01
577.11	45872.16
577.27	46131.96
577.43	45944.72
577.59	46206.86
577.75	45818.33
577.92	45652.15
578.08	45806.62
578.24	45902.59
578.40	46375.37
578.56	46277.07
578.72	45862.80
578.88	46761.56
579.04	46183.45
579.21	46103.87
579.37	46281.75
579.53	46358.99
579.69	46216.22
579.85	45862.80
580.01	46483.04
580.17	46258.35
580.33	46267.71
580.49	46483.04
580.65	46213.88
580.82	46508.79
580.98	46162.39
581.14	45975.14
581.30	46382.40
581.46	46305.16
581.62	46073.45
581.78	45790.24
581.94	46183.45
582.10	46019.61
582.26	46120.26
582.42	46295.80
582.58	46302.82
582.74	46101.53
582.90	46160.05
583.06	46349.63
583.22	46267.71
583.38	46403.46
583.54	46480.70
583.70	46099.19
583.86	46609.43
584.02	46497.08
584.18	46717.09
584.34	46595.38
584.50	46358.99
584.66	46195.15
584.82	46469.00
584.98	46979.23
585.14	46532.19
585.30	46274.73
585.46	46637.51
585.62	46696.03
585.78	46344.95
585.94	45925.99
586.10	46532.19
586.26	46277.07
586.42	46155.36
586.58	46642.20
586.74	46644.54
586.90	46646.88
587.06	46122.60
587.22	46808.37
587.38	46087.49
587.54	46658.58
587.70	46660.92
587.86	46277.07
588.02	46576.66
588.18	46459.63
588.34	46358.99
588.49	46429.21
588.65	46630.49
588.81	46791.99
588.97	46518.15
589.13	46195.15
589.29	46244.30
589.45	47103.28
589.61	46511.13
589.77	46892.63
589.93	46710.07
590.08	46637.51
