SpectraSuite Data File
++++++++++++++++++++++++++++++++++++
Date: Fri Oct 25 11:23:48 EDT 2013
User: price-jones
Dark Spectrum Present: No
Reference Spectrum Present: No
Number of Sampled Component Spectra: 1
Spectrometers: USB2+H05261
Integration Time (usec): 100000 (USB2+H05261)
Spectra Averaged: 1 (USB2+H05261)
Boxcar Smoothing: 0 (USB2+H05261)
Correct for Electrical Dark: No (USB2+H05261)
Strobe/Lamp Enabled: No (USB2+H05261)
Correct for Detector Non-linearity: No (USB2+H05261)
Correct for Stray Light: No (USB2+H05261)
Number of Pixels in Processed Spectrum: 2048
>>>>>Begin Processed Spectral Data<<<<<
365.73	334.70
365.92	334.70
366.12	334.70
366.32	159.16
366.52	215.33
366.72	154.48
366.91	74.90
367.11	98.30
367.31	131.07
367.51	117.03
367.70	152.13
367.90	110.01
368.10	142.77
368.30	180.22
368.49	58.51
368.69	149.79
368.89	102.98
369.09	110.01
369.28	173.20
369.48	107.66
369.68	170.86
369.87	131.07
370.07	215.33
370.27	194.26
370.47	320.65
370.66	629.60
370.86	620.24
371.06	685.78
371.25	596.84
371.45	737.27
371.65	669.39
371.84	732.59
372.04	685.78
372.24	720.88
372.44	692.80
372.63	727.91
372.83	692.80
373.03	833.23
373.22	741.95
373.42	713.86
373.62	720.88
373.81	830.89
374.01	835.57
374.21	833.23
374.40	833.23
374.60	788.76
374.79	830.89
374.99	760.67
375.19	868.34
375.38	856.64
375.58	781.74
375.78	816.85
375.97	786.42
376.17	840.25
376.37	826.21
376.56	844.93
376.76	898.77
376.95	894.08
377.15	952.60
377.35	875.36
377.54	809.83
377.74	936.21
377.93	898.77
378.13	912.81
378.33	1008.77
378.52	894.08
378.72	1034.52
378.91	959.62
379.11	943.24
379.31	1011.11
379.50	971.32
379.70	959.62
379.89	1008.77
380.09	959.62
380.28	896.43
380.48	1015.79
380.68	968.98
380.87	1008.77
381.07	1036.86
381.26	1008.77
381.46	999.41
381.65	952.60
381.85	1088.35
382.04	1036.86
382.24	1020.47
382.43	1022.81
382.63	933.87
382.83	1100.05
383.02	1090.69
383.22	1048.56
383.41	1130.48
383.61	1139.84
383.80	1121.12
384.00	1109.41
384.19	1086.01
384.39	1160.91
384.58	1111.75
384.78	1135.16
384.97	1170.27
385.17	1130.48
385.36	1167.93
385.56	1163.25
385.75	1137.50
385.95	1240.48
386.14	1263.89
386.34	1111.75
386.53	1153.88
386.72	1102.39
386.92	1217.08
387.11	1280.27
387.31	1364.53
387.50	1233.46
387.70	1275.59
387.89	1193.67
388.09	1329.42
388.28	1303.68
388.48	1249.85
388.67	1390.28
388.86	1289.64
389.06	1287.29
389.25	1287.29
389.45	1303.68
389.64	1345.81
389.84	1439.43
390.03	1291.98
390.22	1434.75
390.42	1406.66
390.61	1357.51
390.81	1432.41
391.00	1446.45
391.19	1411.34
391.39	1446.45
391.58	1423.05
391.78	1430.07
391.97	1418.36
392.16	1493.26
392.36	1575.18
392.55	1483.90
392.75	1565.82
392.94	1533.05
393.13	1636.03
393.33	1554.12
393.52	1511.99
393.71	1495.60
393.91	1516.67
394.10	1523.69
394.29	1675.82
394.49	1577.52
394.68	1568.16
394.88	1535.39
395.07	1612.63
395.26	1764.76
395.46	1685.19
395.65	1734.34
395.84	1802.21
396.04	1795.19
396.23	1788.17
396.42	1764.76
396.62	1769.44
396.81	1790.51
397.00	1820.94
397.19	1797.53
397.39	1853.70
397.58	1792.85
397.77	1788.17
397.97	1799.87
398.16	1797.53
398.35	1909.88
398.55	1790.51
398.74	1968.39
398.93	1912.22
399.12	2043.29
399.32	1994.14
399.51	1935.62
399.70	2062.01
399.90	1877.11
400.09	1973.07
400.28	2033.93
400.47	2111.16
400.67	2057.33
400.86	2139.25
401.05	2052.65
401.24	2010.52
401.44	2136.91
401.63	2214.15
401.82	2246.91
402.01	2108.82
402.21	2314.79
402.40	2134.57
402.59	2160.31
402.78	2143.93
402.97	2253.94
403.17	2246.91
403.36	2394.37
403.55	2174.36
403.74	2399.05
403.93	2251.60
404.13	2459.90
404.32	2326.49
404.51	2450.54
404.70	2375.64
404.89	2420.11
405.09	2548.84
405.28	2396.71
405.47	2497.35
405.66	2523.10
405.85	2581.61
406.05	2551.18
406.24	2546.50
406.43	2609.70
406.62	2663.53
406.81	2602.68
407.00	2539.48
407.20	2576.93
407.39	2555.86
407.58	2686.94
407.77	2843.75
407.96	2731.41
408.15	2773.53
408.34	2810.98
408.54	2785.24
408.73	2799.28
408.92	2913.97
409.11	2818.00
409.30	2916.31
409.49	2963.12
409.68	2822.69
409.87	2942.05
410.07	2986.52
410.26	3042.70
410.45	3012.27
410.64	3033.33
410.83	3075.46
411.02	3038.02
411.21	3206.53
411.40	3115.25
411.59	3117.59
411.78	3176.11
411.98	3246.32
412.17	3356.33
412.36	3421.86
412.55	3389.10
412.74	3353.99
412.93	3424.20
413.12	3332.92
413.31	3536.55
413.50	3309.52
413.69	3433.57
413.88	3571.66
414.07	3508.46
414.26	3597.40
414.45	3700.39
414.64	3693.37
414.83	3665.28
415.02	3812.73
415.22	3908.69
415.41	3936.78
415.60	3920.40
415.79	3978.91
415.98	3925.08
416.17	3957.85
416.36	3932.10
416.55	3943.80
416.74	4166.15
416.93	3983.59
417.12	4170.83
417.31	4128.70
417.50	4105.30
417.69	4273.82
417.88	4327.65
418.07	4454.04
418.26	4332.33
418.45	4327.65
418.64	4194.24
418.83	4461.06
419.02	4418.93
419.21	4449.36
419.39	4440.00
419.58	4486.81
419.77	4383.82
419.96	4601.49
420.15	4676.39
420.34	4718.52
420.53	4538.30
420.72	4711.50
420.91	4674.05
421.10	4734.90
421.29	4873.00
421.48	4730.22
421.67	4772.35
421.86	4734.90
422.05	4784.06
422.24	4802.78
422.43	4837.89
422.61	4950.23
422.80	5004.07
422.99	4954.91
423.18	4891.72
423.37	5048.54
423.56	5046.20
423.75	5085.98
423.94	4945.55
424.13	4716.18
424.32	4828.53
424.50	4973.64
424.69	5107.05
424.88	4968.96
425.07	4915.12
425.26	4961.94
425.45	4947.89
425.64	5034.49
425.83	5078.96
426.01	5090.67
426.20	5128.11
426.39	5109.39
426.58	5142.16
426.77	5093.01
426.96	5018.11
427.15	5004.07
427.33	5284.93
427.52	5149.18
427.71	5329.40
427.90	5331.74
428.09	5270.89
428.28	5296.63
428.46	5383.23
428.65	5341.10
428.84	5558.77
429.03	5507.28
429.22	5453.45
429.40	5465.15
429.59	5439.40
429.78	5219.39
429.97	5219.39
430.16	5486.22
430.34	5605.58
430.53	5516.64
430.72	5603.24
430.91	5675.80
431.10	5710.91
431.28	5792.83
431.47	5708.57
431.66	5973.05
431.85	5741.33
432.03	5900.49
432.22	5940.28
432.41	5720.27
432.60	5870.06
432.79	6033.90
432.97	6146.25
433.16	6085.39
433.35	5921.56
433.54	5940.28
433.72	6153.27
433.91	6057.31
434.10	6017.52
434.28	6148.59
434.47	6328.81
434.66	6270.30
434.85	6293.70
435.03	6518.39
435.22	6286.68
435.41	6609.67
435.59	6340.51
435.78	6478.60
435.97	6509.03
436.16	6548.82
436.34	6424.77
436.53	6619.04
436.72	6771.17
436.90	6459.88
437.09	6677.55
437.28	6616.69
437.46	6567.54
437.65	6679.89
437.84	6806.28
438.02	6729.04
438.21	6668.19
438.40	6712.66
438.58	6782.87
438.77	7030.97
438.96	7117.57
439.14	7110.55
439.33	7094.16
439.52	7286.09
439.70	7101.19
439.89	7363.33
440.08	7538.87
440.26	7531.84
440.45	7311.83
440.63	7485.03
440.82	7555.25
441.01	7538.87
441.19	7709.72
441.38	7838.45
441.57	7826.75
441.75	7810.37
441.94	7803.35
442.12	8077.19
442.31	7908.67
442.50	8102.93
442.68	7892.29
442.87	8072.51
443.05	8135.70
443.24	8126.34
443.43	8191.88
443.61	8091.23
443.80	8397.84
443.98	8170.81
444.17	8044.42
444.35	8135.70
444.54	8294.86
444.73	8414.23
444.91	8262.09
445.10	8344.01
445.28	8479.76
445.47	8423.59
445.65	8519.55
445.84	8500.83
446.02	8390.82
446.21	8491.46
446.39	8493.80
446.58	8610.83
446.77	8540.61
446.95	8334.65
447.14	8507.85
447.32	8587.43
447.51	8554.66
447.69	8695.09
447.88	8465.72
448.06	8503.17
448.25	8702.11
448.43	8559.34
448.62	8388.48
448.80	8655.30
448.99	8603.81
449.17	8933.82
449.36	8751.26
449.54	8819.14
449.73	8837.86
449.91	8966.59
450.10	9057.87
450.28	8784.03
450.46	9327.03
450.65	9142.13
450.83	9198.31
451.02	9057.87
451.20	9261.50
451.39	9128.09
451.57	9224.05
451.76	9114.05
451.94	9123.41
452.13	9273.20
452.31	9317.67
452.49	9287.25
452.68	9219.37
452.86	9518.96
453.05	9561.09
453.23	9516.62
453.42	9455.76
453.60	9315.33
453.78	9462.79
453.97	9469.81
454.15	9584.49
454.34	9537.68
454.52	9556.41
454.70	9549.39
454.89	9928.55
455.07	9895.78
455.26	9858.34
455.44	9891.10
455.62	9846.63
455.81	9771.74
455.99	10101.75
456.17	10036.22
456.36	10267.93
456.54	10160.27
456.73	10382.62
456.91	10616.67
457.09	10436.45
457.28	10424.75
457.46	10345.17
457.64	10703.27
457.83	10677.52
458.01	10597.95
458.19	10806.25
458.38	10380.28
458.56	10684.55
458.74	10787.53
458.93	10616.67
459.11	10846.04
459.29	10839.02
459.48	10862.43
459.66	10881.15
459.84	10988.82
460.03	11066.05
460.21	10862.43
460.39	10981.79
460.57	10937.32
460.76	11166.70
460.94	11260.32
461.12	11250.96
461.31	11389.05
461.49	11164.36
461.67	11077.76
461.85	11421.81
462.04	11477.99
462.22	11461.60
462.40	11592.67
462.59	11538.84
462.77	11627.78
462.95	11590.33
463.13	11686.29
463.32	11791.62
463.50	11815.02
463.68	11817.36
463.86	11922.69
464.05	11616.08
464.23	11700.34
464.41	11866.52
464.59	11763.53
464.78	12100.57
464.96	12131.00
465.14	11744.81
465.32	12229.30
465.50	12163.76
465.69	12095.89
465.87	12215.26
466.05	12065.46
466.23	12283.13
466.41	12306.54
466.60	12280.79
466.78	11948.43
466.96	12428.24
467.14	12430.59
467.32	12395.48
467.51	12578.04
467.69	12285.47
467.87	12528.89
468.05	12669.32
468.23	12290.15
468.41	12531.23
468.60	12559.31
468.78	12910.40
468.96	12491.44
469.14	12744.22
469.32	13163.17
469.50	12580.38
469.69	13013.38
469.87	12912.74
470.05	12961.89
470.23	13249.77
470.41	13268.50
470.59	13441.70
470.77	13392.55
470.95	13151.47
471.14	13605.53
471.32	13011.04
471.50	13650.00
471.68	13554.04
471.86	13870.01
472.04	13867.67
472.22	14157.90
472.40	13916.83
472.58	13891.08
472.77	13973.00
472.95	14270.25
473.13	14651.75
473.31	14047.90
473.49	14153.22
473.67	14354.51
473.85	14347.48
474.03	14567.49
474.21	14778.14
474.39	14768.78
474.57	14949.00
474.75	14939.64
474.93	14972.41
475.12	15091.77
475.30	15007.52
475.48	15164.33
475.66	15222.84
475.84	14939.64
476.02	15379.66
476.20	15489.67
476.38	15660.52
476.56	16226.93
476.74	16102.89
476.92	15903.94
477.10	15992.88
477.28	16292.47
477.46	16304.17
477.64	16418.86
477.82	16664.61
478.00	16769.94
478.18	16858.88
478.36	16989.95
478.54	17436.99
478.72	17235.70
478.90	17633.60
479.08	17935.53
479.26	17855.95
479.44	17877.01
479.62	17696.79
479.80	18237.45
479.98	18050.21
480.16	18953.66
480.34	18408.31
480.52	18565.13
480.70	18740.67
480.88	18515.98
481.06	18899.83
481.24	18691.52
481.41	19293.04
481.59	19480.28
481.77	19454.53
481.95	19868.81
482.13	19967.11
482.31	19880.51
482.49	20369.68
482.67	20355.64
482.85	20365.00
483.03	20601.40
483.21	20772.25
483.39	21338.66
483.57	20957.16
483.74	21085.89
483.92	21298.88
484.10	21460.37
484.28	21776.34
484.46	21961.25
484.64	22309.99
484.82	22171.89
485.00	22586.17
485.18	22878.74
485.35	23119.81
485.53	23054.28
485.71	23084.70
485.89	23592.60
486.07	23672.18
486.25	23351.52
486.43	23601.96
486.61	23515.36
486.78	24086.45
486.96	24463.28
487.14	24844.79
487.32	24697.33
487.50	24828.40
487.68	25216.93
487.85	25336.30
488.03	25612.48
488.21	26061.87
488.39	25551.63
488.57	25998.67
488.75	26284.22
488.92	26529.97
489.10	26859.99
489.28	26878.71
489.46	27246.18
489.64	27459.16
489.81	27927.27
489.99	27742.37
490.17	27709.60
490.35	28458.57
490.53	28582.62
490.70	28334.53
490.88	28503.04
491.06	28718.37
491.24	28872.85
491.41	28828.38
491.59	29249.67
491.77	29146.69
491.95	29820.77
492.13	29780.98
492.30	29963.54
492.48	30342.70
492.66	30738.26
492.84	30508.88
493.01	30817.83
493.19	30661.02
493.37	30939.54
493.54	31658.09
493.72	31625.32
493.90	31515.31
494.08	31803.20
494.25	31976.40
494.43	31990.44
494.61	32236.20
494.79	32875.16
494.96	32643.45
495.14	32753.46
495.32	33387.74
495.49	33296.46
495.67	33280.08
495.85	33425.19
496.02	33937.77
496.20	34155.44
496.38	34433.96
496.55	34061.82
496.73	34836.53
496.91	34609.50
497.09	34967.60
497.26	35337.41
497.44	34918.45
497.62	35536.35
497.79	35852.33
497.97	35674.45
498.14	36299.37
498.32	36416.40
498.50	36268.94
498.67	36816.63
498.85	36730.03
499.03	36713.64
499.20	36463.21
499.38	37237.92
499.56	37167.71
499.73	37172.39
499.91	37577.30
500.08	37986.89
500.26	37371.33
500.44	37975.19
500.61	38213.93
500.79	38101.58
500.97	37752.84
501.14	38637.56
501.32	38998.01
501.49	38871.62
501.67	38813.10
501.84	38955.88
502.02	39232.06
502.20	39379.51
502.37	39632.29
502.55	39386.54
502.72	39854.64
502.90	39761.02
503.07	39524.63
503.25	39887.41
503.43	39819.53
503.60	40224.45
503.78	40442.12
503.95	40456.16
504.13	40392.97
504.30	41036.61
504.48	40893.84
504.65	40893.84
504.83	41125.55
505.01	41607.70
505.18	41443.87
505.36	41991.55
505.53	41422.80
505.71	41820.69
505.88	41972.83
506.06	41755.16
506.23	41965.81
506.41	41897.93
506.58	42148.37
506.76	42536.90
506.93	42576.69
507.11	42866.91
507.28	42789.67
507.46	42770.95
507.63	42780.31
507.81	43540.99
507.98	43143.09
508.16	43122.03
508.33	43704.82
508.50	43683.76
508.68	44119.10
508.85	44116.76
509.03	43971.64
509.20	44226.76
509.38	44601.25
509.55	44584.86
509.73	44540.39
509.90	44641.04
510.08	44624.65
510.25	44830.62
510.42	45120.85
510.60	45289.37
510.77	45490.65
510.95	45312.77
511.12	45415.76
511.30	45331.50
511.47	45478.95
511.64	45977.48
511.82	45827.69
511.99	45600.66
512.17	46106.21
512.34	46007.91
512.51	46534.53
512.69	46340.27
512.86	46403.46
513.04	46501.76
513.21	46761.56
513.38	47178.18
513.56	47351.38
513.73	46801.35
513.90	47199.24
514.08	47316.27
514.25	47613.52
514.43	47744.59
514.60	47639.26
514.77	47662.67
514.95	47587.77
515.12	47807.78
515.29	47765.65
515.47	48067.58
515.64	48465.47
515.81	48212.70
515.99	48561.44
516.16	48509.94
516.33	48421.00
516.51	48811.87
516.68	48854.00
516.85	48758.04
517.03	49062.31
517.20	49205.08
517.37	48975.71
517.54	48758.04
517.72	49563.18
517.89	49638.08
518.06	49778.51
518.24	49605.31
518.41	49553.82
518.58	49715.32
518.75	49354.88
518.93	49727.02
519.10	49626.38
519.27	49827.66
519.45	49682.55
519.62	50305.13
519.79	50206.83
519.96	50302.79
520.14	50206.83
520.31	50555.57
520.48	50340.24
520.65	50513.44
520.83	50656.21
521.00	51100.92
521.17	50897.29
521.34	50468.97
521.52	50880.91
521.69	50836.44
521.86	51014.32
522.03	51386.46
522.20	51543.28
522.38	51667.33
522.55	51625.20
522.72	51899.04
522.89	51260.07
523.07	51772.65
523.24	51655.62
523.41	51992.66
523.58	51349.01
523.75	51901.38
523.92	51931.81
524.10	52013.73
524.27	52280.55
524.44	52371.83
524.61	52301.61
524.78	52282.89
524.96	52308.63
525.13	52523.96
525.30	52299.27
525.47	52563.75
525.64	52697.16
525.81	52545.03
525.98	52954.62
526.16	52645.67
526.33	52861.00
526.50	52837.59
526.67	52882.06
526.84	52891.43
527.01	53083.35
527.18	53066.97
527.36	53347.83
527.53	52727.59
527.70	53532.73
527.87	53600.61
528.04	53214.42
528.21	53511.67
528.38	53467.20
528.55	53874.45
528.72	53275.27
528.89	53635.72
529.07	53609.97
529.24	53797.21
529.41	54028.93
529.58	53961.05
529.75	53949.35
529.92	53717.64
530.09	53834.66
530.26	54087.44
530.43	53787.85
530.60	53886.15
530.77	54138.93
530.94	54330.86
531.11	54246.60
531.28	54330.86
531.46	54644.49
531.63	54277.02
531.80	54588.31
531.97	54384.69
532.14	54791.94
532.31	54642.15
532.48	54490.01
532.65	54731.09
532.82	54513.42
532.99	54871.52
533.16	54997.91
533.33	55140.68
533.50	55290.48
533.67	54944.08
533.84	54843.43
534.01	54972.16
534.18	55011.95
534.35	55540.91
534.52	55426.23
534.69	55377.08
534.86	55414.52
535.03	55306.86
535.20	55180.47
535.37	55721.13
535.54	55379.42
535.71	55306.86
535.88	55482.40
536.05	55477.72
536.22	55629.85
536.38	55545.59
536.55	55470.70
536.72	55657.94
536.89	55835.82
537.06	55753.90
537.23	55973.91
537.40	55709.43
537.57	56009.02
537.74	55749.22
537.91	56032.42
538.08	56055.83
538.25	55957.53
538.42	55824.12
538.59	56126.05
538.75	56025.40
538.92	56112.00
539.09	56442.02
539.26	56280.52
539.43	56041.79
539.60	56399.89
539.77	56392.87
539.94	56491.17
540.11	56362.44
540.28	56594.15
540.44	56425.64
540.61	56470.11
540.78	56381.16
540.95	56505.21
541.12	56662.03
541.29	56860.97
541.46	56762.67
541.62	56676.07
541.79	56828.21
541.96	56577.77
542.13	56690.12
542.30	56896.08
542.47	57151.20
542.63	56900.76
542.80	56959.28
542.97	57272.91
543.14	57413.34
543.31	57354.83
543.48	57336.10
543.64	57598.24
543.81	57577.18
543.98	57467.17
544.15	57385.25
544.32	57462.49
544.48	57504.62
544.65	57415.68
544.82	57495.26
544.99	57296.31
545.16	57701.23
545.32	57499.94
545.49	57691.86
545.66	57846.34
545.83	57771.44
546.00	57748.04
546.16	57769.10
546.33	57766.76
546.50	57436.75
546.67	57668.46
546.83	57612.29
547.00	57794.85
547.17	57890.81
547.34	57996.13
547.50	58232.53
547.67	58096.78
547.84	57975.07
548.00	58426.79
548.17	58148.27
548.34	58195.08
548.51	58302.74
548.67	58293.38
548.84	58365.94
549.01	58096.78
549.18	58255.93
549.34	58239.55
549.51	58487.65
549.68	58293.38
549.84	58604.67
550.01	58382.32
550.18	58429.13
550.34	58475.94
550.51	58644.46
550.68	58733.40
550.84	58595.31
551.01	58780.21
551.18	58602.33
551.34	58922.99
551.51	58740.42
551.68	58798.94
551.84	58630.42
552.01	58597.65
552.18	58862.13
552.34	58576.59
552.51	58625.74
552.68	58501.69
552.84	58815.32
553.01	59091.51
553.18	58951.07
553.34	58925.33
553.51	58798.94
553.67	58913.62
553.84	59110.23
554.01	59096.19
554.17	59082.14
554.34	59295.13
554.51	59040.01
554.67	59182.79
554.84	58981.50
555.00	59072.78
555.17	59086.82
555.33	59208.53
555.50	59182.79
555.67	59147.68
555.83	58967.46
556.00	59178.10
556.16	59615.79
556.33	59311.52
556.50	59309.18
556.66	59468.33
556.83	59316.20
556.99	59489.40
557.16	59655.57
557.32	59552.59
557.49	59779.62
557.65	59206.19
557.82	59526.84
557.98	59423.86
558.15	59323.22
558.32	59529.19
558.48	59440.24
558.65	59435.56
558.81	59430.88
558.98	59737.49
559.14	59861.54
559.31	59749.20
559.47	59906.01
559.64	59898.99
559.80	59786.64
559.97	59882.61
560.13	59770.26
560.30	59814.73
560.46	59891.97
560.63	59952.82
560.79	60001.97
560.96	59985.59
561.12	59966.87
561.29	59971.55
561.45	59889.63
561.61	60006.65
561.78	59852.18
561.94	59929.42
562.11	59894.31
562.27	60037.08
562.44	60214.96
562.60	60154.11
562.77	60018.36
562.93	60004.31
563.10	60137.72
563.26	60130.70
563.42	60210.28
563.59	60189.22
563.75	60128.36
563.92	60273.48
564.08	60074.53
564.24	60292.20
564.41	60285.18
564.57	60027.72
564.74	60247.73
564.90	60182.19
565.07	60322.63
565.23	60273.48
565.39	60133.04
565.56	60303.90
565.72	60376.46
565.88	60346.03
566.05	60273.48
566.21	60465.40
566.38	60388.16
566.54	60240.71
566.70	60285.18
566.87	60437.31
567.03	60282.84
567.19	60463.06
567.36	60474.76
567.52	60315.61
567.68	60598.81
567.85	60470.08
568.01	60615.19
568.17	60411.57
568.34	60683.07
568.50	60350.71
568.66	60306.24
568.83	60507.53
568.99	60308.58
569.15	60374.12
569.32	60626.90
569.48	60437.31
569.64	60591.79
569.81	60308.58
569.97	60470.08
570.13	60474.76
570.30	60727.54
570.46	60437.31
570.62	60563.70
570.78	60708.82
570.95	60664.35
571.11	60694.77
571.27	60626.90
571.43	60594.13
571.60	60914.78
571.76	60598.81
571.92	60898.40
572.09	60594.13
572.25	60816.48
572.41	60519.23
572.57	60774.35
572.74	60865.63
572.90	60713.50
573.06	60884.36
573.22	60786.05
573.38	60650.30
573.55	60692.43
573.71	60959.25
573.87	60760.31
574.03	60678.39
574.20	60970.96
574.36	60816.48
574.52	60706.47
574.68	60781.37
574.84	60961.59
575.01	60790.73
575.17	60863.29
575.33	60807.12
575.49	60753.29
575.65	61020.11
575.82	60970.96
575.98	60973.30
576.14	60959.25
576.30	60945.21
576.46	60779.03
576.62	61043.51
576.79	60858.61
576.95	60781.37
577.11	61006.06
577.27	60968.61
577.43	61024.79
577.59	60835.20
577.75	60914.78
577.92	60846.91
578.08	61123.09
578.24	61106.71
578.40	61116.07
578.56	60926.49
578.72	61006.06
578.88	61050.53
579.04	61169.90
579.21	61153.52
579.37	61188.63
579.53	61132.45
579.69	60896.06
579.85	60954.57
580.01	60954.57
580.17	60896.06
580.33	61087.98
580.49	61087.98
580.65	61085.64
580.82	61158.20
580.98	60853.93
581.14	60973.30
581.30	61167.56
581.46	61017.77
581.62	60935.85
581.78	60973.30
581.94	61116.07
582.10	60949.89
582.26	60992.02
582.42	61059.90
582.58	61165.22
582.74	61001.38
582.90	60896.06
583.06	61162.88
583.22	60940.53
583.38	61073.94
583.54	61207.35
583.70	61235.44
583.86	61146.50
584.02	60910.10
584.18	61373.53
584.34	61024.79
584.50	61055.21
584.66	60956.91
584.82	60996.70
584.98	61048.19
585.14	61242.46
585.30	61034.15
585.46	61226.07
585.62	61188.63
585.78	61146.50
585.94	60839.89
586.10	61151.18
586.26	61226.07
586.42	61277.57
586.58	61277.57
586.74	61139.47
586.90	61092.66
587.06	60968.61
587.22	61368.85
587.38	61221.39
587.54	61495.24
587.70	61359.48
587.86	61169.90
588.02	60961.59
588.18	61240.12
588.34	61179.26
588.49	61162.88
