SpectraSuite Data File
++++++++++++++++++++++++++++++++++++
Date: Fri Oct 25 11:25:01 EDT 2013
User: price-jones
Dark Spectrum Present: No
Reference Spectrum Present: No
Number of Sampled Component Spectra: 1
Spectrometers: USB2+H05261
Integration Time (usec): 100000 (USB2+H05261)
Spectra Averaged: 1 (USB2+H05261)
Boxcar Smoothing: 0 (USB2+H05261)
Correct for Electrical Dark: No (USB2+H05261)
Strobe/Lamp Enabled: No (USB2+H05261)
Correct for Detector Non-linearity: No (USB2+H05261)
Correct for Stray Light: No (USB2+H05261)
Number of Pixels in Processed Spectrum: 2048
>>>>>Begin Processed Spectral Data<<<<<
365.73	264.48
365.92	264.48
366.12	264.48
366.32	198.95
366.52	107.66
366.72	177.88
366.91	124.05
367.11	131.07
367.31	161.50
367.51	91.28
367.70	117.03
367.90	95.96
368.10	196.60
368.30	163.84
368.49	140.43
368.69	142.77
368.89	145.11
369.09	119.37
369.28	194.26
369.48	163.84
369.68	175.54
369.87	205.97
370.07	166.18
370.27	220.01
370.47	353.42
370.66	603.86
370.86	660.03
371.06	645.99
371.25	767.70
371.45	631.94
371.65	699.82
371.84	669.39
372.04	713.86
372.24	763.01
372.44	816.85
372.63	734.93
372.83	781.74
373.03	676.41
373.22	674.07
373.42	791.10
373.62	793.44
373.81	835.57
374.01	772.38
374.21	835.57
374.40	777.06
374.60	791.10
374.79	863.66
374.99	837.91
375.19	814.51
375.38	809.83
375.58	903.45
375.78	870.68
375.97	905.79
376.17	903.45
376.37	821.53
376.56	854.30
376.76	821.53
376.95	875.36
377.15	828.55
377.35	924.51
377.54	938.55
377.74	966.64
377.93	929.19
378.13	952.60
378.33	1006.43
378.52	887.06
378.72	971.32
378.91	1015.79
379.11	922.17
379.31	873.02
379.50	929.19
379.70	1011.11
379.89	978.34
380.09	976.00
380.28	961.96
380.48	1011.11
380.68	1029.84
380.87	1004.09
381.07	985.37
381.26	1060.26
381.46	1006.43
381.65	1041.54
381.85	1046.22
382.04	1041.54
382.24	1027.50
382.43	1022.81
382.63	1022.81
382.83	1029.84
383.02	1116.44
383.22	1090.69
383.41	1090.69
383.61	1039.20
383.80	1050.90
384.00	1062.60
384.19	1160.91
384.39	1200.69
384.58	1142.18
384.78	1146.86
384.97	1235.80
385.17	1144.52
385.36	1128.14
385.56	1135.16
385.75	1214.74
385.95	1118.78
386.14	1266.23
386.34	1149.20
386.53	1198.35
386.72	1256.87
386.92	1291.98
387.11	1238.14
387.31	1270.91
387.50	1238.14
387.70	1275.59
387.89	1203.04
388.09	1270.91
388.28	1252.19
388.48	1207.72
388.67	1409.00
388.86	1287.29
389.06	1345.81
389.25	1334.11
389.45	1334.11
389.64	1322.40
389.84	1364.53
390.03	1455.81
390.22	1392.62
390.42	1430.07
390.61	1430.07
390.81	1401.98
391.00	1469.86
391.19	1434.75
391.39	1380.92
391.58	1460.49
391.78	1399.64
391.97	1427.73
392.16	1425.39
392.36	1530.71
392.55	1462.83
392.75	1521.35
392.94	1479.22
393.13	1526.03
393.33	1509.65
393.52	1645.40
393.71	1586.88
393.91	1544.75
394.10	1561.14
394.29	1593.90
394.49	1579.86
394.68	1666.46
394.88	1629.01
395.07	1666.46
395.26	1715.61
395.46	1682.85
395.65	1692.21
395.84	1760.08
396.04	1746.04
396.23	1842.00
396.42	1743.70
396.62	1799.87
396.81	1732.00
397.00	1760.08
397.19	1849.02
397.39	1844.34
397.58	1813.92
397.77	1792.85
397.97	1895.83
398.16	1891.15
398.35	1823.28
398.55	1799.87
398.74	1893.49
398.93	1888.81
399.12	1858.39
399.32	1905.20
399.51	1944.99
399.70	1980.09
399.90	2003.50
400.09	2045.63
400.28	2026.90
400.47	2071.37
400.67	2132.23
400.86	1996.48
401.05	2118.18
401.24	2108.82
401.44	2104.14
401.63	2188.40
401.82	2092.44
402.01	2073.71
402.21	2141.59
402.40	2209.47
402.59	2085.42
402.78	2108.82
402.97	2134.57
403.17	2218.83
403.36	2188.40
403.55	2165.00
403.74	2253.94
403.93	2249.25
404.13	2396.71
404.32	2338.20
404.51	2413.09
404.70	2415.43
404.89	2441.18
405.09	2572.25
405.28	2539.48
405.47	2450.54
405.66	2478.63
405.85	2492.67
406.05	2532.46
406.24	2523.10
406.43	2651.83
406.62	2590.97
406.81	2731.41
407.00	2473.95
407.20	2607.36
407.39	2724.38
407.58	2729.06
407.77	2715.02
407.96	2787.58
408.15	2836.73
408.34	2663.53
408.54	2663.53
408.73	2806.30
408.92	2782.90
409.11	2925.67
409.30	2923.33
409.49	2972.48
409.68	2991.20
409.87	2949.08
410.07	3061.42
410.26	2939.71
410.45	3030.99
410.64	3038.02
410.83	3089.51
411.02	3023.97
411.21	3180.79
411.40	3236.96
411.59	3269.73
411.78	3164.40
411.98	3199.51
412.17	3199.51
412.36	3356.33
412.55	3351.65
412.74	3428.88
412.93	3391.44
413.12	3494.42
413.31	3417.18
413.50	3562.30
413.69	3499.10
413.88	3583.36
414.07	3442.93
414.26	3527.19
414.45	3665.28
414.64	3648.90
414.83	3822.09
415.02	3728.47
415.22	3728.47
415.41	3840.82
415.60	3873.59
415.79	3983.59
415.98	4011.68
416.17	4039.76
416.36	3995.29
416.55	3932.10
416.74	4067.85
416.93	3990.61
417.12	4016.36
417.31	4210.62
417.50	4243.39
417.69	4304.25
417.88	4304.25
418.07	4219.99
418.26	4369.78
418.45	4374.46
418.64	4493.83
418.83	4435.32
419.02	4339.35
419.21	4456.38
419.39	4550.00
419.58	4538.30
419.77	4425.95
419.96	4638.94
420.15	4599.15
420.34	4540.64
420.53	4751.29
420.72	4617.88
420.91	4718.52
421.10	4744.27
421.29	4704.48
421.48	4807.46
421.67	4840.23
421.86	4732.56
422.05	4664.69
422.24	4887.04
422.43	4938.53
422.61	4987.68
422.80	4968.96
422.99	4980.66
423.18	4961.94
423.37	5095.35
423.56	5085.98
423.75	4865.97
423.94	4777.03
424.13	4624.90
424.32	4730.22
424.50	5039.17
424.69	4952.57
424.88	5041.51
425.07	4968.96
425.26	4908.10
425.45	4922.15
425.64	4950.23
425.83	5071.94
426.01	5137.48
426.20	5102.37
426.39	4931.51
426.58	5118.75
426.77	5013.43
426.96	5102.37
427.15	5242.80
427.33	5210.03
427.52	5100.03
427.71	5331.74
427.90	5322.38
428.09	5266.21
428.28	5556.43
428.46	5139.82
428.65	5287.27
428.84	5612.60
429.03	5394.93
429.22	5343.44
429.40	5425.36
429.59	5568.13
429.78	5383.23
429.97	5238.12
430.16	5495.58
430.34	5598.56
430.53	5636.01
430.72	5729.63
430.91	5650.05
431.10	5586.86
431.28	5717.93
431.47	5710.91
431.66	5832.62
431.85	5591.54
432.03	5860.70
432.22	5930.92
432.41	5966.03
432.60	5797.51
432.79	5820.91
432.97	5942.62
433.16	5954.32
433.35	6019.86
433.54	5909.85
433.72	6115.82
433.91	6054.97
434.10	6216.46
434.28	6204.76
434.47	6157.95
434.66	6246.89
434.85	6483.28
435.03	6303.06
435.22	6263.27
435.41	6408.39
435.59	6422.43
435.78	6459.88
435.97	6345.19
436.16	6270.30
436.34	6551.16
436.53	6473.92
436.72	6654.14
436.90	6459.88
437.09	6689.25
437.28	6354.55
437.46	6630.74
437.65	6693.93
437.84	6724.36
438.02	6757.13
438.21	6820.32
438.40	6665.85
438.58	6878.83
438.77	6972.46
438.96	7052.03
439.14	7117.57
439.33	7066.08
439.52	7311.83
439.70	7414.82
439.89	7234.60
440.08	7272.04
440.26	7342.26
440.45	7410.14
440.63	7581.00
440.82	7646.53
441.01	7480.35
441.19	7672.28
441.38	7709.72
441.57	7793.98
441.75	7737.81
441.94	8056.12
442.12	7784.62
442.31	7955.48
442.50	7974.21
442.68	7981.23
442.87	8013.99
443.05	8107.62
443.24	8205.92
443.43	8159.11
443.61	8280.82
443.80	8285.50
443.98	7906.33
444.17	7845.48
444.35	8278.47
444.54	8505.51
444.73	8381.46
444.91	8294.86
445.10	8320.60
445.28	8203.58
445.47	8278.47
445.65	8430.61
445.84	8339.33
446.02	8496.14
446.21	8575.72
446.39	8397.84
446.58	8470.40
446.77	8503.17
446.95	8327.63
447.14	8608.49
447.32	8617.85
447.51	8505.51
447.69	8461.04
447.88	8472.74
448.06	8517.21
448.25	8655.30
448.43	8744.24
448.62	8667.00
448.80	8681.05
448.99	8531.25
449.17	8725.52
449.36	8512.53
449.54	8908.08
449.73	8877.65
449.91	9018.08
450.10	8858.93
450.28	9132.77
450.46	9078.94
450.65	8781.69
450.83	9151.49
451.02	9025.11
451.20	9219.37
451.39	9254.48
451.57	9034.47
451.76	9085.96
451.94	9233.41
452.13	9486.19
452.31	9280.22
452.49	9245.12
452.68	9291.93
452.86	9144.47
453.05	9350.44
453.23	9652.37
453.42	9441.72
453.60	9561.09
453.78	9593.86
453.97	9427.68
454.15	9596.20
454.34	9254.48
454.52	9710.88
454.70	9771.74
454.89	9809.19
455.07	9554.07
455.26	9858.34
455.44	9844.29
455.62	9783.44
455.81	9872.38
455.99	9928.55
456.17	10052.60
456.36	10008.13
456.54	10132.18
456.73	10155.58
456.91	10747.74
457.09	10445.81
457.28	10614.33
457.46	10258.57
457.64	10602.63
457.83	10487.94
458.01	10534.75
458.19	10736.04
458.38	10576.88
458.56	10644.76
458.74	10747.74
458.93	10705.61
459.11	10707.95
459.29	10677.52
459.48	10750.08
459.66	10822.64
459.84	10862.43
460.03	11037.97
460.21	10942.00
460.39	10733.70
460.57	10942.00
460.76	11178.40
460.94	11073.07
461.12	11255.64
461.31	11220.53
461.49	11234.57
461.67	11337.56
461.85	11370.32
462.04	11468.62
462.22	12042.06
462.40	11768.21
462.59	11587.99
462.77	11489.69
462.95	11602.04
463.13	11707.36
463.32	11758.85
463.50	11784.60
463.68	11892.26
463.86	11903.96
464.05	11707.36
464.23	11705.02
464.41	11875.88
464.59	11765.87
464.78	12152.06
464.96	11925.03
465.14	11789.28
465.32	11943.75
465.50	12102.91
465.69	11978.86
465.87	12093.55
466.05	12255.04
466.23	12126.32
466.41	11978.86
466.60	12465.69
466.78	12264.41
466.96	12091.21
467.14	12226.96
467.32	12463.35
467.51	12397.82
467.69	12367.39
467.87	12418.88
468.05	12657.62
468.23	12287.81
468.41	12430.59
468.60	12559.31
468.78	12957.21
468.96	12453.99
469.14	12645.91
469.32	12999.34
469.50	12524.21
469.69	12954.87
469.87	13074.23
470.05	13020.40
470.23	13013.38
470.41	13158.49
470.59	13289.56
470.77	12992.31
470.95	13193.60
471.14	13392.55
471.32	13151.47
471.50	13383.18
471.68	13561.06
471.86	13645.32
472.04	13760.01
472.22	14087.68
472.40	13858.31
472.58	13738.94
472.77	13778.73
472.95	14150.88
473.13	14705.59
473.31	14200.03
473.49	14448.13
473.67	14178.97
473.85	14171.94
474.03	14403.66
474.21	14728.99
474.39	14635.37
474.57	14789.85
474.75	14663.46
474.93	14972.41
475.12	15007.52
475.30	15410.09
475.48	15033.26
475.66	14956.02
475.84	15276.68
476.02	15405.41
476.20	15489.67
476.38	15623.08
476.56	15953.09
476.74	15810.32
476.92	16009.26
477.10	15875.85
477.28	15908.62
477.46	15789.25
477.64	16264.38
477.82	16470.35
478.00	17008.67
478.18	16709.08
478.36	16786.32
478.54	17247.41
478.72	17001.65
478.90	17209.96
479.08	17537.63
479.26	17724.88
479.44	17874.67
479.62	17699.13
479.80	17839.56
479.98	18230.43
480.16	18668.11
480.34	18405.97
480.52	18677.48
480.70	18679.82
480.88	18097.02
481.06	18733.65
481.24	18862.38
481.41	19021.53
481.59	19075.37
481.77	19379.64
481.95	19819.66
482.13	19672.20
482.31	19620.71
482.49	19995.20
482.67	20549.90
482.85	20496.07
483.03	20669.27
483.21	21069.50
483.39	21010.99
483.57	20692.68
483.74	21277.81
483.92	21476.76
484.10	21181.85
484.28	21619.53
484.46	21806.77
484.64	22228.07
484.82	21832.52
485.00	22422.33
485.18	22604.89
485.35	23019.17
485.53	22925.55
485.71	23269.61
485.89	23318.76
486.07	23417.06
486.25	23295.35
486.43	23641.75
486.61	23690.90
486.78	23847.72
486.96	24308.80
487.14	24697.33
487.32	24748.82
487.50	24671.59
487.68	24989.90
487.85	24964.15
488.03	25413.54
488.21	25663.97
488.39	26075.91
488.57	26017.40
488.75	26103.99
488.92	26185.91
489.10	26754.66
489.28	26618.91
489.46	27040.21
489.64	27072.98
489.81	27552.79
489.99	27660.45
490.17	27524.70
490.35	28243.24
490.53	28268.99
490.70	28259.63
490.88	28701.99
491.06	28933.70
491.24	28996.90
491.41	29001.58
491.59	29263.72
491.77	29226.27
491.95	29439.26
492.13	29907.37
492.30	29689.70
492.48	29933.11
492.66	30078.22
492.84	30506.54
493.01	30668.04
493.19	30972.31
493.37	30780.39
493.54	30831.88
493.72	31761.07
493.90	31583.19
494.08	31414.67
494.25	31971.72
494.43	32252.58
494.61	32556.85
494.79	32322.80
494.96	32598.98
495.14	32772.18
495.32	33036.66
495.49	33062.41
495.67	32898.57
495.85	33399.44
496.02	33722.44
496.20	33851.17
496.38	33963.51
496.55	34106.29
496.73	34724.19
496.91	34672.70
497.09	34735.89
497.26	35061.22
497.44	34668.02
497.62	35145.48
497.79	35765.73
497.97	35344.43
498.14	36163.62
498.32	36425.76
498.50	36650.45
498.67	36409.37
498.85	36477.25
499.03	36533.42
499.20	36704.28
499.38	36912.59
499.56	37118.56
499.73	37385.38
499.91	37282.39
500.08	37558.58
500.26	37502.40
500.44	37589.00
500.61	38213.93
500.79	37708.37
500.97	38347.34
501.14	38440.96
501.32	38422.23
501.49	38529.90
501.67	38689.06
501.84	39154.82
502.02	38508.83
502.20	38890.34
502.37	39161.84
502.55	39339.72
502.72	39285.89
502.90	39590.16
503.07	39746.98
503.25	39292.91
503.43	39594.84
503.60	40603.61
503.78	40322.75
503.95	40261.90
504.13	40320.41
504.30	41050.66
504.48	40638.72
504.65	40741.71
504.83	41036.61
505.01	41530.47
505.18	40992.14
505.36	41469.61
505.53	41406.42
505.71	41642.81
505.88	41738.77
506.06	41177.04
506.23	41790.27
506.41	41869.84
506.58	41867.50
506.76	42302.84
506.93	42302.84
507.11	41895.59
507.28	42937.13
507.46	42515.83
507.63	42625.84
507.81	43332.68
507.98	43157.14
508.16	43365.45
508.33	43676.74
508.50	43800.79
508.68	43571.41
508.85	43852.28
509.03	43770.36
509.20	44163.57
509.38	43903.77
509.55	44329.75
509.73	44385.92
509.90	44903.18
510.08	44425.71
510.25	44720.62
510.42	45038.93
510.60	44996.80
510.77	45048.29
510.95	45387.67
511.12	44952.33
511.30	45170.00
511.47	45462.57
511.64	45532.78
511.82	45689.60
511.99	45663.85
512.17	45521.08
512.34	46101.53
512.51	46583.68
512.69	46279.41
512.86	46272.39
513.04	46637.51
513.21	46581.34
513.38	46869.23
513.56	47007.32
513.73	46808.37
513.90	47367.76
514.08	46838.80
514.25	47098.60
514.43	47061.15
514.60	47627.56
514.77	47702.46
514.95	47480.11
515.12	47714.16
515.29	47592.45
515.47	47667.35
515.64	47880.34
515.81	48037.16
515.99	48112.05
516.16	48243.12
516.33	48893.79
516.51	48914.86
516.68	48428.02
516.85	48247.80
517.03	49083.37
517.20	49179.34
517.37	48720.59
517.54	48687.82
517.72	48605.91
517.89	48879.75
518.06	49481.27
518.24	49467.22
518.41	49303.38
518.58	49120.82
518.75	49497.65
518.93	49509.35
519.10	49523.40
519.27	49703.62
519.45	49614.68
519.62	49818.30
519.79	50031.29
519.96	49766.81
520.14	49921.29
520.31	50265.34
520.48	50337.90
520.65	50429.18
520.83	50653.87
521.00	50541.53
521.17	50494.72
521.34	50974.53
521.52	50775.58
521.69	50717.07
521.86	51323.27
522.03	51246.03
522.20	51466.04
522.38	51650.94
522.55	51400.50
522.72	51531.57
522.89	51341.99
523.07	51643.92
523.24	51384.12
523.41	51728.18
523.58	51318.59
523.75	51971.60
523.92	52149.48
524.10	51945.85
524.27	51821.80
524.44	51936.49
524.61	51859.25
524.78	52177.56
524.96	52161.18
525.13	52179.90
525.30	52343.74
525.47	52458.43
525.64	52612.90
525.81	52390.55
525.98	52877.38
526.16	52547.37
526.33	52765.04
526.50	53095.05
526.67	53008.45
526.84	52968.66
527.01	52708.86
527.18	52793.12
527.36	52811.85
527.53	53202.72
527.70	53542.10
527.87	53408.68
528.04	53308.04
528.21	53539.75
528.38	53317.40
528.55	53326.77
528.72	53279.96
528.89	53350.17
529.07	53441.45
529.24	53460.18
529.41	54181.06
529.58	53778.49
529.75	53687.21
529.92	53822.96
530.09	53958.71
530.26	53939.99
530.43	53928.28
530.60	53794.87
530.77	53736.36
530.94	54068.72
531.11	53745.72
531.28	53977.43
531.46	54197.44
531.63	54382.35
531.80	54141.27
531.97	54398.73
532.14	54686.62
532.31	54492.35
532.48	54550.87
532.65	54548.53
532.82	54464.27
532.99	54674.91
533.16	54646.83
533.33	55007.27
533.50	55157.06
533.67	54899.61
533.84	54698.32
534.01	54955.78
534.18	55014.29
534.35	55203.88
534.52	55035.36
534.69	55049.40
534.86	55255.37
535.03	55121.96
535.20	55327.92
535.37	55395.80
535.54	55423.89
535.71	55276.43
535.88	55295.16
536.05	55341.97
536.22	55807.73
536.38	55686.03
536.55	55473.04
536.72	55718.79
536.89	55430.91
537.06	55419.20
537.23	55707.09
537.40	55632.19
537.57	55718.79
537.74	55875.61
537.91	55828.80
538.08	55957.53
538.25	55779.65
538.42	55891.99
538.59	56236.05
538.75	55789.01
538.92	55929.44
539.09	56074.55
539.26	56016.04
539.43	56074.55
539.60	56238.39
539.77	56226.69
539.94	56383.51
540.11	56474.79
540.28	56418.61
540.44	56259.46
540.61	56402.23
540.78	56446.70
540.95	56528.62
541.12	56488.83
541.29	56315.63
541.46	56540.32
541.62	56437.34
541.79	56537.98
541.96	56334.35
542.13	56615.22
542.30	56743.95
542.47	56804.80
542.63	56825.87
542.80	56868.00
542.97	56926.51
543.14	57350.15
543.31	57190.99
543.48	57179.29
543.64	57371.21
543.81	57319.72
543.98	57219.08
544.15	57284.61
544.32	57429.72
544.48	57415.68
544.65	57137.16
544.82	57361.85
544.99	57422.70
545.16	57572.50
545.32	57279.93
545.49	57659.10
545.66	57893.15
545.83	57626.33
546.00	57542.07
546.16	57600.58
546.33	57420.36
546.50	57511.64
546.67	57932.94
546.83	57523.35
547.00	57757.40
547.17	57722.29
547.34	57893.15
547.50	57836.98
547.67	58115.50
547.84	58049.97
548.00	58159.97
548.17	58157.63
548.34	57935.28
548.51	58117.84
548.67	58197.42
548.84	58101.46
549.01	58122.52
549.18	58253.59
549.34	58232.53
549.51	58398.71
549.68	58286.36
549.84	58550.84
550.01	58508.71
550.18	58279.34
550.34	58333.17
550.51	58492.33
550.68	58436.16
550.84	58398.71
551.01	58609.35
551.18	58459.56
551.34	58438.50
551.51	58525.10
551.68	58450.20
551.84	58480.63
552.01	58237.21
552.18	58436.16
552.34	58499.35
552.51	58719.36
552.68	58494.67
552.84	58691.27
553.01	58906.60
553.18	58850.43
553.34	59044.69
553.51	58960.44
553.67	58693.61
553.84	58808.30
554.01	58990.86
554.17	59112.57
554.34	58953.41
554.51	58892.56
554.67	59187.47
554.84	58820.00
555.00	59082.14
555.17	58941.71
555.33	58965.12
555.50	59152.36
555.67	58904.26
555.83	58915.96
556.00	58920.65
556.16	59264.70
556.33	59260.02
556.50	59241.30
556.66	59271.73
556.83	59084.48
556.99	59426.20
557.16	59608.76
557.32	59400.46
557.49	59639.19
557.65	59255.34
557.82	59299.81
557.98	59529.19
558.15	59494.08
558.32	59517.48
558.48	59370.03
558.65	59423.86
558.81	59332.58
558.98	59627.49
559.14	59512.80
559.31	59854.52
559.47	59615.79
559.64	59522.16
559.80	59777.28
559.97	59920.05
560.13	59613.44
560.30	59669.62
560.46	59812.39
560.63	59770.26
560.79	59861.54
560.96	59854.52
561.12	59749.20
561.29	59716.43
561.45	59824.09
561.61	59812.39
561.78	59522.16
561.94	59791.33
562.11	59793.67
562.27	59774.94
562.44	60212.62
562.60	60175.17
562.77	59852.18
562.93	59840.48
563.10	59941.12
563.26	59760.90
563.42	60130.70
563.59	59772.60
563.75	59877.93
563.92	59861.54
564.08	60121.34
564.24	60261.77
564.41	60203.26
564.57	60128.36
564.74	60154.11
564.90	59931.76
565.07	60074.53
565.23	60205.60
565.39	60051.12
565.56	60289.86
565.72	60287.52
565.88	60135.38
566.05	60196.24
566.21	60231.35
566.38	60397.52
566.54	60329.65
566.70	60301.56
566.87	60425.61
567.03	60095.60
567.19	60498.17
567.36	60339.01
567.52	60273.48
567.68	60491.15
567.85	60425.61
568.01	60498.17
568.17	60339.01
568.34	60439.65
568.50	60453.70
568.66	60179.85
568.83	60388.16
568.99	60439.65
569.15	60521.57
569.32	60502.85
569.48	60430.29
569.64	60577.75
569.81	60507.53
569.97	60233.69
570.13	60463.06
570.30	60547.32
570.46	60444.33
570.62	60554.34
570.78	60430.29
570.95	60470.08
571.11	60659.66
571.27	60526.25
571.43	60519.23
571.60	60537.96
571.76	60781.37
571.92	60790.73
572.09	60432.63
572.25	60713.50
572.41	60449.02
572.57	60633.92
572.74	60884.36
572.90	60680.73
573.06	60603.49
573.22	60563.70
573.38	60528.59
573.55	60420.93
573.71	60882.02
573.87	60715.84
574.03	60575.40
574.20	60598.81
574.36	60636.26
574.52	60662.00
574.68	60776.69
574.84	60767.33
575.01	60779.03
575.17	60584.77
575.33	60629.24
575.49	60739.24
575.65	60767.33
575.82	60839.89
575.98	60994.36
576.14	60928.83
576.30	60776.69
576.46	60694.77
576.62	60713.50
576.79	60589.45
576.95	60640.94
577.11	60947.55
577.27	60755.63
577.43	60807.12
577.59	60645.62
577.75	60631.58
577.92	60631.58
578.08	60790.73
578.24	60872.65
578.40	60961.59
578.56	60987.34
578.72	60844.57
578.88	60800.10
579.04	60919.46
579.21	61052.87
579.37	61015.43
579.53	61048.19
579.69	60673.71
579.85	60910.10
580.01	60711.16
580.17	60727.54
580.33	61041.17
580.49	60947.55
580.65	61085.64
580.82	60917.12
580.98	60837.54
581.14	60886.70
581.30	60952.23
581.46	61165.22
581.62	61022.45
581.78	60839.89
581.94	60863.29
582.10	60921.80
582.26	61003.72
582.42	60961.59
582.58	60889.04
582.74	61015.43
582.90	61073.94
583.06	60935.85
583.22	60708.82
583.38	60996.70
583.54	60863.29
583.70	60853.93
583.86	61197.99
584.02	60980.32
584.18	61043.51
584.34	60814.14
584.50	61137.13
584.66	60760.31
584.82	60884.36
584.98	61125.43
585.14	61162.88
585.30	60882.02
585.46	61064.58
585.62	60942.87
585.78	61139.47
585.94	60896.06
586.10	60853.93
586.26	61090.32
586.42	60977.98
586.58	61097.34
586.74	60989.68
586.90	61022.45
587.06	60877.33
587.22	61223.73
587.38	61076.28
587.54	61078.62
587.70	61296.29
587.86	60903.08
588.02	61027.13
588.18	61066.92
588.34	60945.21
