SpectraSuite Data File
++++++++++++++++++++++++++++++++++++
Date: Fri Oct 25 11:33:15 EDT 2013
User: price-jones
Dark Spectrum Present: No
Reference Spectrum Present: No
Number of Sampled Component Spectra: 1
Spectrometers: USB2+H05261
Integration Time (usec): 100000 (USB2+H05261)
Spectra Averaged: 1 (USB2+H05261)
Boxcar Smoothing: 0 (USB2+H05261)
Correct for Electrical Dark: No (USB2+H05261)
Strobe/Lamp Enabled: No (USB2+H05261)
Correct for Detector Non-linearity: No (USB2+H05261)
Correct for Stray Light: No (USB2+H05261)
Number of Pixels in Processed Spectrum: 2048
>>>>>Begin Processed Spectral Data<<<<<
365.73	234.05
365.92	234.05
366.12	234.05
366.32	194.26
366.52	238.73
366.72	161.50
366.91	208.31
367.11	189.58
367.31	154.48
367.51	170.86
367.70	142.77
367.90	154.48
368.10	184.90
368.30	201.29
368.49	203.63
368.69	128.73
368.89	187.24
369.09	187.24
369.28	243.42
369.48	187.24
369.68	231.71
369.87	259.80
370.07	210.65
370.27	264.48
370.47	283.20
370.66	437.68
370.86	566.41
371.06	587.47
371.25	622.58
371.45	510.24
371.65	545.34
371.84	505.56
372.04	531.30
372.24	578.11
372.44	573.43
372.63	543.00
372.83	627.26
373.03	535.98
373.22	554.71
373.42	615.56
373.62	704.50
373.81	662.37
374.01	690.46
374.21	634.29
374.40	664.71
374.60	631.94
374.79	636.63
374.99	594.50
375.19	587.47
375.38	671.73
375.58	631.94
375.78	730.25
375.97	589.82
376.17	676.41
376.37	669.39
376.56	720.88
376.76	674.07
376.95	697.48
377.15	744.29
377.35	655.35
377.54	678.76
377.74	634.29
377.93	615.56
378.13	690.46
378.33	695.14
378.52	725.57
378.72	737.27
378.91	753.65
379.11	702.16
379.31	685.78
379.50	648.33
379.70	681.10
379.89	704.50
380.09	657.69
380.28	784.08
380.48	767.70
380.68	692.80
380.87	669.39
381.07	814.51
381.26	709.18
381.46	791.10
381.65	716.20
381.85	767.70
382.04	821.53
382.24	692.80
382.43	777.06
382.63	835.57
382.83	774.72
383.02	847.27
383.22	814.51
383.41	760.67
383.61	793.44
383.80	816.85
384.00	828.55
384.19	898.77
384.39	840.25
384.58	720.88
384.78	844.93
384.97	847.27
385.17	788.76
385.36	814.51
385.56	863.66
385.75	882.38
385.95	863.66
386.14	894.08
386.34	945.58
386.53	877.70
386.72	887.06
386.92	873.02
387.11	842.59
387.31	847.27
387.50	926.85
387.70	926.85
387.89	968.98
388.09	901.11
388.28	919.83
388.48	929.19
388.67	961.96
388.86	910.47
389.06	976.00
389.25	978.34
389.45	985.37
389.64	919.83
389.84	1081.33
390.03	964.30
390.22	1006.43
390.42	992.39
390.61	1025.15
390.81	938.55
391.00	952.60
391.19	1006.43
391.39	987.71
391.58	1032.18
391.78	1086.01
391.97	1015.79
392.16	961.96
392.36	1090.69
392.55	987.71
392.75	1022.81
392.94	915.15
393.13	1050.90
393.33	987.71
393.52	1020.47
393.71	1116.44
393.91	1165.59
394.10	1074.31
394.29	1046.22
394.49	1163.25
394.68	1088.35
394.88	1137.50
395.07	1205.38
395.26	1184.31
395.46	1100.05
395.65	1217.08
395.84	1172.61
396.04	1165.59
396.23	1130.48
396.42	1121.12
396.62	1196.01
396.81	1235.80
397.00	1219.42
397.19	1181.97
397.39	1242.82
397.58	1172.61
397.77	1132.82
397.97	1294.32
398.16	1289.64
398.35	1291.98
398.55	1193.67
398.74	1270.91
398.93	1327.08
399.12	1287.29
399.32	1261.55
399.51	1291.98
399.70	1320.06
399.90	1327.08
400.09	1390.28
400.28	1266.23
400.47	1299.00
400.67	1364.53
400.86	1497.94
401.05	1404.32
401.24	1420.71
401.44	1533.05
401.63	1446.45
401.82	1462.83
402.01	1401.98
402.21	1511.99
402.40	1486.24
402.59	1483.90
402.78	1495.60
402.97	1614.97
403.17	1596.25
403.36	1558.80
403.55	1624.33
403.74	1430.07
403.93	1577.52
404.13	1633.69
404.32	1554.12
404.51	1558.80
404.70	1629.01
404.89	1701.57
405.09	1645.40
405.28	1666.46
405.47	1732.00
405.66	1680.50
405.85	1771.79
406.05	1743.70
406.24	1729.66
406.43	1739.02
406.62	1778.81
406.81	1858.39
407.00	1739.02
407.20	1741.36
407.39	1820.94
407.58	1792.85
407.77	1792.85
407.96	1802.21
408.15	1947.33
408.34	1933.28
408.54	2024.56
408.73	1893.49
408.92	1916.90
409.11	2083.08
409.30	2022.22
409.49	1982.43
409.68	1923.92
409.87	1996.48
410.07	2104.14
410.26	2118.18
410.45	2139.25
410.64	2143.93
410.83	2008.18
411.02	2101.80
411.21	2132.23
411.40	2155.63
411.59	2260.96
411.78	2155.63
411.98	2267.98
412.17	2223.51
412.36	2275.00
412.55	2242.23
412.74	2406.07
412.93	2396.71
413.12	2324.15
413.31	2401.39
413.50	2396.71
413.69	2392.03
413.88	2539.48
414.07	2455.22
414.26	2452.88
414.45	2541.82
414.64	2436.50
414.83	2532.46
415.02	2616.72
415.22	2698.64
415.41	2609.70
415.60	2710.34
415.79	2630.76
415.98	2750.13
416.17	2827.37
416.36	2853.11
416.55	2796.94
416.74	2871.84
416.93	2808.64
417.12	2794.60
417.31	2825.03
417.50	2871.84
417.69	2920.99
417.88	2920.99
418.07	2885.88
418.26	3007.59
418.45	2988.86
418.64	3068.44
418.83	3028.65
419.02	3110.57
419.21	3178.45
419.39	3141.00
419.58	3094.19
419.77	3087.17
419.96	3194.83
420.15	3084.83
420.34	3255.69
420.53	3183.13
420.72	3239.30
420.91	3220.58
421.10	3309.52
421.29	3384.41
421.48	3279.09
421.67	3258.03
421.86	3304.84
422.05	3346.97
422.24	3358.67
422.43	3232.28
422.61	3356.33
422.80	3400.80
422.99	3454.63
423.18	3442.93
423.37	3496.76
423.56	3377.39
423.75	3342.28
423.94	3391.44
424.13	3176.11
424.32	3389.10
424.50	3428.88
424.69	3517.83
424.88	3552.93
425.07	3438.25
425.26	3538.89
425.45	3684.00
425.64	3417.18
425.83	3487.40
426.01	3496.76
426.20	3545.91
426.39	3447.61
426.58	3499.10
426.77	3571.66
426.96	3550.59
427.15	3712.09
427.33	3700.39
427.52	3557.61
427.71	3686.34
427.90	3674.64
428.09	3604.42
428.28	3871.25
428.46	3658.26
428.65	3700.39
428.84	3915.72
429.03	3779.97
429.22	3625.49
429.40	3723.79
429.59	3794.01
429.78	3768.26
429.97	3646.55
430.16	3868.91
430.34	3810.39
430.53	3880.61
430.72	3871.25
430.91	3840.82
431.10	3805.71
431.28	3873.59
431.47	4004.66
431.66	3962.53
431.85	3922.74
432.03	4152.11
432.22	4117.00
432.41	4145.09
432.60	4081.89
432.79	4039.76
432.97	4173.18
433.16	4105.30
433.35	4266.80
433.54	4306.59
433.72	4196.58
433.91	4159.13
434.10	4329.99
434.28	4222.33
434.47	4334.67
434.66	4423.61
434.85	4313.61
435.03	4353.40
435.22	4358.08
435.41	4465.74
435.59	4353.40
435.78	4369.78
435.97	4589.79
436.16	4339.35
436.34	4475.10
436.53	4514.89
436.72	4578.09
436.90	4393.19
437.09	4528.94
437.28	4521.92
437.46	4620.22
437.65	4753.63
437.84	4580.43
438.02	4610.86
438.21	4690.43
438.40	4648.30
438.58	4802.78
438.77	4674.05
438.96	4898.74
439.14	4858.95
439.33	4966.62
439.52	4952.57
439.70	5022.79
439.89	5050.88
440.08	5151.52
440.26	5205.35
440.45	5118.75
440.63	5111.73
440.82	5408.98
441.01	5123.43
441.19	5249.82
441.38	5195.99
441.57	5355.15
441.75	5364.51
441.94	5444.09
442.12	5528.35
442.31	5610.26
442.50	5406.64
442.68	5500.26
442.87	5514.30
443.05	5486.22
443.24	5474.51
443.43	5509.62
443.61	5692.18
443.80	5760.06
443.98	5584.52
444.17	5327.06
444.35	5619.63
444.54	5598.56
444.73	5668.78
444.91	5685.16
445.10	5790.49
445.28	5610.26
445.47	5556.43
445.65	5633.67
445.84	5912.19
446.02	5783.46
446.21	5746.02
446.39	5699.20
446.58	5738.99
446.77	5795.17
446.95	5638.35
447.14	5785.80
447.32	5774.10
447.51	5783.46
447.69	5799.85
447.88	5746.02
448.06	5760.06
448.25	5816.23
448.43	5886.45
448.62	5720.27
448.80	5879.43
448.99	5963.68
449.17	5954.32
449.36	5717.93
449.54	5909.85
449.73	6061.99
449.91	6155.61
450.10	6155.61
450.28	6171.99
450.46	6188.38
450.65	6097.10
450.83	6125.18
451.02	6150.93
451.20	6363.92
451.39	6216.46
451.57	6132.20
451.76	6169.65
451.94	6258.59
452.13	6408.39
452.31	6438.81
452.49	6157.95
452.68	6438.81
452.86	6284.34
453.05	6429.45
453.23	6539.46
453.42	6284.34
453.60	6441.15
453.78	6555.84
453.97	6384.98
454.15	6579.25
454.34	6399.02
454.52	6541.80
454.70	6710.32
454.89	6722.02
455.07	6541.80
455.26	6597.97
455.44	6614.35
455.62	6700.95
455.81	6832.02
455.99	7040.33
456.17	6832.02
456.36	6874.15
456.54	7042.67
456.73	6876.49
456.91	7164.38
457.09	6995.86
457.28	7180.76
457.46	7002.88
457.64	7260.34
457.83	7208.85
458.01	7040.33
458.19	7372.69
458.38	7208.85
458.56	7321.20
458.74	7232.26
458.93	7178.42
459.11	7248.64
459.29	7386.73
459.48	7349.28
459.66	7459.29
459.84	7396.09
460.03	7655.89
460.21	7297.79
460.39	7384.39
460.57	7534.18
460.76	7447.58
460.94	7403.11
461.12	7573.97
461.31	7637.17
461.49	7496.74
461.67	7478.01
461.85	7803.35
462.04	7653.55
462.22	8131.02
462.40	8095.91
462.59	7681.64
462.77	7775.26
462.95	7728.45
463.13	7667.60
463.32	7812.71
463.50	7974.21
463.68	8016.33
463.86	7873.56
464.05	7698.02
464.23	7808.03
464.41	8051.44
464.59	7885.26
464.78	8079.53
464.96	8035.06
465.14	8004.63
465.32	8152.09
465.50	8112.30
465.69	8177.83
465.87	8201.24
466.05	8156.77
466.23	8315.92
466.41	8102.93
466.60	8290.18
466.78	8276.13
466.96	8269.11
467.14	8278.47
467.32	8414.23
467.51	8521.89
467.69	8201.24
467.87	8475.08
468.05	8409.54
468.23	8432.95
468.41	8348.69
468.60	8486.78
468.78	8568.70
468.96	8554.66
469.14	8800.41
469.32	8716.16
469.50	8568.70
469.69	8650.62
469.87	8809.78
470.05	8926.80
470.23	9097.66
470.41	9121.07
470.59	8915.10
470.77	8690.41
470.95	8952.55
471.14	8945.53
471.32	8938.51
471.50	9081.28
471.68	9092.98
471.86	9111.71
472.04	9256.82
472.22	9540.02
472.40	9137.45
472.58	9273.20
472.77	9226.39
472.95	9380.87
473.13	10064.30
473.31	9605.56
473.49	9584.49
473.67	9465.13
473.85	9710.88
474.03	9628.96
474.21	9802.16
474.39	9769.40
474.57	9949.62
474.75	9961.32
474.93	10045.58
475.12	10164.95
475.30	10022.17
475.48	10054.94
475.66	10251.55
475.84	10176.65
476.02	10153.24
476.20	10164.95
476.38	10452.83
476.56	10672.84
476.74	10586.24
476.92	10661.14
477.10	10406.02
477.28	10796.89
477.46	10932.64
477.64	10817.96
477.82	10942.00
478.00	11250.96
478.18	11257.98
478.36	11353.94
478.54	11405.43
478.72	11637.14
478.90	11463.94
479.08	11709.70
479.26	11784.60
479.44	11817.36
479.62	11857.15
479.80	11971.84
479.98	12060.78
480.16	12624.85
480.34	12180.15
480.52	12215.26
480.70	12430.59
480.88	12196.53
481.06	12365.05
481.24	12681.02
481.41	12805.07
481.59	12807.41
481.77	12849.54
481.95	13034.44
482.13	13095.30
482.31	13179.56
482.49	13621.92
482.67	13488.51
482.85	13654.69
483.03	13486.17
483.21	13448.72
483.39	13841.93
483.57	14015.13
483.74	13853.63
483.92	14132.15
484.10	14230.46
484.28	14555.79
484.46	14487.92
484.64	14726.65
484.82	14494.94
485.00	14726.65
485.18	14871.76
485.35	15033.26
485.53	15103.48
485.71	15403.07
485.89	15683.93
486.07	15499.03
486.25	15506.05
486.43	15768.19
486.61	15817.34
486.78	15747.12
486.96	16212.89
487.14	16173.10
487.32	16339.28
487.50	16458.65
487.68	16369.71
487.85	16681.00
488.03	16896.33
488.21	17158.47
488.39	17254.43
488.57	17317.62
488.75	17418.27
488.92	17579.76
489.10	17502.53
489.28	17511.89
489.46	17612.53
489.64	17975.31
489.81	18436.40
489.99	18314.69
490.17	18408.31
490.35	18700.88
490.53	18373.21
490.70	18822.59
490.88	18679.82
491.06	19066.00
491.24	19297.72
491.41	19068.34
491.59	19438.15
491.77	19400.70
491.95	19325.80
492.13	19421.77
492.30	19585.60
492.48	19857.10
492.66	19814.98
492.84	20236.27
493.01	19946.05
493.19	20299.47
493.37	20393.09
493.54	20482.03
493.72	21128.02
493.90	21081.21
494.08	20823.75
494.25	20940.77
494.43	21238.02
494.61	21589.10
494.79	21458.03
494.96	21542.29
495.14	21804.43
495.32	21947.20
495.49	21823.16
495.67	21968.27
495.85	22237.43
496.02	22431.69
496.20	22478.50
496.38	22768.73
496.55	22663.41
496.73	23091.73
496.91	22691.49
497.09	22822.56
497.26	23274.29
497.44	22974.70
497.62	23285.99
497.79	23428.76
497.97	23281.31
498.14	23845.38
498.32	23447.49
498.50	23852.40
498.67	24402.43
498.85	24128.58
499.03	24280.72
499.20	24353.27
499.38	24594.35
499.56	24486.68
499.73	24723.08
499.91	25013.31
500.08	24966.49
500.26	24713.72
500.44	24884.58
500.61	25238.00
500.79	24702.01
500.97	25230.98
501.14	25474.39
501.32	25832.49
501.49	25467.37
501.67	25497.80
501.84	25813.77
502.02	25617.16
502.20	25823.13
502.37	26040.80
502.55	25844.20
502.72	25865.26
502.90	26183.57
503.07	26099.31
503.25	26036.12
503.43	26307.62
503.60	26768.71
503.78	26581.46
503.95	26726.58
504.13	26974.67
504.30	26689.13
504.48	26855.31
504.65	27063.61
504.83	27454.48
505.01	27414.69
505.18	27388.95
505.36	27618.32
505.53	27152.55
505.71	27562.15
505.88	27878.12
506.06	27749.39
506.23	27758.75
506.41	27765.78
506.58	28343.89
506.76	27927.27
506.93	28212.82
507.11	28308.78
507.28	28371.97
507.46	28189.41
507.63	28346.23
507.81	28713.69
507.98	28297.08
508.16	28863.49
508.33	28758.16
508.50	29153.71
508.68	28732.42
508.85	28933.70
509.03	28879.87
509.20	29628.84
509.38	29593.73
509.55	29312.87
509.73	29298.83
509.90	29579.69
510.08	30085.25
510.25	29483.73
510.42	29951.84
510.60	30054.82
510.77	30230.36
510.95	30448.03
511.12	30068.86
511.30	29914.39
511.47	30614.21
511.64	30199.93
511.82	30684.42
511.99	30506.54
512.17	30759.32
512.34	30595.48
512.51	31225.09
512.69	30932.52
512.86	30974.65
513.04	31412.33
513.21	30967.63
513.38	31288.28
513.56	31861.71
513.73	31566.81
513.90	31335.09
514.08	31519.99
514.25	31545.74
514.43	31812.56
514.60	31651.06
514.77	32002.14
514.95	32135.56
515.12	31964.70
515.29	31948.31
515.47	32519.40
515.64	32098.11
515.81	31838.31
515.99	32187.05
516.16	32617.71
516.33	32542.81
516.51	32561.53
516.68	32678.56
516.85	32662.18
517.03	32933.68
517.20	32795.59
517.37	33090.49
517.54	33092.83
517.72	33352.63
517.89	33179.43
518.06	32685.58
518.24	33371.36
518.41	33266.03
518.58	33209.86
518.75	33202.84
518.93	33839.47
519.10	33376.04
519.27	33865.21
519.45	33986.92
519.62	34455.03
519.79	34038.41
519.96	34195.23
520.14	34073.52
520.31	33811.38
520.48	34007.98
520.65	34363.75
520.83	34309.91
521.00	34553.33
521.17	34518.22
521.34	34546.31
521.52	34763.98
521.69	34670.36
521.86	35161.87
522.03	35101.01
522.20	35056.54
522.38	35316.34
522.55	35072.93
522.72	35358.47
522.89	35473.16
523.07	35550.40
523.24	35519.97
523.41	35896.80
523.58	35634.66
523.75	36100.42
523.92	35924.88
524.10	35405.28
524.27	35840.62
524.44	36044.25
524.61	36362.56
524.78	36512.36
524.96	36175.32
525.13	36495.97
525.30	36313.41
525.47	36411.71
525.64	36364.90
525.81	36556.83
525.98	36439.80
526.16	36760.45
526.33	36320.43
526.50	36833.01
526.67	36704.28
526.84	36762.79
527.01	37336.23
527.18	36964.08
527.36	36603.64
527.53	36779.18
527.70	37432.19
527.87	37731.78
528.04	37277.71
528.21	37312.82
528.38	37621.77
528.55	37511.77
528.72	37635.81
528.89	37619.43
529.07	37486.02
529.24	37387.72
529.41	38188.18
529.58	37783.27
529.75	37731.78
529.92	38127.33
530.09	37888.59
530.26	37998.60
530.43	38136.69
530.60	37785.61
530.77	38108.60
530.94	38359.04
531.11	37963.49
531.28	38443.30
531.46	38426.92
531.63	38679.69
531.80	38532.24
531.97	38663.31
532.14	38740.55
532.31	38988.64
532.48	38473.73
532.65	38693.74
532.82	38869.28
532.99	38897.36
533.16	38892.68
533.33	39222.70
533.50	39381.85
533.67	38824.81
533.84	38731.18
534.01	39180.57
534.18	39367.81
534.35	39477.82
534.52	39100.99
534.69	39594.84
534.86	40065.29
535.03	39531.65
535.20	39290.57
535.37	39852.30
535.54	39964.65
535.71	39466.11
535.88	40369.56
536.05	39896.77
536.22	40163.59
536.38	40074.65
536.55	39800.81
536.72	40177.64
536.89	39889.75
537.06	40399.99
537.23	40177.64
537.40	40161.25
537.57	39737.62
537.74	40463.18
537.91	40940.65
538.08	40446.80
538.25	40481.91
538.42	40804.90
538.59	40797.88
538.75	40800.22
538.92	40421.05
539.09	40877.46
539.26	41148.96
539.43	41148.96
539.60	40865.75
539.77	40781.49
539.94	41769.20
540.11	40952.35
540.28	41226.20
540.44	41254.28
540.61	41205.13
540.78	40945.33
540.95	41375.99
541.12	41305.77
541.29	41230.88
541.46	41359.61
541.62	41399.40
541.79	41453.23
541.96	41031.93
542.13	41455.57
542.30	41383.01
542.47	41867.50
542.63	41848.78
542.80	41764.52
542.97	41869.84
543.14	41827.71
543.31	41893.25
543.48	42424.55
543.64	42831.80
543.81	42569.66
543.98	42148.37
544.15	41972.83
544.32	42759.25
544.48	42887.98
544.65	42951.17
544.82	43236.72
544.99	42356.67
545.16	42181.13
545.32	42658.60
545.49	42981.60
545.66	43129.05
545.83	42768.61
546.00	43107.99
546.16	42817.76
546.33	42707.76
546.50	42990.96
546.67	43065.86
546.83	42457.32
547.00	43040.11
547.17	43026.07
547.34	42763.93
547.50	43367.79
547.67	44219.74
547.84	43718.87
548.00	43590.14
548.17	43770.36
548.34	43264.80
548.51	43894.41
548.67	43147.78
548.84	43700.14
549.01	43761.00
549.18	43655.67
549.34	43388.85
549.51	44240.81
549.68	43934.20
549.84	43412.26
550.01	44278.25
550.18	43566.73
550.34	43765.68
550.51	44009.09
550.68	44252.51
550.84	43700.14
551.01	44121.44
551.18	43821.85
551.34	43639.29
551.51	44406.98
551.68	44215.06
551.84	43990.37
552.01	43887.39
552.18	44296.98
552.34	44034.84
552.51	44376.56
552.68	44430.39
552.84	44563.80
553.01	44299.32
553.18	44928.92
553.34	44168.25
553.51	44348.47
553.67	44868.07
553.84	44982.76
554.01	44699.55
554.17	44830.62
554.34	44940.63
554.51	44814.24
554.67	44854.03
554.84	45125.53
555.00	44875.09
555.17	44919.56
555.33	45001.48
555.50	44858.71
555.67	45200.43
555.83	44713.59
556.00	45322.13
556.16	45579.59
556.33	45160.64
556.50	44666.78
556.66	44868.07
556.83	45216.81
556.99	45392.35
557.16	45574.91
557.32	45586.61
557.49	45394.69
557.65	45284.68
557.82	45375.97
557.98	45326.81
558.15	45441.50
558.32	45591.30
558.48	45340.86
558.65	45815.99
558.81	45799.60
558.98	45631.08
559.14	45607.68
559.31	45610.02
559.47	45397.03
559.64	45638.11
559.80	45673.21
559.97	46150.68
560.13	45628.74
560.30	45708.32
560.46	45848.75
560.63	46108.55
560.79	46195.15
560.96	45659.17
561.12	46206.86
561.29	46136.64
561.45	46162.39
561.61	45787.90
561.78	45869.82
561.94	46010.25
562.11	45998.55
562.27	46307.50
562.44	45727.05
562.60	46073.45
562.77	46197.49
562.93	45731.73
563.10	46408.14
563.26	46078.13
563.42	46726.46
563.59	46501.76
563.75	46117.92
563.92	46408.14
564.08	45970.46
564.24	46454.95
564.41	46686.67
564.57	46195.15
564.74	46340.27
564.90	46604.75
565.07	46061.74
565.23	46234.94
565.39	46438.57
565.56	46501.76
565.72	46443.25
565.88	46433.89
566.05	46581.34
566.21	46738.16
566.38	46204.52
566.54	46529.85
566.70	47072.85
566.87	46799.01
567.03	46501.76
567.19	46635.17
567.36	46810.71
567.52	46511.13
567.68	47192.22
567.85	46422.19
568.01	46958.17
568.17	46784.97
568.34	47103.28
568.50	46986.25
568.66	46780.29
568.83	46876.25
568.99	46581.34
569.15	47161.79
569.32	47133.71
569.48	46508.79
569.64	47234.35
569.81	47122.01
569.97	47592.45
570.13	47049.45
570.30	46918.38
570.46	46951.15
570.62	46962.85
570.78	47206.26
570.95	47435.64
571.11	47180.52
571.27	47189.88
571.43	47054.13
571.60	47044.77
571.76	46712.41
571.92	47030.72
572.09	46948.81
572.25	47065.83
572.41	46857.52
572.57	46972.21
572.74	47599.47
572.90	47203.92
573.06	46824.76
573.22	47150.09
573.38	47210.95
573.55	47004.98
573.71	47779.70
573.87	47056.47
574.03	46988.60
574.20	47330.31
574.36	46965.19
574.52	47143.07
574.68	46951.15
574.84	47157.11
575.01	47353.72
575.17	47840.55
575.33	47402.87
575.49	47236.69
575.65	47571.39
575.82	47199.24
575.98	47400.53
576.14	47606.50
576.30	47718.84
576.46	47620.54
576.62	47246.05
576.79	47412.23
576.95	46796.67
577.11	47400.53
577.27	47234.35
577.43	47002.64
577.59	47313.93
577.75	47487.13
577.92	47096.26
578.08	47391.17
578.24	47576.07
578.40	47552.66
578.56	47456.70
578.72	47707.14
578.88	47849.91
579.04	47192.22
579.21	47487.13
579.37	47601.82
579.53	47615.86
579.69	47786.72
579.85	47281.16
580.01	47793.74
580.17	47423.93
580.33	47639.26
580.49	47353.72
580.65	47508.19
580.82	47578.41
580.98	47173.50
581.14	47299.89
581.30	47515.22
581.46	47143.07
581.62	47559.69
581.78	47023.70
581.94	47475.43
582.10	47606.50
582.26	47753.95
582.42	47583.09
582.58	47552.66
582.74	47784.38
582.90	47690.76
583.06	47629.90
583.22	47297.55
583.38	47494.15
583.54	47910.77
583.70	47555.00
583.86	47562.03
584.02	47800.76
584.18	47767.99
584.34	47819.49
584.50	47770.33
584.66	47863.96
584.82	47845.23
584.98	47903.74
585.14	47515.22
585.30	47672.03
585.46	47590.11
585.62	47545.64
585.78	48088.65
585.94	47466.06
586.10	47648.63
586.26	47665.01
586.42	47423.93
586.58	48053.54
586.74	47798.42
586.90	47763.31
587.06	47878.00
587.22	48044.18
587.38	47870.98
587.54	47948.21
587.70	47859.27
587.86	47840.55
588.02	47985.66
588.18	47992.68
588.34	47732.89
588.49	47536.28
588.65	47835.87
588.81	47833.53
588.97	47782.04
589.13	48046.52
589.29	48086.31
589.45	48294.61
589.61	48102.69
589.77	48229.08
589.93	48025.45
