SpectraSuite Data File
++++++++++++++++++++++++++++++++++++
Date: Fri Oct 25 11:33:21 EDT 2013
User: price-jones
Dark Spectrum Present: No
Reference Spectrum Present: No
Number of Sampled Component Spectra: 1
Spectrometers: USB2+H05261
Integration Time (usec): 100000 (USB2+H05261)
Spectra Averaged: 1 (USB2+H05261)
Boxcar Smoothing: 0 (USB2+H05261)
Correct for Electrical Dark: No (USB2+H05261)
Strobe/Lamp Enabled: No (USB2+H05261)
Correct for Detector Non-linearity: No (USB2+H05261)
Correct for Stray Light: No (USB2+H05261)
Number of Pixels in Processed Spectrum: 2048
>>>>>Begin Processed Spectral Data<<<<<
365.73	276.18
365.92	276.18
366.12	276.18
366.32	191.92
366.52	149.79
366.72	203.63
366.91	208.31
367.11	147.45
367.31	191.92
367.51	147.45
367.70	119.37
367.90	149.79
368.10	152.13
368.30	161.50
368.49	173.20
368.69	173.20
368.89	212.99
369.09	170.86
369.28	264.48
369.48	234.05
369.68	205.97
369.87	184.90
370.07	198.95
370.27	285.55
370.47	308.95
370.66	437.68
370.86	503.22
371.06	517.26
371.25	538.32
371.45	514.92
371.65	561.73
371.84	592.16
372.04	493.85
372.24	564.07
372.44	594.50
372.63	603.86
372.83	596.84
373.03	634.29
373.22	629.60
373.42	620.24
373.62	641.31
373.81	636.63
374.01	610.88
374.21	657.69
374.40	617.90
374.60	671.73
374.79	676.41
374.99	620.24
375.19	667.05
375.38	580.45
375.58	664.71
375.78	685.78
375.97	624.92
376.17	678.76
376.37	699.82
376.56	662.37
376.76	624.92
376.95	645.99
377.15	737.27
377.35	653.01
377.54	732.59
377.74	688.12
377.93	629.60
378.13	692.80
378.33	718.54
378.52	648.33
378.72	664.71
378.91	781.74
379.11	734.93
379.31	725.57
379.50	744.29
379.70	791.10
379.89	821.53
380.09	692.80
380.28	718.54
380.48	648.33
380.68	758.33
380.87	739.61
381.07	760.67
381.26	786.42
381.46	774.72
381.65	755.99
381.85	739.61
382.04	753.65
382.24	863.66
382.43	765.36
382.63	763.01
382.83	814.51
383.02	802.80
383.22	877.70
383.41	833.23
383.61	837.91
383.80	887.06
384.00	777.06
384.19	812.17
384.39	760.67
384.58	760.67
384.78	894.08
384.97	770.04
385.17	828.55
385.36	861.32
385.56	819.19
385.75	814.51
385.95	919.83
386.14	873.02
386.34	802.80
386.53	833.23
386.72	849.61
386.92	922.17
387.11	880.04
387.31	931.53
387.50	903.45
387.70	959.62
387.89	922.17
388.09	889.40
388.28	915.15
388.48	826.21
388.67	1006.43
388.86	851.96
389.06	896.43
389.25	973.66
389.45	919.83
389.64	992.39
389.84	1050.90
390.03	952.60
390.22	973.66
390.42	917.49
390.61	924.51
390.81	961.96
391.00	1048.56
391.19	983.02
391.39	1053.24
391.58	1011.11
391.78	1057.92
391.97	1027.50
392.16	1074.31
392.36	1050.90
392.55	1104.73
392.75	1088.35
392.94	976.00
393.13	983.02
393.33	1046.22
393.52	1076.65
393.71	1100.05
393.91	1118.78
394.10	1109.41
394.29	1027.50
394.49	1015.79
394.68	1053.24
394.88	1121.12
395.07	1219.42
395.26	1137.50
395.46	1088.35
395.65	1193.67
395.84	1078.99
396.04	1254.53
396.23	1284.95
396.42	1163.25
396.62	1174.95
396.81	1205.38
397.00	1238.14
397.19	1263.89
397.39	1196.01
397.58	1165.59
397.77	1289.64
397.97	1231.12
398.16	1219.42
398.35	1233.46
398.55	1249.85
398.74	1296.66
398.93	1348.15
399.12	1284.95
399.32	1404.32
399.51	1394.96
399.70	1299.00
399.90	1277.93
400.09	1427.73
400.28	1392.62
400.47	1413.68
400.67	1446.45
400.86	1338.79
401.05	1467.52
401.24	1467.52
401.44	1392.62
401.63	1444.11
401.82	1479.22
402.01	1331.76
402.21	1502.62
402.40	1507.30
402.59	1542.41
402.78	1537.73
402.97	1500.28
403.17	1535.39
403.36	1582.20
403.55	1530.71
403.74	1629.01
403.93	1624.33
404.13	1617.31
404.32	1596.25
404.51	1659.44
404.70	1633.69
404.89	1497.94
405.09	1755.40
405.28	1781.15
405.47	1678.16
405.66	1750.72
405.85	1706.25
406.05	1664.12
406.24	1727.32
406.43	1802.21
406.62	1797.53
406.81	1771.79
407.00	1769.44
407.20	1776.47
407.39	1884.13
407.58	1830.30
407.77	1804.55
407.96	1916.90
408.15	1909.88
408.34	1886.47
408.54	1870.09
408.73	1888.81
408.92	1956.69
409.11	1935.62
409.30	1987.11
409.49	2036.27
409.68	1966.05
409.87	1970.73
410.07	2043.29
410.26	2047.97
410.45	2085.42
410.64	2097.12
410.83	2139.25
411.02	2141.59
411.21	2216.49
411.40	2200.10
411.59	2207.13
411.78	2270.32
411.98	2221.17
412.17	2277.34
412.36	2244.57
412.55	2272.66
412.74	2373.30
412.93	2382.67
413.12	2251.60
413.31	2469.27
413.50	2270.32
413.69	2366.28
413.88	2586.29
414.07	2495.01
414.26	2469.27
414.45	2457.56
414.64	2420.11
414.83	2628.42
415.02	2586.29
415.22	2644.81
415.41	2724.38
415.60	2612.04
415.79	2605.02
415.98	2799.28
416.17	2712.68
416.36	2785.24
416.55	2752.47
416.74	2867.16
416.93	2925.67
417.12	2850.77
417.31	2881.20
417.50	2827.37
417.69	2995.89
417.88	3047.38
418.07	2916.31
418.26	2897.58
418.45	3063.76
418.64	3063.76
418.83	3155.04
419.02	3084.83
419.21	3218.24
419.39	3028.65
419.58	3091.85
419.77	3112.91
419.96	3192.49
420.15	3281.43
420.34	3070.78
420.53	3215.90
420.72	3297.81
420.91	3286.11
421.10	3337.60
421.29	3339.94
421.48	3351.65
421.67	3330.58
421.86	3171.43
422.05	3368.03
422.24	3379.73
422.43	3492.08
422.61	3281.43
422.80	3363.35
422.99	3524.85
423.18	3382.07
423.37	3531.87
423.56	3417.18
423.75	3520.17
423.94	3386.76
424.13	3157.38
424.32	3337.60
424.50	3471.01
424.69	3559.95
424.88	3602.08
425.07	3393.78
425.26	3337.60
425.45	3492.08
425.64	3428.88
425.83	3353.99
426.01	3606.77
426.20	3667.62
426.39	3517.83
426.58	3440.59
426.77	3487.40
426.96	3653.58
427.15	3421.86
427.33	3627.83
427.52	3524.85
427.71	3524.85
427.90	3620.81
428.09	3609.11
428.28	3721.45
428.46	3688.68
428.65	3581.02
428.84	3826.78
429.03	3857.20
429.22	3782.31
429.40	3679.32
429.59	3749.54
429.78	3606.77
429.97	3674.64
430.16	3831.46
430.34	3700.39
430.53	3936.78
430.72	3913.38
430.91	3981.25
431.10	3838.48
431.28	4102.96
431.47	3964.87
431.66	4065.51
431.85	3969.55
432.03	4023.38
432.22	4067.85
432.41	4145.09
432.60	4060.83
432.79	4124.02
432.97	4154.45
433.16	4140.41
433.35	4072.53
433.54	4161.47
433.72	4329.99
433.91	4248.07
434.10	4205.94
434.28	4147.43
434.47	4292.54
434.66	4259.78
434.85	4285.52
435.03	4440.00
435.22	4353.40
435.41	4411.91
435.59	4454.04
435.78	4367.44
435.97	4423.61
436.16	4423.61
436.34	4423.61
436.53	4507.87
436.72	4535.96
436.90	4498.51
437.09	4535.96
437.28	4489.15
437.46	4540.64
437.65	4538.30
437.84	4706.82
438.02	4690.43
438.21	4624.90
438.40	4615.54
438.58	4835.55
438.77	4943.21
438.96	4669.37
439.14	4833.21
439.33	4877.68
439.52	4994.70
439.70	5160.88
439.89	5034.49
440.08	5060.24
440.26	5001.72
440.45	4959.60
440.63	5203.01
440.82	5240.46
441.01	5200.67
441.19	5203.01
441.38	5430.04
441.57	5408.98
441.75	5327.06
441.94	5511.96
442.12	5373.87
442.31	5549.41
442.50	5521.32
442.68	5420.68
442.87	5528.35
443.05	5614.95
443.24	5490.90
443.43	5619.63
443.61	5570.48
443.80	5832.62
443.98	5387.91
444.17	5490.90
444.35	5556.43
444.54	5788.14
444.73	5713.25
444.91	5577.50
445.10	5626.65
445.28	5537.71
445.47	5621.97
445.65	5757.72
445.84	5750.70
446.02	5748.36
446.21	5757.72
446.39	5783.46
446.58	5823.25
446.77	5778.78
446.95	5589.20
447.14	5753.04
447.32	5823.25
447.51	5860.70
447.69	5717.93
447.88	5874.74
448.06	5966.03
448.25	5877.09
448.43	5846.66
448.62	5898.15
448.80	5797.51
448.99	5717.93
449.17	5837.30
449.36	5837.30
449.54	5994.11
449.73	5959.00
449.91	6237.53
450.10	6097.10
450.28	6274.98
450.46	6167.31
450.65	6321.79
450.83	6303.06
451.02	6174.33
451.20	6321.79
451.39	6321.79
451.57	6188.38
451.76	6132.20
451.94	6296.04
452.13	6370.94
452.31	6415.41
452.49	6335.83
452.68	6441.15
452.86	6366.26
453.05	6527.75
453.23	6492.65
453.42	6326.47
453.60	6291.36
453.78	6590.95
453.97	6511.37
454.15	6504.35
454.34	6438.81
454.52	6593.29
454.70	6642.44
454.89	6670.53
455.07	6527.75
455.26	6806.28
455.44	6761.81
455.62	6635.42
455.81	6745.42
455.99	6775.85
456.17	6869.47
456.36	6906.92
456.54	6906.92
456.73	6885.86
456.91	7115.23
457.09	7101.19
457.28	7117.57
457.46	6974.80
457.64	7061.40
457.83	7258.00
458.01	7075.44
458.19	7295.45
458.38	7112.89
458.56	7250.98
458.74	7288.43
458.93	7080.12
459.11	7346.94
459.29	7201.83
459.48	7459.29
459.66	7377.37
459.84	7396.09
460.03	7454.61
460.21	7597.38
460.39	7468.65
460.57	7393.75
460.76	7433.54
460.94	7494.40
461.12	7723.77
461.31	7466.31
461.49	7529.50
461.67	7597.38
461.85	7779.94
462.04	7597.38
462.22	8133.36
462.40	7915.69
462.59	7866.54
462.77	7740.15
462.95	7861.86
463.13	8016.33
463.32	7810.37
463.50	8051.44
463.68	7761.22
463.86	7817.39
464.05	7754.19
464.23	7985.91
464.41	8058.46
464.59	7878.24
464.78	8173.15
464.96	8009.31
465.14	8023.36
465.32	8166.13
465.50	8409.54
465.69	8301.88
465.87	8049.10
466.05	8053.78
466.23	8229.32
466.41	8273.79
466.60	8514.87
466.78	8332.31
466.96	8138.04
467.14	8131.02
467.32	8271.45
467.51	8468.06
467.69	8229.32
467.87	8451.67
468.05	8308.90
468.23	8498.49
468.41	8435.29
468.60	8517.21
468.78	8582.74
468.96	8308.90
469.14	8582.74
469.32	8779.35
469.50	8449.33
469.69	8699.77
469.87	8779.35
470.05	8601.47
470.23	8905.74
470.41	8753.60
470.59	8990.00
470.77	8997.02
470.95	9050.85
471.14	9109.36
471.32	8910.42
471.50	8968.93
471.68	8943.19
471.86	9287.25
472.04	9004.04
472.22	9404.27
472.40	9259.16
472.58	9336.40
472.77	9256.82
472.95	9415.98
473.13	9612.58
473.31	9233.41
473.49	9486.19
473.67	9303.63
473.85	9643.01
474.03	9905.15
474.21	9877.06
474.39	9888.76
474.57	9783.44
474.75	9699.18
474.93	9949.62
475.12	9844.29
475.30	10139.20
475.48	10193.03
475.66	10129.84
475.84	9994.09
476.02	10324.10
476.20	10415.38
476.38	10480.92
476.56	10731.36
476.74	10445.81
476.92	10530.07
477.10	10656.46
477.28	10775.83
477.46	10778.17
477.64	10729.02
477.82	11084.78
478.00	11180.74
478.18	11075.42
478.36	11293.08
478.54	11346.92
478.72	11609.06
478.90	11517.78
479.08	11655.87
479.26	11903.96
479.44	11564.59
479.62	11761.19
479.80	11822.05
479.98	12091.21
480.16	12322.92
480.34	12180.15
480.52	12236.32
480.70	12524.21
480.88	12217.60
481.06	12556.97
481.24	12306.54
481.41	12697.41
481.59	12718.47
481.77	12830.82
481.95	13128.06
482.13	13221.69
482.31	13090.62
482.49	13584.47
482.67	13298.92
482.85	13575.11
483.03	13652.34
483.21	14008.11
483.39	13661.71
483.57	13795.12
483.74	14239.82
483.92	14026.83
484.10	14122.79
484.28	14431.74
484.46	14501.96
484.64	14602.60
484.82	14705.59
485.00	14707.93
485.18	15073.05
485.35	15304.76
485.53	15150.29
485.71	15201.78
485.89	15484.98
486.07	15763.51
486.25	15552.86
486.43	15707.34
486.61	15836.06
486.78	15660.52
486.96	16051.39
487.14	16126.29
487.32	16278.43
487.50	16264.38
487.68	16388.43
487.85	16702.06
488.03	16893.99
488.21	17008.67
488.39	16919.73
488.57	17224.00
488.75	17331.67
488.92	17479.12
489.10	18017.44
489.28	17692.11
489.46	17752.96
489.64	18022.12
489.81	18207.03
489.99	18787.48
490.17	18265.54
490.35	18815.57
490.53	18644.71
490.70	18799.18
490.88	18841.31
491.06	18899.83
491.24	19262.61
491.41	19475.60
491.59	19407.72
491.77	19232.18
491.95	19433.47
492.13	19587.94
492.30	19866.47
492.48	19866.47
492.66	19854.76
492.84	20051.37
493.01	20514.80
493.19	20219.89
493.37	20217.55
493.54	20650.55
493.72	20987.58
493.90	20615.44
494.08	20730.12
494.25	21001.63
494.43	21205.25
494.61	21205.25
494.79	21451.01
494.96	21481.44
495.14	21490.80
495.32	22153.17
495.49	21823.16
495.67	21722.51
495.85	22150.83
496.02	22134.45
496.20	22214.02
496.38	22476.16
496.55	22635.32
496.73	22932.57
496.91	22810.86
497.09	22803.84
497.26	23208.75
497.44	23173.64
497.62	23494.30
497.79	23798.57
497.97	23496.64
498.14	23449.83
498.32	23943.68
498.50	24203.48
498.67	24357.96
498.85	23978.79
499.03	24318.17
499.20	24254.97
499.38	24023.26
499.56	24273.70
499.73	24931.39
499.91	24840.11
500.08	24751.17
500.26	24907.98
500.44	24940.75
500.61	24877.55
500.79	24676.27
500.97	25156.08
501.14	25467.37
501.32	25624.18
501.49	25266.08
501.67	25575.03
501.84	25591.42
502.02	25818.45
502.20	25839.51
502.37	25961.22
502.55	25846.54
502.72	25916.75
502.90	26298.26
503.07	26057.18
503.25	26354.43
503.43	26157.83
503.60	26911.48
503.78	26553.38
503.95	26616.57
504.13	26731.26
504.30	26939.57
504.48	26747.64
504.65	26834.24
504.83	27395.97
505.01	27388.95
505.18	26974.67
505.36	27637.05
505.53	27288.31
505.71	27564.49
505.88	27573.85
506.06	27927.27
506.23	27791.52
506.41	28203.46
506.58	27796.20
506.76	28107.49
506.93	28112.17
507.11	28226.86
507.28	28332.18
507.46	28636.45
507.63	28788.59
507.81	28940.72
507.98	28615.39
508.16	28510.07
508.33	28847.10
508.50	29017.96
508.68	28713.69
508.85	29032.00
509.03	28671.56
509.20	29324.57
509.38	29476.71
509.55	29816.08
509.73	29551.60
509.90	29490.75
510.08	29713.10
510.25	29734.17
510.42	29872.26
510.60	29986.94
510.77	30190.57
510.95	30375.47
511.12	30178.87
511.30	30253.76
511.47	30597.82
511.64	30387.18
511.82	30824.86
511.99	30764.00
512.17	31061.25
512.34	30546.33
512.51	30843.58
512.69	31084.65
512.86	30714.85
513.04	31414.67
513.21	31005.08
513.38	31438.08
513.56	31360.84
513.73	31618.30
513.90	31461.48
514.08	31646.38
514.25	31873.42
514.43	31894.48
514.60	31819.58
514.77	31934.27
514.95	32465.57
515.12	31882.78
515.29	32112.15
515.47	32304.07
515.64	32236.20
515.81	32137.90
515.99	32329.82
516.16	32748.78
516.33	32411.74
516.51	32648.13
516.68	32458.55
516.85	32549.83
517.03	32793.25
517.20	33228.59
517.37	32854.10
517.54	33172.41
517.72	32975.81
517.89	33565.62
518.06	33141.99
518.24	33195.82
518.41	33270.72
518.58	33221.56
518.75	33223.90
518.93	33605.41
519.10	33780.95
519.27	34078.20
519.45	33504.77
519.62	33989.26
519.79	34459.71
519.96	33890.96
520.14	34328.64
520.31	33687.33
520.48	34359.06
520.65	34284.17
520.83	34401.19
521.00	34511.20
521.17	34576.73
521.34	34506.52
521.52	34487.79
521.69	34988.67
521.86	34925.47
522.03	35119.74
522.20	35468.48
522.38	35379.54
522.55	35421.67
522.72	34733.55
522.89	35440.39
523.07	35548.06
523.24	35594.87
523.41	35438.05
523.58	35576.14
523.75	35669.76
523.92	35454.44
524.10	35983.40
524.27	35765.73
524.44	35761.05
524.61	36027.87
524.78	36261.92
524.96	36346.18
525.13	36416.40
525.30	36290.01
525.47	36404.69
525.64	36556.83
525.81	36545.12
525.98	36013.82
526.16	36744.07
526.33	36622.36
526.50	36912.59
526.67	36821.31
526.84	36753.43
527.01	36919.61
527.18	37233.24
527.36	37123.24
527.53	37151.32
527.70	37530.49
527.87	37572.62
528.04	37486.02
528.21	37340.91
528.38	37387.72
528.55	37631.13
528.72	37694.33
528.89	37441.55
529.07	37642.84
529.24	37244.94
529.41	37633.47
529.58	37708.37
529.75	37703.69
529.92	37684.97
530.09	37628.79
530.26	38150.73
530.43	38012.64
530.60	37652.20
530.77	38124.99
530.94	38136.69
531.11	37851.14
531.28	38450.32
531.46	38230.31
531.63	38536.92
531.80	38377.76
531.97	38684.37
532.14	38677.35
532.31	38866.94
532.48	38813.10
532.65	38883.32
532.82	38665.65
532.99	38651.61
533.16	38775.66
533.33	38857.57
533.50	39512.92
533.67	39267.17
533.84	39328.02
534.01	39030.77
534.18	39372.49
534.35	39461.43
534.52	39583.14
534.69	39667.40
534.86	39662.72
535.03	39875.71
535.20	39318.66
535.37	39730.59
535.54	39393.56
535.71	39608.89
535.88	39903.79
536.05	40287.64
536.22	39950.60
536.38	40252.53
536.55	39903.79
536.72	40102.74
536.89	40048.91
537.06	40039.54
537.23	40395.31
537.40	40315.73
537.57	39896.77
537.74	40039.54
537.91	40175.30
538.08	40519.35
538.25	40060.61
538.42	40517.01
538.59	40961.72
538.75	40545.10
538.92	41067.04
539.09	40538.08
539.26	41031.93
539.43	40608.29
539.60	40701.92
539.77	40854.05
539.94	41303.43
540.11	41109.17
540.28	41053.00
540.44	41095.13
540.61	41081.08
540.78	40992.14
540.95	41212.15
541.12	41282.37
541.29	41289.39
541.46	41413.44
541.62	41558.55
541.79	41593.66
541.96	41020.23
542.13	41233.22
542.30	41497.70
542.47	41794.95
542.63	41832.39
542.80	41862.82
542.97	42188.16
543.14	42113.26
543.31	42274.76
543.48	41853.46
543.64	42480.72
543.81	42412.85
543.98	42628.18
544.15	41867.50
544.32	42286.46
544.48	42990.96
544.65	42216.24
544.82	42782.65
544.99	42351.99
545.16	42672.65
545.32	42665.63
545.49	43016.71
545.66	43482.47
545.83	42916.06
546.00	43091.60
546.16	42986.28
546.33	42787.33
546.50	42780.31
546.67	43089.26
546.83	42843.51
547.00	42855.21
547.17	42586.05
547.34	43131.39
547.50	43096.28
547.67	43381.83
547.84	43505.88
548.00	43522.26
548.17	43695.46
548.34	43739.93
548.51	43922.49
548.67	43786.74
548.84	43597.16
549.01	43182.88
549.18	43662.69
549.34	43552.69
549.51	43845.26
549.68	44203.36
549.84	43695.46
550.01	43955.26
550.18	43632.27
550.34	43744.61
550.51	43681.42
550.68	44210.38
550.84	43966.96
551.01	44046.54
551.18	44664.44
551.34	44245.49
551.51	44610.61
551.68	44034.84
551.84	44034.84
552.01	43882.70
552.18	44313.36
552.34	44495.92
552.51	44514.65
552.68	43973.98
552.84	44196.34
553.01	44250.17
553.18	44493.58
553.34	44430.39
553.51	44458.48
553.67	44809.56
553.84	44987.44
554.01	44634.02
554.17	44559.12
554.34	44692.53
554.51	44629.34
554.67	45034.25
554.84	44891.48
555.00	44786.15
555.17	44912.54
555.33	44758.06
555.50	44432.73
555.67	45034.25
555.83	45193.40
556.00	45368.94
556.16	45265.96
556.33	45315.11
556.50	45565.55
556.66	45095.10
556.83	44872.75
556.99	45581.93
557.16	45413.41
557.32	45584.27
557.49	45757.47
557.65	45422.78
557.82	45041.27
557.98	45352.56
558.15	45406.39
558.32	45476.61
558.48	45687.26
558.65	45165.32
558.81	45518.74
558.98	45404.05
559.14	45331.50
559.31	45771.52
559.47	45404.05
559.64	45895.56
559.80	45432.14
559.97	46335.59
560.13	45090.42
560.30	45720.02
560.46	45963.44
560.63	45916.63
560.79	45668.53
560.96	45886.20
561.12	46043.02
561.29	46082.81
561.45	46443.25
561.61	45907.27
561.78	46019.61
561.94	45961.10
562.11	45832.37
562.27	46309.84
562.44	46286.43
562.60	46007.91
562.77	46202.18
562.93	45918.97
563.10	46602.41
563.26	46059.40
563.42	46754.54
563.59	46096.85
563.75	45851.09
563.92	46508.79
564.08	46239.62
564.24	46593.04
564.41	46424.53
564.57	46724.11
564.74	46213.88
564.90	46447.93
565.07	46211.54
565.23	46625.81
565.39	46258.35
565.56	46321.54
565.72	46274.73
565.88	46417.50
566.05	46436.23
566.21	46363.67
566.38	46433.89
566.54	46604.75
566.70	46604.75
566.87	46562.62
567.03	46438.57
567.19	46452.61
567.36	46071.10
567.52	46864.55
567.68	46728.80
567.85	46651.56
568.01	46951.15
568.17	46670.28
568.34	46703.05
568.50	46754.54
568.66	46440.91
568.83	46681.98
568.99	46916.04
569.15	46733.48
569.32	46784.97
569.48	46639.86
569.64	47728.20
569.81	46703.05
569.97	47271.80
570.13	47309.25
570.30	46607.09
570.46	47063.49
570.62	46944.12
570.78	47091.58
570.95	46799.01
571.11	47398.19
571.27	46705.39
571.43	46611.77
571.60	46944.12
571.76	46705.39
571.92	46958.17
572.09	46588.36
572.25	46679.64
572.41	46841.14
572.57	47040.09
572.74	47042.43
572.90	46749.86
573.06	46988.60
573.22	46990.94
573.38	47178.18
573.55	47395.85
573.71	47519.90
573.87	47126.69
574.03	47182.86
574.20	47449.68
574.36	47257.76
574.52	47388.83
574.68	47381.80
574.84	47274.14
575.01	47402.87
575.17	47093.92
575.33	47498.83
575.49	47306.91
575.65	47643.94
575.82	47587.77
575.98	46951.15
576.14	47594.79
576.30	47510.53
576.46	47746.93
576.62	47168.82
576.79	47239.03
576.95	46803.69
577.11	47222.65
577.27	47234.35
577.43	47540.96
577.59	47302.23
577.75	47063.49
577.92	46791.99
578.08	47463.72
578.24	47576.07
578.40	47613.52
578.56	47587.77
578.72	47515.22
578.88	47475.43
579.04	47505.85
579.21	47657.99
579.37	47178.18
579.53	47767.99
579.69	46948.81
579.85	47236.69
580.01	47342.02
580.17	47255.42
580.33	47966.94
580.49	47782.04
580.65	47423.93
580.82	47117.32
580.98	47501.17
581.14	46869.23
581.30	47732.89
581.46	47583.09
581.62	47606.50
581.78	46902.00
581.94	47393.51
582.10	47440.32
582.26	47732.89
582.42	47817.14
582.58	47707.14
582.74	47775.02
582.90	47824.17
583.06	47779.70
583.22	47615.86
583.38	47868.64
583.54	47667.35
583.70	47576.07
583.86	47618.20
584.02	47601.82
584.18	47821.83
584.34	47845.23
584.50	48093.33
584.66	47688.42
584.82	47564.37
584.98	48112.05
585.14	47531.60
585.30	47569.05
585.46	47803.10
585.62	47700.12
585.78	47950.56
585.94	47632.24
586.10	47807.78
586.26	47402.87
586.42	47395.85
586.58	47531.60
586.74	47316.27
586.90	47620.54
587.06	47384.15
587.22	47704.80
587.38	47405.21
587.54	47880.34
587.70	47901.40
587.86	47739.91
588.02	47217.97
588.18	47515.22
588.34	48154.18
588.49	47906.08
588.65	47660.33
588.81	47845.23
588.97	47608.84
589.13	48016.09
589.29	47746.93
589.45	48100.35
589.61	48058.22
589.77	48055.88
589.93	48200.99
590.08	48065.24
