SpectraSuite Data File
++++++++++++++++++++++++++++++++++++
Date: Fri Oct 25 11:23:28 EDT 2013
User: price-jones
Dark Spectrum Present: No
Reference Spectrum Present: No
Number of Sampled Component Spectra: 1
Spectrometers: USB2+H05261
Integration Time (usec): 100000 (USB2+H05261)
Spectra Averaged: 1 (USB2+H05261)
Boxcar Smoothing: 0 (USB2+H05261)
Correct for Electrical Dark: No (USB2+H05261)
Strobe/Lamp Enabled: No (USB2+H05261)
Correct for Detector Non-linearity: No (USB2+H05261)
Correct for Stray Light: No (USB2+H05261)
Number of Pixels in Processed Spectrum: 2048
>>>>>Begin Processed Spectral Data<<<<<
365.73	248.10
365.92	248.10
366.12	248.10
366.32	161.50
366.52	133.41
366.72	98.30
366.91	149.79
367.11	142.77
367.31	138.09
367.51	98.30
367.70	102.98
367.90	84.26
368.10	81.92
368.30	98.30
368.49	102.98
368.69	133.41
368.89	154.48
369.09	224.69
369.28	147.45
369.48	138.09
369.68	227.03
369.87	170.86
370.07	128.73
370.27	212.99
370.47	341.72
370.66	578.11
370.86	596.84
371.06	685.78
371.25	620.24
371.45	685.78
371.65	641.31
371.84	566.41
372.04	664.71
372.24	751.31
372.44	606.20
372.63	777.06
372.83	718.54
373.03	671.73
373.22	688.12
373.42	697.48
373.62	826.21
373.81	809.83
374.01	830.89
374.21	844.93
374.40	798.12
374.60	833.23
374.79	741.95
374.99	763.01
375.19	837.91
375.38	861.32
375.58	795.78
375.78	802.80
375.97	856.64
376.17	861.32
376.37	821.53
376.56	875.36
376.76	793.44
376.95	833.23
377.15	931.53
377.35	933.87
377.54	894.08
377.74	891.74
377.93	973.66
378.13	877.70
378.33	870.68
378.52	964.30
378.72	926.85
378.91	924.51
379.11	917.49
379.31	898.77
379.50	929.19
379.70	915.15
379.89	924.51
380.09	954.94
380.28	1027.50
380.48	978.34
380.68	898.77
380.87	987.71
381.07	1029.84
381.26	1013.45
381.46	1022.81
381.65	992.39
381.85	1041.54
382.04	1053.24
382.24	1027.50
382.43	1078.99
382.63	1022.81
382.83	1034.52
383.02	983.02
383.22	1083.67
383.41	1100.05
383.61	1069.62
383.80	1104.73
384.00	1069.62
384.19	1149.20
384.39	1083.67
384.58	1132.82
384.78	1146.86
384.97	1151.54
385.17	1158.57
385.36	1184.31
385.56	1095.37
385.75	1149.20
385.95	1200.69
386.14	1205.38
386.34	1188.99
386.53	1174.95
386.72	1146.86
386.92	1221.76
387.11	1256.87
387.31	1308.36
387.50	1275.59
387.70	1233.46
387.89	1252.19
388.09	1294.32
388.28	1196.01
388.48	1348.15
388.67	1261.55
388.86	1322.40
389.06	1299.00
389.25	1263.89
389.45	1224.10
389.64	1409.00
389.84	1392.62
390.03	1324.74
390.22	1334.11
390.42	1266.23
390.61	1306.02
390.81	1434.75
391.00	1437.09
391.19	1502.62
391.39	1448.79
391.58	1479.22
391.78	1383.26
391.97	1441.77
392.16	1385.60
392.36	1467.52
392.55	1584.54
392.75	1511.99
392.94	1497.94
393.13	1547.09
393.33	1526.03
393.52	1570.50
393.71	1673.48
393.91	1549.43
394.10	1561.14
394.29	1610.29
394.49	1465.18
394.68	1596.25
394.88	1577.52
395.07	1624.33
395.26	1650.08
395.46	1659.44
395.65	1640.72
395.84	1568.16
396.04	1746.04
396.23	1781.15
396.42	1722.63
396.62	1757.74
396.81	1830.30
397.00	1912.22
397.19	1694.55
397.39	1790.51
397.58	1757.74
397.77	1813.92
397.97	1790.51
398.16	1867.75
398.35	1970.73
398.55	1865.41
398.74	1919.24
398.93	2050.31
399.12	1963.71
399.32	1858.39
399.51	1858.39
399.70	1947.33
399.90	1977.75
400.09	2026.90
400.28	1975.41
400.47	1961.37
400.67	2064.35
400.86	1963.71
401.05	2162.66
401.24	2122.87
401.44	2073.71
401.63	2195.42
401.82	2026.90
402.01	2052.65
402.21	2218.83
402.40	2094.78
402.59	2129.89
402.78	2246.91
402.97	2176.70
403.17	2186.06
403.36	2155.63
403.55	2321.81
403.74	2347.56
403.93	2382.67
404.13	2413.09
404.32	2335.85
404.51	2363.94
404.70	2520.76
404.89	2347.56
405.09	2509.05
405.28	2417.77
405.47	2424.80
405.66	2593.31
405.85	2602.68
406.05	2560.55
406.24	2567.57
406.43	2588.63
406.62	2696.30
406.81	2686.94
407.00	2612.04
407.20	2520.76
407.39	2633.10
407.58	2686.94
407.77	2715.02
407.96	2759.49
408.15	2778.22
408.34	2722.04
408.54	2773.53
408.73	2764.17
408.92	2792.26
409.11	2876.52
409.30	2904.60
409.49	2902.26
409.68	2871.84
409.87	2829.71
410.07	2974.82
410.26	3084.83
410.45	3030.99
410.64	2939.71
410.83	3045.04
411.02	3131.64
411.21	3197.17
411.40	3129.30
411.59	3197.17
411.78	3171.43
411.98	3248.66
412.17	3297.81
412.36	3248.66
412.55	3316.54
412.74	3463.99
412.93	3234.62
413.12	3262.71
413.31	3590.38
413.50	3487.40
413.69	3349.31
413.88	3566.98
414.07	3576.34
414.26	3648.90
414.45	3655.92
414.64	3798.69
414.83	3782.31
415.02	3672.30
415.22	3770.60
415.41	3728.47
415.60	3838.48
415.79	3962.53
415.98	3992.95
416.17	3992.95
416.36	3939.12
416.55	4067.85
416.74	4126.36
416.93	3936.78
417.12	3978.91
417.31	4107.64
417.50	4292.54
417.69	4234.03
417.88	4334.67
418.07	4191.90
418.26	4217.65
418.45	4400.21
418.64	4540.64
418.83	4484.47
419.02	4442.34
419.21	4671.71
419.39	4498.51
419.58	4557.02
419.77	4547.66
419.96	4718.52
420.15	4585.11
420.34	4505.53
420.53	4610.86
420.72	4559.36
420.91	4748.95
421.10	4894.06
421.29	4849.59
421.48	4828.53
421.67	4770.01
421.86	4641.28
422.05	4835.55
422.24	4901.08
422.43	4840.23
422.61	4863.63
422.80	5032.15
422.99	4807.46
423.18	4919.81
423.37	5107.05
423.56	5004.07
423.75	4837.89
423.94	4753.63
424.13	4585.11
424.32	4816.82
424.50	4971.30
424.69	4997.04
424.88	5172.58
425.07	4940.87
425.26	4926.83
425.45	4978.32
425.64	4908.10
425.83	4947.89
426.01	4983.00
426.20	4983.00
426.39	4992.36
426.58	5071.94
426.77	5076.62
426.96	5252.16
427.15	5111.73
427.33	5212.37
427.52	5184.29
427.71	5289.61
427.90	5233.44
428.09	5495.58
428.28	5254.50
428.46	5383.23
428.65	5357.49
428.84	5439.40
429.03	5558.77
429.22	5465.15
429.40	5596.22
429.59	5589.20
429.78	5401.96
429.97	5296.63
430.16	5432.38
430.34	5556.43
430.53	5645.37
430.72	5533.03
430.91	5671.12
431.10	5600.90
431.28	5839.64
431.47	5713.25
431.66	5895.81
431.85	5610.26
432.03	5977.73
432.22	6111.14
432.41	5762.40
432.60	5788.14
432.79	5935.60
432.97	5984.75
433.16	6204.76
433.35	6120.50
433.54	5851.34
433.72	6019.86
433.91	6115.82
434.10	6118.16
434.28	6108.80
434.47	6244.55
434.66	6214.12
434.85	6387.32
435.03	6366.26
435.22	6197.74
435.41	6424.77
435.59	6441.15
435.78	6548.82
435.97	6604.99
436.16	6483.28
436.34	6394.34
436.53	6548.82
436.72	6569.88
436.90	6466.90
437.09	6658.82
437.28	6590.95
437.46	6406.05
437.65	6670.53
437.84	6825.00
438.02	6825.00
438.21	6803.94
438.40	6518.39
438.58	6988.84
438.77	7140.97
438.96	6881.18
439.14	7190.13
439.33	7103.53
439.52	7068.42
439.70	7229.91
439.89	7349.28
440.08	7407.80
440.26	7435.88
440.45	7346.94
440.63	7452.27
440.82	7784.62
441.01	7524.82
441.19	7768.24
441.38	7653.55
441.57	7744.83
441.75	7812.71
441.94	7894.63
442.12	7999.95
442.31	7992.93
442.50	8025.70
442.68	7892.29
442.87	7932.08
443.05	8058.46
443.24	8280.82
443.43	8194.22
443.61	8255.07
443.80	8688.07
443.98	8222.30
444.17	7859.52
444.35	8168.47
444.54	8517.21
444.73	8407.20
444.91	8226.98
445.10	8454.02
445.28	8374.44
445.47	8166.13
445.65	8262.09
445.84	8557.00
446.02	8503.17
446.21	8409.54
446.39	8336.99
446.58	8706.79
446.77	8369.76
446.95	8236.35
447.14	8472.74
447.32	8753.60
447.51	8524.23
447.69	8549.98
447.88	8599.13
448.06	8458.70
448.25	8697.43
448.43	8629.56
448.62	8573.38
448.80	8351.03
448.99	8559.34
449.17	8769.99
449.36	8557.00
449.54	8816.80
449.73	8905.74
449.91	9149.15
450.10	8919.78
450.28	9085.96
450.46	9088.30
450.65	9095.32
450.83	9181.92
451.02	9224.05
451.20	9174.90
451.39	9348.10
451.57	9217.03
451.76	8865.95
451.94	9364.48
452.13	9385.55
452.31	9275.54
452.49	9341.08
452.68	9261.50
452.86	9308.31
453.05	9650.03
453.23	9488.53
453.42	9341.08
453.60	9348.10
453.78	9628.96
453.97	9507.26
454.15	9493.21
454.34	9554.07
454.52	9734.29
454.70	9720.24
454.89	9708.54
455.07	9886.42
455.26	9825.57
455.44	10043.24
455.62	10083.03
455.81	9848.97
455.99	10087.71
456.17	9994.09
456.36	9933.23
456.54	10338.15
456.73	10328.78
456.91	10548.79
457.09	10413.04
457.28	10466.88
457.46	10363.89
457.64	10750.08
457.83	10436.45
458.01	10642.42
458.19	10839.02
458.38	10555.82
458.56	10878.81
458.74	10675.18
458.93	10651.78
459.11	10885.83
459.29	10768.80
459.48	10860.09
459.66	10729.02
459.84	11014.56
460.03	11005.20
460.21	11012.22
460.39	10953.71
460.57	10963.07
460.76	10881.15
460.94	11201.80
461.12	11295.43
461.31	11260.32
461.49	11140.95
461.67	11351.60
461.85	11304.79
462.04	11325.85
462.22	11566.93
462.40	11646.51
462.59	11545.86
462.77	11618.42
462.95	11613.74
463.13	11597.35
463.32	11623.10
463.50	11918.01
463.68	11681.61
463.86	11833.75
464.05	11524.80
464.23	11686.29
464.41	11964.82
464.59	11744.81
464.78	12287.81
464.96	11922.69
465.14	11625.44
465.32	11948.43
465.50	11915.67
465.69	12009.29
465.87	12189.51
466.05	12037.38
466.23	12315.90
466.41	12292.49
466.60	12437.61
466.78	12049.08
466.96	12180.15
467.14	12388.46
467.32	12475.06
467.51	12566.34
467.69	12346.33
467.87	12390.80
468.05	12472.71
468.23	12517.18
468.41	12692.73
468.60	12800.39
468.78	12781.67
468.96	12533.57
469.14	13053.17
469.32	13249.77
469.50	12463.35
469.69	13170.19
469.87	13018.06
470.05	12971.25
470.23	13128.06
470.41	13247.43
470.59	13277.86
470.77	13055.51
470.95	13336.37
471.14	13392.55
471.32	13317.65
471.50	13745.97
471.68	13528.30
471.86	13579.79
472.04	13582.13
472.22	14054.92
472.40	13605.53
472.58	13542.34
472.77	14153.22
472.95	14043.21
473.13	14668.14
473.31	14010.45
473.49	14204.71
473.67	14267.91
473.85	14464.51
474.03	14731.33
474.21	14370.89
474.39	14803.89
474.57	14717.29
474.75	15101.14
474.93	15047.30
475.12	14794.53
475.30	14998.15
475.48	15075.39
475.66	15346.89
475.84	15185.40
476.02	15178.37
476.20	15468.60
476.38	15410.09
476.56	16009.26
476.74	15812.66
476.92	16006.92
477.10	15688.61
477.28	16168.42
477.46	16355.66
477.64	16477.37
477.82	16559.29
478.00	17013.35
478.18	16673.98
478.36	17202.94
478.54	17001.65
478.72	17172.51
478.90	17326.99
479.08	17270.81
479.26	18001.06
479.44	17549.34
479.62	17720.20
479.80	18111.07
479.98	18347.46
480.16	18480.87
480.34	18272.56
480.52	18827.27
480.70	18527.68
480.88	18277.24
481.06	18677.48
481.24	18822.59
481.41	18920.89
481.59	19365.59
481.77	19435.81
481.95	19777.53
482.13	19873.49
482.31	19438.15
482.49	20236.27
482.67	20252.66
482.85	20512.46
483.03	20479.69
483.21	20627.14
483.39	21067.16
483.57	21027.37
483.74	21280.15
483.92	21575.06
484.10	21350.37
484.28	21876.99
484.46	21968.27
484.64	22590.85
484.82	22099.34
485.00	22469.14
485.18	22822.56
485.35	23002.78
485.53	22750.01
485.71	23438.12
485.89	23398.34
486.07	23346.84
486.25	23452.17
486.43	23580.90
486.61	23910.91
486.78	24196.46
486.96	24264.33
487.14	24453.92
487.32	24673.93
487.50	24819.04
487.68	25191.19
487.85	25261.40
488.03	25823.13
488.21	25635.89
488.39	25844.20
488.57	26218.68
488.75	26445.71
488.92	26436.35
489.10	26930.20
489.28	27241.50
489.46	27094.04
489.64	27274.26
489.81	28156.64
489.99	27620.66
490.17	27644.07
490.35	28336.87
490.53	28247.93
490.70	28100.47
490.88	28163.67
491.06	28779.23
491.24	28865.83
491.41	29104.56
491.59	29350.32
491.77	29209.89
491.95	29872.26
492.13	29785.66
492.30	30103.97
492.48	30356.75
492.66	30237.38
492.84	30572.08
493.01	30698.47
493.19	30789.75
493.37	31136.15
493.54	30986.35
493.72	31859.37
493.90	31653.40
494.08	31770.43
494.25	32013.85
494.43	32252.58
494.61	32566.21
494.79	32629.41
494.96	32390.67
495.14	32507.70
495.32	33146.67
495.49	32980.49
495.67	33474.34
495.85	33530.51
496.02	33907.34
496.20	33717.76
496.38	34003.30
496.55	34132.03
496.73	34824.83
496.91	34927.81
497.09	34649.29
497.26	34955.90
497.44	35204.00
497.62	34913.77
497.79	35826.58
497.97	35646.36
498.14	36074.68
498.32	36500.65
498.50	36521.72
498.67	36451.50
498.85	36669.17
499.03	36765.14
499.20	36760.45
499.38	36875.14
499.56	36905.57
499.73	37284.73
499.91	37514.11
500.08	37205.16
500.26	38167.12
500.44	37776.25
500.61	37649.86
500.79	37591.34
500.97	38319.25
501.14	38295.85
501.32	38511.17
501.49	38506.49
501.67	38824.81
501.84	39196.95
502.02	38960.56
502.20	39150.14
502.37	38880.98
502.55	39232.06
502.72	39538.67
502.90	39831.24
503.07	39686.12
503.25	40135.51
503.43	39711.87
503.60	40231.47
503.78	40346.15
503.95	40388.28
504.13	40760.43
504.30	40933.63
504.48	40978.10
504.65	40811.92
504.83	41172.36
505.01	41289.39
505.18	41055.34
505.36	41523.44
505.53	41223.86
505.71	41837.08
505.88	41486.00
506.06	41158.32
506.23	42188.16
506.41	41902.61
506.58	42485.40
506.76	42291.14
506.93	42291.14
507.11	42588.39
507.28	42728.82
507.46	42850.53
507.63	42873.93
507.81	43206.29
507.98	42895.00
508.16	43157.14
508.33	43438.00
508.50	43648.65
508.68	43669.72
508.85	43658.01
509.03	44430.39
509.20	43999.73
509.38	44538.05
509.55	44374.22
509.73	44559.12
509.90	44919.56
510.08	44542.74
510.25	44996.80
510.42	45200.43
510.60	45092.76
510.77	45492.99
510.95	45647.47
511.12	45034.25
511.30	45186.38
511.47	45368.94
511.64	45933.01
511.82	45804.28
511.99	45649.81
512.17	46288.77
512.34	45970.46
512.51	46270.05
512.69	46546.23
512.86	46452.61
513.04	46948.81
513.21	46410.48
513.38	46829.44
513.56	46836.46
513.73	46916.04
513.90	47564.37
514.08	46660.92
514.25	47407.55
514.43	47536.28
514.60	47634.58
514.77	47688.42
514.95	47601.82
515.12	47477.77
515.29	47826.51
515.47	48348.45
515.64	48481.86
515.81	48411.64
515.99	48282.91
516.16	48626.97
516.33	48570.80
516.51	49078.69
516.68	48823.58
516.85	48762.72
517.03	48617.61
517.20	48989.75
517.37	48655.06
517.54	48727.61
517.72	49045.93
517.89	49158.27
518.06	49345.51
518.24	49284.66
518.41	49226.15
518.58	49499.99
518.75	49212.10
518.93	49574.89
519.10	49752.77
519.27	49818.30
519.45	49703.62
519.62	50363.65
519.79	50197.47
519.96	50136.62
520.14	50160.02
520.31	50050.02
520.48	50096.83
520.65	50623.45
520.83	50763.88
521.00	50574.30
521.17	50890.27
521.34	50672.60
521.52	51145.39
521.69	50990.91
521.86	51337.31
522.03	51210.92
522.20	51262.41
522.38	51718.82
522.55	51669.67
522.72	51388.80
522.89	51466.04
523.07	51473.06
523.24	51672.01
523.41	51620.52
523.58	51409.87
523.75	51643.92
523.92	52025.43
524.10	52135.43
524.27	51959.89
524.44	52245.44
524.61	52193.95
524.78	52203.31
524.96	52207.99
525.13	52662.05
525.30	52692.48
525.47	52638.65
525.64	52608.22
525.81	52938.24
525.98	52865.68
526.16	52456.09
526.33	52612.90
526.50	53446.13
526.67	52828.23
526.84	52980.37
527.01	53015.47
527.18	52849.30
527.36	53265.91
527.53	53460.18
527.70	53345.49
527.87	53223.78
528.04	53120.80
528.21	53450.81
528.38	53532.73
528.55	53408.68
528.72	53338.47
528.89	53607.63
529.07	53481.24
529.24	53375.92
529.41	53907.22
529.58	53921.26
529.75	53614.65
529.92	53808.92
530.09	53645.08
530.26	53911.90
530.43	54110.85
530.60	53701.25
530.77	54106.16
530.94	54148.29
531.11	53998.50
531.28	54012.54
531.46	54157.66
531.63	54464.27
531.80	54536.82
531.97	54358.94
532.14	54567.25
532.31	54571.93
532.48	54630.44
532.65	54576.61
532.82	54644.49
532.99	54852.80
533.16	54869.18
533.33	54859.82
533.50	54953.44
533.67	54635.13
533.84	54665.55
534.01	55159.41
534.18	55189.83
534.35	55264.73
534.52	55257.71
534.69	55480.06
534.86	55253.03
535.03	55278.77
535.20	55356.01
535.37	55379.42
535.54	55540.91
535.71	55145.36
535.88	55325.58
536.05	55461.33
536.22	55903.70
536.38	55583.04
536.55	55877.95
536.72	55667.30
536.89	55718.79
537.06	55805.39
537.23	55920.08
537.40	55791.35
537.57	55842.84
537.74	55751.56
537.91	56079.24
538.08	55845.18
538.25	55749.22
538.42	55838.16
538.59	56273.50
538.75	56088.60
538.92	56090.94
539.09	56336.69
539.26	56067.53
539.43	56018.38
539.60	56121.37
539.77	56332.01
539.94	56636.28
540.11	56643.30
540.28	56109.66
540.44	56633.94
540.61	56449.04
540.78	56535.64
540.95	56554.36
541.12	56484.15
541.29	56458.40
541.46	56690.12
541.62	56788.42
541.79	56830.55
541.96	56395.21
542.13	56601.18
542.30	56633.94
542.47	56875.02
542.63	56842.25
542.80	56959.28
542.97	57146.52
543.14	57298.65
543.31	57279.93
543.48	57286.95
543.64	57537.39
543.81	57570.16
543.98	57308.02
544.15	57464.83
544.32	57441.43
544.48	57572.50
544.65	57476.54
544.82	57539.73
544.99	57336.10
545.16	57146.52
545.32	57502.28
545.49	57682.50
545.66	57984.43
545.83	57846.34
546.00	57719.95
546.16	57518.67
546.33	57570.16
546.50	57696.55
546.67	57701.23
546.83	57556.11
547.00	57939.96
547.17	57942.30
547.34	57724.63
547.50	57991.45
547.67	58120.18
547.84	58192.74
548.00	58232.53
548.17	58174.02
548.34	58145.93
548.51	58394.03
548.67	58555.52
548.84	58143.59
549.01	58183.38
549.18	58152.95
549.34	58232.53
549.51	58183.38
549.68	58424.45
549.84	58286.36
550.01	58361.26
550.18	58506.37
550.34	58763.83
550.51	58569.57
550.68	58522.76
550.84	58066.35
551.01	58658.51
551.18	58525.10
551.34	58740.42
551.51	58597.65
551.68	58749.79
551.84	58576.59
552.01	58677.23
552.18	58583.61
552.34	58653.82
552.51	58897.24
552.68	58611.70
552.84	58775.53
553.01	58894.90
553.18	58688.93
553.34	58904.26
553.51	58990.86
553.67	58965.12
553.84	59007.25
554.01	58976.82
554.17	59224.92
554.34	59281.09
554.51	58990.86
554.67	59196.83
554.84	59171.08
555.00	59196.83
555.17	59070.44
555.33	59004.91
555.50	59135.98
555.67	58843.41
555.83	59075.12
556.00	59257.68
556.16	59381.73
556.33	59166.40
556.50	59374.71
556.66	59480.03
556.83	59220.23
556.99	59573.66
557.16	59597.06
557.32	59536.21
557.49	59594.72
557.65	59426.20
557.82	59550.25
557.98	59267.05
558.15	59585.36
558.32	59538.55
558.48	59367.69
558.65	59620.47
558.81	59571.32
558.98	59519.82
559.14	59597.06
559.31	59798.35
559.47	59735.15
559.64	59847.50
559.80	59730.47
559.97	59831.11
560.13	59573.66
560.30	59788.98
560.46	59817.07
560.63	59817.07
560.79	59777.28
560.96	59969.21
561.12	59976.23
561.29	59751.54
561.45	59915.37
561.61	59877.93
561.78	59814.73
561.94	59756.22
562.11	59920.05
562.27	59898.99
562.44	59870.90
562.60	60367.10
562.77	60142.41
562.93	59859.20
563.10	60020.70
563.26	60030.06
563.42	60055.81
563.59	59950.48
563.75	60069.85
563.92	59887.29
564.08	60102.62
564.24	60011.34
564.41	60189.22
564.57	60095.60
564.74	60168.15
564.90	60135.38
565.07	60044.10
565.23	60203.26
565.39	60175.17
565.56	60039.42
565.72	60107.30
565.88	60343.69
566.05	60109.64
566.21	60226.66
566.38	60432.63
566.54	60392.84
566.70	60303.90
566.87	60608.17
567.03	60217.30
567.19	60596.47
567.36	60360.08
567.52	60261.77
567.68	60732.22
567.85	60416.25
568.01	60589.45
568.17	60533.28
568.34	60472.42
568.50	60570.72
568.66	60212.62
568.83	60357.74
568.99	60331.99
569.15	60568.38
569.32	60596.47
569.48	60259.43
569.64	60584.77
569.81	60589.45
569.97	60273.48
570.13	60638.60
570.30	60416.25
570.46	60486.46
570.62	60624.56
570.78	60458.38
570.95	60650.30
571.11	60729.88
571.27	60418.59
571.43	60528.59
571.60	60711.16
571.76	60704.13
571.92	60559.02
572.09	60631.58
572.25	60554.34
572.41	60570.72
572.57	60491.15
572.74	60982.66
572.90	60772.01
573.06	60736.90
573.22	60683.07
573.38	60692.43
573.55	60680.73
573.71	60956.91
573.87	60877.33
574.03	60427.95
574.20	60849.25
574.36	60566.04
574.52	60764.99
574.68	60800.10
574.84	60828.18
575.01	60734.56
575.17	60830.52
575.33	60526.25
575.49	60755.63
575.65	60505.19
575.82	60725.20
575.98	60580.09
576.14	60954.57
576.30	60793.07
576.46	60832.86
576.62	60669.03
576.79	60860.95
576.95	60851.59
577.11	60989.68
577.27	60935.85
577.43	61048.19
577.59	60835.20
577.75	60893.72
577.92	60807.12
578.08	60743.92
578.24	60809.46
578.40	61118.41
578.56	61022.45
578.72	60945.21
578.88	61080.96
579.04	61055.21
579.21	61099.68
579.37	60896.06
579.53	61223.73
579.69	60772.01
579.85	60856.27
580.01	60891.38
580.17	60891.38
580.33	61116.07
580.49	60830.52
580.65	61109.05
580.82	60917.12
580.98	60926.49
581.14	60832.86
581.30	61097.34
581.46	61010.74
581.62	61326.72
581.78	60963.93
581.94	61001.38
582.10	61024.79
582.26	60947.55
582.42	61146.50
582.58	61221.39
582.74	60945.21
582.90	61015.43
583.06	61008.40
583.22	60889.04
583.38	60905.42
583.54	60896.06
583.70	60853.93
583.86	61052.87
584.02	60903.08
584.18	61118.41
584.34	61095.00
584.50	61003.72
584.66	60994.36
584.82	60900.74
584.98	61148.84
585.14	60996.70
585.30	60924.14
585.46	61104.37
585.62	60973.30
585.78	61169.90
585.94	60926.49
586.10	60975.64
586.26	61050.53
586.42	61116.07
586.58	61207.35
586.74	61158.20
586.90	61228.41
587.06	61024.79
587.22	61160.54
587.38	61099.68
587.54	61235.44
587.70	61310.33
587.86	61165.22
588.02	61087.98
588.18	61373.53
588.34	61265.86
588.49	61205.01
