SpectraSuite Data File
++++++++++++++++++++++++++++++++++++
Date: Fri Oct 25 11:33:43 EDT 2013
User: price-jones
Dark Spectrum Present: No
Reference Spectrum Present: No
Number of Sampled Component Spectra: 1
Spectrometers: USB2+H05261
Integration Time (usec): 100000 (USB2+H05261)
Spectra Averaged: 1 (USB2+H05261)
Boxcar Smoothing: 0 (USB2+H05261)
Correct for Electrical Dark: No (USB2+H05261)
Strobe/Lamp Enabled: No (USB2+H05261)
Correct for Detector Non-linearity: No (USB2+H05261)
Correct for Stray Light: No (USB2+H05261)
Number of Pixels in Processed Spectrum: 2048
>>>>>Begin Processed Spectral Data<<<<<
365.73	236.39
365.92	236.39
366.12	236.39
366.32	208.31
366.52	145.11
366.72	154.48
366.91	250.44
367.11	140.43
367.31	149.79
367.51	154.48
367.70	189.58
367.90	182.56
368.10	152.13
368.30	163.84
368.49	147.45
368.69	184.90
368.89	173.20
369.09	182.56
369.28	217.67
369.48	243.42
369.68	220.01
369.87	297.25
370.07	177.88
370.27	264.48
370.47	315.97
370.66	540.66
370.86	524.28
371.06	461.09
371.25	582.79
371.45	505.56
371.65	535.98
371.84	601.52
372.04	594.50
372.24	650.67
372.44	550.03
372.63	582.79
372.83	645.99
373.03	690.46
373.22	660.03
373.42	655.35
373.62	702.16
373.81	622.58
374.01	634.29
374.21	678.76
374.40	683.44
374.60	748.97
374.79	645.99
374.99	641.31
375.19	631.94
375.38	711.52
375.58	681.10
375.78	629.60
375.97	645.99
376.17	669.39
376.37	690.46
376.56	699.82
376.76	706.84
376.95	631.94
377.15	669.39
377.35	695.14
377.54	657.69
377.74	704.50
377.93	674.07
378.13	603.86
378.33	713.86
378.52	692.80
378.72	697.48
378.91	732.59
379.11	713.86
379.31	678.76
379.50	706.84
379.70	798.12
379.89	662.37
380.09	772.38
380.28	683.44
380.48	713.86
380.68	697.48
380.87	751.31
381.07	669.39
381.26	758.33
381.46	795.78
381.65	802.80
381.85	814.51
382.04	833.23
382.24	795.78
382.43	788.76
382.63	688.12
382.83	770.04
383.02	837.91
383.22	807.48
383.41	823.87
383.61	791.10
383.80	858.98
384.00	720.88
384.19	830.89
384.39	964.30
384.58	784.08
384.78	830.89
384.97	767.70
385.17	788.76
385.36	847.27
385.56	826.21
385.75	767.70
385.95	938.55
386.14	844.93
386.34	828.55
386.53	917.49
386.72	847.27
386.92	856.64
387.11	938.55
387.31	959.62
387.50	938.55
387.70	863.66
387.89	898.77
388.09	936.21
388.28	917.49
388.48	891.74
388.67	877.70
388.86	1022.81
389.06	896.43
389.25	875.36
389.45	877.70
389.64	908.13
389.84	922.17
390.03	980.68
390.22	966.64
390.42	973.66
390.61	910.47
390.81	929.19
391.00	950.26
391.19	1076.65
391.39	919.83
391.58	983.02
391.78	1036.86
391.97	987.71
392.16	1043.88
392.36	1083.67
392.55	1008.77
392.75	1013.45
392.94	964.30
393.13	1020.47
393.33	1027.50
393.52	1090.69
393.71	1097.71
393.91	1041.54
394.10	983.02
394.29	1132.82
394.49	1132.82
394.68	1086.01
394.88	1128.14
395.07	1198.35
395.26	1196.01
395.46	1188.99
395.65	1188.99
395.84	1130.48
396.04	1224.10
396.23	1142.18
396.42	1174.95
396.62	1177.29
396.81	1174.95
397.00	1149.20
397.19	1177.29
397.39	1296.66
397.58	1231.12
397.77	1181.97
397.97	1277.93
398.16	1210.06
398.35	1287.29
398.55	1254.53
398.74	1301.34
398.93	1420.71
399.12	1261.55
399.32	1301.34
399.51	1263.89
399.70	1359.85
399.90	1376.24
400.09	1336.45
400.28	1366.87
400.47	1364.53
400.67	1437.09
400.86	1406.66
401.05	1453.47
401.24	1427.73
401.44	1416.02
401.63	1460.49
401.82	1451.13
402.01	1446.45
402.21	1427.73
402.40	1500.28
402.59	1474.54
402.78	1502.62
402.97	1486.24
403.17	1556.46
403.36	1533.05
403.55	1490.92
403.74	1596.25
403.93	1598.59
404.13	1570.50
404.32	1631.35
404.51	1591.56
404.70	1626.67
404.89	1647.74
405.09	1685.19
405.28	1722.63
405.47	1633.69
405.66	1774.13
405.85	1631.35
406.05	1713.27
406.24	1713.27
406.43	1781.15
406.62	1734.34
406.81	1746.04
407.00	1834.98
407.20	1629.01
407.39	1689.87
407.58	1753.06
407.77	1853.70
407.96	1914.56
408.15	1975.41
408.34	1867.75
408.54	1856.04
408.73	1949.67
408.92	1893.49
409.11	1926.26
409.30	2024.56
409.49	1928.60
409.68	2024.56
409.87	2069.03
410.07	1996.48
410.26	2045.63
410.45	2026.90
410.64	2064.35
410.83	2106.48
411.02	2143.93
411.21	2232.87
411.40	2244.57
411.59	2157.97
411.78	2230.53
411.98	2181.38
412.17	2319.47
412.36	2246.91
412.55	2307.77
412.74	2335.85
412.93	2314.79
413.12	2333.51
413.31	2345.22
413.50	2373.30
413.69	2389.69
413.88	2544.16
414.07	2539.48
414.26	2443.52
414.45	2518.42
414.64	2466.92
414.83	2452.88
415.02	2555.86
415.22	2544.16
415.41	2665.87
415.60	2630.76
415.79	2682.25
415.98	2818.00
416.17	2712.68
416.36	2710.34
416.55	2747.79
416.74	2722.04
416.93	2789.92
417.12	2754.81
417.31	2813.32
417.50	2897.58
417.69	3030.99
417.88	2895.24
418.07	3023.97
418.26	2967.80
418.45	3005.25
418.64	3080.14
418.83	3150.36
419.02	3059.08
419.21	3084.83
419.39	3157.38
419.58	2977.16
419.77	3112.91
419.96	3176.11
420.15	3164.40
420.34	3117.59
420.53	3070.78
420.72	3293.13
420.91	3279.09
421.10	3321.22
421.29	3197.17
421.48	3265.05
421.67	3297.81
421.86	3251.00
422.05	3358.67
422.24	3452.29
422.43	3229.94
422.61	3400.80
422.80	3468.67
422.99	3426.54
423.18	3419.52
423.37	3499.10
423.56	3346.97
423.75	3337.60
423.94	3255.69
424.13	3229.94
424.32	3279.09
424.50	3487.40
424.69	3442.93
424.88	3634.85
425.07	3454.63
425.26	3269.73
425.45	3419.52
425.64	3583.36
425.83	3559.95
426.01	3473.36
426.20	3452.29
426.39	3400.80
426.58	3555.27
426.77	3534.21
426.96	3459.31
427.15	3454.63
427.33	3520.17
427.52	3428.88
427.71	3693.37
427.90	3595.06
428.09	3574.00
428.28	3641.87
428.46	3737.84
428.65	3728.47
428.84	3777.62
429.03	3819.75
429.22	3688.68
429.40	3822.09
429.59	3772.94
429.78	3742.52
429.97	3552.93
430.16	3796.35
430.34	3742.52
430.53	3805.71
430.72	3941.46
430.91	3871.25
431.10	3943.80
431.28	3864.22
431.47	4081.89
431.66	3960.19
431.85	3885.29
432.03	4208.28
432.22	4140.41
432.41	4105.30
432.60	3943.80
432.79	4117.00
432.97	4004.66
433.16	4231.69
433.35	4109.98
433.54	4058.49
433.72	4166.15
433.91	4187.22
434.10	4177.86
434.28	4229.35
434.47	4196.58
434.66	4334.67
434.85	4205.94
435.03	4306.59
435.22	4322.97
435.41	4470.42
435.59	4416.59
435.78	4456.38
435.97	4512.55
436.16	4276.16
436.34	4500.85
436.53	4514.89
436.72	4615.54
436.90	4418.93
437.09	4554.68
437.28	4472.76
437.46	4512.55
437.65	4484.47
437.84	4669.37
438.02	4559.36
438.21	4751.29
438.40	4540.64
438.58	4667.03
438.77	4917.47
438.96	4781.71
439.14	4842.57
439.33	4849.59
439.52	5020.45
439.70	4992.36
439.89	5069.60
440.08	4929.17
440.26	4919.81
440.45	5011.09
440.63	5235.78
440.82	5245.14
441.01	4964.28
441.19	5298.97
441.38	5294.29
441.57	5359.83
441.75	5270.89
441.94	5408.98
442.12	5439.40
442.31	5504.94
442.50	5390.25
442.68	5334.08
442.87	5343.44
443.05	5617.29
443.24	5577.50
443.43	5495.58
443.61	5486.22
443.80	5568.13
443.98	5554.09
444.17	5226.42
444.35	5488.56
444.54	5570.48
444.73	5481.53
444.91	5757.72
445.10	5591.54
445.28	5507.28
445.47	5633.67
445.65	5762.40
445.84	5792.83
446.02	5563.45
446.21	5582.18
446.39	5851.34
446.58	5715.59
446.77	5809.21
446.95	5636.01
447.14	5685.16
447.32	5874.74
447.51	5788.14
447.69	5884.11
447.88	5734.31
448.06	5783.46
448.25	5837.30
448.43	5769.42
448.62	5827.93
448.80	5818.57
448.99	5802.19
449.17	5891.13
449.36	5933.26
449.54	5940.28
449.73	5954.32
449.91	6146.25
450.10	6024.54
450.28	6157.95
450.46	6078.37
450.65	6143.91
450.83	6113.48
451.02	6047.94
451.20	6087.73
451.39	6202.42
451.57	6354.55
451.76	6179.01
451.94	6214.12
452.13	6354.55
452.31	6195.40
452.49	6148.59
452.68	6328.81
452.86	6256.25
453.05	6338.17
453.23	6502.01
453.42	6296.04
453.60	6296.04
453.78	6490.31
453.97	6342.85
454.15	6361.58
454.34	6317.11
454.52	6532.44
454.70	6635.42
454.89	6392.00
455.07	6558.18
455.26	6539.46
455.44	6609.67
455.62	6684.57
455.81	6567.54
455.99	6862.45
456.17	6768.83
456.36	6860.11
456.54	6719.68
456.73	6953.73
456.91	7126.93
457.09	7012.24
457.28	7016.93
457.46	7012.24
457.64	7021.61
457.83	7131.61
458.01	6942.03
458.19	7215.87
458.38	6902.24
458.56	7419.50
458.74	7169.06
458.93	7166.72
459.11	7389.07
459.29	7218.21
459.48	7286.09
459.66	7229.91
459.84	7262.68
460.03	7503.76
460.21	7274.38
460.39	7328.22
460.57	7382.05
460.76	7581.00
460.94	7564.61
461.12	7548.23
461.31	7585.68
461.49	7499.08
461.67	7424.18
461.85	7719.09
462.04	7583.34
462.22	8098.25
462.40	7719.09
462.59	7618.44
462.77	7588.02
462.95	7927.39
463.13	7927.39
463.32	7735.47
463.50	7845.48
463.68	7882.92
463.86	7936.76
464.05	7761.22
464.23	7925.05
464.41	8046.76
464.59	7929.74
464.78	8124.00
464.96	7882.92
465.14	8009.31
465.32	8067.83
465.50	8259.75
465.69	8182.51
465.87	8070.17
466.05	8121.66
466.23	8163.79
466.41	8285.50
466.60	8276.13
466.78	8177.83
466.96	8093.57
467.14	8341.67
467.32	8404.86
467.51	8421.25
467.69	8098.25
467.87	8294.86
468.05	8322.94
468.23	8177.83
468.41	8245.71
468.60	8446.99
468.78	8557.00
468.96	8344.01
469.14	8512.53
469.32	8732.54
469.50	8510.19
469.69	8659.98
469.87	8685.73
470.05	8704.45
470.23	8784.03
470.41	8671.68
470.59	8809.78
470.77	8781.69
470.95	8774.67
471.14	9214.69
471.32	8847.22
471.50	8826.16
471.68	9064.89
471.86	9153.84
472.04	9362.14
472.22	9385.55
472.40	9083.62
472.58	9158.52
472.77	9322.35
472.95	9434.70
473.13	9741.31
473.31	9305.97
473.49	9397.25
473.67	9537.68
473.85	9488.53
474.03	9701.52
474.21	9699.18
474.39	9954.30
474.57	9774.08
474.75	10090.05
474.93	10045.58
475.12	9926.21
475.30	10207.08
475.48	10099.41
475.66	10174.31
475.84	9872.38
476.02	10445.81
476.20	10136.86
476.38	10455.17
476.56	10619.01
476.74	10565.18
476.92	10658.80
477.10	10342.83
477.28	10682.20
477.46	10848.38
477.64	10729.02
477.82	10995.84
478.00	11316.49
478.18	11138.61
478.36	11154.99
478.54	11213.51
478.72	11257.98
478.90	11332.87
479.08	11833.75
479.26	11543.52
479.44	11822.05
479.62	11590.33
479.80	12142.70
479.98	11903.96
480.16	12154.40
480.34	11939.07
480.52	12210.57
480.70	12159.08
480.88	12348.67
481.06	12446.97
481.24	12517.18
481.41	12634.21
481.59	12720.81
481.77	12688.04
481.95	12912.74
482.13	12985.29
482.31	12938.48
482.49	13350.42
482.67	13355.10
482.85	13518.93
483.03	13582.13
483.21	13617.24
483.39	13783.41
483.57	13710.86
483.74	13752.99
483.92	13928.53
484.10	14001.08
484.28	14249.18
484.46	14530.05
484.64	14611.96
484.82	14483.24
485.00	14565.15
485.18	14923.26
485.35	15276.68
485.53	14906.87
485.71	15374.98
485.89	15501.37
486.07	15405.41
486.25	15583.29
486.43	15602.01
486.61	15693.29
486.78	15782.23
486.96	16009.26
487.14	15939.05
487.32	15917.98
487.50	16456.31
487.68	16563.97
487.85	16896.33
488.03	16641.21
488.21	17053.14
488.39	17081.23
488.57	17060.16
488.75	17247.41
488.92	17338.69
489.10	17446.35
489.28	17387.84
489.46	17731.90
489.64	17621.89
489.81	18352.14
489.99	18331.08
490.17	18249.16
490.35	18359.16
490.53	18429.38
490.70	18520.66
490.88	18665.77
491.06	18892.80
491.24	18799.18
491.41	19185.37
491.59	19271.97
491.77	19344.53
491.95	19611.35
492.13	19585.60
492.30	19854.76
492.48	19653.48
492.66	19742.42
492.84	19793.91
493.01	20072.43
493.19	20432.88
493.37	20304.15
493.54	20278.40
493.72	20606.08
493.90	20900.98
494.08	20758.21
494.25	21003.97
494.43	21223.98
494.61	20915.03
494.79	21261.43
494.96	21268.45
495.14	21528.25
495.32	21678.04
495.49	21462.71
495.67	21832.52
495.85	22279.56
496.02	22382.54
496.20	22319.35
496.38	22305.31
496.55	22169.55
496.73	22831.93
496.91	22850.65
497.09	22738.30
497.26	23260.24
497.44	23047.26
497.62	23267.27
497.79	23634.73
497.97	23229.82
498.14	23335.14
498.32	23365.57
498.50	23608.98
498.67	23695.58
498.85	23747.08
499.03	24088.79
499.20	24119.22
499.38	24531.15
499.56	24460.94
499.73	24264.33
499.91	24367.32
500.08	24805.00
500.26	24652.86
500.44	24556.90
500.61	24751.17
500.79	24587.33
500.97	24856.49
501.14	25198.21
501.32	25617.16
501.49	25048.41
501.67	25413.54
501.84	25825.47
502.02	25717.81
502.20	25687.38
502.37	25743.55
502.55	25640.57
502.72	25933.14
502.90	25764.62
503.07	26050.16
503.25	25963.56
503.43	26312.30
503.60	26260.81
503.78	26422.31
503.95	26174.21
504.13	26590.83
504.30	26628.27
504.48	26476.14
504.65	26890.41
504.83	26616.57
505.01	27321.07
505.18	27351.50
505.36	27440.44
505.53	26977.01
505.71	27615.98
505.88	27255.54
506.06	27419.38
506.23	27552.79
506.41	27608.96
506.58	27962.38
506.76	27840.67
506.93	28011.53
507.11	27878.12
507.28	28322.82
507.46	28301.76
507.63	28105.15
507.81	28669.22
507.98	28166.01
508.16	28271.33
508.33	28210.48
508.50	28865.83
508.68	28444.53
508.85	29125.63
509.03	28758.16
509.20	29034.35
509.38	29322.23
509.55	29256.70
509.73	29472.03
509.90	29415.85
510.08	29364.36
510.25	29549.26
510.42	29729.48
510.60	29790.34
510.77	29570.33
510.95	30185.89
511.12	29912.05
511.30	29979.92
511.47	30188.23
511.64	29748.21
511.82	30485.48
511.99	30312.28
512.17	30417.60
512.34	30532.29
512.51	30518.25
512.69	30986.35
512.86	30920.82
513.04	30724.21
513.21	31232.11
513.38	30960.61
513.56	31358.50
513.73	31239.13
513.90	31143.17
514.08	31702.56
514.25	31763.41
514.43	31463.82
514.60	31325.73
514.77	31606.59
514.95	31791.50
515.12	31803.20
515.29	32208.11
515.47	31885.12
515.64	32177.68
515.81	31978.74
515.99	32283.01
516.16	32341.52
516.33	32301.73
516.51	32371.95
516.68	32287.69
516.85	32617.71
517.03	32598.98
517.20	32662.18
517.37	32514.72
517.54	32826.01
517.72	32989.85
517.89	32844.74
518.06	32912.61
518.24	32907.93
518.41	32872.82
518.58	33130.28
518.75	33235.61
518.93	33647.54
519.10	33191.14
519.27	33408.81
519.45	33511.79
519.62	33785.63
519.79	33589.03
519.96	33792.65
520.14	33933.09
520.31	33855.85
520.48	34220.97
520.65	33869.89
520.83	34464.39
521.00	34356.72
521.17	34153.10
521.34	34087.56
521.52	34384.81
521.69	34499.50
521.86	34646.95
522.03	34885.68
522.20	34930.16
522.38	35318.68
522.55	35077.61
522.72	34979.31
522.89	35241.45
523.07	35384.22
523.24	34749.93
523.41	35257.83
523.58	35292.94
523.75	35414.65
523.92	35796.15
524.10	35477.84
524.27	35641.68
524.44	35372.52
524.61	35800.83
524.78	35690.83
524.96	35997.44
525.13	35838.28
525.30	35950.63
525.47	35763.39
525.64	36161.28
525.81	36601.30
525.98	36442.14
526.16	36154.26
526.33	36004.46
526.50	36587.25
526.67	36250.22
526.84	36418.74
527.01	36591.94
527.18	36809.61
527.36	36900.89
527.53	37064.72
527.70	36889.18
527.87	37340.91
528.04	36980.46
528.21	37322.18
528.38	37177.07
528.55	37408.78
528.72	37097.49
528.89	36917.27
529.07	37130.26
529.24	37242.60
529.41	37525.81
529.58	37404.10
529.75	37216.86
529.92	37591.34
530.09	37907.32
530.26	37390.06
530.43	37949.45
530.60	37668.58
530.77	37724.75
530.94	38024.34
531.11	37762.20
531.28	38204.56
531.46	37935.40
531.63	38185.84
531.80	38302.87
531.97	38541.60
532.14	38321.59
532.31	38333.29
532.48	38897.36
532.65	38653.95
532.82	38508.83
532.99	38679.69
533.16	38398.83
533.33	38462.02
533.50	38815.44
533.67	38511.17
533.84	38405.85
534.01	38946.51
534.18	39278.87
534.35	38904.38
534.52	39391.22
534.69	39318.66
534.86	39225.04
535.03	39203.97
535.20	39360.79
535.37	39262.49
535.54	39833.58
535.71	39541.01
535.88	40084.01
536.05	39761.02
536.22	39721.23
536.38	39763.36
536.55	39653.36
536.72	39875.71
536.89	39194.61
537.06	39812.51
537.23	40332.11
537.40	39564.42
537.57	40053.59
537.74	39791.45
537.91	40194.02
538.08	39859.32
538.25	39604.20
538.42	40170.61
538.59	40418.71
538.75	40100.40
538.92	40299.34
539.09	40821.28
539.26	40507.65
539.43	40297.00
539.60	40612.98
539.77	40659.79
539.94	41144.28
540.11	40985.12
540.28	41020.23
540.44	41144.28
540.61	41111.51
540.78	40992.14
540.95	41104.49
541.12	40744.05
541.29	41003.85
541.46	41050.66
541.62	40886.82
541.79	41675.58
541.96	40931.29
542.13	40971.08
542.30	41167.68
542.47	41254.28
542.63	41680.26
542.80	41476.63
542.97	41970.49
543.14	41794.95
543.31	41556.21
543.48	41713.03
543.64	42295.82
543.81	42202.20
543.98	42131.98
544.15	42068.79
544.32	42026.66
544.48	42464.34
544.65	42508.81
544.82	42745.20
544.99	41998.57
545.16	42078.15
545.32	41961.12
545.49	42604.77
545.66	42705.41
545.83	42330.93
546.00	42639.88
546.16	42677.33
546.33	42459.66
546.50	42487.74
546.67	42422.21
546.83	42356.67
547.00	42405.83
547.17	42698.39
547.34	42927.77
547.50	42742.86
547.67	43253.10
547.84	43393.53
548.00	43405.23
548.17	43503.54
548.34	43672.06
548.51	43002.66
548.67	43449.70
548.84	43798.44
549.01	42939.47
549.18	43580.78
549.34	43533.96
549.51	43194.59
549.68	43901.43
549.84	43400.55
550.01	43440.34
550.18	43550.35
550.34	43501.20
550.51	43723.55
550.68	43636.95
550.84	43299.91
551.01	43985.69
551.18	43253.10
551.34	43559.71
551.51	44039.52
551.68	44044.20
551.84	43648.65
552.01	43681.42
552.18	43931.86
552.34	43526.94
552.51	44041.86
552.68	43992.71
552.84	43924.83
553.01	44446.77
553.18	44205.70
553.34	43924.83
553.51	44259.53
553.67	44091.01
553.84	44406.98
554.01	44423.37
554.17	44158.89
554.34	44488.90
554.51	44624.65
554.67	44512.31
554.84	44708.91
555.00	44451.45
555.17	44596.57
555.33	45031.91
555.50	45165.32
555.67	44664.44
555.83	44938.29
556.00	44914.88
556.16	45137.23
556.33	44896.16
556.50	44722.96
556.66	44659.76
556.83	44158.89
556.99	45368.94
557.16	45289.37
557.32	45191.06
557.49	44921.90
557.65	44861.05
557.82	45275.32
557.98	45514.06
558.15	44802.53
558.32	45315.11
558.48	45052.97
558.65	45134.89
558.81	45268.30
558.98	45188.72
559.14	45099.78
559.31	45322.13
559.47	45071.70
559.64	45322.13
559.80	45415.76
559.97	45572.57
560.13	44987.44
560.30	45326.81
560.46	46047.70
560.63	45361.92
560.79	45345.54
560.96	45808.96
561.12	45925.99
561.29	45668.53
561.45	45640.45
561.61	45673.21
561.78	45839.39
561.94	45668.53
562.11	45720.02
562.27	45827.69
562.44	45425.12
562.60	45886.20
562.77	45525.76
562.93	46064.08
563.10	46204.52
563.26	46003.23
563.42	45982.16
563.59	46057.06
563.75	46005.57
563.92	45867.48
564.08	45881.52
564.24	46321.54
564.41	45989.19
564.57	46108.55
564.74	46223.24
564.90	46043.02
565.07	46024.29
565.23	46031.32
565.39	45713.00
565.56	46258.35
565.72	45879.18
565.88	46251.33
566.05	45925.99
566.21	46176.43
566.38	46284.09
566.54	46253.67
566.70	46279.41
566.87	46225.58
567.03	45991.53
567.19	46780.29
567.36	46260.69
567.52	46415.16
567.68	46579.00
567.85	46632.83
568.01	46672.62
568.17	46515.81
568.34	46499.42
568.50	46267.71
568.66	46284.09
568.83	46534.53
568.99	46761.56
569.15	46347.29
569.32	46251.33
569.48	46644.54
569.64	47070.51
569.81	46616.45
569.97	46717.09
570.13	47037.75
570.30	46153.02
570.46	46607.09
570.62	46590.70
570.78	46663.26
570.95	46499.42
571.11	47004.98
571.27	46494.74
571.43	46415.16
571.60	46836.46
571.76	46106.21
571.92	46681.98
572.09	46632.83
572.25	46429.21
572.41	46354.31
572.57	46918.38
572.74	47143.07
572.90	46398.78
573.06	47009.66
573.22	47063.49
573.38	47178.18
573.55	47093.92
573.71	47538.62
573.87	46995.62
574.03	47086.90
574.20	47051.79
574.36	46920.72
574.52	47217.97
574.68	46972.21
574.84	47367.76
575.01	47047.11
575.17	46937.10
575.33	46944.12
575.49	47119.66
575.65	47185.20
575.82	46925.40
575.98	46705.39
576.14	47442.66
576.30	47334.99
576.46	47089.24
576.62	47054.13
576.79	47232.01
576.95	46829.44
577.11	47068.17
577.27	46799.01
577.43	46983.91
577.59	47466.06
577.75	46635.17
577.92	46646.88
578.08	47161.79
578.24	47114.98
578.40	47257.76
578.56	47384.15
578.72	46972.21
578.88	47208.61
579.04	47456.70
579.21	47143.07
579.37	47257.76
579.53	47562.03
579.69	46930.08
579.85	47161.79
580.01	47047.11
580.17	47051.79
580.33	47220.31
580.49	47077.54
580.65	47466.06
580.82	47117.32
580.98	46993.28
581.14	46806.03
581.30	47103.28
581.46	47264.78
581.62	47262.44
581.78	47051.79
581.94	47299.89
582.10	47449.68
582.26	47082.22
582.42	47430.96
582.58	47187.54
582.74	47503.51
582.90	47320.95
583.06	47208.61
583.22	47040.09
583.38	47239.03
583.54	47437.98
583.70	47180.52
583.86	47459.04
584.02	47281.16
584.18	47313.93
584.34	47585.43
584.50	47334.99
584.66	47304.57
584.82	47461.38
584.98	47533.94
585.14	47688.42
585.30	47229.67
585.46	47241.37
585.62	47229.67
585.78	47777.36
585.94	47164.14
586.10	47349.04
586.26	46995.62
586.42	47473.09
586.58	47466.06
586.74	47672.03
586.90	46763.90
587.06	47126.69
587.22	47351.38
587.38	47342.02
587.54	47775.02
587.70	47655.65
587.86	47552.66
588.02	47346.70
588.18	47454.36
588.34	47159.45
588.49	47641.60
588.65	47714.16
588.81	47082.22
588.97	47576.07
589.13	47517.56
589.29	47496.49
589.45	47880.34
589.61	47796.08
589.77	47929.49
589.93	47239.03
590.08	47475.43
