SpectraSuite Data File
++++++++++++++++++++++++++++++++++++
Date: Fri Oct 25 10:47:06 EDT 2013
User: price-jones
Dark Spectrum Present: No
Reference Spectrum Present: No
Number of Sampled Component Spectra: 1
Spectrometers: USB2+H05261
Integration Time (usec): 100000 (USB2+H05261)
Spectra Averaged: 1 (USB2+H05261)
Boxcar Smoothing: 0 (USB2+H05261)
Correct for Electrical Dark: No (USB2+H05261)
Strobe/Lamp Enabled: No (USB2+H05261)
Correct for Detector Non-linearity: No (USB2+H05261)
Correct for Stray Light: No (USB2+H05261)
Number of Pixels in Processed Spectrum: 2048
>>>>>Begin Processed Spectral Data<<<<<
365.73	133.41
365.92	133.41
366.12	133.41
366.32	56.17
366.52	77.24
366.72	72.56
366.91	70.22
367.11	74.90
367.31	32.77
367.51	86.60
367.70	25.75
367.90	32.77
368.10	119.37
368.30	42.13
368.49	21.06
368.69	53.83
368.89	46.81
369.09	63.19
369.28	121.71
369.48	72.56
369.68	67.88
369.87	110.01
370.07	138.09
370.27	255.12
370.47	215.33
370.66	400.23
370.86	404.91
371.06	416.62
371.25	461.09
371.45	416.62
371.65	491.51
371.84	463.43
372.04	433.00
372.24	461.09
372.44	451.72
372.63	465.77
372.83	461.09
373.03	414.27
373.22	498.53
373.42	470.45
373.62	470.45
373.81	505.56
374.01	557.05
374.21	545.34
374.40	475.13
374.60	524.28
374.79	512.58
374.99	451.72
375.19	578.11
375.38	613.22
375.58	458.74
375.78	603.86
375.97	533.64
376.17	620.24
376.37	638.97
376.56	629.60
376.76	568.75
376.95	634.29
377.15	613.22
377.35	493.85
377.54	552.37
377.74	645.99
377.93	566.41
378.13	585.13
378.33	638.97
378.52	608.54
378.72	688.12
378.91	582.79
379.11	603.86
379.31	608.54
379.50	629.60
379.70	688.12
379.89	636.63
380.09	627.26
380.28	653.01
380.48	643.65
380.68	770.04
380.87	641.31
381.07	704.50
381.26	617.90
381.46	706.84
381.65	697.48
381.85	638.97
382.04	678.76
382.24	667.05
382.43	631.94
382.63	713.86
382.83	765.36
383.02	697.48
383.22	697.48
383.41	653.01
383.61	683.44
383.80	788.76
384.00	777.06
384.19	716.20
384.39	711.52
384.58	741.95
384.78	716.20
384.97	770.04
385.17	737.27
385.36	732.59
385.56	744.29
385.75	758.33
385.95	702.16
386.14	760.67
386.34	816.85
386.53	788.76
386.72	786.42
386.92	840.25
387.11	791.10
387.31	936.21
387.50	819.19
387.70	849.61
387.89	840.25
388.09	821.53
388.28	730.25
388.48	734.93
388.67	880.04
388.86	744.29
389.06	880.04
389.25	847.27
389.45	828.55
389.64	851.96
389.84	919.83
390.03	910.47
390.22	936.21
390.42	947.92
390.61	919.83
390.81	880.04
391.00	915.15
391.19	959.62
391.39	873.02
391.58	940.90
391.78	947.92
391.97	980.68
392.16	1001.75
392.36	1046.22
392.55	1041.54
392.75	959.62
392.94	945.58
393.13	987.71
393.33	966.64
393.52	1109.41
393.71	1053.24
393.91	1095.37
394.10	1067.28
394.29	1039.20
394.49	1139.84
394.68	990.05
394.88	1118.78
395.07	1128.14
395.26	1142.18
395.46	1123.46
395.65	1097.71
395.84	1235.80
396.04	1196.01
396.23	1130.48
396.42	1125.80
396.62	1100.05
396.81	1062.60
397.00	1221.76
397.19	1146.86
397.39	1198.35
397.58	1238.14
397.77	1266.23
397.97	1191.33
398.16	1207.72
398.35	1336.45
398.55	1184.31
398.74	1247.51
398.93	1352.83
399.12	1399.64
399.32	1350.49
399.51	1273.25
399.70	1322.40
399.90	1334.11
400.09	1427.73
400.28	1383.26
400.47	1451.13
400.67	1380.92
400.86	1444.11
401.05	1355.17
401.24	1556.46
401.44	1544.75
401.63	1441.77
401.82	1523.69
402.01	1446.45
402.21	1542.41
402.40	1483.90
402.59	1490.92
402.78	1514.33
402.97	1659.44
403.17	1561.14
403.36	1621.99
403.55	1577.52
403.74	1621.99
403.93	1685.19
404.13	1593.90
404.32	1645.40
404.51	1657.10
404.70	1605.61
404.89	1664.12
405.09	1760.08
405.28	1624.33
405.47	1685.19
405.66	1804.55
405.85	1706.25
406.05	1804.55
406.24	1863.07
406.43	1760.08
406.62	1811.57
406.81	1949.67
407.00	1900.52
407.20	1776.47
407.39	1874.77
407.58	1928.60
407.77	1930.94
407.96	1994.14
408.15	2012.86
408.34	2038.61
408.54	1893.49
408.73	1942.64
408.92	1977.75
409.11	2115.84
409.30	2080.74
409.49	2069.03
409.68	1956.69
409.87	1952.01
410.07	2083.08
410.26	2127.55
410.45	2132.23
410.64	2197.76
410.83	2216.49
411.02	2197.76
411.21	2165.00
411.40	2246.91
411.59	2279.68
411.78	2307.77
411.98	2183.72
412.17	2303.09
412.36	2387.35
412.55	2375.64
412.74	2422.45
412.93	2396.71
413.12	2385.01
413.31	2436.50
413.50	2438.84
413.69	2487.99
413.88	2469.27
414.07	2544.16
414.26	2686.94
414.45	2485.65
414.64	2630.76
414.83	2546.50
415.02	2558.21
415.22	2850.77
415.41	2818.00
415.60	2782.90
415.79	2862.48
415.98	2850.77
416.17	2792.26
416.36	2820.35
416.55	2874.18
416.74	2897.58
416.93	2949.08
417.12	3054.40
417.31	2939.71
417.50	2953.76
417.69	2977.16
417.88	3035.67
418.07	3096.53
418.26	3098.87
418.45	3035.67
418.64	3192.49
418.83	3208.87
419.02	2991.20
419.21	3199.51
419.39	3173.77
419.58	3243.98
419.77	3152.70
419.96	3283.77
420.15	3353.99
420.34	3335.26
420.53	3229.94
420.72	3428.88
420.91	3222.92
421.10	3461.65
421.29	3482.72
421.48	3356.33
421.67	3496.76
421.86	3297.81
422.05	3363.35
422.24	3288.45
422.43	3449.95
422.61	3382.07
422.80	3456.97
422.99	3508.46
423.18	3485.06
423.37	3698.05
423.56	3513.14
423.75	3562.30
423.94	3480.38
424.13	3253.34
424.32	3365.69
424.50	3480.38
424.69	3597.40
424.88	3714.43
425.07	3405.48
425.26	3349.31
425.45	3506.12
425.64	3571.66
425.83	3412.50
426.01	3646.55
426.20	3545.91
426.39	3548.25
426.58	3468.67
426.77	3562.30
426.96	3592.72
427.15	3611.45
427.33	3698.05
427.52	3763.58
427.71	3719.11
427.90	3709.75
428.09	3653.58
428.28	3918.06
428.46	3728.47
428.65	3735.50
428.84	3728.47
429.03	3758.90
429.22	3548.25
429.40	3880.61
429.59	3824.44
429.78	3634.85
429.97	3641.87
430.16	3714.43
430.34	3852.52
430.53	3744.86
430.72	3859.54
430.91	3838.48
431.10	3896.99
431.28	4081.89
431.47	4095.94
431.66	4039.76
431.85	4044.45
432.03	4269.14
432.22	4154.45
432.41	4250.41
432.60	4222.33
432.79	4107.64
432.97	4227.01
433.16	4149.77
433.35	4252.75
433.54	4271.48
433.72	4344.03
433.91	4376.80
434.10	4262.12
434.28	4273.82
434.47	4400.21
434.66	4510.21
434.85	4390.84
435.03	4447.02
435.22	4456.38
435.41	4608.51
435.59	4528.94
435.78	4573.41
435.97	4540.64
436.16	4542.98
436.34	4454.04
436.53	4622.56
436.72	4662.35
436.90	4557.02
437.09	4620.22
437.28	4470.42
437.46	4690.43
437.65	4739.58
437.84	4683.41
438.02	4557.02
438.21	4725.54
438.40	4734.90
438.58	4983.00
438.77	4762.99
438.96	4966.62
439.14	4954.91
439.33	4919.81
439.52	4887.04
439.70	4985.34
439.89	5090.67
440.08	5153.86
440.26	5100.03
440.45	5090.67
440.63	5240.46
440.82	5327.06
441.01	5247.48
441.19	5397.28
441.38	5509.62
441.57	5488.56
441.75	5455.79
441.94	5643.03
442.12	5645.37
442.31	5706.23
442.50	5680.48
442.68	5624.31
442.87	5621.97
443.05	5724.95
443.24	5799.85
443.43	5748.36
443.61	5715.59
443.80	5856.02
443.98	5746.02
444.17	5483.88
444.35	5778.78
444.54	5720.27
444.73	5755.38
444.91	5671.12
445.10	5856.02
445.28	5905.17
445.47	5774.10
445.65	5841.98
445.84	5970.71
446.02	5987.09
446.21	5813.89
446.39	5804.53
446.58	5928.58
446.77	5888.79
446.95	5874.74
447.14	5987.09
447.32	5949.64
447.51	5961.34
447.69	5951.98
447.88	5841.98
448.06	6064.33
448.25	6141.57
448.43	5928.58
448.62	6033.90
448.80	5856.02
448.99	6057.31
449.17	6216.46
449.36	6319.45
449.54	6291.36
449.73	6441.15
449.91	6312.42
450.10	6368.60
450.28	6520.73
450.46	6384.98
450.65	6389.66
450.83	6413.07
451.02	6354.55
451.20	6497.33
451.39	6640.10
451.57	6335.83
451.76	6307.74
451.94	6410.73
452.13	6492.65
452.31	6609.67
452.49	6497.33
452.68	6497.33
452.86	6579.25
453.05	6583.93
453.23	6602.65
453.42	6574.56
453.60	6661.16
453.78	6607.33
453.97	6595.63
454.15	6544.14
454.34	6630.74
454.52	6696.27
454.70	6892.88
454.89	6799.26
455.07	6792.23
455.26	6658.82
455.44	6848.41
455.62	6836.70
455.81	6843.73
455.99	6998.20
456.17	6949.05
456.36	6970.12
456.54	6946.71
456.73	7140.97
456.91	7229.91
457.09	7265.02
457.28	7255.66
457.46	7190.13
457.64	7375.03
457.83	7225.23
458.01	7194.81
458.19	7438.22
458.38	7091.82
458.56	7314.17
458.74	7304.81
458.93	7379.71
459.11	7452.27
459.29	7412.48
459.48	7503.76
459.66	7452.27
459.84	7646.53
460.03	7669.94
460.21	7606.74
460.39	7700.36
460.57	7726.11
460.76	7674.62
460.94	7866.54
461.12	7829.09
461.31	7801.01
461.49	7726.11
461.67	7815.05
461.85	7915.69
462.04	7882.92
462.22	8418.91
462.40	7875.90
462.59	7906.33
462.77	7964.84
462.95	7875.90
463.13	8004.63
463.32	7878.24
463.50	7981.23
463.68	7894.63
463.86	8067.83
464.05	8081.87
464.23	7838.45
464.41	8344.01
464.59	8114.64
464.78	8264.43
464.96	8166.13
465.14	8021.02
465.32	8334.65
465.50	8383.80
465.69	8128.68
465.87	8187.19
466.05	8339.33
466.23	8278.47
466.41	8428.27
466.60	8617.85
466.78	8271.45
466.96	8322.94
467.14	8372.10
467.32	8472.74
467.51	8692.75
467.69	8456.36
467.87	8327.63
468.05	8428.27
468.23	8540.61
468.41	8512.53
468.60	8692.75
468.78	8678.71
468.96	8765.31
469.14	8812.12
469.32	8566.36
469.50	8468.06
469.69	8894.04
469.87	9062.55
470.05	8798.07
470.23	8828.50
470.41	8887.01
470.59	9146.81
470.77	8975.95
470.95	9055.53
471.14	9085.96
471.32	9001.70
471.50	9451.08
471.68	9116.39
471.86	9460.45
472.04	9369.16
472.22	9305.97
472.40	9221.71
472.58	9490.87
472.77	9329.38
472.95	9540.02
473.13	9804.50
473.31	9479.17
473.49	9657.05
473.67	9521.30
473.85	9556.41
474.03	10122.82
474.21	9912.17
474.39	10061.96
474.57	9769.40
474.75	10015.15
474.93	9989.41
475.12	9870.04
475.30	10195.37
475.48	10010.47
475.66	10064.30
475.84	10312.40
476.02	10349.85
476.20	10289.00
476.38	10590.92
476.56	10581.56
476.74	10630.71
476.92	10597.95
477.10	10726.68
477.28	10719.65
477.46	10740.72
477.64	11178.40
477.82	11325.85
478.00	11330.53
478.18	11300.11
478.36	11204.14
478.54	11580.97
478.72	11665.23
478.90	11800.98
479.08	11573.95
479.26	11770.55
479.44	11789.28
479.62	12004.61
479.80	12109.93
479.98	12245.68
480.16	12271.43
480.34	12138.02
480.52	12641.23
480.70	12613.15
480.88	12280.79
481.06	12461.01
481.24	12739.54
481.41	12844.86
481.59	12987.63
481.77	13025.08
481.95	13069.55
482.13	13212.32
482.31	13266.16
482.49	13783.41
482.67	13413.61
482.85	13591.49
483.03	13832.57
483.21	13855.97
483.39	13839.59
483.57	13923.85
483.74	14375.57
483.92	14167.26
484.10	14197.69
484.28	14251.52
484.46	14579.20
484.64	14867.08
484.82	14485.58
485.00	14878.79
485.18	14827.29
485.35	14949.00
485.53	15002.83
485.71	14981.77
485.89	15445.20
486.07	15382.00
486.25	15461.58
486.43	15620.74
486.61	15817.34
486.78	15999.90
486.96	15999.90
487.14	16163.74
487.32	16145.02
487.50	16358.00
487.68	16498.44
487.85	16638.87
488.03	16788.66
488.21	17027.40
488.39	17123.36
488.57	17174.85
488.75	17280.18
488.92	17476.78
489.10	17544.66
489.28	17797.43
489.46	17996.38
489.64	17884.03
489.81	18558.11
489.99	18420.02
490.17	18420.02
490.35	18923.23
490.53	18595.56
490.70	18682.16
490.88	18700.88
491.06	18841.31
491.24	18953.66
491.41	19042.60
491.59	19204.10
491.77	19047.28
491.95	19674.54
492.13	19489.64
492.30	19681.56
492.48	20006.90
492.66	20088.82
492.84	20002.22
493.01	20060.73
493.19	20016.26
493.37	20329.89
493.54	20315.85
493.72	20620.12
493.90	20510.11
494.08	20793.32
494.25	21312.92
494.43	21638.25
494.61	21439.31
494.79	21455.69
494.96	21172.49
495.14	21617.19
495.32	21357.39
495.49	21448.67
495.67	21720.17
495.85	21841.88
496.02	22082.95
496.20	22251.47
496.38	22338.07
496.55	22295.94
496.73	22757.03
496.91	22520.63
497.09	23042.57
497.26	23253.22
497.44	22754.69
497.62	23049.60
497.79	23250.88
497.97	23183.01
498.14	23461.53
498.32	23503.66
498.50	23461.53
498.67	23805.59
498.85	23917.93
499.03	24137.94
499.20	23971.77
499.38	24130.92
499.56	24196.46
499.73	24299.44
499.91	24257.31
500.08	24711.38
500.26	24606.05
500.44	24676.27
500.61	24746.48
500.79	24451.58
500.97	24655.20
501.14	24994.58
501.32	25039.05
501.49	25109.27
501.67	25266.08
501.84	25497.80
502.02	25495.46
502.20	25589.08
502.37	26022.08
502.55	25418.22
502.72	25972.92
502.90	25813.77
503.07	25792.70
503.25	26244.43
503.43	26281.88
503.60	26155.49
503.78	26082.93
503.95	26157.83
504.13	26419.97
504.30	26618.91
504.48	26384.86
504.65	26775.73
504.83	26693.81
505.01	26836.58
505.18	26937.23
505.36	27435.76
505.53	26969.99
505.71	27325.75
505.88	27115.11
506.06	26969.99
506.23	27669.81
506.41	27147.87
506.58	27571.51
506.76	27564.49
506.93	27868.76
507.11	27527.04
507.28	27786.84
507.46	27768.12
507.63	27896.85
507.81	28425.81
507.98	27892.16
508.16	28016.21
508.33	28294.74
508.50	28442.19
508.68	28610.71
508.85	28905.62
509.03	28552.20
509.20	28893.91
509.38	28978.17
509.55	28694.97
509.73	29151.37
509.90	29153.71
510.08	29179.46
510.25	29198.18
510.42	29252.02
510.60	28985.19
510.77	29193.50
510.95	29408.83
511.12	29457.98
511.30	29816.08
511.47	29898.00
511.64	30024.39
511.82	29720.12
511.99	29757.57
512.17	30457.39
512.34	30291.21
512.51	30309.94
512.69	30579.10
512.86	30583.78
513.04	30515.90
513.21	30684.42
513.38	30448.03
513.56	30572.08
513.73	30628.25
513.90	30932.52
514.08	30611.87
514.25	31147.85
514.43	31211.04
514.60	30897.41
514.77	30976.99
514.95	31667.45
515.12	31672.13
515.29	31555.10
515.47	31417.01
515.64	31562.12
515.81	31269.56
515.99	31374.88
516.16	31761.07
516.33	31620.64
516.51	31578.51
516.68	31421.69
516.85	31522.34
517.03	31676.81
517.20	32063.00
517.37	31936.61
517.54	32357.91
517.72	32385.99
517.89	32016.19
518.06	32198.75
518.24	31655.75
518.41	32231.52
518.58	32559.19
518.75	32430.46
518.93	33046.02
519.10	32919.63
519.27	33198.16
519.45	32875.16
519.62	33282.42
519.79	32886.87
519.96	33497.75
520.14	33303.48
520.31	33209.86
520.48	33151.35
520.65	33610.09
520.83	33642.86
521.00	33692.01
521.17	33804.36
521.34	33773.93
521.52	33996.28
521.69	34017.35
521.86	34239.70
522.03	33841.81
522.20	33811.38
522.38	34277.15
522.55	34174.16
522.72	34408.22
522.89	34342.68
523.07	34169.48
523.24	34260.76
523.41	34827.17
523.58	34412.90
523.75	34927.81
523.92	34607.16
524.10	34993.35
524.27	34827.17
524.44	34579.07
524.61	34799.08
524.78	35196.98
524.96	35222.72
525.13	35211.02
525.30	35302.30
525.47	35529.33
525.64	35014.41
525.81	35330.39
525.98	35744.66
526.16	35431.03
526.33	35215.70
526.50	36055.95
526.67	35384.22
526.84	35204.00
527.01	35587.85
527.18	35985.74
527.36	35831.26
527.53	36079.36
527.70	36109.78
527.87	36147.23
528.04	36182.34
528.21	35866.37
528.38	36084.04
528.55	36376.61
528.72	36142.55
528.89	36467.89
529.07	36418.74
529.24	36329.80
529.41	36528.74
529.58	36172.98
529.75	36114.47
529.92	36992.17
530.09	36795.56
530.26	36727.69
530.43	36882.16
530.60	36521.72
530.77	36669.17
530.94	37003.87
531.11	36741.73
531.28	37244.94
531.46	37020.25
531.63	37111.53
531.80	37036.64
531.97	36882.16
532.14	37141.96
532.31	37053.02
532.48	37359.63
532.65	37479.00
532.82	37116.22
532.99	37715.39
533.16	37397.08
533.33	37336.23
533.50	37710.71
533.67	37621.77
533.84	37563.26
534.01	37862.85
534.18	37525.81
534.35	38487.77
534.52	37663.90
534.69	38141.37
534.86	38110.94
535.03	37872.21
535.20	38616.50
535.37	38422.23
535.54	38466.70
535.71	38251.38
535.88	37961.15
536.05	38092.22
536.22	38426.92
536.38	38637.56
536.55	38345.00
536.72	38522.88
536.89	38209.25
537.06	38504.15
537.23	38754.59
537.40	38337.98
537.57	38670.33
537.74	38770.97
537.91	39110.35
538.08	39297.59
538.25	38511.17
538.42	39489.52
538.59	39098.65
538.75	38986.30
538.92	39077.58
539.09	39115.03
539.26	39033.11
539.43	38953.54
539.60	39578.46
539.77	38733.53
539.94	39089.29
540.11	39264.83
540.28	39435.69
540.44	39372.49
540.61	39466.11
540.78	39318.66
540.95	39461.43
541.12	39669.74
541.29	39487.18
541.46	39854.64
541.62	39770.38
541.79	39555.05
541.96	39566.76
542.13	39400.58
542.30	40095.72
542.47	40212.74
542.63	39674.42
542.80	40346.15
542.97	40341.47
543.14	40580.21
543.31	40608.29
543.48	40348.50
543.64	40968.74
543.81	40430.41
543.98	40491.27
544.15	40556.80
544.32	40624.68
544.48	41127.89
544.65	40339.13
544.82	40662.13
544.99	40840.01
545.16	40760.43
545.32	40451.48
545.49	40992.14
545.66	40741.71
545.83	41177.04
546.00	41155.98
546.16	41226.20
546.33	40884.48
546.50	40690.21
546.67	40832.99
546.83	40568.51
547.00	41160.66
547.17	40994.48
547.34	41095.13
547.50	41127.89
547.67	41640.47
547.84	41514.08
548.00	41722.39
548.17	41553.87
548.34	41209.81
548.51	41649.83
548.67	41689.62
548.84	42073.47
549.01	41481.31
549.18	41752.82
549.34	41769.20
549.51	42075.81
549.68	41647.49
549.84	42312.20
550.01	41989.21
550.18	41766.86
550.34	41837.08
550.51	41228.54
550.68	41483.66
550.84	41347.90
551.01	41748.14
551.18	41982.19
551.34	42094.53
551.51	42635.20
551.68	42108.58
551.84	42139.00
552.01	42122.62
552.18	42485.40
552.34	42139.00
552.51	42174.11
552.68	42429.23
552.84	42295.82
553.01	42263.05
553.18	42366.04
553.34	42190.50
553.51	42419.87
553.67	42719.46
553.84	42534.56
554.01	42689.03
554.17	42920.74
554.34	42663.28
554.51	42749.88
554.67	42965.21
554.84	43332.68
555.00	42937.13
555.17	42766.27
555.33	42855.21
555.50	42965.21
555.67	43395.87
555.83	43021.39
556.00	42969.90
556.16	43262.46
556.33	43035.43
556.50	42691.37
556.66	43295.23
556.83	43042.45
556.99	43056.50
557.16	42857.55
557.32	43440.34
557.49	43309.27
557.65	43058.84
557.82	42616.47
557.98	42600.09
558.15	43023.73
558.32	42960.53
558.48	43089.26
558.65	43012.02
558.81	43122.03
558.98	43463.75
559.14	43257.78
559.31	43318.64
559.47	43044.79
559.64	43653.33
559.80	43866.32
559.97	43674.40
560.13	43557.37
560.30	43264.80
560.46	43765.68
560.63	43658.01
560.79	43866.32
560.96	43929.51
561.12	43393.53
561.29	43370.13
561.45	43679.08
561.61	43735.25
561.78	43241.40
561.94	43323.32
562.11	43332.68
562.27	43187.56
562.44	43826.53
562.60	43585.46
562.77	43789.08
562.93	43468.43
563.10	43555.03
563.26	43749.29
563.42	43957.60
563.59	43746.95
563.75	43906.11
563.92	43985.69
564.08	44201.02
564.24	44142.50
564.41	44168.25
564.57	43812.49
564.74	43576.09
564.90	43775.04
565.07	44376.56
565.23	44093.35
565.39	43976.33
565.56	44390.60
565.72	43959.94
565.88	44037.18
566.05	43690.78
566.21	43700.14
566.38	43819.51
566.54	44107.40
566.70	44039.52
566.87	44481.88
567.03	43835.89
567.19	44332.09
567.36	44634.02
567.52	44051.22
567.68	44137.82
567.85	43826.53
568.01	44137.82
568.17	43962.28
568.34	44346.13
568.50	44041.86
568.66	43786.74
568.83	44060.58
568.99	44037.18
569.15	44547.42
569.32	43842.92
569.48	43835.89
569.64	44540.39
569.81	44465.50
569.97	44435.07
570.13	44226.76
570.30	43674.40
570.46	43966.96
570.62	44065.27
570.78	44123.78
570.95	44109.74
571.11	44524.01
571.27	44072.29
571.43	44493.58
571.60	44257.19
571.76	44231.44
571.92	44521.67
572.09	43695.46
572.25	44027.82
572.41	44460.82
572.57	44268.89
572.74	45219.15
572.90	44584.86
573.06	44137.82
573.22	44198.68
573.38	44404.64
573.55	43775.04
573.71	44458.48
573.87	44472.52
574.03	43838.23
574.20	44507.63
574.36	44081.65
574.52	44769.77
574.68	44432.73
574.84	44575.50
575.01	44343.79
575.17	44706.57
575.33	44296.98
575.49	44301.66
575.65	44830.62
575.82	44870.41
575.98	44662.10
576.14	44528.69
576.30	44952.33
576.46	44589.55
576.62	44215.06
576.79	44718.28
576.95	44083.99
577.11	44737.00
577.27	44643.38
577.43	44516.99
577.59	44378.90
577.75	44521.67
577.92	44112.08
578.08	44289.96
578.24	44369.54
578.40	44364.85
578.56	44477.20
578.72	44140.16
578.88	44641.04
579.04	45059.99
579.21	44748.70
579.37	44428.05
579.53	44973.39
579.69	44219.74
579.85	44559.12
580.01	44996.80
580.17	44563.80
580.33	44816.58
580.49	44947.65
580.65	44617.63
580.82	44875.09
580.98	44605.93
581.14	44669.12
581.30	45090.42
581.46	44266.55
581.62	44673.81
581.78	44449.11
581.94	44938.29
582.10	44697.21
582.26	44713.59
582.42	44524.01
582.58	44835.30
582.74	43798.44
582.90	44711.25
583.06	44854.03
583.22	44957.01
583.38	44472.52
583.54	44528.69
583.70	44208.04
583.86	44484.22
584.02	44264.21
584.18	44704.23
584.34	44559.12
584.50	44524.01
584.66	44535.71
584.82	44320.38
584.98	44954.67
585.14	44772.11
585.30	44793.17
585.46	44486.56
585.62	44500.61
585.78	44746.36
585.94	44268.89
586.10	44603.59
586.26	44816.58
586.42	45071.70
586.58	44762.75
586.74	44570.82
586.90	44114.42
587.06	44528.69
587.22	44971.05
587.38	44837.64
587.54	44762.75
587.70	45045.95
587.86	45167.66
588.02	44762.75
588.18	45029.57
588.34	44996.80
588.49	44474.86
588.65	44727.64
588.81	43973.98
588.97	44208.04
589.13	44294.64
589.29	44477.20
589.45	45099.78
589.61	44662.10
589.77	44729.98
589.93	44959.35
590.08	45078.72
590.24	45067.02
