SpectraSuite Data File
++++++++++++++++++++++++++++++++++++
Date: Fri Oct 25 10:48:14 EDT 2013
User: price-jones
Dark Spectrum Present: No
Reference Spectrum Present: No
Number of Sampled Component Spectra: 1
Spectrometers: USB2+H05261
Integration Time (usec): 100000 (USB2+H05261)
Spectra Averaged: 1 (USB2+H05261)
Boxcar Smoothing: 0 (USB2+H05261)
Correct for Electrical Dark: No (USB2+H05261)
Strobe/Lamp Enabled: No (USB2+H05261)
Correct for Detector Non-linearity: No (USB2+H05261)
Correct for Stray Light: No (USB2+H05261)
Number of Pixels in Processed Spectrum: 2048
>>>>>Begin Processed Spectral Data<<<<<
365.73	138.09
365.92	138.09
366.12	138.09
366.32	23.41
366.52	0.00
366.72	135.75
366.91	23.41
367.11	25.75
367.31	30.43
367.51	51.49
367.70	18.72
367.90	37.45
368.10	95.96
368.30	86.60
368.49	81.92
368.69	74.90
368.89	35.11
369.09	7.02
369.28	110.01
369.48	74.90
369.68	74.90
369.87	142.77
370.07	126.39
370.27	180.22
370.47	222.35
370.66	421.30
370.86	390.87
371.06	395.55
371.25	493.85
371.45	451.72
371.65	461.09
371.84	451.72
372.04	482.15
372.24	472.79
372.44	512.58
372.63	465.77
372.83	505.56
373.03	477.47
373.22	498.53
373.42	528.96
373.62	472.79
373.81	493.85
374.01	578.11
374.21	561.73
374.40	554.71
374.60	587.47
374.79	582.79
374.99	540.66
375.19	505.56
375.38	573.43
375.58	608.54
375.78	561.73
375.97	620.24
376.17	641.31
376.37	606.20
376.56	543.00
376.76	645.99
376.95	699.82
377.15	627.26
377.35	690.46
377.54	631.94
377.74	559.39
377.93	613.22
378.13	606.20
378.33	676.41
378.52	685.78
378.72	704.50
378.91	716.20
379.11	653.01
379.31	599.18
379.50	559.39
379.70	667.05
379.89	669.39
380.09	692.80
380.28	683.44
380.48	664.71
380.68	653.01
380.87	608.54
381.07	732.59
381.26	732.59
381.46	767.70
381.65	720.88
381.85	737.27
382.04	678.76
382.24	741.95
382.43	697.48
382.63	711.52
382.83	713.86
383.02	732.59
383.22	720.88
383.41	648.33
383.61	704.50
383.80	725.57
384.00	779.40
384.19	767.70
384.39	713.86
384.58	753.65
384.78	772.38
384.97	777.06
385.17	816.85
385.36	746.63
385.56	791.10
385.75	788.76
385.95	849.61
386.14	884.72
386.34	772.38
386.53	868.34
386.72	863.66
386.92	798.12
387.11	908.13
387.31	842.59
387.50	816.85
387.70	835.57
387.89	891.74
388.09	882.38
388.28	828.55
388.48	861.32
388.67	990.05
388.86	922.17
389.06	908.13
389.25	947.92
389.45	837.91
389.64	924.51
389.84	889.40
390.03	992.39
390.22	973.66
390.42	968.98
390.61	929.19
390.81	1022.81
391.00	1032.18
391.19	1022.81
391.39	1004.09
391.58	912.81
391.78	957.28
391.97	985.37
392.16	966.64
392.36	983.02
392.55	1006.43
392.75	1008.77
392.94	976.00
393.13	971.32
393.33	947.92
393.52	983.02
393.71	1144.52
393.91	1022.81
394.10	1064.94
394.29	1050.90
394.49	1102.39
394.68	1153.88
394.88	1022.81
395.07	1231.12
395.26	1233.46
395.46	1207.72
395.65	1172.61
395.84	1139.84
396.04	1170.27
396.23	1170.27
396.42	1116.44
396.62	1158.57
396.81	1193.67
397.00	1121.12
397.19	1238.14
397.39	1252.19
397.58	1291.98
397.77	1256.87
397.97	1289.64
398.16	1282.61
398.35	1366.87
398.55	1207.72
398.74	1432.41
398.93	1378.58
399.12	1390.28
399.32	1334.11
399.51	1348.15
399.70	1430.07
399.90	1376.24
400.09	1535.39
400.28	1434.75
400.47	1437.09
400.67	1502.62
400.86	1593.90
401.05	1521.35
401.24	1572.84
401.44	1600.93
401.63	1549.43
401.82	1570.50
402.01	1561.14
402.21	1579.86
402.40	1631.35
402.59	1668.80
402.78	1629.01
402.97	1575.18
403.17	1617.31
403.36	1671.14
403.55	1626.67
403.74	1724.97
403.93	1746.04
404.13	1778.81
404.32	1785.83
404.51	1703.91
404.70	1689.87
404.89	1753.06
405.09	1902.86
405.28	1769.44
405.47	1743.70
405.66	1856.04
405.85	1762.42
406.05	1736.68
406.24	1900.52
406.43	1930.94
406.62	1900.52
406.81	1870.09
407.00	1860.73
407.20	1935.62
407.39	1827.96
407.58	1996.48
407.77	1944.99
407.96	1947.33
408.15	2069.03
408.34	2057.33
408.54	1994.14
408.73	2036.27
408.92	2052.65
409.11	2059.67
409.30	1984.77
409.49	2071.37
409.68	2143.93
409.87	2143.93
410.07	2143.93
410.26	2265.64
410.45	2176.70
410.64	2237.55
410.83	2275.00
411.02	2305.43
411.21	2305.43
411.40	2289.04
411.59	2445.86
411.78	2410.75
411.98	2300.75
412.17	2487.99
412.36	2422.45
412.55	2473.95
412.74	2471.61
412.93	2518.42
413.12	2492.67
413.31	2654.17
413.50	2602.68
413.69	2579.27
413.88	2672.89
414.07	2647.15
414.26	2656.51
414.45	2782.90
414.64	2682.25
414.83	2672.89
415.02	2799.28
415.22	2876.52
415.41	2832.05
415.60	2829.71
415.79	2890.56
415.98	2937.37
416.17	2902.26
416.36	2888.22
416.55	2937.37
416.74	3030.99
416.93	3084.83
417.12	3094.19
417.31	3157.38
417.50	3016.95
417.69	3229.94
417.88	3309.52
418.07	3119.93
418.26	3211.22
418.45	3173.77
418.64	3358.67
418.83	3272.07
419.02	3328.24
419.21	3243.98
419.39	3391.44
419.58	3304.84
419.77	3208.87
419.96	3529.53
420.15	3396.12
420.34	3297.81
420.53	3414.84
420.72	3613.79
420.91	3632.51
421.10	3592.72
421.29	3482.72
421.48	3447.61
421.67	3417.18
421.86	3449.95
422.05	3585.70
422.24	3461.65
422.43	3499.10
422.61	3655.92
422.80	3618.47
422.99	3637.19
423.18	3651.24
423.37	3676.98
423.56	3662.94
423.75	3599.74
423.94	3595.06
424.13	3400.80
424.32	3485.06
424.50	3588.04
424.69	3749.54
424.88	3775.28
425.07	3648.90
425.26	3529.53
425.45	3602.08
425.64	3660.60
425.83	3641.87
426.01	3698.05
426.20	3681.66
426.39	3777.62
426.58	3691.02
426.77	3784.65
426.96	3681.66
427.15	3796.35
427.33	3782.31
427.52	3740.18
427.71	3726.13
427.90	3850.18
428.09	3934.44
428.28	3843.16
428.46	3922.74
428.65	3962.53
428.84	3929.76
429.03	4018.70
429.22	3939.12
429.40	3833.80
429.59	3943.80
429.78	3791.67
429.97	3735.50
430.16	3866.56
430.34	3859.54
430.53	3962.53
430.72	4128.70
430.91	3904.01
431.10	4028.06
431.28	4308.93
431.47	4252.75
431.66	4416.59
431.85	4287.86
432.03	4238.71
432.22	4409.57
432.41	4320.63
432.60	4327.65
432.79	4402.55
432.97	4458.72
433.16	4346.37
433.35	4290.20
433.54	4386.16
433.72	4383.82
433.91	4456.38
434.10	4465.74
434.28	4475.10
434.47	4496.17
434.66	4592.13
434.85	4561.70
435.03	4493.83
435.22	4514.89
435.41	4716.18
435.59	4652.98
435.78	4709.16
435.97	4723.20
436.16	4727.88
436.34	4681.07
436.53	4718.52
436.72	4983.00
436.90	4660.01
437.09	4774.69
437.28	4795.76
437.46	4858.95
437.65	4868.31
437.84	4898.74
438.02	4765.33
438.21	4814.48
438.40	4819.16
438.58	4964.28
438.77	5027.47
438.96	5081.30
439.14	5221.74
439.33	5235.78
439.52	5315.36
439.70	5329.40
439.89	5097.69
440.08	5177.26
440.26	5472.17
440.45	5369.19
440.63	5373.87
440.82	5366.85
441.01	5570.48
441.19	5504.94
441.38	5664.10
441.57	5600.90
441.75	5762.40
441.94	5685.16
442.12	5914.53
442.31	5893.47
442.50	5891.13
442.68	5860.70
442.87	5811.55
443.05	6050.28
443.24	5820.91
443.43	5968.37
443.61	6015.18
443.80	6286.68
443.98	5841.98
444.17	5872.40
444.35	6066.67
444.54	6076.03
444.73	6099.44
444.91	6085.39
445.10	5926.24
445.28	5987.09
445.47	5898.15
445.65	5830.27
445.84	5968.37
446.02	6104.12
446.21	6148.59
446.39	6043.26
446.58	6190.72
446.77	6001.13
446.95	5959.00
447.14	6069.01
447.32	6401.37
447.51	6352.21
447.69	6228.17
447.88	6289.02
448.06	6094.76
448.25	6204.76
448.43	6209.44
448.62	6207.10
448.80	6150.93
448.99	6359.24
449.17	6392.00
449.36	6366.26
449.54	6399.02
449.73	6410.73
449.91	6677.55
450.10	6511.37
450.28	6700.95
450.46	6471.58
450.65	6602.65
450.83	6707.98
451.02	6656.48
451.20	6693.93
451.39	6672.87
451.57	6509.03
451.76	6640.10
451.94	6588.61
452.13	6630.74
452.31	6719.68
452.49	6544.14
452.68	6712.66
452.86	6677.55
453.05	6658.82
453.23	6619.04
453.42	6794.58
453.60	6712.66
453.78	6857.77
453.97	6960.75
454.15	6839.05
454.34	6841.39
454.52	6860.11
454.70	6951.39
454.89	7033.31
455.07	6906.92
455.26	7101.19
455.44	6995.86
455.62	7009.90
455.81	7199.49
455.99	7293.11
456.17	7258.00
456.36	7105.87
456.54	7375.03
456.73	7485.03
456.91	7419.50
457.09	7513.12
457.28	7592.70
457.46	7286.09
457.64	7485.03
457.83	7414.82
458.01	7447.58
458.19	7798.66
458.38	7463.97
458.56	7786.96
458.74	7651.21
458.93	7728.45
459.11	7639.51
459.29	7712.07
459.48	7871.22
459.66	7740.15
459.84	7953.14
460.03	7801.01
460.21	7948.46
460.39	7737.81
460.57	7782.28
460.76	7836.11
460.94	7911.01
461.12	7932.08
461.31	7932.08
461.49	7967.18
461.67	8299.54
461.85	8177.83
462.04	7990.59
462.22	8505.51
462.40	8166.13
462.59	8327.63
462.77	8336.99
462.95	8351.03
463.13	8320.60
463.32	8196.56
463.50	8386.14
463.68	8711.47
463.86	8526.57
464.05	8013.99
464.23	8407.20
464.41	8292.52
464.59	8231.66
464.78	8610.83
464.96	8404.86
465.14	8528.91
465.32	8662.32
465.50	8617.85
465.69	8601.47
465.87	8456.36
466.05	8519.55
466.23	8723.18
466.41	8538.27
466.60	8678.71
466.78	8505.51
466.96	8613.17
467.14	8540.61
467.32	8870.63
467.51	8737.22
467.69	8568.70
467.87	8720.84
468.05	8807.44
468.23	8603.81
468.41	8711.47
468.60	9036.81
468.78	8791.05
468.96	8854.25
469.14	9081.28
469.32	9041.49
469.50	8877.65
469.69	9277.88
469.87	9469.81
470.05	9128.09
470.23	9008.72
470.41	9224.05
470.59	9217.03
470.77	9153.84
470.95	9247.46
471.14	9460.45
471.32	9399.59
471.50	9474.49
471.68	9469.81
471.86	9657.05
472.04	9781.10
472.22	10024.51
472.40	9437.04
472.58	9760.03
472.77	9659.39
472.95	9710.88
473.13	10413.04
473.31	9884.08
473.49	9767.06
473.67	9827.91
473.85	9921.53
474.03	10209.42
474.21	10092.39
474.39	10115.80
474.57	10263.25
474.75	10319.42
474.93	10471.56
475.12	10291.34
475.30	10513.69
475.48	10462.19
475.66	10619.01
475.84	10340.49
476.02	10490.28
476.20	10647.10
476.38	10864.77
476.56	11037.97
476.74	11133.93
476.92	11033.29
477.10	11145.63
477.28	11272.02
477.46	11351.60
477.64	11330.53
477.82	11737.79
478.00	11618.42
478.18	11641.82
478.36	11786.94
478.54	11936.73
478.72	11925.03
478.90	11988.22
479.08	12119.29
479.26	12500.80
479.44	12535.91
479.62	12241.00
479.80	12451.65
479.98	12348.67
480.16	12730.17
480.34	12526.55
480.52	12725.49
480.70	12575.70
480.88	12627.19
481.06	12737.20
481.24	13041.46
481.41	13001.68
481.59	13451.06
481.77	13425.31
481.95	13631.28
482.13	13680.43
482.31	13380.84
482.49	14026.83
482.67	13895.76
482.85	14139.18
483.03	14122.79
483.21	14448.13
483.39	14251.52
483.57	14258.54
483.74	14572.18
483.92	14668.14
484.10	14579.20
484.28	15138.58
484.46	15140.93
484.64	15325.83
484.82	15037.94
485.00	15194.76
485.18	15384.34
485.35	15484.98
485.53	15330.51
485.71	15391.36
485.89	15756.49
486.07	15690.95
486.25	15838.41
486.43	15885.22
486.61	16077.14
486.78	16194.17
486.96	16437.58
487.14	16563.97
487.32	16685.68
487.50	16842.50
487.68	17319.96
487.85	17069.53
488.03	17301.24
488.21	17561.04
488.39	17577.42
488.57	17855.95
488.75	17532.95
488.92	17797.43
489.10	18139.15
489.28	18239.79
489.46	18621.30
489.64	18480.87
489.81	18799.18
489.99	18703.22
490.17	18785.14
490.35	19091.75
490.53	18862.38
490.70	19405.38
490.88	19234.52
491.06	19613.69
491.24	19587.94
491.41	19391.34
491.59	19875.83
491.77	19754.12
491.95	19782.21
492.13	20175.42
492.30	20137.97
492.48	20472.67
492.66	20475.01
492.84	20460.96
493.01	20830.77
493.19	20697.36
493.37	21118.65
493.54	21034.39
493.72	21010.99
493.90	21282.49
494.08	21577.40
494.25	21701.45
494.43	21839.54
494.61	22068.91
494.79	22302.96
494.96	21954.22
495.14	22010.40
495.32	22302.96
495.49	22434.03
495.67	22469.14
495.85	22675.11
496.02	23180.67
496.20	23131.51
496.38	23136.20
496.55	22951.29
496.73	23529.41
496.91	23194.71
497.09	23424.08
497.26	23323.44
497.44	23522.38
497.62	23632.39
497.79	23995.17
497.97	23782.18
498.14	24034.96
498.32	23962.40
498.50	24297.10
498.67	24442.21
498.85	24664.57
499.03	24753.51
499.20	24748.82
499.38	24643.50
499.56	24980.54
499.73	25235.66
499.91	24655.20
500.08	25235.66
500.26	24903.30
500.44	25619.50
500.61	25537.59
500.79	25326.94
500.97	25649.93
501.14	26026.76
501.32	25825.47
501.49	25741.21
501.67	25881.64
501.84	25900.37
502.02	25912.07
502.20	26012.71
502.37	26359.11
502.55	26436.35
502.72	26181.23
502.90	26438.69
503.07	26396.56
503.25	26986.38
503.43	26904.46
503.60	26424.65
503.78	26859.99
503.95	26658.70
504.13	27187.66
504.30	27143.19
504.48	26981.70
504.65	27557.47
504.83	27379.59
505.01	27697.90
505.18	27550.45
505.36	27824.29
505.53	27590.24
505.71	28224.52
505.88	28037.28
506.06	27931.95
506.23	27763.43
506.41	28196.43
506.58	28339.21
506.76	28180.05
506.93	28292.40
507.11	28381.34
507.28	28231.54
507.46	28503.04
507.63	28423.47
507.81	28746.46
507.98	28687.95
508.16	28762.84
508.33	29429.90
508.50	28896.25
508.68	28819.02
508.85	29237.97
509.03	29558.63
509.20	29268.40
509.38	29305.85
509.55	29256.70
509.73	29881.62
509.90	29727.14
510.08	29460.32
510.25	29703.74
510.42	29804.38
510.60	30288.87
510.77	30466.75
510.95	30649.32
511.12	30309.94
511.30	30363.77
511.47	31047.21
511.64	30754.64
511.82	30965.29
511.99	30981.67
512.17	30799.11
512.34	30630.59
512.51	30967.63
512.69	31061.25
512.86	31185.30
513.04	31061.25
513.21	31208.70
513.38	31079.97
513.56	31562.12
513.73	31199.34
513.90	31704.90
514.08	31398.29
514.25	31583.19
514.43	31943.63
514.60	31721.28
514.77	31744.69
514.95	31803.20
515.12	31929.59
515.29	31723.62
515.47	32329.82
515.64	32271.31
515.81	32114.49
515.99	32273.65
516.16	32355.57
516.33	32407.06
516.51	32418.76
516.68	32091.09
516.85	32240.88
517.03	32011.51
517.20	32400.04
517.37	32650.47
517.54	32840.06
517.72	32762.82
517.89	32753.46
518.06	32879.85
518.24	32730.05
518.41	32856.44
518.58	33205.18
518.75	32917.29
518.93	33422.85
519.10	33186.46
519.27	33144.33
519.45	33212.20
519.62	33862.87
519.79	33825.42
519.96	33865.21
520.14	34333.32
520.31	33818.40
520.48	34515.88
520.65	34036.07
520.83	34464.39
521.00	34340.34
521.17	34080.54
521.34	34204.59
521.52	34625.89
521.69	34855.26
521.86	34726.53
522.03	34429.28
522.20	34836.53
522.38	34663.33
522.55	34981.65
522.72	34550.99
522.89	34710.14
523.07	35091.65
523.24	35110.38
523.41	35447.41
523.58	35047.18
523.75	35379.54
523.92	35534.01
524.10	35194.64
524.27	36217.45
524.44	35849.99
524.61	35592.53
524.78	35983.40
524.96	36144.89
525.13	36187.02
525.30	36381.29
525.47	36250.22
525.64	35833.60
525.81	36165.96
525.98	35782.11
526.16	35758.70
526.33	36161.28
526.50	36451.50
526.67	35899.14
526.84	36055.95
527.01	36180.00
527.18	36264.26
527.36	36514.70
527.53	36584.91
527.70	36519.38
527.87	36751.09
528.04	36538.10
528.21	36615.34
528.38	37055.36
528.55	36966.42
528.72	37376.01
528.89	37298.78
529.07	37441.55
529.24	36893.86
529.41	37226.22
529.58	36840.03
529.75	37064.72
529.92	37242.60
530.09	37490.70
530.26	37790.29
530.43	37273.03
530.60	37116.22
530.77	37132.60
530.94	37748.16
531.11	37514.11
531.28	37830.08
531.46	38040.73
531.63	38024.34
531.80	38005.62
531.97	38026.68
532.14	37998.60
532.31	37558.58
532.48	38225.63
532.65	38363.72
532.82	37951.79
532.99	38129.67
533.16	38108.60
533.33	37940.08
533.50	38719.48
533.67	38323.93
533.84	38237.33
534.01	38361.38
534.18	38532.24
534.35	38752.25
534.52	38445.64
534.69	39007.37
534.86	38951.20
535.03	39248.44
535.20	39098.65
535.37	38920.77
535.54	39166.52
535.71	38883.32
535.88	38810.76
536.05	39175.89
536.22	39487.18
536.38	39922.52
536.55	39367.81
536.72	39388.88
536.89	39187.59
537.06	39489.52
537.23	39482.50
537.40	39246.10
537.57	39636.97
537.74	39508.24
537.91	39810.17
538.08	39438.03
538.25	39894.43
538.42	39859.32
538.59	39651.02
538.75	39674.42
538.92	39501.22
539.09	39831.24
539.26	40149.55
539.43	40423.39
539.60	39861.66
539.77	39971.67
539.94	40023.16
540.11	40072.31
540.28	40119.12
540.44	39966.99
540.61	40437.44
540.78	40016.14
540.95	40051.25
541.12	40119.12
541.29	40397.65
541.46	40212.74
541.62	40725.32
541.79	40994.48
541.96	40261.90
542.13	40341.47
542.30	40432.75
542.47	40666.81
542.63	40760.43
542.80	40624.68
542.97	41317.48
543.14	40882.14
543.31	41090.44
543.48	41338.54
543.64	41406.42
543.81	41167.68
543.98	41493.02
544.15	41301.09
544.32	41448.55
544.48	41635.79
544.65	41387.69
544.82	41537.49
544.99	40847.03
545.16	41270.67
545.32	41495.36
545.49	41860.48
545.66	42272.42
545.83	41886.23
546.00	42249.01
546.16	41853.46
546.33	41235.56
546.50	41523.44
546.67	41839.42
546.83	41027.25
547.00	41926.02
547.17	41696.64
547.34	41848.78
547.50	41816.01
547.67	42328.59
547.84	41734.09
548.00	42333.27
548.17	42745.20
548.34	42087.51
548.51	42127.30
548.67	42394.12
548.84	41937.72
549.01	42272.42
549.18	42799.04
549.34	42827.12
549.51	42436.25
549.68	42422.21
549.84	42206.88
550.01	42703.07
550.18	42590.73
550.34	42417.53
550.51	42630.52
550.68	42768.61
550.84	42515.83
551.01	42997.98
551.18	42855.21
551.34	42569.66
551.51	42642.22
551.68	43129.05
551.84	43206.29
552.01	42644.56
552.18	43309.27
552.34	42761.59
552.51	43178.20
552.68	43522.26
552.84	42965.21
553.01	43033.09
553.18	43335.02
553.34	43337.36
553.51	43175.86
553.67	43501.20
553.84	43332.68
554.01	43372.47
554.17	43440.34
554.34	43555.03
554.51	43143.09
554.67	43700.14
554.84	43093.94
555.00	43215.65
555.17	43147.78
555.33	43100.97
555.50	43210.97
555.67	43821.85
555.83	43948.24
556.00	43721.21
556.16	43611.20
556.33	43456.73
556.50	43723.55
556.66	44044.20
556.83	43679.08
556.99	43966.96
557.16	44135.48
557.32	43559.71
557.49	44259.53
557.65	43627.59
557.82	43941.22
557.98	43641.63
558.15	43842.92
558.32	44313.36
558.48	43770.36
558.65	44062.93
558.81	43557.37
558.98	44191.65
559.14	43854.62
559.31	43777.38
559.47	44086.33
559.64	44334.43
559.80	44076.97
559.97	43739.93
560.13	43889.73
560.30	44041.86
560.46	43929.51
560.63	43611.20
560.79	44486.56
560.96	44341.45
561.12	44294.64
561.29	44582.52
561.45	44385.92
561.61	44238.47
561.78	43859.30
561.94	44161.23
562.11	43906.11
562.27	44126.12
562.44	44149.53
562.60	44652.74
562.77	44605.93
562.93	44385.92
563.10	44690.19
563.26	44191.65
563.42	44645.72
563.59	44650.40
563.75	44378.90
563.92	44790.83
564.08	44776.79
564.24	44935.95
564.41	44610.61
564.57	44683.17
564.74	44587.21
564.90	44573.16
565.07	44659.76
565.23	44701.89
565.39	44421.03
565.56	44460.82
565.72	44505.29
565.88	44402.30
566.05	44830.62
566.21	44697.21
566.38	44456.14
566.54	44395.28
566.70	44697.21
566.87	45090.42
567.03	44823.60
567.19	45027.23
567.36	44645.72
567.52	44655.08
567.68	45041.27
567.85	44870.41
568.01	44870.41
568.17	44940.63
568.34	44369.54
568.50	44425.71
568.66	45027.23
568.83	44844.66
568.99	44603.59
569.15	44793.17
569.32	44933.60
569.48	44849.35
569.64	45268.30
569.81	45399.37
569.97	44746.36
570.13	44629.34
570.30	44430.39
570.46	44699.55
570.62	44610.61
570.78	44713.59
570.95	44598.91
571.11	44818.92
571.27	44711.25
571.43	44931.26
571.60	45139.57
571.76	44477.20
571.92	45226.17
572.09	44882.11
572.25	45069.36
572.41	44706.57
572.57	45127.87
572.74	45624.06
572.90	45392.35
573.06	45401.71
573.22	45500.01
573.38	44952.33
573.55	45022.54
573.71	45191.06
573.87	45249.58
574.03	45031.91
574.20	44512.31
574.36	44884.45
574.52	45565.55
574.68	44634.02
574.84	45015.52
575.01	44949.99
575.17	45191.06
575.33	44479.54
575.49	44854.03
575.65	45455.54
575.82	45289.37
575.98	45291.71
576.14	45439.16
576.30	45125.53
576.46	45315.11
576.62	44842.32
576.79	44783.81
576.95	44837.64
577.11	45235.53
577.27	45106.80
577.43	44935.95
577.59	44800.19
577.75	44851.69
577.92	44781.47
578.08	45031.91
578.24	44725.30
578.40	44891.48
578.56	44968.71
578.72	45041.27
578.88	45649.81
579.04	44964.03
579.21	44905.52
579.37	44989.78
579.53	45244.90
579.69	44603.59
579.85	45013.18
580.01	45198.09
580.17	45216.81
580.33	45855.78
580.49	45654.49
580.65	45162.98
580.82	45188.72
580.98	45010.84
581.14	45422.78
581.30	45134.89
581.46	45153.62
581.62	45357.24
581.78	45326.81
581.94	45638.11
582.10	45865.14
582.26	45062.33
582.42	44919.56
582.58	45446.18
582.74	45441.50
582.90	45539.80
583.06	45521.08
583.22	45029.57
583.38	45394.69
583.54	45359.58
583.70	44968.71
583.86	45242.56
584.02	45076.38
584.18	45382.99
584.34	45375.97
584.50	45425.12
584.66	45420.44
584.82	45460.23
584.98	45256.60
585.14	45490.65
585.30	45193.40
585.46	45689.60
585.62	45097.44
585.78	45024.89
585.94	45160.64
586.10	44577.84
586.26	45399.37
586.42	45322.13
586.58	45296.39
586.74	45251.92
586.90	45401.71
587.06	45469.59
587.22	45450.86
587.38	44669.12
587.54	45322.13
587.70	45656.83
587.86	45352.56
588.02	45724.71
588.18	45312.77
588.34	45413.41
588.49	44957.01
588.65	44807.22
588.81	44891.48
588.97	45083.40
589.13	44839.98
589.29	44945.31
589.45	45254.26
589.61	45308.09
589.77	45741.09
589.93	45298.73
590.08	45436.82
