SpectraSuite Data File
++++++++++++++++++++++++++++++++++++
Date: Fri Oct 25 10:43:56 EDT 2013
User: price-jones
Dark Spectrum Present: No
Reference Spectrum Present: No
Number of Sampled Component Spectra: 1
Spectrometers: USB2+H05261
Integration Time (usec): 100000 (USB2+H05261)
Spectra Averaged: 1 (USB2+H05261)
Boxcar Smoothing: 0 (USB2+H05261)
Correct for Electrical Dark: No (USB2+H05261)
Strobe/Lamp Enabled: No (USB2+H05261)
Correct for Detector Non-linearity: No (USB2+H05261)
Correct for Stray Light: No (USB2+H05261)
Number of Pixels in Processed Spectrum: 2048
>>>>>Begin Processed Spectral Data<<<<<
365.73	138.09
365.92	138.09
366.12	138.09
366.32	18.72
366.52	0.00
366.72	39.79
366.91	46.81
367.11	32.77
367.31	7.02
367.51	60.85
367.70	117.03
367.90	74.90
368.10	56.17
368.30	0.00
368.49	0.00
368.69	37.45
368.89	25.75
369.09	0.00
369.28	7.02
369.48	51.49
369.68	53.83
369.87	67.88
370.07	95.96
370.27	154.48
370.47	156.82
370.66	341.72
370.86	351.08
371.06	545.34
371.25	498.53
371.45	435.34
371.65	498.53
371.84	416.62
372.04	486.83
372.24	491.51
372.44	557.05
372.63	461.09
372.83	479.81
373.03	580.45
373.22	521.94
373.42	528.96
373.62	573.43
373.81	533.64
374.01	643.65
374.21	674.07
374.40	512.58
374.60	645.99
374.79	582.79
374.99	578.11
375.19	554.71
375.38	589.82
375.58	627.26
375.78	610.88
375.97	645.99
376.17	685.78
376.37	615.56
376.56	564.07
376.76	557.05
376.95	615.56
377.15	671.73
377.35	664.71
377.54	631.94
377.74	573.43
377.93	720.88
378.13	702.16
378.33	699.82
378.52	741.95
378.72	692.80
378.91	669.39
379.11	606.20
379.31	667.05
379.50	629.60
379.70	634.29
379.89	713.86
380.09	678.76
380.28	711.52
380.48	716.20
380.68	692.80
380.87	741.95
381.07	753.65
381.26	739.61
381.46	690.46
381.65	751.31
381.85	814.51
382.04	655.35
382.24	767.70
382.43	739.61
382.63	645.99
382.83	678.76
383.02	716.20
383.22	784.08
383.41	695.14
383.61	739.61
383.80	800.46
384.00	781.74
384.19	791.10
384.39	837.91
384.58	807.48
384.78	753.65
384.97	858.98
385.17	842.59
385.36	863.66
385.56	840.25
385.75	802.80
385.95	760.67
386.14	870.68
386.34	926.85
386.53	894.08
386.72	814.51
386.92	875.36
387.11	901.11
387.31	919.83
387.50	802.80
387.70	940.90
387.89	896.43
388.09	889.40
388.28	947.92
388.48	912.81
388.67	884.72
388.86	924.51
389.06	1011.11
389.25	1020.47
389.45	959.62
389.64	1027.50
389.84	1053.24
390.03	1102.39
390.22	1067.28
390.42	1043.88
390.61	1095.37
390.81	1015.79
391.00	1071.97
391.19	1060.26
391.39	1022.81
391.58	1097.71
391.78	1022.81
391.97	1048.56
392.16	1062.60
392.36	1123.46
392.55	1057.92
392.75	1015.79
392.94	1020.47
393.13	1074.31
393.33	938.55
393.52	1043.88
393.71	1111.75
393.91	1191.33
394.10	1172.61
394.29	1226.44
394.49	1146.86
394.68	1289.64
394.88	1226.44
395.07	1282.61
395.26	1327.08
395.46	1259.21
395.65	1238.14
395.84	1324.74
396.04	1273.25
396.23	1205.38
396.42	1240.48
396.62	1158.57
396.81	1268.57
397.00	1331.76
397.19	1313.04
397.39	1310.70
397.58	1472.20
397.77	1511.99
397.97	1451.13
398.16	1444.11
398.35	1593.90
398.55	1600.93
398.74	1495.60
398.93	1540.07
399.12	1502.62
399.32	1626.67
399.51	1607.95
399.70	1591.56
399.90	1570.50
400.09	1682.85
400.28	1652.42
400.47	1748.38
400.67	1797.53
400.86	1612.63
401.05	1748.38
401.24	1755.40
401.44	1795.19
401.63	1832.64
401.82	1832.64
402.01	1710.93
402.21	1802.21
402.40	1844.34
402.59	1839.66
402.78	1776.47
402.97	1863.07
403.17	1860.73
403.36	1853.70
403.55	1842.00
403.74	2010.52
403.93	1926.26
404.13	1933.28
404.32	1916.90
404.51	1959.03
404.70	1968.39
404.89	2010.52
405.09	2059.67
405.28	2127.55
405.47	2026.90
405.66	2038.61
405.85	1940.30
406.05	2059.67
406.24	2090.10
406.43	2195.42
406.62	2204.78
406.81	2263.30
407.00	2122.87
407.20	2094.78
407.39	2132.23
407.58	2251.60
407.77	2221.17
407.96	2361.60
408.15	2333.51
408.34	2354.58
408.54	2408.41
408.73	2431.82
408.92	2289.04
409.11	2438.84
409.30	2326.49
409.49	2377.98
409.68	2300.75
409.87	2368.62
410.07	2466.92
410.26	2422.45
410.45	2389.69
410.64	2492.67
410.83	2492.67
411.02	2513.74
411.21	2626.08
411.40	2597.99
411.59	2789.92
411.78	2665.87
411.98	2703.32
412.17	2822.69
412.36	2710.34
412.55	2789.92
412.74	2803.96
412.93	2782.90
413.12	2740.77
413.31	2960.78
413.50	2850.77
413.69	2967.80
413.88	3049.72
414.07	3101.21
414.26	3077.80
414.45	3021.63
414.64	3061.42
414.83	3145.68
415.02	3061.42
415.22	3094.19
415.41	3192.49
415.60	3265.05
415.79	3251.00
415.98	3283.77
416.17	3283.77
416.36	3286.11
416.55	3286.11
416.74	3414.84
416.93	3365.69
417.12	3475.70
417.31	3426.54
417.50	3361.01
417.69	3557.61
417.88	3588.04
418.07	3463.99
418.26	3627.83
418.45	3609.11
418.64	3693.37
418.83	3590.38
419.02	3721.45
419.21	3723.79
419.39	3702.73
419.58	3728.47
419.77	3562.30
419.96	3786.99
420.15	3904.01
420.34	3920.40
420.53	3873.59
420.72	3964.87
420.91	3840.82
421.10	3946.14
421.29	3932.10
421.48	3889.97
421.67	4067.85
421.86	3735.50
422.05	3911.04
422.24	3859.54
422.43	3857.20
422.61	3925.08
422.80	4147.43
422.99	4035.08
423.18	3999.98
423.37	4173.18
423.56	4067.85
423.75	4060.83
423.94	3878.27
424.13	3826.78
424.32	3791.67
424.50	4152.11
424.69	4037.42
424.88	4133.39
425.07	4032.74
425.26	4100.62
425.45	4009.34
425.64	4184.88
425.83	4121.68
426.01	4189.56
426.20	4042.11
426.39	4198.92
426.58	4070.19
426.77	4032.74
426.96	4025.72
427.15	3974.23
427.33	4201.26
427.52	4217.65
427.71	4245.73
427.90	4395.53
428.09	4322.97
428.28	4285.52
428.46	4264.46
428.65	4224.67
428.84	4379.14
429.03	4397.87
429.22	4379.14
429.40	4379.14
429.59	4208.28
429.78	4004.66
429.97	4030.40
430.16	4093.60
430.34	4231.69
430.53	4367.44
430.72	4269.14
430.91	4444.68
431.10	4421.27
431.28	4734.90
431.47	4781.71
431.66	4849.59
431.85	4784.06
432.03	4781.71
432.22	4718.52
432.41	4723.20
432.60	4762.99
432.79	4896.40
432.97	4917.47
433.16	4905.76
433.35	4781.71
433.54	4720.86
433.72	4800.44
433.91	4716.18
434.10	4819.16
434.28	4908.10
434.47	5165.56
434.66	5095.35
434.85	5139.82
435.03	5142.16
435.22	5238.12
435.41	5362.17
435.59	5132.79
435.78	5270.89
435.97	5303.65
436.16	5191.31
436.34	5369.19
436.53	5451.11
436.72	5423.02
436.90	5128.11
437.09	5376.21
437.28	5296.63
437.46	5385.57
437.65	5406.64
437.84	5437.06
438.02	5270.89
438.21	5331.74
438.40	5277.91
438.58	5369.19
438.77	5542.39
438.96	5605.58
439.14	5713.25
439.33	5827.93
439.52	5764.74
439.70	5867.72
439.89	5937.94
440.08	5909.85
440.26	5928.58
440.45	5776.44
440.63	6036.24
440.82	6251.57
441.01	6064.33
441.19	6106.46
441.38	6272.64
441.57	6249.23
441.75	6389.66
441.94	6471.58
442.12	6244.55
442.31	6450.52
442.50	6698.61
442.68	6375.62
442.87	6471.58
443.05	6499.67
443.24	6590.95
443.43	6668.19
443.61	6775.85
443.80	6843.73
443.98	6609.67
444.17	6480.94
444.35	6766.49
444.54	6808.62
444.73	6672.87
444.91	6588.61
445.10	6757.13
445.28	6637.76
445.47	6438.81
445.65	6579.25
445.84	6747.76
446.02	6946.71
446.21	6649.46
446.39	6743.08
446.58	6691.59
446.77	6825.00
446.95	6792.23
447.14	6843.73
447.32	6834.36
447.51	6932.67
447.69	6953.73
447.88	6981.82
448.06	6956.07
448.25	6808.62
448.43	7108.21
448.62	6974.80
448.80	6998.20
448.99	7007.56
449.17	7098.84
449.36	6799.26
449.54	7187.79
449.73	7243.96
449.91	7115.23
450.10	7424.18
450.28	7454.61
450.46	7475.67
450.65	7520.14
450.83	7403.11
451.02	7318.86
451.20	7389.07
451.39	7468.65
451.57	7456.95
451.76	7475.67
451.94	7321.20
452.13	7377.37
452.31	7503.76
452.49	7311.83
452.68	7442.90
452.86	7480.35
453.05	7576.31
453.23	7531.84
453.42	7473.33
453.60	7543.55
453.78	7613.76
453.97	7719.09
454.15	7784.62
454.34	7548.23
454.52	7698.02
454.70	7829.09
454.89	7744.83
455.07	7768.24
455.26	7840.79
455.44	7981.23
455.62	7857.18
455.81	7920.37
455.99	8182.51
456.17	7997.61
456.36	8093.57
456.54	8278.47
456.73	8189.53
456.91	8278.47
457.09	8439.97
457.28	8517.21
457.46	8196.56
457.64	8332.31
457.83	8252.73
458.01	8065.49
458.19	8421.25
458.38	8540.61
458.56	8538.27
458.74	8444.65
458.93	8395.50
459.11	8489.12
459.29	8372.10
459.48	8648.28
459.66	8690.41
459.84	8568.70
460.03	8933.82
460.21	8908.08
460.39	8835.52
460.57	8711.47
460.76	8688.07
460.94	8903.40
461.12	8837.86
461.31	8755.94
461.49	8978.30
461.67	8919.78
461.85	9041.49
462.04	9085.96
462.22	9130.43
462.40	9114.05
462.59	9053.19
462.77	9081.28
462.95	9364.48
463.13	9102.34
463.32	9179.58
463.50	9394.91
463.68	9081.28
463.86	9259.16
464.05	9034.47
464.23	9242.78
464.41	9320.01
464.59	9331.72
464.78	9277.88
464.96	9399.59
465.14	9303.63
465.32	9710.88
465.50	9715.56
465.69	9561.09
465.87	9540.02
466.05	9575.13
466.23	9301.29
466.41	9406.61
466.60	9724.93
466.78	9497.89
466.96	9497.89
467.14	9607.90
467.32	9687.48
467.51	9774.08
467.69	9518.96
467.87	9722.59
468.05	9856.00
468.23	9825.57
468.41	9785.78
468.60	9916.85
468.78	9907.49
468.96	9753.01
469.14	9767.06
469.32	10193.03
469.50	9823.23
469.69	10029.20
469.87	10083.03
470.05	10050.26
470.23	10256.23
470.41	10092.39
470.59	10211.76
470.77	10171.97
470.95	10186.01
471.14	10406.02
471.32	10356.87
471.50	10501.98
471.68	10707.95
471.86	10672.84
472.04	10733.70
472.22	10995.84
472.40	10445.81
472.58	10539.43
472.77	10628.37
472.95	10857.75
473.13	11440.54
473.31	10984.13
473.49	10644.76
473.67	11061.37
473.85	11243.93
474.03	11316.49
474.21	11304.79
474.39	11250.96
474.57	11627.78
474.75	11541.18
474.93	11590.33
475.12	11396.07
475.30	11515.44
475.48	11440.54
475.66	11765.87
475.84	11690.98
476.02	11604.38
476.20	11775.24
476.38	11922.69
476.56	12133.34
476.74	12358.03
476.92	12166.10
477.10	12173.13
477.28	12496.12
477.46	12482.08
477.64	12784.01
477.82	12943.16
478.00	13137.43
478.18	13167.85
478.36	12807.41
478.54	12959.55
478.72	12844.86
478.90	13268.50
479.08	13441.70
479.26	13591.49
479.44	13544.68
479.62	13884.06
479.80	13994.06
479.98	13987.04
480.16	14174.28
480.34	14122.79
480.52	14005.77
480.70	14232.80
480.88	14050.24
481.06	14143.86
481.24	14406.00
481.41	14736.01
481.59	14831.97
481.77	14775.80
481.95	15054.33
482.13	15204.12
482.31	15145.61
482.49	15396.04
482.67	15384.34
482.85	15323.49
483.03	15604.35
483.21	15728.40
483.39	15985.86
483.57	15697.97
483.74	16130.97
483.92	15983.52
484.10	15995.22
484.28	16386.09
484.46	16627.17
484.64	16718.45
484.82	16458.65
485.00	16695.04
485.18	16711.42
485.35	17245.07
485.53	16638.87
485.71	16510.14
485.89	16783.98
486.07	16882.28
486.25	17025.06
486.43	17106.98
486.61	17406.56
486.78	17692.11
486.96	18024.47
487.14	18429.38
487.32	18230.43
487.50	18530.02
487.68	18780.46
487.85	19054.30
488.03	19133.88
488.21	19077.71
488.39	19152.60
488.57	19091.75
488.75	19391.34
488.92	19309.42
489.10	19793.91
489.28	20049.03
489.46	20362.66
489.64	20037.33
489.81	20341.60
489.99	20744.17
490.17	20821.41
490.35	21139.72
490.53	20849.49
490.70	21193.55
490.88	21060.14
491.06	21408.88
491.24	21095.25
491.41	21142.06
491.59	21383.13
491.77	21331.64
491.95	21860.60
492.13	21673.36
492.30	21998.70
492.48	22345.09
492.66	21888.69
492.84	22405.95
493.01	22981.72
493.19	22345.09
493.37	22618.94
493.54	23105.77
493.72	23288.33
493.90	22913.84
494.08	23590.26
494.25	23718.99
494.43	23768.14
494.61	24261.99
494.79	24416.47
494.96	23882.83
495.14	24070.07
495.32	24465.62
495.49	24252.63
495.67	24320.51
495.85	24453.92
496.02	25245.02
496.20	25249.70
496.38	24999.26
496.55	25340.98
496.73	25687.38
496.91	25357.36
497.09	25514.18
497.26	25914.41
497.44	25645.25
497.62	26096.97
497.79	25881.64
497.97	25811.43
498.14	25830.15
498.32	26492.52
498.50	26396.56
498.67	26225.70
498.85	26499.55
499.03	27044.89
499.20	27014.46
499.38	26869.35
499.56	27269.58
499.73	26960.63
499.91	27143.19
500.08	27260.22
500.26	27461.51
500.44	26916.16
500.61	27248.52
500.79	27566.83
500.97	27545.76
501.14	27978.76
501.32	27459.16
501.49	27730.67
501.67	28123.88
501.84	28107.49
502.02	28086.43
502.20	28215.16
502.37	28400.06
502.55	28142.60
502.72	28624.75
502.90	28905.62
503.07	28676.24
503.25	28753.48
503.43	28830.72
503.60	28842.42
503.78	28786.25
503.95	28582.62
504.13	29223.93
504.30	29364.36
504.48	29024.98
504.65	29516.50
504.83	29551.60
505.01	29851.19
505.18	29785.66
505.36	29883.96
505.53	30300.58
505.71	30771.02
505.88	30396.54
506.06	30251.42
506.23	30471.43
506.41	30466.75
506.58	30459.73
506.76	30735.92
506.93	30869.33
507.11	30876.35
507.28	30958.27
507.46	30810.81
507.63	31014.44
507.81	30705.49
507.98	30822.51
508.16	30988.69
508.33	31351.48
508.50	31552.76
508.68	31569.15
508.85	31517.65
509.03	31477.86
509.20	32137.90
509.38	31882.78
509.55	32273.65
509.73	31852.35
509.90	32566.21
510.08	32315.78
510.25	32210.45
510.42	32638.77
510.60	32409.40
510.77	32573.24
510.95	32687.92
511.12	32634.09
511.30	32877.51
511.47	33572.64
511.64	33319.87
511.82	33303.48
511.99	32666.86
512.17	33092.83
512.34	32929.00
512.51	33411.15
512.69	33305.82
512.86	33600.73
513.04	33668.61
513.21	33706.05
513.38	33532.86
513.56	33586.69
513.73	33322.21
513.90	33956.49
514.08	33640.52
514.25	33914.36
514.43	33979.90
514.60	34330.98
514.77	34230.33
514.95	34799.08
515.12	34164.80
515.29	34459.71
515.47	34660.99
515.64	34939.52
515.81	35000.37
515.99	34899.73
516.16	34553.33
516.33	34408.22
516.51	34396.51
516.68	33692.01
516.85	34398.85
517.03	34543.97
517.20	34813.13
517.37	35061.22
517.54	35168.89
517.72	34785.04
517.89	34508.86
518.06	34682.06
518.24	34761.64
518.41	35122.08
518.58	35424.01
518.75	35192.30
518.93	35615.93
519.10	35501.25
519.27	35416.99
519.45	35959.99
519.62	36306.39
519.79	36320.43
519.96	36271.28
520.14	36786.20
520.31	36130.85
520.48	36664.49
520.65	36217.45
520.83	36741.73
521.00	36554.49
521.17	36549.81
521.34	36715.98
521.52	36781.52
521.69	36643.43
521.86	37230.90
522.03	37235.58
522.20	37233.24
522.38	37116.22
522.55	37263.67
522.72	37216.86
522.89	37415.80
523.07	37401.76
523.24	37060.04
523.41	37886.25
523.58	37289.42
523.75	38249.03
523.92	38265.42
524.10	38206.90
524.27	38440.96
524.44	38284.14
524.61	38522.88
524.78	38239.67
524.96	38120.31
525.13	38410.53
525.30	38424.57
525.47	38440.96
525.64	38747.57
525.81	38499.47
525.98	38382.45
526.16	38536.92
526.33	37848.80
526.50	37869.87
526.67	37907.32
526.84	38007.96
527.01	38195.20
527.18	38691.40
527.36	38906.73
527.53	39393.56
527.70	39510.58
527.87	39002.69
528.04	39189.93
528.21	39257.81
528.38	39321.00
528.55	39299.94
528.72	39599.52
528.89	40350.84
529.07	39484.84
529.24	39709.53
529.41	40493.61
529.58	39360.79
529.75	39929.54
529.92	39882.73
530.09	39976.35
530.26	40098.06
530.43	40219.77
530.60	39749.32
530.77	40163.59
530.94	40325.09
531.11	40133.17
531.28	40336.79
531.46	40257.21
531.63	40540.42
531.80	40505.31
531.97	40444.46
532.14	40336.79
532.31	40304.02
532.48	40411.69
532.65	40399.99
532.82	40423.39
532.99	40676.17
533.16	40807.24
533.33	40954.69
533.50	41371.31
533.67	40528.72
533.84	40327.43
534.01	40545.10
534.18	40713.62
534.35	41235.56
534.52	41193.43
534.69	41331.52
534.86	41385.35
535.03	41675.58
535.20	42256.03
535.37	41823.03
535.54	41900.27
535.71	41741.11
535.88	41698.98
536.05	41478.97
536.22	42230.29
536.38	41390.03
536.55	41478.97
536.72	41586.64
536.89	41347.90
537.06	41366.63
537.23	42237.31
537.40	42122.62
537.57	42330.93
537.74	42029.00
537.91	42429.23
538.08	42274.76
538.25	41881.55
538.42	42183.48
538.59	42099.22
538.75	41666.22
538.92	41993.89
539.09	42117.94
539.26	42024.32
539.43	42274.76
539.60	42314.55
539.77	42199.86
539.94	42293.48
540.11	41956.44
540.28	42377.74
540.44	42373.06
540.61	42029.00
540.78	41970.49
540.95	42391.78
541.12	42328.59
541.29	42579.03
541.46	42440.93
541.62	42480.72
541.79	42665.63
541.96	42663.28
542.13	42337.95
542.30	42513.49
542.47	42845.85
542.63	42946.49
542.80	43096.28
542.97	43356.08
543.14	43697.80
543.31	43185.22
543.48	43033.09
543.64	43269.48
543.81	43901.43
543.98	43934.20
544.15	43496.52
544.32	43634.61
544.48	43915.47
544.65	43992.71
544.82	43873.34
544.99	43414.60
545.16	43533.96
545.32	43510.56
545.49	44196.34
545.66	44699.55
545.83	43660.35
546.00	44184.63
546.16	44088.67
546.33	43812.49
546.50	43756.32
546.67	44341.45
546.83	44196.34
547.00	44135.48
547.17	44023.14
547.34	44044.20
547.50	44086.33
547.67	44605.93
547.84	44491.24
548.00	44821.26
548.17	44746.36
548.34	44486.56
548.51	44540.39
548.67	44830.62
548.84	44439.75
549.01	44107.40
549.18	44442.09
549.34	44868.07
549.51	44465.50
549.68	44617.63
549.84	44381.24
550.01	44884.45
550.18	44605.93
550.34	44474.86
550.51	44601.25
550.68	44744.02
550.84	44458.48
551.01	44741.68
551.18	44575.50
551.34	44900.84
551.51	45191.06
551.68	45265.96
551.84	45139.57
552.01	44776.79
552.18	45027.23
552.34	44638.70
552.51	45123.19
552.68	45151.27
552.84	45439.16
553.01	45483.63
553.18	45275.32
553.34	44952.33
553.51	45317.45
553.67	45120.85
553.84	45778.54
554.01	45614.70
554.17	45364.26
554.34	45425.12
554.51	45556.19
554.67	45902.59
554.84	45677.90
555.00	45109.14
555.17	45420.44
555.33	45394.69
555.50	45518.74
555.67	45460.23
555.83	45563.21
556.00	45305.75
556.16	45783.22
556.33	45345.54
556.50	45240.21
556.66	45748.11
556.83	45436.82
556.99	45902.59
557.16	46157.70
557.32	45893.22
557.49	45808.96
557.65	45638.11
557.82	46028.98
557.98	46174.09
558.15	45731.73
558.32	45963.44
558.48	45558.53
558.65	45911.95
558.81	45846.41
558.98	45729.39
559.14	45490.65
559.31	45928.33
559.47	46134.30
559.64	46237.28
559.80	45928.33
559.97	46136.64
560.13	45603.00
560.30	45930.67
560.46	46202.18
560.63	46234.94
560.79	46422.19
560.96	46234.94
561.12	46148.34
561.29	45743.43
561.45	46005.57
561.61	46356.65
561.78	46157.70
561.94	45911.95
562.11	45813.65
562.27	45750.45
562.44	46380.06
562.60	46415.16
562.77	46148.34
562.93	46148.34
563.10	46337.93
563.26	45521.08
563.42	46429.21
563.59	46351.97
563.75	46204.52
563.92	46164.73
564.08	46410.48
564.24	46609.43
564.41	46405.80
564.57	46370.69
564.74	46148.34
564.90	46403.46
565.07	46199.83
565.23	46649.22
565.39	46092.17
565.56	46433.89
565.72	45734.07
565.88	45855.78
566.05	46190.47
566.21	46251.33
566.38	45790.24
566.54	46148.34
566.70	46646.88
566.87	46476.02
567.03	46223.24
567.19	47330.31
567.36	46443.25
567.52	46398.78
567.68	46894.97
567.85	46522.83
568.01	46691.35
568.17	46536.87
568.34	46990.94
568.50	46710.07
568.66	46712.41
568.83	46740.50
568.99	46555.60
569.15	46625.81
569.32	46089.83
569.48	46499.42
569.64	46817.74
569.81	46316.86
569.97	46457.29
570.13	46424.53
570.30	46223.24
570.46	46190.47
570.62	46396.44
570.78	45918.97
570.95	46220.90
571.11	46897.31
571.27	46234.94
571.43	46410.48
571.60	46866.89
571.76	46759.22
571.92	46284.09
572.09	46686.67
572.25	46763.90
572.41	46328.56
572.57	46651.56
572.74	46892.63
572.90	46583.68
573.06	46913.70
573.22	46747.52
573.38	46494.74
573.55	46625.81
573.71	46939.44
573.87	46586.02
574.03	46766.24
574.20	47129.03
574.36	46632.83
574.52	46590.70
574.68	46340.27
574.84	46625.81
575.01	46443.25
575.17	46284.09
575.33	46469.00
575.49	46707.73
575.65	46735.82
575.82	46782.63
575.98	46541.55
576.14	46852.84
576.30	47281.16
576.46	46752.20
576.62	46670.28
576.79	46567.30
576.95	46628.15
577.11	46632.83
577.27	47292.86
577.43	46869.23
577.59	46639.86
577.75	46616.45
577.92	46436.23
578.08	46078.13
578.24	46637.51
578.40	46520.49
578.56	46838.80
578.72	46494.74
578.88	46967.53
579.04	46902.00
579.21	46897.31
579.37	46981.57
579.53	47295.21
579.69	46813.05
579.85	46759.22
580.01	46930.08
580.17	46436.23
580.33	46759.22
580.49	46927.74
580.65	46600.07
580.82	46820.08
580.98	46726.46
581.14	46658.58
581.30	47236.69
581.46	46883.27
581.62	47143.07
581.78	46604.75
581.94	46972.21
582.10	46511.13
582.26	47051.79
582.42	46880.93
582.58	46981.57
582.74	46962.85
582.90	47077.54
583.06	47107.96
583.22	46920.72
583.38	46852.84
583.54	47100.94
583.70	47072.85
583.86	46679.64
584.02	46880.93
584.18	47012.00
584.34	46815.40
584.50	46791.99
584.66	46368.35
584.82	46532.19
584.98	46946.47
585.14	46918.38
585.30	46789.65
585.46	47044.77
585.62	46389.42
585.78	47093.92
585.94	46445.59
586.10	46934.76
586.26	46834.12
586.42	46979.23
586.58	47084.56
586.74	46829.44
586.90	47051.79
587.06	46567.30
587.22	47035.41
587.38	47208.61
587.54	46756.88
587.70	46934.76
587.86	46913.70
588.02	46789.65
588.18	46780.29
588.34	46440.91
588.49	46050.04
588.65	46408.14
588.81	46164.73
588.97	46403.46
589.13	46323.88
589.29	46981.57
589.45	46454.95
589.61	46747.52
589.77	46909.02
