SpectraSuite Data File
++++++++++++++++++++++++++++++++++++
Date: Fri Oct 25 10:43:46 EDT 2013
User: price-jones
Dark Spectrum Present: No
Reference Spectrum Present: No
Number of Sampled Component Spectra: 1
Spectrometers: USB2+H05261
Integration Time (usec): 100000 (USB2+H05261)
Spectra Averaged: 1 (USB2+H05261)
Boxcar Smoothing: 0 (USB2+H05261)
Correct for Electrical Dark: No (USB2+H05261)
Strobe/Lamp Enabled: No (USB2+H05261)
Correct for Detector Non-linearity: No (USB2+H05261)
Correct for Stray Light: No (USB2+H05261)
Number of Pixels in Processed Spectrum: 2048
>>>>>Begin Processed Spectral Data<<<<<
365.73	110.01
365.92	110.01
366.12	110.01
366.32	32.77
366.52	23.41
366.72	7.02
366.91	2.34
367.11	42.13
367.31	4.68
367.51	56.17
367.70	0.00
367.90	16.38
368.10	0.00
368.30	0.00
368.49	0.00
368.69	98.30
368.89	65.54
369.09	32.77
369.28	42.13
369.48	42.13
369.68	39.79
369.87	4.68
370.07	105.32
370.27	117.03
370.47	194.26
370.66	358.10
370.86	458.74
371.06	451.72
371.25	496.19
371.45	447.04
371.65	423.64
371.84	414.27
372.04	477.47
372.24	500.87
372.44	498.53
372.63	526.62
372.83	540.66
373.03	383.85
373.22	585.13
373.42	543.00
373.62	545.34
373.81	519.60
374.01	507.90
374.21	557.05
374.40	587.47
374.60	573.43
374.79	535.98
374.99	629.60
375.19	559.39
375.38	554.71
375.58	587.47
375.78	585.13
375.97	573.43
376.17	610.88
376.37	601.52
376.56	608.54
376.76	608.54
376.95	566.41
377.15	702.16
377.35	653.01
377.54	660.03
377.74	739.61
377.93	627.26
378.13	674.07
378.33	638.97
378.52	613.22
378.72	704.50
378.91	631.94
379.11	662.37
379.31	557.05
379.50	585.13
379.70	692.80
379.89	688.12
380.09	657.69
380.28	678.76
380.48	683.44
380.68	674.07
380.87	667.05
381.07	732.59
381.26	718.54
381.46	643.65
381.65	667.05
381.85	641.31
382.04	695.14
382.24	674.07
382.43	706.84
382.63	734.93
382.83	767.70
383.02	737.27
383.22	685.78
383.41	620.24
383.61	734.93
383.80	746.63
384.00	727.91
384.19	709.18
384.39	849.61
384.58	753.65
384.78	894.08
384.97	777.06
385.17	720.88
385.36	826.21
385.56	763.01
385.75	767.70
385.95	858.98
386.14	858.98
386.34	887.06
386.53	800.46
386.72	753.65
386.92	842.59
387.11	905.79
387.31	821.53
387.50	898.77
387.70	809.83
387.89	922.17
388.09	877.70
388.28	894.08
388.48	866.00
388.67	887.06
388.86	908.13
389.06	931.53
389.25	945.58
389.45	964.30
389.64	968.98
389.84	1027.50
390.03	987.71
390.22	1057.92
390.42	1041.54
390.61	952.60
390.81	1043.88
391.00	1090.69
391.19	1032.18
391.39	1029.84
391.58	1074.31
391.78	1011.11
391.97	1039.20
392.16	1083.67
392.36	1018.13
392.55	1050.90
392.75	973.66
392.94	933.87
393.13	1013.45
393.33	964.30
393.52	1067.28
393.71	1104.73
393.91	1118.78
394.10	1060.26
394.29	1081.33
394.49	1123.46
394.68	1275.59
394.88	1177.29
395.07	1156.22
395.26	1322.40
395.46	1186.65
395.65	1240.48
395.84	1207.72
396.04	1186.65
396.23	1226.44
396.42	1151.54
396.62	1170.27
396.81	1224.10
397.00	1156.22
397.19	1217.08
397.39	1308.36
397.58	1371.55
397.77	1310.70
397.97	1254.53
398.16	1540.07
398.35	1418.36
398.55	1406.66
398.74	1446.45
398.93	1526.03
399.12	1500.28
399.32	1465.18
399.51	1610.29
399.70	1551.78
399.90	1530.71
400.09	1533.05
400.28	1666.46
400.47	1544.75
400.67	1593.90
400.86	1621.99
401.05	1577.52
401.24	1638.38
401.44	1657.10
401.63	1722.63
401.82	1633.69
402.01	1603.27
402.21	1717.95
402.40	1645.40
402.59	1678.16
402.78	1645.40
402.97	1701.57
403.17	1636.03
403.36	1696.89
403.55	1783.49
403.74	1919.24
403.93	1886.47
404.13	1823.28
404.32	1792.85
404.51	1830.30
404.70	1898.17
404.89	1905.20
405.09	1968.39
405.28	1881.79
405.47	1884.13
405.66	1933.28
405.85	1912.22
406.05	1919.24
406.24	1902.86
406.43	1952.01
406.62	1984.77
406.81	2052.65
407.00	1942.64
407.20	2005.84
407.39	2052.65
407.58	2022.22
407.77	2111.16
407.96	2188.40
408.15	2235.21
408.34	2188.40
408.54	2202.44
408.73	2169.68
408.92	2221.17
409.11	2267.98
409.30	2314.79
409.49	2267.98
409.68	2279.68
409.87	2174.36
410.07	2270.32
410.26	2244.57
410.45	2354.58
410.64	2352.24
410.83	2396.71
411.02	2473.95
411.21	2633.10
411.40	2487.99
411.59	2586.29
411.78	2548.84
411.98	2492.67
412.17	2523.10
412.36	2635.44
412.55	2600.34
412.74	2675.23
412.93	2612.04
413.12	2623.74
413.31	2810.98
413.50	2789.92
413.69	2677.57
413.88	2995.89
414.07	2890.56
414.26	2796.94
414.45	3038.02
414.64	2890.56
414.83	2949.08
415.02	2979.50
415.22	3101.21
415.41	3141.00
415.60	2986.52
415.79	3056.74
415.98	3119.93
416.17	3059.08
416.36	3183.13
416.55	3192.49
416.74	3166.74
416.93	3122.27
417.12	3213.56
417.31	3304.84
417.50	3192.49
417.69	3365.69
417.88	3349.31
418.07	3328.24
418.26	3424.20
418.45	3534.21
418.64	3522.51
418.83	3592.72
419.02	3534.21
419.21	3515.48
419.39	3445.27
419.58	3370.37
419.77	3442.93
419.96	3499.10
420.15	3604.42
420.34	3634.85
420.53	3672.30
420.72	3786.99
420.91	3976.57
421.10	3751.88
421.29	3775.28
421.48	3688.68
421.67	3836.14
421.86	3808.05
422.05	3749.54
422.24	3676.98
422.43	3674.64
422.61	3756.56
422.80	3688.68
422.99	3838.48
423.18	3845.50
423.37	3812.73
423.56	3831.46
423.75	3840.82
423.94	3896.99
424.13	3590.38
424.32	3763.58
424.50	3901.67
424.69	3882.95
424.88	3955.51
425.07	3812.73
425.26	3817.41
425.45	3847.84
425.64	3992.95
425.83	3878.27
426.01	4007.00
426.20	3913.38
426.39	3974.23
426.58	3960.19
426.77	3908.69
426.96	3878.27
427.15	3946.14
427.33	4014.02
427.52	4032.74
427.71	3922.74
427.90	3990.61
428.09	4142.75
428.28	4114.66
428.46	4131.05
428.65	4145.09
428.84	4184.88
429.03	4147.43
429.22	4004.66
429.40	4191.90
429.59	3889.97
429.78	3805.71
429.97	3892.31
430.16	3829.12
430.34	4095.94
430.53	4086.58
430.72	4191.90
430.91	4140.41
431.10	4306.59
431.28	4425.95
431.47	4531.28
431.66	4585.11
431.85	4526.60
432.03	4489.15
432.22	4521.92
432.41	4531.28
432.60	4589.79
432.79	4610.86
432.97	4793.42
433.16	4669.37
433.35	4641.28
433.54	4676.39
433.72	4638.94
433.91	4655.33
434.10	4660.01
434.28	4727.88
434.47	4664.69
434.66	4791.08
434.85	4865.97
435.03	4973.64
435.22	4753.63
435.41	5102.37
435.59	5153.86
435.78	5060.24
435.97	5036.83
436.16	5085.98
436.34	5025.13
436.53	5170.24
436.72	5170.24
436.90	4978.32
437.09	5123.43
437.28	4929.17
437.46	5018.11
437.65	5104.71
437.84	5174.92
438.02	5146.84
438.21	5123.43
438.40	5121.09
438.58	5174.92
438.77	5256.84
438.96	5219.39
439.14	5280.25
439.33	5486.22
439.52	5628.99
439.70	5502.60
439.89	5706.23
440.08	5736.65
440.26	5664.10
440.45	5659.42
440.63	5671.12
440.82	5834.96
441.01	5858.36
441.19	5961.34
441.38	5916.87
441.57	6092.41
441.75	6038.58
441.94	6216.46
442.12	6363.92
442.31	6286.68
442.50	6394.34
442.68	6106.46
442.87	6214.12
443.05	6125.18
443.24	6303.06
443.43	6455.20
443.61	6289.02
443.80	6429.45
443.98	6242.21
444.17	6118.16
444.35	6469.24
444.54	6679.89
444.73	6483.28
444.91	6459.88
445.10	6314.77
445.28	6396.68
445.47	6279.66
445.65	6445.84
445.84	6469.24
446.02	6499.67
446.21	6443.49
446.39	6518.39
446.58	6572.22
446.77	6516.05
446.95	6441.15
447.14	6349.87
447.32	6621.38
447.51	6413.07
447.69	6492.65
447.88	6602.65
448.06	6607.33
448.25	6588.61
448.43	6621.38
448.62	6527.75
448.80	6553.50
448.99	6808.62
449.17	6846.07
449.36	6696.27
449.54	6778.19
449.73	6920.96
449.91	7026.29
450.10	6979.48
450.28	6993.52
450.46	7077.78
450.65	7089.48
450.83	7056.72
451.02	7028.63
451.20	7070.76
451.39	7021.61
451.57	7023.95
451.76	6991.18
451.94	7054.37
452.13	7063.74
452.31	7110.55
452.49	6897.56
452.68	7190.13
452.86	7082.46
453.05	7143.32
453.23	7267.36
453.42	7075.44
453.60	7056.72
453.78	7393.75
453.97	7007.56
454.15	7110.55
454.34	7197.15
454.52	7365.67
454.70	7468.65
454.89	7435.88
455.07	7316.51
455.26	7468.65
455.44	7501.42
455.62	7552.91
455.81	7691.00
455.99	7730.79
456.17	7520.14
456.36	7789.30
456.54	7847.82
456.73	7873.56
456.91	7941.44
457.09	7920.37
457.28	8180.17
457.46	7934.42
457.64	7950.80
457.83	7866.54
458.01	7976.55
458.19	8131.02
458.38	8035.06
458.56	8028.04
458.74	8028.04
458.93	7960.16
459.11	8161.45
459.29	8058.46
459.48	8191.88
459.66	8081.87
459.84	8269.11
460.03	8411.89
460.21	8423.59
460.39	8425.93
460.57	8472.74
460.76	8353.37
460.94	8545.30
461.12	8449.33
461.31	8404.86
461.49	8418.91
461.67	8322.94
461.85	8685.73
462.04	8564.02
462.22	9041.49
462.40	8842.54
462.59	8674.03
462.77	8622.53
462.95	8685.73
463.13	8681.05
463.32	8901.06
463.50	8879.99
463.68	8917.44
463.86	8854.25
464.05	8819.14
464.23	8716.16
464.41	8788.71
464.59	8744.24
464.78	9128.09
464.96	9029.79
465.14	8840.20
465.32	9118.73
465.50	9046.17
465.69	9191.28
465.87	8901.06
466.05	9062.55
466.23	8990.00
466.41	8945.53
466.60	9163.20
466.78	9088.30
466.96	9188.94
467.14	8961.91
467.32	9305.97
467.51	9324.69
467.69	9034.47
467.87	9174.90
468.05	9596.20
468.23	9261.50
468.41	9078.94
468.60	9385.55
468.78	9537.68
468.96	9163.20
469.14	9631.30
469.32	9493.21
469.50	9334.06
469.69	9507.26
469.87	9617.26
470.05	9640.67
470.23	9605.56
470.41	9568.11
470.59	9680.46
470.77	9624.28
470.95	9837.27
471.14	9867.70
471.32	9895.78
471.50	10218.78
471.68	10083.03
471.86	10092.39
472.04	10401.34
472.22	10436.45
472.40	10092.39
472.58	10108.77
472.77	10289.00
472.95	10389.64
473.13	10628.37
473.31	10286.65
473.49	10380.28
473.67	10349.85
473.85	10698.59
474.03	10747.74
474.21	10761.78
474.39	11044.99
474.57	10785.19
474.75	10658.80
474.93	11016.90
475.12	10913.92
475.30	11129.25
475.48	10970.09
475.66	11159.67
475.84	11047.33
476.02	11269.68
476.20	11386.71
476.38	11562.25
476.56	11744.81
476.74	11403.09
476.92	11789.28
477.10	11445.22
477.28	11920.35
477.46	11714.38
477.64	12079.50
477.82	12023.33
478.00	12358.03
478.18	12093.55
478.36	12311.22
478.54	12461.01
478.72	12645.91
478.90	12891.67
479.08	12784.01
479.26	12568.68
479.44	12688.04
479.62	12961.89
479.80	13186.58
479.98	13268.50
480.16	13509.57
480.34	13312.97
480.52	13675.75
480.70	13535.32
480.88	13228.71
481.06	13818.52
481.24	13776.39
481.41	13848.95
481.59	14310.04
481.77	14150.88
481.95	13933.21
482.13	14347.48
482.31	14457.49
482.49	14537.07
482.67	14743.03
482.85	14857.72
483.03	14794.53
483.21	14930.28
483.39	15033.26
483.57	15264.97
483.74	15190.08
483.92	15293.06
484.10	15243.91
484.28	15758.83
484.46	15527.11
484.64	16098.20
484.82	15765.85
485.00	15871.17
485.18	16458.65
485.35	16482.05
485.53	16025.65
485.71	15941.39
485.89	16285.45
486.07	16297.15
486.25	16318.22
486.43	16514.82
486.61	16711.42
486.78	16814.41
486.96	17554.02
487.14	17420.61
487.32	17542.32
487.50	17593.81
487.68	17989.36
487.85	17855.95
488.03	17947.23
488.21	18415.34
488.39	18197.67
488.57	18340.44
488.75	18611.94
488.92	18932.59
489.10	19342.19
489.28	19290.70
489.46	19335.17
489.64	19260.27
489.81	19651.14
489.99	19946.05
490.17	20063.07
490.35	19889.87
490.53	20212.87
490.70	20280.74
490.88	20173.08
491.06	20659.91
491.24	20353.30
491.41	20350.96
491.59	20266.70
491.77	20456.28
491.95	20741.83
492.13	20812.04
492.30	21238.02
492.48	21200.57
492.66	21137.38
492.84	21394.84
493.01	21951.88
493.19	21556.33
493.37	22008.06
493.54	21909.75
493.72	21865.28
493.90	22003.38
494.08	22574.47
494.25	22724.26
494.43	22679.79
494.61	22946.61
494.79	23005.13
494.96	23112.79
495.14	22944.27
495.32	23426.42
495.49	23370.25
495.67	23332.80
495.85	23735.37
496.02	23882.83
496.20	23988.15
496.38	23957.72
496.55	24271.36
496.73	24835.42
496.91	24297.10
497.09	24350.93
497.26	24760.53
497.44	24634.14
497.62	24671.59
497.79	25109.27
497.97	24561.58
498.14	24966.49
498.32	25481.41
498.50	25467.37
498.67	25376.09
498.85	25589.08
499.03	26001.01
499.20	26087.61
499.38	25570.35
499.56	26148.46
499.73	26017.40
499.91	26263.15
500.08	26520.61
500.26	26068.89
500.44	26125.06
500.61	26190.59
500.79	26265.49
500.97	26565.08
501.14	26735.94
501.32	26663.38
501.49	26623.59
501.67	26658.70
501.84	26951.27
502.02	27190.00
502.20	27133.83
502.37	27218.09
502.55	27393.63
502.72	27377.25
502.90	27421.72
503.07	27690.88
503.25	27901.53
503.43	27475.55
503.60	27555.13
503.78	27686.20
503.95	27700.24
504.13	28098.13
504.30	28212.82
504.48	28074.73
504.65	28219.84
504.83	28577.94
505.01	28596.67
505.18	28531.13
505.36	29347.98
505.53	29130.31
505.71	29289.46
505.88	29273.08
506.06	28966.47
506.23	29312.87
506.41	29280.10
506.58	29270.74
506.76	29132.65
506.93	29874.60
507.11	29780.98
507.28	29432.24
507.46	29439.26
507.63	29474.37
507.81	29591.39
507.98	29813.74
508.16	30132.06
508.33	30272.49
508.50	29970.56
508.68	30448.03
508.85	30597.82
509.03	30792.09
509.20	30410.58
509.38	30590.80
509.55	30934.86
509.73	30705.49
509.90	30998.06
510.08	30824.86
510.25	30827.20
510.42	30841.24
510.60	31372.54
510.77	31381.90
510.95	31686.17
511.12	31592.55
511.30	31232.11
511.47	31882.78
511.64	32011.51
511.82	32147.26
511.99	31718.94
512.17	32114.49
512.34	31723.62
512.51	32212.79
512.69	31887.46
512.86	32116.83
513.04	32484.30
513.21	32587.28
513.38	32481.95
513.56	32425.78
513.73	32133.21
513.90	32697.28
514.08	32594.30
514.25	32556.85
514.43	32786.22
514.60	32395.35
514.77	32996.87
514.95	32940.70
515.12	33319.87
515.29	33315.19
515.47	33610.09
515.64	33415.83
515.81	33331.57
515.99	33890.96
516.16	33350.29
516.33	33200.50
516.51	33556.26
516.68	32975.81
516.85	32999.21
517.03	33181.77
517.20	33401.79
517.37	33579.67
517.54	34440.98
517.72	33937.77
517.89	33684.99
518.06	33703.71
518.24	33717.76
518.41	33706.05
518.58	34260.76
518.75	34019.69
518.93	34829.51
519.10	34239.70
519.27	34471.41
519.45	34550.99
519.62	34555.67
519.79	34700.78
519.96	34700.78
520.14	35051.86
520.31	34939.52
520.48	35009.73
520.65	34857.60
520.83	35023.78
521.00	35468.48
521.17	35325.71
521.34	35756.36
521.52	35232.08
521.69	35615.93
521.86	36240.86
522.03	35576.14
522.20	36100.42
522.38	36070.00
522.55	36023.19
522.72	35742.32
522.89	36116.81
523.07	36697.26
523.24	35981.06
523.41	36336.82
523.58	36659.81
523.75	36987.49
523.92	36554.49
524.10	36545.12
524.27	36428.10
524.44	36723.01
524.61	36959.40
524.78	36769.82
524.96	36708.96
525.13	36816.63
525.30	37312.82
525.47	37687.31
525.64	37118.56
525.81	37256.65
525.98	37303.46
526.16	36715.98
526.33	36634.06
526.50	37085.79
526.67	36538.10
526.84	37088.13
527.01	36739.39
527.18	37493.04
527.36	37731.78
527.53	37734.12
527.70	38199.88
527.87	37933.06
528.04	37734.12
528.21	38129.67
528.38	37776.25
528.55	38136.69
528.72	38031.36
528.89	38644.59
529.07	38293.50
529.24	38176.48
529.41	37818.38
529.58	38548.62
529.75	38068.81
529.92	38560.33
530.09	38621.18
530.26	38628.20
530.43	39009.71
530.60	38569.69
530.77	38965.24
530.94	38670.33
531.11	38962.90
531.28	38934.81
531.46	39505.90
531.63	39442.71
531.80	39269.51
531.97	39096.31
532.14	38810.76
532.31	38909.07
532.48	39014.39
532.65	39208.65
532.82	39208.65
532.99	39278.87
533.16	39168.87
533.33	39290.57
533.50	39667.40
533.67	39304.62
533.84	39262.49
534.01	39599.52
534.18	39643.99
534.35	39655.70
534.52	39667.40
534.69	39882.73
534.86	39892.09
535.03	39739.96
535.20	40154.23
535.37	40718.30
535.54	40521.69
535.71	39971.67
535.88	40360.20
536.05	40198.70
536.22	40641.06
536.38	40383.60
536.55	40079.33
536.72	40322.75
536.89	39969.33
537.06	40451.48
537.23	40397.65
537.40	40182.32
537.57	40620.00
537.74	40360.20
537.91	40570.85
538.08	40807.24
538.25	40715.96
538.42	40397.65
538.59	40662.13
538.75	40301.68
538.92	40708.94
539.09	41006.19
539.26	41446.21
539.43	41116.19
539.60	40954.69
539.77	41041.29
539.94	41062.36
540.11	41038.95
540.28	41071.72
540.44	41212.15
540.61	41020.23
540.78	40767.45
540.95	41315.14
541.12	40744.05
541.29	41216.83
541.46	41574.94
541.62	41319.82
541.79	41518.76
541.96	41504.72
542.13	41675.58
542.30	41280.03
542.47	41827.71
542.63	41738.77
542.80	41486.00
542.97	42167.09
543.14	42094.53
543.31	41923.68
543.48	42057.09
543.64	42766.27
543.81	42312.20
543.98	42199.86
544.15	42314.55
544.32	42508.81
544.48	42564.98
544.65	42504.13
544.82	42256.03
544.99	42199.86
545.16	42447.96
545.32	42951.17
545.49	43117.35
545.66	42845.85
545.83	42775.63
546.00	42878.61
546.16	42810.74
546.33	42504.13
546.50	42375.40
546.67	42792.01
546.83	42536.90
547.00	42773.29
547.17	42770.95
547.34	42621.16
547.50	42602.43
547.67	43246.08
547.84	43005.00
548.00	43091.60
548.17	43227.35
548.34	43014.37
548.51	43550.35
548.67	43438.00
548.84	43208.63
549.01	43009.68
549.18	43166.50
549.34	43456.73
549.51	43466.09
549.68	43208.63
549.84	43276.51
550.01	43360.76
550.18	43452.05
550.34	43632.27
550.51	43550.35
550.68	43423.96
550.84	43227.35
551.01	43803.13
551.18	43318.64
551.34	43697.80
551.51	43599.50
551.68	43627.59
551.84	43826.53
552.01	43643.97
552.18	43917.81
552.34	43332.68
552.51	43639.29
552.68	43981.01
552.84	44170.59
553.01	44332.09
553.18	43840.57
553.34	43992.71
553.51	44229.10
553.67	43894.41
553.84	44137.82
554.01	44098.03
554.17	44009.09
554.34	44243.15
554.51	44458.48
554.67	44226.76
554.84	44460.82
555.00	44589.55
555.17	44343.79
555.33	44769.77
555.50	44346.13
555.67	44678.49
555.83	43976.33
556.00	44282.94
556.16	44795.51
556.33	44222.08
556.50	44589.55
556.66	44446.77
556.83	44367.20
556.99	44556.78
557.16	44753.38
557.32	44832.96
557.49	44566.14
557.65	44133.14
557.82	44744.02
557.98	44753.38
558.15	44722.96
558.32	44540.39
558.48	44306.34
558.65	44615.29
558.81	44788.49
558.98	44697.21
559.14	44493.58
559.31	44697.21
559.47	45081.06
559.64	44844.66
559.80	44533.37
559.97	44603.59
560.13	44781.47
560.30	44549.76
560.46	45191.06
560.63	44912.54
560.79	45275.32
560.96	45450.86
561.12	44336.77
561.29	44414.01
561.45	45460.23
561.61	45078.72
561.78	44872.75
561.94	44486.56
562.11	44655.08
562.27	44973.39
562.44	45151.27
562.60	45312.77
562.77	45085.74
562.93	45160.64
563.10	45855.78
563.26	44645.72
563.42	45230.85
563.59	44942.97
563.75	45130.21
563.92	44910.20
564.08	44954.67
564.24	45022.54
564.41	45368.94
564.57	45090.42
564.74	45109.14
564.90	45483.63
565.07	45432.14
565.23	45338.52
565.39	45631.08
565.56	45109.14
565.72	45233.19
565.88	45277.66
566.05	45188.72
566.21	45244.90
566.38	44917.22
566.54	45502.35
566.70	45834.71
566.87	45811.31
567.03	45914.29
567.19	45790.24
567.36	45371.28
567.52	45324.47
567.68	45270.64
567.85	45701.30
568.01	45502.35
568.17	45670.87
568.34	45797.26
568.50	45450.86
568.66	45415.76
568.83	45478.95
568.99	45394.69
569.15	45258.94
569.32	45125.53
569.48	45242.56
569.64	45839.39
569.81	45275.32
569.97	45319.79
570.13	45408.73
570.30	45385.33
570.46	45523.42
570.62	44949.99
570.78	44968.71
570.95	45364.26
571.11	45160.64
571.27	45504.70
571.43	45106.80
571.60	45237.87
571.76	45492.99
571.92	45308.09
572.09	45598.32
572.25	45595.98
572.41	45492.99
572.57	45839.39
572.74	45984.51
572.90	45642.79
573.06	45694.28
573.22	45635.77
573.38	45551.51
573.55	45113.83
573.71	45535.12
573.87	46143.66
574.03	45439.16
574.20	45689.60
574.36	45652.15
574.52	45572.57
574.68	45724.71
574.84	45450.86
575.01	45174.68
575.17	45581.93
575.33	45390.01
575.49	45258.94
575.65	45574.91
575.82	45785.56
575.98	45755.13
576.14	45989.19
576.30	45764.49
576.46	45689.60
576.62	45663.85
576.79	45652.15
576.95	45432.14
577.11	45652.15
577.27	45420.44
577.43	45736.41
577.59	45492.99
577.75	44900.84
577.92	45397.03
578.08	45216.81
578.24	45408.73
578.40	45556.19
578.56	45347.88
578.72	45691.94
578.88	45354.90
579.04	45434.48
579.21	45507.04
579.37	45792.58
579.53	45722.37
579.69	45684.92
579.85	45565.55
580.01	45652.15
580.17	45715.34
580.33	45642.79
580.49	46073.45
580.65	45663.85
580.82	45752.79
580.98	45467.25
581.14	45649.81
581.30	46078.13
581.46	45773.86
581.62	45855.78
581.78	45448.52
581.94	46263.03
582.10	45792.58
582.26	45954.08
582.42	45469.59
582.58	46160.05
582.74	45937.69
582.90	45902.59
583.06	45933.01
583.22	45853.44
583.38	45902.59
583.54	45925.99
583.70	45984.51
583.86	45928.33
584.02	45565.55
584.18	45771.52
584.34	45762.15
584.50	46190.47
584.66	45778.54
584.82	45944.72
584.98	46113.23
585.14	46396.44
585.30	45666.19
585.46	45830.03
585.62	45481.29
585.78	45764.49
585.94	45673.21
586.10	46232.60
586.26	45780.88
586.42	46366.01
586.58	45572.57
586.74	45687.26
586.90	45614.70
587.06	45705.98
587.22	45942.38
587.38	45579.59
587.54	45979.82
587.70	45797.26
587.86	45436.82
588.02	46000.89
588.18	46314.52
588.34	45420.44
588.49	45399.37
588.65	45034.25
588.81	45322.13
588.97	45329.16
589.13	45617.04
589.29	45235.53
589.45	45748.11
589.61	46131.96
589.77	46164.73
589.93	45649.81
590.08	46216.22
