SpectraSuite Data File
++++++++++++++++++++++++++++++++++++
Date: Fri Oct 25 10:44:06 EDT 2013
User: price-jones
Dark Spectrum Present: No
Reference Spectrum Present: No
Number of Sampled Component Spectra: 1
Spectrometers: USB2+H05261
Integration Time (usec): 100000 (USB2+H05261)
Spectra Averaged: 1 (USB2+H05261)
Boxcar Smoothing: 0 (USB2+H05261)
Correct for Electrical Dark: No (USB2+H05261)
Strobe/Lamp Enabled: No (USB2+H05261)
Correct for Detector Non-linearity: No (USB2+H05261)
Correct for Stray Light: No (USB2+H05261)
Number of Pixels in Processed Spectrum: 2048
>>>>>Begin Processed Spectral Data<<<<<
365.73	100.64
365.92	100.64
366.12	100.64
366.32	72.56
366.52	44.47
366.72	98.30
366.91	0.00
367.11	23.41
367.31	0.00
367.51	0.00
367.70	21.06
367.90	53.83
368.10	0.00
368.30	44.47
368.49	46.81
368.69	84.26
368.89	42.13
369.09	30.43
369.28	0.00
369.48	0.00
369.68	49.15
369.87	53.83
370.07	86.60
370.27	145.11
370.47	210.65
370.66	397.89
370.86	418.96
371.06	444.70
371.25	500.87
371.45	365.12
371.65	489.17
371.84	435.34
372.04	470.45
372.24	601.52
372.44	423.64
372.63	461.09
372.83	566.41
373.03	554.71
373.22	545.34
373.42	540.66
373.62	521.94
373.81	482.15
374.01	631.94
374.21	587.47
374.40	479.81
374.60	531.30
374.79	594.50
374.99	521.94
375.19	575.77
375.38	582.79
375.58	622.58
375.78	575.77
375.97	643.65
376.17	617.90
376.37	575.77
376.56	587.47
376.76	622.58
376.95	575.77
377.15	603.86
377.35	608.54
377.54	599.18
377.74	681.10
377.93	624.92
378.13	657.69
378.33	725.57
378.52	601.52
378.72	622.58
378.91	573.43
379.11	601.52
379.31	674.07
379.50	671.73
379.70	720.88
379.89	674.07
380.09	734.93
380.28	770.04
380.48	725.57
380.68	704.50
380.87	678.76
381.07	697.48
381.26	809.83
381.46	681.10
381.65	688.12
381.85	744.29
382.04	772.38
382.24	753.65
382.43	688.12
382.63	704.50
382.83	709.18
383.02	662.37
383.22	821.53
383.41	690.46
383.61	772.38
383.80	856.64
384.00	748.97
384.19	802.80
384.39	830.89
384.58	788.76
384.78	835.57
384.97	854.30
385.17	812.17
385.36	755.99
385.56	770.04
385.75	779.40
385.95	847.27
386.14	819.19
386.34	898.77
386.53	884.72
386.72	889.40
386.92	873.02
387.11	854.30
387.31	985.37
387.50	840.25
387.70	880.04
387.89	919.83
388.09	833.23
388.28	905.79
388.48	882.38
388.67	880.04
388.86	997.07
389.06	954.94
389.25	1006.43
389.45	968.98
389.64	912.81
389.84	1048.56
390.03	1036.86
390.22	990.05
390.42	978.34
390.61	1032.18
390.81	898.77
391.00	1074.31
391.19	1093.03
391.39	1090.69
391.58	1086.01
391.78	1067.28
391.97	1064.94
392.16	1078.99
392.36	1062.60
392.55	976.00
392.75	1050.90
392.94	1013.45
393.13	1041.54
393.33	1011.11
393.52	1008.77
393.71	1121.12
393.91	1088.35
394.10	1139.84
394.29	1060.26
394.49	1097.71
394.68	1266.23
394.88	1196.01
395.07	1240.48
395.26	1196.01
395.46	1203.04
395.65	1322.40
395.84	1198.35
396.04	1245.16
396.23	1111.75
396.42	1179.63
396.62	1214.74
396.81	1172.61
397.00	1268.57
397.19	1336.45
397.39	1317.72
397.58	1444.11
397.77	1380.92
397.97	1409.00
398.16	1465.18
398.35	1411.34
398.55	1425.39
398.74	1509.65
398.93	1500.28
399.12	1523.69
399.32	1502.62
399.51	1465.18
399.70	1556.46
399.90	1558.80
400.09	1661.78
400.28	1631.35
400.47	1542.41
400.67	1638.38
400.86	1591.56
401.05	1727.32
401.24	1692.21
401.44	1767.10
401.63	1781.15
401.82	1739.02
402.01	1636.03
402.21	1811.57
402.40	1750.72
402.59	1673.48
402.78	1769.44
402.97	1727.32
403.17	1881.79
403.36	1886.47
403.55	1881.79
403.74	1905.20
403.93	1842.00
404.13	1916.90
404.32	1846.68
404.51	1937.96
404.70	1937.96
404.89	2017.54
405.09	2001.16
405.28	1989.46
405.47	1923.92
405.66	1987.11
405.85	2005.84
406.05	1987.11
406.24	1984.77
406.43	2043.29
406.62	2054.99
406.81	2204.78
407.00	2228.19
407.20	2022.22
407.39	2033.93
407.58	2165.00
407.77	2209.47
407.96	2176.70
408.15	2387.35
408.34	2242.23
408.54	2298.41
408.73	2356.92
408.92	2207.13
409.11	2340.54
409.30	2389.69
409.49	2284.36
409.68	2246.91
409.87	2307.77
410.07	2361.60
410.26	2312.45
410.45	2420.11
410.64	2487.99
410.83	2424.80
411.02	2502.03
411.21	2670.55
411.40	2658.85
411.59	2555.86
411.78	2548.84
411.98	2583.95
412.17	2715.02
412.36	2818.00
412.55	2780.56
412.74	2771.19
412.93	2881.20
413.12	2715.02
413.31	2764.17
413.50	2813.32
413.69	3000.57
413.88	3045.04
414.07	2935.03
414.26	2897.58
414.45	2953.76
414.64	2911.63
414.83	3047.38
415.02	3138.66
415.22	3047.38
415.41	3157.38
415.60	3136.32
415.79	3197.17
415.98	3227.60
416.17	3225.26
416.36	3351.65
416.55	3199.51
416.74	3215.90
416.93	3325.90
417.12	3201.85
417.31	3426.54
417.50	3435.91
417.69	3653.58
417.88	3564.64
418.07	3241.64
418.26	3499.10
418.45	3644.21
418.64	3613.79
418.83	3581.02
419.02	3557.61
419.21	3700.39
419.39	3550.59
419.58	3559.95
419.77	3576.34
419.96	3541.23
420.15	3723.79
420.34	3669.96
420.53	3754.22
420.72	3836.14
420.91	3847.84
421.10	3843.16
421.29	4030.40
421.48	3859.54
421.67	3833.80
421.86	3871.25
422.05	3967.21
422.24	3878.27
422.43	4030.40
422.61	3999.98
422.80	3943.80
422.99	4039.76
423.18	3920.40
423.37	4018.70
423.56	3957.85
423.75	3927.42
423.94	3875.93
424.13	3712.09
424.32	3857.20
424.50	3946.14
424.69	4007.00
424.88	4049.13
425.07	3981.25
425.26	3978.91
425.45	3960.19
425.64	4063.17
425.83	3997.64
426.01	4002.32
426.20	3943.80
426.39	4119.34
426.58	3943.80
426.77	3957.85
426.96	3990.61
427.15	4011.68
427.33	4028.06
427.52	3915.72
427.71	4245.73
427.90	4145.09
428.09	4119.34
428.28	4259.78
428.46	4147.43
428.65	4079.55
428.84	4369.78
429.03	4259.78
429.22	4236.37
429.40	4259.78
429.59	4224.67
429.78	4042.11
429.97	3927.42
430.16	4044.45
430.34	4163.81
430.53	4315.95
430.72	4170.83
430.91	4322.97
431.10	4320.63
431.28	4671.71
431.47	4678.73
431.66	4624.90
431.85	4400.21
432.03	4718.52
432.22	4690.43
432.41	4613.20
432.60	4690.43
432.79	4744.27
432.97	4833.21
433.16	4765.33
433.35	4702.14
433.54	4713.84
433.72	4814.48
433.91	4683.41
434.10	4828.53
434.28	4863.63
434.47	4952.57
434.66	4947.89
434.85	5055.56
435.03	4931.51
435.22	4873.00
435.41	5153.86
435.59	5149.18
435.78	4999.38
435.97	4992.36
436.16	5069.60
436.34	5095.35
436.53	5331.74
436.72	5385.57
436.90	5163.22
437.09	5156.20
437.28	5188.97
437.46	5165.56
437.65	5170.24
437.84	5329.40
438.02	5163.22
438.21	5301.31
438.40	5153.86
438.58	5439.40
438.77	5565.79
438.96	5514.30
439.14	5547.07
439.33	5631.33
439.52	5654.73
439.70	5640.69
439.89	5706.23
440.08	5841.98
440.26	5603.24
440.45	5743.67
440.63	5905.17
440.82	5923.90
441.01	6024.54
441.19	6052.63
441.38	6176.67
441.57	6209.44
441.75	6235.19
441.94	6387.32
442.12	6368.60
442.31	6417.75
442.50	6375.62
442.68	6277.32
442.87	6317.11
443.05	6338.17
443.24	6452.86
443.43	6459.88
443.61	6455.20
443.80	6801.60
443.98	6546.48
444.17	6373.28
444.35	6604.99
444.54	6700.95
444.73	6544.14
444.91	6478.60
445.10	6647.12
445.28	6546.48
445.47	6471.58
445.65	6469.24
445.84	6502.01
446.02	6487.96
446.21	6525.41
446.39	6581.59
446.58	6637.76
446.77	6787.55
446.95	6572.22
447.14	6743.08
447.32	6906.92
447.51	6822.66
447.69	6722.02
447.88	6675.21
448.06	6874.15
448.25	6855.43
448.43	6803.94
448.62	6710.32
448.80	6888.20
448.99	6871.81
449.17	6930.33
449.36	6904.58
449.54	7133.95
449.73	7206.51
449.91	7269.70
450.10	7377.37
450.28	7159.70
450.46	7164.38
450.65	7297.79
450.83	7183.10
451.02	7220.55
451.20	7274.38
451.39	7279.07
451.57	7239.28
451.76	7253.32
451.94	7260.34
452.13	7405.46
452.31	7267.36
452.49	7002.88
452.68	7129.27
452.86	7150.34
453.05	7342.26
453.23	7351.62
453.42	7192.47
453.60	7368.01
453.78	7335.24
453.97	7428.86
454.15	7288.43
454.34	7506.10
454.52	7756.54
454.70	7634.83
454.89	7559.93
455.07	7623.12
455.26	7756.54
455.44	7817.39
455.62	7756.54
455.81	7946.12
455.99	7990.59
456.17	7908.67
456.36	7880.58
456.54	8030.38
456.73	8051.44
456.91	8149.75
457.09	8018.68
457.28	8301.88
457.46	8021.02
457.64	8074.85
457.83	8145.06
458.01	8086.55
458.19	8432.95
458.38	8100.59
458.56	8379.12
458.74	8322.94
458.93	8187.19
459.11	8416.57
459.29	8510.19
459.48	8531.25
459.66	8393.16
459.84	8482.10
460.03	8411.89
460.21	8688.07
460.39	8547.64
460.57	8659.98
460.76	8596.79
460.94	8578.06
461.12	8688.07
461.31	8793.39
461.49	8683.39
461.67	8727.86
461.85	9013.40
462.04	8884.67
462.22	9338.74
462.40	8985.32
462.59	9018.08
462.77	8978.30
462.95	9064.89
463.13	8856.59
463.32	8919.78
463.50	9121.07
463.68	9149.15
463.86	9158.52
464.05	9144.47
464.23	8912.76
464.41	9092.98
464.59	8823.82
464.78	9184.26
464.96	9130.43
465.14	9074.26
465.32	9294.27
465.50	9364.48
465.69	9310.65
465.87	9425.34
466.05	9366.82
466.23	9263.84
466.41	9357.46
466.60	9448.74
466.78	9029.79
466.96	9418.32
467.14	9256.82
467.32	9455.76
467.51	9591.52
467.69	9270.86
467.87	9497.89
468.05	9778.76
468.23	9516.62
468.41	9476.83
468.60	9378.53
468.78	9652.37
468.96	9666.41
469.14	9561.09
469.32	9949.62
469.50	9650.03
469.69	9830.25
469.87	9914.51
470.05	9994.09
470.23	9870.04
470.41	10017.49
470.59	9891.10
470.77	10052.60
470.95	10167.29
471.14	10303.04
471.32	10111.11
471.50	10401.34
471.68	10197.71
471.86	10537.09
472.04	10504.32
472.22	10544.11
472.40	10361.55
472.58	10260.91
472.77	10537.09
472.95	10637.73
473.13	11019.24
473.31	10576.88
473.49	10668.16
473.67	10789.87
473.85	10963.07
474.03	10888.17
474.21	11023.92
474.39	10995.84
474.57	11279.04
474.75	11157.33
474.93	11243.93
475.12	11180.74
475.30	11276.70
475.48	11213.51
475.66	11250.96
475.84	11386.71
476.02	11557.57
476.20	11473.31
476.38	11587.99
476.56	11990.56
476.74	11932.05
476.92	11709.70
477.10	12063.12
477.28	12184.83
477.46	12395.48
477.64	12306.54
477.82	12512.50
478.00	12681.02
478.18	12655.28
478.36	12610.81
478.54	12908.05
478.72	12833.16
478.90	12980.61
479.08	13095.30
479.26	13207.64
479.44	13406.59
479.62	13441.70
479.80	13495.53
479.98	13600.85
480.16	13792.78
480.34	13532.98
480.52	13870.01
480.70	13853.63
480.88	13788.10
481.06	13991.72
481.24	14005.77
481.41	14293.65
481.59	14380.25
481.77	14560.47
481.95	14576.86
482.13	14441.11
482.31	14637.71
482.49	15047.30
482.67	14761.76
482.85	15075.39
483.03	15225.18
483.21	15447.54
483.39	15438.17
483.57	15452.22
483.74	15761.17
483.92	15960.11
484.10	15737.76
484.28	16130.97
484.46	16388.43
484.64	16301.83
484.82	16273.74
485.00	16212.89
485.18	16575.67
485.35	16744.19
485.53	16035.01
485.71	16222.25
485.89	16688.02
486.07	16561.63
486.25	16727.81
486.43	16978.25
486.61	17205.28
486.78	17247.41
486.96	17366.78
487.14	18125.11
487.32	17790.41
487.50	18221.07
487.68	18403.63
487.85	18661.09
488.03	18312.35
488.21	18820.25
488.39	18609.60
488.57	18780.46
488.75	19056.64
488.92	19468.58
489.10	19534.11
489.28	19470.92
489.46	19742.42
489.64	19779.87
489.81	20238.61
489.99	20287.76
490.17	20397.77
490.35	20891.62
490.53	20367.34
490.70	20531.18
490.88	20727.78
491.06	21130.36
491.24	20875.24
491.41	20936.09
491.59	20931.41
491.77	20812.04
491.95	20964.18
492.13	21266.11
492.30	21706.13
492.48	21991.67
492.66	21666.34
492.84	21998.70
493.01	22242.11
493.19	22052.53
493.37	22520.63
493.54	22438.72
493.72	22796.82
493.90	22714.90
494.08	23232.16
494.25	23480.25
494.43	23634.73
494.61	23793.89
494.79	23843.04
494.96	23531.75
495.14	23892.19
495.32	23711.97
495.49	23934.32
495.67	24109.86
495.85	24418.81
496.02	24376.68
496.20	24847.13
496.38	24643.50
496.55	24730.10
496.73	25446.30
496.91	24992.24
497.09	25322.26
497.26	25649.93
497.44	24992.24
497.62	25167.78
497.79	25867.60
497.97	25465.03
498.14	25869.94
498.32	26256.13
498.50	25993.99
498.67	26087.61
498.85	26316.98
499.03	26216.34
499.20	26396.56
499.38	26944.25
499.56	26464.44
499.73	26331.03
499.91	26719.56
500.08	26801.47
500.26	26654.02
500.44	26611.89
500.61	26864.67
500.79	26771.05
500.97	27180.64
501.14	27388.95
501.32	27206.39
501.49	27304.69
501.67	27438.10
501.84	27704.92
502.02	27653.43
502.20	27969.40
502.37	27924.93
502.55	28126.22
502.72	28334.53
502.90	28442.19
503.07	28079.41
503.25	28393.04
503.43	28627.09
503.60	28390.70
503.78	28402.40
503.95	28685.61
504.13	28624.75
504.30	28718.37
504.48	28739.44
504.65	29109.24
504.83	29254.36
505.01	29357.34
505.18	29495.43
505.36	29694.38
505.53	29682.67
505.71	30078.22
505.88	30134.40
506.06	29834.81
506.23	30085.25
506.41	29851.19
506.58	30181.21
506.76	29972.90
506.93	29921.41
507.11	29968.22
507.28	30501.86
507.46	30008.01
507.63	30443.35
507.81	30340.36
507.98	30160.14
508.16	30848.26
508.33	30700.81
508.50	30625.91
508.68	31290.62
508.85	31356.16
509.03	30948.90
509.20	31180.62
509.38	31517.65
509.55	31395.95
509.73	31828.95
509.90	31524.68
510.08	31512.97
510.25	31424.03
510.42	31749.37
510.60	31716.60
510.77	31838.31
510.95	32077.04
511.12	32023.21
511.30	32133.21
511.47	32648.13
511.64	32496.00
511.82	32704.31
511.99	32650.47
512.17	32723.03
512.34	32500.68
512.51	32496.00
512.69	33062.41
512.86	32924.32
513.04	33149.01
513.21	33064.75
513.38	33153.69
513.56	33060.07
513.73	32877.51
513.90	33591.37
514.08	33214.54
514.25	33216.88
514.43	33563.28
514.60	33464.98
514.77	33797.34
514.95	34532.26
515.12	34092.24
515.29	33830.10
515.47	34082.88
515.64	34272.46
515.81	34284.17
515.99	33993.94
516.16	34052.45
516.33	34022.03
516.51	33893.30
516.68	33472.00
516.85	33612.43
517.03	33930.75
517.20	34148.42
517.37	34345.02
517.54	35049.52
517.72	34536.94
517.89	34167.14
518.06	34160.12
518.24	34387.15
518.41	34494.82
518.58	34799.08
518.75	34911.43
518.93	35065.91
519.10	35213.36
519.27	35051.86
519.45	35262.51
519.62	35571.46
519.79	35517.63
519.96	35695.51
520.14	35608.91
520.31	35496.56
520.48	35367.84
520.65	35487.20
520.83	36350.86
521.00	36177.66
521.17	35917.86
521.34	36500.65
521.52	36362.56
521.69	36418.74
521.86	36648.11
522.03	36711.30
522.20	36362.56
522.38	37062.38
522.55	36341.50
522.72	36587.25
522.89	36711.30
523.07	36851.73
523.24	36980.46
523.41	37153.66
523.58	36994.51
523.75	37567.94
523.92	37376.01
524.10	37928.38
524.27	37773.91
524.44	37457.93
524.61	37764.54
524.78	37757.52
524.96	37507.08
525.13	37935.40
525.30	37762.20
525.47	38064.13
525.64	38171.80
525.81	38129.67
525.98	37940.08
526.16	37766.88
526.33	37563.26
526.50	38197.54
526.67	37469.64
526.84	37912.00
527.01	37757.52
527.18	38078.18
527.36	38848.21
527.53	38508.83
527.70	38464.36
527.87	38548.62
528.04	38653.95
528.21	38911.41
528.38	38785.02
528.55	38962.90
528.72	39110.35
528.89	39695.49
529.07	39218.02
529.24	39250.78
529.41	39367.81
529.58	39196.95
529.75	39033.11
529.92	39271.85
530.09	39639.31
530.26	39711.87
530.43	39835.92
530.60	39466.11
530.77	39763.36
530.94	40247.85
531.11	39501.22
531.28	39763.36
531.46	39665.06
531.63	40044.23
531.80	39971.67
531.97	40224.45
532.14	39910.82
532.31	39447.39
532.48	39718.89
532.65	39892.09
532.82	39819.53
532.99	40311.05
533.16	40041.88
533.33	40261.90
533.50	40355.52
533.67	40196.36
533.84	39856.98
534.01	40371.90
534.18	40329.77
534.35	40636.38
534.52	40528.72
534.69	40744.05
534.86	40722.98
535.03	40397.65
535.20	40994.48
535.37	41036.61
535.54	41273.01
535.71	41158.32
535.88	41116.19
536.05	40910.22
536.22	41167.68
536.38	41476.63
536.55	41212.15
536.72	40662.13
536.89	41092.79
537.06	41024.91
537.23	41596.00
537.40	41544.51
537.57	41762.18
537.74	41680.26
537.91	41647.49
538.08	41708.35
538.25	41244.92
538.42	41418.12
538.59	41879.21
538.75	41319.82
538.92	41638.13
539.09	41418.12
539.26	41844.10
539.43	41851.12
539.60	42131.98
539.77	41752.82
539.94	41649.83
540.11	41411.10
540.28	41488.34
540.44	42134.32
540.61	41834.74
540.78	41970.49
540.95	41600.68
541.12	41911.97
541.29	42087.51
541.46	41991.55
541.62	42300.50
541.79	42251.35
541.96	41893.25
542.13	42335.61
542.30	42244.33
542.47	42466.68
542.63	42017.30
542.80	42656.26
542.97	42859.89
543.14	42923.08
543.31	42754.57
543.48	42857.55
543.64	43335.02
543.81	43335.02
543.98	43005.00
544.15	43103.31
544.32	43356.08
544.48	43136.07
544.65	43519.92
544.82	43718.87
544.99	43077.56
545.16	43398.21
545.32	43201.61
545.49	43643.97
545.66	43732.91
545.83	43632.27
546.00	43672.06
546.16	43454.39
546.33	43728.23
546.50	43246.08
546.67	43772.70
546.83	43208.63
547.00	43274.16
547.17	43894.41
547.34	43571.41
547.50	43711.84
547.67	43468.43
547.84	44093.35
548.00	44238.47
548.17	44144.84
548.34	43800.79
548.51	44196.34
548.67	44006.75
548.84	43700.14
549.01	43866.32
549.18	44072.29
549.34	43852.28
549.51	44259.53
549.68	44406.98
549.84	44449.11
550.01	44786.15
550.18	44278.25
550.34	44217.40
550.51	44318.04
550.68	43927.17
550.84	44013.77
551.01	44360.17
551.18	44186.97
551.34	44446.77
551.51	44725.30
551.68	44854.03
551.84	44935.95
552.01	44142.50
552.18	44669.12
552.34	44243.15
552.51	44683.17
552.68	44498.26
552.84	44912.54
553.01	45209.79
553.18	44835.30
553.34	44596.57
553.51	44898.50
553.67	45092.76
553.84	44854.03
554.01	45247.24
554.17	45090.42
554.34	45097.44
554.51	44928.92
554.67	45081.06
554.84	44619.97
555.00	45081.06
555.17	44744.02
555.33	45195.74
555.50	45104.46
555.67	44678.49
555.83	45303.41
556.00	45193.40
556.16	45408.73
556.33	45619.38
556.50	45415.76
556.66	45193.40
556.83	44793.17
556.99	45078.72
557.16	45837.05
557.32	45640.45
557.49	45570.23
557.65	44982.76
557.82	44975.73
557.98	45317.45
558.15	45642.79
558.32	45815.99
558.48	45174.68
558.65	45158.30
558.81	44971.05
558.98	45315.11
559.14	45345.54
559.31	45146.59
559.47	45502.35
559.64	45818.33
559.80	45965.78
559.97	45684.92
560.13	45380.65
560.30	45942.38
560.46	45532.78
560.63	45640.45
560.79	45813.65
560.96	45890.88
561.12	45729.39
561.29	45649.81
561.45	45979.82
561.61	45773.86
561.78	45607.68
561.94	45476.61
562.11	45785.56
562.27	45338.52
562.44	46150.68
562.60	45900.25
562.77	45900.25
562.93	46094.51
563.10	46396.44
563.26	45394.69
563.42	45846.41
563.59	45984.51
563.75	45755.13
563.92	45907.27
564.08	46059.40
564.24	45961.10
564.41	45684.92
564.57	45827.69
564.74	45942.38
564.90	45785.56
565.07	46155.36
565.23	45701.30
565.39	45815.99
565.56	46174.09
565.72	45944.72
565.88	46099.19
566.05	45661.51
566.21	46209.20
566.38	45911.95
566.54	46089.83
566.70	46560.28
566.87	46370.69
567.03	45827.69
567.19	46286.43
567.36	46396.44
567.52	46085.15
567.68	46120.26
567.85	45813.65
568.01	46387.08
568.17	45949.40
568.34	46602.41
568.50	46330.90
568.66	46047.70
568.83	46382.40
568.99	45727.05
569.15	45797.26
569.32	46031.32
569.48	45914.29
569.64	46616.45
569.81	46183.45
569.97	46038.34
570.13	46260.69
570.30	46300.48
570.46	45729.39
570.62	45848.75
570.78	46115.58
570.95	46188.13
571.11	46120.26
571.27	46447.93
571.43	46464.32
571.60	45879.18
571.76	46487.72
571.92	45998.55
572.09	46052.38
572.25	46213.88
572.41	46195.15
572.57	46422.19
572.74	46934.76
572.90	45963.44
573.06	46066.42
573.22	46300.48
573.38	46567.30
573.55	46181.11
573.71	46401.12
573.87	46358.99
574.03	46185.79
574.20	46281.75
574.36	46169.41
574.52	46220.90
574.68	46153.02
574.84	46192.81
575.01	46153.02
575.17	46272.39
575.33	46347.29
575.49	46499.42
575.65	46480.70
575.82	46258.35
575.98	46092.17
576.14	46506.44
576.30	46522.83
576.46	46642.20
576.62	46138.98
576.79	46265.37
576.95	46253.67
577.11	46239.62
577.27	46239.62
577.43	46443.25
577.59	46162.39
577.75	46412.82
577.92	45841.73
578.08	46202.18
578.24	46043.02
578.40	46382.40
578.56	46630.49
578.72	46487.72
578.88	46749.86
579.04	46534.53
579.21	46513.47
579.37	46061.74
579.53	46380.06
579.69	46253.67
579.85	46391.76
580.01	46302.82
580.17	46391.76
580.33	46782.63
580.49	46890.29
580.65	46553.26
580.82	46351.97
580.98	46583.68
581.14	46370.69
581.30	46689.01
581.46	46571.98
581.62	46508.79
581.78	46983.91
581.94	46759.22
582.10	46560.28
582.26	46852.84
582.42	46375.37
582.58	46749.86
582.74	46674.96
582.90	46536.87
583.06	46761.56
583.22	46490.06
583.38	46681.98
583.54	46602.41
583.70	46749.86
583.86	46892.63
584.02	46396.44
584.18	46686.67
584.34	46438.57
584.50	46176.43
584.66	46504.10
584.82	46497.08
584.98	46504.10
585.14	46461.97
585.30	46637.51
585.46	46740.50
585.62	46300.48
585.78	45832.37
585.94	46314.52
586.10	46761.56
586.26	46611.77
586.42	46927.74
586.58	46852.84
586.74	46777.95
586.90	46480.70
587.06	46260.69
587.22	46841.14
587.38	46347.29
587.54	46625.81
587.70	46714.75
587.86	46536.87
588.02	46597.73
588.18	46419.84
588.34	46150.68
588.49	45827.69
588.65	45778.54
588.81	46059.40
588.97	46405.80
589.13	46061.74
589.29	46646.88
589.45	46096.85
589.61	46454.95
589.77	46548.57
589.93	46583.68
