SpectraSuite Data File
++++++++++++++++++++++++++++++++++++
Date: Fri Oct 25 11:22:46 EDT 2013
User: price-jones
Dark Spectrum Present: No
Reference Spectrum Present: No
Number of Sampled Component Spectra: 1
Spectrometers: USB2+H05261
Integration Time (usec): 100000 (USB2+H05261)
Spectra Averaged: 1 (USB2+H05261)
Boxcar Smoothing: 0 (USB2+H05261)
Correct for Electrical Dark: No (USB2+H05261)
Strobe/Lamp Enabled: No (USB2+H05261)
Correct for Detector Non-linearity: No (USB2+H05261)
Correct for Stray Light: No (USB2+H05261)
Number of Pixels in Processed Spectrum: 2048
>>>>>Begin Processed Spectral Data<<<<<
365.73	299.59
365.92	299.59
366.12	299.59
366.32	154.48
366.52	112.35
366.72	203.63
366.91	65.54
367.11	140.43
367.31	142.77
367.51	145.11
367.70	105.32
367.90	117.03
368.10	126.39
368.30	117.03
368.49	156.82
368.69	173.20
368.89	147.45
369.09	124.05
369.28	159.16
369.48	205.97
369.68	166.18
369.87	166.18
370.07	149.79
370.27	198.95
370.47	292.57
370.66	580.45
370.86	594.50
371.06	678.76
371.25	671.73
371.45	627.26
371.65	723.23
371.84	664.71
372.04	702.16
372.24	727.91
372.44	702.16
372.63	678.76
372.83	828.55
373.03	697.48
373.22	748.97
373.42	837.91
373.62	795.78
373.81	791.10
374.01	936.21
374.21	788.76
374.40	929.19
374.60	894.08
374.79	765.36
374.99	791.10
375.19	767.70
375.38	849.61
375.58	809.83
375.78	873.02
375.97	840.25
376.17	877.70
376.37	894.08
376.56	786.42
376.76	861.32
376.95	809.83
377.15	877.70
377.35	966.64
377.54	854.30
377.74	919.83
377.93	952.60
378.13	875.36
378.33	866.00
378.52	943.24
378.72	957.28
378.91	919.83
379.11	938.55
379.31	1015.79
379.50	823.87
379.70	1043.88
379.89	976.00
380.09	966.64
380.28	875.36
380.48	973.66
380.68	994.73
380.87	959.62
381.07	1025.15
381.26	1036.86
381.46	931.53
381.65	1076.65
381.85	1013.45
382.04	1090.69
382.24	1086.01
382.43	994.73
382.63	1160.91
382.83	1097.71
383.02	1142.18
383.22	1181.97
383.41	1078.99
383.61	1093.03
383.80	1067.28
384.00	1039.20
384.19	1076.65
384.39	1181.97
384.58	1114.10
384.78	1158.57
384.97	1116.44
385.17	1172.61
385.36	1146.86
385.56	1156.22
385.75	1128.14
385.95	1261.55
386.14	1172.61
386.34	1160.91
386.53	1158.57
386.72	1212.40
386.92	1287.29
387.11	1252.19
387.31	1233.46
387.50	1277.93
387.70	1235.80
387.89	1289.64
388.09	1303.68
388.28	1247.51
388.48	1329.42
388.67	1383.26
388.86	1280.27
389.06	1284.95
389.25	1301.34
389.45	1362.19
389.64	1299.00
389.84	1376.24
390.03	1366.87
390.22	1373.89
390.42	1387.94
390.61	1357.51
390.81	1380.92
391.00	1366.87
391.19	1423.05
391.39	1467.52
391.58	1526.03
391.78	1406.66
391.97	1519.01
392.16	1399.64
392.36	1514.33
392.55	1409.00
392.75	1572.84
392.94	1479.22
393.13	1495.60
393.33	1504.96
393.52	1521.35
393.71	1572.84
393.91	1547.09
394.10	1584.54
394.29	1689.87
394.49	1640.72
394.68	1724.97
394.88	1591.56
395.07	1624.33
395.26	1694.55
395.46	1755.40
395.65	1633.69
395.84	1701.57
396.04	1701.57
396.23	1710.93
396.42	1809.23
396.62	1788.17
396.81	1816.26
397.00	1839.66
397.19	1746.04
397.39	1818.60
397.58	1776.47
397.77	1720.29
397.97	1844.34
398.16	1884.13
398.35	1961.37
398.55	1846.68
398.74	1944.99
398.93	1944.99
399.12	1930.94
399.32	1987.11
399.51	1919.24
399.70	1944.99
399.90	2026.90
400.09	1959.03
400.28	2106.48
400.47	2076.06
400.67	2111.16
400.86	2115.84
401.05	2150.95
401.24	2118.18
401.44	2129.89
401.63	2167.34
401.82	2153.29
402.01	2057.33
402.21	2221.17
402.40	2120.53
402.59	2129.89
402.78	2221.17
402.97	2188.40
403.17	2197.76
403.36	2244.57
403.55	2176.70
403.74	2326.49
403.93	2321.81
404.13	2434.16
404.32	2349.90
404.51	2457.56
404.70	2441.18
404.89	2457.56
405.09	2420.11
405.28	2438.84
405.47	2401.39
405.66	2485.65
405.85	2600.34
406.05	2534.80
406.24	2546.50
406.43	2609.70
406.62	2651.83
406.81	2619.06
407.00	2576.93
407.20	2537.14
407.39	2689.28
407.58	2801.62
407.77	2724.38
407.96	2757.15
408.15	2654.17
408.34	2750.13
408.54	2738.43
408.73	2862.48
408.92	2839.07
409.11	2930.35
409.30	2803.96
409.49	3052.06
409.68	2958.44
409.87	2925.67
410.07	2911.63
410.26	3054.40
410.45	2960.78
410.64	3101.21
410.83	3119.93
411.02	3143.34
411.21	3187.81
411.40	3295.47
411.59	3239.30
411.78	3258.03
411.98	3199.51
412.17	3297.81
412.36	3358.67
412.55	3351.65
412.74	3417.18
412.93	3407.82
413.12	3353.99
413.31	3487.40
413.50	3506.12
413.69	3510.80
413.88	3618.47
414.07	3684.00
414.26	3705.07
414.45	3637.19
414.64	3688.68
414.83	3798.69
415.02	3838.48
415.22	3730.81
415.41	3768.26
415.60	3941.46
415.79	3906.35
415.98	3866.56
416.17	4058.49
416.36	3913.38
416.55	4044.45
416.74	4070.19
416.93	4065.51
417.12	4135.73
417.31	4105.30
417.50	4203.60
417.69	4341.69
417.88	4248.07
418.07	4374.46
418.26	4318.29
418.45	4437.66
418.64	4463.40
418.83	4440.00
419.02	4428.29
419.21	4325.31
419.39	4521.92
419.58	4554.68
419.77	4472.76
419.96	4545.32
420.15	4620.22
420.34	4652.98
420.53	4599.15
420.72	4688.09
420.91	4725.54
421.10	4779.37
421.29	4788.74
421.48	4596.81
421.67	4894.06
421.86	4851.93
422.05	4936.19
422.24	4781.71
422.43	5036.83
422.61	4891.72
422.80	5121.09
422.99	4990.02
423.18	4835.55
423.37	4983.00
423.56	4975.98
423.75	4877.68
423.94	4933.85
424.13	4627.24
424.32	4816.82
424.50	4908.10
424.69	5067.26
424.88	5200.67
425.07	4950.23
425.26	4910.44
425.45	5001.72
425.64	5076.62
425.83	4915.12
426.01	5160.88
426.20	5135.14
426.39	4954.91
426.58	5125.77
426.77	5027.47
426.96	5221.74
427.15	5193.65
427.33	5205.35
427.52	5188.97
427.71	5329.40
427.90	5212.37
428.09	5355.15
428.28	5418.34
428.46	5411.32
428.65	5322.38
428.84	5570.48
429.03	5652.39
429.22	5345.78
429.40	5423.02
429.59	5685.16
429.78	5493.24
429.97	5357.49
430.16	5453.45
430.34	5586.86
430.53	5621.97
430.72	5731.97
430.91	5561.11
431.10	5750.70
431.28	5713.25
431.47	5785.80
431.66	5942.62
431.85	5834.96
432.03	5916.87
432.22	5921.56
432.41	5834.96
432.60	5893.47
432.79	5944.96
432.97	6148.59
433.16	6225.82
433.35	6005.81
433.54	6148.59
433.72	6036.24
433.91	6003.47
434.10	6066.67
434.28	6132.20
434.47	6136.88
434.66	6319.45
434.85	6244.55
435.03	6368.60
435.22	6286.68
435.41	6473.92
435.59	6523.07
435.78	6539.46
435.97	6502.01
436.16	6546.48
436.34	6494.99
436.53	6494.99
436.72	6731.38
436.90	6427.11
437.09	6691.59
437.28	6417.75
437.46	6565.20
437.65	6712.66
437.84	6923.30
438.02	6794.58
438.21	6902.24
438.40	6693.93
438.58	7054.37
438.77	6984.16
438.96	7068.42
439.14	7197.15
439.33	7145.66
439.52	7325.88
439.70	7208.85
439.89	7386.73
440.08	7342.26
440.26	7403.11
440.45	7562.27
440.63	7515.46
440.82	7569.29
441.01	7686.32
441.19	7714.41
441.38	7801.01
441.57	7906.33
441.75	7775.26
441.94	7817.39
442.12	8187.19
442.31	8065.49
442.50	8028.04
442.68	7946.12
442.87	8028.04
443.05	8030.38
443.24	8355.71
443.43	8259.75
443.61	8329.97
443.80	8418.91
443.98	8109.96
444.17	8042.08
444.35	8241.03
444.54	8650.62
444.73	8449.33
444.91	8299.54
445.10	8489.12
445.28	8400.18
445.47	8250.39
445.65	8374.44
445.84	8332.31
446.02	8191.88
446.21	8411.89
446.39	8332.31
446.58	8430.61
446.77	8306.56
446.95	8362.73
447.14	8430.61
447.32	8601.47
447.51	8400.18
447.69	8367.42
447.88	8557.00
448.06	8407.20
448.25	8446.99
448.43	8746.58
448.62	8542.96
448.80	8573.38
448.99	8950.21
449.17	8891.70
449.36	8683.39
449.54	8816.80
449.73	8947.87
449.91	9135.11
450.10	9029.79
450.28	9158.52
450.46	9221.71
450.65	8978.30
450.83	8973.61
451.02	9074.26
451.20	9294.27
451.39	9217.03
451.57	9247.46
451.76	9184.26
451.94	9273.20
452.13	9481.51
452.31	9284.91
452.49	9329.38
452.68	9558.75
452.86	9408.95
453.05	9320.01
453.23	9373.85
453.42	9408.95
453.60	9390.23
453.78	9493.21
453.97	9411.29
454.15	9387.89
454.34	9504.92
454.52	9706.20
454.70	9682.80
454.89	9898.13
455.07	9933.23
455.26	10052.60
455.44	10031.54
455.62	10040.90
455.81	9870.04
455.99	9982.38
456.17	10019.83
456.36	10190.69
456.54	10061.96
456.73	10246.87
456.91	10284.31
457.09	10541.77
457.28	10434.11
457.46	10307.72
457.64	10628.37
457.83	10604.97
458.01	10593.26
458.19	10946.69
458.38	10693.91
458.56	10934.98
458.74	10857.75
458.93	10637.73
459.11	10930.30
459.29	10665.82
459.48	10808.59
459.66	10934.98
459.84	11054.35
460.03	11321.17
460.21	11063.71
460.39	11194.78
460.57	11014.56
460.76	11084.78
460.94	11330.53
461.12	11386.71
461.31	11073.07
461.49	11339.90
461.67	11389.05
461.85	11639.48
462.04	11358.62
462.22	11990.56
462.40	11714.38
462.59	11602.04
462.77	11520.12
462.95	11803.32
463.13	11758.85
463.32	11676.93
463.50	11939.07
463.68	11831.41
463.86	11758.85
464.05	11833.75
464.23	11894.60
464.41	11939.07
464.59	11829.07
464.78	12196.53
464.96	12081.85
465.14	12044.40
465.32	11964.82
465.50	11953.12
465.69	12512.50
465.87	12292.49
466.05	12325.26
466.23	12219.94
466.41	12273.77
466.60	12484.42
466.78	12365.05
466.96	12198.87
467.14	12231.64
467.32	12444.63
467.51	12636.55
467.69	12287.81
467.87	12528.89
468.05	12751.24
468.23	12500.80
468.41	12601.44
468.60	12779.32
468.78	12744.22
468.96	12812.09
469.14	12989.97
469.32	12826.14
469.50	12746.56
469.69	12936.14
469.87	13303.60
470.05	13071.89
470.23	13387.86
470.41	13331.69
470.59	13238.07
470.77	13242.75
470.95	13369.14
471.14	13668.73
471.32	13338.71
471.50	13507.23
471.68	13509.57
471.86	13678.09
472.04	13776.39
472.22	14087.68
472.40	13839.59
472.58	14029.17
472.77	14122.79
472.95	14380.25
473.13	14457.49
473.31	13984.70
473.49	14345.14
473.67	14359.19
473.85	14445.79
474.03	14785.16
474.21	14663.46
474.39	14841.34
474.57	14850.70
474.75	15063.69
474.93	15037.94
475.12	15119.86
475.30	15389.02
475.48	15082.41
475.66	15248.59
475.84	15077.73
476.02	15396.04
476.20	15342.21
476.38	15822.02
476.56	16343.96
476.74	16058.42
476.92	15796.28
477.10	15807.98
477.28	16465.67
477.46	16472.69
477.64	16762.92
477.82	16762.92
478.00	17165.49
478.18	16788.66
478.36	17050.80
478.54	17338.69
478.72	17303.58
478.90	17701.47
479.08	17928.50
479.26	17783.39
479.44	17680.41
479.62	17947.23
479.80	18279.58
479.98	18141.49
480.16	18675.13
480.34	18614.28
480.52	18642.37
480.70	18892.80
480.88	18499.59
481.06	18944.30
481.24	18934.93
481.41	19576.24
481.59	19449.85
481.77	19344.53
481.95	19665.18
482.13	19922.64
482.31	19913.28
482.49	20542.88
482.67	20240.95
482.85	20407.13
483.03	20666.93
483.21	21312.92
483.39	21018.01
483.57	21212.28
483.74	21348.03
483.92	21535.27
484.10	21231.00
484.28	22040.82
484.46	22082.95
484.64	22490.21
484.82	22293.60
485.00	22583.83
485.18	22864.69
485.35	23316.42
485.53	22911.50
485.71	23262.58
485.89	23393.65
486.07	23440.47
486.25	23688.56
486.43	24226.89
486.61	23934.32
486.78	24416.47
486.96	24236.25
487.14	24858.83
487.32	24659.88
487.50	25027.35
487.68	25252.04
487.85	25652.27
488.03	25553.97
488.21	25958.88
488.39	25797.38
488.57	26401.24
488.75	26375.50
488.92	26541.68
489.10	27054.25
489.28	26740.62
489.46	27316.39
489.64	27126.81
489.81	27777.48
489.99	27814.93
490.17	27847.69
490.35	28360.27
490.53	28371.97
490.70	28645.82
490.88	28416.44
491.06	28816.68
491.24	28952.43
491.41	29027.32
491.59	29216.91
491.77	29514.16
491.95	29628.84
492.13	29898.00
492.30	30391.86
492.48	30253.76
492.66	30171.85
492.84	30258.45
493.01	30679.74
493.19	31061.25
493.37	31040.18
493.54	31473.18
493.72	31885.12
493.90	31620.64
494.08	32121.51
494.25	32278.33
494.43	32535.79
494.61	32283.01
494.79	32474.93
494.96	32842.40
495.14	32917.29
495.32	33324.55
495.49	33172.41
495.67	33294.12
495.85	33687.33
496.02	34106.29
496.20	34029.05
496.38	34155.44
496.55	34237.36
496.73	34857.60
496.91	34611.84
497.09	35082.29
497.26	35222.72
497.44	34934.84
497.62	35592.53
497.79	36123.83
497.97	35690.83
498.14	35831.26
498.32	36488.95
498.50	36566.19
498.67	36622.36
498.85	36713.64
499.03	36765.14
499.20	37020.25
499.38	37324.52
499.56	37359.63
499.73	37619.43
499.91	37628.79
500.08	37813.70
500.26	37699.01
500.44	38167.12
500.61	37919.02
500.79	38508.83
500.97	38237.33
501.14	38756.93
501.32	39292.91
501.49	38754.59
501.67	39096.31
501.84	39187.59
502.02	39203.97
502.20	39325.68
502.37	39564.42
502.55	39154.82
502.72	39622.93
502.90	39992.73
503.07	39962.31
503.25	40505.31
503.43	40299.34
503.60	40587.23
503.78	40208.06
503.95	40676.17
504.13	40830.65
504.30	40999.16
504.48	40821.28
504.65	41420.46
504.83	41137.26
505.01	41727.07
505.18	41556.21
505.36	41846.44
505.53	41366.63
505.71	41825.37
505.88	42146.03
506.06	41886.23
506.23	41696.64
506.41	42260.71
506.58	42253.69
506.76	42302.84
506.93	42651.58
507.11	42614.13
507.28	43178.20
507.46	43089.26
507.63	43070.54
507.81	43262.46
507.98	43164.16
508.16	43536.30
508.33	43854.62
508.50	43423.96
508.68	44004.41
508.85	44385.92
509.03	44280.60
509.20	44414.01
509.38	44467.84
509.55	44619.97
509.73	44364.85
509.90	45118.51
510.08	44732.32
510.25	45003.82
510.42	44729.98
510.60	45375.97
510.77	45673.21
510.95	45497.67
511.12	45174.68
511.30	45518.74
511.47	45888.54
511.64	45556.19
511.82	46209.20
511.99	45975.14
512.17	46263.03
512.34	46000.89
512.51	46483.04
512.69	46581.34
512.86	46555.60
513.04	46782.63
513.21	46834.12
513.38	46845.82
513.56	47119.66
513.73	47084.56
513.90	47650.97
514.08	47042.43
514.25	47480.11
514.43	47866.30
514.60	47615.86
514.77	47910.77
514.95	48072.26
515.12	48051.20
515.29	47922.47
515.47	48280.57
515.64	48200.99
515.81	48610.59
515.99	48313.34
516.16	48980.39
516.33	48868.05
516.51	49242.53
516.68	48889.11
516.85	48786.13
517.03	49181.68
517.20	49350.20
517.37	48975.71
517.54	49132.53
517.72	49198.06
517.89	49425.09
518.06	49439.14
518.24	49525.74
518.41	49551.48
518.58	49516.37
518.75	49661.49
518.93	49813.62
519.10	49481.27
519.27	49811.28
519.45	49963.42
519.62	50309.82
519.79	50085.12
519.96	50251.30
520.14	50342.58
520.31	50279.39
520.48	50834.10
520.65	50775.58
520.83	51253.05
521.00	51386.46
521.17	50721.75
521.34	50724.09
521.52	50937.08
521.69	50808.35
521.86	51187.52
522.03	51660.30
522.20	51547.96
522.38	51711.80
522.55	51341.99
522.72	51789.03
522.89	51482.42
523.07	51917.76
523.24	52030.11
523.41	51915.42
523.58	51828.82
523.75	52034.79
523.92	51987.98
524.10	52294.59
524.27	52030.11
524.44	52530.98
524.61	52570.77
524.78	52179.90
524.96	52584.82
525.13	52561.41
525.30	52608.22
525.47	52643.33
525.64	52828.23
525.81	52767.38
525.98	53041.22
526.16	52837.59
526.33	52889.09
526.50	53216.76
526.67	52830.57
526.84	53308.04
527.01	52985.05
527.18	53329.11
527.36	53396.98
527.53	53301.02
527.70	53375.92
527.87	53715.29
528.04	53198.04
528.21	53371.24
528.38	53434.43
528.55	53839.34
528.72	53673.16
528.89	53748.06
529.07	53556.14
529.24	53736.36
529.41	53680.19
529.58	53734.02
529.75	53855.73
529.92	53998.50
530.09	54073.40
530.26	54298.09
530.43	54426.82
530.60	54124.89
530.77	54038.29
530.94	54527.46
531.11	54213.83
531.28	54515.76
531.46	54644.49
531.63	54590.66
531.80	54541.50
531.97	54370.64
532.14	54710.02
532.31	54995.57
532.48	54731.09
532.65	54951.10
532.82	54721.72
532.99	54864.50
533.16	54897.27
533.33	55023.65
533.50	55309.20
533.67	55091.53
533.84	55138.34
534.01	55009.61
534.18	55178.13
534.35	55395.80
534.52	55377.08
534.69	55496.44
534.86	55498.78
535.03	55260.05
535.20	55365.37
535.37	55648.58
535.54	55585.38
535.71	55243.66
535.88	55674.32
536.05	55611.13
536.22	55683.69
536.38	55597.09
536.55	55751.56
536.72	55793.69
536.89	55653.26
537.06	55861.57
537.23	55873.27
537.40	55973.91
537.57	55620.49
537.74	55873.27
537.91	56182.22
538.08	56158.81
538.25	55994.98
538.42	55964.55
538.59	56168.18
538.75	56097.96
538.92	56196.26
539.09	56577.77
539.26	56177.54
539.43	56268.82
539.60	56404.57
539.77	56369.46
539.94	56655.01
540.11	56364.78
540.28	56755.65
540.44	56769.69
540.61	56530.96
540.78	56523.94
540.95	56509.89
541.12	56512.23
541.29	56741.61
541.46	56802.46
541.62	56973.32
541.79	56800.12
541.96	56530.96
542.13	57008.43
542.30	56741.61
542.47	57055.24
542.63	57069.28
542.80	57109.07
542.97	57125.46
543.14	57411.00
543.31	57216.74
543.48	57296.31
543.64	57750.38
543.81	57631.01
543.98	57425.04
544.15	57490.58
544.32	57750.38
544.48	57907.19
544.65	57462.49
544.82	57553.77
544.99	57411.00
545.16	57661.44
545.32	57495.26
545.49	57705.91
545.66	57844.00
545.83	57792.51
546.00	57829.96
546.16	57958.69
546.33	57829.96
546.50	57668.46
546.67	58171.67
546.83	57844.00
547.00	58054.65
547.17	58078.05
547.34	58251.25
547.50	58131.89
547.67	58478.28
547.84	58185.72
548.00	58302.74
548.17	58429.13
548.34	58204.44
548.51	58445.52
548.67	58234.87
548.84	58340.19
549.01	58141.25
549.18	58230.19
549.34	58417.43
549.51	58377.64
549.68	58478.28
549.84	58604.67
550.01	58768.51
550.18	58571.91
550.34	58679.57
550.51	58621.06
550.68	58810.64
550.84	58429.13
551.01	58857.45
551.18	58728.72
551.34	58749.79
551.51	58464.24
551.68	58576.59
551.84	58775.53
552.01	58611.70
552.18	59000.22
552.34	58595.31
552.51	58979.16
552.68	58688.93
552.84	58880.86
553.01	59203.85
553.18	58871.49
553.34	58941.71
553.51	58766.17
553.67	59035.33
553.84	58993.20
554.01	58974.48
554.17	59119.59
554.34	59234.28
554.51	59374.71
554.67	59267.05
554.84	59112.57
555.00	59124.27
555.17	59016.61
555.33	59217.89
555.50	59044.69
555.67	59082.14
555.83	59278.75
556.00	59208.53
556.16	59618.13
556.33	59454.29
556.50	59395.77
556.66	59587.70
556.83	59398.12
556.99	59573.66
557.16	59852.18
557.32	59739.83
557.49	59859.20
557.65	59423.86
557.82	59515.14
557.98	59461.31
558.15	59456.63
558.32	59697.70
558.48	59295.13
558.65	59660.26
558.81	59503.44
558.98	59671.96
559.14	59852.18
559.31	59828.77
559.47	59859.20
559.64	59959.84
559.80	59913.03
559.97	59969.21
560.13	59753.88
560.30	60107.30
560.46	59723.45
560.63	59798.35
560.79	60193.90
560.96	59999.63
561.12	60107.30
561.29	60109.64
561.45	60107.30
561.61	60006.65
561.78	60156.45
561.94	60179.85
562.11	59962.18
562.27	60119.00
562.44	60130.70
562.60	60053.47
562.77	60170.49
562.93	60067.51
563.10	60231.35
563.26	60037.08
563.42	60395.18
563.59	60205.60
563.75	60102.62
563.92	60200.92
564.08	60364.76
564.24	60381.14
564.41	60322.63
564.57	60271.14
564.74	60236.03
564.90	60353.05
565.07	60294.54
565.23	60266.45
565.39	60261.77
565.56	60264.11
565.72	60273.48
565.88	60250.07
566.05	60322.63
566.21	60296.88
566.38	60444.33
566.54	60355.39
566.70	60530.93
566.87	60521.57
567.03	60413.91
567.19	60610.51
567.36	60404.55
567.52	60357.74
567.68	60814.14
567.85	60458.38
568.01	60446.68
568.17	60554.34
568.34	60573.06
568.50	60537.96
568.66	60449.02
568.83	60718.18
568.99	60416.25
569.15	60654.98
569.32	60493.49
569.48	60554.34
569.64	60582.43
569.81	60512.21
569.97	60519.23
570.13	60610.51
570.30	60498.17
570.46	60755.63
570.62	60844.57
570.78	60722.86
570.95	60800.10
571.11	60566.04
571.27	60636.26
571.43	60685.41
571.60	60828.18
571.76	60720.52
571.92	60879.67
572.09	60638.60
572.25	60893.72
572.41	60708.82
572.57	60879.67
572.74	61123.09
572.90	60931.17
573.06	60811.80
573.22	60952.23
573.38	60898.40
573.55	60858.61
573.71	60977.98
573.87	60886.70
574.03	60809.46
574.20	60985.00
574.36	60736.90
574.52	60786.05
574.68	60844.57
574.84	60919.46
575.01	60891.38
575.17	60924.14
575.33	60821.16
575.49	60711.16
575.65	61062.24
575.82	61038.83
575.98	61097.34
576.14	61315.01
576.30	60905.42
576.46	61080.96
576.62	60832.86
576.79	60821.16
576.95	60762.65
577.11	61066.92
577.27	60912.44
577.43	61020.11
577.59	60949.89
577.75	60795.42
577.92	60816.48
578.08	61052.87
578.24	61013.08
578.40	61085.64
578.56	61076.28
578.72	60856.27
578.88	61249.48
579.04	61071.60
579.21	61097.34
579.37	61050.53
579.53	61240.12
579.69	60912.44
579.85	61073.94
580.01	60985.00
580.17	60919.46
580.33	61036.49
580.49	61130.11
580.65	60992.02
580.82	61066.92
580.98	60956.91
581.14	60907.76
581.30	61083.30
581.46	61038.83
581.62	61048.19
581.78	60996.70
581.94	61165.22
582.10	61034.15
582.26	61069.26
582.42	61174.58
582.58	60966.27
582.74	61015.43
582.90	60987.34
583.06	61090.32
583.22	61151.18
583.38	61104.37
583.54	61244.80
583.70	61333.74
583.86	61141.81
584.02	61048.19
584.18	61270.54
584.34	61045.85
584.50	61214.37
584.66	61078.62
584.82	61106.71
584.98	61251.82
585.14	61207.35
585.30	61233.10
585.46	61102.03
585.62	61233.10
585.78	61467.15
585.94	61048.19
586.10	61275.22
586.26	61298.63
586.42	61144.16
586.58	61270.54
586.74	61073.94
586.90	61183.94
587.06	61169.90
587.22	61448.42
587.38	61249.48
587.54	61401.61
587.70	61439.06
587.86	61249.48
588.02	61055.21
588.18	61399.27
588.34	61172.24
588.49	61254.16
