SpectraSuite Data File
++++++++++++++++++++++++++++++++++++
Date: Fri Oct 25 10:48:05 EDT 2013
User: price-jones
Dark Spectrum Present: No
Reference Spectrum Present: No
Number of Sampled Component Spectra: 1
Spectrometers: USB2+H05261
Integration Time (usec): 100000 (USB2+H05261)
Spectra Averaged: 1 (USB2+H05261)
Boxcar Smoothing: 0 (USB2+H05261)
Correct for Electrical Dark: No (USB2+H05261)
Strobe/Lamp Enabled: No (USB2+H05261)
Correct for Detector Non-linearity: No (USB2+H05261)
Correct for Stray Light: No (USB2+H05261)
Number of Pixels in Processed Spectrum: 2048
>>>>>Begin Processed Spectral Data<<<<<
365.73	121.71
365.92	121.71
366.12	121.71
366.32	37.45
366.52	0.00
366.72	60.85
366.91	49.15
367.11	93.62
367.31	0.00
367.51	30.43
367.70	65.54
367.90	93.62
368.10	86.60
368.30	0.00
368.49	74.90
368.69	37.45
368.89	98.30
369.09	53.83
369.28	93.62
369.48	42.13
369.68	102.98
369.87	72.56
370.07	114.69
370.27	93.62
370.47	194.26
370.66	393.21
370.86	379.17
371.06	489.17
371.25	393.21
371.45	402.57
371.65	393.21
371.84	409.59
372.04	472.79
372.24	475.13
372.44	421.30
372.63	468.11
372.83	627.26
373.03	489.17
373.22	472.79
373.42	421.30
373.62	458.74
373.81	571.09
374.01	615.56
374.21	627.26
374.40	543.00
374.60	578.11
374.79	582.79
374.99	559.39
375.19	528.96
375.38	545.34
375.58	559.39
375.78	601.52
375.97	568.75
376.17	578.11
376.37	585.13
376.56	571.09
376.76	578.11
376.95	559.39
377.15	645.99
377.35	615.56
377.54	599.18
377.74	615.56
377.93	610.88
378.13	631.94
378.33	620.24
378.52	688.12
378.72	587.47
378.91	606.20
379.11	615.56
379.31	592.16
379.50	589.82
379.70	589.82
379.89	720.88
380.09	624.92
380.28	662.37
380.48	599.18
380.68	669.39
380.87	617.90
381.07	697.48
381.26	676.41
381.46	667.05
381.65	657.69
381.85	557.05
382.04	564.07
382.24	641.31
382.43	709.18
382.63	655.35
382.83	664.71
383.02	685.78
383.22	603.86
383.41	636.63
383.61	688.12
383.80	730.25
384.00	753.65
384.19	662.37
384.39	753.65
384.58	725.57
384.78	741.95
384.97	770.04
385.17	718.54
385.36	730.25
385.56	774.72
385.75	774.72
385.95	730.25
386.14	739.61
386.34	807.48
386.53	807.48
386.72	725.57
386.92	901.11
387.11	791.10
387.31	835.57
387.50	837.91
387.70	772.38
387.89	779.40
388.09	856.64
388.28	847.27
388.48	791.10
388.67	908.13
388.86	840.25
389.06	784.08
389.25	887.06
389.45	894.08
389.64	779.40
389.84	800.46
390.03	889.40
390.22	854.30
390.42	1001.75
390.61	882.38
390.81	957.28
391.00	940.90
391.19	1022.81
391.39	1029.84
391.58	973.66
391.78	968.98
391.97	943.24
392.16	922.17
392.36	1015.79
392.55	973.66
392.75	1029.84
392.94	961.96
393.13	1029.84
393.33	954.94
393.52	968.98
393.71	968.98
393.91	994.73
394.10	997.07
394.29	1018.13
394.49	1050.90
394.68	1125.80
394.88	987.71
395.07	1235.80
395.26	1151.54
395.46	1090.69
395.65	1128.14
395.84	1160.91
396.04	1172.61
396.23	1137.50
396.42	1015.79
396.62	1153.88
396.81	1139.84
397.00	1064.94
397.19	1090.69
397.39	1273.25
397.58	1240.48
397.77	1163.25
397.97	1149.20
398.16	1315.38
398.35	1205.38
398.55	1357.51
398.74	1282.61
398.93	1359.85
399.12	1313.04
399.32	1277.93
399.51	1306.02
399.70	1310.70
399.90	1334.11
400.09	1390.28
400.28	1299.00
400.47	1331.76
400.67	1399.64
400.86	1334.11
401.05	1465.18
401.24	1467.52
401.44	1474.54
401.63	1467.52
401.82	1425.39
402.01	1406.66
402.21	1519.01
402.40	1523.69
402.59	1411.34
402.78	1474.54
402.97	1493.26
403.17	1472.20
403.36	1507.30
403.55	1598.59
403.74	1664.12
403.93	1558.80
404.13	1570.50
404.32	1488.58
404.51	1633.69
404.70	1692.21
404.89	1636.03
405.09	1713.27
405.28	1617.31
405.47	1605.61
405.66	1769.44
405.85	1657.10
406.05	1699.23
406.24	1701.57
406.43	1675.82
406.62	1727.32
406.81	1895.83
407.00	1849.02
407.20	1762.42
407.39	1813.92
407.58	1795.19
407.77	1825.62
407.96	1933.28
408.15	1912.22
408.34	1823.28
408.54	1834.98
408.73	1895.83
408.92	1891.15
409.11	2094.78
409.30	2080.74
409.49	1963.71
409.68	2012.86
409.87	1973.07
410.07	2047.97
410.26	2150.95
410.45	2080.74
410.64	2169.68
410.83	2085.42
411.02	2094.78
411.21	2101.80
411.40	2275.00
411.59	2207.13
411.78	2242.23
411.98	2310.11
412.17	2246.91
412.36	2317.13
412.55	2319.47
412.74	2263.30
412.93	2466.92
413.12	2356.92
413.31	2513.74
413.50	2420.11
413.69	2385.01
413.88	2471.61
414.07	2509.05
414.26	2560.55
414.45	2593.31
414.64	2614.38
414.83	2698.64
415.02	2621.40
415.22	2572.25
415.41	2729.06
415.60	2637.78
415.79	2754.81
415.98	2892.90
416.17	2738.43
416.36	2782.90
416.55	2818.00
416.74	2956.10
416.93	2832.05
417.12	2810.98
417.31	2918.65
417.50	2850.77
417.69	3082.49
417.88	3042.70
418.07	2935.03
418.26	2953.76
418.45	3033.33
418.64	3148.02
418.83	3103.55
419.02	3159.72
419.21	3159.72
419.39	3054.40
419.58	3131.64
419.77	3075.46
419.96	3126.96
420.15	3267.39
420.34	3243.98
420.53	3321.22
420.72	3133.98
420.91	3342.28
421.10	3272.07
421.29	3274.41
421.48	3288.45
421.67	3253.34
421.86	3330.58
422.05	3220.58
422.24	3337.60
422.43	3253.34
422.61	3246.32
422.80	3499.10
422.99	3487.40
423.18	3424.20
423.37	3501.44
423.56	3435.91
423.75	3466.33
423.94	3496.76
424.13	3199.51
424.32	3325.90
424.50	3417.18
424.69	3466.33
424.88	3536.55
425.07	3382.07
425.26	3468.67
425.45	3480.38
425.64	3346.97
425.83	3485.06
426.01	3522.51
426.20	3616.13
426.39	3613.79
426.58	3487.40
426.77	3548.25
426.96	3637.19
427.15	3562.30
427.33	3417.18
427.52	3646.55
427.71	3576.34
427.90	3630.17
428.09	3531.87
428.28	3702.73
428.46	3597.40
428.65	3730.81
428.84	3789.33
429.03	3740.18
429.22	3730.81
429.40	3833.80
429.59	3756.56
429.78	3527.19
429.97	3707.41
430.16	3686.34
430.34	3658.26
430.53	3712.09
430.72	3894.65
430.91	3768.26
431.10	3761.24
431.28	3861.88
431.47	4095.94
431.66	4030.40
431.85	4131.05
432.03	4208.28
432.22	4194.24
432.41	4205.94
432.60	4102.96
432.79	4056.15
432.97	4091.26
433.16	4163.81
433.35	4208.28
433.54	4191.90
433.72	4236.37
433.91	4196.58
434.10	4175.52
434.28	4362.76
434.47	4322.97
434.66	4287.86
434.85	4304.25
435.03	4348.72
435.22	4449.36
435.41	4496.17
435.59	4318.29
435.78	4524.26
435.97	4458.72
436.16	4259.78
436.34	4418.93
436.53	4493.83
436.72	4664.69
436.90	4301.90
437.09	4683.41
437.28	4578.09
437.46	4578.09
437.65	4737.24
437.84	4615.54
438.02	4678.73
438.21	4674.05
438.40	4470.42
438.58	4713.84
438.77	4814.48
438.96	4905.76
439.14	4985.34
439.33	5008.75
439.52	4873.00
439.70	4863.63
439.89	4945.55
440.08	4926.83
440.26	5132.79
440.45	5032.15
440.63	5228.76
440.82	5207.69
441.01	5130.45
441.19	5331.74
441.38	5411.32
441.57	5462.81
441.75	5401.96
441.94	5394.93
442.12	5500.26
442.31	5561.11
442.50	5511.96
442.68	5554.09
442.87	5518.98
443.05	5640.69
443.24	5652.39
443.43	5582.18
443.61	5631.33
443.80	5795.17
443.98	5446.43
444.17	5549.41
444.35	5692.18
444.54	5893.47
444.73	5600.90
444.91	5781.12
445.10	5792.83
445.28	5694.52
445.47	5746.02
445.65	5795.17
445.84	5797.51
446.02	5813.89
446.21	5797.51
446.39	5748.36
446.58	5856.02
446.77	5785.80
446.95	5818.57
447.14	5778.78
447.32	5970.71
447.51	5823.25
447.69	5790.49
447.88	5984.75
448.06	5753.04
448.25	5804.53
448.43	5954.32
448.62	5865.38
448.80	5816.23
448.99	5998.79
449.17	5755.38
449.36	5881.77
449.54	6043.26
449.73	6036.24
449.91	6085.39
450.10	6118.16
450.28	6230.51
450.46	6441.15
450.65	6377.96
450.83	6293.70
451.02	6303.06
451.20	6125.18
451.39	6216.46
451.57	6312.42
451.76	6349.87
451.94	6289.02
452.13	6408.39
452.31	6450.52
452.49	6401.37
452.68	6368.60
452.86	6317.11
453.05	6523.07
453.23	6483.28
453.42	6310.08
453.60	6544.14
453.78	6530.09
453.97	6494.99
454.15	6555.84
454.34	6438.81
454.52	6679.89
454.70	6520.73
454.89	6614.35
455.07	6534.78
455.26	6626.06
455.44	6712.66
455.62	6944.37
455.81	6778.19
455.99	6808.62
456.17	6801.60
456.36	6806.28
456.54	6895.22
456.73	6836.70
456.91	7066.08
457.09	7173.74
457.28	7103.53
457.46	6981.82
457.64	7164.38
457.83	7091.82
458.01	7126.93
458.19	7300.13
458.38	7143.32
458.56	7089.48
458.74	7108.21
458.93	7218.21
459.11	7239.28
459.29	7260.34
459.48	7262.68
459.66	7185.44
459.84	7342.26
460.03	7665.25
460.21	7503.76
460.39	7440.56
460.57	7295.45
460.76	7613.76
460.94	7550.57
461.12	7740.15
461.31	7536.52
461.49	7602.06
461.67	7681.64
461.85	7707.38
462.04	7702.70
462.22	8205.92
462.40	7852.50
462.59	7784.62
462.77	7992.93
462.95	8109.96
463.13	7971.86
463.32	7913.35
463.50	7864.20
463.68	8128.68
463.86	7932.08
464.05	7859.52
464.23	7772.92
464.41	8126.34
464.59	8011.65
464.78	8262.09
464.96	8009.31
465.14	8018.68
465.32	8056.12
465.50	8023.36
465.69	8039.74
465.87	7978.89
466.05	8131.02
466.23	8077.19
466.41	8152.09
466.60	8489.12
466.78	8095.91
466.96	8372.10
467.14	8430.61
467.32	8390.82
467.51	8395.50
467.69	8114.64
467.87	8191.88
468.05	8332.31
468.23	8521.89
468.41	8365.07
468.60	8505.51
468.78	8615.51
468.96	8451.67
469.14	8468.06
469.32	8540.61
469.50	8388.48
469.69	8840.20
469.87	8643.60
470.05	8931.48
470.23	8720.84
470.41	8795.73
470.59	8858.93
470.77	8758.28
470.95	8870.63
471.14	8987.66
471.32	8805.10
471.50	9179.58
471.68	9186.60
471.86	9043.83
472.04	9205.33
472.22	9359.80
472.40	9078.94
472.58	9357.46
472.77	9369.16
472.95	9603.22
473.13	9734.29
473.31	9158.52
473.49	9221.71
473.67	9446.40
473.85	9472.15
474.03	9792.80
474.21	9799.82
474.39	9785.78
474.57	9827.91
474.75	9783.44
474.93	9921.53
475.12	9877.06
475.30	10113.45
475.48	9863.02
475.66	10090.05
475.84	9848.97
476.02	10246.87
476.20	10207.08
476.38	10225.80
476.56	10530.07
476.74	10401.34
476.92	10478.58
477.10	10511.35
477.28	10719.65
477.46	10721.99
477.64	10909.24
477.82	10899.87
478.00	11295.43
478.18	11133.93
478.36	11300.11
478.54	11470.97
478.72	11463.94
478.90	11667.57
479.08	11606.72
479.26	11777.58
479.44	11618.42
479.62	11889.92
479.80	12105.25
479.98	11768.21
480.16	12013.97
480.34	11988.22
480.52	12245.68
480.70	12241.00
480.88	11995.25
481.06	12538.25
481.24	12393.14
481.41	12599.10
481.59	12844.86
481.77	12643.57
481.95	12856.56
482.13	13057.85
482.31	13022.74
482.49	13420.63
482.67	13144.45
482.85	13401.91
483.03	13884.06
483.21	13802.14
483.39	13790.44
483.57	13736.60
483.74	13839.59
483.92	13877.04
484.10	13965.98
484.28	14146.20
484.46	14258.54
484.64	14831.97
484.82	14228.12
485.00	14677.50
485.18	15007.52
485.35	14740.69
485.53	14712.61
485.71	15014.54
485.89	15037.94
486.07	15145.61
486.25	14965.39
486.43	15529.45
486.61	15321.15
486.78	15632.44
486.96	15843.09
487.14	16231.62
487.32	16152.04
487.50	16332.26
487.68	16315.87
487.85	16341.62
488.03	16807.39
488.21	16507.80
488.39	16652.91
488.57	16865.90
488.75	17078.89
488.92	17303.58
489.10	17570.40
489.28	17303.58
489.46	17774.03
489.64	17547.00
489.81	18122.77
489.99	18235.11
490.17	17984.68
490.35	18452.78
490.53	18340.44
490.70	18682.16
490.88	18590.88
491.06	18710.24
491.24	18625.98
491.41	18710.24
491.59	18738.33
491.77	18654.07
491.95	19220.48
492.13	19108.13
492.30	19435.81
492.48	19772.85
492.66	19744.76
492.84	19442.83
493.01	19924.98
493.19	19697.95
493.37	20374.36
493.54	20044.35
493.72	20444.58
493.90	20332.23
494.08	20594.37
494.25	20915.03
494.43	20858.85
494.61	21057.80
494.79	20982.90
494.96	20952.48
495.14	21221.64
495.32	21357.39
495.49	21376.11
495.67	21495.48
495.85	21710.81
496.02	22087.64
496.20	21884.01
496.38	22059.55
496.55	21820.81
496.73	22649.36
496.91	22321.69
497.09	22497.23
497.26	22855.33
497.44	22647.02
497.62	22628.30
497.79	23269.61
497.97	22892.78
498.14	22941.93
498.32	23314.08
498.50	23555.15
498.67	23435.78
498.85	23676.86
499.03	23634.73
499.20	23899.21
499.38	23559.83
499.56	23606.64
499.73	24159.01
499.91	23775.16
500.08	24261.99
500.26	24128.58
500.44	24304.12
500.61	24369.66
500.79	24334.55
500.97	24250.29
501.14	24987.56
501.32	24767.55
501.49	24652.86
501.67	24821.38
501.84	24994.58
502.02	25113.95
502.20	25188.85
502.37	25142.03
502.55	25560.99
502.72	25715.47
502.90	25404.17
503.07	25439.28
503.25	25610.14
503.43	25621.84
503.60	25612.48
503.78	25916.75
503.95	26008.03
504.13	25930.80
504.30	26375.50
504.48	26384.86
504.65	26450.39
504.83	26576.78
505.01	26560.40
505.18	26611.89
505.36	26595.51
505.53	26913.82
505.71	26967.65
505.88	26799.13
506.06	26749.98
506.23	26892.76
506.41	26843.60
506.58	27194.68
506.76	27159.58
506.93	27421.72
507.11	27388.95
507.28	27290.65
507.46	27061.27
507.63	27520.02
507.81	27676.83
507.98	28065.36
508.16	27431.08
508.33	27906.21
508.50	28135.58
508.68	28034.94
508.85	28493.68
509.03	28009.19
509.20	28505.38
509.38	28304.10
509.55	28531.13
509.73	28797.95
509.90	28479.64
510.08	28760.50
510.25	28545.17
510.42	28907.96
510.60	29097.54
510.77	29179.46
510.95	29439.26
511.12	29013.28
511.30	29380.74
511.47	29869.92
511.64	29495.43
511.82	29359.68
511.99	29350.32
512.17	29825.45
512.34	29717.78
512.51	29326.91
512.69	30335.68
512.86	30082.91
513.04	30492.50
513.21	30017.37
513.38	30101.63
513.56	30288.87
513.73	29914.39
513.90	30476.12
514.08	30684.42
514.25	30679.74
514.43	30333.34
514.60	30295.89
514.77	30169.51
514.95	30621.23
515.12	30607.19
515.29	30761.66
515.47	31318.71
515.64	31187.64
515.81	30972.31
515.99	31068.27
516.16	31189.98
516.33	31449.78
516.51	31709.58
516.68	30984.01
516.85	31208.70
517.03	31665.11
517.20	30955.93
517.37	31807.88
517.54	31674.47
517.72	31782.13
517.89	31786.82
518.06	31419.35
518.24	31842.99
518.41	31714.26
518.58	32217.47
518.75	31751.71
518.93	32400.04
519.10	31756.39
519.27	32610.68
519.45	32095.77
519.62	32858.78
519.79	32439.82
519.96	32954.74
520.14	32760.48
520.31	32608.34
520.48	33055.39
520.65	32622.39
520.83	33083.47
521.00	33331.57
521.17	33207.52
521.34	33539.88
521.52	33287.10
521.69	33118.58
521.86	33481.36
522.03	33514.13
522.20	33427.53
522.38	33514.13
522.55	33827.76
522.72	33579.67
522.89	33340.93
523.07	33846.49
523.24	33900.32
523.41	33970.54
523.58	33883.94
523.75	34426.94
523.92	34239.70
524.10	34363.75
524.27	34539.29
524.44	34630.57
524.61	34649.29
524.78	34600.14
524.96	34565.03
525.13	34951.22
525.30	34721.85
525.47	34876.32
525.64	34778.02
525.81	35110.38
525.98	35150.17
526.16	35175.91
526.33	34897.39
526.50	35079.95
526.67	35068.25
526.84	34895.05
527.01	35234.42
527.18	35077.61
527.36	35590.19
527.53	35335.07
527.70	35702.53
527.87	35779.77
528.04	35641.68
528.21	35651.04
528.38	35770.41
528.55	35957.65
528.72	35725.94
528.89	36158.94
529.07	36149.57
529.24	35716.58
529.41	36009.14
529.58	35948.29
529.75	36313.41
529.92	36533.42
530.09	36400.01
530.26	36652.79
530.43	36322.77
530.60	36231.49
530.77	36353.20
530.94	36912.59
531.11	36308.73
531.28	36638.75
531.46	36847.05
531.63	36786.20
531.80	36449.16
531.97	36776.84
532.14	37177.07
532.31	36959.40
532.48	36776.84
532.65	37113.87
532.82	36975.78
532.99	37361.97
533.16	37127.92
533.33	37242.60
533.50	37413.46
533.67	37385.38
533.84	37106.85
534.01	37553.90
534.18	37584.32
534.35	37642.84
534.52	37151.32
534.69	37759.86
534.86	37589.00
535.03	37258.99
535.20	37792.63
535.37	38136.69
535.54	37869.87
535.71	37935.40
535.88	37551.56
536.05	37851.14
536.22	38447.98
536.38	37954.13
536.55	38099.24
536.72	38057.11
536.89	37876.89
537.06	38078.18
537.23	38462.02
537.40	38759.27
537.57	38359.04
537.74	38415.21
537.91	38675.01
538.08	38778.00
538.25	38139.03
538.42	38525.22
538.59	39068.22
538.75	38178.82
538.92	38597.77
539.09	38960.56
539.26	39093.97
539.43	38864.60
539.60	38763.95
539.77	38583.73
539.94	38815.44
540.11	39077.58
540.28	39014.39
540.44	38864.60
540.61	38787.36
540.78	38770.97
540.95	38810.76
541.12	39274.19
541.29	39126.74
541.46	38885.66
541.62	39459.09
541.79	39445.05
541.96	39084.61
542.13	39222.70
542.30	39669.74
542.47	39655.70
542.63	39641.65
542.80	39648.68
542.97	40292.32
543.14	39835.92
543.31	40168.27
543.48	39971.67
543.64	40559.14
543.81	40339.13
543.98	40259.55
544.15	40004.44
544.32	40051.25
544.48	40385.94
544.65	40610.64
544.82	40535.74
544.99	39838.26
545.16	40430.41
545.32	39969.33
545.49	40858.73
545.66	40669.15
545.83	40748.73
546.00	40526.38
546.16	40610.64
546.33	40587.23
546.50	40435.10
546.67	40891.50
546.83	40140.19
547.00	40509.99
547.17	40701.92
547.34	40793.20
547.50	40914.90
547.67	40987.46
547.84	41240.24
548.00	41291.73
548.17	41298.75
548.34	41008.53
548.51	41331.52
548.67	41317.48
548.84	41392.37
549.01	41235.56
549.18	41331.52
549.34	41308.11
549.51	41406.42
549.68	41759.84
549.84	41486.00
550.01	41839.42
550.18	41158.32
550.34	41511.74
550.51	41523.44
550.68	41394.71
550.84	41684.94
551.01	41539.83
551.18	41869.84
551.34	42164.75
551.51	41518.76
551.68	41897.93
551.84	41921.34
552.01	41687.28
552.18	41418.12
552.34	41790.27
552.51	41879.21
552.68	41940.06
552.84	42021.98
553.01	42054.75
553.18	41780.90
553.34	42050.06
553.51	41628.77
553.67	41567.91
553.84	42286.46
554.01	42637.54
554.17	42237.31
554.34	42597.75
554.51	42298.16
554.67	42415.19
554.84	42085.17
555.00	42553.28
555.17	42029.00
555.33	42607.11
555.50	42522.85
555.67	42494.77
555.83	42740.52
556.00	42747.54
556.16	43023.73
556.33	42560.30
556.50	42759.25
556.66	42490.09
556.83	42937.13
556.99	42761.59
557.16	42904.36
557.32	42747.54
557.49	42623.50
557.65	42906.70
557.82	42756.91
557.98	43196.93
558.15	42576.69
558.32	43133.73
558.48	43049.47
558.65	43423.96
558.81	42920.74
558.98	42925.42
559.14	43243.74
559.31	42492.43
559.47	43187.56
559.64	43461.41
559.80	43475.45
559.97	43119.69
560.13	43187.56
560.30	43398.21
560.46	43178.20
560.63	43225.01
560.79	43180.54
560.96	43328.00
561.12	43328.00
561.29	42806.06
561.45	43143.09
561.61	43323.32
561.78	43019.05
561.94	43159.48
562.11	43428.64
562.27	42850.53
562.44	43129.05
562.60	43398.21
562.77	43489.49
562.93	43405.23
563.10	43821.85
563.26	43475.45
563.42	43166.50
563.59	43288.21
563.75	43835.89
563.92	43409.92
564.08	43555.03
564.24	43821.85
564.41	43707.16
564.57	43515.24
564.74	43452.05
564.90	43950.58
565.07	43454.39
565.23	43540.99
565.39	43325.66
565.56	43824.19
565.72	43290.55
565.88	43938.88
566.05	43613.54
566.21	43491.83
566.38	43828.87
566.54	43473.11
566.70	43810.15
566.87	43917.81
567.03	43985.69
567.19	44051.22
567.36	43964.62
567.52	43557.37
567.68	43732.91
567.85	43473.11
568.01	43590.14
568.17	43550.35
568.34	43943.56
568.50	43962.28
568.66	43519.92
568.83	43849.94
568.99	43281.19
569.15	43728.23
569.32	43849.94
569.48	43463.75
569.64	44109.74
569.81	44371.88
569.97	43866.32
570.13	43906.11
570.30	43650.99
570.46	44107.40
570.62	43412.26
570.78	43779.72
570.95	44280.60
571.11	44318.04
571.27	43805.47
571.43	43861.64
571.60	43810.15
571.76	44254.85
571.92	43896.75
572.09	44046.54
572.25	44191.65
572.41	44165.91
572.57	44044.20
572.74	44083.99
572.90	44430.39
573.06	44371.88
573.22	44439.75
573.38	43971.64
573.55	43791.42
573.71	44313.36
573.87	44098.03
574.03	44065.27
574.20	43973.98
574.36	43817.17
574.52	44648.06
574.68	43863.98
574.84	44507.63
575.01	43948.24
575.17	44182.29
575.33	44102.71
575.49	44250.17
575.65	44320.38
575.82	44739.34
575.98	43824.19
576.14	44484.22
576.30	44390.60
576.46	43985.69
576.62	43753.97
576.79	44037.18
576.95	43749.29
577.11	44268.89
577.27	43948.24
577.43	43948.24
577.59	43955.26
577.75	44278.25
577.92	44165.91
578.08	43873.34
578.24	43583.12
578.40	44020.80
578.56	44058.24
578.72	44119.10
578.88	44638.70
579.04	44135.48
579.21	44119.10
579.37	43929.51
579.53	44247.83
579.69	43981.01
579.85	44142.50
580.01	44233.78
580.17	44299.32
580.33	44713.59
580.49	44196.34
580.65	44369.54
580.82	44306.34
580.98	44341.45
581.14	43901.43
581.30	44264.21
581.46	44011.43
581.62	44383.58
581.78	44451.45
581.94	44598.91
582.10	43931.86
582.26	44999.14
582.42	44346.13
582.58	44329.75
582.74	44451.45
582.90	44470.18
583.06	44392.94
583.22	44626.99
583.38	44465.50
583.54	44458.48
583.70	44296.98
583.86	44509.97
584.02	43878.02
584.18	44273.57
584.34	44350.81
584.50	44648.06
584.66	44051.22
584.82	44320.38
584.98	44760.40
585.14	44275.91
585.30	44446.77
585.46	44294.64
585.62	44500.61
585.78	44205.70
585.94	44119.10
586.10	43936.54
586.26	44095.69
586.42	44105.06
586.58	44851.69
586.74	44343.79
586.90	44245.49
587.06	44477.20
587.22	44425.71
587.38	44236.12
587.54	44549.76
587.70	44313.36
587.86	44509.97
588.02	44772.11
588.18	44259.53
588.34	44481.88
588.49	44306.34
588.65	43955.26
588.81	43936.54
588.97	44074.63
589.13	44465.50
589.29	44212.72
589.45	44280.60
589.61	45052.97
589.77	44830.62
589.93	45078.72
590.08	44692.53
590.24	44612.95
590.40	44566.14
