SpectraSuite Data File
++++++++++++++++++++++++++++++++++++
Date: Fri Oct 25 11:33:39 EDT 2013
User: price-jones
Dark Spectrum Present: No
Reference Spectrum Present: No
Number of Sampled Component Spectra: 1
Spectrometers: USB2+H05261
Integration Time (usec): 100000 (USB2+H05261)
Spectra Averaged: 1 (USB2+H05261)
Boxcar Smoothing: 0 (USB2+H05261)
Correct for Electrical Dark: No (USB2+H05261)
Strobe/Lamp Enabled: No (USB2+H05261)
Correct for Detector Non-linearity: No (USB2+H05261)
Correct for Stray Light: No (USB2+H05261)
Number of Pixels in Processed Spectrum: 2048
>>>>>Begin Processed Spectral Data<<<<<
365.73	320.65
365.92	320.65
366.12	320.65
366.32	250.44
366.52	229.37
366.72	252.78
366.91	231.71
367.11	191.92
367.31	156.82
367.51	201.29
367.70	187.24
367.90	147.45
368.10	201.29
368.30	180.22
368.49	140.43
368.69	222.35
368.89	189.58
369.09	182.56
369.28	212.99
369.48	194.26
369.68	222.35
369.87	191.92
370.07	297.25
370.27	259.80
370.47	297.25
370.66	505.56
370.86	543.00
371.06	543.00
371.25	531.30
371.45	566.41
371.65	566.41
371.84	578.11
372.04	554.71
372.24	519.60
372.44	512.58
372.63	662.37
372.83	589.82
373.03	606.20
373.22	627.26
373.42	540.66
373.62	613.22
373.81	692.80
374.01	636.63
374.21	688.12
374.40	643.65
374.60	634.29
374.79	760.67
374.99	634.29
375.19	692.80
375.38	653.01
375.58	697.48
375.78	655.35
375.97	674.07
376.17	681.10
376.37	681.10
376.56	692.80
376.76	683.44
376.95	678.76
377.15	706.84
377.35	657.69
377.54	711.52
377.74	725.57
377.93	671.73
378.13	671.73
378.33	723.23
378.52	744.29
378.72	709.18
378.91	662.37
379.11	704.50
379.31	718.54
379.50	676.41
379.70	777.06
379.89	732.59
380.09	695.14
380.28	695.14
380.48	807.48
380.68	709.18
380.87	678.76
381.07	777.06
381.26	760.67
381.46	753.65
381.65	678.76
381.85	674.07
382.04	763.01
382.24	784.08
382.43	774.72
382.63	753.65
382.83	781.74
383.02	748.97
383.22	795.78
383.41	795.78
383.61	772.38
383.80	877.70
384.00	851.96
384.19	854.30
384.39	826.21
384.58	882.38
384.78	812.17
384.97	926.85
385.17	873.02
385.36	833.23
385.56	835.57
385.75	802.80
385.95	887.06
386.14	889.40
386.34	814.51
386.53	807.48
386.72	880.04
386.92	903.45
387.11	835.57
387.31	940.90
387.50	854.30
387.70	849.61
387.89	863.66
388.09	908.13
388.28	938.55
388.48	891.74
388.67	954.94
388.86	924.51
389.06	926.85
389.25	961.96
389.45	980.68
389.64	994.73
389.84	931.53
390.03	997.07
390.22	971.32
390.42	894.08
390.61	1036.86
390.81	959.62
391.00	964.30
391.19	966.64
391.39	1004.09
391.58	957.28
391.78	1015.79
391.97	1093.03
392.16	1057.92
392.36	1018.13
392.55	1022.81
392.75	957.28
392.94	1041.54
393.13	1013.45
393.33	1060.26
393.52	1118.78
393.71	1123.46
393.91	1111.75
394.10	1083.67
394.29	1078.99
394.49	1114.10
394.68	1137.50
394.88	1088.35
395.07	1111.75
395.26	1067.28
395.46	1142.18
395.65	1205.38
395.84	1167.93
396.04	1308.36
396.23	1198.35
396.42	1242.82
396.62	1144.52
396.81	1153.88
397.00	1179.63
397.19	1210.06
397.39	1249.85
397.58	1146.86
397.77	1266.23
397.97	1343.47
398.16	1256.87
398.35	1397.30
398.55	1214.74
398.74	1261.55
398.93	1371.55
399.12	1378.58
399.32	1380.92
399.51	1352.83
399.70	1301.34
399.90	1233.46
400.09	1350.49
400.28	1430.07
400.47	1380.92
400.67	1465.18
400.86	1465.18
401.05	1486.24
401.24	1411.34
401.44	1394.96
401.63	1453.47
401.82	1418.36
402.01	1472.20
402.21	1444.11
402.40	1465.18
402.59	1516.67
402.78	1582.20
402.97	1598.59
403.17	1502.62
403.36	1472.20
403.55	1542.41
403.74	1605.61
403.93	1621.99
404.13	1584.54
404.32	1563.48
404.51	1593.90
404.70	1732.00
404.89	1703.91
405.09	1769.44
405.28	1638.38
405.47	1558.80
405.66	1589.22
405.85	1753.06
406.05	1633.69
406.24	1696.89
406.43	1727.32
406.62	1788.17
406.81	1722.63
407.00	1797.53
407.20	1746.04
407.39	1809.23
407.58	1912.22
407.77	1902.86
407.96	1867.75
408.15	1898.17
408.34	1865.41
408.54	1706.25
408.73	1902.86
408.92	1966.05
409.11	2033.93
409.30	2038.61
409.49	2111.16
409.68	2113.50
409.87	1942.64
410.07	2085.42
410.26	1956.69
410.45	2022.22
410.64	2136.91
410.83	2108.82
411.02	2190.74
411.21	2113.50
411.40	2132.23
411.59	2160.31
411.78	2069.03
411.98	2207.13
412.17	2296.07
412.36	2427.14
412.55	2298.41
412.74	2366.28
412.93	2310.11
413.12	2340.54
413.31	2471.61
413.50	2457.56
413.69	2401.39
413.88	2534.80
414.07	2450.54
414.26	2483.31
414.45	2469.27
414.64	2595.65
414.83	2609.70
415.02	2647.15
415.22	2705.66
415.41	2700.98
415.60	2619.06
415.79	2747.79
415.98	2743.11
416.17	2792.26
416.36	2764.17
416.55	2771.19
416.74	2780.56
416.93	2881.20
417.12	2747.79
417.31	2928.01
417.50	2930.35
417.69	2918.65
417.88	2956.10
418.07	3075.46
418.26	2993.55
418.45	2935.03
418.64	3094.19
418.83	3108.23
419.02	3052.06
419.21	3096.53
419.39	3178.45
419.58	3070.78
419.77	3101.21
419.96	3243.98
420.15	3169.09
420.34	3251.00
420.53	3162.06
420.72	3176.11
420.91	3269.73
421.10	3227.60
421.29	3375.05
421.48	3283.77
421.67	3279.09
421.86	3269.73
422.05	3236.96
422.24	3260.37
422.43	3311.86
422.61	3239.30
422.80	3321.22
422.99	3290.79
423.18	3417.18
423.37	3414.84
423.56	3318.88
423.75	3307.18
423.94	3295.47
424.13	3138.66
424.32	3288.45
424.50	3492.08
424.69	3492.08
424.88	3494.42
425.07	3452.29
425.26	3368.03
425.45	3545.91
425.64	3431.23
425.83	3445.27
426.01	3562.30
426.20	3492.08
426.39	3466.33
426.58	3417.18
426.77	3466.33
426.96	3417.18
427.15	3597.40
427.33	3653.58
427.52	3449.95
427.71	3583.36
427.90	3550.59
428.09	3751.88
428.28	3655.92
428.46	3651.24
428.65	3763.58
428.84	3810.39
429.03	3653.58
429.22	3669.96
429.40	3658.26
429.59	3709.75
429.78	3653.58
429.97	3709.75
430.16	3700.39
430.34	3861.88
430.53	3936.78
430.72	3892.31
430.91	3927.42
431.10	3831.46
431.28	3873.59
431.47	3929.76
431.66	3922.74
431.85	3997.64
432.03	4007.00
432.22	4173.18
432.41	4166.15
432.60	4100.62
432.79	4037.42
432.97	3981.25
433.16	4095.94
433.35	4140.41
433.54	4184.88
433.72	4255.09
433.91	4229.35
434.10	4285.52
434.28	4276.16
434.47	4348.72
434.66	4231.69
434.85	4393.19
435.03	4276.16
435.22	4266.80
435.41	4311.27
435.59	4402.55
435.78	4390.84
435.97	4461.06
436.16	4341.69
436.34	4365.10
436.53	4477.44
436.72	4507.87
436.90	4388.50
437.09	4550.00
437.28	4461.06
437.46	4641.28
437.65	4552.34
437.84	4638.94
438.02	4589.79
438.21	4528.94
438.40	4449.36
438.58	4723.20
438.77	4734.90
438.96	4760.65
439.14	4720.86
439.33	4966.62
439.52	4945.55
439.70	4947.89
439.89	5118.75
440.08	5029.81
440.26	5062.58
440.45	5011.09
440.63	5146.84
440.82	5060.24
441.01	5179.61
441.19	5111.73
441.38	5224.08
441.57	5380.89
441.75	5413.66
441.94	5430.04
442.12	5352.81
442.31	5408.98
442.50	5481.53
442.68	5397.28
442.87	5523.66
443.05	5551.75
443.24	5526.00
443.43	5572.82
443.61	5558.77
443.80	5769.42
443.98	5678.14
444.17	5289.61
444.35	5652.39
444.54	5757.72
444.73	5715.59
444.91	5647.71
445.10	5771.76
445.28	5577.50
445.47	5399.62
445.65	5722.61
445.84	5748.36
446.02	5860.70
446.21	5818.57
446.39	5701.54
446.58	5673.46
446.77	5895.81
446.95	5572.82
447.14	5893.47
447.32	5659.42
447.51	5626.65
447.69	5729.63
447.88	5738.99
448.06	5841.98
448.25	5893.47
448.43	5881.77
448.62	5916.87
448.80	5830.27
448.99	5844.32
449.17	5860.70
449.36	5884.11
449.54	5900.49
449.73	6061.99
449.91	6136.88
450.10	6094.76
450.28	6228.17
450.46	6307.74
450.65	6153.27
450.83	6232.85
451.02	6186.04
451.20	6251.57
451.39	6270.30
451.57	6195.40
451.76	6225.82
451.94	6352.21
452.13	6354.55
452.31	6179.01
452.49	6272.64
452.68	6258.59
452.86	6239.87
453.05	6523.07
453.23	6366.26
453.42	6469.24
453.60	6291.36
453.78	6384.98
453.97	6562.86
454.15	6494.99
454.34	6438.81
454.52	6640.10
454.70	6593.29
454.89	6600.31
455.07	6656.48
455.26	6604.99
455.44	6773.51
455.62	6689.25
455.81	6612.01
455.99	6717.34
456.17	6747.76
456.36	6761.81
456.54	7049.69
456.73	7185.44
456.91	6841.39
457.09	7082.46
457.28	6956.07
457.46	7028.63
457.64	7000.54
457.83	7042.67
458.01	7117.57
458.19	7199.49
458.38	6967.77
458.56	7082.46
458.74	7290.77
458.93	7262.68
459.11	7119.91
459.29	7211.19
459.48	7199.49
459.66	7365.67
459.84	7419.50
460.03	7309.49
460.21	7396.09
460.39	7417.16
460.57	7470.99
460.76	7597.38
460.94	7641.85
461.12	7569.29
461.31	7510.78
461.49	7470.99
461.67	7513.12
461.85	7737.81
462.04	7424.18
462.22	7981.23
462.40	7754.19
462.59	7878.24
462.77	7887.61
462.95	7873.56
463.13	7691.00
463.32	7777.60
463.50	7932.08
463.68	7801.01
463.86	8023.36
464.05	7878.24
464.23	7911.01
464.41	8170.81
464.59	7747.17
464.78	8170.81
464.96	8063.15
465.14	7798.66
465.32	8039.74
465.50	8170.81
465.69	8077.19
465.87	8044.42
466.05	8189.53
466.23	8140.38
466.41	8259.75
466.60	8461.04
466.78	8301.88
466.96	8264.43
467.14	8344.01
467.32	8191.88
467.51	8388.48
467.69	8215.28
467.87	8212.94
468.05	8301.88
468.23	8348.69
468.41	8229.32
468.60	8486.78
468.78	8582.74
468.96	8585.08
469.14	8587.43
469.32	8610.83
469.50	8304.22
469.69	8685.73
469.87	8823.82
470.05	8641.26
470.23	8835.52
470.41	8793.39
470.59	9006.38
470.77	8748.92
470.95	8943.19
471.14	9027.45
471.32	8809.78
471.50	8990.00
471.68	8945.53
471.86	9118.73
472.04	9039.15
472.22	9205.33
472.40	9235.75
472.58	8971.27
472.77	9179.58
472.95	9256.82
473.13	9593.86
473.31	9460.45
473.49	9467.47
473.67	9430.02
473.85	9614.92
474.03	9837.27
474.21	9762.37
474.39	9912.17
474.57	9844.29
474.75	9792.80
474.93	9865.36
475.12	9923.87
475.30	10076.01
475.48	9900.47
475.66	10005.79
475.84	9977.70
476.02	10197.71
476.20	10207.08
476.38	10719.65
476.56	10642.42
476.74	10785.19
476.92	10527.73
477.10	10586.24
477.28	10881.15
477.46	10960.73
477.64	10654.12
477.82	11136.27
478.00	11290.74
478.18	11044.99
478.36	11211.17
478.54	11248.61
478.72	11435.86
478.90	11721.40
479.08	11613.74
479.26	12004.61
479.44	11747.15
479.62	11728.42
479.80	11950.78
479.98	11969.50
480.16	12121.63
480.34	12116.95
480.52	12276.11
480.70	12348.67
480.88	12248.02
481.06	12404.84
481.24	12830.82
481.41	12594.42
481.59	12678.68
481.77	12758.26
481.95	12999.34
482.13	12856.56
482.31	13118.70
482.49	13259.13
482.67	13254.45
482.85	13509.57
483.03	13797.46
483.21	13610.22
483.39	13589.15
483.57	13870.01
483.74	13818.52
483.92	14258.54
484.10	13806.82
484.28	14368.55
484.46	14504.30
484.64	14520.68
484.82	14263.22
485.00	14864.74
485.18	15173.69
485.35	14909.21
485.53	14998.15
485.71	15154.97
485.89	15374.98
486.07	15412.43
486.25	15379.66
486.43	15749.46
486.61	15847.77
486.78	15913.30
486.96	16112.25
487.14	16147.36
487.32	16362.69
487.50	16306.51
487.68	16477.37
487.85	16926.75
488.03	16816.75
488.21	17167.83
488.39	16851.86
488.57	17322.30
488.75	17369.12
488.92	17364.43
489.10	17586.79
489.28	17682.75
489.46	18101.70
489.64	17900.42
489.81	18265.54
489.99	18291.29
490.17	18546.40
490.35	18675.13
490.53	18689.18
490.70	18691.52
490.88	18890.46
491.06	18911.53
491.24	19115.16
491.41	19063.66
491.59	19154.94
491.77	19171.33
491.95	19704.97
492.13	19793.91
492.30	19688.59
492.48	19964.77
492.66	19910.94
492.84	20039.67
493.01	20465.64
493.19	20042.01
493.37	20343.94
493.54	20489.05
493.72	20931.41
493.90	20734.81
494.08	20807.36
494.25	21188.87
494.43	20879.92
494.61	21261.43
494.79	21406.54
494.96	21549.31
495.14	21638.25
495.32	21905.07
495.49	21975.29
495.67	21869.97
495.85	22244.45
496.02	22195.30
496.20	22490.21
496.38	22483.19
496.55	22572.13
496.73	22831.93
496.91	22384.88
497.09	22595.53
497.26	22974.70
497.44	22649.36
497.62	23290.67
497.79	23349.18
497.97	23606.64
498.14	23594.94
498.32	23887.51
498.50	23747.08
498.67	24156.67
498.85	23723.67
499.03	24135.60
499.20	24203.48
499.38	23981.13
499.56	24397.74
499.73	24474.98
499.91	24496.05
500.08	24837.76
500.26	24388.38
500.44	24638.82
500.61	25027.35
500.79	24814.36
500.97	25010.96
501.14	25638.23
501.32	25546.95
501.49	25486.09
501.67	25701.42
501.84	25544.61
502.02	25443.96
502.20	25771.64
502.37	25570.35
502.55	25589.08
502.72	26326.35
502.90	26349.75
503.07	25977.61
503.25	26565.08
503.43	26106.34
503.60	26122.72
503.78	26635.30
503.95	26572.10
504.13	26773.39
504.30	26689.13
504.48	27023.83
504.65	26881.05
504.83	27084.68
505.01	26965.31
505.18	27175.96
505.36	27618.32
505.53	27311.71
505.71	27391.29
505.88	27779.82
506.06	27456.82
506.23	27693.22
506.41	27861.74
506.58	27859.40
506.76	28009.19
506.93	28240.90
507.11	28252.61
507.28	27960.04
507.46	28353.25
507.63	28210.48
507.81	28493.68
507.98	28425.81
508.16	28533.47
508.33	28786.25
508.50	28936.04
508.68	28847.10
508.85	29228.61
509.03	28634.11
509.20	29472.03
509.38	29092.86
509.55	29532.88
509.73	29092.86
509.90	29521.18
510.08	29626.50
510.25	29579.69
510.42	29614.80
510.60	29633.52
510.77	30185.89
510.95	30176.53
511.12	29963.54
511.30	30099.29
511.47	30047.80
511.64	30052.48
511.82	30710.17
511.99	30293.55
512.17	30445.69
512.34	30588.46
512.51	30768.68
512.69	31112.74
512.86	30754.64
513.04	30855.28
513.21	31197.00
513.38	31236.79
513.56	31452.12
513.73	31110.40
513.90	31292.96
514.08	31021.46
514.25	31372.54
514.43	31758.73
514.60	31997.46
514.77	31496.59
514.95	31854.69
515.12	31562.12
515.29	31854.69
515.47	32275.99
515.64	31906.18
515.81	32180.03
515.99	32393.01
516.16	32720.69
516.33	32353.23
516.51	32676.22
516.68	32254.92
516.85	32329.82
517.03	32606.00
517.20	32875.16
517.37	32989.85
517.54	33259.01
517.72	32978.15
517.89	33188.80
518.06	33277.74
518.24	33078.79
518.41	33034.32
518.58	33717.76
518.75	33249.65
518.93	33242.63
519.10	33366.68
519.27	33645.20
519.45	33408.81
519.62	34127.35
519.79	33893.30
519.96	34178.84
520.14	33977.56
520.31	33837.12
520.48	34202.25
520.65	34073.52
520.83	34888.03
521.00	34307.57
521.17	34576.73
521.34	34763.98
521.52	34597.80
521.69	34707.80
521.86	34881.00
522.03	34986.33
522.20	34803.77
522.38	35288.26
522.55	34873.98
522.72	35166.55
522.89	35351.45
523.07	35372.52
523.24	35269.53
523.41	35379.54
523.58	35318.68
523.75	35838.28
523.92	35541.03
524.10	36055.95
524.27	35880.41
524.44	35878.07
524.61	35978.72
524.78	36315.75
524.96	36273.62
525.13	36369.58
525.30	36603.64
525.47	36280.64
525.64	36425.76
525.81	36500.65
525.98	36488.95
526.16	36605.98
526.33	36350.86
526.50	36177.66
526.67	36486.61
526.84	36713.64
527.01	36395.33
527.18	36437.46
527.36	36957.06
527.53	37249.63
527.70	37090.47
527.87	37399.42
528.04	37062.38
528.21	37085.79
528.38	36945.36
528.55	37675.60
528.72	37806.67
528.89	37205.16
529.07	36877.48
529.24	37359.63
529.41	37268.35
529.58	37270.69
529.75	37717.73
529.92	37792.63
530.09	37418.14
530.26	37757.52
530.43	37689.65
530.60	37420.48
530.77	37703.69
530.94	37902.64
531.11	37441.55
531.28	37996.26
531.46	38073.49
531.63	38363.72
531.80	38103.92
531.97	38321.59
532.14	38450.32
532.31	38115.62
532.48	38471.39
532.65	38955.88
532.82	38658.63
532.99	38611.82
533.16	38738.21
533.33	39075.24
533.50	39157.16
533.67	38749.91
533.84	38965.24
534.01	38988.64
534.18	39182.91
534.35	39669.74
534.52	39395.90
534.69	39498.88
534.86	39164.18
535.03	39342.06
535.20	39491.86
535.37	39524.63
535.54	39828.90
535.71	39484.84
535.88	39498.88
536.05	39594.84
536.22	40109.76
536.38	40154.23
536.55	39793.79
536.72	39761.02
536.89	39756.34
537.06	39751.66
537.23	40084.01
537.40	39735.27
537.57	39683.78
537.74	40163.59
537.91	40046.57
538.08	40638.72
538.25	40252.53
538.42	40194.02
538.59	40889.16
538.75	40353.18
538.92	40502.97
539.09	40917.25
539.26	41041.29
539.43	40402.33
539.60	40509.99
539.77	40488.93
539.94	41031.93
540.11	41158.32
540.28	40882.14
540.44	40989.80
540.61	40542.76
540.78	41249.60
540.95	40886.82
541.12	40559.14
541.29	41163.00
541.46	41462.59
541.62	41436.84
541.79	41511.74
541.96	41106.83
542.13	41132.57
542.30	41745.80
542.47	41581.96
542.63	41422.80
542.80	41518.76
542.97	41832.39
543.14	42183.48
543.31	41715.37
543.48	41631.11
543.64	42054.75
543.81	42295.82
543.98	42274.76
544.15	41701.32
544.32	42415.19
544.48	42361.36
544.65	42274.76
544.82	42696.05
544.99	42202.20
545.16	42197.52
545.32	42651.58
545.49	42602.43
545.66	42951.17
545.83	42656.26
546.00	43194.59
546.16	42508.81
546.33	42948.83
546.50	42513.49
546.67	42440.93
546.83	42651.58
547.00	42878.61
547.17	43082.24
547.34	42693.71
547.50	43517.58
547.67	43171.18
547.84	42756.91
548.00	43620.56
548.17	43421.62
548.34	43304.59
548.51	43056.50
548.67	43278.85
548.84	42808.40
549.01	43461.41
549.18	43653.33
549.34	43508.22
549.51	43819.51
549.68	43262.46
549.84	43711.84
550.01	43768.02
550.18	43075.22
550.34	43782.06
550.51	44046.54
550.68	43765.68
550.84	43133.73
551.01	43992.71
551.18	43679.08
551.34	43690.78
551.51	44175.27
551.68	43915.47
551.84	43826.53
552.01	43618.22
552.18	44013.77
552.34	44083.99
552.51	44369.54
552.68	43709.50
552.84	44067.61
553.01	44144.84
553.18	44161.23
553.34	44748.70
553.51	44186.97
553.67	44657.42
553.84	44589.55
554.01	44903.18
554.17	44767.43
554.34	45205.11
554.51	44404.64
554.67	44435.07
554.84	44680.83
555.00	44493.58
555.17	44568.48
555.33	44477.20
555.50	44509.97
555.67	44959.35
555.83	45041.27
556.00	44835.30
556.16	45174.68
556.33	44818.92
556.50	45144.25
556.66	45104.46
556.83	44699.55
556.99	45394.69
557.16	45200.43
557.32	45420.44
557.49	45497.67
557.65	44994.46
557.82	45214.47
557.98	45310.43
558.15	45076.38
558.32	45289.37
558.48	45324.47
558.65	45687.26
558.81	45654.49
558.98	45254.26
559.14	45483.63
559.31	45521.08
559.47	45792.58
559.64	45420.44
559.80	45640.45
559.97	45684.92
560.13	45778.54
560.30	45705.98
560.46	45930.67
560.63	46017.27
560.79	46153.02
560.96	45813.65
561.12	45755.13
561.29	45853.44
561.45	46174.09
561.61	45975.14
561.78	45624.06
561.94	45595.98
562.11	46075.79
562.27	45495.33
562.44	45757.47
562.60	46138.98
562.77	46227.92
562.93	45633.42
563.10	46045.36
563.26	45918.97
563.42	46246.65
563.59	46040.68
563.75	45991.53
563.92	45874.50
564.08	46354.31
564.24	45933.01
564.41	46499.42
564.57	46480.70
564.74	46059.40
564.90	46370.69
565.07	46113.23
565.23	46122.60
565.39	45785.56
565.56	46321.54
565.72	46113.23
565.88	46138.98
566.05	46321.54
566.21	46593.04
566.38	46113.23
566.54	46789.65
566.70	46461.97
566.87	46478.36
567.03	46260.69
567.19	46258.35
567.36	46529.85
567.52	46656.24
567.68	47129.03
567.85	46799.01
568.01	46623.47
568.17	46611.77
568.34	46784.97
568.50	46562.62
568.66	46429.21
568.83	46550.91
568.99	46415.16
569.15	46611.77
569.32	46518.15
569.48	46710.07
569.64	46967.53
569.81	46735.82
569.97	46452.61
570.13	47224.99
570.30	46553.26
570.46	47178.18
570.62	47077.54
570.78	46403.46
570.95	46658.58
571.11	46831.78
571.27	46780.29
571.43	46534.53
571.60	46597.73
571.76	46588.36
571.92	46775.61
572.09	46452.61
572.25	46717.09
572.41	46618.79
572.57	47002.64
572.74	47327.97
572.90	46756.88
573.06	47187.54
573.22	47248.39
573.38	47007.32
573.55	47023.70
573.71	47236.69
573.87	47075.19
574.03	47159.45
574.20	47065.83
574.36	47054.13
574.52	47112.64
574.68	46972.21
574.84	46637.51
575.01	47660.33
575.17	47026.04
575.33	46955.83
575.49	46951.15
575.65	47007.32
575.82	47117.32
575.98	46817.74
576.14	47400.53
576.30	47334.99
576.46	46979.23
576.62	46993.28
576.79	47381.80
576.95	46735.82
577.11	46784.97
577.27	47019.02
577.43	47044.77
577.59	47166.48
577.75	47203.92
577.92	46724.11
578.08	47201.58
578.24	47126.69
578.40	47494.15
578.56	47379.46
578.72	47187.54
578.88	47208.61
579.04	47395.85
579.21	46962.85
579.37	47164.14
579.53	47136.05
579.69	47260.10
579.85	47550.32
580.01	47578.41
580.17	47227.33
580.33	47290.52
580.49	46794.33
580.65	46857.52
580.82	47337.33
580.98	47168.82
581.14	47129.03
581.30	47349.04
581.46	47077.54
581.62	47353.72
581.78	47157.11
581.94	47470.75
582.10	47150.09
582.26	47267.12
582.42	47353.72
582.58	47395.85
582.74	47297.55
582.90	47648.63
583.06	47882.68
583.22	47302.23
583.38	47562.03
583.54	47714.16
583.70	47674.37
583.86	47342.02
584.02	47377.12
584.18	47849.91
584.34	47274.14
584.50	47915.45
584.66	47812.46
584.82	47676.71
584.98	47861.61
585.14	47803.10
585.30	47342.02
585.46	47545.64
585.62	47627.56
585.78	47873.32
585.94	47688.42
586.10	47423.93
586.26	46845.82
586.42	47370.10
586.58	47739.91
586.74	47545.64
586.90	47290.52
587.06	47555.00
587.22	47760.97
587.38	47466.06
587.54	47772.67
587.70	47824.17
587.86	47838.21
588.02	47473.09
588.18	47693.10
588.34	47547.98
588.49	47655.65
588.65	47393.51
588.81	47407.55
588.97	47416.91
589.13	47730.54
589.29	47800.76
589.45	47800.76
589.61	47587.77
589.77	48046.52
589.93	47927.15
590.08	47625.22
