SpectraSuite Data File
++++++++++++++++++++++++++++++++++++
Date: Fri Oct 25 10:47:25 EDT 2013
User: price-jones
Dark Spectrum Present: No
Reference Spectrum Present: No
Number of Sampled Component Spectra: 1
Spectrometers: USB2+H05261
Integration Time (usec): 100000 (USB2+H05261)
Spectra Averaged: 1 (USB2+H05261)
Boxcar Smoothing: 0 (USB2+H05261)
Correct for Electrical Dark: No (USB2+H05261)
Strobe/Lamp Enabled: No (USB2+H05261)
Correct for Detector Non-linearity: No (USB2+H05261)
Correct for Stray Light: No (USB2+H05261)
Number of Pixels in Processed Spectrum: 2048
>>>>>Begin Processed Spectral Data<<<<<
365.73	117.03
365.92	117.03
366.12	117.03
366.32	30.43
366.52	56.17
366.72	74.90
366.91	32.77
367.11	0.00
367.31	0.00
367.51	35.11
367.70	0.00
367.90	37.45
368.10	84.26
368.30	70.22
368.49	49.15
368.69	46.81
368.89	39.79
369.09	16.38
369.28	37.45
369.48	14.04
369.68	102.98
369.87	163.84
370.07	131.07
370.27	161.50
370.47	128.73
370.66	337.04
370.86	365.12
371.06	470.45
371.25	489.17
371.45	369.80
371.65	519.60
371.84	442.36
372.04	463.43
372.24	491.51
372.44	503.22
372.63	449.38
372.83	533.64
373.03	421.30
373.22	454.06
373.42	550.03
373.62	524.28
373.81	451.72
374.01	533.64
374.21	697.48
374.40	545.34
374.60	554.71
374.79	585.13
374.99	540.66
375.19	603.86
375.38	571.09
375.58	580.45
375.78	528.96
375.97	599.18
376.17	582.79
376.37	540.66
376.56	578.11
376.76	620.24
376.95	552.37
377.15	620.24
377.35	573.43
377.54	608.54
377.74	606.20
377.93	627.26
378.13	624.92
378.33	638.97
378.52	580.45
378.72	585.13
378.91	620.24
379.11	676.41
379.31	603.86
379.50	627.26
379.70	713.86
379.89	688.12
380.09	603.86
380.28	594.50
380.48	648.33
380.68	660.03
380.87	660.03
381.07	645.99
381.26	657.69
381.46	648.33
381.65	660.03
381.85	648.33
382.04	667.05
382.24	697.48
382.43	709.18
382.63	676.41
382.83	617.90
383.02	671.73
383.22	730.25
383.41	695.14
383.61	805.14
383.80	704.50
384.00	734.93
384.19	720.88
384.39	753.65
384.58	755.99
384.78	737.27
384.97	629.60
385.17	716.20
385.36	667.05
385.56	823.87
385.75	732.59
385.95	791.10
386.14	866.00
386.34	748.97
386.53	781.74
386.72	786.42
386.92	788.76
387.11	814.51
387.31	758.33
387.50	744.29
387.70	814.51
387.89	837.91
388.09	760.67
388.28	741.95
388.48	798.12
388.67	849.61
388.86	807.48
389.06	933.87
389.25	894.08
389.45	901.11
389.64	877.70
389.84	866.00
390.03	884.72
390.22	938.55
390.42	842.59
390.61	814.51
390.81	866.00
391.00	924.51
391.19	1036.86
391.39	1004.09
391.58	950.26
391.78	968.98
391.97	968.98
392.16	910.47
392.36	1008.77
392.55	992.39
392.75	943.24
392.94	1020.47
393.13	999.41
393.33	938.55
393.52	959.62
393.71	1041.54
393.91	1067.28
394.10	1025.15
394.29	1027.50
394.49	1121.12
394.68	1053.24
394.88	1132.82
395.07	1078.99
395.26	1191.33
395.46	1156.22
395.65	1205.38
395.84	1057.92
396.04	1235.80
396.23	1118.78
396.42	1137.50
396.62	1078.99
396.81	1146.86
397.00	1158.57
397.19	1118.78
397.39	1188.99
397.58	1277.93
397.77	1149.20
397.97	1327.08
398.16	1261.55
398.35	1252.19
398.55	1289.64
398.74	1247.51
398.93	1359.85
399.12	1390.28
399.32	1343.47
399.51	1425.39
399.70	1376.24
399.90	1366.87
400.09	1441.77
400.28	1439.43
400.47	1376.24
400.67	1521.35
400.86	1472.20
401.05	1420.71
401.24	1483.90
401.44	1526.03
401.63	1444.11
401.82	1476.88
402.01	1427.73
402.21	1526.03
402.40	1577.52
402.59	1589.22
402.78	1486.24
402.97	1659.44
403.17	1575.18
403.36	1605.61
403.55	1533.05
403.74	1652.42
403.93	1675.82
404.13	1692.21
404.32	1671.14
404.51	1640.72
404.70	1678.16
404.89	1685.19
405.09	1799.87
405.28	1778.81
405.47	1666.46
405.66	1729.66
405.85	1717.95
406.05	1771.79
406.24	1823.28
406.43	1769.44
406.62	1834.98
406.81	1891.15
407.00	1930.94
407.20	1811.57
407.39	1792.85
407.58	2001.16
407.77	1942.64
407.96	1980.09
408.15	1977.75
408.34	1907.54
408.54	1947.33
408.73	2010.52
408.92	2047.97
409.11	2106.48
409.30	2052.65
409.49	2125.21
409.68	1975.41
409.87	2073.71
410.07	2052.65
410.26	2012.86
410.45	2162.66
410.64	2216.49
410.83	2139.25
411.02	2211.81
411.21	2289.04
411.40	2230.53
411.59	2333.51
411.78	2366.28
411.98	2363.94
412.17	2296.07
412.36	2340.54
412.55	2382.67
412.74	2518.42
412.93	2452.88
413.12	2377.98
413.31	2502.03
413.50	2509.05
413.69	2602.68
413.88	2635.44
414.07	2633.10
414.26	2548.84
414.45	2586.29
414.64	2675.23
414.83	2813.32
415.02	2712.68
415.22	2782.90
415.41	2773.53
415.60	2745.45
415.79	2752.47
415.98	2719.70
416.17	2780.56
416.36	2951.42
416.55	2871.84
416.74	2939.71
416.93	2995.89
417.12	2918.65
417.31	3061.42
417.50	3040.36
417.69	3117.59
417.88	3162.06
418.07	3059.08
418.26	3066.10
418.45	3148.02
418.64	3276.75
418.83	3162.06
419.02	3211.22
419.21	3206.53
419.39	3307.18
419.58	3183.13
419.77	3220.58
419.96	3281.43
420.15	3192.49
420.34	3332.92
420.53	3349.31
420.72	3534.21
420.91	3506.12
421.10	3377.39
421.29	3410.16
421.48	3351.65
421.67	3566.98
421.86	3459.31
422.05	3489.74
422.24	3449.95
422.43	3405.48
422.61	3396.12
422.80	3555.27
422.99	3592.72
423.18	3506.12
423.37	3625.49
423.56	3471.01
423.75	3494.42
423.94	3534.21
424.13	3358.67
424.32	3468.67
424.50	3688.68
424.69	3487.40
424.88	3489.74
425.07	3520.17
425.26	3513.14
425.45	3613.79
425.64	3595.06
425.83	3520.17
426.01	3599.74
426.20	3634.85
426.39	3763.58
426.58	3522.51
426.77	3658.26
426.96	3618.47
427.15	3522.51
427.33	3698.05
427.52	3604.42
427.71	3786.99
427.90	3777.62
428.09	3840.82
428.28	3646.55
428.46	3637.19
428.65	3796.35
428.84	3789.33
429.03	3864.22
429.22	3819.75
429.40	3712.09
429.59	3775.28
429.78	3588.04
429.97	3599.74
430.16	3805.71
430.34	3859.54
430.53	3887.63
430.72	3852.52
430.91	3847.84
431.10	3934.44
431.28	4042.11
431.47	4079.55
431.66	4161.47
431.85	4060.83
432.03	4257.43
432.22	4187.22
432.41	4217.65
432.60	4248.07
432.79	4166.15
432.97	4407.23
433.16	4311.27
433.35	4325.31
433.54	4304.25
433.72	4182.54
433.91	4374.46
434.10	4344.03
434.28	4465.74
434.47	4465.74
434.66	4449.36
434.85	4416.59
435.03	4475.10
435.22	4430.63
435.41	4524.26
435.59	4564.04
435.78	4423.61
435.97	4638.94
436.16	4514.89
436.34	4648.30
436.53	4643.62
436.72	4662.35
436.90	4662.35
437.09	4770.01
437.28	4512.55
437.46	4699.80
437.65	4746.61
437.84	4662.35
438.02	4629.58
438.21	4629.58
438.40	4716.18
438.58	4880.02
438.77	4987.68
438.96	4926.83
439.14	5057.90
439.33	5043.85
439.52	5053.22
439.70	5032.15
439.89	5132.79
440.08	5060.24
440.26	5219.39
440.45	5151.52
440.63	5275.57
440.82	5441.75
441.01	5336.42
441.19	5413.66
441.38	5474.51
441.57	5488.56
441.75	5589.20
441.94	5610.26
442.12	5568.13
442.31	5696.86
442.50	5598.56
442.68	5647.71
442.87	5645.37
443.05	5486.22
443.24	5827.93
443.43	5764.74
443.61	5774.10
443.80	5851.34
443.98	5668.78
444.17	5724.95
444.35	5823.25
444.54	5994.11
444.73	5858.36
444.91	5678.14
445.10	5841.98
445.28	5916.87
445.47	5727.29
445.65	5839.64
445.84	5926.24
446.02	5872.40
446.21	5977.73
446.39	5914.53
446.58	6003.47
446.77	5954.32
446.95	5975.39
447.14	5982.41
447.32	5930.92
447.51	5961.34
447.69	5949.64
447.88	6054.97
448.06	6101.78
448.25	5898.15
448.43	6122.84
448.62	5872.40
448.80	6022.20
448.99	6040.92
449.17	6139.23
449.36	6045.60
449.54	6263.27
449.73	6333.49
449.91	6516.05
450.10	6328.81
450.28	6382.64
450.46	6415.41
450.65	6434.13
450.83	6370.94
451.02	6464.56
451.20	6513.71
451.39	6436.47
451.57	6473.92
451.76	6595.63
451.94	6560.52
452.13	6586.27
452.31	6464.56
452.49	6202.42
452.68	6621.38
452.86	6483.28
453.05	6614.35
453.23	6516.05
453.42	6612.01
453.60	6696.27
453.78	6675.21
453.97	6595.63
454.15	6759.47
454.34	6567.54
454.52	6703.29
454.70	6717.34
454.89	6906.92
455.07	6773.51
455.26	6675.21
455.44	6836.70
455.62	6965.43
455.81	6799.26
455.99	7131.61
456.17	7105.87
456.36	7042.67
456.54	7105.87
456.73	7255.66
456.91	7255.66
457.09	7410.14
457.28	7449.93
457.46	7246.30
457.64	7360.98
457.83	7323.54
458.01	7330.56
458.19	7342.26
458.38	7360.98
458.56	7522.48
458.74	7440.56
458.93	7267.36
459.11	7339.92
459.29	7595.04
459.48	7620.78
459.66	7786.96
459.84	7779.94
460.03	7740.15
460.21	7826.75
460.39	7611.42
460.57	7571.63
460.76	7578.65
460.94	7852.50
461.12	7719.09
461.31	7901.65
461.49	7943.78
461.67	7763.56
461.85	7983.57
462.04	7817.39
462.22	8351.03
462.40	8138.04
462.59	8191.88
462.77	7976.55
462.95	8046.76
463.13	7920.37
463.32	8166.13
463.50	8016.33
463.68	8016.33
463.86	7983.57
464.05	8079.53
464.23	8154.43
464.41	8297.20
464.59	8180.17
464.78	8252.73
464.96	8332.31
465.14	8116.98
465.32	8315.92
465.50	8339.33
465.69	8578.06
465.87	8276.13
466.05	8093.57
466.23	8348.69
466.41	8318.26
466.60	8580.40
466.78	8278.47
466.96	8449.33
467.14	8360.39
467.32	8344.01
467.51	8812.12
467.69	8360.39
467.87	8582.74
468.05	8699.77
468.23	8484.44
468.41	8564.02
468.60	8638.92
468.78	8681.05
468.96	8704.45
469.14	8779.35
469.32	8945.53
469.50	8758.28
469.69	8753.60
469.87	8997.02
470.05	8875.31
470.23	8823.82
470.41	8891.70
470.59	8975.95
470.77	8926.80
470.95	8973.61
471.14	9167.88
471.32	9004.04
471.50	9193.62
471.68	9109.36
471.86	9329.38
472.04	9179.58
472.22	9687.48
472.40	9387.89
472.58	9448.74
472.77	9589.17
472.95	9479.17
473.13	9816.21
473.31	9458.10
473.49	9792.80
473.67	9659.39
473.85	9701.52
474.03	10022.17
474.21	9984.73
474.39	9802.16
474.57	10064.30
474.75	9935.57
474.93	10146.22
475.12	10059.62
475.30	10349.85
475.48	10354.53
475.66	10324.10
475.84	10200.05
476.02	10389.64
476.20	10396.66
476.38	10721.99
476.56	10579.22
476.74	10717.31
476.92	10726.68
477.10	10920.94
477.28	11122.23
477.46	11096.48
477.64	11110.52
477.82	11185.42
478.00	11557.57
478.18	11316.49
478.36	11468.62
478.54	11325.85
478.72	11566.93
478.90	11789.28
479.08	11641.82
479.26	11950.78
479.44	11981.20
479.62	11854.81
479.80	11964.82
479.98	12280.79
480.16	12578.04
480.34	12556.97
480.52	12362.71
480.70	12498.46
480.88	12486.76
481.06	12671.66
481.24	12732.51
481.41	12781.67
481.59	12901.03
481.77	13170.19
481.95	13029.76
482.13	13441.70
482.31	13392.55
482.49	13661.71
482.67	13734.26
482.85	13404.25
483.03	13703.84
483.21	14066.62
483.39	13973.00
483.57	14092.37
483.74	14153.22
483.92	14214.07
484.10	14295.99
484.28	14415.36
484.46	14565.15
484.64	14965.39
484.82	14768.78
485.00	14867.08
485.18	15367.96
485.35	15222.84
485.53	14984.11
485.71	15180.71
485.89	15405.41
486.07	15309.44
486.25	15405.41
486.43	15655.84
486.61	15815.00
486.78	15749.46
486.96	16194.17
487.14	16215.23
487.32	16126.29
487.50	16273.74
487.68	16641.21
487.85	16772.28
488.03	16681.00
488.21	17338.69
488.39	16795.68
488.57	17202.94
488.75	17336.35
488.92	17750.62
489.10	17703.81
489.28	17923.82
489.46	17853.61
489.64	17935.53
489.81	18508.96
489.99	18525.34
490.17	18377.89
490.35	18705.56
490.53	18951.32
490.70	19037.92
490.88	18944.30
491.06	18988.77
491.24	19211.12
491.41	19183.03
491.59	19335.17
491.77	19281.33
491.95	19826.68
492.13	19499.00
492.30	20161.37
492.48	19822.00
492.66	20095.84
492.84	20011.58
493.01	20456.28
493.19	20231.59
493.37	20425.86
493.54	20556.93
493.72	20779.28
493.90	20835.45
494.08	21228.66
494.25	21205.25
494.43	21132.70
494.61	21333.98
494.79	21233.34
494.96	21497.82
495.14	21844.22
495.32	21860.60
495.49	21668.68
495.67	21804.43
495.85	22225.73
496.02	22338.07
496.20	22534.68
496.38	22576.81
496.55	22663.41
496.73	22986.40
496.91	22911.50
497.09	22883.42
497.26	23374.93
497.44	23037.89
497.62	23426.42
497.79	23536.43
497.97	23508.34
498.14	23335.14
498.32	23690.90
498.50	23672.18
498.67	23786.86
498.85	23620.69
499.03	24088.79
499.20	24463.28
499.38	24320.51
499.56	24404.77
499.73	24283.06
499.91	24463.28
500.08	25060.12
500.26	24355.61
500.44	24580.31
500.61	24746.48
500.79	25188.85
500.97	24814.36
501.14	25200.55
501.32	25319.92
501.49	25453.33
501.67	25394.81
501.84	25710.78
502.02	25572.69
502.20	25783.34
502.37	25703.76
502.55	25521.20
502.72	26515.93
502.90	25874.62
503.07	25926.11
503.25	26132.08
503.43	26316.98
503.60	26338.05
503.78	26326.35
503.95	26279.54
504.13	26345.07
504.30	26565.08
504.48	26581.46
504.65	27180.64
504.83	27000.42
505.01	27077.66
505.18	26836.58
505.36	27538.74
505.53	26850.63
505.71	27545.76
505.88	27515.34
506.06	27501.29
506.23	27456.82
506.41	27131.49
506.58	27770.46
506.76	27737.69
506.93	27962.38
507.11	27843.01
507.28	28196.43
507.46	27875.78
507.63	27737.69
507.81	28088.77
507.98	28201.11
508.16	28231.54
508.33	28556.88
508.50	28467.94
508.68	29069.45
508.85	28943.06
509.03	28725.39
509.20	29024.98
509.38	28847.10
509.55	28781.57
509.73	29312.87
509.90	28999.24
510.08	28952.43
510.25	29156.05
510.42	29593.73
510.60	29413.51
510.77	29366.70
510.95	29986.94
511.12	29654.59
511.30	29860.55
511.47	30213.98
511.64	30426.96
511.82	30405.90
511.99	29961.20
512.17	30242.06
512.34	30480.80
512.51	30436.33
512.69	30515.90
512.86	30562.72
513.04	31028.48
513.21	30831.88
513.38	30487.82
513.56	30726.55
513.73	30569.74
513.90	30815.49
514.08	30600.16
514.25	31105.72
514.43	31056.57
514.60	31168.91
514.77	31208.70
514.95	31445.10
515.12	31042.53
515.29	31417.01
515.47	31665.11
515.64	31866.39
515.81	31885.12
515.99	31681.49
516.16	32091.09
516.33	32123.85
516.51	31850.01
516.68	31641.70
516.85	31578.51
517.03	31892.14
517.20	32067.68
517.37	32638.77
517.54	32496.00
517.72	32627.07
517.89	31887.46
518.06	32254.92
518.24	32294.71
518.41	32407.06
518.58	32584.94
518.75	32786.22
518.93	32992.19
519.10	32938.36
519.27	33020.28
519.45	33179.43
519.62	33422.85
519.79	33167.73
519.96	33336.25
520.14	33350.29
520.31	33486.04
520.48	33385.40
520.65	33427.53
520.83	33703.71
521.00	33654.56
521.17	33584.35
521.34	33563.28
521.52	34242.04
521.69	34052.45
521.86	34080.54
522.03	34185.86
522.20	34359.06
522.38	34567.37
522.55	34440.98
522.72	34183.52
522.89	34504.18
523.07	34375.45
523.24	34195.23
523.41	34377.79
523.58	34583.76
523.75	34916.11
523.92	34560.35
524.10	35115.06
524.27	34925.47
524.44	34712.49
524.61	35452.09
524.78	35154.85
524.96	35346.77
525.13	35330.39
525.30	35810.20
525.47	35569.12
525.64	35480.18
525.81	35501.25
525.98	35519.97
526.16	35573.80
526.33	35454.44
526.50	35744.66
526.67	35292.94
526.84	35683.81
527.01	35522.31
527.18	36402.35
527.36	35737.64
527.53	35747.00
527.70	36535.76
527.87	36313.41
528.04	36077.02
528.21	36201.07
528.38	36266.60
528.55	36549.81
528.72	36952.38
528.89	36416.40
529.07	36503.00
529.24	36109.78
529.41	36748.75
529.58	36687.90
529.75	36503.00
529.92	36861.10
530.09	36884.50
530.26	37324.52
530.43	37001.53
530.60	36760.45
530.77	37123.24
530.94	37261.33
531.11	37043.66
531.28	37214.52
531.46	37174.73
531.63	37727.10
531.80	37357.29
531.97	37270.69
532.14	37844.12
532.31	37041.32
532.48	37457.93
532.65	37560.92
532.82	37493.04
532.99	37699.01
533.16	37446.23
533.33	37518.79
533.50	37748.16
533.67	37846.46
533.84	37794.97
534.01	38153.07
534.18	38148.39
534.35	38295.85
534.52	38286.48
534.69	38298.19
534.86	38342.66
535.03	38232.65
535.20	38321.59
535.37	38876.30
535.54	38759.27
535.71	38096.90
535.88	38527.56
536.05	38698.42
536.22	38541.60
536.38	38827.15
536.55	38412.87
536.72	38492.45
536.89	38785.02
537.06	38342.66
537.23	38803.74
537.40	38738.21
537.57	38649.27
537.74	39079.92
537.91	39477.82
538.08	39021.41
538.25	38747.57
538.42	39096.31
538.59	39608.89
538.75	38616.50
538.92	39433.35
539.09	39295.25
539.26	39550.37
539.43	39536.33
539.60	39597.18
539.77	39262.49
539.94	39306.96
540.11	39653.36
540.28	39400.58
540.44	39491.86
540.61	39613.57
540.78	39543.35
540.95	39264.83
541.12	39353.77
541.29	39742.30
541.46	39952.94
541.62	40058.27
541.79	39959.97
541.96	39306.96
542.13	39232.06
542.30	40098.06
542.47	40271.26
542.63	39948.26
542.80	39868.69
542.97	40463.18
543.14	40381.26
543.31	41163.00
543.48	40945.33
543.64	41343.22
543.81	40388.28
543.98	40711.28
544.15	40275.94
544.32	40912.56
544.48	40966.40
544.65	41109.17
544.82	41151.30
544.99	40528.72
545.16	40758.09
545.32	40755.75
545.49	40858.73
545.66	41455.57
545.83	41350.24
546.00	41429.82
546.16	41331.52
546.33	41074.06
546.50	40811.92
546.67	41102.15
546.83	40854.05
547.00	40926.61
547.17	40704.26
547.34	41148.96
547.50	41380.67
547.67	41998.57
547.84	41050.66
548.00	41792.61
548.17	41823.03
548.34	41675.58
548.51	41881.55
548.67	42188.16
548.84	41745.80
549.01	42031.34
549.18	41748.14
549.34	42045.38
549.51	42347.31
549.68	41895.59
549.84	42106.24
550.01	42630.52
550.18	42012.62
550.34	41956.44
550.51	41785.58
550.68	42300.50
550.84	42010.28
551.01	42328.59
551.18	42527.53
551.34	42054.75
551.51	42356.67
551.68	42277.10
551.84	42202.20
552.01	42227.95
552.18	42473.70
552.34	41986.87
552.51	42759.25
552.68	42211.56
552.84	42667.97
553.01	42808.40
553.18	42457.32
553.34	42405.83
553.51	41947.08
553.67	42625.84
553.84	42843.51
554.01	42724.14
554.17	43381.83
554.34	42976.92
554.51	42817.76
554.67	42972.24
554.84	42756.91
555.00	43187.56
555.17	42820.10
555.33	42845.85
555.50	43012.02
555.67	43337.36
555.83	43157.14
556.00	43086.92
556.16	43533.96
556.33	43180.54
556.50	43271.82
556.66	43100.97
556.83	42962.87
556.99	43739.93
557.16	43480.13
557.32	43136.07
557.49	43239.06
557.65	42639.88
557.82	43213.31
557.98	43477.79
558.15	43524.60
558.32	43395.87
558.48	43405.23
558.65	43538.65
558.81	43552.69
558.98	43388.85
559.14	43260.12
559.31	43585.46
559.47	43466.09
559.64	43871.00
559.80	43737.59
559.97	43634.61
560.13	43456.73
560.30	43391.19
560.46	43445.02
560.63	43672.06
560.79	43494.18
560.96	43995.05
561.12	43548.01
561.29	43468.43
561.45	43709.50
561.61	43386.51
561.78	43796.10
561.94	43515.24
562.11	43831.21
562.27	43683.76
562.44	43854.62
562.60	43763.34
562.77	44301.66
562.93	44011.43
563.10	44013.77
563.26	43372.47
563.42	44177.61
563.59	44074.63
563.75	43917.81
563.92	44458.48
564.08	44027.82
564.24	44509.97
564.41	44060.58
564.57	44112.08
564.74	43969.30
564.90	44229.10
565.07	44243.15
565.23	43728.23
565.39	43885.04
565.56	44463.16
565.72	43885.04
565.88	43746.95
566.05	44224.42
566.21	43973.98
566.38	44280.60
566.54	43828.87
566.70	44397.62
566.87	44999.14
567.03	44016.11
567.19	44470.18
567.36	44411.67
567.52	44524.01
567.68	44877.43
567.85	43838.23
568.01	44156.55
568.17	44191.65
568.34	44289.96
568.50	44355.49
568.66	44404.64
568.83	44580.18
568.99	44177.61
569.15	44601.25
569.32	44315.70
569.48	44135.48
569.64	45017.86
569.81	44322.72
569.97	44704.23
570.13	44542.74
570.30	44395.28
570.46	44133.14
570.62	44336.77
570.78	44069.95
570.95	44533.37
571.11	44549.76
571.27	44521.67
571.43	44376.56
571.60	44453.79
571.76	44474.86
571.92	44498.26
572.09	44781.47
572.25	44306.34
572.41	44643.38
572.57	44203.36
572.74	44982.76
572.90	44580.18
573.06	44533.37
573.22	44575.50
573.38	44453.79
573.55	44491.24
573.71	44751.04
573.87	44500.61
574.03	44208.04
574.20	44556.78
574.36	44439.75
574.52	44875.09
574.68	44863.39
574.84	44865.73
575.01	44680.83
575.17	44402.30
575.33	44577.84
575.49	44697.21
575.65	45153.62
575.82	44961.69
575.98	44905.52
576.14	45090.42
576.30	44767.43
576.46	44348.47
576.62	44325.07
576.79	44467.84
576.95	44416.35
577.11	44362.51
577.27	44797.85
577.43	44577.84
577.59	44863.39
577.75	44563.80
577.92	44308.68
578.08	44421.03
578.24	44065.27
578.40	44479.54
578.56	44371.88
578.72	45013.18
578.88	44765.09
579.04	44526.35
579.21	44421.03
579.37	44849.35
579.53	44619.97
579.69	44575.50
579.85	44355.49
580.01	44793.17
580.17	45013.18
580.33	44797.85
580.49	44971.05
580.65	44886.79
580.82	44877.43
580.98	44783.81
581.14	44449.11
581.30	44844.66
581.46	44926.58
581.62	44935.95
581.78	44793.17
581.94	45240.21
582.10	44903.18
582.26	45289.37
582.42	44657.42
582.58	44875.09
582.74	44711.25
582.90	45223.83
583.06	44463.16
583.22	44891.48
583.38	44657.42
583.54	44870.41
583.70	44844.66
583.86	45050.63
584.02	44594.23
584.18	45048.29
584.34	45125.53
584.50	44877.43
584.66	44903.18
584.82	44732.32
584.98	44711.25
585.14	44872.75
585.30	44669.12
585.46	44905.52
585.62	44381.24
585.78	45031.91
585.94	44432.73
586.10	44692.53
586.26	44638.70
586.42	45249.58
586.58	44966.37
586.74	44884.45
586.90	44540.39
587.06	44687.85
587.22	44692.53
587.38	44828.28
587.54	45221.49
587.70	44713.59
587.86	45041.27
588.02	45076.38
588.18	45069.36
588.34	44748.70
588.49	44355.49
588.65	44261.87
588.81	44355.49
588.97	44809.56
589.13	44715.93
589.29	44519.33
589.45	44980.42
589.61	44985.10
589.77	44987.44
589.93	45305.75
590.08	44884.45
590.24	45226.17
