SpectraSuite Data File
++++++++++++++++++++++++++++++++++++
Date: Fri Oct 25 11:22:38 EDT 2013
User: price-jones
Dark Spectrum Present: No
Reference Spectrum Present: No
Number of Sampled Component Spectra: 1
Spectrometers: USB2+H05261
Integration Time (usec): 100000 (USB2+H05261)
Spectra Averaged: 1 (USB2+H05261)
Boxcar Smoothing: 0 (USB2+H05261)
Correct for Electrical Dark: No (USB2+H05261)
Strobe/Lamp Enabled: No (USB2+H05261)
Correct for Detector Non-linearity: No (USB2+H05261)
Correct for Stray Light: No (USB2+H05261)
Number of Pixels in Processed Spectrum: 2048
>>>>>Begin Processed Spectral Data<<<<<
365.73	264.48
365.92	264.48
366.12	264.48
366.32	135.75
366.52	60.85
366.72	177.88
366.91	84.26
367.11	72.56
367.31	133.41
367.51	102.98
367.70	37.45
367.90	121.71
368.10	72.56
368.30	140.43
368.49	95.96
368.69	93.62
368.89	163.84
369.09	131.07
369.28	187.24
369.48	138.09
369.68	166.18
369.87	173.20
370.07	180.22
370.27	210.65
370.47	308.95
370.66	547.69
370.86	645.99
371.06	671.73
371.25	631.94
371.45	631.94
371.65	711.52
371.84	660.03
372.04	709.18
372.24	781.74
372.44	746.63
372.63	671.73
372.83	690.46
373.03	697.48
373.22	739.61
373.42	777.06
373.62	763.01
373.81	795.78
374.01	770.04
374.21	837.91
374.40	807.48
374.60	851.96
374.79	763.01
374.99	821.53
375.19	793.44
375.38	868.34
375.58	791.10
375.78	924.51
375.97	929.19
376.17	931.53
376.37	847.27
376.56	840.25
376.76	821.53
376.95	863.66
377.15	917.49
377.35	847.27
377.54	880.04
377.74	954.94
377.93	924.51
378.13	990.05
378.33	992.39
378.52	821.53
378.72	950.26
378.91	968.98
379.11	997.07
379.31	980.68
379.50	929.19
379.70	1029.84
379.89	1057.92
380.09	954.94
380.28	1022.81
380.48	940.90
380.68	919.83
380.87	973.66
381.07	940.90
381.26	1008.77
381.46	976.00
381.65	1015.79
381.85	990.05
382.04	1121.12
382.24	1214.74
382.43	1071.97
382.63	1060.26
382.83	1081.33
383.02	1100.05
383.22	1114.10
383.41	1050.90
383.61	1104.73
383.80	1100.05
384.00	1083.67
384.19	1102.39
384.39	1097.71
384.58	1228.78
384.78	1088.35
384.97	1111.75
385.17	1130.48
385.36	1153.88
385.56	1212.40
385.75	1160.91
385.95	1167.93
386.14	1191.33
386.34	1221.76
386.53	1217.08
386.72	1228.78
386.92	1310.70
387.11	1165.59
387.31	1188.99
387.50	1153.88
387.70	1263.89
387.89	1263.89
388.09	1226.44
388.28	1277.93
388.48	1219.42
388.67	1306.02
388.86	1331.76
389.06	1294.32
389.25	1299.00
389.45	1352.83
389.64	1327.08
389.84	1306.02
390.03	1455.81
390.22	1406.66
390.42	1369.21
390.61	1446.45
390.81	1446.45
391.00	1338.79
391.19	1511.99
391.39	1418.36
391.58	1507.30
391.78	1556.46
391.97	1582.20
392.16	1472.20
392.36	1490.92
392.55	1495.60
392.75	1523.69
392.94	1540.07
393.13	1523.69
393.33	1556.46
393.52	1469.86
393.71	1612.63
393.91	1631.35
394.10	1652.42
394.29	1710.93
394.49	1636.03
394.68	1554.12
394.88	1682.85
395.07	1636.03
395.26	1633.69
395.46	1636.03
395.65	1792.85
395.84	1675.82
396.04	1795.19
396.23	1802.21
396.42	1717.95
396.62	1790.51
396.81	1778.81
397.00	1797.53
397.19	1816.26
397.39	1788.17
397.58	1888.81
397.77	1933.28
397.97	1792.85
398.16	1834.98
398.35	1921.58
398.55	1834.98
398.74	1867.75
398.93	1980.09
399.12	1961.37
399.32	1858.39
399.51	1849.02
399.70	1961.37
399.90	1984.77
400.09	2043.29
400.28	2024.56
400.47	2054.99
400.67	2043.29
400.86	2069.03
401.05	2071.37
401.24	2188.40
401.44	2174.36
401.63	2195.42
401.82	2183.72
402.01	2160.31
402.21	2207.13
402.40	2176.70
402.59	2162.66
402.78	2174.36
402.97	2317.13
403.17	2230.53
403.36	2289.04
403.55	2246.91
403.74	2218.83
403.93	2335.85
404.13	2387.35
404.32	2389.69
404.51	2366.28
404.70	2492.67
404.89	2392.03
405.09	2553.52
405.28	2448.20
405.47	2518.42
405.66	2434.16
405.85	2415.43
406.05	2544.16
406.24	2555.86
406.43	2597.99
406.62	2621.40
406.81	2644.81
407.00	2616.72
407.20	2490.33
407.39	2647.15
407.58	2663.53
407.77	2642.46
407.96	2663.53
408.15	2768.85
408.34	2780.56
408.54	2708.00
408.73	2881.20
408.92	2899.92
409.11	2956.10
409.30	2916.31
409.49	2937.37
409.68	2928.01
409.87	2986.52
410.07	2979.50
410.26	3056.74
410.45	3035.67
410.64	3105.89
410.83	3042.70
411.02	3105.89
411.21	3260.37
411.40	3293.13
411.59	3180.79
411.78	3187.81
411.98	3255.69
412.17	3281.43
412.36	3318.88
412.55	3332.92
412.74	3318.88
412.93	3290.79
413.12	3449.95
413.31	3597.40
413.50	3365.69
413.69	3510.80
413.88	3625.49
414.07	3660.60
414.26	3901.67
414.45	3634.85
414.64	3709.75
414.83	3740.18
415.02	3749.54
415.22	3693.37
415.41	3922.74
415.60	3850.18
415.79	4053.81
415.98	3922.74
416.17	3899.33
416.36	4018.70
416.55	3967.21
416.74	3964.87
416.93	4004.66
417.12	4180.20
417.31	4159.13
417.50	4285.52
417.69	4430.63
417.88	4358.08
418.07	4194.24
418.26	4266.80
418.45	4301.90
418.64	4580.43
418.83	4535.96
419.02	4402.55
419.21	4503.19
419.39	4444.68
419.58	4456.38
419.77	4414.25
419.96	4582.77
420.15	4622.56
420.34	4479.79
420.53	4547.66
420.72	4751.29
420.91	4739.58
421.10	4793.42
421.29	4905.76
421.48	4816.82
421.67	4727.88
421.86	4847.25
422.05	4758.31
422.24	4730.22
422.43	4919.81
422.61	4826.18
422.80	4908.10
422.99	4912.78
423.18	4987.68
423.37	5181.95
423.56	5097.69
423.75	4873.00
423.94	4873.00
424.13	4695.11
424.32	4990.02
424.50	4999.38
424.69	5062.58
424.88	5100.03
425.07	4985.34
425.26	4999.38
425.45	4938.53
425.64	4919.81
425.83	5123.43
426.01	5081.30
426.20	5046.20
426.39	5008.75
426.58	5064.92
426.77	5165.56
426.96	5139.82
427.15	5123.43
427.33	5268.55
427.52	5195.99
427.71	5273.23
427.90	5313.02
428.09	5453.45
428.28	5444.09
428.46	5313.02
428.65	5439.40
428.84	5474.51
429.03	5596.22
429.22	5324.72
429.40	5455.79
429.59	5624.31
429.78	5425.36
429.97	5233.44
430.16	5493.24
430.34	5631.33
430.53	5547.07
430.72	5689.84
430.91	5713.25
431.10	5755.38
431.28	5783.46
431.47	5643.03
431.66	5846.66
431.85	5750.70
432.03	5853.68
432.22	5959.00
432.41	6092.41
432.60	6094.76
432.79	5982.41
432.97	6101.78
433.16	6045.60
433.35	5921.56
433.54	6026.88
433.72	6179.01
433.91	6155.61
434.10	6197.74
434.28	6207.10
434.47	6162.63
434.66	6392.00
434.85	6434.13
435.03	6403.71
435.22	6317.11
435.41	6349.87
435.59	6403.71
435.78	6487.96
435.97	6403.71
436.16	6441.15
436.34	6455.20
436.53	6436.47
436.72	6607.33
436.90	6450.52
437.09	6558.18
437.28	6466.90
437.46	6607.33
437.65	6572.22
437.84	6815.64
438.02	6724.36
438.21	6857.77
438.40	6754.79
438.58	6991.18
438.77	7145.66
438.96	6949.05
439.14	7169.06
439.33	7267.36
439.52	7272.04
439.70	7194.81
439.89	7410.14
440.08	7463.97
440.26	7356.30
440.45	7583.34
440.63	7494.40
440.82	7492.05
441.01	7751.85
441.19	7644.19
441.38	7688.66
441.57	7749.51
441.75	7705.04
441.94	8037.40
442.12	7988.25
442.31	7992.93
442.50	8131.02
442.68	8102.93
442.87	8049.10
443.05	8147.40
443.24	8102.93
443.43	8145.06
443.61	8093.57
443.80	8304.22
443.98	8032.72
444.17	7995.27
444.35	8236.35
444.54	8545.30
444.73	8215.28
444.91	8442.31
445.10	8187.19
445.28	8458.70
445.47	8283.16
445.65	8280.82
445.84	8376.78
446.02	8510.19
446.21	8571.04
446.39	8383.80
446.58	8746.58
446.77	8449.33
446.95	8346.35
447.14	8393.16
447.32	8489.12
447.51	8620.19
447.69	8627.21
447.88	8451.67
448.06	8617.85
448.25	8718.50
448.43	8844.88
448.62	8662.32
448.80	8587.43
448.99	8777.01
449.17	8851.91
449.36	8692.75
449.54	8931.48
449.73	8987.66
449.91	8896.38
450.10	8903.40
450.28	9020.42
450.46	9076.60
450.65	9081.28
450.83	9200.65
451.02	9088.30
451.20	9378.53
451.39	9266.18
451.57	9167.88
451.76	9043.83
451.94	9125.75
452.13	9591.52
452.31	9542.36
452.49	9158.52
452.68	9488.53
452.86	9385.55
453.05	9441.72
453.23	9624.28
453.42	9493.21
453.60	9226.39
453.78	9547.05
453.97	9415.98
454.15	9591.52
454.34	9624.28
454.52	9715.56
454.70	9556.41
454.89	9657.05
455.07	9837.27
455.26	9853.66
455.44	10242.18
455.62	9951.96
455.81	10066.64
455.99	9902.81
456.17	10122.82
456.36	10127.50
456.54	10209.42
456.73	10401.34
456.91	10403.68
457.09	10731.36
457.28	10855.40
457.46	10518.37
457.64	10707.95
457.83	10532.41
458.01	10352.19
458.19	10836.68
458.38	10602.63
458.56	10644.76
458.74	10740.72
458.93	10766.46
459.11	11028.60
459.29	10738.38
459.48	10892.85
459.66	10803.91
459.84	11300.11
460.03	11199.46
460.21	11059.03
460.39	11084.78
460.57	10848.38
460.76	11239.25
460.94	11379.68
461.12	11337.56
461.31	11133.93
461.49	10984.13
461.67	11290.74
461.85	11672.25
462.04	11403.09
462.22	11751.83
462.40	11793.96
462.59	11585.65
462.77	11487.35
462.95	11578.63
463.13	11733.11
463.32	11620.76
463.50	11669.91
463.68	11803.32
463.86	12194.19
464.05	11681.61
464.23	11906.31
464.41	12142.70
464.59	11695.66
464.78	12184.83
464.96	11943.75
465.14	11955.46
465.32	12222.28
465.50	12299.52
465.69	12297.17
465.87	12397.82
466.05	12241.00
466.23	12147.38
466.41	12409.52
466.60	12730.17
466.78	12276.11
466.96	12339.30
467.14	12500.80
467.32	12184.83
467.51	12606.13
467.69	12252.70
467.87	12510.16
468.05	12711.45
468.23	12451.65
468.41	12629.53
468.60	12648.26
468.78	13041.46
468.96	12641.23
469.14	12875.29
469.32	13184.24
469.50	12608.47
469.69	13114.02
469.87	13214.66
470.05	13287.22
470.23	13376.16
470.41	13324.67
470.59	13525.96
470.77	13439.36
470.95	13212.32
471.14	13792.78
471.32	13397.23
471.50	13752.99
471.68	13652.34
471.86	13767.03
472.04	13998.74
472.22	13954.27
472.40	13685.11
472.58	14047.90
472.77	14026.83
472.95	13987.04
473.13	14635.37
473.31	14097.05
473.49	14345.14
473.67	14216.41
473.85	14298.33
474.03	14775.80
474.21	14618.99
474.39	14721.97
474.57	14649.41
474.75	14883.47
474.93	14918.57
475.12	14839.00
475.30	15545.84
475.48	15094.11
475.66	15026.24
475.84	15566.90
476.02	15463.92
476.20	15709.68
476.38	15793.94
476.56	16308.85
476.74	15819.68
476.92	16053.73
477.10	15967.13
477.28	16222.25
477.46	16400.13
477.64	16563.97
477.82	16767.60
478.00	17247.41
478.18	16957.18
478.36	17081.23
478.54	17146.76
478.72	17235.70
478.90	17783.39
479.08	17769.35
479.26	17575.08
479.44	17729.56
479.62	18183.62
479.80	18363.84
479.98	18537.04
480.16	18862.38
480.34	18677.48
480.52	18600.24
480.70	18785.14
480.88	18593.22
481.06	18789.82
481.24	18829.61
481.41	19365.59
481.59	19309.42
481.77	19733.06
481.95	19695.61
482.13	20135.63
482.31	19971.79
482.49	20269.04
482.67	20369.68
482.85	20599.05
483.03	20540.54
483.21	20896.30
483.39	21317.60
483.57	20889.28
483.74	21392.50
483.92	21729.53
484.10	21343.35
484.28	21909.75
484.46	22188.28
484.64	22726.60
484.82	22391.91
485.00	22572.13
485.18	22932.57
485.35	23187.69
485.53	23101.09
485.71	23349.18
485.89	23346.84
486.07	23377.27
486.25	23726.01
486.43	24039.64
486.61	23859.42
486.78	24362.64
486.96	24364.98
487.14	24980.54
487.32	24849.47
487.50	24964.15
487.68	25275.45
487.85	25673.34
488.03	25830.15
488.21	26052.50
488.39	25809.09
488.57	26387.20
488.75	26382.52
488.92	26412.95
489.10	27005.10
489.28	27304.69
489.46	27733.01
489.64	27089.36
489.81	28056.00
489.99	27871.10
490.17	27976.42
490.35	28470.28
490.53	28067.70
490.70	28720.71
490.88	28512.41
491.06	29017.96
491.24	29151.37
491.41	29191.16
491.59	29795.02
491.77	29649.91
491.95	29708.42
492.13	29661.61
492.30	30232.70
492.48	30265.47
492.66	30511.22
492.84	30401.22
493.01	31182.96
493.19	30752.30
493.37	31023.80
493.54	31154.87
493.72	31798.52
493.90	31819.58
494.08	31931.93
494.25	32320.46
494.43	32421.10
494.61	32325.14
494.79	32645.79
494.96	32973.47
495.14	33092.83
495.32	33694.35
495.49	33319.87
495.67	33130.28
495.85	33844.15
496.02	34141.39
496.20	34132.03
496.38	34490.13
496.55	34483.11
496.73	35040.16
496.91	35042.50
497.09	35154.85
497.26	35337.41
497.44	35250.81
497.62	35274.21
497.79	35686.15
497.97	35761.05
498.14	36378.95
498.32	36350.86
498.50	36266.60
498.67	37425.17
498.85	36800.24
499.03	37081.11
499.20	36872.80
499.38	37046.00
499.56	37352.61
499.73	37708.37
499.91	37834.76
500.08	38132.01
500.26	38085.20
500.44	38204.56
500.61	38174.14
500.79	38183.50
500.97	38696.08
501.14	38471.39
501.32	38763.95
501.49	38958.22
501.67	39021.41
501.84	38892.68
502.02	39508.24
502.20	39384.19
502.37	39618.25
502.55	39782.09
502.72	39800.81
502.90	39796.13
503.07	39704.85
503.25	40418.71
503.43	39903.79
503.60	40612.98
503.78	40903.20
503.95	40554.46
504.13	40437.44
504.30	41027.25
504.48	40739.36
504.65	40762.77
504.83	41624.09
505.01	41497.70
505.18	41551.53
505.36	41883.89
505.53	41640.47
505.71	41757.50
505.88	41841.76
506.06	41462.59
506.23	42045.38
506.41	42270.08
506.58	42653.92
506.76	42639.88
506.93	42354.33
507.11	43014.37
507.28	42897.34
507.46	42548.60
507.63	43491.83
507.81	43737.59
507.98	43304.59
508.16	43861.64
508.33	43688.44
508.50	43913.13
508.68	43585.46
508.85	44048.88
509.03	43824.19
509.20	44144.84
509.38	44500.61
509.55	44994.46
509.73	44556.78
509.90	44886.79
510.08	44406.98
510.25	45329.16
510.42	45118.51
510.60	45361.92
510.77	45275.32
510.95	45652.15
511.12	45558.53
511.30	45354.90
511.47	45553.85
511.64	45975.14
511.82	46284.09
511.99	46230.26
512.17	46483.04
512.34	46522.83
512.51	46415.16
512.69	46281.75
512.86	46600.07
513.04	47002.64
513.21	47122.01
513.38	47140.73
513.56	47398.19
513.73	47416.91
513.90	47686.07
514.08	47124.35
514.25	47232.01
514.43	47796.08
514.60	47660.33
514.77	47555.00
514.95	48502.92
515.12	48107.37
515.29	47873.32
515.47	48245.46
515.64	48236.10
515.81	48523.99
515.99	48608.25
516.16	49013.16
516.33	48863.36
516.51	49214.44
516.68	48863.36
516.85	48683.14
517.03	49041.24
517.20	49448.50
517.37	49029.54
517.54	48907.83
517.72	48868.05
517.89	49146.57
518.06	49411.05
518.24	49720.00
518.41	49703.62
518.58	49198.06
518.75	49642.76
518.93	50028.95
519.10	50028.95
519.27	49888.52
519.45	49759.79
519.62	50225.56
519.79	50234.92
519.96	50148.32
520.14	50721.75
520.31	50424.50
520.48	50344.92
520.65	50539.19
520.83	51105.60
521.00	50698.34
521.17	50780.26
521.34	50948.78
521.52	51180.49
521.69	51082.19
521.86	50967.51
522.03	51648.60
522.20	51519.87
522.38	51707.12
522.55	51674.35
522.72	51639.24
522.89	51667.33
523.07	51753.93
523.24	51777.33
523.41	51863.93
523.58	51657.96
523.75	52357.78
523.92	52013.73
524.10	52399.91
524.27	52355.44
524.44	52275.87
524.61	52442.04
524.78	52301.61
524.96	52549.71
525.13	52549.71
525.30	52320.34
525.47	53015.47
525.64	52594.18
525.81	53052.92
525.98	53148.88
526.16	52912.49
526.33	52994.41
526.50	53284.64
526.67	53104.41
526.84	53263.57
527.01	53013.13
527.18	52755.68
527.36	53247.19
527.53	53181.65
527.70	53696.57
527.87	53471.88
528.04	53205.06
528.21	53483.58
528.38	53514.01
528.55	53949.35
528.72	53654.44
528.89	53691.89
529.07	53766.79
529.24	53691.89
529.41	53848.71
529.58	53764.45
529.75	54024.25
529.92	53979.78
530.09	54354.26
530.26	54239.57
530.43	54365.96
530.60	54176.38
530.77	54003.18
530.94	54574.27
531.11	54138.93
531.28	54354.26
531.46	54473.63
531.63	54380.01
531.80	54770.88
531.97	54644.49
532.14	54752.15
532.31	54801.30
532.48	54611.72
532.65	54887.90
532.82	54796.62
532.99	55061.10
533.16	55002.59
533.33	54862.16
533.50	55264.73
533.67	54990.89
533.84	55077.49
534.01	55311.54
534.18	55093.87
534.35	55564.32
534.52	55119.62
534.69	55606.45
534.86	55550.27
535.03	55145.36
535.20	55458.99
535.37	55760.92
535.54	55447.29
535.71	55655.60
535.88	55473.04
536.05	55627.51
536.22	55744.54
536.38	55856.88
536.55	55863.91
536.72	55849.86
536.89	55683.69
537.06	55903.70
537.23	55992.64
537.40	55735.18
537.57	56011.36
537.74	56055.83
537.91	56025.40
538.08	56250.09
538.25	56116.68
538.42	56158.81
538.59	56353.08
538.75	56229.03
538.92	56362.44
539.09	56463.08
539.26	56179.88
539.43	56378.82
539.60	56491.17
539.77	56381.16
539.94	56591.81
540.11	56601.18
540.28	56729.90
540.44	56528.62
540.61	56626.92
540.78	56617.56
540.95	56779.06
541.12	56432.66
541.29	56739.27
541.46	56673.73
541.62	56685.43
541.79	57076.30
541.96	56509.89
542.13	57073.96
542.30	56989.70
542.47	57284.61
542.63	57102.05
542.80	57179.29
542.97	57301.00
543.14	57406.32
543.31	57432.07
543.48	57439.09
543.64	57647.39
543.81	57649.74
543.98	57406.32
544.15	57579.52
544.32	57626.33
544.48	57808.89
544.65	57457.81
544.82	57745.70
544.99	57343.12
545.16	57787.83
545.32	57619.31
545.49	57708.25
545.66	57916.56
545.83	57939.96
546.00	57881.45
546.16	57918.90
546.33	57930.60
546.50	57542.07
546.67	58012.52
546.83	57513.98
547.00	57991.45
547.17	57902.51
547.34	57963.37
547.50	58061.67
547.67	58209.12
547.84	58019.54
548.00	58422.11
548.17	58438.50
548.34	58494.67
548.51	58405.73
548.67	58628.08
548.84	58508.71
549.01	58384.66
549.18	58220.83
549.34	58464.24
549.51	58361.26
549.68	58354.24
549.84	58590.63
550.01	58557.86
550.18	58174.02
550.34	58349.56
550.51	58731.06
550.68	58543.82
550.84	58520.41
551.01	58782.55
551.18	58698.30
551.34	58787.24
551.51	58635.10
551.68	58642.12
551.84	58625.74
552.01	58656.17
552.18	58906.60
552.34	58843.41
552.51	59035.33
552.68	58700.64
552.84	58752.13
553.01	59255.34
553.18	58873.84
553.34	59075.12
553.51	58871.49
553.67	58937.03
553.84	59119.59
554.01	59217.89
554.17	59105.55
554.34	59299.81
554.51	59100.87
554.67	59423.86
554.84	59402.80
555.00	59234.28
555.17	59044.69
555.33	59414.50
555.50	58969.80
555.67	58988.52
555.83	59164.06
556.00	59381.73
556.16	59576.00
556.33	59657.91
556.50	59536.21
556.66	59568.97
556.83	59437.90
556.99	59681.32
557.16	59650.89
557.32	59770.26
557.49	59629.83
557.65	59693.02
557.82	59557.27
557.98	59615.79
558.15	59686.00
558.32	59735.15
558.48	59594.72
558.65	59597.06
558.81	59646.21
558.98	59676.64
559.14	59739.83
559.31	59774.94
559.47	59842.82
559.64	59994.95
559.80	59966.87
559.97	60055.81
560.13	59615.79
560.30	59845.16
560.46	59817.07
560.63	60004.31
560.79	59994.95
560.96	59875.58
561.12	60065.17
561.29	60196.24
561.45	60107.30
561.61	59898.99
561.78	59992.61
561.94	59990.27
562.11	59980.91
562.27	59964.52
562.44	60341.35
562.60	60205.60
562.77	60287.52
562.93	60067.51
563.10	60320.29
563.26	60027.72
563.42	60444.33
563.59	60219.64
563.75	60327.31
563.92	60404.55
564.08	60275.82
564.24	60275.82
564.41	60303.90
564.57	60374.12
564.74	60296.88
564.90	60367.10
565.07	60367.10
565.23	60229.01
565.39	60212.62
565.56	60418.59
565.72	60149.43
565.88	60273.48
566.05	60308.58
566.21	60477.10
566.38	60245.39
566.54	60615.19
566.70	60662.00
566.87	60652.64
567.03	60491.15
567.19	60629.24
567.36	60566.04
567.52	60463.06
567.68	60561.36
567.85	60552.00
568.01	60488.80
568.17	60591.79
568.34	60722.86
568.50	60601.15
568.66	60444.33
568.83	60671.37
568.99	60519.23
569.15	60692.43
569.32	60690.09
569.48	60678.39
569.64	60921.80
569.81	60692.43
569.97	60535.62
570.13	60638.60
570.30	60589.45
570.46	60863.29
570.62	60935.85
570.78	60650.30
570.95	60729.88
571.11	60804.78
571.27	60577.75
571.43	60774.35
571.60	60987.34
571.76	60825.84
571.92	60842.23
572.09	60896.06
572.25	60933.51
572.41	60739.24
572.57	60617.53
572.74	61059.90
572.90	60683.07
573.06	60919.46
573.22	60743.92
573.38	60891.38
573.55	60832.86
573.71	61034.15
573.87	60830.52
574.03	60673.71
574.20	60842.23
574.36	60563.70
574.52	60879.67
574.68	60886.70
574.84	60999.04
575.01	60999.04
575.17	60818.82
575.33	60851.59
575.49	60917.12
575.65	61146.50
575.82	60846.91
575.98	60802.44
576.14	61151.18
576.30	60963.93
576.46	60814.14
576.62	61104.37
576.79	60830.52
576.95	60874.99
577.11	61038.83
577.27	61071.60
577.43	61160.54
577.59	60994.36
577.75	60952.23
577.92	60886.70
578.08	60959.25
578.24	61034.15
578.40	61151.18
578.56	61052.87
578.72	60985.00
578.88	61125.43
579.04	61113.73
579.21	61174.58
579.37	61097.34
579.53	61244.80
579.69	60750.94
579.85	60914.78
580.01	61020.11
580.17	60985.00
580.33	61052.87
580.49	61137.13
580.65	61069.26
580.82	60985.00
580.98	60776.69
581.14	60956.91
581.30	61212.03
581.46	60898.40
581.62	61146.50
581.78	61104.37
581.94	61186.28
582.10	61132.45
582.26	61130.11
582.42	60996.70
582.58	61137.13
582.74	60945.21
582.90	61052.87
583.06	61265.86
583.22	60935.85
583.38	61284.59
583.54	61247.14
583.70	61340.76
583.86	61174.58
584.02	61013.08
584.18	61029.47
584.34	61134.79
584.50	61289.27
584.66	61050.53
584.82	60961.59
584.98	61216.71
585.14	61148.84
585.30	61293.95
585.46	61141.81
585.62	61214.37
585.78	61193.31
585.94	61031.81
586.10	61169.90
586.26	61113.73
586.42	61076.28
586.58	61282.25
586.74	61380.55
586.90	61123.09
587.06	61155.86
587.22	61357.14
587.38	61256.50
587.54	61296.29
587.70	61537.36
587.86	61123.09
588.02	61244.80
588.18	61403.95
588.34	61181.60
588.49	61127.77
