SpectraSuite Data File
++++++++++++++++++++++++++++++++++++
Date: Fri Oct 25 10:44:11 EDT 2013
User: price-jones
Dark Spectrum Present: No
Reference Spectrum Present: No
Number of Sampled Component Spectra: 1
Spectrometers: USB2+H05261
Integration Time (usec): 100000 (USB2+H05261)
Spectra Averaged: 1 (USB2+H05261)
Boxcar Smoothing: 0 (USB2+H05261)
Correct for Electrical Dark: No (USB2+H05261)
Strobe/Lamp Enabled: No (USB2+H05261)
Correct for Detector Non-linearity: No (USB2+H05261)
Correct for Stray Light: No (USB2+H05261)
Number of Pixels in Processed Spectrum: 2048
>>>>>Begin Processed Spectral Data<<<<<
365.73	131.07
365.92	131.07
366.12	131.07
366.32	46.81
366.52	63.19
366.72	42.13
366.91	0.00
367.11	23.41
367.31	28.09
367.51	14.04
367.70	4.68
367.90	0.00
368.10	0.00
368.30	0.00
368.49	0.00
368.69	9.36
368.89	0.00
369.09	0.00
369.28	49.15
369.48	21.06
369.68	56.17
369.87	93.62
370.07	84.26
370.27	112.35
370.47	215.33
370.66	365.12
370.86	433.00
371.06	512.58
371.25	496.19
371.45	411.93
371.65	433.00
371.84	451.72
372.04	449.38
372.24	463.43
372.44	479.81
372.63	517.26
372.83	461.09
373.03	454.06
373.22	512.58
373.42	550.03
373.62	587.47
373.81	559.39
374.01	575.77
374.21	500.87
374.40	517.26
374.60	575.77
374.79	547.69
374.99	564.07
375.19	624.92
375.38	559.39
375.58	634.29
375.78	627.26
375.97	582.79
376.17	608.54
376.37	631.94
376.56	557.05
376.76	634.29
376.95	543.00
377.15	610.88
377.35	578.11
377.54	676.41
377.74	608.54
377.93	608.54
378.13	606.20
378.33	641.31
378.52	655.35
378.72	676.41
378.91	683.44
379.11	690.46
379.31	643.65
379.50	615.56
379.70	688.12
379.89	690.46
380.09	650.67
380.28	683.44
380.48	692.80
380.68	723.23
380.87	765.36
381.07	634.29
381.26	774.72
381.46	744.29
381.65	751.31
381.85	671.73
382.04	662.37
382.24	676.41
382.43	737.27
382.63	720.88
382.83	725.57
383.02	770.04
383.22	650.67
383.41	711.52
383.61	763.01
383.80	758.33
384.00	751.31
384.19	809.83
384.39	840.25
384.58	753.65
384.78	781.74
384.97	791.10
385.17	753.65
385.36	791.10
385.56	791.10
385.75	784.08
385.95	760.67
386.14	880.04
386.34	851.96
386.53	821.53
386.72	851.96
386.92	821.53
387.11	809.83
387.31	842.59
387.50	877.70
387.70	814.51
387.89	814.51
388.09	795.78
388.28	812.17
388.48	809.83
388.67	877.70
388.86	887.06
389.06	891.74
389.25	987.71
389.45	966.64
389.64	964.30
389.84	1029.84
390.03	1011.11
390.22	1050.90
390.42	1076.65
390.61	992.39
390.81	1067.28
391.00	1086.01
391.19	1064.94
391.39	1011.11
391.58	1041.54
391.78	1125.80
391.97	1071.97
392.16	994.73
392.36	971.32
392.55	964.30
392.75	1062.60
392.94	976.00
393.13	945.58
393.33	1006.43
393.52	1118.78
393.71	1069.62
393.91	1095.37
394.10	1097.71
394.29	1109.41
394.49	1118.78
394.68	1259.21
394.88	1233.46
395.07	1217.08
395.26	1273.25
395.46	1170.27
395.65	1259.21
395.84	1308.36
396.04	1327.08
396.23	1142.18
396.42	1160.91
396.62	1198.35
396.81	1235.80
397.00	1149.20
397.19	1380.92
397.39	1287.29
397.58	1416.02
397.77	1385.60
397.97	1385.60
398.16	1420.71
398.35	1451.13
398.55	1411.34
398.74	1406.66
398.93	1521.35
399.12	1446.45
399.32	1490.92
399.51	1650.08
399.70	1607.95
399.90	1610.29
400.09	1540.07
400.28	1493.26
400.47	1657.10
400.67	1657.10
400.86	1671.14
401.05	1589.22
401.24	1584.54
401.44	1675.82
401.63	1804.55
401.82	1769.44
402.01	1727.32
402.21	1699.23
402.40	1671.14
402.59	1713.27
402.78	1799.87
402.97	1790.51
403.17	1806.89
403.36	1769.44
403.55	1809.23
403.74	1811.57
403.93	1849.02
404.13	1879.45
404.32	1792.85
404.51	1811.57
404.70	1954.35
404.89	1823.28
405.09	2115.84
405.28	1984.77
405.47	1935.62
405.66	1968.39
405.85	1987.11
406.05	1909.88
406.24	2001.16
406.43	2080.74
406.62	2043.29
406.81	2090.10
407.00	1970.73
407.20	2017.54
407.39	2104.14
407.58	2101.80
407.77	2186.06
407.96	2150.95
408.15	2225.85
408.34	2193.08
408.54	2277.34
408.73	2207.13
408.92	2363.94
409.11	2176.70
409.30	2267.98
409.49	2256.28
409.68	2169.68
409.87	2307.77
410.07	2354.58
410.26	2277.34
410.45	2356.92
410.64	2352.24
410.83	2537.14
411.02	2483.31
411.21	2593.31
411.40	2619.06
411.59	2689.28
411.78	2532.46
411.98	2511.39
412.17	2621.40
412.36	2633.10
412.55	2761.83
412.74	2597.99
412.93	2780.56
413.12	2752.47
413.31	2874.18
413.50	2806.30
413.69	2834.39
413.88	2970.14
414.07	2895.24
414.26	2885.88
414.45	3061.42
414.64	2892.90
414.83	2939.71
415.02	3094.19
415.22	3052.06
415.41	2970.14
415.60	3124.62
415.79	3084.83
415.98	3234.62
416.17	3187.81
416.36	3108.23
416.55	3192.49
416.74	3276.75
416.93	3265.05
417.12	3227.60
417.31	3428.88
417.50	3276.75
417.69	3494.42
417.88	3447.61
418.07	3424.20
418.26	3328.24
418.45	3349.31
418.64	3611.45
418.83	3566.98
419.02	3499.10
419.21	3545.91
419.39	3566.98
419.58	3459.31
419.77	3494.42
419.96	3653.58
420.15	3674.64
420.34	3777.62
420.53	3768.26
420.72	3803.37
420.91	3693.37
421.10	3815.07
421.29	3943.80
421.48	3794.01
421.67	3976.57
421.86	3784.65
422.05	3808.05
422.24	3684.00
422.43	3857.20
422.61	3749.54
422.80	3873.59
422.99	3920.40
423.18	3896.99
423.37	3850.18
423.56	3850.18
423.75	3967.21
423.94	3918.06
424.13	3492.08
424.32	3779.97
424.50	3981.25
424.69	3896.99
424.88	3896.99
425.07	3934.44
425.26	3875.93
425.45	3946.14
425.64	4081.89
425.83	3969.55
426.01	4011.68
426.20	3901.67
426.39	4079.55
426.58	3775.28
426.77	3824.44
426.96	3864.22
427.15	4044.45
427.33	4074.87
427.52	4161.47
427.71	4051.47
427.90	4152.11
428.09	4159.13
428.28	4091.26
428.46	4184.88
428.65	4163.81
428.84	4334.67
429.03	4325.31
429.22	4170.83
429.40	4184.88
429.59	4145.09
429.78	3978.91
429.97	3873.59
430.16	3997.64
430.34	4009.34
430.53	4159.13
430.72	4166.15
430.91	4095.94
431.10	4400.21
431.28	4484.47
431.47	4671.71
431.66	4667.03
431.85	4603.83
432.03	4755.97
432.22	4622.56
432.41	4484.47
432.60	4650.64
432.79	4643.62
432.97	4739.58
433.16	4702.14
433.35	4622.56
433.54	4631.92
433.72	4610.86
433.91	4500.85
434.10	4784.06
434.28	4648.30
434.47	4823.84
434.66	4788.74
434.85	4835.55
435.03	4894.06
435.22	5018.11
435.41	5109.39
435.59	5083.64
435.78	5029.81
435.97	5008.75
436.16	5200.67
436.34	5186.63
436.53	5041.51
436.72	5249.82
436.90	4950.23
437.09	5287.27
437.28	5090.67
437.46	5156.20
437.65	5142.16
437.84	5170.24
438.02	5303.65
438.21	5111.73
438.40	5177.26
438.58	5266.21
438.77	5418.34
438.96	5406.64
439.14	5598.56
439.33	5570.48
439.52	5678.14
439.70	5549.41
439.89	5584.52
440.08	5731.97
440.26	5647.71
440.45	5607.92
440.63	5755.38
440.82	5975.39
441.01	5977.73
441.19	5947.30
441.38	6047.94
441.57	6010.50
441.75	6164.97
441.94	6300.72
442.12	6284.34
442.31	6260.93
442.50	6183.70
442.68	6263.27
442.87	6356.90
443.05	6160.29
443.24	6345.19
443.43	6277.32
443.61	6445.84
443.80	6574.56
443.98	6399.02
444.17	6202.42
444.35	6370.94
444.54	6562.86
444.73	6562.86
444.91	6387.32
445.10	6502.01
445.28	6487.96
445.47	6422.43
445.65	6293.70
445.84	6399.02
446.02	6705.63
446.21	6612.01
446.39	6541.80
446.58	6778.19
446.77	6700.95
446.95	6532.44
447.14	6661.16
447.32	6593.29
447.51	6698.61
447.69	6651.80
447.88	6665.85
448.06	6696.27
448.25	6637.76
448.43	6658.82
448.62	6731.38
448.80	6808.62
448.99	6745.42
449.17	6729.04
449.36	6747.76
449.54	7115.23
449.73	6923.30
449.91	7131.61
450.10	7089.48
450.28	7178.42
450.46	7386.73
450.65	7129.27
450.83	7140.97
451.02	7136.29
451.20	7136.29
451.39	6949.05
451.57	7056.72
451.76	7328.22
451.94	7187.79
452.13	7162.04
452.31	7145.66
452.49	7042.67
452.68	7056.72
452.86	7220.55
453.05	7117.57
453.23	7129.27
453.42	7066.08
453.60	7426.52
453.78	7585.68
453.97	7262.68
454.15	7339.92
454.34	7452.27
454.52	7573.97
454.70	7550.57
454.89	7398.43
455.07	7719.09
455.26	7756.54
455.44	7709.72
455.62	7716.75
455.81	7707.38
455.99	7719.09
456.17	7854.84
456.36	7805.69
456.54	7915.69
456.73	8004.63
456.91	8135.70
457.09	8154.43
457.28	8325.29
457.46	8100.59
457.64	8112.30
457.83	8002.29
458.01	8042.08
458.19	8248.05
458.38	7985.91
458.56	8201.24
458.74	8135.70
458.93	8060.80
459.11	8187.19
459.29	8311.24
459.48	8229.32
459.66	8308.90
459.84	8248.05
460.03	8479.76
460.21	8439.97
460.39	8557.00
460.57	8262.09
460.76	8388.48
460.94	8643.60
461.12	8498.49
461.31	8329.97
461.49	8587.43
461.67	8571.04
461.85	8786.37
462.04	8772.33
462.22	8982.98
462.40	8947.87
462.59	8620.19
462.77	8903.40
462.95	8887.01
463.13	8865.95
463.32	8847.22
463.50	8980.64
463.68	8830.84
463.86	9060.21
464.05	8905.74
464.23	9001.70
464.41	9039.15
464.59	8875.31
464.78	9224.05
464.96	9231.07
465.14	9025.11
465.32	9149.15
465.50	9095.32
465.69	9249.80
465.87	9254.48
466.05	9184.26
466.23	9085.96
466.41	9308.31
466.60	9472.15
466.78	8968.93
466.96	9217.03
467.14	9076.60
467.32	9366.82
467.51	9366.82
467.69	9392.57
467.87	9357.46
468.05	9383.21
468.23	9542.36
468.41	9413.63
468.60	9427.68
468.78	9722.59
468.96	9565.77
469.14	9680.46
469.32	9643.01
469.50	9369.16
469.69	9813.87
469.87	9640.67
470.05	9720.24
470.23	9874.72
470.41	9937.91
470.59	9860.68
470.77	9923.87
470.95	9916.85
471.14	10167.29
471.32	9841.95
471.50	10279.63
471.68	10286.65
471.86	10237.50
472.04	10303.04
472.22	10572.20
472.40	10200.05
472.58	10443.47
472.77	10677.52
472.95	10457.51
473.13	10815.62
473.31	10455.17
473.49	10548.79
473.67	10738.38
473.85	10574.54
474.03	11035.63
474.21	10813.28
474.39	11030.94
474.57	11009.88
474.75	10965.41
474.93	11136.27
475.12	11232.23
475.30	11274.36
475.48	11190.10
475.66	11321.17
475.84	11166.70
476.02	11482.67
476.20	11452.24
476.38	11536.50
476.56	11754.17
476.74	11644.17
476.92	11803.32
477.10	11894.60
477.28	11983.54
477.46	12262.07
477.64	12088.87
477.82	12343.99
478.00	12624.85
478.18	12343.99
478.36	12421.22
478.54	12711.45
478.72	12446.97
478.90	12798.05
479.08	12922.10
479.26	13132.75
479.44	12908.05
479.62	13235.73
479.80	13537.66
479.98	13348.08
480.16	13586.81
480.34	13530.64
480.52	13844.27
480.70	13848.95
480.88	13724.90
481.06	13778.73
481.24	13895.76
481.41	14176.62
481.59	14291.31
481.77	14303.01
481.95	14216.41
482.13	14682.18
482.31	14831.97
482.49	14745.38
482.67	14661.12
482.85	14911.55
483.03	15115.18
483.21	15073.05
483.39	15302.42
483.57	15594.99
483.74	15325.83
483.92	15346.89
484.10	15681.59
484.28	15662.86
484.46	16088.84
484.64	16496.10
484.82	15852.45
485.00	15957.77
485.18	16159.06
485.35	16362.69
485.53	16121.61
485.71	16311.19
485.89	16095.86
486.07	16074.80
486.25	16685.68
486.43	16940.80
486.61	16767.60
486.78	16961.86
486.96	17432.31
487.14	17516.57
487.32	17759.98
487.50	17687.43
487.68	18090.00
487.85	18321.71
488.03	18342.78
488.21	18338.10
488.39	18391.93
488.57	18455.12
488.75	18642.37
488.92	19117.50
489.10	19243.88
489.28	19564.54
489.46	19550.49
489.64	19854.76
489.81	20175.42
489.99	19854.76
490.17	20105.20
490.35	20477.35
490.53	20077.12
490.70	20357.98
490.88	20528.84
491.06	20711.40
491.24	20650.55
491.41	20863.54
491.59	20772.25
491.77	21113.97
491.95	20959.50
492.13	21401.86
492.30	21231.00
492.48	21549.31
492.66	21668.68
492.84	21689.74
493.01	21806.77
493.19	21884.01
493.37	22157.85
493.54	22368.50
493.72	22902.14
493.90	22532.34
494.08	23007.47
494.25	22916.19
494.43	22963.00
494.61	23234.50
494.79	23403.02
494.96	23594.94
495.14	23531.75
495.32	23559.83
495.49	23342.16
495.67	23943.68
495.85	24006.87
496.02	24264.33
496.20	24261.99
496.38	24254.97
496.55	24280.72
496.73	24961.81
496.91	24627.12
497.09	24797.98
497.26	25083.52
497.44	25060.12
497.62	25130.33
497.79	25291.83
497.97	25060.12
498.14	25467.37
498.32	25268.42
498.50	25729.51
498.67	25914.41
498.85	25989.31
499.03	25923.77
499.20	26078.25
499.38	26232.72
499.56	26190.59
499.73	26719.56
499.91	26380.18
500.08	26705.51
500.26	26366.13
500.44	26565.08
500.61	26656.36
500.79	26796.79
500.97	26888.07
501.14	27211.07
501.32	27379.59
501.49	27138.51
501.67	26714.87
501.84	27435.76
502.02	27271.92
502.20	27269.58
502.37	27873.44
502.55	27716.62
502.72	27817.27
502.90	27962.38
503.07	27737.69
503.25	28121.54
503.43	28095.79
503.60	28081.75
503.78	28100.47
503.95	28254.95
504.13	28196.43
504.30	28437.51
504.48	28393.04
504.65	29127.97
504.83	29022.64
505.01	29242.65
505.18	29106.90
505.36	29539.90
505.53	29242.65
505.71	29563.31
505.88	29560.97
506.06	29237.97
506.23	29757.57
506.41	29654.59
506.58	29776.30
506.76	30501.86
506.93	30277.17
507.11	30031.41
507.28	29982.26
507.46	29818.42
507.63	29633.52
507.81	30256.11
507.98	29876.94
508.16	30235.04
508.33	30562.72
508.50	30609.53
508.68	30820.17
508.85	31182.96
509.03	30831.88
509.20	31360.84
509.38	31480.21
509.55	30960.61
509.73	30909.11
509.90	31386.58
510.08	31711.92
510.25	31545.74
510.42	31438.08
510.60	31447.44
510.77	31978.74
510.95	31601.91
511.12	31562.12
511.30	31985.76
511.47	32149.60
511.64	32339.18
511.82	32388.33
511.99	32107.47
512.17	32362.59
512.34	32264.28
512.51	32371.95
512.69	32849.42
512.86	32814.31
513.04	32868.14
513.21	32730.05
513.38	32692.60
513.56	32613.02
513.73	32711.33
513.90	33067.09
514.08	33029.64
514.25	33099.86
514.43	33383.06
514.60	33069.43
514.77	32898.57
514.95	33654.56
515.12	33511.79
515.29	33642.86
515.47	33715.42
515.64	33935.43
515.81	34029.05
515.99	33455.62
516.16	33736.48
516.33	33376.04
516.51	33677.97
516.68	33301.14
516.85	33408.81
517.03	33488.38
517.20	33621.80
517.37	33912.02
517.54	34160.12
517.72	34017.35
517.89	33930.75
518.06	33645.20
518.24	33926.07
518.41	34225.65
518.58	34377.79
518.75	34415.24
518.93	34719.51
519.10	34906.75
519.27	34398.85
519.45	35543.38
519.62	35641.68
519.79	35358.47
519.96	35168.89
520.14	35606.57
520.31	35262.51
520.48	35363.15
520.65	35894.46
520.83	35613.59
521.00	36411.71
521.17	35847.64
521.34	36062.97
521.52	36023.19
521.69	36020.84
521.86	36027.87
522.03	36339.16
522.20	36135.53
522.38	36357.88
522.55	36425.76
522.72	36397.67
522.89	36524.06
523.07	36746.41
523.24	36589.59
523.41	36699.60
523.58	36837.69
523.75	36645.77
523.92	36762.79
524.10	36872.80
524.27	37429.85
524.44	37132.60
524.61	37233.24
524.78	37359.63
524.96	36959.40
525.13	38061.79
525.30	37565.60
525.47	37556.24
525.64	37551.56
525.81	37474.32
525.98	37565.60
526.16	37434.53
526.33	37064.72
526.50	37493.04
526.67	37123.24
526.84	37266.01
527.01	37797.31
527.18	37539.85
527.36	38007.96
527.53	38326.27
527.70	38581.39
527.87	38405.85
528.04	38316.91
528.21	38717.14
528.38	38588.41
528.55	38363.72
528.72	38782.68
528.89	39491.86
529.07	38485.43
529.24	38218.61
529.41	38724.16
529.58	38658.63
529.75	38660.97
529.92	38703.10
530.09	39126.74
530.26	39218.02
530.43	39138.44
530.60	38838.85
530.77	39735.27
530.94	39491.86
531.11	39297.59
531.28	39590.16
531.46	39721.23
531.63	39615.91
531.80	39409.94
531.97	39189.93
532.14	39452.07
532.31	39505.90
532.48	39625.27
532.65	39840.60
532.82	39498.88
532.99	39861.66
533.16	39690.80
533.33	39793.79
533.50	40271.26
533.67	39941.24
533.84	39728.25
534.01	40034.86
534.18	39856.98
534.35	40105.08
534.52	39840.60
534.69	40662.13
534.86	40622.34
535.03	40435.10
535.20	41060.02
535.37	40718.30
535.54	40325.09
535.71	40727.66
535.88	40505.31
536.05	40779.15
536.22	40797.88
536.38	40804.90
536.55	40931.29
536.72	40952.35
536.89	40573.19
537.06	40739.36
537.23	40680.85
537.40	41083.42
537.57	41034.27
537.74	41277.69
537.91	41392.37
538.08	41134.92
538.25	41064.70
538.42	41123.21
538.59	41532.81
538.75	41343.22
538.92	41296.41
539.09	41958.78
539.26	41771.54
539.43	41455.57
539.60	41411.10
539.77	40903.20
539.94	41469.61
540.11	41221.52
540.28	41624.09
540.44	41390.03
540.61	41542.17
540.78	41633.45
540.95	41565.57
541.12	41249.60
541.29	41792.61
541.46	41584.30
541.62	42057.09
541.79	42153.05
541.96	41432.16
542.13	41869.84
542.30	41949.42
542.47	42237.31
542.63	42321.57
542.80	42160.07
542.97	42188.16
543.14	42476.04
543.31	42340.29
543.48	42646.90
543.64	42541.58
543.81	42656.26
543.98	42831.80
544.15	43164.16
544.32	43065.86
544.48	43040.11
544.65	43063.52
544.82	43002.66
544.99	42440.93
545.16	42822.44
545.32	42724.14
545.49	43325.66
545.66	43175.86
545.83	43648.65
546.00	43697.80
546.16	43313.95
546.33	42967.55
546.50	42869.25
546.67	43276.51
546.83	42714.78
547.00	43416.94
547.17	43269.48
547.34	43140.75
547.50	43384.17
547.67	43112.67
547.84	43311.61
548.00	43878.02
548.17	43695.46
548.34	43728.23
548.51	43821.85
548.67	43753.97
548.84	44025.48
549.01	43552.69
549.18	43320.98
549.34	43981.01
549.51	44105.06
549.68	43702.48
549.84	44030.16
550.01	43882.70
550.18	43814.83
550.34	44081.65
550.51	44004.41
550.68	43899.09
550.84	43512.90
551.01	43964.62
551.18	43910.79
551.34	44528.69
551.51	44261.87
551.68	44399.96
551.84	44142.50
552.01	44088.67
552.18	44240.81
552.34	44088.67
552.51	44203.36
552.68	44245.49
552.84	44500.61
553.01	44470.18
553.18	44243.15
553.34	44208.04
553.51	44360.17
553.67	44713.59
553.84	45048.29
554.01	44701.89
554.17	44839.98
554.34	44797.85
554.51	44683.17
554.67	45031.91
554.84	44533.37
555.00	44858.71
555.17	44968.71
555.33	44837.64
555.50	45008.50
555.67	44825.94
555.83	44559.12
556.00	45345.54
556.16	44989.78
556.33	44708.91
556.50	45099.78
556.66	44870.41
556.83	44596.57
556.99	45387.67
557.16	45312.77
557.32	45530.44
557.49	45345.54
557.65	44739.34
557.82	45202.77
557.98	45228.51
558.15	45205.11
558.32	45223.83
558.48	45036.59
558.65	44938.29
558.81	45092.76
558.98	44917.22
559.14	44898.50
559.31	44900.84
559.47	45364.26
559.64	45556.19
559.80	45429.80
559.97	45387.67
560.13	45085.74
560.30	45085.74
560.46	45535.12
560.63	45170.00
560.79	45038.93
560.96	45404.05
561.12	45343.20
561.29	45399.37
561.45	45432.14
561.61	45446.18
561.78	45338.52
561.94	44954.67
562.11	45361.92
562.27	45593.64
562.44	45525.76
562.60	45858.12
562.77	45724.71
562.93	45734.07
563.10	45399.37
563.26	45076.38
563.42	45734.07
563.59	45345.54
563.75	45869.82
563.92	45801.94
564.08	45755.13
564.24	45734.07
564.41	45413.41
564.57	45865.14
564.74	45633.42
564.90	45750.45
565.07	45605.34
565.23	45869.82
565.39	45591.30
565.56	45729.39
565.72	45532.78
565.88	45275.32
566.05	45619.38
566.21	45570.23
566.38	45846.41
566.54	45612.36
566.70	45904.93
566.87	46452.61
567.03	45619.38
567.19	46167.07
567.36	46052.38
567.52	45326.81
567.68	46143.66
567.85	45614.70
568.01	46251.33
568.17	45631.08
568.34	45720.02
568.50	45825.35
568.66	45668.53
568.83	45605.34
568.99	45399.37
569.15	45865.14
569.32	45780.88
569.48	45860.46
569.64	45942.38
569.81	46483.04
569.97	45909.61
570.13	45624.06
570.30	45731.73
570.46	45132.55
570.62	45254.26
570.78	45518.74
570.95	45626.40
571.11	45900.25
571.27	46096.85
571.43	45530.44
571.60	45993.87
571.76	45542.14
571.92	45961.10
572.09	46021.95
572.25	46122.60
572.41	46050.04
572.57	46248.99
572.74	46485.38
572.90	46302.82
573.06	46609.43
573.22	46089.83
573.38	46248.99
573.55	45909.61
573.71	45794.92
573.87	46148.34
574.03	45860.46
574.20	46057.06
574.36	46012.59
574.52	45734.07
574.68	45902.59
574.84	45888.54
575.01	46192.81
575.17	45993.87
575.33	46206.86
575.49	45675.55
575.65	46291.12
575.82	46106.21
575.98	45848.75
576.14	46389.42
576.30	45893.22
576.46	46066.42
576.62	46342.61
576.79	45832.37
576.95	45827.69
577.11	46068.76
577.27	46061.74
577.43	46061.74
577.59	45797.26
577.75	45635.77
577.92	45270.64
578.08	45642.79
578.24	46323.88
578.40	46237.28
578.56	46471.34
578.72	46052.38
578.88	46267.71
579.04	46492.40
579.21	45989.19
579.37	45914.29
579.53	46014.93
579.69	46335.59
579.85	46045.36
580.01	46384.74
580.17	45876.84
580.33	46103.87
580.49	45790.24
580.65	46127.28
580.82	45823.01
580.98	46059.40
581.14	46134.30
581.30	46532.19
581.46	46703.05
581.62	46642.20
581.78	46527.51
581.94	46630.49
582.10	45951.74
582.26	46197.49
582.42	46263.03
582.58	46155.36
582.74	46078.13
582.90	46457.29
583.06	46546.23
583.22	46375.37
583.38	46415.16
583.54	46469.00
583.70	46651.56
583.86	46714.75
584.02	45825.35
584.18	46124.94
584.34	46321.54
584.50	46045.36
584.66	46078.13
584.82	46199.83
584.98	46450.27
585.14	46050.04
585.30	45820.67
585.46	46501.76
585.62	46279.41
585.78	45799.60
585.94	45619.38
586.10	46401.12
586.26	46024.29
586.42	46321.54
586.58	46527.51
586.74	46387.08
586.90	46153.02
587.06	46185.79
587.22	46550.91
587.38	46340.27
587.54	46466.66
587.70	46691.35
587.86	46223.24
588.02	46192.81
588.18	46880.93
588.34	46124.94
588.49	45649.81
588.65	45247.24
588.81	45404.05
588.97	45518.74
589.13	46227.92
589.29	46274.73
589.45	45984.51
589.61	46021.95
589.77	46071.10
589.93	46220.90
590.08	46550.91
