SpectraSuite Data File
++++++++++++++++++++++++++++++++++++
Date: Fri Oct 25 11:23:33 EDT 2013
User: price-jones
Dark Spectrum Present: No
Reference Spectrum Present: No
Number of Sampled Component Spectra: 1
Spectrometers: USB2+H05261
Integration Time (usec): 100000 (USB2+H05261)
Spectra Averaged: 1 (USB2+H05261)
Boxcar Smoothing: 0 (USB2+H05261)
Correct for Electrical Dark: No (USB2+H05261)
Strobe/Lamp Enabled: No (USB2+H05261)
Correct for Detector Non-linearity: No (USB2+H05261)
Correct for Stray Light: No (USB2+H05261)
Number of Pixels in Processed Spectrum: 2048
>>>>>Begin Processed Spectral Data<<<<<
365.73	234.05
365.92	234.05
366.12	234.05
366.32	131.07
366.52	88.94
366.72	126.39
366.91	107.66
367.11	84.26
367.31	142.77
367.51	91.28
367.70	124.05
367.90	128.73
368.10	121.71
368.30	180.22
368.49	133.41
368.69	175.54
368.89	110.01
369.09	156.82
369.28	177.88
369.48	196.60
369.68	156.82
369.87	236.39
370.07	189.58
370.27	283.20
370.47	322.99
370.66	564.07
370.86	683.44
371.06	645.99
371.25	695.14
371.45	631.94
371.65	683.44
371.84	774.72
372.04	683.44
372.24	732.59
372.44	730.25
372.63	739.61
372.83	739.61
373.03	720.88
373.22	767.70
373.42	734.93
373.62	767.70
373.81	786.42
374.01	781.74
374.21	858.98
374.40	793.44
374.60	823.87
374.79	833.23
374.99	812.17
375.19	821.53
375.38	868.34
375.58	770.04
375.78	929.19
375.97	877.70
376.17	898.77
376.37	947.92
376.56	847.27
376.76	798.12
376.95	866.00
377.15	840.25
377.35	847.27
377.54	917.49
377.74	922.17
377.93	894.08
378.13	987.71
378.33	976.00
378.52	844.93
378.72	917.49
378.91	866.00
379.11	961.96
379.31	940.90
379.50	943.24
379.70	1006.43
379.89	908.13
380.09	1008.77
380.28	1032.18
380.48	999.41
380.68	987.71
380.87	968.98
381.07	987.71
381.26	1029.84
381.46	947.92
381.65	950.26
381.85	1053.24
382.04	1062.60
382.24	1121.12
382.43	1086.01
382.63	985.37
382.83	1011.11
383.02	1086.01
383.22	1050.90
383.41	1069.62
383.61	1256.87
383.80	1144.52
384.00	1107.07
384.19	1121.12
384.39	1118.78
384.58	1188.99
384.78	1118.78
384.97	1198.35
385.17	1142.18
385.36	1235.80
385.56	1165.59
385.75	1050.90
385.95	1231.12
386.14	1249.85
386.34	1203.04
386.53	1207.72
386.72	1219.42
386.92	1163.25
387.11	1228.78
387.31	1343.47
387.50	1221.76
387.70	1210.06
387.89	1289.64
388.09	1177.29
388.28	1217.08
388.48	1296.66
388.67	1341.13
388.86	1299.00
389.06	1329.42
389.25	1345.81
389.45	1416.02
389.64	1331.76
389.84	1366.87
390.03	1376.24
390.22	1472.20
390.42	1348.15
390.61	1427.73
390.81	1430.07
391.00	1373.89
391.19	1373.89
391.39	1437.09
391.58	1526.03
391.78	1416.02
391.97	1460.49
392.16	1458.15
392.36	1465.18
392.55	1519.01
392.75	1460.49
392.94	1561.14
393.13	1523.69
393.33	1516.67
393.52	1621.99
393.71	1544.75
393.91	1526.03
394.10	1495.60
394.29	1514.33
394.49	1671.14
394.68	1657.10
394.88	1612.63
395.07	1598.59
395.26	1631.35
395.46	1621.99
395.65	1734.34
395.84	1661.78
396.04	1863.07
396.23	1743.70
396.42	1675.82
396.62	1816.26
396.81	1767.10
397.00	1694.55
397.19	1750.72
397.39	1692.21
397.58	1741.36
397.77	1785.83
397.97	1811.57
398.16	1769.44
398.35	1888.81
398.55	1781.15
398.74	1790.51
398.93	1987.11
399.12	2008.18
399.32	1907.54
399.51	1905.20
399.70	2003.50
399.90	2005.84
400.09	2040.95
400.28	2129.89
400.47	1937.96
400.67	2043.29
400.86	1998.82
401.05	2064.35
401.24	2085.42
401.44	2120.53
401.63	2076.06
401.82	2169.68
402.01	2202.44
402.21	2214.15
402.40	2183.72
402.59	2153.29
402.78	2249.25
402.97	2239.89
403.17	2319.47
403.36	2286.70
403.55	2267.98
403.74	2298.41
403.93	2408.41
404.13	2363.94
404.32	2157.97
404.51	2380.32
404.70	2450.54
404.89	2347.56
405.09	2438.84
405.28	2457.56
405.47	2487.99
405.66	2546.50
405.85	2413.09
406.05	2509.05
406.24	2455.22
406.43	2476.29
406.62	2630.76
406.81	2785.24
407.00	2609.70
407.20	2574.59
407.39	2705.66
407.58	2743.11
407.77	2750.13
407.96	2731.41
408.15	2832.05
408.34	2708.00
408.54	2881.20
408.73	2672.89
408.92	2825.03
409.11	2892.90
409.30	2864.82
409.49	2857.79
409.68	2892.90
409.87	2848.43
410.07	3056.74
410.26	2963.12
410.45	3084.83
410.64	2923.33
410.83	3038.02
411.02	3056.74
411.21	3208.87
411.40	3112.91
411.59	3150.36
411.78	3129.30
411.98	3197.17
412.17	3194.83
412.36	3251.00
412.55	3258.03
412.74	3459.31
412.93	3414.84
413.12	3269.73
413.31	3386.76
413.50	3527.19
413.69	3468.67
413.88	3599.74
414.07	3609.11
414.26	3660.60
414.45	3716.77
414.64	3719.11
414.83	3861.88
415.02	3737.84
415.22	3845.50
415.41	3904.01
415.60	3932.10
415.79	3836.14
415.98	3964.87
416.17	3971.89
416.36	3735.50
416.55	3995.29
416.74	4067.85
416.93	3988.27
417.12	4196.58
417.31	4093.60
417.50	4337.01
417.69	4334.67
417.88	4278.50
418.07	4161.47
418.26	4376.80
418.45	4294.88
418.64	4432.97
418.83	4524.26
419.02	4440.00
419.21	4400.21
419.39	4524.26
419.58	4388.50
419.77	4442.34
419.96	4517.23
420.15	4542.98
420.34	4676.39
420.53	4521.92
420.72	4744.27
420.91	4664.69
421.10	4734.90
421.29	4873.00
421.48	4638.94
421.67	4772.35
421.86	4568.73
422.05	4873.00
422.24	4685.75
422.43	4809.80
422.61	4980.66
422.80	4917.47
422.99	4905.76
423.18	4947.89
423.37	4992.36
423.56	4772.35
423.75	4978.32
423.94	4940.87
424.13	4610.86
424.32	4772.35
424.50	4968.96
424.69	5008.75
424.88	5034.49
425.07	4929.17
425.26	4887.04
425.45	5006.41
425.64	4997.04
425.83	5011.09
426.01	5078.96
426.20	5102.37
426.39	4830.87
426.58	5078.96
426.77	5018.11
426.96	5146.84
427.15	5128.11
427.33	5219.39
427.52	5057.90
427.71	5301.31
427.90	5249.82
428.09	5327.06
428.28	5233.44
428.46	5427.70
428.65	5362.17
428.84	5514.30
429.03	5437.06
429.22	5291.95
429.40	5448.77
429.59	5493.24
429.78	5383.23
429.97	5195.99
430.16	5575.16
430.34	5465.15
430.53	5659.42
430.72	5741.33
430.91	5664.10
431.10	5652.39
431.28	5717.93
431.47	5713.25
431.66	5720.27
431.85	5825.59
432.03	5891.13
432.22	5940.28
432.41	5996.45
432.60	6029.22
432.79	5825.59
432.97	5956.66
433.16	6033.90
433.35	5919.21
433.54	6050.28
433.72	5951.98
433.91	5937.94
434.10	6174.33
434.28	6090.07
434.47	6333.49
434.66	6394.34
434.85	6394.34
435.03	6324.13
435.22	6296.04
435.41	6265.61
435.59	6441.15
435.78	6525.41
435.97	6527.75
436.16	6382.64
436.34	6457.54
436.53	6668.19
436.72	6745.42
436.90	6478.60
437.09	6750.10
437.28	6541.80
437.46	6548.82
437.65	6729.04
437.84	6719.68
438.02	6806.28
438.21	6743.08
438.40	6745.42
438.58	6815.64
438.77	6925.65
438.96	6951.39
439.14	7091.82
439.33	7206.51
439.52	7089.48
439.70	7176.08
439.89	7302.47
440.08	7454.61
440.26	7288.43
440.45	7150.34
440.63	7449.93
440.82	7527.16
441.01	7405.46
441.19	7660.57
441.38	7892.29
441.57	7819.73
441.75	7751.85
441.94	7819.73
442.12	7955.48
442.31	8058.46
442.50	7847.82
442.68	7906.33
442.87	7983.57
443.05	8105.28
443.24	8259.75
443.43	7985.91
443.61	8021.02
443.80	8360.39
443.98	7978.89
444.17	8013.99
444.35	8229.32
444.54	8383.80
444.73	8107.62
444.91	8463.38
445.10	8322.94
445.28	8369.76
445.47	8409.54
445.65	8236.35
445.84	8468.06
446.02	8404.86
446.21	8313.58
446.39	8463.38
446.58	8496.14
446.77	8381.46
446.95	8327.63
447.14	8388.48
447.32	8592.11
447.51	8477.42
447.69	8482.10
447.88	8374.44
448.06	8599.13
448.25	8344.01
448.43	8631.90
448.62	8725.52
448.80	8634.24
448.99	8786.37
449.17	8720.84
449.36	8524.23
449.54	8854.25
449.73	8968.93
449.91	9008.72
450.10	8943.19
450.28	8877.65
450.46	9191.28
450.65	9083.62
450.83	9165.54
451.02	9123.41
451.20	9380.87
451.39	9259.16
451.57	9013.40
451.76	9207.67
451.94	9247.46
452.13	9287.25
452.31	9359.80
452.49	9247.46
452.68	9427.68
452.86	9282.56
453.05	9331.72
453.23	9561.09
453.42	9453.42
453.60	9193.62
453.78	9518.96
453.97	9336.40
454.15	9685.14
454.34	9540.02
454.52	9652.37
454.70	9657.05
454.89	9820.89
455.07	9877.06
455.26	9961.32
455.44	10003.45
455.62	10068.98
455.81	9837.27
455.99	9907.49
456.17	10087.71
456.36	10164.95
456.54	10160.27
456.73	10251.55
456.91	10413.04
457.09	10413.04
457.28	10588.58
457.46	10228.14
457.64	10403.68
457.83	10445.81
458.01	10244.52
458.19	10574.54
458.38	10574.54
458.56	10647.10
458.74	10567.52
458.93	10569.86
459.11	10824.98
459.29	10733.70
459.48	10934.98
459.66	10677.52
459.84	11164.36
460.03	11103.50
460.21	10909.24
460.39	11131.59
460.57	11112.86
460.76	11138.61
460.94	11066.05
461.12	11016.90
461.31	11073.07
461.49	11007.54
461.67	11162.01
461.85	11536.50
462.04	11311.81
462.22	11716.72
462.40	11536.50
462.59	11391.39
462.77	11442.88
462.95	11688.64
463.13	11468.62
463.32	11751.83
463.50	11637.14
463.68	11686.29
463.86	11995.25
464.05	11695.66
464.23	11665.23
464.41	11702.68
464.59	11791.62
464.78	12175.47
464.96	11983.54
465.14	11751.83
465.32	11988.22
465.50	12070.14
465.69	12168.45
465.87	12168.45
466.05	12266.75
466.23	12149.72
466.41	12168.45
466.60	12587.40
466.78	12079.50
466.96	12194.19
467.14	12535.91
467.32	12262.07
467.51	12470.37
467.69	12175.47
467.87	12437.61
468.05	12463.35
468.23	12472.71
468.41	12533.57
468.60	12528.89
468.78	12671.66
468.96	12594.42
469.14	12978.27
469.32	12994.65
469.50	12573.36
469.69	13104.66
469.87	13144.45
470.05	13254.45
470.23	13186.58
470.41	13156.15
470.59	13277.86
470.77	13177.22
470.95	13296.58
471.14	13645.32
471.32	13268.50
471.50	13699.16
471.68	13523.62
471.86	13928.53
472.04	13603.19
472.22	13926.19
472.40	13549.36
472.58	14038.53
472.77	13792.78
472.95	14153.22
473.13	14745.38
473.31	14209.39
473.49	14153.22
473.67	14125.13
473.85	14202.37
474.03	14736.01
474.21	14780.48
474.39	14918.57
474.57	14803.89
474.75	14626.01
474.93	14843.68
475.12	14995.81
475.30	15360.94
475.48	15051.99
475.66	15073.05
475.84	15159.65
476.02	15351.57
476.20	15845.43
476.38	15894.58
476.56	16037.35
476.74	16065.44
476.92	15761.17
477.10	15719.04
477.28	16091.18
477.46	16009.26
477.64	16245.66
477.82	16741.85
478.00	17006.33
478.18	16659.93
478.36	16971.22
478.54	17245.07
478.72	17167.83
478.90	17570.40
479.08	17675.73
479.26	17617.21
479.44	17664.02
479.62	17844.24
479.80	17984.68
479.98	18267.88
480.16	18380.23
480.34	18583.85
480.52	18497.25
480.70	18726.63
480.88	18541.72
481.06	18785.14
481.24	18801.52
481.41	19594.96
481.59	19253.25
481.77	19283.67
481.95	19548.15
482.13	19630.07
482.31	19796.25
482.49	20332.23
482.67	20294.79
482.85	20737.15
483.03	20362.66
483.21	20872.90
483.39	21106.95
483.57	21111.63
483.74	21350.37
483.92	21483.78
484.10	21268.45
484.28	21827.84
484.46	21490.80
484.64	22389.56
484.82	22050.19
485.00	22368.50
485.18	22785.12
485.35	23054.28
485.53	22733.62
485.71	23094.07
485.89	23608.98
486.07	23222.80
486.25	23426.42
486.43	23681.54
486.61	23660.48
486.78	23861.76
486.96	24287.74
487.14	24657.54
487.32	24624.78
487.50	24891.60
487.68	25001.60
487.85	25158.42
488.03	25518.86
488.21	26003.35
488.39	25743.55
488.57	26309.96
488.75	26410.60
488.92	26867.01
489.10	26419.97
489.28	26771.05
489.46	27101.06
489.64	27328.10
489.81	27702.58
489.99	27758.75
490.17	27843.01
490.35	28215.16
490.53	27997.49
490.70	28460.91
490.88	28217.50
491.06	28985.19
491.24	29057.75
491.41	29223.93
491.59	29422.87
491.77	29362.02
491.95	29551.60
492.13	29645.23
492.30	29731.83
492.48	30110.99
492.66	29816.08
492.84	30242.06
493.01	30890.39
493.19	30782.73
493.37	31248.49
493.54	30733.57
493.72	31747.03
493.90	31576.17
494.08	31564.46
494.25	31693.19
494.43	32048.96
494.61	32264.28
494.79	32320.46
494.96	32627.07
495.14	32704.31
495.32	33310.50
495.49	33174.75
495.67	33352.63
495.85	33813.72
496.02	33923.72
496.20	33851.17
496.38	34352.04
496.55	33820.74
496.73	34902.07
496.91	34543.97
497.09	34536.94
497.26	34649.29
497.44	34986.33
497.62	35747.00
497.79	35648.70
497.97	35449.75
498.14	35931.90
498.32	36617.68
498.50	36821.31
498.67	36524.06
498.85	36591.94
499.03	36762.79
499.20	36748.75
499.38	36814.29
499.56	37111.53
499.73	37453.25
499.91	37158.34
500.08	37591.34
500.26	37743.48
500.44	37532.83
500.61	37673.26
500.79	37986.89
500.97	38094.56
501.14	38515.86
501.32	38515.86
501.49	38611.82
501.67	38946.51
501.84	38990.98
502.02	39192.27
502.20	38967.58
502.37	39332.70
502.55	38995.67
502.72	39503.56
502.90	39971.67
503.07	40044.23
503.25	39707.19
503.43	39688.46
503.60	39838.26
503.78	40414.03
503.95	40172.96
504.13	40395.31
504.30	40835.33
504.48	40540.42
504.65	40615.32
504.83	41188.75
505.01	41205.13
505.18	41263.64
505.36	41612.38
505.53	41177.04
505.71	41352.58
505.88	41860.48
506.06	41652.17
506.23	41617.07
506.41	41958.78
506.58	42415.19
506.76	42628.18
506.93	42572.00
507.11	42305.18
507.28	42806.06
507.46	42674.99
507.63	43126.71
507.81	43269.48
507.98	43136.07
508.16	43531.62
508.33	43763.34
508.50	43466.09
508.68	43318.64
508.85	43852.28
509.03	43920.15
509.20	43634.61
509.38	44048.88
509.55	44261.87
509.73	44439.75
509.90	44954.67
510.08	44617.63
510.25	44554.44
510.42	44851.69
510.60	45137.23
510.77	45275.32
510.95	45610.02
511.12	44802.53
511.30	45111.49
511.47	45397.03
511.64	45485.97
511.82	45839.39
511.99	45654.49
512.17	46281.75
512.34	45673.21
512.51	46017.27
512.69	46513.47
512.86	46515.81
513.04	46719.43
513.21	46651.56
513.38	46674.96
513.56	46946.47
513.73	46773.27
513.90	47072.85
514.08	46784.97
514.25	47627.56
514.43	47863.96
514.60	47484.79
514.77	47297.55
514.95	47873.32
515.12	47608.84
515.29	47772.67
515.47	47793.74
515.64	48215.04
515.81	48172.91
515.99	48121.41
516.16	48453.77
516.33	48322.70
516.51	48612.93
516.68	48512.28
516.85	48619.95
517.03	48851.66
517.20	48961.67
517.37	48729.95
517.54	49212.10
517.72	49111.46
517.89	48954.64
518.06	49097.42
518.24	49347.86
518.41	48898.47
518.58	49495.31
518.75	49172.31
518.93	49518.71
519.10	49429.77
519.27	50073.42
519.45	49822.98
519.62	50012.57
519.79	50117.89
519.96	49958.73
520.14	49979.80
520.31	49792.56
520.48	50167.04
520.65	50209.17
520.83	50726.43
521.00	50667.92
521.17	50667.92
521.34	50623.45
521.52	50834.10
521.69	50742.81
521.86	51023.68
522.03	51100.92
522.20	51449.66
522.38	51302.20
522.55	51400.50
522.72	51295.18
522.89	51152.41
523.07	51819.46
523.24	51564.34
523.41	51990.32
523.58	51578.39
523.75	51725.84
523.92	51531.57
524.10	52032.45
524.27	51852.23
524.44	52325.02
524.61	52207.99
524.78	52051.17
524.96	52325.02
525.13	52360.12
525.30	52423.32
525.47	52699.50
525.64	52671.42
525.81	52743.97
525.98	53120.80
526.16	52561.41
526.33	52596.52
526.50	52807.17
526.67	52898.45
526.84	53219.10
527.01	53195.70
527.18	52987.39
527.36	52971.00
527.53	53052.92
527.70	53389.96
527.87	53434.43
528.04	53256.55
528.21	53504.65
528.38	53450.81
528.55	53668.48
528.72	53375.92
528.89	53619.33
529.07	52982.71
529.24	53308.04
529.41	53687.21
529.58	53616.99
529.75	53469.54
529.92	53778.49
530.09	53670.82
530.26	53961.05
530.43	54120.21
530.60	53656.78
530.77	53993.82
530.94	54176.38
531.11	54211.49
531.28	54068.72
531.46	54148.29
531.63	54380.01
531.80	54206.81
531.97	54412.77
532.14	54522.78
532.31	54424.48
532.48	54721.72
532.65	54710.02
532.82	54262.98
532.99	54827.05
533.16	54225.53
533.33	54908.97
533.50	54969.82
533.67	54670.23
533.84	54695.98
534.01	54817.69
534.18	54761.51
534.35	55440.27
534.52	55065.78
534.69	55227.28
534.86	55402.82
535.03	55157.06
535.20	55185.15
535.37	55489.42
535.54	55402.82
535.71	55007.27
535.88	55697.73
536.05	55484.74
536.22	55786.67
536.38	55796.03
536.55	55735.18
536.72	55906.04
536.89	55781.99
537.06	55690.71
537.23	55887.31
537.40	55388.78
537.57	55711.77
537.74	55863.91
537.91	56058.17
538.08	55875.61
538.25	55791.35
538.42	55959.87
538.59	56030.08
538.75	55884.97
538.92	55992.64
539.09	56193.92
539.26	56055.83
539.43	56074.55
539.60	56467.76
539.77	56427.98
539.94	56556.70
540.11	56507.55
540.28	56596.49
540.44	56479.47
540.61	56430.32
540.78	56566.07
540.95	56334.35
541.12	56573.09
541.29	56472.45
541.46	56655.01
541.62	56594.15
541.79	56743.95
541.96	56355.42
542.13	56418.61
542.30	56896.08
542.47	56924.17
542.63	56872.68
542.80	56886.72
542.97	57008.43
543.14	57387.60
543.31	57359.51
543.48	57392.28
543.64	57462.49
543.81	57413.34
543.98	57535.05
544.15	57513.98
544.32	57406.32
544.48	57567.82
544.65	57425.04
544.82	57408.66
544.99	57305.68
545.16	57413.34
545.32	57513.98
545.49	57680.16
545.66	57551.43
545.83	57904.85
546.00	57762.08
546.16	57738.68
546.33	57673.14
546.50	57495.26
546.67	57965.71
546.83	57521.01
547.00	57495.26
547.17	57748.04
547.34	57888.47
547.50	57916.56
547.67	58047.63
547.84	57918.90
548.00	58220.83
548.17	58255.93
548.34	58239.55
548.51	58159.97
548.67	58106.14
548.84	58183.38
549.01	58181.04
549.18	58007.84
549.34	58265.30
549.51	58307.43
549.68	58375.30
549.84	58401.05
550.01	58337.85
550.18	58232.53
550.34	58372.96
550.51	58501.69
550.68	58396.37
550.84	58279.34
551.01	58539.14
551.18	58588.29
551.34	58597.65
551.51	58520.41
551.68	58614.04
551.84	58632.76
552.01	58583.61
552.18	58742.77
552.34	58595.31
552.51	58808.30
552.68	58515.73
552.84	58623.40
553.01	58812.98
553.18	58803.62
553.34	58939.37
553.51	58869.15
553.67	58866.81
553.84	59051.72
554.01	58972.14
554.17	58927.67
554.34	58937.03
554.51	58995.54
554.67	59131.29
554.84	59250.66
555.00	58972.14
555.17	58878.52
555.33	59185.13
555.50	58705.32
555.67	58995.54
555.83	58976.82
556.00	59105.55
556.16	59414.50
556.33	59227.26
556.50	59330.24
556.66	59437.90
556.83	59234.28
556.99	59250.66
557.16	59634.51
557.32	59381.73
557.49	59639.19
557.65	59323.22
557.82	59456.63
557.98	59365.35
558.15	59470.67
558.32	59498.76
558.48	59171.08
558.65	59458.97
558.81	59477.69
558.98	59597.06
559.14	59725.79
559.31	59620.47
559.47	59552.59
559.64	59718.77
559.80	59774.94
559.97	59784.30
560.13	59536.21
560.30	59529.19
560.46	59915.37
560.63	59753.88
560.79	59700.04
560.96	60020.70
561.12	59840.48
561.29	59891.97
561.45	60030.06
561.61	59650.89
561.78	59791.33
561.94	59784.30
562.11	59882.61
562.27	59877.93
562.44	60001.97
562.60	60168.15
562.77	59889.63
562.93	60126.02
563.10	60210.28
563.26	59990.27
563.42	60273.48
563.59	60140.07
563.75	60095.60
563.92	60200.92
564.08	59950.48
564.24	60182.19
564.41	60104.96
564.57	60158.79
564.74	60107.30
564.90	60119.00
565.07	60041.76
565.23	60306.24
565.39	60107.30
565.56	60193.90
565.72	60126.02
565.88	60254.75
566.05	60163.47
566.21	60156.45
566.38	60264.11
566.54	60402.21
566.70	60369.44
566.87	60561.36
567.03	60163.47
567.19	60467.74
567.36	60458.38
567.52	60158.79
567.68	60650.30
567.85	60437.31
568.01	60650.30
568.17	60264.11
568.34	60439.65
568.50	60348.37
568.66	60336.67
568.83	60432.63
568.99	60362.42
569.15	60568.38
569.32	60594.13
569.48	60378.80
569.64	60516.89
569.81	60526.25
569.97	60388.16
570.13	60584.77
570.30	60254.75
570.46	60509.87
570.62	60561.36
570.78	60615.19
570.95	60392.84
571.11	60505.19
571.27	60580.09
571.43	60479.44
571.60	60882.02
571.76	60577.75
571.92	60774.35
572.09	60701.79
572.25	60781.37
572.41	60652.64
572.57	60654.98
572.74	60769.67
572.90	60619.88
573.06	60713.50
573.22	60591.79
573.38	60683.07
573.55	60584.77
573.71	60790.73
573.87	60811.80
574.03	60486.46
574.20	60804.78
574.36	60591.79
574.52	60748.60
574.68	60573.06
574.84	60762.65
575.01	60718.18
575.17	60858.61
575.33	60790.73
575.49	60594.13
575.65	60776.69
575.82	60907.76
575.98	60725.20
576.14	60844.57
576.30	60722.86
576.46	60687.75
576.62	60650.30
576.79	60734.56
576.95	60619.88
577.11	60697.11
577.27	60807.12
577.43	60673.71
577.59	60800.10
577.75	60601.15
577.92	60816.48
578.08	60821.16
578.24	60678.39
578.40	60940.53
578.56	60980.32
578.72	60949.89
578.88	61111.39
579.04	61190.97
579.21	60870.31
579.37	61095.00
579.53	60928.83
579.69	60743.92
579.85	60907.76
580.01	60844.57
580.17	60865.63
580.33	60959.25
580.49	60928.83
580.65	60928.83
580.82	60701.79
580.98	60753.29
581.14	60882.02
581.30	60889.04
581.46	60783.71
581.62	60947.55
581.78	60711.16
581.94	61038.83
582.10	60795.42
582.26	60858.61
582.42	61071.60
582.58	60912.44
582.74	60921.80
582.90	60884.36
583.06	60985.00
583.22	60814.14
583.38	60804.78
583.54	61041.17
583.70	61066.92
583.86	60907.76
584.02	60963.93
584.18	61134.79
584.34	61186.28
584.50	61141.81
584.66	60886.70
584.82	60802.44
584.98	61073.94
585.14	61104.37
585.30	60959.25
585.46	60973.30
585.62	61160.54
585.78	61038.83
585.94	60865.63
586.10	61034.15
586.26	60933.51
586.42	61230.75
586.58	61244.80
586.74	61109.05
586.90	61022.45
587.06	60975.64
587.22	61202.67
587.38	61111.39
587.54	61216.71
587.70	61251.82
587.86	61176.92
588.02	60933.51
588.18	61034.15
588.34	60942.87
588.49	61113.73
