SpectraSuite Data File
++++++++++++++++++++++++++++++++++++
Date: Fri Oct 25 10:47:37 EDT 2013
User: price-jones
Dark Spectrum Present: No
Reference Spectrum Present: No
Number of Sampled Component Spectra: 1
Spectrometers: USB2+H05261
Integration Time (usec): 100000 (USB2+H05261)
Spectra Averaged: 1 (USB2+H05261)
Boxcar Smoothing: 0 (USB2+H05261)
Correct for Electrical Dark: No (USB2+H05261)
Strobe/Lamp Enabled: No (USB2+H05261)
Correct for Detector Non-linearity: No (USB2+H05261)
Correct for Stray Light: No (USB2+H05261)
Number of Pixels in Processed Spectrum: 2048
>>>>>Begin Processed Spectral Data<<<<<
365.73	161.50
365.92	161.50
366.12	161.50
366.32	70.22
366.52	32.77
366.72	170.86
366.91	0.00
367.11	25.75
367.31	77.24
367.51	39.79
367.70	86.60
367.90	16.38
368.10	72.56
368.30	98.30
368.49	0.00
368.69	28.09
368.89	0.00
369.09	16.38
369.28	70.22
369.48	152.13
369.68	53.83
369.87	58.51
370.07	149.79
370.27	138.09
370.47	201.29
370.66	435.34
370.86	470.45
371.06	451.72
371.25	477.47
371.45	411.93
371.65	512.58
371.84	372.15
372.04	470.45
372.24	479.81
372.44	491.51
372.63	564.07
372.83	486.83
373.03	430.66
373.22	505.56
373.42	498.53
373.62	571.09
373.81	564.07
374.01	636.63
374.21	531.30
374.40	521.94
374.60	573.43
374.79	580.45
374.99	554.71
375.19	592.16
375.38	592.16
375.58	557.05
375.78	578.11
375.97	608.54
376.17	589.82
376.37	582.79
376.56	493.85
376.76	629.60
376.95	608.54
377.15	631.94
377.35	624.92
377.54	601.52
377.74	629.60
377.93	543.00
378.13	627.26
378.33	613.22
378.52	599.18
378.72	636.63
378.91	702.16
379.11	662.37
379.31	627.26
379.50	727.91
379.70	713.86
379.89	629.60
380.09	737.27
380.28	655.35
380.48	720.88
380.68	636.63
380.87	704.50
381.07	751.31
381.26	653.01
381.46	671.73
381.65	748.97
381.85	641.31
382.04	727.91
382.24	653.01
382.43	734.93
382.63	706.84
382.83	678.76
383.02	711.52
383.22	737.27
383.41	699.82
383.61	805.14
383.80	758.33
384.00	802.80
384.19	732.59
384.39	774.72
384.58	669.39
384.78	777.06
384.97	802.80
385.17	793.44
385.36	788.76
385.56	826.21
385.75	767.70
385.95	770.04
386.14	741.95
386.34	751.31
386.53	786.42
386.72	819.19
386.92	784.08
387.11	882.38
387.31	887.06
387.50	896.43
387.70	896.43
387.89	858.98
388.09	882.38
388.28	835.57
388.48	748.97
388.67	910.47
388.86	856.64
389.06	837.91
389.25	877.70
389.45	924.51
389.64	983.02
389.84	922.17
390.03	947.92
390.22	922.17
390.42	917.49
390.61	891.74
390.81	966.64
391.00	898.77
391.19	950.26
391.39	889.40
391.58	999.41
391.78	1041.54
391.97	1095.37
392.16	1029.84
392.36	964.30
392.55	950.26
392.75	964.30
392.94	971.32
393.13	964.30
393.33	950.26
393.52	1025.15
393.71	1118.78
393.91	1046.22
394.10	1107.07
394.29	1062.60
394.49	1095.37
394.68	1156.22
394.88	1123.46
395.07	1167.93
395.26	1158.57
395.46	1137.50
395.65	1142.18
395.84	1165.59
396.04	1109.41
396.23	1156.22
396.42	1149.20
396.62	1163.25
396.81	1081.33
397.00	1226.44
397.19	1226.44
397.39	1174.95
397.58	1256.87
397.77	1355.17
397.97	1240.48
398.16	1334.11
398.35	1275.59
398.55	1322.40
398.74	1441.77
398.93	1483.90
399.12	1268.57
399.32	1329.42
399.51	1336.45
399.70	1444.11
399.90	1420.71
400.09	1453.47
400.28	1418.36
400.47	1341.13
400.67	1570.50
400.86	1582.20
401.05	1509.65
401.24	1549.43
401.44	1516.67
401.63	1486.24
401.82	1497.94
402.01	1593.90
402.21	1476.88
402.40	1521.35
402.59	1509.65
402.78	1549.43
402.97	1650.08
403.17	1579.86
403.36	1647.74
403.55	1729.66
403.74	1732.00
403.93	1610.29
404.13	1746.04
404.32	1629.01
404.51	1710.93
404.70	1774.13
404.89	1647.74
405.09	1811.57
405.28	1839.66
405.47	1762.42
405.66	1743.70
405.85	1799.87
406.05	1778.81
406.24	1825.62
406.43	1832.64
406.62	1865.41
406.81	1914.56
407.00	1895.83
407.20	1783.49
407.39	1947.33
407.58	1905.20
407.77	2029.24
407.96	1982.43
408.15	1980.09
408.34	2076.06
408.54	2015.20
408.73	2029.24
408.92	2099.46
409.11	2143.93
409.30	2101.80
409.49	2064.35
409.68	2148.61
409.87	2066.69
410.07	2136.91
410.26	2176.70
410.45	2265.64
410.64	2097.12
410.83	2265.64
411.02	2267.98
411.21	2284.36
411.40	2324.15
411.59	2319.47
411.78	2230.53
411.98	2300.75
412.17	2516.08
412.36	2424.80
412.55	2438.84
412.74	2462.24
412.93	2502.03
413.12	2450.54
413.31	2551.18
413.50	2520.76
413.69	2600.34
413.88	2558.21
414.07	2609.70
414.26	2736.09
414.45	2717.36
414.64	2789.92
414.83	2738.43
415.02	2818.00
415.22	2766.51
415.41	2853.11
415.60	2885.88
415.79	2818.00
415.98	2963.12
416.17	2946.73
416.36	2988.86
416.55	3009.93
416.74	2939.71
416.93	3009.93
417.12	3016.95
417.31	3084.83
417.50	3009.93
417.69	3204.19
417.88	3096.53
418.07	3129.30
418.26	3335.26
418.45	3180.79
418.64	3318.88
418.83	3183.13
419.02	3206.53
419.21	3372.71
419.39	3309.52
419.58	3211.22
419.77	3386.76
419.96	3361.01
420.15	3323.56
420.34	3295.47
420.53	3382.07
420.72	3494.42
420.91	3527.19
421.10	3503.78
421.29	3597.40
421.48	3321.22
421.67	3478.04
421.86	3510.80
422.05	3564.64
422.24	3463.99
422.43	3463.99
422.61	3473.36
422.80	3543.57
422.99	3552.93
423.18	3529.53
423.37	3758.90
423.56	3510.80
423.75	3545.91
423.94	3564.64
424.13	3243.98
424.32	3330.58
424.50	3691.02
424.69	3679.32
424.88	3623.15
425.07	3597.40
425.26	3597.40
425.45	3562.30
425.64	3576.34
425.83	3634.85
426.01	3721.45
426.20	3618.47
426.39	3702.73
426.58	3641.87
426.77	3534.21
426.96	3639.53
427.15	3609.11
427.33	3765.92
427.52	3714.43
427.71	3655.92
427.90	3669.96
428.09	3784.65
428.28	3861.88
428.46	3714.43
428.65	3859.54
428.84	3885.29
429.03	4032.74
429.22	3742.52
429.40	3784.65
429.59	3950.82
429.78	3599.74
429.97	3779.97
430.16	3782.31
430.34	3782.31
430.53	3983.59
430.72	3894.65
430.91	3943.80
431.10	4037.42
431.28	4236.37
431.47	4163.81
431.66	4250.41
431.85	4198.92
432.03	4283.18
432.22	4327.65
432.41	4227.01
432.60	4255.09
432.79	4219.99
432.97	4271.48
433.16	4376.80
433.35	4117.00
433.54	4348.72
433.72	4369.78
433.91	4201.26
434.10	4297.22
434.28	4327.65
434.47	4266.80
434.66	4493.83
434.85	4400.21
435.03	4449.36
435.22	4503.19
435.41	4552.34
435.59	4718.52
435.78	4603.83
435.97	4720.86
436.16	4580.43
436.34	4655.33
436.53	4690.43
436.72	4774.69
436.90	4643.62
437.09	4688.09
437.28	4777.03
437.46	4730.22
437.65	4678.73
437.84	4760.65
438.02	4746.61
438.21	4807.46
438.40	4744.27
438.58	4849.59
438.77	5008.75
438.96	5076.62
439.14	5116.41
439.33	5172.58
439.52	5158.54
439.70	5139.82
439.89	5100.03
440.08	5207.69
440.26	5217.05
440.45	5252.16
440.63	5404.30
440.82	5591.54
441.01	5322.38
441.19	5397.28
441.38	5535.37
441.57	5509.62
441.75	5570.48
441.94	5628.99
442.12	5636.01
442.31	5769.42
442.50	5921.56
442.68	5771.76
442.87	5621.97
443.05	5776.44
443.24	5954.32
443.43	5884.11
443.61	5888.79
443.80	6134.54
443.98	5856.02
444.17	5619.63
444.35	5874.74
444.54	5898.15
444.73	5966.03
444.91	6057.31
445.10	6001.13
445.28	5841.98
445.47	5867.72
445.65	5919.21
445.84	6071.35
446.02	6164.97
446.21	5959.00
446.39	6101.78
446.58	6001.13
446.77	6066.67
446.95	5914.53
447.14	6122.84
447.32	6136.88
447.51	6066.67
447.69	6085.39
447.88	6139.23
448.06	6167.31
448.25	6090.07
448.43	6326.47
448.62	6061.99
448.80	6171.99
448.99	6202.42
449.17	6197.74
449.36	6125.18
449.54	6221.14
449.73	6523.07
449.91	6527.75
450.10	6434.13
450.28	6291.36
450.46	6600.31
450.65	6562.86
450.83	6394.34
451.02	6520.73
451.20	6623.72
451.39	6593.29
451.57	6635.42
451.76	6450.52
451.94	6551.16
452.13	6782.87
452.31	6619.04
452.49	6612.01
452.68	6815.64
452.86	6717.34
453.05	6782.87
453.23	6633.08
453.42	6602.65
453.60	6888.20
453.78	6930.33
453.97	6761.81
454.15	6789.89
454.34	6626.06
454.52	6740.74
454.70	6773.51
454.89	6834.36
455.07	7012.24
455.26	6885.86
455.44	6998.20
455.62	7136.29
455.81	7070.76
455.99	7073.10
456.17	7143.32
456.36	7007.56
456.54	7136.29
456.73	7314.17
456.91	7349.28
457.09	7293.11
457.28	7536.52
457.46	7293.11
457.64	7342.26
457.83	7346.94
458.01	7295.45
458.19	7534.18
458.38	7475.67
458.56	7679.30
458.74	7573.97
458.93	7531.84
459.11	7494.40
459.29	7644.19
459.48	7721.43
459.66	7662.91
459.84	7669.94
460.03	7798.66
460.21	7723.77
460.39	7719.09
460.57	7798.66
460.76	7915.69
460.94	7962.50
461.12	8002.29
461.31	7941.44
461.49	7840.79
461.67	7833.77
461.85	8095.91
462.04	8011.65
462.22	8411.89
462.40	8189.53
462.59	7875.90
462.77	8138.04
462.95	8208.26
463.13	8112.30
463.32	8245.71
463.50	8386.14
463.68	8276.13
463.86	8297.20
464.05	8203.58
464.23	8180.17
464.41	8093.57
464.59	8128.68
464.78	8446.99
464.96	8383.80
465.14	8283.16
465.32	8374.44
465.50	8498.49
465.69	8674.03
465.87	8484.44
466.05	8580.40
466.23	8344.01
466.41	8512.53
466.60	8627.21
466.78	8482.10
466.96	8304.22
467.14	8692.75
467.32	8669.34
467.51	8599.13
467.69	8634.24
467.87	8702.11
468.05	8664.66
468.23	8629.56
468.41	8755.94
468.60	8697.43
468.78	8887.01
468.96	8833.18
469.14	9053.19
469.32	8964.25
469.50	8676.37
469.69	8985.32
469.87	9076.60
470.05	9291.93
470.23	8945.53
470.41	9195.96
470.59	9233.41
470.77	8957.23
470.95	9441.72
471.14	9390.23
471.32	9191.28
471.50	9444.06
471.68	9488.53
471.86	9582.15
472.04	9563.43
472.22	9816.21
472.40	9423.00
472.58	9603.22
472.77	9525.98
472.95	9638.33
473.13	10136.86
473.31	9666.41
473.49	9921.53
473.67	9748.33
473.85	9863.02
474.03	9937.91
474.21	9916.85
474.39	10195.37
474.57	10080.69
474.75	10167.29
474.93	10565.18
475.12	10319.42
475.30	10450.49
475.48	10214.10
475.66	10588.58
475.84	10509.01
476.02	10597.95
476.20	10651.78
476.38	10611.99
476.56	10909.24
476.74	10782.85
476.92	10843.70
477.10	10832.00
477.28	11166.70
477.46	11126.91
477.64	11337.56
477.82	11456.92
478.00	11573.95
478.18	11356.28
478.36	11627.78
478.54	11758.85
478.72	11606.72
478.90	11990.56
479.08	12028.01
479.26	12109.93
479.44	12184.83
479.62	12241.00
479.80	12208.23
479.98	12341.64
480.16	12652.94
480.34	12533.57
480.52	12720.81
480.70	12510.16
480.88	12393.14
481.06	12741.88
481.24	12844.86
481.41	13041.46
481.59	13228.71
481.77	13502.55
481.95	13415.95
482.13	13570.43
482.31	13282.54
482.49	13834.91
482.67	13785.76
482.85	13818.52
483.03	13937.89
483.21	14083.00
483.39	14356.85
483.57	14232.80
483.74	14576.86
483.92	14494.94
484.10	14478.55
484.28	14705.59
484.46	15183.06
484.64	15307.10
484.82	14909.21
485.00	14953.68
485.18	15180.71
485.35	15363.28
485.53	15211.14
485.71	15300.08
485.89	15503.71
486.07	15400.72
486.25	15534.14
486.43	15843.09
486.61	15875.85
486.78	15948.41
486.96	16049.05
487.14	16601.42
487.32	16561.63
487.50	16788.66
487.68	16783.98
487.85	17193.58
488.03	16938.46
488.21	17383.16
488.39	17247.41
488.57	17294.22
488.75	17547.00
488.92	17741.26
489.10	17900.42
489.28	18097.02
489.46	18398.95
489.64	18548.75
489.81	18490.23
489.99	18700.88
490.17	18735.99
490.35	19061.32
490.53	18899.83
490.70	19016.85
490.88	19005.15
491.06	19253.25
491.24	19204.10
491.41	19297.72
491.59	19868.81
491.77	19906.26
491.95	19981.15
492.13	19800.93
492.30	20379.04
492.48	20123.93
492.66	20105.20
492.84	20119.24
493.01	20727.78
493.19	20577.99
493.37	20470.33
493.54	20716.08
493.72	21060.14
493.90	20987.58
494.08	21371.43
494.25	21434.63
494.43	21638.25
494.61	21664.00
494.79	21689.74
494.96	21462.71
495.14	21951.88
495.32	22024.44
495.49	22118.06
495.67	22419.99
495.85	22504.25
496.02	22441.06
496.20	22796.82
496.38	22623.62
496.55	23187.69
496.73	23316.42
496.91	23370.25
497.09	23374.93
497.26	23475.57
497.44	23049.60
497.62	23594.94
497.79	23686.22
497.97	23552.81
498.14	23412.38
498.32	23594.94
498.50	23936.66
498.67	24023.26
498.85	24086.45
499.03	24285.40
499.20	24615.41
499.38	24739.46
499.56	24615.41
499.73	24716.06
499.91	24442.21
500.08	24758.19
500.26	24666.91
500.44	24531.15
500.61	24903.30
500.79	25050.75
500.97	25212.25
501.14	25710.78
501.32	25891.01
501.49	25319.92
501.67	25703.76
501.84	25991.65
502.02	25773.98
502.20	25757.60
502.37	26260.81
502.55	25965.90
502.72	26295.92
502.90	26249.11
503.07	25977.61
503.25	26218.68
503.43	26464.44
503.60	26672.74
503.78	26672.74
503.95	26714.87
504.13	26569.76
504.30	26806.16
504.48	26871.69
504.65	27051.91
504.83	27173.62
505.01	27164.26
505.18	27267.24
505.36	27534.06
505.53	27693.22
505.71	27777.48
505.88	27545.76
506.06	27374.91
506.23	27880.46
506.41	27742.37
506.58	27908.55
506.76	28051.32
506.93	28233.88
507.11	28407.08
507.28	28500.70
507.46	28182.39
507.63	28334.53
507.81	28421.13
507.98	28418.78
508.16	28381.34
508.33	28641.14
508.50	28879.87
508.68	28889.23
508.85	29467.34
509.03	29039.03
509.20	29067.11
509.38	29331.59
509.55	29448.62
509.73	29673.31
509.90	29511.81
510.08	29628.84
510.25	29603.10
510.42	29673.31
510.60	29682.67
510.77	30192.91
510.95	30232.70
511.12	29865.24
511.30	30197.59
511.47	30529.95
511.64	30543.99
511.82	30541.65
511.99	30600.16
512.17	30583.78
512.34	30363.77
512.51	30724.21
512.69	31267.22
512.86	31227.43
513.04	30778.04
513.21	30843.58
513.38	30745.28
513.56	30876.35
513.73	30986.35
513.90	30780.39
514.08	31555.10
514.25	31028.48
514.43	31402.97
514.60	31075.29
514.77	31297.64
514.95	31824.26
515.12	31440.42
515.29	31693.19
515.47	31721.28
515.64	32004.49
515.81	32025.55
515.99	32016.19
516.16	32266.63
516.33	31952.99
516.51	32217.47
516.68	31641.70
516.85	32144.92
517.03	31920.23
517.20	32421.10
517.37	32404.72
517.54	32580.26
517.72	32734.73
517.89	32678.56
518.06	32620.05
518.24	32491.32
518.41	32804.95
518.58	32584.94
518.75	32828.35
518.93	32910.27
519.10	32950.06
519.27	33212.20
519.45	33483.70
519.62	33359.66
519.79	33865.21
519.96	33160.71
520.14	33743.50
520.31	33586.69
520.48	33736.48
520.65	33687.33
520.83	33675.63
521.00	33958.83
521.17	33809.04
521.34	34384.81
521.52	34565.03
521.69	34270.12
521.86	33982.24
522.03	34188.21
522.20	34607.16
522.38	34836.53
522.55	34660.99
522.72	34646.95
522.89	34658.65
523.07	34665.67
523.24	34700.78
523.41	34881.00
523.58	34820.15
523.75	34932.50
523.92	34888.03
524.10	35487.20
524.27	35419.33
524.44	35477.84
524.61	35522.31
524.78	35548.06
524.96	35723.60
525.13	35859.35
525.30	35613.59
525.47	36208.09
525.64	36116.81
525.81	35583.16
525.98	35739.98
526.16	35618.27
526.33	35676.79
526.50	35498.91
526.67	35274.21
526.84	35812.54
527.01	35395.92
527.18	35875.73
527.36	36301.71
527.53	36397.67
527.70	37022.59
527.87	36423.42
528.04	36451.50
528.21	36027.87
528.38	36587.25
528.55	37015.57
528.72	36655.13
528.89	37151.32
529.07	36802.58
529.24	36680.88
529.41	37036.64
529.58	36781.52
529.75	36605.98
529.92	37116.22
530.09	37200.47
530.26	37450.91
530.43	37696.67
530.60	37151.32
530.77	37296.44
530.94	37865.19
531.11	37551.56
531.28	37401.76
531.46	37134.94
531.63	37675.60
531.80	37893.27
531.97	37675.60
532.14	37586.66
532.31	37380.70
532.48	38162.43
532.65	37937.74
532.82	37872.21
532.99	37787.95
533.16	37483.68
533.33	38141.37
533.50	38036.05
533.67	38068.81
533.84	38101.58
534.01	38307.55
534.18	37699.01
534.35	38824.81
534.52	38167.12
534.69	38286.48
534.86	38623.52
535.03	38733.53
535.20	38684.37
535.37	38953.54
535.54	38988.64
535.71	38897.36
535.88	38785.02
536.05	38532.24
536.22	38749.91
536.38	39239.08
536.55	38754.59
536.72	38822.47
536.89	38946.51
537.06	38714.80
537.23	39585.48
537.40	39218.02
537.57	39431.01
537.74	39618.25
537.91	39559.73
538.08	39580.80
538.25	38806.08
538.42	39648.68
538.59	39770.38
538.75	39180.57
538.92	39505.90
539.09	39562.08
539.26	39538.67
539.43	39702.51
539.60	39971.67
539.77	39463.77
539.94	39936.56
540.11	39756.34
540.28	39936.56
540.44	39557.39
540.61	39672.08
540.78	40257.21
540.95	39810.17
541.12	40184.66
541.29	39667.40
541.46	40165.93
541.62	40392.97
541.79	40306.37
541.96	40065.29
542.13	40203.38
542.30	40315.73
542.47	40254.87
542.63	40086.36
542.80	40643.40
542.97	40598.93
543.14	40889.16
543.31	41118.53
543.48	41155.98
543.64	41034.27
543.81	41345.56
543.98	40664.47
544.15	41244.92
544.32	41385.35
544.48	41200.45
544.65	41029.59
544.82	41216.83
544.99	40935.97
545.16	41312.80
545.32	40924.27
545.49	41593.66
545.66	41476.63
545.83	41343.22
546.00	41738.77
546.16	41406.42
546.33	41593.66
546.50	40837.67
546.67	41565.57
546.83	41202.79
547.00	41357.27
547.17	41581.96
547.34	42036.02
547.50	41656.85
547.67	41844.10
547.84	41986.87
548.00	42396.46
548.17	41888.57
548.34	41439.18
548.51	42291.14
548.67	42447.96
548.84	42462.00
549.01	42305.18
549.18	42087.51
549.34	42469.02
549.51	41935.38
549.68	42405.83
549.84	42206.88
550.01	42726.48
550.18	42232.63
550.34	42295.82
550.51	42363.70
550.68	42230.29
550.84	41872.18
551.01	42454.98
551.18	42384.76
551.34	42609.45
551.51	42667.97
551.68	42370.72
551.84	42806.06
552.01	42841.17
552.18	42618.81
552.34	42082.83
552.51	42707.76
552.68	42520.51
552.84	42623.50
553.01	43716.53
553.18	42848.19
553.34	42621.16
553.51	42588.39
553.67	42710.10
553.84	43009.68
554.01	42834.14
554.17	42937.13
554.34	43489.49
554.51	43278.85
554.67	43470.77
554.84	43269.48
555.00	42815.42
555.17	43086.92
555.33	43639.29
555.50	43005.00
555.67	43330.34
555.83	43112.67
556.00	43606.52
556.16	43505.88
556.33	43220.33
556.50	43316.29
556.66	43538.65
556.83	43386.51
556.99	43590.14
557.16	43744.61
557.32	43807.81
557.49	43175.86
557.65	43196.93
557.82	43012.02
557.98	43885.04
558.15	43253.10
558.32	43669.72
558.48	43203.95
558.65	43438.00
558.81	43641.63
558.98	43459.07
559.14	43899.09
559.31	43641.63
559.47	44069.95
559.64	44119.10
559.80	43821.85
559.97	43885.04
560.13	44186.97
560.30	43777.38
560.46	43737.59
560.63	43875.68
560.79	44060.58
560.96	43697.80
561.12	43707.16
561.29	44016.11
561.45	43920.15
561.61	44027.82
561.78	44282.94
561.94	44175.27
562.11	44137.82
562.27	43964.62
562.44	43770.36
562.60	44119.10
562.77	44186.97
562.93	43929.51
563.10	44268.89
563.26	44196.34
563.42	43969.30
563.59	44282.94
563.75	44294.64
563.92	44875.09
564.08	43985.69
564.24	44449.11
564.41	44603.59
564.57	44217.40
564.74	44524.01
564.90	44250.17
565.07	44641.04
565.23	44470.18
565.39	44280.60
565.56	44580.18
565.72	43908.45
565.88	44516.99
566.05	44378.90
566.21	44414.01
566.38	44203.36
566.54	43981.01
566.70	44683.17
566.87	44938.29
567.03	44783.81
567.19	44432.73
567.36	44512.31
567.52	44559.12
567.68	44818.92
567.85	44397.62
568.01	44914.88
568.17	44610.61
568.34	45031.91
568.50	44498.26
568.66	44144.84
568.83	44402.30
568.99	44399.96
569.15	44334.43
569.32	44304.00
569.48	44547.42
569.64	44645.72
569.81	44563.80
569.97	44378.90
570.13	44378.90
570.30	44243.15
570.46	44191.65
570.62	44154.21
570.78	44318.04
570.95	44687.85
571.11	44739.34
571.27	44467.84
571.43	44821.26
571.60	44601.25
571.76	44374.22
571.92	44301.66
572.09	44711.25
572.25	44484.22
572.41	44521.67
572.57	44957.01
572.74	45081.06
572.90	44912.54
573.06	44928.92
573.22	45069.36
573.38	44744.02
573.55	45251.92
573.71	44905.52
573.87	44935.95
574.03	44332.09
574.20	44598.91
574.36	44844.66
574.52	45165.32
574.68	45081.06
574.84	44722.96
575.01	44406.98
575.17	45069.36
575.33	44748.70
575.49	44549.76
575.65	44933.60
575.82	45301.07
575.98	44788.49
576.14	45401.71
576.30	45207.45
576.46	44715.93
576.62	44982.76
576.79	44453.79
576.95	44254.85
577.11	44570.82
577.27	44839.98
577.43	44776.79
577.59	44868.07
577.75	44779.13
577.92	44552.10
578.08	44715.93
578.24	44456.14
578.40	44694.87
578.56	45104.46
578.72	44954.67
578.88	45020.20
579.04	44814.24
579.21	44748.70
579.37	45235.53
579.53	44987.44
579.69	44746.36
579.85	44889.13
580.01	44722.96
580.17	44924.24
580.33	45198.09
580.49	45127.87
580.65	45123.19
580.82	45090.42
580.98	45017.86
581.14	44727.64
581.30	45074.04
581.46	44636.36
581.62	44893.82
581.78	45483.63
581.94	45588.95
582.10	44729.98
582.26	45158.30
582.42	44968.71
582.58	44788.49
582.74	44659.76
582.90	45081.06
583.06	44720.62
583.22	44589.55
583.38	45104.46
583.54	45162.98
583.70	45059.99
583.86	44982.76
584.02	44568.48
584.18	45090.42
584.34	45118.51
584.50	44655.08
584.66	44697.21
584.82	44863.39
584.98	45511.72
585.14	45081.06
585.30	45312.77
585.46	44863.39
585.62	44453.79
585.78	44865.73
585.94	44325.07
586.10	45123.19
586.26	44800.19
586.42	45441.50
586.58	45209.79
586.74	45361.92
586.90	45139.57
587.06	44746.36
587.22	45076.38
587.38	44744.02
587.54	45556.19
587.70	44713.59
587.86	45333.84
588.02	45476.61
588.18	45193.40
588.34	45041.27
588.49	45034.25
588.65	44624.65
588.81	45083.40
588.97	44795.51
589.13	44687.85
589.29	44673.81
589.45	45008.50
589.61	44896.16
589.77	45261.28
589.93	45118.51
590.08	45567.89
590.24	45008.50
