SpectraSuite Data File
++++++++++++++++++++++++++++++++++++
Date: Fri Oct 25 11:22:57 EDT 2013
User: price-jones
Dark Spectrum Present: No
Reference Spectrum Present: No
Number of Sampled Component Spectra: 1
Spectrometers: USB2+H05261
Integration Time (usec): 100000 (USB2+H05261)
Spectra Averaged: 1 (USB2+H05261)
Boxcar Smoothing: 0 (USB2+H05261)
Correct for Electrical Dark: No (USB2+H05261)
Strobe/Lamp Enabled: No (USB2+H05261)
Correct for Detector Non-linearity: No (USB2+H05261)
Correct for Stray Light: No (USB2+H05261)
Number of Pixels in Processed Spectrum: 2048
>>>>>Begin Processed Spectral Data<<<<<
365.73	177.88
365.92	177.88
366.12	177.88
366.32	114.69
366.52	163.84
366.72	112.35
366.91	117.03
367.11	128.73
367.31	119.37
367.51	133.41
367.70	107.66
367.90	131.07
368.10	142.77
368.30	198.95
368.49	95.96
368.69	163.84
368.89	93.62
369.09	119.37
369.28	166.18
369.48	166.18
369.68	88.94
369.87	189.58
370.07	208.31
370.27	264.48
370.47	320.65
370.66	624.92
370.86	489.17
371.06	725.57
371.25	758.33
371.45	709.18
371.65	662.37
371.84	627.26
372.04	746.63
372.24	664.71
372.44	690.46
372.63	727.91
372.83	685.78
373.03	713.86
373.22	793.44
373.42	753.65
373.62	720.88
373.81	784.08
374.01	919.83
374.21	835.57
374.40	763.01
374.60	891.74
374.79	702.16
374.99	826.21
375.19	828.55
375.38	805.14
375.58	889.40
375.78	875.36
375.97	858.98
376.17	896.43
376.37	887.06
376.56	870.68
376.76	894.08
376.95	945.58
377.15	861.32
377.35	889.40
377.54	896.43
377.74	891.74
377.93	922.17
378.13	891.74
378.33	1013.45
378.52	884.72
378.72	870.68
378.91	917.49
379.11	938.55
379.31	980.68
379.50	901.11
379.70	856.64
379.89	985.37
380.09	873.02
380.28	1060.26
380.48	1029.84
380.68	861.32
380.87	959.62
381.07	940.90
381.26	971.32
381.46	1069.62
381.65	1069.62
381.85	999.41
382.04	999.41
382.24	978.34
382.43	1078.99
382.63	1074.31
382.83	990.05
383.02	1078.99
383.22	1142.18
383.41	1104.73
383.61	1039.20
383.80	1139.84
384.00	1062.60
384.19	1181.97
384.39	1118.78
384.58	1153.88
384.78	1210.06
384.97	1114.10
385.17	1074.31
385.36	1090.69
385.56	1142.18
385.75	1158.57
385.95	1174.95
386.14	1210.06
386.34	1135.16
386.53	1181.97
386.72	1167.93
386.92	1242.82
387.11	1247.51
387.31	1193.67
387.50	1226.44
387.70	1263.89
387.89	1291.98
388.09	1259.21
388.28	1287.29
388.48	1233.46
388.67	1345.81
388.86	1252.19
389.06	1315.38
389.25	1343.47
389.45	1268.57
389.64	1320.06
389.84	1322.40
390.03	1343.47
390.22	1404.32
390.42	1357.51
390.61	1394.96
390.81	1364.53
391.00	1376.24
391.19	1413.68
391.39	1437.09
391.58	1420.71
391.78	1483.90
391.97	1488.58
392.16	1359.85
392.36	1598.59
392.55	1521.35
392.75	1591.56
392.94	1551.78
393.13	1467.52
393.33	1504.96
393.52	1519.01
393.71	1652.42
393.91	1631.35
394.10	1549.43
394.29	1488.58
394.49	1495.60
394.68	1645.40
394.88	1650.08
395.07	1755.40
395.26	1708.59
395.46	1624.33
395.65	1647.74
395.84	1675.82
396.04	1762.42
396.23	1809.23
396.42	1757.74
396.62	1699.23
396.81	1764.76
397.00	1717.95
397.19	1713.27
397.39	1834.98
397.58	1811.57
397.77	1893.49
397.97	1851.36
398.16	1816.26
398.35	1846.68
398.55	1881.79
398.74	1877.11
398.93	1900.52
399.12	1952.01
399.32	1944.99
399.51	1926.26
399.70	2005.84
399.90	1888.81
400.09	2017.54
400.28	2101.80
400.47	2071.37
400.67	2047.97
400.86	2134.57
401.05	2111.16
401.24	2200.10
401.44	2139.25
401.63	2106.48
401.82	2211.81
402.01	2078.40
402.21	2216.49
402.40	2331.17
402.59	2228.19
402.78	2228.19
402.97	2263.30
403.17	2305.43
403.36	2267.98
403.55	2415.43
403.74	2342.88
403.93	2347.56
404.13	2331.17
404.32	2349.90
404.51	2363.94
404.70	2417.77
404.89	2495.01
405.09	2448.20
405.28	2492.67
405.47	2420.11
405.66	2448.20
405.85	2464.58
406.05	2502.03
406.24	2658.85
406.43	2724.38
406.62	2663.53
406.81	2682.25
407.00	2473.95
407.20	2614.38
407.39	2722.04
407.58	2757.15
407.77	2782.90
407.96	2757.15
408.15	2719.70
408.34	2780.56
408.54	2883.54
408.73	2792.26
408.92	2876.52
409.11	2928.01
409.30	2846.09
409.49	2867.16
409.68	2946.73
409.87	2958.44
410.07	2930.35
410.26	2981.84
410.45	2942.05
410.64	3038.02
410.83	3131.64
411.02	3023.97
411.21	3185.47
411.40	3021.63
411.59	3131.64
411.78	3213.56
411.98	3272.07
412.17	3236.96
412.36	3325.90
412.55	3396.12
412.74	3365.69
412.93	3452.29
413.12	3372.71
413.31	3506.12
413.50	3515.48
413.69	3557.61
413.88	3634.85
414.07	3674.64
414.26	3569.32
414.45	3749.54
414.64	3847.84
414.83	3735.50
415.02	3698.05
415.22	3843.16
415.41	3957.85
415.60	3810.39
415.79	3833.80
415.98	4058.49
416.17	3971.89
416.36	3978.91
416.55	4093.60
416.74	4222.33
416.93	4093.60
417.12	4182.54
417.31	4154.45
417.50	4180.20
417.69	4315.95
417.88	4353.40
418.07	4262.12
418.26	4358.08
418.45	4329.99
418.64	4592.13
418.83	4447.02
419.02	4468.08
419.21	4500.85
419.39	4449.36
419.58	4542.98
419.77	4425.95
419.96	4603.83
420.15	4503.19
420.34	4538.30
420.53	4732.56
420.72	4755.97
420.91	4809.80
421.10	4863.63
421.29	4772.35
421.48	4713.84
421.67	4865.97
421.86	4713.84
422.05	4830.87
422.24	4936.19
422.43	4882.36
422.61	4793.42
422.80	4863.63
422.99	4833.21
423.18	4915.12
423.37	5085.98
423.56	5062.58
423.75	5025.13
423.94	4980.66
424.13	4702.14
424.32	4940.87
424.50	5036.83
424.69	5025.13
424.88	5107.05
425.07	4966.62
425.26	5006.41
425.45	4938.53
425.64	5064.92
425.83	4952.57
426.01	5114.07
426.20	5025.13
426.39	5081.30
426.58	5163.22
426.77	5064.92
426.96	5200.67
427.15	5219.39
427.33	5284.93
427.52	5193.65
427.71	5308.34
427.90	5224.08
428.09	5411.32
428.28	5313.02
428.46	5502.60
428.65	5310.68
428.84	5579.84
429.03	5521.32
429.22	5362.17
429.40	5551.75
429.59	5392.59
429.78	5322.38
429.97	5350.46
430.16	5514.30
430.34	5668.78
430.53	5696.86
430.72	5720.27
430.91	5771.76
431.10	5703.89
431.28	5797.51
431.47	5877.09
431.66	5858.36
431.85	5893.47
432.03	5767.08
432.22	6029.22
432.41	5977.73
432.60	6017.52
432.79	6008.16
432.97	6150.93
433.16	6024.54
433.35	6246.89
433.54	6108.80
433.72	6303.06
433.91	6174.33
434.10	6200.08
434.28	6085.39
434.47	6225.82
434.66	6296.04
434.85	6317.11
435.03	6317.11
435.22	6310.08
435.41	6457.54
435.59	6534.78
435.78	6516.05
435.97	6607.33
436.16	6509.03
436.34	6394.34
436.53	6555.84
436.72	6675.21
436.90	6441.15
437.09	6616.69
437.28	6513.71
437.46	6726.70
437.65	6794.58
437.84	6745.42
438.02	6801.60
438.21	6759.47
438.40	6897.56
438.58	6862.45
438.77	7250.98
438.96	7098.84
439.14	7225.23
439.33	7173.74
439.52	7281.41
439.70	7232.26
439.89	7372.69
440.08	7407.80
440.26	7501.42
440.45	7255.66
440.63	7536.52
440.82	7639.51
441.01	7723.77
441.19	7627.81
441.38	7772.92
441.57	7688.66
441.75	7843.14
441.94	8016.33
442.12	7896.97
442.31	8025.70
442.50	8149.75
442.68	7871.22
442.87	8098.25
443.05	8116.98
443.24	8353.37
443.43	8299.54
443.61	8177.83
443.80	8451.67
443.98	7992.93
444.17	7985.91
444.35	8124.00
444.54	8365.07
444.73	8306.56
444.91	8329.97
445.10	8526.57
445.28	8533.59
445.47	8456.36
445.65	8430.61
445.84	8313.58
446.02	8463.38
446.21	8414.23
446.39	8528.91
446.58	8617.85
446.77	8603.81
446.95	8336.99
447.14	8477.42
447.32	8655.30
447.51	8617.85
447.69	8615.51
447.88	8521.89
448.06	8482.10
448.25	8526.57
448.43	8641.26
448.62	8692.75
448.80	8681.05
448.99	8840.20
449.17	8877.65
449.36	8685.73
449.54	9004.04
449.73	9109.36
449.91	9181.92
450.10	9050.85
450.28	9247.46
450.46	9174.90
450.65	9020.42
450.83	9146.81
451.02	9125.75
451.20	9210.01
451.39	9233.41
451.57	9317.67
451.76	9212.35
451.94	9153.84
452.13	9490.87
452.31	9420.66
452.49	9247.46
452.68	9408.95
452.86	9392.57
453.05	9511.94
453.23	9399.59
453.42	9446.40
453.60	9399.59
453.78	9640.67
453.97	9495.55
454.15	9568.11
454.34	9617.26
454.52	9888.76
454.70	9820.89
454.89	9816.21
455.07	9902.81
455.26	9851.31
455.44	9968.34
455.62	10167.29
455.81	10033.88
455.99	10197.71
456.17	10193.03
456.36	10186.01
456.54	10305.38
456.73	10417.72
456.91	10452.83
457.09	10689.23
457.28	10710.29
457.46	10382.62
457.64	10541.77
457.83	10707.95
458.01	10384.96
458.19	10586.24
458.38	10616.67
458.56	10693.91
458.74	10668.16
458.93	10736.04
459.11	10663.48
459.29	10740.72
459.48	10902.22
459.66	10918.60
459.84	10888.17
460.03	10960.73
460.21	11066.05
460.39	11005.20
460.57	11178.40
460.76	11297.77
460.94	11407.77
461.12	11101.16
461.31	11178.40
461.49	11211.17
461.67	11171.38
461.85	11669.91
462.04	11372.66
462.22	11506.07
462.40	11742.47
462.59	11545.86
462.77	11646.51
462.95	11749.49
463.13	11627.78
463.32	11709.70
463.50	11798.64
463.68	11800.98
463.86	12009.29
464.05	11765.87
464.23	11847.79
464.41	12051.42
464.59	11878.22
464.78	12135.68
464.96	12166.10
465.14	11997.59
465.32	12154.40
465.50	12159.08
465.69	12107.59
465.87	12348.67
466.05	12196.53
466.23	12177.81
466.41	12503.14
466.60	12568.68
466.78	12035.03
466.96	12336.96
467.14	12404.84
467.32	12716.13
467.51	12601.44
467.69	12112.27
467.87	12608.47
468.05	12762.94
468.23	12566.34
468.41	12372.07
468.60	12718.47
468.78	12903.37
468.96	12704.43
469.14	12884.65
469.32	13064.87
469.50	12683.36
469.69	13188.92
469.87	13163.17
470.05	13071.89
470.23	13060.19
470.41	13425.31
470.59	13268.50
470.77	13174.88
470.95	13504.89
471.14	13603.19
471.32	13266.16
471.50	13951.93
471.68	13685.11
471.86	13816.18
472.04	13324.67
472.22	13928.53
472.40	13820.86
472.58	13879.38
472.77	13996.40
472.95	14207.05
473.13	14906.87
473.31	14068.96
473.49	14146.20
473.67	14214.07
473.85	14310.04
474.03	14642.39
474.21	14696.22
474.39	14787.50
474.57	14733.67
474.75	15225.18
474.93	15101.14
475.12	14927.94
475.30	15389.02
475.48	15110.50
475.66	15302.42
475.84	15536.48
476.02	15468.60
476.20	15435.83
476.38	15829.04
476.56	16271.40
476.74	16168.42
476.92	15861.81
477.10	16184.80
477.28	15976.50
477.46	16210.55
477.64	16540.57
477.82	16924.41
478.00	17256.77
478.18	17132.72
478.36	16992.29
478.54	17165.49
478.72	17202.94
478.90	17446.35
479.08	17720.20
479.26	17729.56
479.44	17987.02
479.62	18047.87
479.80	18057.23
479.98	18235.11
480.16	18588.53
480.34	18345.12
480.52	18530.02
480.70	18721.95
480.88	18698.54
481.06	18902.17
481.24	18862.38
481.41	19119.84
481.59	19676.88
481.77	19587.94
481.95	19927.32
482.13	20002.22
482.31	20020.94
482.49	20381.38
482.67	20271.38
482.85	20453.94
483.03	20732.47
483.21	21106.95
483.39	21245.04
483.57	21104.61
483.74	21088.23
483.92	21561.02
484.10	21310.58
484.28	22188.28
484.46	22015.08
484.64	22546.38
484.82	22146.15
485.00	22473.82
485.18	22991.08
485.35	22925.55
485.53	23309.40
485.71	23229.82
485.89	23892.19
486.07	23363.23
486.25	23709.63
486.43	23964.75
486.61	24273.70
486.78	24002.19
486.96	24603.71
487.14	24659.88
487.32	24999.26
487.50	25298.85
487.68	25205.23
487.85	25467.37
488.03	26019.74
488.21	25998.67
488.39	25851.22
488.57	26632.96
488.75	26581.46
488.92	27019.14
489.10	26972.33
489.28	27061.27
489.46	27365.54
489.64	26881.05
489.81	27810.25
489.99	27744.71
490.17	28053.66
490.35	28531.13
490.53	28247.93
490.70	28259.63
490.88	28797.95
491.06	28837.74
491.24	29228.61
491.41	29383.09
491.59	29015.62
491.77	29172.44
491.95	29759.91
492.13	29879.28
492.30	29970.56
492.48	30382.49
492.66	30319.30
492.84	30604.84
493.01	30698.47
493.19	30937.20
493.37	31398.29
493.54	31775.11
493.72	31777.45
493.90	31892.14
494.08	32156.62
494.25	32063.00
494.43	32346.20
494.61	32467.91
494.79	32692.60
494.96	32996.87
495.14	33275.40
495.32	33364.34
495.49	33359.66
495.67	33881.60
495.85	33809.04
496.02	34082.88
496.20	34401.19
496.38	34466.73
496.55	34309.91
496.73	34902.07
496.91	34890.37
497.09	35667.42
497.26	35564.44
497.44	34855.26
497.62	35414.65
497.79	36027.87
497.97	35758.70
498.14	36423.42
498.32	36210.43
498.50	36510.02
498.67	36767.48
498.85	36767.48
499.03	36968.76
499.20	36776.84
499.38	36935.99
499.56	37254.31
499.73	37649.86
499.91	37820.72
500.08	38361.38
500.26	38012.64
500.44	38096.90
500.61	38293.50
500.79	37839.44
500.97	38242.01
501.14	39171.21
501.32	39042.48
501.49	39023.75
501.67	38981.62
501.84	39503.56
502.02	39253.12
502.20	39372.49
502.37	39227.38
502.55	39203.97
502.72	39852.30
502.90	39936.56
503.07	40163.59
503.25	40428.07
503.43	40446.80
503.60	40437.44
503.78	40266.58
503.95	40767.45
504.13	41008.53
504.30	41043.63
504.48	40687.87
504.65	41043.63
504.83	41439.18
505.01	41598.34
505.18	41535.15
505.36	41698.98
505.53	41773.88
505.71	42223.26
505.88	41778.56
506.06	41841.76
506.23	42370.72
506.41	41916.65
506.58	42520.51
506.76	42363.70
506.93	43042.45
507.11	42646.90
507.28	42997.98
507.46	43405.23
507.63	43145.44
507.81	43435.66
507.98	43063.52
508.16	43700.14
508.33	43688.44
508.50	43885.04
508.68	44025.48
508.85	44378.90
509.03	43875.68
509.20	44318.04
509.38	44594.23
509.55	45361.92
509.73	45013.18
509.90	44949.99
510.08	44657.42
510.25	44715.93
510.42	45167.66
510.60	45443.84
510.77	45518.74
510.95	45542.14
511.12	45390.01
511.30	45308.09
511.47	45652.15
511.64	45759.81
511.82	46021.95
511.99	46351.97
512.17	46101.53
512.34	46396.44
512.51	46443.25
512.69	47033.07
512.86	46454.95
513.04	47281.16
513.21	46674.96
513.38	46930.08
513.56	47194.56
513.73	47356.06
513.90	47143.07
514.08	47349.04
514.25	47384.15
514.43	47796.08
514.60	48222.06
514.77	47988.00
514.95	48259.51
515.12	47749.27
515.29	47894.38
515.47	48542.71
515.64	48388.24
515.81	48135.46
515.99	48648.03
516.16	48823.58
516.33	48687.82
516.51	49338.49
516.68	48839.96
516.85	48528.67
517.03	49287.00
517.20	49471.90
517.37	49118.48
517.54	49055.29
517.72	49272.96
517.89	49598.29
518.06	49631.06
518.24	49244.87
518.41	49703.62
518.58	49907.24
518.75	49621.70
518.93	50110.87
519.10	49595.95
519.27	50026.61
519.45	50202.15
519.62	50155.34
519.79	50553.23
519.96	50263.00
520.14	50518.12
520.31	50314.50
520.48	50815.37
520.65	50848.14
520.83	50740.47
521.00	50794.31
521.17	51037.72
521.34	51262.41
521.52	51098.58
521.69	51168.79
521.86	51435.61
522.03	51554.98
522.20	51210.92
522.38	51751.59
522.55	51735.20
522.72	51650.94
522.89	51810.10
523.07	52046.49
523.24	51676.69
523.41	51819.46
523.58	51704.77
523.75	52095.64
523.92	52041.81
524.10	52259.48
524.27	52575.45
524.44	52423.32
524.61	52582.48
524.78	52247.78
524.96	52341.40
525.13	52493.54
525.30	52743.97
525.47	52886.74
525.64	52875.04
525.81	52811.85
525.98	52949.94
526.16	52804.83
526.33	52940.58
526.50	53158.25
526.67	53418.05
526.84	52875.04
527.01	53106.76
527.18	53242.51
527.36	53282.30
527.53	53069.31
527.70	53532.73
527.87	53581.88
528.04	53352.51
528.21	53504.65
528.38	53701.25
528.55	53932.96
528.72	53443.79
528.89	53588.91
529.07	53586.57
529.24	53736.36
529.41	53846.36
529.58	54014.88
529.75	53778.49
529.92	54005.52
530.09	54220.85
530.26	54260.64
530.43	54405.75
530.60	54188.08
530.77	53963.39
530.94	54419.80
531.11	54323.83
531.28	54513.42
531.46	54590.66
531.63	54642.15
531.80	54651.51
531.97	54635.13
532.14	54777.90
532.31	54614.06
532.48	54915.99
532.65	54639.81
532.82	54625.76
532.99	55168.77
533.16	54904.29
533.33	54906.63
533.50	55098.55
533.67	55136.00
533.84	55065.78
534.01	55014.29
534.18	55356.01
534.35	55433.25
534.52	55402.82
534.69	55419.20
534.86	55451.97
535.03	55246.00
535.20	55576.02
535.37	55430.91
535.54	55618.15
535.71	55482.40
535.88	55622.83
536.05	55674.32
536.22	56006.68
536.38	55753.90
536.55	55950.51
536.72	55817.10
536.89	55627.51
537.06	55664.96
537.23	55980.93
537.40	55990.30
537.57	55903.70
537.74	55929.44
537.91	56203.28
538.08	56193.92
538.25	55849.86
538.42	56378.82
538.59	56083.92
538.75	56184.56
538.92	56172.86
539.09	56573.09
539.26	56350.74
539.43	56430.32
539.60	56458.40
539.77	56465.42
539.94	56715.86
540.11	56479.47
540.28	56582.45
540.44	56619.90
540.61	56725.22
540.78	56404.57
540.95	56617.56
541.12	56652.67
541.29	56868.00
541.46	56690.12
541.62	57141.84
541.79	56825.87
541.96	56573.09
542.13	56814.16
542.30	57111.41
542.47	57034.17
542.63	57034.17
542.80	56910.13
542.97	57326.74
543.14	57406.32
543.31	57258.87
543.48	57354.83
543.64	57570.16
543.81	57537.39
543.98	57666.12
544.15	57345.47
544.32	57785.49
544.48	57708.25
544.65	57595.90
544.82	57710.59
544.99	57511.64
545.16	57698.89
545.32	57708.25
545.49	57841.66
545.66	57865.06
545.83	57841.66
546.00	58131.89
546.16	57839.32
546.33	57712.93
546.50	57771.44
546.67	58141.25
546.83	57642.71
547.00	57949.32
547.17	57780.81
547.34	58143.59
547.50	57984.43
547.67	58372.96
547.84	58248.91
548.00	58305.09
548.17	58621.06
548.34	58398.71
548.51	58632.76
548.67	58534.46
548.84	58424.45
549.01	58459.56
549.18	58415.09
549.34	58450.20
549.51	58543.82
549.68	58377.64
549.84	58489.99
550.01	58660.85
550.18	58489.99
550.34	58529.78
550.51	58862.13
550.68	58623.40
550.84	58452.54
551.01	58843.41
551.18	58768.51
551.34	58632.76
551.51	58890.22
551.68	58904.26
551.84	59051.72
552.01	58649.14
552.18	58941.71
552.34	58782.55
552.51	58920.65
552.68	58749.79
552.84	58885.54
553.01	59037.67
553.18	58972.14
553.34	59025.97
553.51	59140.66
553.67	58899.58
553.84	59117.25
554.01	58906.60
554.17	59278.75
554.34	59058.74
554.51	59458.97
554.67	59278.75
554.84	59206.19
555.00	59405.14
555.17	59135.98
555.33	59112.57
555.50	59025.97
555.67	59449.61
555.83	59253.00
556.00	59231.94
556.16	59496.42
556.33	59440.24
556.50	59449.61
556.66	59458.97
556.83	59414.50
556.99	59700.04
557.16	59540.89
557.32	59788.98
557.49	59763.24
557.65	59498.76
557.82	59639.19
557.98	59578.34
558.15	59568.97
558.32	59863.88
558.48	59440.24
558.65	59798.35
558.81	59709.41
558.98	59742.17
559.14	59784.30
559.31	59831.11
559.47	59859.20
559.64	60027.72
559.80	59868.56
559.97	60161.13
560.13	59938.78
560.30	59866.22
560.46	59955.16
560.63	59819.41
560.79	59950.48
560.96	60076.87
561.12	60301.56
561.29	60111.98
561.45	59943.46
561.61	60072.19
561.78	59955.16
561.94	60062.83
562.11	60116.66
562.27	60186.88
562.44	60034.74
562.60	60374.12
562.77	60303.90
562.93	60095.60
563.10	60163.47
563.26	60116.66
563.42	60383.48
563.59	60182.19
563.75	60163.47
563.92	60140.07
564.08	60140.07
564.24	60268.79
564.41	60182.19
564.57	60306.24
564.74	60362.42
564.90	60306.24
565.07	60226.66
565.23	60425.61
565.39	60423.27
565.56	60465.40
565.72	60287.52
565.88	60444.33
566.05	60313.26
566.21	60381.14
566.38	60315.61
566.54	60460.72
566.70	60645.62
566.87	60540.30
567.03	60184.54
567.19	60598.81
567.36	60516.89
567.52	60467.74
567.68	60467.74
567.85	60570.72
568.01	60783.71
568.17	60282.84
568.34	60715.84
568.50	60535.62
568.66	60647.96
568.83	60640.94
568.99	60385.82
569.15	60566.04
569.32	60615.19
569.48	60580.09
569.64	60867.97
569.81	60432.63
569.97	60659.66
570.13	60713.50
570.30	60542.64
570.46	60673.71
570.62	60743.92
570.78	60652.64
570.95	60612.85
571.11	60722.86
571.27	60917.12
571.43	60743.92
571.60	61008.40
571.76	60949.89
571.92	60999.04
572.09	60874.99
572.25	60898.40
572.41	60802.44
572.57	60769.67
572.74	60987.34
572.90	60839.89
573.06	60818.82
573.22	60952.23
573.38	60804.78
573.55	60903.08
573.71	61087.98
573.87	60839.89
574.03	60664.35
574.20	61020.11
574.36	60800.10
574.52	60804.78
574.68	60818.82
574.84	60980.32
575.01	60893.72
575.17	60865.63
575.33	60828.18
575.49	60781.37
575.65	60994.36
575.82	61071.60
575.98	60961.59
576.14	61155.86
576.30	61123.09
576.46	60886.70
576.62	60982.66
576.79	60982.66
576.95	60982.66
577.11	60891.38
577.27	61160.54
577.43	61027.13
577.59	60842.23
577.75	61050.53
577.92	60968.61
578.08	61048.19
578.24	60910.10
578.40	61174.58
578.56	61183.94
578.72	60994.36
578.88	60992.02
579.04	61347.78
579.21	60853.93
579.37	61116.07
579.53	60994.36
579.69	60921.80
579.85	61076.28
580.01	61036.49
580.17	60963.93
580.33	60938.19
580.49	61240.12
580.65	61104.37
580.82	60921.80
580.98	61071.60
581.14	60959.25
581.30	61242.46
581.46	61153.52
581.62	61212.03
581.78	60898.40
581.94	61202.67
582.10	61188.63
582.26	61153.52
582.42	61024.79
582.58	61190.97
582.74	61214.37
582.90	61303.31
583.06	61071.60
583.22	61385.23
583.38	61172.24
583.54	61123.09
583.70	61315.01
583.86	61118.41
584.02	60977.98
584.18	61092.66
584.34	61010.74
584.50	61090.32
584.66	61212.03
584.82	61106.71
584.98	61319.70
585.14	61392.25
585.30	61066.92
585.46	61027.13
585.62	61141.81
585.78	61305.65
585.94	61151.18
586.10	61317.35
586.26	61174.58
586.42	61331.40
586.58	61352.46
586.74	61179.26
586.90	61174.58
587.06	61186.28
587.22	61387.57
587.38	61371.19
587.54	61329.06
587.70	61544.39
587.86	61155.86
588.02	61130.11
588.18	61490.55
588.34	61263.52
588.49	61251.82
