SpectraSuite Data File
++++++++++++++++++++++++++++++++++++
Date: Fri Oct 25 11:24:03 EDT 2013
User: price-jones
Dark Spectrum Present: No
Reference Spectrum Present: No
Number of Sampled Component Spectra: 1
Spectrometers: USB2+H05261
Integration Time (usec): 100000 (USB2+H05261)
Spectra Averaged: 1 (USB2+H05261)
Boxcar Smoothing: 0 (USB2+H05261)
Correct for Electrical Dark: No (USB2+H05261)
Strobe/Lamp Enabled: No (USB2+H05261)
Correct for Detector Non-linearity: No (USB2+H05261)
Correct for Stray Light: No (USB2+H05261)
Number of Pixels in Processed Spectrum: 2048
>>>>>Begin Processed Spectral Data<<<<<
365.73	175.54
365.92	175.54
366.12	175.54
366.32	154.48
366.52	77.24
366.72	161.50
366.91	102.98
367.11	95.96
367.31	145.11
367.51	121.71
367.70	128.73
367.90	205.97
368.10	189.58
368.30	147.45
368.49	67.88
368.69	124.05
368.89	156.82
369.09	114.69
369.28	215.33
369.48	124.05
369.68	133.41
369.87	229.37
370.07	201.29
370.27	290.23
370.47	351.08
370.66	587.47
370.86	582.79
371.06	610.88
371.25	674.07
371.45	641.31
371.65	664.71
371.84	678.76
372.04	648.33
372.24	716.20
372.44	683.44
372.63	755.99
372.83	727.91
373.03	800.46
373.22	713.86
373.42	786.42
373.62	772.38
373.81	758.33
374.01	868.34
374.21	847.27
374.40	739.61
374.60	861.32
374.79	779.40
374.99	898.77
375.19	858.98
375.38	835.57
375.58	823.87
375.78	884.72
375.97	858.98
376.17	903.45
376.37	706.84
376.56	837.91
376.76	880.04
376.95	912.81
377.15	877.70
377.35	851.96
377.54	840.25
377.74	877.70
377.93	887.06
378.13	868.34
378.33	880.04
378.52	924.51
378.72	959.62
378.91	919.83
379.11	950.26
379.31	908.13
379.50	917.49
379.70	968.98
379.89	924.51
380.09	917.49
380.28	933.87
380.48	950.26
380.68	1027.50
380.87	968.98
381.07	1083.67
381.26	1067.28
381.46	919.83
381.65	1020.47
381.85	980.68
382.04	983.02
382.24	1062.60
382.43	1090.69
382.63	1104.73
382.83	1111.75
383.02	1027.50
383.22	1008.77
383.41	1097.71
383.61	1088.35
383.80	1125.80
384.00	1039.20
384.19	1118.78
384.39	1139.84
384.58	1151.54
384.78	1167.93
384.97	1137.50
385.17	1130.48
385.36	1167.93
385.56	1114.10
385.75	1081.33
385.95	1240.48
386.14	1205.38
386.34	1203.04
386.53	1233.46
386.72	1270.91
386.92	1313.04
387.11	1266.23
387.31	1273.25
387.50	1291.98
387.70	1238.14
387.89	1254.53
388.09	1277.93
388.28	1301.34
388.48	1242.82
388.67	1401.98
388.86	1376.24
389.06	1284.95
389.25	1322.40
389.45	1317.72
389.64	1331.76
389.84	1416.02
390.03	1390.28
390.22	1430.07
390.42	1418.36
390.61	1352.83
390.81	1409.00
391.00	1399.64
391.19	1561.14
391.39	1451.13
391.58	1521.35
391.78	1416.02
391.97	1390.28
392.16	1488.58
392.36	1584.54
392.55	1355.17
392.75	1472.20
392.94	1479.22
393.13	1530.71
393.33	1514.33
393.52	1540.07
393.71	1551.78
393.91	1568.16
394.10	1586.88
394.29	1685.19
394.49	1561.14
394.68	1629.01
394.88	1650.08
395.07	1565.82
395.26	1722.63
395.46	1598.59
395.65	1724.97
395.84	1713.27
396.04	1764.76
396.23	1820.94
396.42	1645.40
396.62	1764.76
396.81	1771.79
397.00	1685.19
397.19	1743.70
397.39	1881.79
397.58	1809.23
397.77	1804.55
397.97	1844.34
398.16	1912.22
398.35	1895.83
398.55	1870.09
398.74	1961.37
398.93	2059.67
399.12	1966.05
399.32	1818.60
399.51	1963.71
399.70	2033.93
399.90	1975.41
400.09	2087.76
400.28	1928.60
400.47	2008.18
400.67	2160.31
400.86	2029.24
401.05	2073.71
401.24	2090.10
401.44	2087.76
401.63	2057.33
401.82	2122.87
402.01	2153.29
402.21	2136.91
402.40	2155.63
402.59	2162.66
402.78	2218.83
402.97	2204.78
403.17	2321.81
403.36	2286.70
403.55	2431.82
403.74	2415.43
403.93	2340.54
404.13	2282.02
404.32	2373.30
404.51	2380.32
404.70	2300.75
404.89	2349.90
405.09	2478.63
405.28	2499.69
405.47	2445.86
405.66	2424.80
405.85	2548.84
406.05	2644.81
406.24	2480.97
406.43	2572.25
406.62	2642.46
406.81	2736.09
407.00	2635.44
407.20	2658.85
407.39	2705.66
407.58	2715.02
407.77	2668.21
407.96	2813.32
408.15	2754.81
408.34	2733.75
408.54	2796.94
408.73	2810.98
408.92	2841.41
409.11	2928.01
409.30	2789.92
409.49	2902.26
409.68	2897.58
409.87	2974.82
410.07	3056.74
410.26	3012.27
410.45	2946.73
410.64	3012.27
410.83	3131.64
411.02	3103.55
411.21	3241.64
411.40	3220.58
411.59	3307.18
411.78	3253.34
411.98	3143.34
412.17	3295.47
412.36	3262.71
412.55	3337.60
412.74	3499.10
412.93	3290.79
413.12	3356.33
413.31	3604.42
413.50	3557.61
413.69	3517.83
413.88	3492.08
414.07	3576.34
414.26	3672.30
414.45	3676.98
414.64	3653.58
414.83	3737.84
415.02	3803.37
415.22	3882.95
415.41	3817.41
415.60	3939.12
415.79	3892.31
415.98	3817.41
416.17	4002.32
416.36	3850.18
416.55	3943.80
416.74	4105.30
416.93	4159.13
417.12	4086.58
417.31	4184.88
417.50	4140.41
417.69	4379.14
417.88	4393.19
418.07	4159.13
418.26	4278.50
418.45	4353.40
418.64	4411.91
418.83	4397.87
419.02	4372.12
419.21	4695.11
419.39	4627.24
419.58	4589.79
419.77	4381.48
419.96	4561.70
420.15	4676.39
420.34	4475.10
420.53	4779.37
420.72	4655.33
420.91	4587.45
421.10	4823.84
421.29	4713.84
421.48	4809.80
421.67	4854.27
421.86	4751.29
422.05	4854.27
422.24	4924.49
422.43	4924.49
422.61	4980.66
422.80	5018.11
422.99	4901.08
423.18	5006.41
423.37	5128.11
423.56	4770.01
423.75	5004.07
423.94	4905.76
424.13	4486.81
424.32	4727.88
424.50	4968.96
424.69	5177.26
424.88	5034.49
425.07	4987.68
425.26	4983.00
425.45	4929.17
425.64	4912.78
425.83	5097.69
426.01	5139.82
426.20	5090.67
426.39	5041.51
426.58	5071.94
426.77	5158.54
426.96	5149.18
427.15	5153.86
427.33	5116.41
427.52	5247.48
427.71	5219.39
427.90	5350.46
428.09	5217.05
428.28	5437.06
428.46	5345.78
428.65	5413.66
428.84	5523.66
429.03	5582.18
429.22	5343.44
429.40	5544.73
429.59	5343.44
429.78	5331.74
429.97	5198.33
430.16	5556.43
430.34	5575.16
430.53	5706.23
430.72	5610.26
430.91	5757.72
431.10	5612.60
431.28	5762.40
431.47	5706.23
431.66	5811.55
431.85	5771.76
432.03	5905.17
432.22	5872.40
432.41	5743.67
432.60	6031.56
432.79	5921.56
432.97	5858.36
433.16	6057.31
433.35	6008.16
433.54	6050.28
433.72	6108.80
433.91	6239.87
434.10	6141.57
434.28	6085.39
434.47	6272.64
434.66	6415.41
434.85	6352.21
435.03	6263.27
435.22	6160.29
435.41	6553.50
435.59	6490.31
435.78	6504.35
435.97	6422.43
436.16	6485.62
436.34	6441.15
436.53	6595.63
436.72	6715.00
436.90	6487.96
437.09	6658.82
437.28	6312.42
437.46	6478.60
437.65	6675.21
437.84	6822.66
438.02	6677.55
438.21	6820.32
438.40	6703.29
438.58	6925.65
438.77	7042.67
438.96	6974.80
439.14	7124.59
439.33	7087.14
439.52	7318.86
439.70	7021.61
439.89	7288.43
440.08	7281.41
440.26	7431.20
440.45	7239.28
440.63	7482.69
440.82	7428.86
441.01	7447.58
441.19	7578.65
441.38	7669.94
441.57	7758.88
441.75	7737.81
441.94	7948.46
442.12	8032.72
442.31	8182.51
442.50	7964.84
442.68	8177.83
442.87	8035.06
443.05	8163.79
443.24	8021.02
443.43	8093.57
443.61	8093.57
443.80	8313.58
443.98	8219.96
444.17	7796.32
444.35	8248.05
444.54	8379.12
444.73	8231.66
444.91	8252.73
445.10	8404.86
445.28	8498.49
445.47	8386.14
445.65	8341.67
445.84	8517.21
446.02	8571.04
446.21	8311.24
446.39	8397.84
446.58	8638.92
446.77	8238.69
446.95	8105.28
447.14	8383.80
447.32	8699.77
447.51	8465.72
447.69	8454.02
447.88	8409.54
448.06	8463.38
448.25	8638.92
448.43	8575.72
448.62	8526.57
448.80	8613.17
448.99	8746.58
449.17	8802.75
449.36	8669.34
449.54	8847.22
449.73	8798.07
449.91	9025.11
450.10	9116.39
450.28	9015.74
450.46	8891.70
450.65	9018.08
450.83	9125.75
451.02	8929.14
451.20	9336.40
451.39	9156.18
451.57	9076.60
451.76	9128.09
451.94	8997.02
452.13	9294.27
452.31	9261.50
452.49	9102.34
452.68	9305.97
452.86	9280.22
453.05	9439.38
453.23	9448.74
453.42	9301.29
453.60	9401.93
453.78	9556.41
453.97	9582.15
454.15	9540.02
454.34	9502.58
454.52	9872.38
454.70	9734.29
454.89	10026.86
455.07	9996.43
455.26	9799.82
455.44	10094.73
455.62	9724.93
455.81	9832.59
455.99	9963.66
456.17	9872.38
456.36	10061.96
456.54	10031.54
456.73	10204.74
456.91	10260.91
457.09	10490.28
457.28	10729.02
457.46	10338.15
457.64	10857.75
457.83	10445.81
458.01	10225.80
458.19	10696.25
458.38	10525.39
458.56	10745.40
458.74	10663.48
458.93	10565.18
459.11	10761.78
459.29	10719.65
459.48	10927.96
459.66	10766.46
459.84	10956.05
460.03	10949.03
460.21	10827.32
460.39	10834.34
460.57	11162.01
460.76	11257.98
460.94	11152.65
461.12	11236.91
461.31	11044.99
461.49	11260.32
461.67	11239.25
461.85	11473.31
462.04	11290.74
462.22	11585.65
462.40	11690.98
462.59	11482.67
462.77	11424.15
462.95	11761.19
463.13	11641.82
463.32	11639.48
463.50	11800.98
463.68	11875.88
463.86	11999.93
464.05	11651.19
464.23	11660.55
464.41	11873.54
464.59	11655.87
464.78	12308.88
464.96	11829.07
465.14	11983.54
465.32	12093.55
465.50	12173.13
465.69	12063.12
465.87	12219.94
466.05	12123.98
466.23	12327.60
466.41	12093.55
466.60	12568.68
466.78	12212.92
466.96	12128.66
467.14	11990.56
467.32	12444.63
467.51	12578.04
467.69	12224.62
467.87	12638.89
468.05	12465.69
468.23	12568.68
468.41	12306.54
468.60	12589.74
468.78	12791.03
468.96	12531.23
469.14	12882.31
469.32	13034.44
469.50	12758.26
469.69	13018.06
469.87	13163.17
470.05	12971.25
470.23	13163.17
470.41	13315.31
470.59	13418.29
470.77	13315.31
470.95	13221.69
471.14	13366.80
471.32	13004.02
471.50	13516.59
471.68	13689.79
471.86	13748.31
472.04	13598.51
472.22	14022.15
472.40	13827.88
472.58	13628.94
472.77	14033.85
472.95	14045.55
473.13	14705.59
473.31	14188.33
473.49	14408.34
473.67	14045.55
473.85	14312.38
474.03	14644.73
474.21	14530.05
474.39	14909.21
474.57	14700.90
474.75	15007.52
474.93	15255.61
475.12	15016.88
475.30	15073.05
475.48	15094.11
475.66	15391.36
475.84	15180.71
476.02	15513.07
476.20	15410.09
476.38	15826.70
476.56	16049.05
476.74	16280.77
476.92	16137.99
477.10	15758.83
477.28	16231.62
477.46	16194.17
477.64	16339.28
477.82	16828.45
478.00	16741.85
478.18	16809.73
478.36	17046.12
478.54	17212.30
478.72	17270.81
478.90	17680.41
479.08	17420.61
479.26	17556.36
479.44	17584.44
479.62	17888.71
479.80	17909.78
479.98	18204.69
480.16	18607.26
480.34	18108.72
480.52	18569.81
480.70	18448.10
480.88	18513.64
481.06	18941.96
481.24	18827.27
481.41	19234.52
481.59	19211.12
481.77	19908.60
481.95	19854.76
482.13	19812.63
482.31	19683.91
482.49	20435.22
482.67	20428.20
482.85	20287.76
483.03	20475.01
483.21	20959.50
483.39	20919.71
483.57	20659.91
483.74	21273.13
483.92	21160.78
484.10	21413.56
484.28	21607.83
484.46	21811.45
484.64	22604.89
484.82	21884.01
485.00	22354.46
485.18	22710.22
485.35	22838.95
485.53	22700.86
485.71	23159.60
485.89	23438.12
486.07	23091.73
486.25	23459.19
486.43	23634.73
486.61	23864.10
486.78	24245.61
486.96	24486.68
487.14	24837.76
487.32	24737.12
487.50	25090.54
487.68	25266.08
487.85	25308.21
488.03	25935.48
488.21	25809.09
488.39	25666.31
488.57	26270.17
488.75	26157.83
488.92	26422.31
489.10	26691.47
489.28	26782.75
489.46	27016.80
489.64	27077.66
489.81	27693.22
489.99	27697.90
490.17	28130.90
490.35	28196.43
490.53	28250.27
490.70	28257.29
490.88	28168.35
491.06	29017.96
491.24	28802.63
491.41	28929.02
491.59	29675.65
491.77	29476.71
491.95	30113.33
492.13	29591.39
492.30	30075.88
492.48	29890.98
492.66	30352.07
492.84	30167.16
493.01	31082.31
493.19	30670.38
493.37	31108.06
493.54	31133.81
493.72	31943.63
493.90	31494.25
494.08	31826.60
494.25	32395.35
494.43	31948.31
494.61	32048.96
494.79	32882.19
494.96	32542.81
495.14	32898.57
495.32	33207.52
495.49	33551.58
495.67	33270.72
495.85	33223.90
496.02	33806.70
496.20	33928.41
496.38	34089.90
496.55	34429.28
496.73	35147.82
496.91	34548.65
497.09	34609.50
497.26	35440.39
497.44	35311.66
497.62	35651.04
497.79	35599.55
497.97	35475.50
498.14	35805.52
498.32	36252.56
498.50	36154.26
498.67	36566.19
498.85	36554.49
499.03	36610.66
499.20	36872.80
499.38	37113.87
499.56	36943.02
499.73	37479.00
499.91	37420.48
500.08	37558.58
500.26	37209.84
500.44	37947.11
500.61	37656.88
500.79	37809.01
500.97	38146.05
501.14	38960.56
501.32	38602.46
501.49	38621.18
501.67	38913.75
501.84	39297.59
502.02	39009.71
502.20	39122.05
502.37	39306.96
502.55	39585.48
502.72	39159.50
502.90	39374.83
503.07	39885.07
503.25	39840.60
503.43	39826.56
503.60	39917.84
503.78	40500.63
503.95	40397.65
504.13	40552.12
504.30	40519.35
504.48	40975.76
504.65	41146.62
504.83	41397.06
505.01	41399.40
505.18	41375.99
505.36	41371.31
505.53	41879.21
505.71	41706.01
505.88	41588.98
506.06	41380.67
506.23	42162.41
506.41	41904.95
506.58	41937.72
506.76	42485.40
506.93	42562.64
507.11	42316.89
507.28	42972.24
507.46	42841.17
507.63	43168.84
507.81	43093.94
507.98	42979.26
508.16	43091.60
508.33	43931.86
508.50	43608.86
508.68	43730.57
508.85	44095.69
509.03	43969.30
509.20	44566.14
509.38	44402.30
509.55	44755.72
509.73	44584.86
509.90	44949.99
510.08	44580.18
510.25	44634.02
510.42	44912.54
510.60	45492.99
510.77	45429.80
510.95	45825.35
511.12	45460.23
511.30	45628.74
511.47	45382.99
511.64	45495.33
511.82	45771.52
511.99	45675.55
512.17	46227.92
512.34	46199.83
512.51	46501.76
512.69	46300.48
512.86	46209.20
513.04	46705.39
513.21	46986.25
513.38	46579.00
513.56	47089.24
513.73	46897.31
513.90	46946.47
514.08	46719.43
514.25	47400.53
514.43	47370.10
514.60	47945.87
514.77	47739.91
514.95	47863.96
515.12	47700.12
515.29	47430.96
515.47	48250.14
515.64	48144.82
515.81	47885.02
515.99	48322.70
516.16	48329.72
516.33	48348.45
516.51	48961.67
516.68	48477.18
516.85	48601.22
517.03	48767.40
517.20	49097.42
517.37	48783.79
517.54	48849.32
517.72	49287.00
517.89	49425.09
518.06	49523.40
518.24	49631.06
518.41	49228.49
518.58	49343.17
518.75	49247.21
518.93	49720.00
519.10	49539.78
519.27	49507.01
519.45	49822.98
519.62	49958.73
519.79	50038.31
519.96	50335.56
520.14	49949.37
520.31	50424.50
520.48	50417.48
520.65	50611.74
520.83	50880.91
521.00	50740.47
521.17	50791.97
521.34	50784.94
521.52	51065.81
521.69	50777.92
521.86	51241.35
522.03	51536.26
522.20	51569.02
522.38	51559.66
522.55	51297.52
522.72	51475.40
522.89	51709.46
523.07	51784.35
523.24	51742.22
523.41	51824.14
523.58	51632.22
523.75	52119.05
523.92	52044.15
524.10	52158.84
524.27	52116.71
524.44	52135.43
524.61	52362.46
524.78	52278.21
524.96	52252.46
525.13	52542.69
525.30	52280.55
525.47	52659.71
525.64	52584.82
525.81	52755.68
525.98	52479.49
526.16	52743.97
526.33	52437.36
526.50	53081.01
526.67	52818.87
526.84	52896.11
527.01	52851.64
527.18	53102.07
527.36	53123.14
527.53	53202.72
527.70	53509.33
527.87	53532.73
528.04	52971.00
528.21	53514.01
528.38	53436.77
528.55	53851.05
528.72	53450.81
528.89	53446.13
529.07	53792.53
529.24	53530.39
529.41	54014.88
529.58	53895.52
529.75	53635.72
529.92	53598.27
530.09	53916.58
530.26	53895.52
530.43	54078.08
530.60	53764.45
530.77	53698.91
530.94	54160.00
531.11	53928.28
531.28	54178.72
531.46	54234.89
531.63	54417.46
531.80	54075.74
531.97	54548.53
532.14	54700.66
532.31	54588.31
532.48	54487.67
532.65	54798.96
532.82	54361.28
532.99	54700.66
533.16	54452.56
533.33	54859.82
533.50	55049.40
533.67	54988.55
533.84	54897.27
534.01	54904.29
534.18	55089.19
534.35	55318.56
534.52	55004.93
534.69	55475.38
534.86	55461.33
535.03	54782.58
535.20	55206.22
535.37	55248.35
535.54	55323.24
535.71	55332.60
535.88	55313.88
536.05	55449.63
536.22	55461.33
536.38	55728.16
536.55	55679.00
536.72	55756.24
536.89	55711.77
537.06	55781.99
537.23	55868.59
537.40	55585.38
537.57	55859.23
537.74	55767.94
537.91	56156.47
538.08	56018.38
538.25	55716.45
538.42	56004.34
538.59	56390.53
538.75	55868.59
538.92	56151.79
539.09	56336.69
539.26	55948.17
539.43	56123.71
539.60	56500.53
539.77	56285.20
539.94	56594.15
540.11	56657.35
540.28	56683.09
540.44	56502.87
540.61	56519.26
540.78	56418.61
540.95	56427.98
541.12	56486.49
541.29	56512.23
541.46	56493.51
541.62	56652.67
541.79	56750.97
541.96	56650.33
542.13	56750.97
542.30	56626.92
542.47	56994.39
542.63	56765.01
542.80	56945.23
542.97	56928.85
543.14	57317.38
543.31	57235.46
543.48	57275.25
543.64	57368.87
543.81	57502.28
543.98	57336.10
544.15	57492.92
544.32	57574.84
544.48	57546.75
544.65	57443.77
544.82	57621.65
544.99	57069.28
545.16	57350.15
545.32	57572.50
545.49	57436.75
545.66	57841.66
545.83	57743.36
546.00	58038.26
546.16	57724.63
546.33	57780.81
546.50	57673.14
546.67	57918.90
546.83	57495.26
547.00	57738.68
547.17	57902.51
547.34	57656.76
547.50	57935.28
547.67	58155.29
547.84	58038.26
548.00	58328.49
548.17	58017.20
548.34	58213.80
548.51	58398.71
548.67	58227.85
548.84	58269.98
549.01	58248.91
549.18	58295.72
549.34	58239.55
549.51	58454.88
549.68	58515.73
549.84	58450.20
550.01	58681.91
550.18	58440.84
550.34	58557.86
550.51	58635.10
550.68	58691.27
550.84	58356.58
551.01	58890.22
551.18	58607.01
551.34	58670.21
551.51	58562.54
551.68	58820.00
551.84	58445.52
552.01	58820.00
552.18	58553.18
552.34	58394.03
552.51	58890.22
552.68	58461.90
552.84	58637.44
553.01	59018.95
553.18	58901.92
553.34	59054.06
553.51	58857.45
553.67	58763.83
553.84	58974.48
554.01	58920.65
554.17	59267.05
554.34	59229.60
554.51	59051.72
554.67	58983.84
554.84	59236.62
555.00	59037.67
555.17	59093.85
555.33	59168.74
555.50	59135.98
555.67	58993.20
555.83	59208.53
556.00	59243.64
556.16	59381.73
556.33	59487.06
556.50	59182.79
556.66	59498.76
556.83	59140.66
556.99	59543.23
557.16	59482.37
557.32	59653.23
557.49	59704.73
557.65	59379.39
557.82	59468.33
557.98	59360.67
558.15	59447.27
558.32	59391.09
558.48	59395.77
558.65	59421.52
558.81	59451.95
558.98	59749.20
559.14	59700.04
559.31	59648.55
559.47	59648.55
559.64	59742.17
559.80	59774.94
559.97	59676.64
560.13	59512.80
560.30	60009.00
560.46	59767.92
560.63	59884.95
560.79	60048.78
560.96	60039.42
561.12	60051.12
561.29	59861.54
561.45	59714.09
561.61	59690.68
561.78	60086.23
561.94	59838.14
562.11	59973.89
562.27	59959.84
562.44	60233.69
562.60	60245.39
562.77	60191.56
562.93	59859.20
563.10	60233.69
563.26	59938.78
563.42	60303.90
563.59	60013.68
563.75	59987.93
563.92	59990.27
564.08	60165.81
564.24	60221.98
564.41	60177.51
564.57	60282.84
564.74	60264.11
564.90	60013.68
565.07	60004.31
565.23	60399.86
565.39	60128.36
565.56	60264.11
565.72	60341.35
565.88	60207.94
566.05	60268.79
566.21	60350.71
566.38	60250.07
566.54	60423.27
566.70	60390.50
566.87	60465.40
567.03	60205.60
567.19	60456.04
567.36	60287.52
567.52	60355.39
567.68	60460.72
567.85	60301.56
568.01	60622.22
568.17	60259.43
568.34	60463.06
568.50	60491.15
568.66	60423.27
568.83	60456.04
568.99	60252.41
569.15	60739.24
569.32	60474.76
569.48	60186.88
569.64	60402.21
569.81	60360.08
569.97	60367.10
570.13	60441.99
570.30	60507.53
570.46	60313.26
570.62	60683.07
570.78	60624.56
570.95	60603.49
571.11	60601.15
571.27	60374.12
571.43	60563.70
571.60	60699.45
571.76	60683.07
571.92	60786.05
572.09	60573.06
572.25	60521.57
572.41	60544.98
572.57	60652.64
572.74	60856.27
572.90	60601.15
573.06	60685.41
573.22	60769.67
573.38	60741.58
573.55	60842.23
573.71	60912.44
573.87	60891.38
574.03	60491.15
574.20	60570.72
574.36	60694.77
574.52	60903.08
574.68	60725.20
574.84	61134.79
575.01	60844.57
575.17	60704.13
575.33	60542.64
575.49	60938.19
575.65	60800.10
575.82	60811.80
575.98	60718.18
576.14	60938.19
576.30	61176.92
576.46	60715.84
576.62	60853.93
576.79	60676.05
576.95	60795.42
577.11	60807.12
577.27	60921.80
577.43	60942.87
577.59	60907.76
577.75	60816.48
577.92	60825.84
578.08	60814.14
578.24	61038.83
578.40	61013.08
578.56	61038.83
578.72	60947.55
578.88	61151.18
579.04	61024.79
579.21	61085.64
579.37	61024.79
579.53	60886.70
579.69	60704.13
579.85	60851.59
580.01	60928.83
580.17	60715.84
580.33	60935.85
580.49	61031.81
580.65	61095.00
580.82	61151.18
580.98	61059.90
581.14	60846.91
581.30	61010.74
581.46	61003.72
581.62	60985.00
581.78	60884.36
581.94	60886.70
582.10	60975.64
582.26	61087.98
582.42	60996.70
582.58	61169.90
582.74	60947.55
582.90	60907.76
583.06	60886.70
583.22	60795.42
583.38	61048.19
583.54	61097.34
583.70	61029.47
583.86	60952.23
584.02	60865.63
584.18	61027.13
584.34	61052.87
584.50	61151.18
584.66	60985.00
584.82	61022.45
584.98	61240.12
585.14	61127.77
585.30	60846.91
585.46	60898.40
585.62	61090.32
585.78	61188.63
585.94	60879.67
586.10	61050.53
586.26	61141.81
586.42	61265.86
586.58	61162.88
586.74	61078.62
586.90	61050.53
587.06	61024.79
587.22	61233.10
587.38	61085.64
587.54	61162.88
587.70	61200.33
587.86	61113.73
588.02	61228.41
588.18	61286.93
588.34	61223.73
588.49	61057.56
