SpectraSuite Data File
++++++++++++++++++++++++++++++++++++
Date: Fri Oct 25 11:26:34 EDT 2013
User: price-jones
Dark Spectrum Present: No
Reference Spectrum Present: No
Number of Sampled Component Spectra: 1
Spectrometers: USB2+H05261
Integration Time (usec): 100000 (USB2+H05261)
Spectra Averaged: 1 (USB2+H05261)
Boxcar Smoothing: 0 (USB2+H05261)
Correct for Electrical Dark: No (USB2+H05261)
Strobe/Lamp Enabled: No (USB2+H05261)
Correct for Detector Non-linearity: No (USB2+H05261)
Correct for Stray Light: No (USB2+H05261)
Number of Pixels in Processed Spectrum: 2048
>>>>>Begin Processed Spectral Data<<<<<
365.73	208.31
365.92	208.31
366.12	208.31
366.32	156.82
366.52	142.77
366.72	91.28
366.91	163.84
367.11	156.82
367.31	180.22
367.51	117.03
367.70	142.77
367.90	198.95
368.10	124.05
368.30	142.77
368.49	173.20
368.69	184.90
368.89	173.20
369.09	196.60
369.28	161.50
369.48	182.56
369.68	203.63
369.87	313.63
370.07	278.52
370.27	280.86
370.47	404.91
370.66	603.86
370.86	608.54
371.06	650.67
371.25	678.76
371.45	603.86
371.65	711.52
371.84	697.48
372.04	683.44
372.24	772.38
372.44	760.67
372.63	636.63
372.83	777.06
373.03	739.61
373.22	727.91
373.42	702.16
373.62	763.01
373.81	809.83
374.01	767.70
374.21	830.89
374.40	877.70
374.60	880.04
374.79	800.46
374.99	807.48
375.19	819.19
375.38	779.40
375.58	802.80
375.78	866.00
375.97	802.80
376.17	938.55
376.37	842.59
376.56	786.42
376.76	786.42
376.95	950.26
377.15	947.92
377.35	926.85
377.54	964.30
377.74	884.72
377.93	840.25
378.13	938.55
378.33	994.73
378.52	882.38
378.72	898.77
378.91	1022.81
379.11	858.98
379.31	961.96
379.50	926.85
379.70	1036.86
379.89	990.05
380.09	947.92
380.28	973.66
380.48	947.92
380.68	990.05
380.87	1048.56
381.07	1022.81
381.26	1015.79
381.46	1027.50
381.65	1111.75
381.85	1083.67
382.04	1006.43
382.24	936.21
382.43	1055.58
382.63	1034.52
382.83	1074.31
383.02	1149.20
383.22	1214.74
383.41	1022.81
383.61	1111.75
383.80	1210.06
384.00	1135.16
384.19	1170.27
384.39	1165.59
384.58	1067.28
384.78	1104.73
384.97	1160.91
385.17	1196.01
385.36	1149.20
385.56	1146.86
385.75	1165.59
385.95	1233.46
386.14	1170.27
386.34	1193.67
386.53	1299.00
386.72	1153.88
386.92	1322.40
387.11	1287.29
387.31	1296.66
387.50	1170.27
387.70	1294.32
387.89	1200.69
388.09	1329.42
388.28	1315.38
388.48	1334.11
388.67	1294.32
388.86	1259.21
389.06	1329.42
389.25	1371.55
389.45	1362.19
389.64	1493.26
389.84	1390.28
390.03	1320.06
390.22	1406.66
390.42	1416.02
390.61	1350.49
390.81	1366.87
391.00	1327.08
391.19	1437.09
391.39	1465.18
391.58	1434.75
391.78	1446.45
391.97	1521.35
392.16	1387.94
392.36	1600.93
392.55	1458.15
392.75	1603.27
392.94	1586.88
393.13	1577.52
393.33	1526.03
393.52	1519.01
393.71	1617.31
393.91	1586.88
394.10	1600.93
394.29	1540.07
394.49	1591.56
394.68	1549.43
394.88	1614.97
395.07	1647.74
395.26	1727.32
395.46	1720.29
395.65	1668.80
395.84	1636.03
396.04	1790.51
396.23	1736.68
396.42	1820.94
396.62	1797.53
396.81	1893.49
397.00	1877.11
397.19	1769.44
397.39	1757.74
397.58	1905.20
397.77	1792.85
397.97	1844.34
398.16	1877.11
398.35	1916.90
398.55	1898.17
398.74	1919.24
398.93	2031.58
399.12	1895.83
399.32	1989.46
399.51	1987.11
399.70	2022.22
399.90	1930.94
400.09	2022.22
400.28	2071.37
400.47	1947.33
400.67	2038.61
400.86	2136.91
401.05	2172.02
401.24	2200.10
401.44	2181.38
401.63	2186.06
401.82	2150.95
402.01	2101.80
402.21	2125.21
402.40	2319.47
402.59	2146.27
402.78	2256.28
402.97	2202.44
403.17	2307.77
403.36	2373.30
403.55	2225.85
403.74	2335.85
403.93	2424.80
404.13	2380.32
404.32	2314.79
404.51	2403.73
404.70	2373.30
404.89	2382.67
405.09	2441.18
405.28	2509.05
405.47	2466.92
405.66	2504.37
405.85	2443.52
406.05	2593.31
406.24	2574.59
406.43	2602.68
406.62	2710.34
406.81	2609.70
407.00	2490.33
407.20	2590.97
407.39	2614.38
407.58	2665.87
407.77	2796.94
407.96	2642.46
408.15	2703.32
408.34	2708.00
408.54	2836.73
408.73	2808.64
408.92	2904.60
409.11	2839.07
409.30	2937.37
409.49	3028.65
409.68	3054.40
409.87	2864.82
410.07	2855.45
410.26	2974.82
410.45	3066.10
410.64	3007.59
410.83	3206.53
411.02	3129.30
411.21	3112.91
411.40	3119.93
411.59	3314.20
411.78	3267.39
411.98	3164.40
412.17	3262.71
412.36	3382.07
412.55	3236.96
412.74	3431.23
412.93	3253.34
413.12	3342.28
413.31	3433.57
413.50	3552.93
413.69	3515.48
413.88	3641.87
414.07	3585.70
414.26	3655.92
414.45	3609.11
414.64	3702.73
414.83	3700.39
415.02	3714.43
415.22	3859.54
415.41	3796.35
415.60	3789.33
415.79	3990.61
415.98	3885.29
416.17	4009.34
416.36	3969.55
416.55	3997.64
416.74	4215.30
416.93	4086.58
417.12	4091.26
417.31	4315.95
417.50	4166.15
417.69	4269.14
417.88	4250.41
418.07	4212.96
418.26	4299.56
418.45	4351.06
418.64	4456.38
418.83	4355.74
419.02	4440.00
419.21	4512.55
419.39	4423.61
419.58	4608.51
419.77	4344.03
419.96	4622.56
420.15	4608.51
420.34	4589.79
420.53	4615.54
420.72	4739.58
420.91	4671.71
421.10	4690.43
421.29	4702.14
421.48	4816.82
421.67	4947.89
421.86	4699.80
422.05	4774.69
422.24	4812.14
422.43	4938.53
422.61	4929.17
422.80	4863.63
422.99	4896.40
423.18	4945.55
423.37	5074.28
423.56	4968.96
423.75	4931.51
423.94	4924.49
424.13	4561.70
424.32	4704.48
424.50	5095.35
424.69	5221.74
424.88	5018.11
425.07	5004.07
425.26	4826.18
425.45	4887.04
425.64	5004.07
425.83	5020.45
426.01	5104.71
426.20	5100.03
426.39	5093.01
426.58	5032.15
426.77	5132.79
426.96	5146.84
427.15	5100.03
427.33	5151.52
427.52	5130.45
427.71	5341.10
427.90	5165.56
428.09	5167.90
428.28	5423.02
428.46	5364.51
428.65	5425.36
428.84	5518.98
429.03	5383.23
429.22	5404.30
429.40	5390.25
429.59	5561.11
429.78	5308.34
429.97	5341.10
430.16	5406.64
430.34	5507.28
430.53	5565.79
430.72	5654.73
430.91	5521.32
431.10	5621.97
431.28	5605.58
431.47	5731.97
431.66	5816.23
431.85	5659.42
432.03	5909.85
432.22	6033.90
432.41	5877.09
432.60	5788.14
432.79	5928.58
432.97	6045.60
433.16	6022.20
433.35	5998.79
433.54	6026.88
433.72	6090.07
433.91	6408.39
434.10	6186.04
434.28	6083.05
434.47	6338.17
434.66	6221.14
434.85	6214.12
435.03	6363.92
435.22	6239.87
435.41	6450.52
435.59	6307.74
435.78	6431.79
435.97	6392.00
436.16	6354.55
436.34	6464.56
436.53	6473.92
436.72	6590.95
436.90	6604.99
437.09	6600.31
437.28	6525.41
437.46	6551.16
437.65	6640.10
437.84	6698.61
438.02	6710.32
438.21	6719.68
438.40	6691.59
438.58	6892.88
438.77	6953.73
438.96	6927.99
439.14	7030.97
439.33	7169.06
439.52	7318.86
439.70	7279.07
439.89	7391.41
440.08	7360.98
440.26	7407.80
440.45	7370.35
440.63	7492.05
440.82	7410.14
441.01	7382.05
441.19	7534.18
441.38	7812.71
441.57	7702.70
441.75	7831.43
441.94	8060.80
442.12	7943.78
442.31	8042.08
442.50	8252.73
442.68	7967.18
442.87	8004.63
443.05	7962.50
443.24	8114.64
443.43	8112.30
443.61	8285.50
443.80	8404.86
443.98	8154.43
444.17	7918.03
444.35	8402.52
444.54	8418.91
444.73	8290.18
444.91	8353.37
445.10	8374.44
445.28	8250.39
445.47	8327.63
445.65	8446.99
445.84	8407.20
446.02	8390.82
446.21	8400.18
446.39	8360.39
446.58	8456.36
446.77	8540.61
446.95	8154.43
447.14	8519.55
447.32	8561.68
447.51	8559.34
447.69	8486.78
447.88	8636.58
448.06	8500.83
448.25	8634.24
448.43	8587.43
448.62	8559.34
448.80	8514.87
448.99	8617.85
449.17	8758.28
449.36	8587.43
449.54	8779.35
449.73	9029.79
449.91	9081.28
450.10	8826.16
450.28	9114.05
450.46	9097.66
450.65	8760.63
450.83	9102.34
451.02	8959.57
451.20	9130.43
451.39	9142.13
451.57	8896.38
451.76	9114.05
451.94	9102.34
452.13	9458.10
452.31	9238.09
452.49	8908.08
452.68	9235.75
452.86	9191.28
453.05	9612.58
453.23	9497.89
453.42	9317.67
453.60	9448.74
453.78	9476.83
453.97	9462.79
454.15	9427.68
454.34	9399.59
454.52	9633.64
454.70	9720.24
454.89	9703.86
455.07	9727.27
455.26	9841.95
455.44	9966.00
455.62	9860.68
455.81	9888.76
455.99	9919.19
456.17	9970.68
456.36	10122.82
456.54	10125.16
456.73	10333.47
456.91	10576.88
457.09	10443.47
457.28	10560.50
457.46	10415.38
457.64	10476.24
457.83	10333.47
458.01	10548.79
458.19	10677.52
458.38	10478.58
458.56	10766.46
458.74	10663.48
458.93	10551.14
459.11	10764.12
459.29	10569.86
459.48	10707.95
459.66	10949.03
459.84	10956.05
460.03	11222.87
460.21	11133.93
460.39	10916.26
460.57	11007.54
460.76	11304.79
460.94	11288.40
461.12	11321.17
461.31	11124.57
461.49	10937.32
461.67	11372.66
461.85	11400.75
462.04	11201.80
462.22	11405.43
462.40	11641.82
462.59	11421.81
462.77	11637.14
462.95	11604.38
463.13	11665.23
463.32	11681.61
463.50	11672.25
463.68	11817.36
463.86	11845.45
464.05	11754.17
464.23	11618.42
464.41	11854.81
464.59	11714.38
464.78	12147.38
464.96	12044.40
465.14	11899.28
465.32	12077.16
465.50	12074.82
465.69	12058.44
465.87	12343.99
466.05	11983.54
466.23	12105.25
466.41	12304.20
466.60	12451.65
466.78	12119.29
466.96	12072.48
467.14	12365.05
467.32	12362.71
467.51	12561.66
467.69	12133.34
467.87	12395.48
468.05	12578.04
468.23	12533.57
468.41	12411.86
468.60	12386.12
468.78	12879.97
468.96	12475.06
469.14	12917.42
469.32	12996.99
469.50	12681.02
469.69	13097.64
469.87	13102.32
470.05	13163.17
470.23	13364.46
470.41	13071.89
470.59	13336.37
470.77	13266.16
470.95	13219.35
471.14	13666.39
471.32	13064.87
471.50	13715.54
471.68	13783.41
471.86	13579.79
472.04	13738.94
472.22	14003.43
472.40	13717.88
472.58	13799.80
472.77	13980.02
472.95	14040.87
473.13	14640.05
473.31	14281.95
473.49	14136.84
473.67	14281.95
473.85	14438.76
474.03	14682.18
474.21	14944.32
474.39	15180.71
474.57	14834.32
474.75	15185.40
474.93	15080.07
475.12	14731.33
475.30	15073.05
475.48	15183.06
475.66	15391.36
475.84	15110.50
476.02	15339.87
476.20	15199.44
476.38	15513.07
476.56	15981.18
476.74	16065.44
476.92	15896.92
477.10	15969.48
477.28	16189.49
477.46	16212.89
477.64	16629.51
477.82	16470.35
478.00	16947.82
478.18	17064.85
478.36	17064.85
478.54	17128.04
478.72	17186.55
478.90	17348.05
479.08	17575.08
479.26	17736.58
479.44	17469.76
479.62	17956.59
479.80	18001.06
479.98	18518.32
480.16	18799.18
480.34	18230.43
480.52	18843.65
480.70	18450.44
480.88	18300.65
481.06	18754.71
481.24	18883.44
481.41	19037.92
481.59	19344.53
481.77	19468.58
481.95	19569.22
482.13	19964.77
482.31	19695.61
482.49	20264.36
482.67	20243.29
482.85	20475.01
483.03	20573.31
483.21	20905.66
483.39	20868.22
483.57	20931.41
483.74	21060.14
483.92	21076.52
484.10	20966.52
484.28	21652.30
484.46	21940.18
484.64	22370.84
484.82	22089.98
485.00	22438.72
485.18	22934.91
485.35	22979.38
485.53	22977.04
485.71	23290.67
485.89	23648.77
486.07	23363.23
486.25	23243.86
486.43	23480.25
486.61	24034.96
486.78	24451.58
486.96	24294.76
487.14	24531.15
487.32	24402.43
487.50	24783.93
487.68	25245.02
487.85	25034.37
488.03	25401.83
488.21	25804.41
488.39	25741.21
488.57	25729.51
488.75	26092.29
488.92	26422.31
489.10	26759.34
489.28	27007.44
489.46	27072.98
489.64	27140.85
489.81	27428.74
489.99	27381.93
490.17	28025.57
490.35	28421.13
490.53	28395.38
490.70	28381.34
490.88	28369.63
491.06	28486.66
491.24	28727.74
491.41	29111.58
491.59	29415.85
491.77	28816.68
491.95	29998.65
492.13	29799.70
492.30	30061.84
492.48	30015.03
492.66	30368.45
492.84	30511.22
493.01	30637.61
493.19	30960.61
493.37	31115.08
493.54	31232.11
493.72	31599.57
493.90	31213.38
494.08	32055.98
494.25	31709.58
494.43	32521.74
494.61	32507.70
494.79	32606.00
494.96	32645.79
495.14	33006.23
495.32	33287.10
495.49	33116.24
495.67	33596.05
495.85	33057.73
496.02	34288.85
496.20	33811.38
496.38	34199.91
496.55	34361.40
496.73	35096.33
496.91	34780.36
497.09	34941.86
497.26	34906.75
497.44	35005.05
497.62	35393.58
497.79	35847.64
497.97	35892.12
498.14	36151.91
498.32	36116.81
498.50	35938.93
498.67	36945.36
498.85	36641.09
499.03	36613.00
499.20	36765.14
499.38	37010.89
499.56	37425.17
499.73	37067.06
499.91	37553.90
500.08	37675.60
500.26	37415.80
500.44	37893.27
500.61	37516.45
500.79	37940.08
500.97	38167.12
501.14	38508.83
501.32	38850.55
501.49	38717.14
501.67	38658.63
501.84	39096.31
502.02	38394.15
502.20	39459.09
502.37	39210.99
502.55	39405.26
502.72	39707.19
502.90	39700.17
503.07	39693.15
503.25	39864.00
503.43	39585.48
503.60	40378.92
503.78	40046.57
503.95	39744.64
504.13	40533.40
504.30	40877.46
504.48	40320.41
504.65	40699.58
504.83	41125.55
505.01	41017.89
505.18	40903.20
505.36	41710.69
505.53	41523.44
505.71	41881.55
505.88	41617.07
506.06	41532.81
506.23	42078.15
506.41	41904.95
506.58	41785.58
506.76	42492.43
506.93	42466.68
507.11	42258.37
507.28	42120.28
507.46	42820.10
507.63	42899.68
507.81	43126.71
507.98	43306.93
508.16	43320.98
508.33	43477.79
508.50	43489.49
508.68	43732.91
508.85	43704.82
509.03	43646.31
509.20	44011.43
509.38	44306.34
509.55	44582.52
509.73	44823.60
509.90	44720.62
510.08	44488.90
510.25	44563.80
510.42	44720.62
510.60	44992.12
510.77	45392.35
510.95	45647.47
511.12	45439.16
511.30	45038.93
511.47	45778.54
511.64	45436.82
511.82	45984.51
511.99	45450.86
512.17	46143.66
512.34	45998.55
512.51	46342.61
512.69	46527.51
512.86	46253.67
513.04	46731.14
513.21	46471.34
513.38	46756.88
513.56	46855.18
513.73	46314.52
513.90	47194.56
514.08	47096.26
514.25	47550.32
514.43	47278.82
514.60	47529.26
514.77	47522.24
514.95	47503.51
515.12	47679.05
515.29	47702.46
515.47	48193.97
515.64	47971.62
515.81	47690.76
515.99	47817.14
516.16	48720.59
516.33	48423.34
516.51	48648.03
516.68	48662.08
516.85	48753.36
517.03	49160.61
517.20	49001.46
517.37	48821.23
517.54	49214.44
517.72	48753.36
517.89	49155.93
518.06	49099.76
518.24	49029.54
518.41	48828.26
518.58	49422.75
518.75	49380.62
518.93	49556.16
519.10	49514.03
519.27	49755.11
519.45	49659.15
519.62	49787.88
519.79	49766.81
519.96	50057.04
520.14	50326.20
520.31	50050.02
520.48	50763.88
520.65	50466.63
520.83	50473.65
521.00	50548.55
521.17	50564.93
521.34	50841.12
521.52	50773.24
521.69	50745.15
521.86	50721.75
522.03	51147.73
522.20	51107.94
522.38	51475.40
522.55	51402.85
522.72	51203.90
522.89	51353.69
523.07	51796.06
523.24	51444.98
523.41	51681.37
523.58	51564.34
523.75	51753.93
523.92	51576.04
524.10	51796.06
524.27	52158.84
524.44	52278.21
524.61	52060.54
524.78	52376.51
524.96	52065.22
525.13	52453.75
525.30	52694.82
525.47	52687.80
525.64	52566.09
525.81	52750.99
525.98	52603.54
526.16	52512.26
526.33	52959.30
526.50	52971.00
526.67	52762.70
526.84	52828.23
527.01	53041.22
527.18	52669.08
527.36	52933.56
527.53	52774.40
527.70	53525.71
527.87	53492.94
528.04	52807.17
528.21	53626.35
528.38	53284.64
528.55	53748.06
528.72	53268.25
528.89	53801.89
529.07	53162.93
529.24	53221.44
529.41	53876.79
529.58	53778.49
529.75	53656.78
529.92	53820.62
530.09	53961.05
530.26	54145.95
530.43	53949.35
530.60	53996.16
530.77	53780.83
530.94	54115.53
531.11	54099.14
531.28	54181.06
531.46	54424.48
531.63	54188.08
531.80	54370.64
531.97	54501.71
532.14	54487.67
532.31	54335.54
532.48	54429.16
532.65	54433.84
532.82	54478.31
532.99	54688.96
533.16	54667.89
533.33	54855.14
533.50	55002.59
533.67	54925.35
533.84	54625.76
534.01	54766.20
534.18	55128.98
534.35	55248.35
534.52	55033.02
534.69	55089.19
534.86	55061.10
535.03	55110.25
535.20	55220.26
535.37	55201.53
535.54	55554.96
535.71	55337.29
535.88	55498.78
536.05	55428.57
536.22	55693.05
536.38	55671.98
536.55	55632.19
536.72	55508.14
536.89	55714.11
537.06	55627.51
537.23	55831.14
537.40	55346.65
537.57	55849.86
537.74	55597.09
537.91	56137.75
538.08	55976.25
538.25	55812.41
538.42	55681.34
538.59	56114.34
538.75	55725.81
538.92	56051.15
539.09	56130.73
539.26	56100.30
539.43	56207.97
539.60	56444.36
539.77	56329.67
539.94	56488.83
540.11	56516.92
540.28	56418.61
540.44	56313.29
540.61	56341.38
540.78	56456.06
540.95	56549.68
541.12	56633.94
541.29	56669.05
541.46	56736.93
541.62	56423.29
541.79	56781.40
541.96	56252.44
542.13	56540.32
542.30	56662.03
542.47	56853.95
542.63	56814.16
542.80	56856.29
542.97	56994.39
543.14	57139.50
543.31	57293.97
543.48	57148.86
543.64	57317.38
543.81	57474.20
543.98	57453.13
544.15	57518.67
544.32	57668.46
544.48	57687.18
544.65	57420.36
544.82	57572.50
544.99	57158.22
545.16	57635.69
545.32	57495.26
545.49	57743.36
545.66	57818.25
545.83	57558.45
546.00	57684.84
546.16	57591.22
546.33	57682.50
546.50	57312.70
546.67	57748.04
546.83	57418.02
547.00	57748.04
547.17	57750.38
547.34	57633.35
547.50	57902.51
547.67	58213.80
547.84	58010.18
548.00	58108.48
548.17	58223.17
548.34	57977.41
548.51	58307.43
548.67	58150.61
548.84	58054.65
549.01	58164.65
549.18	58028.90
549.34	58155.29
549.51	58110.82
549.68	58387.00
549.84	58295.72
550.01	58120.18
550.18	58300.40
550.34	58436.16
550.51	58370.62
550.68	58482.97
550.84	58312.11
551.01	58609.35
551.18	58410.41
551.34	58454.88
551.51	58541.48
551.68	58482.97
551.84	58728.72
552.01	58518.07
552.18	58651.48
552.34	58532.12
552.51	58705.32
552.68	58590.63
552.84	58702.98
553.01	58693.61
553.18	58927.67
553.34	58862.13
553.51	58735.74
553.67	58995.54
553.84	58981.50
554.01	59103.21
554.17	59107.89
554.34	58955.75
554.51	59063.42
554.67	58937.03
554.84	58960.44
555.00	59152.36
555.17	59091.51
555.33	59068.10
555.50	58838.73
555.67	59021.29
555.83	58969.80
556.00	58883.20
556.16	59580.68
556.33	59327.90
556.50	58948.73
556.66	59238.96
556.83	58981.50
556.99	59398.12
557.16	59519.82
557.32	59568.97
557.49	59709.41
557.65	59243.64
557.82	59187.47
557.98	59412.16
558.15	59381.73
558.32	59566.63
558.48	59372.37
558.65	59458.97
558.81	59487.06
558.98	59622.81
559.14	59636.85
559.31	59721.11
559.47	59442.59
559.64	59662.60
559.80	59774.94
559.97	59671.96
560.13	59627.49
560.30	59770.26
560.46	59653.23
560.63	59812.39
560.79	59969.21
560.96	59880.27
561.12	59831.11
561.29	59604.08
561.45	59894.31
561.61	60060.49
561.78	59910.69
561.94	59852.18
562.11	60044.10
562.27	60013.68
562.44	59948.14
562.60	60130.70
562.77	59929.42
562.93	59756.22
563.10	60130.70
563.26	59791.33
563.42	60126.02
563.59	59955.16
563.75	60065.17
563.92	59950.48
564.08	59990.27
564.24	60252.41
564.41	59934.10
564.57	60142.41
564.74	60306.24
564.90	60123.68
565.07	60245.39
565.23	60266.45
565.39	60055.81
565.56	60018.36
565.72	60200.92
565.88	60037.08
566.05	60144.75
566.21	60011.34
566.38	60395.18
566.54	60168.15
566.70	60238.37
566.87	60430.29
567.03	60231.35
567.19	60250.07
567.36	60175.17
567.52	60535.62
567.68	60610.51
567.85	60289.86
568.01	60348.37
568.17	60243.05
568.34	60324.97
568.50	60507.53
568.66	60346.03
568.83	60292.20
568.99	60498.17
569.15	60516.89
569.32	60315.61
569.48	60444.33
569.64	60561.36
569.81	60397.52
569.97	60498.17
570.13	60299.22
570.30	60360.08
570.46	60317.95
570.62	60554.34
570.78	60423.27
570.95	60240.71
571.11	60631.58
571.27	60582.43
571.43	60449.02
571.60	60575.40
571.76	60615.19
571.92	60610.51
572.09	60671.37
572.25	60654.98
572.41	60493.49
572.57	60556.68
572.74	60863.29
572.90	60502.85
573.06	60643.28
573.22	60800.10
573.38	60683.07
573.55	60577.75
573.71	60767.33
573.87	60720.52
574.03	60570.72
574.20	60779.03
574.36	60671.37
574.52	60629.24
574.68	60760.31
574.84	60874.99
575.01	60671.37
575.17	60603.49
575.33	60631.58
575.49	60846.91
575.65	60865.63
575.82	60917.12
575.98	60823.50
576.14	60907.76
576.30	60797.76
576.46	60720.52
576.62	60706.47
576.79	60687.75
576.95	60631.58
577.11	60626.90
577.27	60786.05
577.43	60715.84
577.59	60729.88
577.75	60615.19
577.92	60814.14
578.08	60617.53
578.24	60970.96
578.40	60940.53
578.56	61048.19
578.72	60781.37
578.88	60886.70
579.04	61020.11
579.21	60853.93
579.37	60959.25
579.53	61020.11
579.69	60528.59
579.85	60858.61
580.01	60774.35
580.17	60837.54
580.33	60989.68
580.49	60938.19
580.65	61057.56
580.82	60786.05
580.98	60811.80
581.14	60767.33
581.30	61013.08
581.46	60853.93
581.62	60975.64
581.78	60615.19
581.94	61017.77
582.10	60856.27
582.26	60994.36
582.42	60987.34
582.58	61001.38
582.74	60729.88
582.90	61078.62
583.06	60900.74
583.22	60900.74
583.38	61169.90
583.54	60858.61
583.70	60975.64
583.86	60954.57
584.02	60818.82
584.18	61048.19
584.34	60807.12
584.50	60931.17
584.66	60910.10
584.82	61029.47
584.98	61141.81
585.14	61195.65
585.30	60900.74
585.46	61069.26
585.62	61041.17
585.78	61183.94
585.94	60781.37
586.10	61057.56
586.26	61141.81
586.42	61104.37
586.58	61212.03
586.74	61071.60
586.90	60874.99
587.06	60949.89
587.22	61130.11
587.38	60828.18
587.54	61118.41
587.70	61202.67
587.86	61099.68
588.02	61172.24
588.18	61216.71
588.34	61045.85
588.49	61251.82
