SpectraSuite Data File
++++++++++++++++++++++++++++++++++++
Date: Fri Oct 25 11:25:20 EDT 2013
User: price-jones
Dark Spectrum Present: No
Reference Spectrum Present: No
Number of Sampled Component Spectra: 1
Spectrometers: USB2+H05261
Integration Time (usec): 100000 (USB2+H05261)
Spectra Averaged: 1 (USB2+H05261)
Boxcar Smoothing: 0 (USB2+H05261)
Correct for Electrical Dark: No (USB2+H05261)
Strobe/Lamp Enabled: No (USB2+H05261)
Correct for Detector Non-linearity: No (USB2+H05261)
Correct for Stray Light: No (USB2+H05261)
Number of Pixels in Processed Spectrum: 2048
>>>>>Begin Processed Spectral Data<<<<<
365.73	182.56
365.92	182.56
366.12	182.56
366.32	152.13
366.52	114.69
366.72	135.75
366.91	95.96
367.11	100.64
367.31	138.09
367.51	91.28
367.70	152.13
367.90	124.05
368.10	175.54
368.30	201.29
368.49	140.43
368.69	133.41
368.89	245.76
369.09	121.71
369.28	163.84
369.48	170.86
369.68	163.84
369.87	208.31
370.07	194.26
370.27	189.58
370.47	308.95
370.66	634.29
370.86	587.47
371.06	585.13
371.25	678.76
371.45	648.33
371.65	737.27
371.84	772.38
372.04	746.63
372.24	690.46
372.44	737.27
372.63	763.01
372.83	788.76
373.03	704.50
373.22	709.18
373.42	819.19
373.62	760.67
373.81	835.57
374.01	835.57
374.21	805.14
374.40	753.65
374.60	837.91
374.79	889.40
374.99	770.04
375.19	830.89
375.38	784.08
375.58	866.00
375.78	922.17
375.97	875.36
376.17	950.26
376.37	875.36
376.56	887.06
376.76	826.21
376.95	840.25
377.15	933.87
377.35	1004.09
377.54	866.00
377.74	905.79
377.93	936.21
378.13	961.96
378.33	992.39
378.52	966.64
378.72	980.68
378.91	950.26
379.11	889.40
379.31	961.96
379.50	973.66
379.70	1018.13
379.89	976.00
380.09	968.98
380.28	936.21
380.48	1057.92
380.68	912.81
380.87	1018.13
381.07	978.34
381.26	1006.43
381.46	1020.47
381.65	1093.03
381.85	1057.92
382.04	1036.86
382.24	1095.37
382.43	1050.90
382.63	1102.39
382.83	1043.88
383.02	1076.65
383.22	1043.88
383.41	1118.78
383.61	1095.37
383.80	1217.08
384.00	1123.46
384.19	1083.67
384.39	1193.67
384.58	1121.12
384.78	1231.12
384.97	1102.39
385.17	1174.95
385.36	1172.61
385.56	1170.27
385.75	1212.40
385.95	1193.67
386.14	1238.14
386.34	1214.74
386.53	1179.63
386.72	1160.91
386.92	1205.38
387.11	1294.32
387.31	1320.06
387.50	1245.16
387.70	1191.33
387.89	1270.91
388.09	1198.35
388.28	1210.06
388.48	1284.95
388.67	1301.34
388.86	1301.34
389.06	1348.15
389.25	1235.80
389.45	1343.47
389.64	1397.30
389.84	1385.60
390.03	1313.04
390.22	1399.64
390.42	1376.24
390.61	1336.45
390.81	1291.98
391.00	1366.87
391.19	1486.24
391.39	1432.41
391.58	1413.68
391.78	1453.47
391.97	1486.24
392.16	1533.05
392.36	1472.20
392.55	1486.24
392.75	1528.37
392.94	1451.13
393.13	1556.46
393.33	1514.33
393.52	1565.82
393.71	1605.61
393.91	1626.67
394.10	1565.82
394.29	1600.93
394.49	1441.77
394.68	1614.97
394.88	1659.44
395.07	1640.72
395.26	1706.25
395.46	1760.08
395.65	1692.21
395.84	1640.72
396.04	1771.79
396.23	1769.44
396.42	1785.83
396.62	1717.95
396.81	1851.36
397.00	1741.36
397.19	1764.76
397.39	1776.47
397.58	1834.98
397.77	1795.19
397.97	1806.89
398.16	1776.47
398.35	1842.00
398.55	1879.45
398.74	1914.56
398.93	1900.52
399.12	1916.90
399.32	1905.20
399.51	1921.58
399.70	1994.14
399.90	1968.39
400.09	1977.75
400.28	1989.46
400.47	2036.27
400.67	2071.37
400.86	2040.95
401.05	1980.09
401.24	2113.50
401.44	2094.78
401.63	2083.08
401.82	2101.80
402.01	2076.06
402.21	2106.48
402.40	2143.93
402.59	2204.78
402.78	2218.83
402.97	2193.08
403.17	2303.09
403.36	2307.77
403.55	2289.04
403.74	2303.09
403.93	2403.73
404.13	2406.07
404.32	2345.22
404.51	2401.39
404.70	2408.41
404.89	2373.30
405.09	2478.63
405.28	2520.76
405.47	2464.58
405.66	2441.18
405.85	2520.76
406.05	2455.22
406.24	2471.61
406.43	2590.97
406.62	2661.19
406.81	2640.12
407.00	2551.18
407.20	2532.46
407.39	2628.42
407.58	2771.19
407.77	2708.00
407.96	2647.15
408.15	2637.78
408.34	2672.89
408.54	2881.20
408.73	2752.47
408.92	2752.47
409.11	2822.69
409.30	2813.32
409.49	2904.60
409.68	2843.75
409.87	2864.82
410.07	2977.16
410.26	3007.59
410.45	3033.33
410.64	2998.23
410.83	2958.44
411.02	3002.91
411.21	3089.51
411.40	3148.02
411.59	3159.72
411.78	3164.40
411.98	3272.07
412.17	3155.04
412.36	3258.03
412.55	3337.60
412.74	3384.41
412.93	3386.76
413.12	3325.90
413.31	3634.85
413.50	3309.52
413.69	3485.06
413.88	3655.92
414.07	3569.32
414.26	3721.45
414.45	3611.45
414.64	3658.26
414.83	3768.26
415.02	3665.28
415.22	3796.35
415.41	3847.84
415.60	3988.27
415.79	3871.25
415.98	3885.29
416.17	3927.42
416.36	3927.42
416.55	3995.29
416.74	3936.78
416.93	4142.75
417.12	4023.38
417.31	4208.28
417.50	4140.41
417.69	4365.10
417.88	4145.09
418.07	4119.34
418.26	4311.27
418.45	4339.35
418.64	4435.32
418.83	4402.55
419.02	4365.10
419.21	4393.19
419.39	4496.17
419.58	4493.83
419.77	4414.25
419.96	4468.08
420.15	4461.06
420.34	4690.43
420.53	4561.70
420.72	4564.04
420.91	4662.35
421.10	4697.46
421.29	4772.35
421.48	4716.18
421.67	4727.88
421.86	4706.82
422.05	4650.64
422.24	4620.22
422.43	4968.96
422.61	4751.29
422.80	4983.00
422.99	4961.94
423.18	4905.76
423.37	4954.91
423.56	5081.30
423.75	4952.57
423.94	4915.12
424.13	4498.51
424.32	4865.97
424.50	5006.41
424.69	5032.15
424.88	4978.32
425.07	4849.59
425.26	4863.63
425.45	4964.28
425.64	5046.20
425.83	4980.66
426.01	5111.73
426.20	4936.19
426.39	5001.72
426.58	5015.77
426.77	5050.88
426.96	5240.46
427.15	5048.54
427.33	5156.20
427.52	5203.01
427.71	5170.24
427.90	5139.82
428.09	5132.79
428.28	5313.02
428.46	5350.46
428.65	5301.31
428.84	5338.76
429.03	5446.43
429.22	5289.61
429.40	5408.98
429.59	5495.58
429.78	5165.56
429.97	5191.31
430.16	5313.02
430.34	5495.58
430.53	5689.84
430.72	5621.97
430.91	5687.50
431.10	5533.03
431.28	5633.67
431.47	5776.44
431.66	5837.30
431.85	5689.84
432.03	5755.38
432.22	5963.68
432.41	5949.64
432.60	5856.02
432.79	5806.87
432.97	5973.05
433.16	6069.01
433.35	5968.37
433.54	6061.99
433.72	6073.69
433.91	6061.99
434.10	6169.65
434.28	6263.27
434.47	6122.84
434.66	6279.66
434.85	6263.27
435.03	6136.88
435.22	6265.61
435.41	6509.03
435.59	6291.36
435.78	6452.86
435.97	6574.56
436.16	6366.26
436.34	6530.09
436.53	6506.69
436.72	6679.89
436.90	6289.02
437.09	6511.37
437.28	6438.81
437.46	6558.18
437.65	6581.59
437.84	6696.27
438.02	6637.76
438.21	6817.98
438.40	6628.40
438.58	6825.00
438.77	7112.89
438.96	6946.71
439.14	7026.29
439.33	7103.53
439.52	7145.66
439.70	7084.80
439.89	7375.03
440.08	7276.73
440.26	7302.47
440.45	7253.32
440.63	7300.13
440.82	7541.21
441.01	7639.51
441.19	7639.51
441.38	7611.42
441.57	7576.31
441.75	7901.65
441.94	7730.79
442.12	7826.75
442.31	7964.84
442.50	8114.64
442.68	8051.44
442.87	8035.06
443.05	8107.62
443.24	8301.88
443.43	8177.83
443.61	8201.24
443.80	8332.31
443.98	8032.72
444.17	7964.84
444.35	8177.83
444.54	8124.00
444.73	8133.36
444.91	8348.69
445.10	8131.02
445.28	8215.28
445.47	8245.71
445.65	8182.51
445.84	8355.71
446.02	8348.69
446.21	8344.01
446.39	8238.69
446.58	8439.97
446.77	8493.80
446.95	8187.19
447.14	8327.63
447.32	8535.93
447.51	8379.12
447.69	8381.46
447.88	8446.99
448.06	8463.38
448.25	8374.44
448.43	8542.96
448.62	8571.04
448.80	8465.72
448.99	8650.62
449.17	8568.70
449.36	8468.06
449.54	8819.14
449.73	8769.99
449.91	8856.59
450.10	8954.89
450.28	9114.05
450.46	8922.12
450.65	8943.19
450.83	9217.03
451.02	8842.54
451.20	9046.17
451.39	9074.26
451.57	9015.74
451.76	9111.71
451.94	9100.00
452.13	9364.48
452.31	9334.06
452.49	9081.28
452.68	9240.44
452.86	9486.19
453.05	9460.45
453.23	9198.31
453.42	9383.21
453.60	9238.09
453.78	9626.62
453.97	9247.46
454.15	9315.33
454.34	9280.22
454.52	9694.50
454.70	9654.71
454.89	9654.71
455.07	9696.84
455.26	9879.40
455.44	9715.56
455.62	9741.31
455.81	9717.90
455.99	9987.07
456.17	9902.81
456.36	9949.62
456.54	9905.15
456.73	10317.08
456.91	10452.83
457.09	10399.00
457.28	10340.49
457.46	10225.80
457.64	10324.10
457.83	10478.58
458.01	10452.83
458.19	10670.50
458.38	10436.45
458.56	10590.92
458.74	10574.54
458.93	10565.18
459.11	10731.36
459.29	10595.61
459.48	10626.03
459.66	10724.33
459.84	10871.79
460.03	10958.39
460.21	10946.69
460.39	10869.45
460.57	10878.81
460.76	10995.84
460.94	10979.45
461.12	10949.03
461.31	10944.34
461.49	11150.31
461.67	11033.29
461.85	11728.42
462.04	11201.80
462.22	11798.64
462.40	11585.65
462.59	11466.28
462.77	11620.76
462.95	11375.00
463.13	11578.63
463.32	11733.11
463.50	11754.17
463.68	11503.73
463.86	11679.27
464.05	11580.97
464.23	11798.64
464.41	11934.39
464.59	11679.27
464.78	12004.61
464.96	11861.84
465.14	11829.07
465.32	11920.35
465.50	12318.24
465.69	12042.06
465.87	12175.47
466.05	12079.50
466.23	12093.55
466.41	12098.23
466.60	12248.02
466.78	11929.71
466.96	12025.67
467.14	12086.53
467.32	12224.62
467.51	12507.82
467.69	11925.03
467.87	12594.42
468.05	12678.68
468.23	12236.32
468.41	12233.98
468.60	12585.06
468.78	12622.51
468.96	12362.71
469.14	12512.50
469.32	12856.56
469.50	12655.28
469.69	12776.98
469.87	12863.58
470.05	13144.45
470.23	13212.32
470.41	13200.62
470.59	13153.81
470.77	12936.14
470.95	13247.43
471.14	13128.06
471.32	12994.65
471.50	13385.52
471.68	13650.00
471.86	13547.02
472.04	13621.92
472.22	13729.58
472.40	13589.15
472.58	13767.03
472.77	13771.71
472.95	13823.20
473.13	14305.35
473.31	13923.85
473.49	13734.26
473.67	13839.59
473.85	14040.87
474.03	14558.13
474.21	14651.75
474.39	14902.19
474.57	14480.89
474.75	14883.47
474.93	14888.15
475.12	14712.61
475.30	15049.64
475.48	14871.76
475.66	15253.27
475.84	15197.10
476.02	15190.08
476.20	15440.51
476.38	15435.83
476.56	15730.74
476.74	15854.79
476.92	15852.45
477.10	15524.77
477.28	15981.18
477.46	16233.96
477.64	16203.53
477.82	16535.88
478.00	16765.26
478.18	16732.49
478.36	16638.87
478.54	16840.15
478.72	17069.53
478.90	17074.21
479.08	17376.14
479.26	17635.94
479.44	17832.54
479.62	17647.64
479.80	17811.48
479.98	17961.27
480.16	18464.49
480.34	18242.14
480.52	18569.81
480.70	18412.99
480.88	18164.90
481.06	18061.91
481.24	18869.40
481.41	18834.29
481.59	19257.93
481.77	19183.03
481.95	19461.55
482.13	19386.66
482.31	19700.29
482.49	20301.81
482.67	20198.82
482.85	20175.42
483.03	20325.21
483.21	20634.16
483.39	21074.18
483.57	21071.84
483.74	21074.18
483.92	21268.45
484.10	20999.29
484.28	21722.51
484.46	21738.90
484.64	22183.60
484.82	21750.60
485.00	22265.52
485.18	22522.98
485.35	22714.90
485.53	22621.28
485.71	22733.62
485.89	23323.44
486.07	23000.44
486.25	23323.44
486.43	23435.78
486.61	23721.33
486.78	23709.63
486.96	24180.07
487.14	24236.25
487.32	24170.71
487.50	24369.66
487.68	24807.34
487.85	25226.29
488.03	25130.33
488.21	25834.83
488.39	25614.82
488.57	25989.31
488.75	26120.38
488.92	26347.41
489.10	26221.02
489.28	26707.85
489.46	27089.36
489.64	26703.17
489.81	27711.94
489.99	27269.58
490.17	27274.26
490.35	27913.23
490.53	28217.50
490.70	28184.73
490.88	27992.81
491.06	28657.52
491.24	28283.03
491.41	28959.45
491.59	29020.30
491.77	29340.96
491.95	29198.18
492.13	29883.96
492.30	29788.00
492.48	29575.01
492.66	29954.18
492.84	29968.22
493.01	30824.86
493.19	30583.78
493.37	30925.50
493.54	30934.86
493.72	31229.77
493.90	31150.19
494.08	31594.89
494.25	32161.30
494.43	31545.74
494.61	32079.38
494.79	32652.81
494.96	32655.15
495.14	32549.83
495.32	33235.61
495.49	32547.49
495.67	32734.73
495.85	33216.88
496.02	33680.31
496.20	33865.21
496.38	33633.50
496.55	33893.30
496.73	34883.34
496.91	34279.49
497.09	34429.28
497.26	34462.05
497.44	34794.40
497.62	34696.10
497.79	35468.48
497.97	34967.60
498.14	35611.25
498.32	35812.54
498.50	35798.49
498.67	36678.54
498.85	36006.80
499.03	36594.28
499.20	36058.29
499.38	36683.22
499.56	37043.66
499.73	37074.09
499.91	36844.71
500.08	37933.06
500.26	37247.29
500.44	37514.11
500.61	37937.74
500.79	37343.25
500.97	37759.86
501.14	38761.61
501.32	38354.36
501.49	38260.74
501.67	37801.99
501.84	38637.56
502.02	38246.69
502.20	39283.55
502.37	39143.12
502.55	39246.10
502.72	39117.37
502.90	39306.96
503.07	39065.88
503.25	39232.06
503.43	39849.96
503.60	40020.82
503.78	39798.47
503.95	40058.27
504.13	40383.60
504.30	40011.46
504.48	40470.20
504.65	40643.40
504.83	40755.75
505.01	41141.94
505.18	40957.03
505.36	41394.71
505.53	40591.91
505.71	41539.83
505.88	41387.69
506.06	41160.66
506.23	41923.68
506.41	41614.72
506.58	41687.28
506.76	42092.19
506.93	42469.02
507.11	42155.39
507.28	42227.95
507.46	42232.63
507.63	42628.18
507.81	42857.55
507.98	42436.25
508.16	42740.52
508.33	42995.64
508.50	43126.71
508.68	43206.29
508.85	43695.46
509.03	43447.36
509.20	43896.75
509.38	43803.13
509.55	44032.50
509.73	44154.21
509.90	44388.26
510.08	44404.64
510.25	44341.45
510.42	44364.85
510.60	44914.88
510.77	44828.28
510.95	45425.12
511.12	45067.02
511.30	44851.69
511.47	45434.48
511.64	45162.98
511.82	45546.82
511.99	45378.31
512.17	45689.60
512.34	45638.11
512.51	45830.03
512.69	46272.39
512.86	46199.83
513.04	46461.97
513.21	46447.93
513.38	46419.84
513.56	46548.57
513.73	46492.40
513.90	46909.02
514.08	46726.46
514.25	47014.34
514.43	47203.92
514.60	47222.65
514.77	47056.47
514.95	47627.56
515.12	47423.93
515.29	47058.81
515.47	47683.73
515.64	47758.63
515.81	47615.86
515.99	48271.21
516.16	47962.26
516.33	47913.11
516.51	48641.01
516.68	47931.83
516.85	47973.96
517.03	48893.79
517.20	48662.08
517.37	48685.48
517.54	48783.79
517.72	48832.94
517.89	48999.12
518.06	49071.67
518.24	48898.47
518.41	49247.21
518.58	48896.13
518.75	49106.78
518.93	49291.68
519.10	49375.94
519.27	49797.24
519.45	48999.12
519.62	49687.23
519.79	49270.62
519.96	49427.43
520.14	50014.91
520.31	49900.22
520.48	50122.57
520.65	50007.89
520.83	50333.22
521.00	50497.06
521.17	50604.72
521.34	50452.59
521.52	50454.93
521.69	50461.95
521.86	50635.15
522.03	50696.00
522.20	50953.46
522.38	50850.48
522.55	51290.50
522.72	51367.74
522.89	51112.62
523.07	51428.59
523.24	51171.13
523.41	51587.75
523.58	51290.50
523.75	51646.26
523.92	51386.46
524.10	51655.62
524.27	51632.22
524.44	51920.10
524.61	51667.33
524.78	52083.94
524.96	51856.91
525.13	51838.18
525.30	52093.30
525.47	52568.43
525.64	52259.48
525.81	52570.77
525.98	52547.37
526.16	52116.71
526.33	52526.30
526.50	52800.15
526.67	52577.79
526.84	52659.71
527.01	52701.84
527.18	52650.35
527.36	52706.52
527.53	52837.59
527.70	52989.73
527.87	53064.63
528.04	53006.11
528.21	53270.59
528.38	53296.34
528.55	53497.62
528.72	53106.76
528.89	53151.23
529.07	53109.10
529.24	53233.14
529.41	53565.50
529.58	53535.07
529.75	53521.03
529.92	53593.59
530.09	53668.48
530.26	53682.53
530.43	53741.04
530.60	53633.38
530.77	53600.61
530.94	54031.27
531.11	53829.98
531.28	54124.89
531.46	53778.49
531.63	54358.94
531.80	53944.67
531.97	54288.73
532.14	54232.55
532.31	54145.95
532.48	54258.30
532.65	54401.07
532.82	54227.87
532.99	54380.01
533.16	54272.34
533.33	54651.51
533.50	54885.56
533.67	54616.40
533.84	54784.92
534.01	54761.51
534.18	54775.56
534.35	55304.52
534.52	54869.18
534.69	54681.94
534.86	54934.71
535.03	54908.97
535.20	54677.25
535.37	55119.62
535.54	55370.05
535.71	54930.03
535.88	55131.32
536.05	55449.63
536.22	55402.82
536.38	55344.31
536.55	55466.02
536.72	55224.94
536.89	55496.44
537.06	55374.73
537.23	55341.97
537.40	55288.13
537.57	55466.02
537.74	55477.72
537.91	55777.31
538.08	55674.32
538.25	55503.46
538.42	55824.12
538.59	55800.71
538.75	55590.06
538.92	55913.06
539.09	55889.65
539.26	55777.31
539.43	55891.99
539.60	55945.83
539.77	56128.39
539.94	56413.93
540.11	56289.88
540.28	56137.75
540.44	56203.28
540.61	56374.14
540.78	56233.71
540.95	56406.91
541.12	56264.14
541.29	56198.60
541.46	56399.89
541.62	56175.20
541.79	56549.68
541.96	56184.56
542.13	56404.57
542.30	56533.30
542.47	56835.23
542.63	56816.50
542.80	56713.52
542.97	56765.01
543.14	56755.65
543.31	57001.41
543.48	57059.92
543.64	57403.98
543.81	57029.49
543.98	57020.13
544.15	57097.37
544.32	57268.23
544.48	57242.48
544.65	57242.48
544.82	57401.64
544.99	57345.47
545.16	57296.31
545.32	57275.25
545.49	57270.57
545.66	57511.64
545.83	57481.22
546.00	57565.48
546.16	57490.58
546.33	57469.51
546.50	57270.57
546.67	57439.09
546.83	57212.06
547.00	57626.33
547.17	57474.20
547.34	57799.53
547.50	57855.70
547.67	57783.15
547.84	57818.25
548.00	57909.53
548.17	58075.71
548.34	57902.51
548.51	58075.71
548.67	58010.18
548.84	57958.69
549.01	57794.85
549.18	58003.16
549.34	58061.67
549.51	58159.97
549.68	58195.08
549.84	58316.79
550.01	58248.91
550.18	58108.48
550.34	58436.16
550.51	58136.57
550.68	58326.15
550.84	58122.52
551.01	58419.77
551.18	58305.09
551.34	58166.99
551.51	58279.34
551.68	58344.87
551.84	58550.84
552.01	58408.07
552.18	58363.60
552.34	58181.04
552.51	58569.57
552.68	58274.66
552.84	58356.58
553.01	58763.83
553.18	58665.53
553.34	58679.57
553.51	58590.63
553.67	58745.11
553.84	58913.62
554.01	58705.32
554.17	58857.45
554.34	58883.20
554.51	58955.75
554.67	58829.37
554.84	58864.47
555.00	58951.07
555.17	58983.84
555.33	59061.08
555.50	58801.28
555.67	59047.04
555.83	58747.45
556.00	58976.82
556.16	59215.55
556.33	59138.32
556.50	58869.15
556.66	59000.22
556.83	58885.54
556.99	59051.72
557.16	59348.96
557.32	59391.09
557.49	59395.77
557.65	59040.01
557.82	59372.37
557.98	59220.23
558.15	59323.22
558.32	59339.60
558.48	59313.86
558.65	59461.31
558.81	59325.56
558.98	59391.09
559.14	59498.76
559.31	59491.74
559.47	59454.29
559.64	59643.87
559.80	59498.76
559.97	59611.10
560.13	59346.62
560.30	59437.90
560.46	59505.78
560.63	59405.14
560.79	59583.02
560.96	59751.54
561.12	59866.22
561.29	59608.76
561.45	59622.81
561.61	59461.31
561.78	59737.49
561.94	59622.81
562.11	59545.57
562.27	59566.63
562.44	59824.09
562.60	59781.96
562.77	59737.49
562.93	59620.47
563.10	59889.63
563.26	59793.67
563.42	59882.61
563.59	60039.42
563.75	59931.76
563.92	59966.87
564.08	59945.80
564.24	60062.83
564.41	59821.75
564.57	59985.59
564.74	59973.89
564.90	59964.52
565.07	59952.82
565.23	60044.10
565.39	59774.94
565.56	60170.49
565.72	59969.21
565.88	60102.62
566.05	60088.57
566.21	59763.24
566.38	60074.53
566.54	60130.70
566.70	60151.77
566.87	60287.52
567.03	59901.33
567.19	60299.22
567.36	60100.28
567.52	60163.47
567.68	60205.60
567.85	60254.75
568.01	60327.31
568.17	59959.84
568.34	60224.32
568.50	60198.58
568.66	60151.77
568.83	60292.20
568.99	60212.62
569.15	60397.52
569.32	60184.54
569.48	60191.56
569.64	60385.82
569.81	60299.22
569.97	60186.88
570.13	60374.12
570.30	60048.78
570.46	60341.35
570.62	60413.91
570.78	60432.63
570.95	60350.71
571.11	60432.63
571.27	60243.05
571.43	60409.23
571.60	60573.06
571.76	60243.05
571.92	60392.84
572.09	60299.22
572.25	60512.21
572.41	60420.93
572.57	60430.29
572.74	60467.74
572.90	60289.86
573.06	60212.62
573.22	60390.50
573.38	60647.96
573.55	60472.42
573.71	60605.83
573.87	60537.96
574.03	60573.06
574.20	60741.58
574.36	60446.68
574.52	60650.30
574.68	60753.29
574.84	60706.47
575.01	60640.94
575.17	60575.40
575.33	60530.93
575.49	60589.45
575.65	60556.68
575.82	60685.41
575.98	60491.15
576.14	60664.35
576.30	60657.32
576.46	60573.06
576.62	60596.47
576.79	60568.38
576.95	60420.93
577.11	60734.56
577.27	60657.32
577.43	60657.32
577.59	60779.03
577.75	60528.59
577.92	60530.93
578.08	60713.50
578.24	60523.91
578.40	60867.97
578.56	60956.91
578.72	60502.85
578.88	60832.86
579.04	60938.19
579.21	60568.38
579.37	60821.16
579.53	60910.10
579.69	60612.85
579.85	60645.62
580.01	60664.35
580.17	60556.68
580.33	60636.26
580.49	60704.13
580.65	60832.86
580.82	60811.80
580.98	60474.76
581.14	60699.45
581.30	60734.56
581.46	60849.25
581.62	60657.32
581.78	60839.89
581.94	60767.33
582.10	60697.11
582.26	60736.90
582.42	60498.17
582.58	60566.04
582.74	60715.84
582.90	60856.27
583.06	60587.11
583.22	60582.43
583.38	60603.49
583.54	60729.88
583.70	60748.60
583.86	60982.66
584.02	60718.18
584.18	61034.15
584.34	60999.04
584.50	60954.57
584.66	60706.47
584.82	60509.87
584.98	60727.54
585.14	60912.44
585.30	60832.86
585.46	60793.07
585.62	60842.23
585.78	60954.57
585.94	60692.43
586.10	60760.31
586.26	61041.17
586.42	60896.06
586.58	61160.54
586.74	60970.96
586.90	60917.12
587.06	60793.07
587.22	60905.42
587.38	61043.51
587.54	61134.79
587.70	61118.41
587.86	60893.72
588.02	60814.14
588.18	61120.75
588.34	60811.80
588.49	60849.25
