SpectraSuite Data File
++++++++++++++++++++++++++++++++++++
Date: Fri Oct 25 11:23:28 EDT 2013
User: price-jones
Dark Spectrum Present: No
Reference Spectrum Present: No
Number of Sampled Component Spectra: 1
Spectrometers: USB2+H05261
Integration Time (usec): 100000 (USB2+H05261)
Spectra Averaged: 1 (USB2+H05261)
Boxcar Smoothing: 0 (USB2+H05261)
Correct for Electrical Dark: No (USB2+H05261)
Strobe/Lamp Enabled: No (USB2+H05261)
Correct for Detector Non-linearity: No (USB2+H05261)
Correct for Stray Light: No (USB2+H05261)
Number of Pixels in Processed Spectrum: 2048
>>>>>Begin Processed Spectral Data<<<<<
365.73	266.82
365.92	266.82
366.12	266.82
366.32	177.88
366.52	166.18
366.72	114.69
366.91	63.19
367.11	95.96
367.31	100.64
367.51	166.18
367.70	145.11
367.90	67.88
368.10	161.50
368.30	140.43
368.49	112.35
368.69	175.54
368.89	124.05
369.09	184.90
369.28	135.75
369.48	184.90
369.68	224.69
369.87	170.86
370.07	170.86
370.27	184.90
370.47	248.10
370.66	538.32
370.86	657.69
371.06	641.31
371.25	669.39
371.45	711.52
371.65	706.84
371.84	685.78
372.04	671.73
372.24	720.88
372.44	753.65
372.63	734.93
372.83	770.04
373.03	704.50
373.22	760.67
373.42	805.14
373.62	819.19
373.81	767.70
374.01	830.89
374.21	816.85
374.40	772.38
374.60	772.38
374.79	816.85
374.99	823.87
375.19	842.59
375.38	828.55
375.58	861.32
375.78	788.76
375.97	868.34
376.17	866.00
376.37	889.40
376.56	858.98
376.76	858.98
376.95	847.27
377.15	917.49
377.35	912.81
377.54	840.25
377.74	910.47
377.93	896.43
378.13	908.13
378.33	980.68
378.52	866.00
378.72	910.47
378.91	990.05
379.11	978.34
379.31	919.83
379.50	919.83
379.70	1008.77
379.89	922.17
380.09	966.64
380.28	983.02
380.48	1004.09
380.68	943.24
380.87	1011.11
381.07	1013.45
381.26	1015.79
381.46	1064.94
381.65	1118.78
381.85	1130.48
382.04	1074.31
382.24	1069.62
382.43	1069.62
382.63	1069.62
382.83	1107.07
383.02	1153.88
383.22	1057.92
383.41	1025.15
383.61	1048.56
383.80	1074.31
384.00	1116.44
384.19	1123.46
384.39	1116.44
384.58	1088.35
384.78	1046.22
384.97	1226.44
385.17	1226.44
385.36	1149.20
385.56	1193.67
385.75	1170.27
385.95	1191.33
386.14	1235.80
386.34	1137.50
386.53	1214.74
386.72	1111.75
386.92	1221.76
387.11	1252.19
387.31	1210.06
387.50	1217.08
387.70	1270.91
387.89	1226.44
388.09	1275.59
388.28	1306.02
388.48	1266.23
388.67	1322.40
388.86	1329.42
389.06	1329.42
389.25	1390.28
389.45	1336.45
389.64	1352.83
389.84	1373.89
390.03	1371.55
390.22	1432.41
390.42	1378.58
390.61	1432.41
390.81	1359.85
391.00	1291.98
391.19	1504.96
391.39	1378.58
391.58	1462.83
391.78	1472.20
391.97	1432.41
392.16	1451.13
392.36	1535.39
392.55	1537.73
392.75	1540.07
392.94	1504.96
393.13	1558.80
393.33	1511.99
393.52	1476.88
393.71	1621.99
393.91	1563.48
394.10	1612.63
394.29	1629.01
394.49	1542.41
394.68	1586.88
394.88	1640.72
395.07	1657.10
395.26	1647.74
395.46	1621.99
395.65	1720.29
395.84	1715.61
396.04	1778.81
396.23	1734.34
396.42	1724.97
396.62	1806.89
396.81	1816.26
397.00	1694.55
397.19	1720.29
397.39	1762.42
397.58	1839.66
397.77	1755.40
397.97	1968.39
398.16	1767.10
398.35	1928.60
398.55	1928.60
398.74	1872.43
398.93	1926.26
399.12	1893.49
399.32	1973.07
399.51	1874.77
399.70	2101.80
399.90	2050.31
400.09	2019.88
400.28	2073.71
400.47	2012.86
400.67	2083.08
400.86	1977.75
401.05	2003.50
401.24	2024.56
401.44	2062.01
401.63	2108.82
401.82	2244.57
402.01	2078.40
402.21	2129.89
402.40	2157.97
402.59	2277.34
402.78	2258.62
402.97	2211.81
403.17	2218.83
403.36	2282.02
403.55	2354.58
403.74	2394.37
403.93	2305.43
404.13	2469.27
404.32	2464.58
404.51	2424.80
404.70	2462.24
404.89	2359.26
405.09	2579.27
405.28	2558.21
405.47	2492.67
405.66	2532.46
405.85	2567.57
406.05	2532.46
406.24	2349.90
406.43	2586.29
406.62	2572.25
406.81	2656.51
407.00	2640.12
407.20	2693.96
407.39	2661.19
407.58	2651.83
407.77	2663.53
407.96	2705.66
408.15	2740.77
408.34	2658.85
408.54	2768.85
408.73	2806.30
408.92	2785.24
409.11	2878.86
409.30	2850.77
409.49	2768.85
409.68	2876.52
409.87	2909.29
410.07	3061.42
410.26	3040.36
410.45	2988.86
410.64	3021.63
410.83	3129.30
411.02	3068.44
411.21	3119.93
411.40	3173.77
411.59	3229.94
411.78	3236.96
411.98	3248.66
412.17	3253.34
412.36	3318.88
412.55	3311.86
412.74	3356.33
412.93	3393.78
413.12	3449.95
413.31	3597.40
413.50	3398.46
413.69	3471.01
413.88	3653.58
414.07	3655.92
414.26	3529.53
414.45	3602.08
414.64	3765.92
414.83	3613.79
415.02	3889.97
415.22	3768.26
415.41	3896.99
415.60	3948.48
415.79	3913.38
415.98	3983.59
416.17	3913.38
416.36	3946.14
416.55	4084.23
416.74	4131.05
416.93	4025.72
417.12	4159.13
417.31	4236.37
417.50	4238.71
417.69	4393.19
417.88	4266.80
418.07	4332.33
418.26	4409.57
418.45	4372.12
418.64	4500.85
418.83	4442.34
419.02	4521.92
419.21	4404.89
419.39	4521.92
419.58	4561.70
419.77	4550.00
419.96	4559.36
420.15	4685.75
420.34	4531.28
420.53	4615.54
420.72	4706.82
420.91	4725.54
421.10	4660.01
421.29	4798.10
421.48	4755.97
421.67	4741.93
421.86	4943.21
422.05	4854.27
422.24	4819.16
422.43	4987.68
422.61	4961.94
422.80	4933.85
422.99	4947.89
423.18	4877.68
423.37	5130.45
423.56	5020.45
423.75	4870.65
423.94	4748.95
424.13	4540.64
424.32	4821.50
424.50	4987.68
424.69	5231.10
424.88	5132.79
425.07	5020.45
425.26	4868.31
425.45	4929.17
425.64	5008.75
425.83	4990.02
426.01	5135.14
426.20	5020.45
426.39	4966.62
426.58	5008.75
426.77	5041.51
426.96	5022.79
427.15	5210.03
427.33	5343.44
427.52	5275.57
427.71	5338.76
427.90	5289.61
428.09	5296.63
428.28	5322.38
428.46	5394.93
428.65	5322.38
428.84	5448.77
429.03	5504.94
429.22	5305.99
429.40	5565.79
429.59	5671.12
429.78	5315.36
429.97	5303.65
430.16	5465.15
430.34	5551.75
430.53	5827.93
430.72	5659.42
430.91	5715.59
431.10	5657.07
431.28	5678.14
431.47	5727.29
431.66	5816.23
431.85	5687.50
432.03	5977.73
432.22	5944.96
432.41	5956.66
432.60	5994.11
432.79	5942.62
432.97	6061.99
433.16	6012.84
433.35	5898.15
433.54	6080.71
433.72	6218.80
433.91	6249.23
434.10	6171.99
434.28	6200.08
434.47	6125.18
434.66	6349.87
434.85	6333.49
435.03	6420.09
435.22	6319.45
435.41	6588.61
435.59	6441.15
435.78	6459.88
435.97	6427.11
436.16	6450.52
436.34	6466.90
436.53	6654.14
436.72	6640.10
436.90	6682.23
437.09	6539.46
437.28	6726.70
437.46	6595.63
437.65	6686.91
437.84	6745.42
438.02	6806.28
438.21	6834.36
438.40	6621.38
438.58	6981.82
438.77	7047.35
438.96	7077.78
439.14	7054.37
439.33	7316.51
439.52	7351.62
439.70	7293.11
439.89	7391.41
440.08	7494.40
440.26	7197.15
440.45	7262.68
440.63	7599.72
440.82	7470.99
441.01	7672.28
441.19	7637.17
441.38	7698.02
441.57	7857.18
441.75	7922.71
441.94	8023.36
442.12	7946.12
442.31	8042.08
442.50	8081.87
442.68	7941.44
442.87	8107.62
443.05	8255.07
443.24	8325.29
443.43	8224.64
443.61	8379.12
443.80	8498.49
443.98	8093.57
444.17	8030.38
444.35	8367.42
444.54	8376.78
444.73	8238.69
444.91	8311.24
445.10	8355.71
445.28	8428.27
445.47	8124.00
445.65	8432.95
445.84	8486.78
446.02	8505.51
446.21	8498.49
446.39	8273.79
446.58	8336.99
446.77	8496.14
446.95	8334.65
447.14	8376.78
447.32	8472.74
447.51	8355.71
447.69	8573.38
447.88	8561.68
448.06	8568.70
448.25	8416.57
448.43	8585.08
448.62	8685.73
448.80	8418.91
448.99	8659.98
449.17	8744.24
449.36	8594.45
449.54	9011.06
449.73	8938.51
449.91	9048.51
450.10	9142.13
450.28	9188.94
450.46	9125.75
450.65	8924.46
450.83	9034.47
451.02	9128.09
451.20	9125.75
451.39	9322.35
451.57	9207.67
451.76	9184.26
451.94	9345.76
452.13	9420.66
452.31	9441.72
452.49	9132.77
452.68	9348.10
452.86	9291.93
453.05	9277.88
453.23	9317.67
453.42	9408.95
453.60	9530.66
453.78	9547.05
453.97	9317.67
454.15	9617.26
454.34	9415.98
454.52	9558.75
454.70	9851.31
454.89	9696.84
455.07	9692.16
455.26	9923.87
455.44	9933.23
455.62	9790.46
455.81	9895.78
455.99	10031.54
456.17	10115.80
456.36	10071.33
456.54	10092.39
456.73	10160.27
456.91	10504.32
457.09	10501.98
457.28	10494.96
457.46	10422.41
457.64	10441.13
457.83	10494.96
458.01	10478.58
458.19	10588.58
458.38	10759.44
458.56	10644.76
458.74	10665.82
458.93	10644.76
459.11	10569.86
459.29	10640.08
459.48	10766.46
459.66	10956.05
459.84	10953.71
460.03	11047.33
460.21	11089.46
460.39	10846.04
460.57	10902.22
460.76	11250.96
460.94	11288.40
461.12	11194.78
461.31	11096.48
461.49	11300.11
461.67	11096.48
461.85	11372.66
462.04	11143.29
462.22	11805.66
462.40	11651.19
462.59	11517.78
462.77	11445.22
462.95	11517.78
463.13	11662.89
463.32	11616.08
463.50	11674.59
463.68	11758.85
463.86	11782.26
464.05	11623.10
464.23	11733.11
464.41	11990.56
464.59	11843.11
464.78	12311.22
464.96	11964.82
465.14	11981.20
465.32	12084.19
465.50	12329.94
465.69	12095.89
465.87	12121.63
466.05	12259.73
466.23	11999.93
466.41	12423.56
466.60	12594.42
466.78	12177.81
466.96	12423.56
467.14	12152.06
467.32	12512.50
467.51	12573.36
467.69	12250.36
467.87	12475.06
468.05	12669.32
468.23	12578.04
468.41	12475.06
468.60	12549.95
468.78	12755.92
468.96	12678.68
469.14	12865.92
469.32	13200.62
469.50	12685.70
469.69	13092.96
469.87	13151.47
470.05	12936.14
470.23	13060.19
470.41	13085.94
470.59	13319.99
470.77	13298.92
470.95	13476.80
471.14	13668.73
471.32	13081.25
471.50	13621.92
471.68	13628.94
471.86	13589.15
472.04	13888.74
472.22	14211.73
472.40	13984.70
472.58	13905.12
472.77	13870.01
472.95	14260.88
473.13	14761.76
473.31	13923.85
473.49	14260.88
473.67	14040.87
473.85	14588.56
474.03	14621.33
474.21	14691.54
474.39	14626.01
474.57	14710.27
474.75	14841.34
474.93	14977.09
475.12	14977.09
475.30	15154.97
475.48	15035.60
475.66	15428.81
475.84	15302.42
476.02	15410.09
476.20	15426.47
476.38	15843.09
476.56	16011.60
476.74	15948.41
476.92	16058.42
477.10	15861.81
477.28	16126.29
477.46	16496.10
477.64	16482.05
477.82	16673.98
478.00	17266.13
478.18	17034.42
478.36	17043.78
478.54	16947.82
478.72	17224.00
478.90	17551.68
479.08	17509.55
479.26	17923.82
479.44	17748.28
479.62	17872.33
479.80	18129.79
479.98	18146.17
480.16	18902.17
480.34	18707.90
480.52	18518.32
480.70	18806.20
480.88	18277.24
481.06	18780.46
481.24	18862.38
481.41	19164.31
481.59	19599.65
481.77	19833.70
481.95	19836.04
482.13	19826.68
482.31	19674.54
482.49	20231.59
482.67	20315.85
482.85	20659.91
483.03	20933.75
483.21	21001.63
483.39	21179.51
483.57	21142.06
483.74	21270.79
483.92	21745.92
484.10	21238.02
484.28	22061.89
484.46	22256.15
484.64	22544.04
484.82	22038.48
485.00	22258.49
485.18	22981.72
485.35	23384.29
485.53	22848.31
485.71	23283.65
485.89	23648.77
486.07	23452.17
486.25	23501.32
486.43	23800.91
486.61	23999.85
486.78	24161.35
486.96	24212.84
487.14	24624.78
487.32	24666.91
487.50	25039.05
487.68	24800.32
487.85	25195.87
488.03	25434.60
488.21	25881.64
488.39	25975.27
488.57	26403.58
488.75	26012.71
488.92	26452.73
489.10	26789.77
489.28	26845.94
489.46	27241.50
489.64	27353.84
489.81	27456.82
489.99	27864.08
490.17	27885.14
490.35	28107.49
490.53	28004.51
490.70	28657.52
490.88	28283.03
491.06	28662.20
491.24	28914.98
491.41	29163.08
491.59	29338.62
491.77	29675.65
491.95	29661.61
492.13	30176.53
492.30	30096.95
492.48	30464.41
492.66	30419.94
492.84	30749.96
493.01	30976.99
493.19	30623.57
493.37	31220.41
493.54	31349.14
493.72	31641.70
493.90	31833.63
494.08	31519.99
494.25	31920.23
494.43	32121.51
494.61	32669.20
494.79	32858.78
494.96	32800.27
495.14	32975.81
495.32	33422.85
495.49	33558.60
495.67	33427.53
495.85	34103.95
496.02	33837.12
496.20	34312.25
496.38	34440.98
496.55	34326.30
496.73	34792.06
496.91	34604.82
497.09	35002.71
497.26	35117.40
497.44	34944.20
497.62	35061.22
497.79	36102.76
497.97	35676.79
498.14	36135.53
498.32	36385.97
498.50	36280.64
498.67	37036.64
498.85	36753.43
499.03	36699.60
499.20	36872.80
499.38	37160.69
499.56	37233.24
499.73	37191.11
499.91	37404.10
500.08	37743.48
500.26	37699.01
500.44	37589.00
500.61	38038.39
500.79	37886.25
500.97	38906.73
501.14	38752.25
501.32	38965.24
501.49	39026.09
501.67	38494.79
501.84	39084.61
502.02	38597.77
502.20	39384.19
502.37	39672.08
502.55	39845.28
502.72	39761.02
502.90	39695.49
503.07	39622.93
503.25	39955.29
503.43	39765.70
503.60	40201.04
503.78	40168.27
503.95	40465.52
504.13	40538.08
504.30	40453.82
504.48	40685.53
504.65	41104.49
504.83	41223.86
505.01	41345.56
505.18	41287.05
505.36	41640.47
505.53	41397.06
505.71	41668.56
505.88	41855.80
506.06	41792.61
506.23	42218.58
506.41	41769.20
506.58	42398.80
506.76	42195.18
506.93	42693.71
507.11	42457.32
507.28	42937.13
507.46	42712.44
507.63	43267.14
507.81	42880.95
507.98	43126.71
508.16	43409.92
508.33	43311.61
508.50	43643.97
508.68	43913.13
508.85	44201.02
509.03	43955.26
509.20	44341.45
509.38	44762.75
509.55	44732.32
509.73	44776.79
509.90	45010.84
510.08	44624.65
510.25	44299.32
510.42	44882.11
510.60	45429.80
510.77	44907.86
510.95	45991.53
511.12	45422.78
511.30	45443.84
511.47	45422.78
511.64	45773.86
511.82	46239.62
511.99	45933.01
512.17	46033.66
512.34	46274.73
512.51	46450.27
512.69	46637.51
512.86	46780.29
513.04	46988.60
513.21	46958.17
513.38	46604.75
513.56	47126.69
513.73	46862.21
513.90	47334.99
514.08	47047.11
514.25	47662.67
514.43	47468.40
514.60	47711.82
514.77	47901.40
514.95	47990.34
515.12	47922.47
515.29	47585.43
515.47	47957.58
515.64	48100.35
515.81	48051.20
515.99	48516.96
516.16	48458.45
516.33	48807.19
516.51	48884.43
516.68	48748.68
516.85	48779.10
517.03	49125.50
517.20	49177.00
517.37	49162.95
517.54	49181.68
517.72	49565.52
517.89	49165.29
518.06	49345.51
518.24	49394.67
518.41	49478.92
518.58	49340.83
518.75	49181.68
518.93	49956.39
519.10	49593.61
519.27	49932.99
519.45	50202.15
519.62	50216.19
519.79	50103.85
519.96	49825.32
520.14	50309.82
520.31	50277.05
520.48	50855.16
520.65	50279.39
520.83	50808.35
521.00	50574.30
521.17	50548.55
521.34	50787.28
521.52	51056.45
521.69	50883.25
521.86	50892.61
522.03	51526.89
522.20	51224.96
522.38	51777.33
522.55	51435.61
522.72	51372.42
522.89	51529.23
523.07	51653.28
523.24	51714.14
523.41	51704.77
523.58	51763.29
523.75	52058.20
523.92	52067.56
524.10	51957.55
524.27	52032.45
524.44	52184.58
524.61	52257.14
524.78	52325.02
524.96	52339.06
525.13	52545.03
525.30	52753.33
525.47	52636.31
525.64	52594.18
525.81	52779.08
525.98	52734.61
526.16	52598.86
526.33	53043.56
526.50	53312.72
526.67	53076.33
526.84	53020.16
527.01	53073.99
527.18	53155.91
527.36	53345.49
527.53	53057.60
527.70	53602.95
527.87	53652.10
528.04	53364.21
528.21	53427.41
528.38	53642.74
528.55	53628.69
528.72	53528.05
528.89	53673.16
529.07	53392.30
529.24	53502.31
529.41	53719.98
529.58	54101.48
529.75	53958.71
529.92	53811.26
530.09	54085.10
530.26	53975.09
530.43	54110.85
530.60	53918.92
530.77	53911.90
530.94	54335.54
531.11	54216.17
531.28	54445.54
531.46	54225.53
531.63	54501.71
531.80	54424.48
531.97	54611.72
532.14	54677.25
532.31	54808.32
532.48	54834.07
532.65	54876.20
532.82	54403.41
532.99	54712.36
533.16	54756.83
533.33	55157.06
533.50	54777.90
533.67	54742.79
533.84	54827.05
534.01	54892.58
534.18	55136.00
534.35	55531.55
534.52	55145.36
534.69	55278.77
534.86	55426.23
535.03	55449.63
535.20	55473.04
535.37	55316.22
535.54	55405.16
535.71	55337.29
535.88	55629.85
536.05	55496.44
536.22	55636.87
536.38	55501.12
536.55	55990.30
536.72	55856.88
536.89	55508.14
537.06	55681.34
537.23	55569.00
537.40	55868.59
537.57	55789.01
537.74	55632.19
537.91	56147.11
538.08	56074.55
538.25	56102.64
538.42	56222.01
538.59	56200.94
538.75	55997.32
538.92	56161.15
539.09	56292.22
539.26	56200.94
539.43	56399.89
539.60	56303.93
539.77	56315.63
539.94	56542.66
540.11	56437.34
540.28	56554.36
540.44	56451.38
540.61	56575.43
540.78	56570.75
540.95	56772.03
541.12	56449.04
541.29	56474.79
541.46	56678.41
541.62	56818.84
541.79	56769.69
541.96	56343.72
542.13	56615.22
542.30	56748.63
542.47	56795.44
542.63	56994.39
542.80	57036.51
542.97	57008.43
543.14	57258.87
543.31	57195.67
543.48	57308.02
543.64	57836.98
543.81	57413.34
543.98	57460.15
544.15	57389.94
544.32	57464.83
544.48	57790.17
544.65	57506.96
544.82	57425.04
544.99	57495.26
545.16	57694.21
545.32	57668.46
545.49	57799.53
545.66	57907.19
545.83	57750.38
546.00	57907.19
546.16	57954.00
546.33	57647.39
546.50	57443.77
546.67	57801.87
546.83	57748.04
547.00	57806.55
547.17	57829.96
547.34	57989.11
547.50	58122.52
547.67	58300.40
547.84	58206.78
548.00	58309.77
548.17	58436.16
548.34	58225.51
548.51	58267.64
548.67	58347.21
548.84	58124.86
549.01	58171.67
549.18	58394.03
549.34	58321.47
549.51	58302.74
549.68	58468.92
549.84	58461.90
550.01	58504.03
550.18	58372.96
550.34	58548.50
550.51	58450.20
550.68	58630.42
550.84	58511.05
551.01	58791.92
551.18	58724.04
551.34	58747.45
551.51	58618.72
551.68	58663.19
551.84	58588.29
552.01	58508.71
552.18	58665.53
552.34	58740.42
552.51	58794.26
552.68	58705.32
552.84	58885.54
553.01	58960.44
553.18	58761.49
553.34	58857.45
553.51	58946.39
553.67	58848.09
553.84	59105.55
554.01	58892.56
554.17	59077.46
554.34	59047.04
554.51	59105.55
554.67	59070.44
554.84	59164.06
555.00	59035.33
555.17	58906.60
555.33	59133.63
555.50	59224.92
555.67	59245.98
555.83	59154.70
556.00	59288.11
556.16	59435.56
556.33	59297.47
556.50	59238.96
556.66	59426.20
556.83	59276.41
556.99	59578.34
557.16	59772.60
557.32	59547.91
557.49	59625.15
557.65	59398.12
557.82	59316.20
557.98	59576.00
558.15	59632.17
558.32	59419.18
558.48	59400.46
558.65	59662.60
558.81	59681.32
558.98	59709.41
559.14	59873.24
559.31	59693.02
559.47	59564.29
559.64	59910.69
559.80	59924.74
559.97	59824.09
560.13	59798.35
560.30	59784.30
560.46	59793.67
560.63	59877.93
560.79	59957.50
560.96	59849.84
561.12	60001.97
561.29	59906.01
561.45	60065.17
561.61	59948.14
561.78	60039.42
561.94	59870.90
562.11	59964.52
562.27	59948.14
562.44	60172.83
562.60	60137.72
562.77	59891.97
562.93	60116.66
563.10	60023.04
563.26	60046.44
563.42	60149.43
563.59	60378.80
563.75	60048.78
563.92	60100.28
564.08	60121.34
564.24	60289.86
564.41	60207.94
564.57	60247.73
564.74	60126.02
564.90	60100.28
565.07	60247.73
565.23	60238.37
565.39	60182.19
565.56	60224.32
565.72	60322.63
565.88	60271.14
566.05	60224.32
566.21	60126.02
566.38	60214.96
566.54	60481.78
566.70	60481.78
566.87	60657.32
567.03	60306.24
567.19	60654.98
567.36	60505.19
567.52	60479.44
567.68	60781.37
567.85	60467.74
568.01	60645.62
568.17	60519.23
568.34	60589.45
568.50	60570.72
568.66	60423.27
568.83	60416.25
568.99	60577.75
569.15	60523.91
569.32	60397.52
569.48	60626.90
569.64	60561.36
569.81	60512.21
569.97	60631.58
570.13	60640.94
570.30	60371.78
570.46	60800.10
570.62	60615.19
570.78	60453.70
570.95	60584.77
571.11	60921.80
571.27	60507.53
571.43	60605.83
571.60	60872.65
571.76	60580.09
571.92	60708.82
572.09	60645.62
572.25	60912.44
572.41	60650.30
572.57	60704.13
572.74	60858.61
572.90	60603.49
573.06	60807.12
573.22	60753.29
573.38	60584.77
573.55	60622.22
573.71	60825.84
573.87	60921.80
574.03	60769.67
574.20	60701.79
574.36	60753.29
574.52	60872.65
574.68	60837.54
574.84	61017.77
575.01	61043.51
575.17	60882.02
575.33	60711.16
575.49	60963.93
575.65	60947.55
575.82	60882.02
575.98	60804.78
576.14	61137.13
576.30	61034.15
576.46	60795.42
576.62	61024.79
576.79	60973.30
576.95	60594.13
577.11	60762.65
577.27	60870.31
577.43	60907.76
577.59	60760.31
577.75	60830.52
577.92	60795.42
578.08	60832.86
578.24	60907.76
578.40	61052.87
578.56	60949.89
578.72	60891.38
578.88	60973.30
579.04	61275.22
579.21	60912.44
579.37	61123.09
579.53	61006.06
579.69	60879.67
579.85	60914.78
580.01	60877.33
580.17	60776.69
580.33	61073.94
580.49	61193.31
580.65	61127.77
580.82	60952.23
580.98	61015.43
581.14	60814.14
581.30	61071.60
581.46	60846.91
581.62	61216.71
581.78	61106.71
581.94	61109.05
582.10	61024.79
582.26	60985.00
582.42	60968.61
582.58	61158.20
582.74	61027.13
582.90	61113.73
583.06	60842.23
583.22	61013.08
583.38	61118.41
583.54	61066.92
583.70	61113.73
583.86	61197.99
584.02	60975.64
584.18	61354.80
584.34	61216.71
584.50	60917.12
584.66	61123.09
584.82	60690.09
584.98	61366.51
585.14	61176.92
585.30	60832.86
585.46	61069.26
585.62	61153.52
585.78	61197.99
585.94	60956.91
586.10	61169.90
586.26	61181.60
586.42	61167.56
586.58	61205.01
586.74	61169.90
586.90	61041.17
587.06	61043.51
587.22	61247.14
587.38	61237.78
587.54	61279.91
587.70	61190.97
587.86	61179.26
588.02	61174.58
588.18	61240.12
588.34	60982.66
588.49	61195.65
