SpectraSuite Data File
++++++++++++++++++++++++++++++++++++
Date: Fri Oct 25 10:44:17 EDT 2013
User: price-jones
Dark Spectrum Present: No
Reference Spectrum Present: No
Number of Sampled Component Spectra: 1
Spectrometers: USB2+H05261
Integration Time (usec): 100000 (USB2+H05261)
Spectra Averaged: 1 (USB2+H05261)
Boxcar Smoothing: 0 (USB2+H05261)
Correct for Electrical Dark: No (USB2+H05261)
Strobe/Lamp Enabled: No (USB2+H05261)
Correct for Detector Non-linearity: No (USB2+H05261)
Correct for Stray Light: No (USB2+H05261)
Number of Pixels in Processed Spectrum: 2048
>>>>>Begin Processed Spectral Data<<<<<
365.73	138.09
365.92	138.09
366.12	138.09
366.32	105.32
366.52	30.43
366.72	25.75
366.91	18.72
367.11	39.79
367.31	39.79
367.51	42.13
367.70	0.00
367.90	37.45
368.10	63.19
368.30	21.06
368.49	23.41
368.69	18.72
368.89	100.64
369.09	39.79
369.28	56.17
369.48	100.64
369.68	149.79
369.87	140.43
370.07	91.28
370.27	215.33
370.47	238.73
370.66	418.96
370.86	444.70
371.06	421.30
371.25	521.94
371.45	475.13
371.65	463.43
371.84	395.55
372.04	402.57
372.24	472.79
372.44	528.96
372.63	608.54
372.83	524.28
373.03	535.98
373.22	442.36
373.42	531.30
373.62	521.94
373.81	564.07
374.01	582.79
374.21	547.69
374.40	507.90
374.60	613.22
374.79	615.56
374.99	634.29
375.19	613.22
375.38	585.13
375.58	594.50
375.78	653.01
375.97	613.22
376.17	660.03
376.37	587.47
376.56	627.26
376.76	645.99
376.95	608.54
377.15	697.48
377.35	676.41
377.54	610.88
377.74	596.84
377.93	671.73
378.13	622.58
378.33	627.26
378.52	662.37
378.72	603.86
378.91	641.31
379.11	622.58
379.31	592.16
379.50	589.82
379.70	650.67
379.89	737.27
380.09	688.12
380.28	690.46
380.48	765.36
380.68	692.80
380.87	809.83
381.07	716.20
381.26	767.70
381.46	653.01
381.65	648.33
381.85	650.67
382.04	746.63
382.24	699.82
382.43	702.16
382.63	716.20
382.83	774.72
383.02	753.65
383.22	823.87
383.41	770.04
383.61	713.86
383.80	809.83
384.00	821.53
384.19	774.72
384.39	812.17
384.58	770.04
384.78	795.78
384.97	912.81
385.17	807.48
385.36	819.19
385.56	741.95
385.75	830.89
385.95	858.98
386.14	821.53
386.34	809.83
386.53	805.14
386.72	786.42
386.92	861.32
387.11	826.21
387.31	842.59
387.50	866.00
387.70	807.48
387.89	894.08
388.09	891.74
388.28	844.93
388.48	910.47
388.67	868.34
388.86	952.60
389.06	894.08
389.25	966.64
389.45	1018.13
389.64	966.64
389.84	945.58
390.03	983.02
390.22	1046.22
390.42	987.71
390.61	1006.43
390.81	994.73
391.00	983.02
391.19	1062.60
391.39	1022.81
391.58	1078.99
391.78	1048.56
391.97	1029.84
392.16	1142.18
392.36	1179.63
392.55	1043.88
392.75	971.32
392.94	940.90
393.13	1057.92
393.33	924.51
393.52	997.07
393.71	966.64
393.91	1086.01
394.10	1097.71
394.29	1172.61
394.49	1226.44
394.68	1238.14
394.88	1217.08
395.07	1263.89
395.26	1268.57
395.46	1186.65
395.65	1214.74
395.84	1177.29
396.04	1259.21
396.23	1156.22
396.42	1015.79
396.62	1235.80
396.81	1221.76
397.00	1207.72
397.19	1301.34
397.39	1404.32
397.58	1413.68
397.77	1313.04
397.97	1359.85
398.16	1479.22
398.35	1511.99
398.55	1416.02
398.74	1570.50
398.93	1579.86
399.12	1437.09
399.32	1465.18
399.51	1504.96
399.70	1535.39
399.90	1509.65
400.09	1584.54
400.28	1612.63
400.47	1614.97
400.67	1699.23
400.86	1584.54
401.05	1748.38
401.24	1671.14
401.44	1720.29
401.63	1760.08
401.82	1760.08
402.01	1699.23
402.21	1694.55
402.40	1832.64
402.59	1757.74
402.78	1706.25
402.97	1685.19
403.17	1837.32
403.36	1746.04
403.55	1907.54
403.74	1984.77
403.93	1722.63
404.13	1891.15
404.32	1856.04
404.51	1839.66
404.70	1844.34
404.89	1877.11
405.09	1975.41
405.28	1956.69
405.47	1961.37
405.66	1980.09
405.85	1991.80
406.05	1870.09
406.24	2010.52
406.43	2010.52
406.62	2054.99
406.81	2153.29
407.00	1987.11
407.20	2001.16
407.39	2076.06
407.58	2057.33
407.77	2228.19
407.96	2195.42
408.15	2092.44
408.34	2179.04
408.54	2289.04
408.73	2368.62
408.92	2363.94
409.11	2277.34
409.30	2298.41
409.49	2232.87
409.68	2275.00
409.87	2246.91
410.07	2363.94
410.26	2424.80
410.45	2361.60
410.64	2436.50
410.83	2530.12
411.02	2583.95
411.21	2448.20
411.40	2665.87
411.59	2658.85
411.78	2579.27
411.98	2532.46
412.17	2597.99
412.36	2658.85
412.55	2792.26
412.74	2787.58
412.93	2733.75
413.12	2677.57
413.31	2724.38
413.50	2771.19
413.69	2864.82
413.88	2794.60
414.07	2920.99
414.26	2932.69
414.45	3000.57
414.64	2944.39
414.83	2904.60
415.02	3089.51
415.22	3124.62
415.41	3105.89
415.60	3009.93
415.79	3169.09
415.98	3218.24
416.17	3211.22
416.36	3229.94
416.55	3311.86
416.74	3215.90
416.93	3199.51
417.12	3239.30
417.31	3309.52
417.50	3536.55
417.69	3494.42
417.88	3370.37
418.07	3447.61
418.26	3382.07
418.45	3440.59
418.64	3520.17
418.83	3630.17
419.02	3536.55
419.21	3632.51
419.39	3623.15
419.58	3428.88
419.77	3566.98
419.96	3669.96
420.15	3730.81
420.34	3597.40
420.53	3679.32
420.72	3878.27
420.91	3749.54
421.10	3763.58
421.29	3850.18
421.48	3815.07
421.67	3829.12
421.86	3744.86
422.05	3786.99
422.24	3843.16
422.43	3719.11
422.61	3840.82
422.80	3829.12
422.99	3817.41
423.18	3810.39
423.37	4023.38
423.56	4102.96
423.75	3768.26
423.94	3901.67
424.13	3672.30
424.32	3735.50
424.50	3969.55
424.69	3896.99
424.88	3934.44
425.07	3794.01
425.26	3737.84
425.45	3747.20
425.64	3866.56
425.83	3892.31
426.01	4039.76
426.20	4037.42
426.39	4004.66
426.58	3992.95
426.77	3929.76
426.96	4032.74
427.15	3953.16
427.33	4133.39
427.52	4028.06
427.71	4051.47
427.90	4196.58
428.09	4121.68
428.28	4138.07
428.46	4156.79
428.65	4107.64
428.84	4189.56
429.03	4241.05
429.22	4016.36
429.40	4107.64
429.59	4030.40
429.78	3985.93
429.97	3960.19
430.16	4035.08
430.34	4044.45
430.53	4168.49
430.72	4142.75
430.91	4318.29
431.10	4297.22
431.28	4526.60
431.47	4629.58
431.66	4550.00
431.85	4470.42
432.03	4592.13
432.22	4683.41
432.41	4552.34
432.60	4718.52
432.79	4566.39
432.97	4652.98
433.16	4723.20
433.35	4734.90
433.54	4744.27
433.72	4645.96
433.91	4699.80
434.10	4685.75
434.28	4751.29
434.47	4795.76
434.66	4910.44
434.85	5032.15
435.03	4943.21
435.22	4961.94
435.41	4968.96
435.59	5076.62
435.78	5118.75
435.97	5165.56
436.16	4997.04
436.34	5060.24
436.53	5032.15
436.72	5153.86
436.90	5156.20
437.09	5284.93
437.28	4978.32
437.46	5114.07
437.65	5029.81
437.84	5203.01
438.02	5348.12
438.21	5224.08
438.40	5116.41
438.58	5348.12
438.77	5446.43
438.96	5451.11
439.14	5427.70
439.33	5724.95
439.52	5600.90
439.70	5762.40
439.89	5647.71
440.08	5638.35
440.26	5788.14
440.45	5664.10
440.63	5708.57
440.82	5839.64
441.01	5895.81
441.19	6019.86
441.38	6054.97
441.57	6293.70
441.75	6122.84
441.94	6267.95
442.12	6200.08
442.31	6363.92
442.50	6314.77
442.68	6459.88
442.87	6361.58
443.05	6300.72
443.24	6434.13
443.43	6614.35
443.61	6473.92
443.80	6614.35
443.98	6424.77
444.17	6169.65
444.35	6429.45
444.54	6644.78
444.73	6387.32
444.91	6494.99
445.10	6396.68
445.28	6394.34
445.47	6497.33
445.65	6298.38
445.84	6469.24
446.02	6658.82
446.21	6539.46
446.39	6518.39
446.58	6815.64
446.77	6642.44
446.95	6717.34
447.14	6832.02
447.32	6853.09
447.51	6633.08
447.69	6656.48
447.88	6726.70
448.06	6658.82
448.25	6766.49
448.43	6754.79
448.62	6595.63
448.80	6656.48
448.99	6719.68
449.17	6836.70
449.36	6846.07
449.54	6920.96
449.73	7052.03
449.91	7012.24
450.10	7049.69
450.28	7138.63
450.46	7150.34
450.65	7403.11
450.83	7162.04
451.02	7166.72
451.20	7204.17
451.39	7300.13
451.57	7272.04
451.76	7159.70
451.94	7206.51
452.13	7316.51
452.31	7126.93
452.49	6956.07
452.68	7239.28
452.86	7178.42
453.05	7396.09
453.23	7293.11
453.42	7164.38
453.60	7337.58
453.78	7260.34
453.97	7101.19
454.15	7466.31
454.34	7445.24
454.52	7527.16
454.70	7613.76
454.89	7454.61
455.07	7524.82
455.26	7679.30
455.44	7702.70
455.62	7868.88
455.81	7801.01
455.99	7803.35
456.17	7857.18
456.36	7826.75
456.54	8018.68
456.73	7981.23
456.91	8074.85
457.09	8189.53
457.28	8262.09
457.46	7847.82
457.64	8114.64
457.83	8077.19
458.01	7976.55
458.19	8222.30
458.38	8093.57
458.56	8140.38
458.74	8439.97
458.93	8329.97
459.11	8245.71
459.29	8482.10
459.48	8236.35
459.66	8226.98
459.84	8383.80
460.03	8554.66
460.21	8454.02
460.39	8402.52
460.57	8484.44
460.76	8437.63
460.94	8657.64
461.12	8568.70
461.31	8643.60
461.49	8578.06
461.67	8451.67
461.85	8842.54
462.04	8980.64
462.22	9001.70
462.40	8975.95
462.59	8720.84
462.77	8767.65
462.95	8884.67
463.13	8854.25
463.32	8945.53
463.50	8929.14
463.68	9006.38
463.86	8950.21
464.05	8882.33
464.23	8980.64
464.41	9109.36
464.59	8774.67
464.78	9240.44
464.96	9076.60
465.14	9135.11
465.32	9240.44
465.50	9296.61
465.69	9298.95
465.87	9345.76
466.05	9160.86
466.23	9219.37
466.41	9142.13
466.60	9423.00
466.78	9156.18
466.96	9329.38
467.14	9217.03
467.32	9303.63
467.51	9210.01
467.69	9317.67
467.87	9312.99
468.05	9544.70
468.23	9425.34
468.41	9371.50
468.60	9469.81
468.78	9591.52
468.96	9408.95
469.14	9511.94
469.32	9703.86
469.50	9572.79
469.69	9738.97
469.87	9984.73
470.05	9654.71
470.23	9870.04
470.41	9816.21
470.59	9914.51
470.77	9886.42
470.95	10010.47
471.14	9909.83
471.32	9844.29
471.50	10331.12
471.68	10242.18
471.86	10216.44
472.04	10272.61
472.22	10548.79
472.40	10291.34
472.58	10403.68
472.77	10333.47
472.95	10553.48
473.13	10785.19
473.31	10590.92
473.49	10569.86
473.67	10525.39
473.85	10686.89
474.03	10853.06
474.21	10902.22
474.39	11028.60
474.57	10925.62
474.75	10970.09
474.93	11108.18
475.12	11105.84
475.30	11220.53
475.48	11009.88
475.66	11314.15
475.84	11173.72
476.02	11286.06
476.20	11367.98
476.38	11688.64
476.56	11850.13
476.74	11688.64
476.92	11812.68
477.10	11971.84
477.28	12285.47
477.46	11999.93
477.64	12222.28
477.82	12444.63
478.00	12657.62
478.18	12559.31
478.36	12540.59
478.54	12491.44
478.72	12760.60
478.90	13247.43
479.08	13256.79
479.26	13172.54
479.44	13149.13
479.62	13177.22
479.80	13378.50
479.98	13219.35
480.16	13802.14
480.34	13703.84
480.52	13935.55
480.70	13687.45
480.88	13729.58
481.06	13841.93
481.24	13916.83
481.41	14518.34
481.59	14347.48
481.77	14462.17
481.95	14476.21
482.13	14555.79
482.31	14427.06
482.49	15084.75
482.67	14892.83
482.85	14768.78
483.03	15192.42
483.21	15084.75
483.39	15538.82
483.57	15349.23
483.74	15421.79
483.92	15541.16
484.10	15466.26
484.28	15716.70
484.46	16170.76
484.64	16074.80
484.82	16004.58
485.00	16343.96
485.18	16318.22
485.35	16554.61
485.53	16166.08
485.71	16250.34
485.89	16545.25
486.07	16367.37
486.25	16472.69
486.43	16486.73
486.61	17151.45
486.78	17383.16
486.96	17647.64
487.14	17626.57
487.32	17572.74
487.50	18068.94
487.68	17881.69
487.85	18441.08
488.03	18218.73
488.21	18434.06
488.39	18359.16
488.57	18871.74
488.75	18796.84
488.92	19091.75
489.10	19269.63
489.28	19417.08
489.46	19412.40
489.64	19620.71
489.81	20187.12
489.99	20315.85
490.17	20166.06
490.35	20063.07
490.53	20322.87
490.70	20730.12
490.88	20608.42
491.06	20512.46
491.24	20638.84
491.41	20734.81
491.59	20854.17
491.77	20582.67
491.95	20837.79
492.13	21298.88
492.30	21535.27
492.48	21514.20
492.66	21565.70
492.84	21991.67
493.01	22019.76
493.19	22043.17
493.37	22195.30
493.54	22125.08
493.72	22511.27
493.90	22443.40
494.08	22857.67
494.25	23119.81
494.43	23222.80
494.61	23501.32
494.79	23316.42
494.96	23353.87
495.14	23590.26
495.32	23681.54
495.49	23707.29
495.67	23981.13
495.85	23941.34
496.02	24135.60
496.20	24292.42
496.38	24346.25
496.55	24666.91
496.73	24964.15
496.91	24889.26
497.09	25055.43
497.26	25036.71
497.44	25118.63
497.62	25142.03
497.79	25179.48
497.97	24884.58
498.14	25310.55
498.32	25741.21
498.50	25273.10
498.67	26040.80
498.85	25900.37
499.03	26455.08
499.20	26277.19
499.38	26024.42
499.56	26579.12
499.73	26490.18
499.91	26118.04
500.08	26768.71
500.26	26443.37
500.44	26700.83
500.61	26604.87
500.79	26684.45
500.97	26850.63
501.14	27227.45
501.32	27035.53
501.49	27051.91
501.67	26902.12
501.84	27070.64
502.02	27421.72
502.20	27796.20
502.37	27915.57
502.55	27751.73
502.72	27690.88
502.90	28233.88
503.07	28156.64
503.25	28196.43
503.43	27704.92
503.60	27957.70
503.78	28250.27
503.95	27992.81
504.13	28624.75
504.30	28615.39
504.48	28552.20
504.65	29261.38
504.83	28905.62
505.01	29055.41
505.18	28830.72
505.36	29340.96
505.53	29635.86
505.71	29486.07
505.88	29926.09
506.06	29539.90
506.23	29902.68
506.41	29366.70
506.58	29888.64
506.76	30216.32
506.93	30022.05
507.11	30279.51
507.28	29949.50
507.46	29867.58
507.63	30611.87
507.81	30118.01
507.98	30078.22
508.16	30588.46
508.33	30944.22
508.50	30831.88
508.68	31311.69
508.85	31342.11
509.03	30806.13
509.20	31098.70
509.38	31185.30
509.55	31178.28
509.73	31353.82
509.90	31070.61
510.08	31229.77
510.25	31468.50
510.42	31569.15
510.60	31929.59
510.77	31716.60
510.95	31950.65
511.12	31857.03
511.30	32287.69
511.47	32371.95
511.64	32224.50
511.82	32266.63
511.99	32002.14
512.17	32051.30
512.34	32046.62
512.51	32849.42
512.69	32673.88
512.86	32835.38
513.04	32809.63
513.21	32985.17
513.38	32734.73
513.56	33113.90
513.73	33057.73
513.90	33261.35
514.08	33099.86
514.25	32940.70
514.43	32989.85
514.60	33326.89
514.77	33256.67
514.95	34010.32
515.12	33322.21
515.29	33900.32
515.47	34506.52
515.64	33940.11
515.81	33982.24
515.99	34106.29
516.16	33766.91
516.33	33652.22
516.51	33804.36
516.68	33184.12
516.85	33301.14
517.03	33860.53
517.20	33640.52
517.37	34323.96
517.54	34352.04
517.72	34015.01
517.89	34075.86
518.06	33834.78
518.24	34314.59
518.41	34300.55
518.58	34527.58
518.75	34366.09
518.93	34796.74
519.10	34848.24
519.27	34890.37
519.45	34876.32
519.62	35358.47
519.79	35173.57
519.96	35611.25
520.14	35309.32
520.31	35154.85
520.48	35606.57
520.65	35847.64
520.83	36177.66
521.00	36187.02
521.17	36070.00
521.34	36341.50
521.52	35868.71
521.69	36074.68
521.86	36044.25
522.03	36329.80
522.20	35920.20
522.38	36503.00
522.55	36409.37
522.72	36594.28
522.89	36292.35
523.07	36912.59
523.24	36463.21
523.41	37095.15
523.58	37001.53
523.75	37298.78
523.92	37418.14
524.10	36835.35
524.27	37305.80
524.44	37490.70
524.61	37441.55
524.78	37427.51
524.96	37806.67
525.13	37418.14
525.30	37748.16
525.47	37626.45
525.64	37762.20
525.81	37638.15
525.98	37724.75
526.16	37656.88
526.33	37455.59
526.50	37315.16
526.67	37387.72
526.84	37500.06
527.01	37411.12
527.18	38022.00
527.36	38099.24
527.53	38256.06
527.70	38185.84
527.87	38473.73
528.04	38838.85
528.21	38333.29
528.38	38745.23
528.55	39093.97
528.72	38925.45
528.89	39077.58
529.07	38979.28
529.24	38417.55
529.41	38773.31
529.58	39014.39
529.75	38857.57
529.92	39096.31
530.09	38625.86
530.26	39112.69
530.43	39519.95
530.60	39393.56
530.77	39365.47
530.94	39423.98
531.11	39466.11
531.28	39597.18
531.46	39686.12
531.63	39524.63
531.80	39695.49
531.97	39533.99
532.14	39576.12
532.31	39643.99
532.48	39316.32
532.65	39498.88
532.82	39569.10
532.99	39957.63
533.16	39833.58
533.33	40224.45
533.50	40289.98
533.67	40329.77
533.84	39742.30
534.01	39899.11
534.18	40088.70
534.35	40165.93
534.52	39913.16
534.69	40545.10
534.86	40760.43
535.03	40512.33
535.20	41111.51
535.37	41024.91
535.54	41184.07
535.71	40968.74
535.88	40882.14
536.05	40645.74
536.22	40884.48
536.38	40474.88
536.55	40973.42
536.72	40868.09
536.89	40776.81
537.06	40905.54
537.23	41305.77
537.40	41055.34
537.57	41015.55
537.74	41223.86
537.91	41649.83
538.08	41053.00
538.25	40985.12
538.42	41511.74
538.59	41455.57
538.75	41127.89
538.92	41628.77
539.09	41497.70
539.26	41345.56
539.43	41411.10
539.60	41483.66
539.77	41212.15
539.94	41827.71
540.11	41043.63
540.28	42033.68
540.44	41544.51
540.61	42103.90
540.78	41383.01
540.95	41684.94
541.12	41537.49
541.29	41270.67
541.46	41464.93
541.62	42043.04
541.79	41806.65
541.96	41549.19
542.13	41869.84
542.30	42153.05
542.47	41914.31
542.63	42099.22
542.80	42087.51
542.97	42171.77
543.14	42852.87
543.31	42532.22
543.48	42492.43
543.64	43585.46
543.81	42855.21
543.98	43040.11
544.15	42742.86
544.32	43297.57
544.48	43393.53
544.65	43119.69
544.82	42899.68
544.99	42808.40
545.16	42838.83
545.32	43243.74
545.49	43559.71
545.66	43440.34
545.83	43601.84
546.00	43587.80
546.16	43311.61
546.33	43061.18
546.50	42813.08
546.67	43309.27
546.83	42841.17
547.00	43189.91
547.17	43239.06
547.34	43241.40
547.50	43070.54
547.67	43316.29
547.84	43606.52
548.00	44076.97
548.17	43859.30
548.34	43274.16
548.51	43800.79
548.67	44149.53
548.84	43681.42
549.01	43768.02
549.18	43768.02
549.34	44060.58
549.51	43983.35
549.68	44048.88
549.84	43988.03
550.01	44114.42
550.18	44079.31
550.34	44280.60
550.51	44121.44
550.68	44128.46
550.84	43723.55
551.01	43922.49
551.18	43943.56
551.34	44460.82
551.51	43943.56
551.68	44397.62
551.84	44512.31
552.01	44460.82
552.18	44076.97
552.34	44460.82
552.51	44041.86
552.68	44605.93
552.84	44690.19
553.01	44830.62
553.18	44524.01
553.34	44626.99
553.51	44137.82
553.67	44601.25
553.84	44479.54
554.01	44622.31
554.17	45244.90
554.34	45188.72
554.51	44460.82
554.67	44746.36
554.84	44772.11
555.00	44804.88
555.17	44519.33
555.33	44676.15
555.50	44437.41
555.67	44753.38
555.83	44619.97
556.00	44692.53
556.16	45401.71
556.33	45312.77
556.50	44938.29
556.66	45221.49
556.83	44729.98
556.99	45188.72
557.16	45195.74
557.32	45052.97
557.49	45373.63
557.65	44985.10
557.82	44830.62
557.98	45474.27
558.15	44994.46
558.32	44964.03
558.48	45067.02
558.65	45244.90
558.81	44945.31
558.98	45034.25
559.14	44907.86
559.31	44865.73
559.47	45155.96
559.64	45729.39
559.80	45549.17
559.97	45563.21
560.13	45354.90
560.30	45483.63
560.46	45776.20
560.63	45518.74
560.79	45785.56
560.96	45869.82
561.12	45570.23
561.29	45394.69
561.45	44992.12
561.61	45488.31
561.78	45654.49
561.94	45153.62
562.11	45434.48
562.27	45666.19
562.44	45659.17
562.60	45532.78
562.77	45745.77
562.93	45940.04
563.10	46012.59
563.26	45078.72
563.42	45783.22
563.59	45633.42
563.75	45670.87
563.92	45673.21
564.08	45881.52
564.24	45914.29
564.41	45806.62
564.57	45680.24
564.74	45565.55
564.90	45755.13
565.07	45993.87
565.23	45890.88
565.39	45647.47
565.56	46190.47
565.72	45315.11
565.88	46017.27
566.05	45429.80
566.21	45504.70
566.38	45610.02
566.54	45958.76
566.70	45909.61
566.87	46316.86
567.03	45619.38
567.19	46382.40
567.36	46052.38
567.52	45879.18
567.68	45780.88
567.85	45478.95
568.01	45883.86
568.17	46089.83
568.34	46073.45
568.50	45858.12
568.66	46101.53
568.83	45904.93
568.99	45352.56
569.15	45996.21
569.32	46120.26
569.48	45574.91
569.64	45841.73
569.81	46012.59
569.97	45963.44
570.13	46134.30
570.30	45769.18
570.46	45549.17
570.62	45579.59
570.78	45801.94
570.95	45563.21
571.11	46134.30
571.27	45811.31
571.43	46017.27
571.60	46358.99
571.76	45535.12
571.92	45970.46
572.09	46017.27
572.25	45652.15
572.41	46169.41
572.57	46127.28
572.74	46520.49
572.90	46223.24
573.06	46234.94
573.22	45645.13
573.38	46440.91
573.55	46045.36
573.71	46178.77
573.87	45998.55
574.03	46054.72
574.20	46263.03
574.36	46209.20
574.52	45970.46
574.68	45961.10
574.84	46237.28
575.01	46050.04
575.17	45937.69
575.33	45677.90
575.49	45748.11
575.65	46127.28
575.82	46164.73
575.98	46160.05
576.14	46169.41
576.30	46087.49
576.46	45979.82
576.62	46487.72
576.79	46330.90
576.95	45841.73
577.11	46356.65
577.27	46169.41
577.43	46281.75
577.59	46347.29
577.75	45771.52
577.92	45549.17
578.08	45949.40
578.24	45830.03
578.40	45783.22
578.56	46181.11
578.72	45954.08
578.88	46583.68
579.04	46450.27
579.21	46464.32
579.37	46080.47
579.53	46092.17
579.69	45635.77
579.85	46209.20
580.01	46155.36
580.17	45979.82
580.33	46464.32
580.49	46279.41
580.65	46305.16
580.82	46237.28
580.98	46396.44
581.14	46209.20
581.30	46754.54
581.46	46401.12
581.62	46476.02
581.78	46288.77
581.94	46576.66
582.10	46192.81
582.26	46323.88
582.42	46347.29
582.58	46050.04
582.74	45916.63
582.90	47098.60
583.06	46508.79
583.22	46323.88
583.38	46380.06
583.54	46714.75
583.70	46178.77
583.86	46433.89
584.02	45961.10
584.18	46178.77
584.34	46351.97
584.50	46459.63
584.66	46356.65
584.82	45787.90
584.98	46586.02
585.14	46260.69
585.30	45757.47
585.46	46185.79
585.62	45656.83
585.78	45654.49
585.94	45710.66
586.10	46309.84
586.26	46314.52
586.42	46162.39
586.58	46148.34
586.74	46174.09
586.90	45916.63
587.06	46115.58
587.22	46277.07
587.38	46019.61
587.54	46667.94
587.70	46190.47
587.86	46880.93
588.02	46108.55
588.18	46284.09
588.34	46267.71
588.49	45804.28
588.65	45455.54
588.81	45860.46
588.97	45998.55
589.13	45923.65
589.29	46136.64
589.45	46344.95
589.61	45652.15
589.77	46670.28
589.93	46426.87
