SpectraSuite Data File
++++++++++++++++++++++++++++++++++++
Date: Fri Oct 25 11:22:47 EDT 2013
User: price-jones
Dark Spectrum Present: No
Reference Spectrum Present: No
Number of Sampled Component Spectra: 1
Spectrometers: USB2+H05261
Integration Time (usec): 100000 (USB2+H05261)
Spectra Averaged: 1 (USB2+H05261)
Boxcar Smoothing: 0 (USB2+H05261)
Correct for Electrical Dark: No (USB2+H05261)
Strobe/Lamp Enabled: No (USB2+H05261)
Correct for Detector Non-linearity: No (USB2+H05261)
Correct for Stray Light: No (USB2+H05261)
Number of Pixels in Processed Spectrum: 2048
>>>>>Begin Processed Spectral Data<<<<<
365.73	110.01
365.92	110.01
366.12	110.01
366.32	173.20
366.52	88.94
366.72	102.98
366.91	135.75
367.11	145.11
367.31	84.26
367.51	77.24
367.70	149.79
367.90	194.26
368.10	110.01
368.30	124.05
368.49	72.56
368.69	145.11
368.89	161.50
369.09	102.98
369.28	77.24
369.48	184.90
369.68	117.03
369.87	166.18
370.07	98.30
370.27	159.16
370.47	234.05
370.66	550.03
370.86	645.99
371.06	706.84
371.25	653.01
371.45	648.33
371.65	653.01
371.84	667.05
372.04	681.10
372.24	664.71
372.44	720.88
372.63	709.18
372.83	741.95
373.03	713.86
373.22	751.31
373.42	809.83
373.62	774.72
373.81	702.16
374.01	849.61
374.21	788.76
374.40	823.87
374.60	870.68
374.79	779.40
374.99	816.85
375.19	802.80
375.38	819.19
375.58	816.85
375.78	868.34
375.97	851.96
376.17	924.51
376.37	814.51
376.56	868.34
376.76	842.59
376.95	891.74
377.15	896.43
377.35	861.32
377.54	835.57
377.74	875.36
377.93	943.24
378.13	954.94
378.33	992.39
378.52	849.61
378.72	954.94
378.91	898.77
379.11	1001.75
379.31	987.71
379.50	954.94
379.70	983.02
379.89	964.30
380.09	898.77
380.28	887.06
380.48	1006.43
380.68	964.30
380.87	980.68
381.07	999.41
381.26	973.66
381.46	1022.81
381.65	1142.18
381.85	894.08
382.04	1027.50
382.24	1060.26
382.43	978.34
382.63	997.07
382.83	1046.22
383.02	1078.99
383.22	1071.97
383.41	1055.58
383.61	1076.65
383.80	1118.78
384.00	1004.09
384.19	1090.69
384.39	1125.80
384.58	1151.54
384.78	1100.05
384.97	1078.99
385.17	1069.62
385.36	1188.99
385.56	1088.35
385.75	1114.10
385.95	1207.72
386.14	1156.22
386.34	1214.74
386.53	1249.85
386.72	1170.27
386.92	1254.53
387.11	1289.64
387.31	1273.25
387.50	1219.42
387.70	1219.42
387.89	1357.51
388.09	1254.53
388.28	1273.25
388.48	1284.95
388.67	1404.32
388.86	1256.87
389.06	1291.98
389.25	1394.96
389.45	1268.57
389.64	1315.38
389.84	1387.94
390.03	1462.83
390.22	1348.15
390.42	1362.19
390.61	1303.68
390.81	1385.60
391.00	1476.88
391.19	1451.13
391.39	1479.22
391.58	1409.00
391.78	1500.28
391.97	1493.26
392.16	1490.92
392.36	1593.90
392.55	1458.15
392.75	1582.20
392.94	1607.95
393.13	1537.73
393.33	1519.01
393.52	1523.69
393.71	1535.39
393.91	1535.39
394.10	1582.20
394.29	1629.01
394.49	1479.22
394.68	1610.29
394.88	1619.65
395.07	1624.33
395.26	1699.23
395.46	1706.25
395.65	1636.03
395.84	1729.66
396.04	1659.44
396.23	1739.02
396.42	1706.25
396.62	1795.19
396.81	1832.64
397.00	1760.08
397.19	1771.79
397.39	1664.12
397.58	1893.49
397.77	1884.13
397.97	1856.04
398.16	1778.81
398.35	1837.32
398.55	1994.14
398.74	1916.90
398.93	1905.20
399.12	2003.50
399.32	1881.79
399.51	1928.60
399.70	2010.52
399.90	1989.46
400.09	1973.07
400.28	2076.06
400.47	2108.82
400.67	1989.46
400.86	2083.08
401.05	2026.90
401.24	2122.87
401.44	2097.12
401.63	2162.66
401.82	2134.57
402.01	2115.84
402.21	2136.91
402.40	2162.66
402.59	2172.02
402.78	2251.60
402.97	2289.04
403.17	2356.92
403.36	2275.00
403.55	2207.13
403.74	2279.68
403.93	2307.77
404.13	2335.85
404.32	2312.45
404.51	2342.88
404.70	2441.18
404.89	2356.92
405.09	2466.92
405.28	2487.99
405.47	2462.24
405.66	2597.99
405.85	2621.40
406.05	2595.65
406.24	2516.08
406.43	2572.25
406.62	2640.12
406.81	2689.28
407.00	2551.18
407.20	2693.96
407.39	2642.46
407.58	2719.70
407.77	2656.51
407.96	2677.57
408.15	2740.77
408.34	2754.81
408.54	2839.07
408.73	2792.26
408.92	2864.82
409.11	2899.92
409.30	2930.35
409.49	2944.39
409.68	2972.48
409.87	2869.50
410.07	2932.69
410.26	2963.12
410.45	3000.57
410.64	3000.57
410.83	3080.14
411.02	3133.98
411.21	3269.73
411.40	3159.72
411.59	3290.79
411.78	3234.62
411.98	3243.98
412.17	3166.74
412.36	3438.25
412.55	3236.96
412.74	3489.74
412.93	3536.55
413.12	3321.22
413.31	3566.98
413.50	3424.20
413.69	3517.83
413.88	3623.15
414.07	3599.74
414.26	3665.28
414.45	3646.55
414.64	3735.50
414.83	3794.01
415.02	3843.16
415.22	3805.71
415.41	3878.27
415.60	3892.31
415.79	3911.04
415.98	3953.16
416.17	4023.38
416.36	3995.29
416.55	3913.38
416.74	3990.61
416.93	4060.83
417.12	3981.25
417.31	4187.22
417.50	4332.33
417.69	4250.41
417.88	4241.05
418.07	4245.73
418.26	4283.18
418.45	4538.30
418.64	4503.19
418.83	4435.32
419.02	4351.06
419.21	4440.00
419.39	4648.30
419.58	4432.97
419.77	4430.63
419.96	4568.73
420.15	4461.06
420.34	4496.17
420.53	4620.22
420.72	4617.88
420.91	4678.73
421.10	4624.90
421.29	4688.09
421.48	4634.26
421.67	4842.57
421.86	4713.84
422.05	4699.80
422.24	4830.87
422.43	4774.69
422.61	4711.50
422.80	4994.70
422.99	4957.25
423.18	5032.15
423.37	4983.00
423.56	5020.45
423.75	4966.62
423.94	4889.38
424.13	4650.64
424.32	4863.63
424.50	4952.57
424.69	5210.03
424.88	5078.96
425.07	4966.62
425.26	4985.34
425.45	4880.02
425.64	5027.47
425.83	5097.69
426.01	5088.32
426.20	4924.49
426.39	5029.81
426.58	5111.73
426.77	5085.98
426.96	5212.37
427.15	5249.82
427.33	5270.89
427.52	5294.29
427.71	5282.59
427.90	5301.31
428.09	5186.63
428.28	5383.23
428.46	5554.09
428.65	5432.38
428.84	5418.34
429.03	5607.92
429.22	5273.23
429.40	5659.42
429.59	5614.95
429.78	5320.04
429.97	5254.50
430.16	5568.13
430.34	5738.99
430.53	5598.56
430.72	5549.41
430.91	5657.07
431.10	5650.05
431.28	5753.04
431.47	5816.23
431.66	6045.60
431.85	5790.49
432.03	5863.04
432.22	5942.62
432.41	5834.96
432.60	5856.02
432.79	5921.56
432.97	6057.31
433.16	6071.35
433.35	5853.68
433.54	6036.24
433.72	6118.16
433.91	6286.68
434.10	6113.48
434.28	6134.54
434.47	6319.45
434.66	6253.91
434.85	6303.06
435.03	6403.71
435.22	6373.28
435.41	6494.99
435.59	6445.84
435.78	6286.68
435.97	6546.48
436.16	6492.65
436.34	6509.03
436.53	6633.08
436.72	6677.55
436.90	6462.22
437.09	6567.54
437.28	6565.20
437.46	6656.48
437.65	6736.06
437.84	6722.02
438.02	6829.68
438.21	6743.08
438.40	6764.15
438.58	7117.57
438.77	7133.95
438.96	6927.99
439.14	7267.36
439.33	7173.74
439.52	7353.96
439.70	7232.26
439.89	7253.32
440.08	7335.24
440.26	7279.07
440.45	7534.18
440.63	7503.76
440.82	7641.85
441.01	7494.40
441.19	7648.87
441.38	7815.05
441.57	7859.52
441.75	7824.41
441.94	7978.89
442.12	7964.84
442.31	7953.14
442.50	8088.89
442.68	8229.32
442.87	7992.93
443.05	7997.61
443.24	8070.17
443.43	8201.24
443.61	8257.41
443.80	8496.14
443.98	8248.05
444.17	7927.39
444.35	8051.44
444.54	8411.89
444.73	8386.14
444.91	8264.43
445.10	8360.39
445.28	8367.42
445.47	8198.90
445.65	8444.65
445.84	8564.02
446.02	8428.27
446.21	8519.55
446.39	8435.29
446.58	8449.33
446.77	8568.70
446.95	8512.53
447.14	8549.98
447.32	8510.19
447.51	8535.93
447.69	8500.83
447.88	8514.87
448.06	8566.36
448.25	8580.40
448.43	8571.04
448.62	8627.21
448.80	8587.43
448.99	8751.26
449.17	8624.87
449.36	8545.30
449.54	8842.54
449.73	8798.07
449.91	8999.36
450.10	8744.24
450.28	9039.15
450.46	8971.27
450.65	9128.09
450.83	9174.90
451.02	9235.75
451.20	9123.41
451.39	9123.41
451.57	9460.45
451.76	8997.02
451.94	9238.09
452.13	9427.68
452.31	9254.48
452.49	9200.65
452.68	9275.54
452.86	9383.21
453.05	9352.78
453.23	9640.67
453.42	9179.58
453.60	9376.19
453.78	9488.53
453.97	9404.27
454.15	9776.42
454.34	9628.96
454.52	9748.33
454.70	9879.40
454.89	9774.08
455.07	9504.92
455.26	10094.73
455.44	9877.06
455.62	9926.21
455.81	10059.62
455.99	10003.45
456.17	10164.95
456.36	9907.49
456.54	10164.95
456.73	10391.98
456.91	10431.77
457.09	10511.35
457.28	10417.72
457.46	10022.17
457.64	10654.12
457.83	10607.31
458.01	10450.49
458.19	10721.99
458.38	10754.76
458.56	10920.94
458.74	10630.71
458.93	10801.57
459.11	10717.31
459.29	10736.04
459.48	10827.32
459.66	10953.71
459.84	10871.79
460.03	11164.36
460.21	11173.72
460.39	11112.86
460.57	11115.20
460.76	11154.99
460.94	11302.45
461.12	11176.06
461.31	11117.54
461.49	11164.36
461.67	11059.03
461.85	11599.70
462.04	11344.58
462.22	11859.49
462.40	11599.70
462.59	11506.07
462.77	11590.33
462.95	11803.32
463.13	11646.51
463.32	11690.98
463.50	11772.89
463.68	11868.86
463.86	11901.62
464.05	11595.01
464.23	11606.72
464.41	12009.29
464.59	11520.12
464.78	12128.66
464.96	11908.65
465.14	11943.75
465.32	12259.73
465.50	12248.02
465.69	12318.24
465.87	12091.21
466.05	12283.13
466.23	12121.63
466.41	12425.90
466.60	12355.69
466.78	12271.43
466.96	12393.14
467.14	12327.60
467.32	12428.24
467.51	12533.57
467.69	12262.07
467.87	12704.43
468.05	12711.45
468.23	12493.78
468.41	12446.97
468.60	12819.11
468.78	13022.74
468.96	12571.02
469.14	13085.94
469.32	13132.75
469.50	12776.98
469.69	13301.26
469.87	13144.45
470.05	13076.57
470.23	13104.66
470.41	13174.88
470.59	13575.11
470.77	13287.22
470.95	13345.73
471.14	13603.19
471.32	13322.33
471.50	13554.04
471.68	13497.87
471.86	13965.98
472.04	13811.50
472.22	14228.12
472.40	13694.47
472.58	13806.82
472.77	13900.44
472.95	14129.81
473.13	14810.91
473.31	13949.59
473.49	14085.34
473.67	14403.66
473.85	14253.86
474.03	14572.18
474.21	14799.21
474.39	14857.72
474.57	14965.39
474.75	14991.13
474.93	14951.34
475.12	15028.58
475.30	15073.05
475.48	15110.50
475.66	15119.86
475.84	15323.49
476.02	15466.26
476.20	15587.97
476.38	15737.76
476.56	16152.04
476.74	16133.31
476.92	15871.17
477.10	15873.51
477.28	16332.26
477.46	16315.87
477.64	16421.20
477.82	16662.27
478.00	16830.79
478.18	16699.72
478.36	17181.87
478.54	17376.14
478.72	17486.14
478.90	17731.90
479.08	17738.92
479.26	17635.94
479.44	17968.29
479.62	17846.58
479.80	18427.04
479.98	18515.98
480.16	18698.54
480.34	18431.72
480.52	18766.42
480.70	18995.79
480.88	18331.08
481.06	18705.56
481.24	19035.58
481.41	19248.57
481.59	19836.04
481.77	19676.88
481.95	19779.87
482.13	19786.89
482.31	19555.18
482.49	20439.90
482.67	20343.94
482.85	20341.60
483.03	20641.18
483.21	20922.05
483.39	21013.33
483.57	20882.26
483.74	21710.81
483.92	21296.53
484.10	21441.65
484.28	21926.14
484.46	22338.07
484.64	22518.29
484.82	22075.93
485.00	22319.35
485.18	23262.58
485.35	23246.20
485.53	22883.42
485.71	23255.56
485.89	23611.32
486.07	23243.86
486.25	23569.19
486.43	23501.32
486.61	24264.33
486.78	24140.29
486.96	24222.20
487.14	24704.35
487.32	24680.95
487.50	25025.01
487.68	25343.32
487.85	25385.45
488.03	25593.76
488.21	25825.47
488.39	25748.23
488.57	26579.12
488.75	26244.43
488.92	26752.32
489.10	26918.50
489.28	26764.03
489.46	27229.79
489.64	26995.74
489.81	28051.32
489.99	27922.59
490.17	28027.92
490.35	28142.60
490.53	28659.86
490.70	28793.27
490.88	28872.85
491.06	29022.64
491.24	29027.32
491.41	29144.35
491.59	29546.92
491.77	29502.45
491.95	29790.34
492.13	30038.44
492.30	30281.85
492.48	30272.49
492.66	30471.43
492.84	30338.02
493.01	30670.38
493.19	30609.53
493.37	31115.08
493.54	30993.37
493.72	31307.01
493.90	31763.41
494.08	31452.12
494.25	32236.20
494.43	32006.83
494.61	32463.23
494.79	32699.62
494.96	32659.84
495.14	32961.76
495.32	33144.33
495.49	33476.68
495.67	33830.10
495.85	33507.11
496.02	33888.62
496.20	34103.95
496.38	34326.30
496.55	34286.51
496.73	34705.46
496.91	34986.33
497.09	35295.28
497.26	35246.13
497.44	34904.41
497.62	35377.20
497.79	36121.49
497.97	35903.82
498.14	35983.40
498.32	36194.04
498.50	36769.82
498.67	36467.89
498.85	36620.02
499.03	37123.24
499.20	36858.76
499.38	37244.94
499.56	37336.23
499.73	37483.68
499.91	37439.21
500.08	37972.85
500.26	38206.90
500.44	38139.03
500.61	38143.71
500.79	38286.48
500.97	38440.96
501.14	38506.49
501.32	39208.65
501.49	39035.45
501.67	38841.19
501.84	38988.64
502.02	39274.19
502.20	39096.31
502.37	39555.05
502.55	39325.68
502.72	39693.15
502.90	39840.60
503.07	39690.80
503.25	40219.77
503.43	39786.77
503.60	40268.92
503.78	40297.00
503.95	40245.51
504.13	40360.20
504.30	40690.21
504.48	40760.43
504.65	41031.93
504.83	41214.49
505.01	41752.82
505.18	41212.15
505.36	41755.16
505.53	41757.50
505.71	41413.44
505.88	42122.62
506.06	42043.04
506.23	42040.70
506.41	42174.11
506.58	42209.22
506.76	42476.04
506.93	42602.43
507.11	42756.91
507.28	42763.93
507.46	42782.65
507.63	43220.33
507.81	43337.36
507.98	43005.00
508.16	43707.16
508.33	43669.72
508.50	43515.24
508.68	44177.61
508.85	44151.87
509.03	44285.28
509.20	44299.32
509.38	44701.89
509.55	44378.90
509.73	44905.52
509.90	45052.97
510.08	45071.70
510.25	45078.72
510.42	44945.31
510.60	45312.77
510.77	45682.58
510.95	45797.26
511.12	45198.09
511.30	45649.81
511.47	45684.92
511.64	45701.30
511.82	46312.18
511.99	45951.74
512.17	46157.70
512.34	45773.86
512.51	46681.98
512.69	46618.79
512.86	46553.26
513.04	46731.14
513.21	46593.04
513.38	46986.25
513.56	47299.89
513.73	46941.78
513.90	47569.05
514.08	47061.15
514.25	47540.96
514.43	47772.67
514.60	48156.52
514.77	47538.62
514.95	47800.76
515.12	48378.87
515.29	47917.79
515.47	48083.97
515.64	48313.34
515.81	48374.19
515.99	48612.93
516.16	48844.64
516.33	48594.20
516.51	48924.22
516.68	48519.31
516.85	48753.36
517.03	48849.32
517.20	49144.23
517.37	49258.91
517.54	48788.47
517.72	49457.86
517.89	49333.81
518.06	49535.10
518.24	49495.31
518.41	49397.01
518.58	49867.45
518.75	49567.87
518.93	49888.52
519.10	49954.05
519.27	50061.72
519.45	50115.55
519.62	50227.90
519.79	50415.14
519.96	50075.76
520.14	50593.02
520.31	50181.09
520.48	50827.07
520.65	50370.67
520.83	50859.84
521.00	50887.93
521.17	50480.67
521.34	50384.71
521.52	51000.27
521.69	50754.52
521.86	51173.47
522.03	51554.98
522.20	51526.89
522.38	51730.52
522.55	51557.32
522.72	51625.20
522.89	51657.96
523.07	51882.66
523.24	51856.91
523.41	51767.97
523.58	51702.43
523.75	52126.07
523.92	52090.96
524.10	52055.85
524.27	52149.48
524.44	52332.04
524.61	52193.95
524.78	52458.43
524.96	52484.17
525.13	52638.65
525.30	52690.14
525.47	52896.11
525.64	52669.08
525.81	52924.19
525.98	53240.17
526.16	53102.07
526.33	52861.00
526.50	53455.50
526.67	52708.86
526.84	52987.39
527.01	53083.35
527.18	53146.54
527.36	53263.57
527.53	53502.31
527.70	53684.87
527.87	53310.38
528.04	53153.57
528.21	53474.22
528.38	53469.54
528.55	53820.62
528.72	53506.99
528.89	53785.51
529.07	53495.28
529.24	53921.26
529.41	53881.47
529.58	54075.74
529.75	53890.83
529.92	53881.47
530.09	53965.73
530.26	54054.67
530.43	54019.56
530.60	53794.87
530.77	54033.61
530.94	54115.53
531.11	54045.31
531.28	54445.54
531.46	54274.68
531.63	54365.96
531.80	54326.17
531.97	54380.01
532.14	54649.17
532.31	54490.01
532.48	54695.98
532.65	54848.11
532.82	54635.13
532.99	54880.88
533.16	54703.00
533.33	54726.41
533.50	55229.62
533.67	54948.76
533.84	54588.31
534.01	55044.72
534.18	54948.76
534.35	55526.87
534.52	54941.74
534.69	55304.52
534.86	55243.66
535.03	55367.71
535.20	55306.86
535.37	55557.30
535.54	55444.95
535.71	55180.47
535.88	55435.59
536.05	55667.30
536.22	55772.63
536.38	55789.01
536.55	55744.54
536.72	55789.01
536.89	55721.13
537.06	55753.90
537.23	56016.04
537.40	55838.16
537.57	55863.91
537.74	55950.51
537.91	56058.17
538.08	56018.38
538.25	55845.18
538.42	56104.98
538.59	56240.73
538.75	56009.02
538.92	56128.39
539.09	56332.01
539.26	56453.72
539.43	56390.53
539.60	56357.76
539.77	56306.27
539.94	56680.75
540.11	56413.93
540.28	56704.16
540.44	56664.37
540.61	56554.36
540.78	56236.05
540.95	56432.66
541.12	56629.26
541.29	56643.30
541.46	56762.67
541.62	56662.03
541.79	56779.06
541.96	56598.83
542.13	56713.52
542.30	56896.08
542.47	56797.78
542.63	56802.46
542.80	57116.09
542.97	57251.84
543.14	57216.74
543.31	57368.87
543.48	57254.18
543.64	57436.75
543.81	57635.69
543.98	57415.68
544.15	57525.69
544.32	57413.34
544.48	57855.70
544.65	57595.90
544.82	57427.38
544.99	57371.21
545.16	57935.28
545.32	57415.68
545.49	57972.73
545.66	57808.89
545.83	57628.67
546.00	57839.32
546.16	57799.53
546.33	57670.80
546.50	58021.88
546.67	57860.38
546.83	57848.68
547.00	57956.35
547.17	58047.63
547.34	57958.69
547.50	58024.22
547.67	58279.34
547.84	58127.20
548.00	58199.76
548.17	58379.98
548.34	58230.19
548.51	58714.68
548.67	58241.89
548.84	58497.01
549.01	58351.90
549.18	58166.99
549.34	58482.97
549.51	58351.90
549.68	58323.81
549.84	58672.55
550.01	58466.58
550.18	58497.01
550.34	58646.80
550.51	58532.12
550.68	58614.04
550.84	58398.71
551.01	58838.73
551.18	58700.64
551.34	58789.58
551.51	58782.55
551.68	58754.47
551.84	58747.45
552.01	58665.53
552.18	58707.66
552.34	58557.86
552.51	58932.35
552.68	58677.23
552.84	58787.24
553.01	59173.42
553.18	58981.50
553.34	59093.85
553.51	58930.01
553.67	58915.96
553.84	59192.15
554.01	59063.42
554.17	59152.36
554.34	59302.15
554.51	59107.89
554.67	59217.89
554.84	59016.61
555.00	59028.31
555.17	59215.55
555.33	59283.43
555.50	59028.31
555.67	59096.19
555.83	59016.61
556.00	59213.21
556.16	59629.83
556.33	59505.78
556.50	59405.14
556.66	59505.78
556.83	59423.86
556.99	59449.61
557.16	59667.28
557.32	59597.06
557.49	59859.20
557.65	59594.72
557.82	59636.85
557.98	59367.69
558.15	59515.14
558.32	59583.02
558.48	59505.78
558.65	59756.22
558.81	59634.51
558.98	59643.87
559.14	59690.68
559.31	59866.22
559.47	59739.83
559.64	59952.82
559.80	59931.76
559.97	59927.08
560.13	59800.69
560.30	59784.30
560.46	59700.04
560.63	60060.49
560.79	59683.66
560.96	59849.84
561.12	59971.55
561.29	59898.99
561.45	60030.06
561.61	60158.79
561.78	59955.16
561.94	60119.00
562.11	59966.87
562.27	60144.75
562.44	60186.88
562.60	60341.35
562.77	60182.19
562.93	59938.78
563.10	60133.04
563.26	59906.01
563.42	60224.32
563.59	60039.42
563.75	60060.49
563.92	60212.62
564.08	60004.31
564.24	60252.41
564.41	60233.69
564.57	60212.62
564.74	60266.45
564.90	60437.31
565.07	60320.29
565.23	60577.75
565.39	60299.22
565.56	60317.95
565.72	60196.24
565.88	60350.71
566.05	60133.04
566.21	60376.46
566.38	60411.57
566.54	60315.61
566.70	60589.45
566.87	60704.13
567.03	60416.25
567.19	60596.47
567.36	60521.57
567.52	60296.88
567.68	60706.47
567.85	60472.42
568.01	60481.78
568.17	60310.92
568.34	60573.06
568.50	60395.18
568.66	60310.92
568.83	60453.70
568.99	60341.35
569.15	60369.44
569.32	60481.78
569.48	60559.02
569.64	60870.31
569.81	60425.61
569.97	60404.55
570.13	60633.92
570.30	60353.05
570.46	60535.62
570.62	60666.69
570.78	60722.86
570.95	60619.88
571.11	60659.66
571.27	60636.26
571.43	60666.69
571.60	60734.56
571.76	60484.12
571.92	60736.90
572.09	60669.03
572.25	60725.20
572.41	60795.42
572.57	60858.61
572.74	61013.08
572.90	60666.69
573.06	60910.10
573.22	60598.81
573.38	60741.58
573.55	60683.07
573.71	60980.32
573.87	60900.74
574.03	60830.52
574.20	60835.20
574.36	60769.67
574.52	60851.59
574.68	60870.31
574.84	61020.11
575.01	60959.25
575.17	60867.97
575.33	61080.96
575.49	60832.86
575.65	60982.66
575.82	61027.13
575.98	60977.98
576.14	61041.17
576.30	61015.43
576.46	61038.83
576.62	60814.14
576.79	60886.70
576.95	60680.73
577.11	60884.36
577.27	60940.53
577.43	60900.74
577.59	60830.52
577.75	61024.79
577.92	60933.51
578.08	60931.17
578.24	60975.64
578.40	60954.57
578.56	61162.88
578.72	60903.08
578.88	61043.51
579.04	61179.26
579.21	60999.04
579.37	60947.55
579.53	61233.10
579.69	60893.72
579.85	60942.87
580.01	61097.34
580.17	61041.17
580.33	61176.92
580.49	61137.13
580.65	61097.34
580.82	60961.59
580.98	60973.30
581.14	61050.53
581.30	61087.98
581.46	61031.81
581.62	60959.25
581.78	61209.69
581.94	61336.08
582.10	61017.77
582.26	60924.14
582.42	61048.19
582.58	61034.15
582.74	61057.56
582.90	61087.98
583.06	61073.94
583.22	60945.21
583.38	61153.52
583.54	61214.37
583.70	61226.07
583.86	61141.81
584.02	61024.79
584.18	61291.61
584.34	61090.32
584.50	61174.58
584.66	60942.87
584.82	60802.44
584.98	61092.66
585.14	60992.02
585.30	60928.83
585.46	61050.53
585.62	61263.52
585.78	61055.21
585.94	61139.47
586.10	61169.90
586.26	61162.88
586.42	61249.48
586.58	61031.81
586.74	61167.56
586.90	61066.92
587.06	61183.94
587.22	61399.27
587.38	61408.64
587.54	61312.67
587.70	61190.97
587.86	61242.46
588.02	61289.27
588.18	61396.93
588.34	61132.45
588.49	61160.54
