SpectraSuite Data File
++++++++++++++++++++++++++++++++++++
Date: Fri Oct 25 11:33:08 EDT 2013
User: price-jones
Dark Spectrum Present: No
Reference Spectrum Present: No
Number of Sampled Component Spectra: 1
Spectrometers: USB2+H05261
Integration Time (usec): 100000 (USB2+H05261)
Spectra Averaged: 1 (USB2+H05261)
Boxcar Smoothing: 0 (USB2+H05261)
Correct for Electrical Dark: No (USB2+H05261)
Strobe/Lamp Enabled: No (USB2+H05261)
Correct for Detector Non-linearity: No (USB2+H05261)
Correct for Stray Light: No (USB2+H05261)
Number of Pixels in Processed Spectrum: 2048
>>>>>Begin Processed Spectral Data<<<<<
365.73	285.55
365.92	285.55
366.12	285.55
366.32	236.39
366.52	212.99
366.72	234.05
366.91	154.48
367.11	180.22
367.31	187.24
367.51	154.48
367.70	154.48
367.90	248.10
368.10	135.75
368.30	205.97
368.49	184.90
368.69	182.56
368.89	154.48
369.09	170.86
369.28	189.58
369.48	184.90
369.68	159.16
369.87	210.65
370.07	217.67
370.27	327.68
370.47	341.72
370.66	531.30
370.86	482.15
371.06	557.05
371.25	585.13
371.45	540.66
371.65	592.16
371.84	580.45
372.04	538.32
372.24	592.16
372.44	571.09
372.63	486.83
372.83	624.92
373.03	650.67
373.22	589.82
373.42	564.07
373.62	596.84
373.81	571.09
374.01	631.94
374.21	603.86
374.40	629.60
374.60	697.48
374.79	603.86
374.99	645.99
375.19	624.92
375.38	608.54
375.58	664.71
375.78	702.16
375.97	620.24
376.17	760.67
376.37	638.97
376.56	697.48
376.76	650.67
376.95	582.79
377.15	589.82
377.35	688.12
377.54	634.29
377.74	709.18
377.93	676.41
378.13	624.92
378.33	669.39
378.52	629.60
378.72	692.80
378.91	760.67
379.11	765.36
379.31	699.82
379.50	704.50
379.70	763.01
379.89	737.27
380.09	765.36
380.28	716.20
380.48	770.04
380.68	662.37
380.87	760.67
381.07	739.61
381.26	835.57
381.46	793.44
381.65	805.14
381.85	758.33
382.04	751.31
382.24	807.48
382.43	777.06
382.63	730.25
382.83	786.42
383.02	835.57
383.22	903.45
383.41	746.63
383.61	802.80
383.80	802.80
384.00	915.15
384.19	763.01
384.39	833.23
384.58	877.70
384.78	849.61
384.97	940.90
385.17	856.64
385.36	809.83
385.56	793.44
385.75	999.41
385.95	858.98
386.14	910.47
386.34	798.12
386.53	866.00
386.72	910.47
386.92	903.45
387.11	905.79
387.31	926.85
387.50	837.91
387.70	929.19
387.89	915.15
388.09	917.49
388.28	959.62
388.48	959.62
388.67	1046.22
388.86	929.19
389.06	959.62
389.25	954.94
389.45	987.71
389.64	940.90
389.84	947.92
390.03	983.02
390.22	990.05
390.42	976.00
390.61	961.96
390.81	938.55
391.00	980.68
391.19	1090.69
391.39	985.37
391.58	1069.62
391.78	1048.56
391.97	1041.54
392.16	999.41
392.36	1109.41
392.55	1027.50
392.75	1088.35
392.94	997.07
393.13	1020.47
393.33	1090.69
393.52	1081.33
393.71	1188.99
393.91	1076.65
394.10	1034.52
394.29	1139.84
394.49	1156.22
394.68	1160.91
394.88	1074.31
395.07	1064.94
395.26	1083.67
395.46	1174.95
395.65	1210.06
395.84	1179.63
396.04	1163.25
396.23	1193.67
396.42	1139.84
396.62	1219.42
396.81	1284.95
397.00	1135.16
397.19	1249.85
397.39	1231.12
397.58	1245.16
397.77	1303.68
397.97	1296.66
398.16	1256.87
398.35	1313.04
398.55	1348.15
398.74	1348.15
398.93	1299.00
399.12	1406.66
399.32	1268.57
399.51	1341.13
399.70	1439.43
399.90	1280.27
400.09	1284.95
400.28	1423.05
400.47	1383.26
400.67	1336.45
400.86	1394.96
401.05	1427.73
401.24	1540.07
401.44	1451.13
401.63	1504.96
401.82	1451.13
402.01	1416.02
402.21	1540.07
402.40	1460.49
402.59	1483.90
402.78	1490.92
402.97	1530.71
403.17	1514.33
403.36	1500.28
403.55	1584.54
403.74	1551.78
403.93	1575.18
404.13	1633.69
404.32	1533.05
404.51	1556.46
404.70	1689.87
404.89	1626.67
405.09	1717.95
405.28	1741.36
405.47	1666.46
405.66	1694.55
405.85	1654.76
406.05	1834.98
406.24	1783.49
406.43	1706.25
406.62	1809.23
406.81	1792.85
407.00	1743.70
407.20	1757.74
407.39	1706.25
407.58	1802.21
407.77	1914.56
407.96	1785.83
408.15	1799.87
408.34	1863.07
408.54	1820.94
408.73	1940.30
408.92	1926.26
409.11	2054.99
409.30	2057.33
409.49	1947.33
409.68	1942.64
409.87	1977.75
410.07	2172.02
410.26	2052.65
410.45	2054.99
410.64	2113.50
410.83	2108.82
411.02	2122.87
411.21	2167.34
411.40	2047.97
411.59	2251.60
411.78	2207.13
411.98	2193.08
412.17	2232.87
412.36	2293.72
412.55	2282.02
412.74	2387.35
412.93	2361.60
413.12	2305.43
413.31	2380.32
413.50	2443.52
413.69	2403.73
413.88	2513.74
414.07	2483.31
414.26	2485.65
414.45	2452.88
414.64	2462.24
414.83	2691.62
415.02	2677.57
415.22	2649.49
415.41	2581.61
415.60	2590.97
415.79	2745.45
415.98	2810.98
416.17	2773.53
416.36	2778.22
416.55	2689.28
416.74	2890.56
416.93	2834.39
417.12	2818.00
417.31	2867.16
417.50	2878.86
417.69	3061.42
417.88	3080.14
418.07	2899.92
418.26	2878.86
418.45	2930.35
418.64	3213.56
418.83	3094.19
419.02	2979.50
419.21	3087.17
419.39	3119.93
419.58	2932.69
419.77	3084.83
419.96	3133.98
420.15	3218.24
420.34	3122.27
420.53	3232.28
420.72	3283.77
420.91	3204.19
421.10	3148.02
421.29	3344.63
421.48	3314.20
421.67	3379.73
421.86	3300.16
422.05	3215.90
422.24	3379.73
422.43	3459.31
422.61	3368.03
422.80	3375.05
422.99	3473.36
423.18	3456.97
423.37	3475.70
423.56	3445.27
423.75	3311.86
423.94	3431.23
424.13	3258.03
424.32	3297.81
424.50	3508.46
424.69	3550.59
424.88	3454.63
425.07	3431.23
425.26	3489.74
425.45	3421.86
425.64	3426.54
425.83	3412.50
426.01	3515.48
426.20	3630.17
426.39	3536.55
426.58	3620.81
426.77	3564.64
426.96	3651.24
427.15	3609.11
427.33	3660.60
427.52	3508.46
427.71	3698.05
427.90	3651.24
428.09	3665.28
428.28	3721.45
428.46	3730.81
428.65	3674.64
428.84	3768.26
429.03	3936.78
429.22	3772.94
429.40	3801.03
429.59	3850.18
429.78	3712.09
429.97	3688.68
430.16	3915.72
430.34	3896.99
430.53	3913.38
430.72	4067.85
430.91	3941.46
431.10	3808.05
431.28	3969.55
431.47	4112.32
431.66	4109.98
431.85	3985.93
432.03	4039.76
432.22	4152.11
432.41	4100.62
432.60	4079.55
432.79	4049.13
432.97	4161.47
433.16	4217.65
433.35	4121.68
433.54	4252.75
433.72	4250.41
433.91	4154.45
434.10	4210.62
434.28	4276.16
434.47	4369.78
434.66	4170.83
434.85	4273.82
435.03	4294.88
435.22	4514.89
435.41	4465.74
435.59	4381.48
435.78	4428.29
435.97	4430.63
436.16	4355.74
436.34	4360.42
436.53	4589.79
436.72	4655.33
436.90	4500.85
437.09	4538.30
437.28	4507.87
437.46	4603.83
437.65	4573.41
437.84	4601.49
438.02	4702.14
438.21	4739.58
438.40	4660.01
438.58	4751.29
438.77	4936.19
438.96	4781.71
439.14	4922.15
439.33	4919.81
439.52	4908.10
439.70	4875.34
439.89	5055.56
440.08	5046.20
440.26	5214.71
440.45	4987.68
440.63	5156.20
440.82	5142.16
441.01	5270.89
441.19	5245.14
441.38	5369.19
441.57	5345.78
441.75	5305.99
441.94	5373.87
442.12	5308.34
442.31	5460.47
442.50	5514.30
442.68	5462.81
442.87	5329.40
443.05	5591.54
443.24	5699.20
443.43	5720.27
443.61	5570.48
443.80	5750.70
443.98	5619.63
444.17	5348.12
444.35	5572.82
444.54	5811.55
444.73	5703.89
444.91	5654.73
445.10	5652.39
445.28	5774.10
445.47	5668.78
445.65	5783.46
445.84	5851.34
446.02	5713.25
446.21	5809.21
446.39	5760.06
446.58	5881.77
446.77	5806.87
446.95	5518.98
447.14	5846.66
447.32	5867.72
447.51	5863.04
447.69	5741.33
447.88	5650.05
448.06	5809.21
448.25	5856.02
448.43	5811.55
448.62	5851.34
448.80	5912.19
448.99	5895.81
449.17	5902.83
449.36	5877.09
449.54	5984.75
449.73	6015.18
449.91	6064.33
450.10	6122.84
450.28	6183.70
450.46	6146.25
450.65	6066.67
450.83	6277.32
451.02	5994.11
451.20	6143.91
451.39	6179.01
451.57	6410.73
451.76	6078.37
451.94	6244.55
452.13	6335.83
452.31	6427.11
452.49	6244.55
452.68	6427.11
452.86	6427.11
453.05	6328.81
453.23	6438.81
453.42	6410.73
453.60	6384.98
453.78	6576.91
453.97	6347.53
454.15	6569.88
454.34	6305.40
454.52	6544.14
454.70	6532.44
454.89	6408.39
455.07	6670.53
455.26	6523.07
455.44	6782.87
455.62	6803.94
455.81	6853.09
455.99	6817.98
456.17	6759.47
456.36	6740.74
456.54	6883.52
456.73	6965.43
456.91	7023.95
457.09	7066.08
457.28	7152.68
457.46	6953.73
457.64	7304.81
457.83	7061.40
458.01	7143.32
458.19	7279.07
458.38	7094.16
458.56	7349.28
458.74	7138.63
458.93	7190.13
459.11	7183.10
459.29	7337.58
459.48	7309.49
459.66	7407.80
459.84	7482.69
460.03	7550.57
460.21	7335.24
460.39	7473.33
460.57	7442.90
460.76	7630.15
460.94	7494.40
461.12	7445.24
461.31	7758.88
461.49	7695.68
461.67	7672.28
461.85	7545.89
462.04	7786.96
462.22	8135.70
462.40	8065.49
462.59	7836.11
462.77	7819.73
462.95	7955.48
463.13	7882.92
463.32	7932.08
463.50	8004.63
463.68	8025.70
463.86	8088.89
464.05	7915.69
464.23	8046.76
464.41	7974.21
464.59	7962.50
464.78	8332.31
464.96	7957.82
465.14	7967.18
465.32	8009.31
465.50	8231.66
465.69	8292.52
465.87	8269.11
466.05	8189.53
466.23	8329.97
466.41	8400.18
466.60	8472.74
466.78	8131.02
466.96	8414.23
467.14	8315.92
467.32	8470.40
467.51	8430.61
467.69	8280.82
467.87	8531.25
468.05	8514.87
468.23	8386.14
468.41	8404.86
468.60	8468.06
468.78	8655.30
468.96	8535.93
469.14	8711.47
469.32	8697.43
469.50	8638.92
469.69	8685.73
469.87	8950.21
470.05	8952.55
470.23	8889.35
470.41	8905.74
470.59	8865.95
470.77	8767.65
470.95	8865.95
471.14	9121.07
471.32	8964.25
471.50	9088.30
471.68	9275.54
471.86	9137.45
472.04	9287.25
472.22	9359.80
472.40	9207.67
472.58	9247.46
472.77	9540.02
472.95	9516.62
473.13	9820.89
473.31	9533.00
473.49	9507.26
473.67	9563.43
473.85	9675.77
474.03	9921.53
474.21	9774.08
474.39	9987.07
474.57	9785.78
474.75	10115.80
474.93	9912.17
475.12	10195.37
475.30	9921.53
475.48	10076.01
475.66	10087.71
475.84	10298.36
476.02	10265.59
476.20	10244.52
476.38	10541.77
476.56	10658.80
476.74	10551.14
476.92	10656.46
477.10	10483.26
477.28	10773.49
477.46	10668.16
477.64	10595.61
477.82	11098.82
478.00	11454.58
478.18	11117.54
478.36	11508.41
478.54	11419.47
478.72	11398.41
478.90	11822.05
479.08	11698.00
479.26	11857.15
479.44	11967.16
479.62	12119.29
479.80	12011.63
479.98	12166.10
480.16	12283.13
480.34	11971.84
480.52	12400.16
480.70	12582.72
480.88	12098.23
481.06	12425.90
481.24	12638.89
481.41	12784.01
481.59	12788.69
481.77	12924.44
481.95	12973.59
482.13	13116.36
482.31	13046.15
482.49	13633.62
482.67	13516.59
482.85	13476.80
483.03	13469.78
483.21	13951.93
483.39	14129.81
483.57	14012.79
483.74	13926.19
483.92	14057.26
484.10	14080.66
484.28	14420.04
484.46	14714.95
484.64	14700.90
484.82	14705.59
485.00	14878.79
485.18	15374.98
485.35	15321.15
485.53	15185.40
485.71	15337.53
485.89	15653.50
486.07	15531.80
486.25	15428.81
486.43	15735.42
486.61	16133.31
486.78	15985.86
486.96	15915.64
487.14	16252.68
487.32	16376.73
487.50	16793.34
487.68	16360.34
487.85	16753.55
488.03	17020.38
488.21	17128.04
488.39	17167.83
488.57	17022.72
488.75	17462.74
488.92	17523.59
489.10	17605.51
489.28	17930.84
489.46	18150.85
489.64	17834.88
489.81	18267.88
489.99	18581.51
490.17	18469.17
490.35	18888.12
490.53	18721.95
490.70	18813.23
490.88	18909.19
491.06	18864.72
491.24	19089.41
491.41	19573.90
491.59	19262.61
491.77	19503.68
491.95	19491.98
492.13	19857.10
492.30	19983.49
492.48	19957.75
492.66	20072.43
492.84	20280.74
493.01	20397.77
493.19	20404.79
493.37	20798.00
493.54	20615.44
493.72	20603.74
493.90	21027.37
494.08	21120.99
494.25	21392.50
494.43	21191.21
494.61	21413.56
494.79	21687.40
494.96	21406.54
495.14	21771.66
495.32	22272.54
495.49	21991.67
495.67	21811.45
495.85	22225.73
496.02	22328.71
496.20	22604.89
496.38	22614.26
496.55	22429.35
496.73	23096.41
496.91	22733.62
497.09	22939.59
497.26	22941.93
497.44	23145.56
497.62	23000.44
497.79	23398.34
497.97	23487.28
498.14	24109.86
498.32	23662.82
498.50	24222.20
498.67	23927.30
498.85	24245.61
499.03	24238.59
499.20	24397.74
499.38	24610.73
499.56	24556.90
499.73	24655.20
499.91	24847.13
500.08	24907.98
500.26	24851.81
500.44	25034.37
500.61	25144.38
500.79	24999.26
500.97	25298.85
501.14	25493.12
501.32	25816.11
501.49	25682.70
501.67	25563.33
501.84	26096.97
502.02	25626.53
502.20	26122.72
502.37	26008.03
502.55	26167.19
502.72	26155.49
502.90	26244.43
503.07	26274.85
503.25	26050.16
503.43	26286.56
503.60	26656.36
503.78	26764.03
503.95	26377.84
504.13	26775.73
504.30	26888.07
504.48	26939.57
504.65	27115.11
504.83	27473.21
505.01	27583.21
505.18	27335.12
505.36	27784.50
505.53	27623.00
505.71	27782.16
505.88	27529.38
506.06	27679.18
506.23	28446.87
506.41	28039.62
506.58	28053.66
506.76	28287.71
506.93	28332.18
507.11	28283.03
507.28	28762.84
507.46	28273.67
507.63	28517.09
507.81	28701.99
507.98	28418.78
508.16	28514.75
508.33	29006.26
508.50	29289.46
508.68	29240.31
508.85	29570.33
509.03	29226.27
509.20	29228.61
509.38	29439.26
509.55	29785.66
509.73	29654.59
509.90	29692.04
510.08	29750.55
510.25	29694.38
510.42	29556.28
510.60	30246.74
510.77	30518.25
510.95	30433.99
511.12	30155.46
511.30	30354.41
511.47	30499.52
511.64	30527.61
511.82	30366.11
511.99	30890.39
512.17	30829.54
512.34	30749.96
512.51	31276.58
512.69	31040.18
512.86	31215.72
513.04	31288.28
513.21	31248.49
513.38	31594.89
513.56	31267.22
513.73	31328.07
513.90	31452.12
514.08	31566.81
514.25	32226.84
514.43	31789.16
514.60	31936.61
514.77	31845.33
514.95	32460.89
515.12	31627.66
515.29	31828.95
515.47	32184.71
515.64	32507.70
515.81	32189.39
515.99	32507.70
516.16	32994.53
516.33	32767.50
516.51	32999.21
516.68	32577.92
516.85	33055.39
517.03	32968.79
517.20	33191.14
517.37	32936.02
517.54	33200.50
517.72	33205.18
517.89	33277.74
518.06	33298.80
518.24	33249.65
518.41	33291.78
518.58	33177.09
518.75	33668.61
518.93	33429.87
519.10	33340.93
519.27	34167.14
519.45	33914.36
519.62	34010.32
519.79	34361.40
519.96	34150.76
520.14	34389.49
520.31	34249.06
520.48	34314.59
520.65	34197.57
520.83	34410.56
521.00	34817.81
521.17	34642.27
521.34	35206.34
521.52	35023.78
521.69	34845.90
521.86	35213.36
522.03	35044.84
522.20	34983.99
522.38	35489.54
522.55	35281.24
522.72	35438.05
522.89	35681.47
523.07	35644.02
523.24	35512.95
523.41	35948.29
523.58	35515.29
523.75	35981.06
523.92	35391.24
524.10	35721.26
524.27	35943.61
524.44	35964.67
524.61	36208.09
524.78	36058.29
524.96	36217.45
525.13	36201.07
525.30	36554.49
525.47	36615.34
525.64	36439.80
525.81	36648.11
525.98	37163.03
526.16	36603.64
526.33	36620.02
526.50	36994.51
526.67	36746.41
526.84	37046.00
527.01	36989.83
527.18	37287.07
527.36	37434.53
527.53	37368.99
527.70	37305.80
527.87	37523.47
528.04	37493.04
528.21	37511.77
528.38	37406.44
528.55	37792.63
528.72	37464.96
528.89	37652.20
529.07	37975.19
529.24	37539.85
529.41	38153.07
529.58	37844.12
529.75	37743.48
529.92	38380.10
530.09	37708.37
530.26	38455.00
530.43	38328.61
530.60	37593.68
530.77	38078.18
530.94	38780.34
531.11	38326.27
531.28	38628.20
531.46	38302.87
531.63	38696.08
531.80	38607.14
531.97	39112.69
532.14	38326.27
532.31	38607.14
532.48	38913.75
532.65	39019.07
532.82	38923.11
532.99	38965.24
533.16	38813.10
533.33	39042.48
533.50	39311.64
533.67	38859.91
533.84	38721.82
534.01	39365.47
534.18	39175.89
534.35	39936.56
534.52	39564.42
534.69	39721.23
534.86	39686.12
535.03	39875.71
535.20	40020.82
535.37	39749.32
535.54	39901.45
535.71	39723.57
535.88	39990.39
536.05	40100.40
536.22	40346.15
536.38	40238.49
536.55	39819.53
536.72	40381.26
536.89	39983.37
537.06	40566.16
537.23	40444.46
537.40	40769.79
537.57	40205.72
537.74	40329.77
537.91	40870.43
538.08	40306.37
538.25	40004.44
538.42	40402.33
538.59	40912.56
538.75	40751.07
538.92	40814.26
539.09	41184.07
539.26	41078.74
539.43	40854.05
539.60	41308.11
539.77	40884.48
539.94	41048.32
540.11	41172.36
540.28	41743.45
540.44	41422.80
540.61	40919.59
540.78	41607.70
540.95	41537.49
541.12	41163.00
541.29	41322.16
541.46	41261.30
541.62	41345.56
541.79	41942.40
541.96	40821.28
542.13	41109.17
542.30	41361.95
542.47	41890.91
542.63	42183.48
542.80	41984.53
542.97	42351.99
543.14	42368.38
543.31	42450.30
543.48	41839.42
543.64	42363.70
543.81	42450.30
543.98	42366.04
544.15	42316.89
544.32	42602.43
544.48	42761.59
544.65	42529.87
544.82	42955.85
544.99	42424.55
545.16	42731.16
545.32	42829.46
545.49	43037.77
545.66	43395.87
545.83	42841.17
546.00	43016.71
546.16	42663.28
546.33	43126.71
546.50	42988.62
546.67	43178.20
546.83	42679.67
547.00	42887.98
547.17	43147.78
547.34	43459.07
547.50	43578.43
547.67	43489.49
547.84	43779.72
548.00	43510.56
548.17	43772.70
548.34	43952.92
548.51	43887.39
548.67	43335.02
548.84	43716.53
549.01	43639.29
549.18	43810.15
549.34	44076.97
549.51	43725.89
549.68	44563.80
549.84	44172.93
550.01	44109.74
550.18	43634.61
550.34	43866.32
550.51	44378.90
550.68	44268.89
550.84	44011.43
551.01	44486.56
551.18	44172.93
551.34	44194.00
551.51	43941.22
551.68	44121.44
551.84	44233.78
552.01	44332.09
552.18	44266.55
552.34	44425.71
552.51	44446.77
552.68	44299.32
552.84	44273.57
553.01	44456.14
553.18	44334.43
553.34	44765.09
553.51	44765.09
553.67	44933.60
553.84	44947.65
554.01	44858.71
554.17	45123.19
554.34	45390.01
554.51	44823.60
554.67	45310.43
554.84	45036.59
555.00	44931.26
555.17	44910.20
555.33	44949.99
555.50	44900.84
555.67	45109.14
555.83	45577.25
556.00	45401.71
556.16	45677.90
556.33	45067.02
556.50	45219.15
556.66	45109.14
556.83	45261.28
556.99	45514.06
557.16	45773.86
557.32	45317.45
557.49	45518.74
557.65	45324.47
557.82	45530.44
557.98	45577.25
558.15	45378.31
558.32	45865.14
558.48	45649.81
558.65	45722.37
558.81	45813.65
558.98	45764.49
559.14	45572.57
559.31	45603.00
559.47	45830.03
559.64	45766.84
559.80	46010.25
559.97	45989.19
560.13	45392.35
560.30	45937.69
560.46	45818.33
560.63	46370.69
560.79	46195.15
560.96	46508.79
561.12	46237.28
561.29	46335.59
561.45	46330.90
561.61	45977.48
561.78	45914.29
561.94	46017.27
562.11	46433.89
562.27	46258.35
562.44	45986.85
562.60	46564.96
562.77	46354.31
562.93	46220.90
563.10	46679.64
563.26	46307.50
563.42	46499.42
563.59	46588.36
563.75	46328.56
563.92	46258.35
564.08	46480.70
564.24	46745.18
564.41	46461.97
564.57	46838.80
564.74	46625.81
564.90	46480.70
565.07	46820.08
565.23	46457.29
565.39	46625.81
565.56	46700.71
565.72	46403.46
565.88	46822.42
566.05	46815.40
566.21	46770.93
566.38	46845.82
566.54	46740.50
566.70	46911.36
566.87	46674.96
567.03	46478.36
567.19	47281.16
567.36	46834.12
567.52	46890.29
567.68	46951.15
567.85	46550.91
568.01	46630.49
568.17	46862.21
568.34	46990.94
568.50	46876.25
568.66	46700.71
568.83	46892.63
568.99	46941.78
569.15	47044.77
569.32	46759.22
569.48	46958.17
569.64	47351.38
569.81	47103.28
569.97	47290.52
570.13	47323.29
570.30	46976.89
570.46	47274.14
570.62	46787.31
570.78	47117.32
570.95	47337.33
571.11	46890.29
571.27	46923.06
571.43	46883.27
571.60	47421.59
571.76	46979.23
571.92	47360.74
572.09	47178.18
572.25	47227.33
572.41	47065.83
572.57	47332.65
572.74	47669.69
572.90	47248.39
573.06	47297.55
573.22	47168.82
573.38	47524.58
573.55	47372.44
573.71	47910.77
573.87	47276.48
574.03	47332.65
574.20	47693.10
574.36	47501.17
574.52	47318.61
574.68	47459.04
574.84	47679.05
575.01	47461.38
575.17	47473.09
575.33	47445.00
575.49	47332.65
575.65	47274.14
575.82	47505.85
575.98	47178.18
576.14	47723.52
576.30	47753.95
576.46	47693.10
576.62	47552.66
576.79	47779.70
576.95	47007.32
577.11	47232.01
577.27	47482.45
577.43	47489.47
577.59	47437.98
577.75	47442.66
577.92	47124.35
578.08	47437.98
578.24	47224.99
578.40	47641.60
578.56	47971.62
578.72	47723.52
578.88	47707.14
579.04	47515.22
579.21	47452.02
579.37	47583.09
579.53	47990.34
579.69	47533.94
579.85	47388.83
580.01	47524.58
580.17	47426.28
580.33	47758.63
580.49	47796.08
580.65	47672.03
580.82	47498.83
580.98	47957.58
581.14	47131.37
581.30	47639.26
581.46	47873.32
581.62	47814.80
581.78	47330.31
581.94	48161.20
582.10	47653.31
582.26	47604.16
582.42	47962.26
582.58	47545.64
582.74	47826.51
582.90	47309.25
583.06	47929.49
583.22	47447.34
583.38	47913.11
583.54	47784.38
583.70	47611.18
583.86	48161.20
584.02	48025.45
584.18	48629.31
584.34	47913.11
584.50	48175.25
584.66	47929.49
584.82	47870.98
584.98	48079.28
585.14	48154.18
585.30	47882.68
585.46	47725.86
585.62	47980.98
585.78	47826.51
585.94	47665.01
586.10	47632.24
586.26	47721.18
586.42	47695.44
586.58	47821.83
586.74	47861.61
586.90	47576.07
587.06	48203.33
587.22	48011.41
587.38	47784.38
587.54	47910.77
587.70	48275.89
587.86	47882.68
588.02	47896.72
588.18	48109.71
588.34	47807.78
588.49	47920.13
588.65	47943.53
588.81	48027.79
588.97	48432.71
589.13	48023.11
589.29	47910.77
589.45	48545.05
589.61	48292.27
589.77	48231.42
589.93	48196.31
590.08	48348.45
