SpectraSuite Data File
++++++++++++++++++++++++++++++++++++
Date: Fri Oct 25 11:26:09 EDT 2013
User: price-jones
Dark Spectrum Present: No
Reference Spectrum Present: No
Number of Sampled Component Spectra: 1
Spectrometers: USB2+H05261
Integration Time (usec): 100000 (USB2+H05261)
Spectra Averaged: 1 (USB2+H05261)
Boxcar Smoothing: 0 (USB2+H05261)
Correct for Electrical Dark: No (USB2+H05261)
Strobe/Lamp Enabled: No (USB2+H05261)
Correct for Detector Non-linearity: No (USB2+H05261)
Correct for Stray Light: No (USB2+H05261)
Number of Pixels in Processed Spectrum: 2048
>>>>>Begin Processed Spectral Data<<<<<
365.73	224.69
365.92	224.69
366.12	224.69
366.32	163.84
366.52	135.75
366.72	128.73
366.91	266.82
367.11	107.66
367.31	133.41
367.51	107.66
367.70	187.24
367.90	180.22
368.10	121.71
368.30	102.98
368.49	114.69
368.69	147.45
368.89	173.20
369.09	170.86
369.28	163.84
369.48	128.73
369.68	170.86
369.87	208.31
370.07	184.90
370.27	191.92
370.47	372.15
370.66	535.98
370.86	610.88
371.06	681.10
371.25	664.71
371.45	737.27
371.65	744.29
371.84	697.48
372.04	695.14
372.24	702.16
372.44	760.67
372.63	713.86
372.83	800.46
373.03	763.01
373.22	709.18
373.42	664.71
373.62	830.89
373.81	765.36
374.01	842.59
374.21	748.97
374.40	720.88
374.60	755.99
374.79	863.66
374.99	863.66
375.19	833.23
375.38	868.34
375.58	763.01
375.78	847.27
375.97	842.59
376.17	938.55
376.37	793.44
376.56	875.36
376.76	894.08
376.95	863.66
377.15	847.27
377.35	990.05
377.54	884.72
377.74	1011.11
377.93	826.21
378.13	868.34
378.33	896.43
378.52	945.58
378.72	1011.11
378.91	924.51
379.11	983.02
379.31	938.55
379.50	1006.43
379.70	959.62
379.89	910.47
380.09	964.30
380.28	959.62
380.48	1018.13
380.68	997.07
380.87	994.73
381.07	1041.54
381.26	999.41
381.46	1041.54
381.65	973.66
381.85	1062.60
382.04	978.34
382.24	1067.28
382.43	1022.81
382.63	983.02
382.83	1015.79
383.02	1128.14
383.22	1123.46
383.41	1100.05
383.61	1118.78
383.80	1167.93
384.00	1114.10
384.19	1156.22
384.39	1109.41
384.58	1107.07
384.78	1125.80
384.97	1114.10
385.17	1130.48
385.36	1179.63
385.56	1238.14
385.75	1193.67
385.95	1149.20
386.14	1186.65
386.34	1249.85
386.53	1219.42
386.72	1184.31
386.92	1196.01
387.11	1158.57
387.31	1231.12
387.50	1167.93
387.70	1233.46
387.89	1299.00
388.09	1306.02
388.28	1345.81
388.48	1291.98
388.67	1310.70
388.86	1378.58
389.06	1280.27
389.25	1434.75
389.45	1369.21
389.64	1331.76
389.84	1324.74
390.03	1303.68
390.22	1348.15
390.42	1331.76
390.61	1320.06
390.81	1348.15
391.00	1418.36
391.19	1397.30
391.39	1423.05
391.58	1383.26
391.78	1425.39
391.97	1481.56
392.16	1467.52
392.36	1549.43
392.55	1497.94
392.75	1547.09
392.94	1509.65
393.13	1493.26
393.33	1530.71
393.52	1430.07
393.71	1521.35
393.91	1519.01
394.10	1540.07
394.29	1516.67
394.49	1486.24
394.68	1610.29
394.88	1631.35
395.07	1661.78
395.26	1687.53
395.46	1645.40
395.65	1764.76
395.84	1671.14
396.04	1682.85
396.23	1664.12
396.42	1703.91
396.62	1820.94
396.81	1802.21
397.00	1764.76
397.19	1746.04
397.39	1769.44
397.58	1783.49
397.77	1811.57
397.97	1813.92
398.16	1944.99
398.35	1898.17
398.55	1881.79
398.74	1879.45
398.93	1956.69
399.12	2012.86
399.32	1919.24
399.51	1942.64
399.70	1935.62
399.90	1961.37
400.09	2036.27
400.28	2036.27
400.47	2059.67
400.67	2022.22
400.86	2165.00
401.05	2052.65
401.24	2113.50
401.44	2143.93
401.63	2167.34
401.82	2181.38
402.01	2120.53
402.21	2174.36
402.40	2239.89
402.59	2193.08
402.78	2263.30
402.97	2190.74
403.17	2303.09
403.36	2253.94
403.55	2267.98
403.74	2361.60
403.93	2363.94
404.13	2298.41
404.32	2466.92
404.51	2272.66
404.70	2373.30
404.89	2429.48
405.09	2499.69
405.28	2588.63
405.47	2490.33
405.66	2518.42
405.85	2352.24
406.05	2560.55
406.24	2546.50
406.43	2527.78
406.62	2672.89
406.81	2689.28
407.00	2597.99
407.20	2455.22
407.39	2600.34
407.58	2747.79
407.77	2663.53
407.96	2757.15
408.15	2813.32
408.34	2722.04
408.54	2902.26
408.73	2785.24
408.92	2920.99
409.11	2782.90
409.30	2972.48
409.49	2836.73
409.68	2888.22
409.87	2869.50
410.07	3014.61
410.26	2998.23
410.45	3070.78
410.64	3126.96
410.83	3054.40
411.02	3056.74
411.21	3323.56
411.40	3180.79
411.59	3211.22
411.78	3234.62
411.98	3349.31
412.17	3243.98
412.36	3232.28
412.55	3365.69
412.74	3328.24
412.93	3459.31
413.12	3255.69
413.31	3499.10
413.50	3314.20
413.69	3412.50
413.88	3604.42
414.07	3485.06
414.26	3604.42
414.45	3583.36
414.64	3646.55
414.83	3618.47
415.02	3798.69
415.22	3861.88
415.41	3796.35
415.60	3768.26
415.79	3885.29
415.98	3990.61
416.17	3878.27
416.36	4070.19
416.55	3983.59
416.74	4166.15
416.93	4088.92
417.12	4109.98
417.31	4287.86
417.50	4173.18
417.69	4432.97
417.88	4395.53
418.07	4381.48
418.26	4238.71
418.45	4358.08
418.64	4514.89
418.83	4461.06
419.02	4353.40
419.21	4526.60
419.39	4407.23
419.58	4557.02
419.77	4430.63
419.96	4592.13
420.15	4486.81
420.34	4491.49
420.53	4652.98
420.72	4566.39
420.91	4660.01
421.10	4718.52
421.29	4863.63
421.48	4681.07
421.67	4732.56
421.86	4695.11
422.05	4592.13
422.24	4873.00
422.43	4798.10
422.61	4849.59
422.80	5034.49
422.99	4870.65
423.18	4910.44
423.37	4978.32
423.56	4835.55
423.75	4917.47
423.94	4849.59
424.13	4592.13
424.32	4770.01
424.50	5011.09
424.69	5121.09
424.88	5001.72
425.07	4936.19
425.26	4798.10
425.45	4929.17
425.64	4980.66
425.83	5011.09
426.01	4990.02
426.20	5039.17
426.39	5032.15
426.58	5018.11
426.77	5123.43
426.96	5167.90
427.15	5018.11
427.33	5060.24
427.52	5034.49
427.71	5219.39
427.90	5284.93
428.09	5282.59
428.28	5394.93
428.46	5472.17
428.65	5249.82
428.84	5437.06
429.03	5481.53
429.22	5331.74
429.40	5537.71
429.59	5474.51
429.78	5324.72
429.97	5170.24
430.16	5547.07
430.34	5645.37
430.53	5603.24
430.72	5582.18
430.91	5563.45
431.10	5544.73
431.28	5668.78
431.47	5614.95
431.66	5863.04
431.85	5664.10
432.03	5989.43
432.22	6052.63
432.41	5830.27
432.60	5956.66
432.79	5858.36
432.97	5963.68
433.16	6083.05
433.35	5930.92
433.54	6097.10
433.72	6010.50
433.91	6008.16
434.10	6197.74
434.28	6106.46
434.47	6235.19
434.66	6232.85
434.85	6122.84
435.03	6286.68
435.22	6099.44
435.41	6396.68
435.59	6345.19
435.78	6480.94
435.97	6569.88
436.16	6427.11
436.34	6438.81
436.53	6497.33
436.72	6581.59
436.90	6406.05
437.09	6623.72
437.28	6406.05
437.46	6609.67
437.65	6494.99
437.84	6679.89
438.02	6520.73
438.21	6803.94
438.40	6485.62
438.58	6782.87
438.77	6846.07
438.96	6958.41
439.14	7096.50
439.33	7052.03
439.52	7190.13
439.70	7192.47
439.89	7283.75
440.08	7274.38
440.26	7447.58
440.45	7304.81
440.63	7316.51
440.82	7630.15
441.01	7513.12
441.19	7669.94
441.38	7651.21
441.57	7627.81
441.75	7840.79
441.94	7981.23
442.12	7793.98
442.31	7885.26
442.50	7995.27
442.68	8166.13
442.87	8030.38
443.05	7829.09
443.24	8051.44
443.43	8245.71
443.61	8182.51
443.80	8358.05
443.98	7946.12
444.17	7878.24
444.35	8203.58
444.54	8266.77
444.73	8465.72
444.91	8292.52
445.10	8386.14
445.28	8348.69
445.47	8201.24
445.65	8346.35
445.84	8535.93
446.02	8353.37
446.21	8465.72
446.39	8395.50
446.58	8498.49
446.77	8336.99
446.95	8215.28
447.14	8463.38
447.32	8685.73
447.51	8435.29
447.69	8386.14
447.88	8454.02
448.06	8533.59
448.25	8491.46
448.43	8531.25
448.62	8559.34
448.80	8571.04
448.99	8725.52
449.17	8723.18
449.36	8737.22
449.54	8730.20
449.73	9039.15
449.91	8929.14
450.10	8863.61
450.28	9130.43
450.46	9001.70
450.65	8753.60
450.83	9057.87
451.02	9062.55
451.20	9277.88
451.39	9181.92
451.57	8870.63
451.76	9074.26
451.94	9284.91
452.13	9055.53
452.31	9247.46
452.49	9118.73
452.68	9088.30
452.86	9240.44
453.05	9502.58
453.23	9453.42
453.42	9303.63
453.60	9537.68
453.78	9617.26
453.97	9242.78
454.15	9465.13
454.34	9369.16
454.52	9715.56
454.70	9593.86
454.89	9701.52
455.07	9734.29
455.26	9870.04
455.44	9954.30
455.62	9797.48
455.81	9722.59
455.99	9930.89
456.17	9891.10
456.36	10052.60
456.54	10188.35
456.73	10094.73
456.91	10265.59
457.09	10410.70
457.28	10483.26
457.46	10146.22
457.64	10663.48
457.83	10583.90
458.01	10513.69
458.19	10686.89
458.38	10525.39
458.56	10665.82
458.74	10581.56
458.93	10682.20
459.11	10661.14
459.29	10583.90
459.48	10991.16
459.66	10736.04
459.84	11098.82
460.03	11026.26
460.21	10817.96
460.39	10881.15
460.57	11030.94
460.76	11108.18
460.94	11140.95
461.12	11208.83
461.31	11066.05
461.49	11335.21
461.67	11082.44
461.85	11206.48
462.04	11367.98
462.22	11672.25
462.40	11550.54
462.59	11318.83
462.77	11375.00
462.95	11576.29
463.13	11520.12
463.32	11644.17
463.50	11616.08
463.68	11845.45
463.86	11754.17
464.05	11557.57
464.23	11789.28
464.41	11843.11
464.59	11625.44
464.78	12053.76
464.96	11899.28
465.14	11744.81
465.32	11899.28
465.50	12032.69
465.69	12030.35
465.87	11992.90
466.05	12126.32
466.23	12238.66
466.41	12107.59
466.60	12231.64
466.78	12327.60
466.96	12194.19
467.14	12065.46
467.32	12449.31
467.51	12236.32
467.69	12147.38
467.87	12491.44
468.05	12463.35
468.23	12245.68
468.41	12571.02
468.60	12835.50
468.78	12812.09
468.96	12599.10
469.14	12786.35
469.32	12959.55
469.50	12587.40
469.69	12858.90
469.87	12936.14
470.05	13165.51
470.23	13048.49
470.41	13090.62
470.59	13139.77
470.77	12971.25
470.95	13177.22
471.14	13502.55
471.32	13144.45
471.50	13497.87
471.68	13516.59
471.86	13591.49
472.04	13591.49
472.22	14019.81
472.40	13778.73
472.58	13713.20
472.77	14008.11
472.95	13994.06
473.13	14717.29
473.31	14033.85
473.49	14162.58
473.67	14148.54
473.85	14450.47
474.03	14555.79
474.21	14705.59
474.39	14513.66
474.57	14368.55
474.75	15014.54
474.93	14913.89
475.12	14871.76
475.30	15063.69
475.48	14895.17
475.66	15386.68
475.84	15028.58
476.02	15407.75
476.20	15309.44
476.38	15548.18
476.56	15737.76
476.74	15985.86
476.92	15992.88
477.10	15674.57
477.28	16219.91
477.46	15936.71
477.64	16334.60
477.82	16699.72
478.00	16753.55
478.18	16765.26
478.36	16629.51
478.54	16915.05
478.72	16727.81
478.90	16989.95
479.08	17771.69
479.26	17771.69
479.44	17565.72
479.62	17788.07
479.80	17949.57
479.98	17972.97
480.16	18640.03
480.34	17895.74
480.52	18607.26
480.70	18466.83
480.88	18211.71
481.06	18642.37
481.24	18864.72
481.41	19077.71
481.59	19499.00
481.77	19536.45
481.95	19536.45
482.13	19782.21
482.31	19447.51
482.49	20091.16
482.67	20173.08
482.85	20287.76
483.03	20594.37
483.21	20830.77
483.39	20744.17
483.57	20645.87
483.74	20933.75
483.92	21174.83
484.10	21341.00
484.28	21724.85
484.46	21879.33
484.64	22309.99
484.82	22113.38
485.00	22377.86
485.18	22555.74
485.35	22864.69
485.53	22714.90
485.71	23056.62
485.89	23339.82
486.07	23227.48
486.25	23105.77
486.43	23456.85
486.61	23948.36
486.78	23894.53
486.96	24184.76
487.14	24287.74
487.32	24421.15
487.50	24753.51
487.68	24545.20
487.85	25170.12
488.03	25348.00
488.21	25802.07
488.39	25607.80
488.57	26031.44
488.75	26349.75
488.92	26525.29
489.10	26316.98
489.28	26766.37
489.46	27065.96
489.64	26586.15
489.81	27344.48
489.99	27550.45
490.17	27644.07
490.35	28086.43
490.53	28245.58
490.70	28030.26
490.88	28081.75
491.06	28568.58
491.24	28559.22
491.41	28790.93
491.59	29263.72
491.77	29034.35
491.95	29266.06
492.13	29628.84
492.30	29715.44
492.48	29582.03
492.66	29979.92
492.84	30340.36
493.01	30511.22
493.19	30487.82
493.37	31145.51
493.54	31065.93
493.72	31225.09
493.90	31384.24
494.08	31646.38
494.25	32044.27
494.43	31777.45
494.61	32105.13
494.79	32257.26
494.96	31910.86
495.14	32519.40
495.32	32694.94
495.49	33156.03
495.67	32563.87
495.85	33364.34
496.02	33528.17
496.20	33830.10
496.38	33813.72
496.55	33883.94
496.73	34668.02
496.91	34380.13
497.09	34883.34
497.26	34974.63
497.44	34785.04
497.62	35215.70
497.79	35510.61
497.97	35232.08
498.14	35534.01
498.32	35950.63
498.50	35833.60
498.67	35903.82
498.85	36409.37
499.03	36287.67
499.20	36058.29
499.38	36687.90
499.56	36943.02
499.73	37020.25
499.91	36959.40
500.08	37420.48
500.26	37221.54
500.44	37354.95
500.61	38113.28
500.79	37556.24
500.97	37956.47
501.14	38110.94
501.32	37956.47
501.49	38539.26
501.67	38459.68
501.84	38829.49
502.02	38593.09
502.20	38703.10
502.37	39538.67
502.55	38803.74
502.72	39295.25
502.90	39136.10
503.07	39278.87
503.25	39379.51
503.43	39938.90
503.60	39803.15
503.78	39793.79
503.95	39739.96
504.13	40140.19
504.30	40484.25
504.48	40519.35
504.65	40320.41
504.83	40924.27
505.01	40896.18
505.18	40807.24
505.36	41776.22
505.53	41273.01
505.71	41277.69
505.88	41825.37
506.06	41291.73
506.23	41434.50
506.41	41174.70
506.58	41879.21
506.76	42033.68
506.93	42323.91
507.11	42139.00
507.28	42384.76
507.46	42026.66
507.63	42843.51
507.81	43044.79
507.98	42583.71
508.16	42829.46
508.33	42909.04
508.50	43440.34
508.68	43395.87
508.85	43885.04
509.03	43405.23
509.20	43711.84
509.38	43849.94
509.55	43976.33
509.73	44531.03
509.90	43983.35
510.08	44421.03
510.25	44779.13
510.42	44737.00
510.60	45069.36
510.77	44973.39
510.95	45132.55
511.12	45345.54
511.30	45081.06
511.47	45064.67
511.64	45144.25
511.82	46281.75
511.99	45366.60
512.17	45998.55
512.34	45689.60
512.51	46216.22
512.69	46218.56
512.86	46110.89
513.04	46267.71
513.21	46766.24
513.38	46588.36
513.56	46810.71
513.73	46869.23
513.90	46628.15
514.08	46258.35
514.25	46777.95
514.43	47297.55
514.60	46993.28
514.77	47023.70
514.95	47742.25
515.12	47356.06
515.29	47353.72
515.47	47686.07
515.64	47686.07
515.81	47524.58
515.99	47852.25
516.16	47959.92
516.33	48226.74
516.51	48533.35
516.68	48238.44
516.85	48526.33
517.03	48683.14
517.20	48917.20
517.37	48800.17
517.54	48694.85
517.72	48662.08
517.89	49427.43
518.06	48746.34
518.24	49186.36
518.41	49071.67
518.58	48830.60
518.75	48926.56
518.93	49448.50
519.10	48919.54
519.27	49579.57
519.45	49439.14
519.62	49766.81
519.79	49914.26
519.96	49593.61
520.14	50122.57
520.31	49916.61
520.48	50099.17
520.65	50281.73
520.83	50302.79
521.00	50677.28
521.17	50363.65
521.34	50501.74
521.52	50611.74
521.69	50618.77
521.86	50754.52
522.03	51171.13
522.20	50930.06
522.38	51377.10
522.55	51023.68
522.72	51040.06
522.89	51121.98
523.07	51611.15
523.24	51370.08
523.41	51470.72
523.58	51246.03
523.75	51629.88
523.92	51470.72
524.10	51737.54
524.27	51936.49
524.44	51760.95
524.61	51894.36
524.78	52240.76
524.96	51978.62
525.13	52175.22
525.30	52266.50
525.47	52385.87
525.64	52112.03
525.81	52545.03
525.98	52306.29
526.16	52353.10
526.33	52535.66
526.50	52926.53
526.67	52748.65
526.84	52973.34
527.01	52418.64
527.18	52793.12
527.36	52556.73
527.53	52889.09
527.70	53050.58
527.87	53240.17
528.04	53109.10
528.21	53303.36
528.38	53193.36
528.55	53286.98
528.72	53139.52
528.89	53404.00
529.07	53130.16
529.24	53148.88
529.41	53677.85
529.58	53633.38
529.75	53389.96
529.92	53455.50
530.09	53860.41
530.26	53900.20
530.43	53748.06
530.60	53577.20
530.77	53600.61
530.94	53755.08
531.11	53635.72
531.28	53872.11
531.46	54136.59
531.63	53998.50
531.80	54103.82
531.97	54387.03
532.14	54155.32
532.31	54234.89
532.48	54284.04
532.65	54773.22
532.82	54358.94
532.99	54534.48
533.16	54293.41
533.33	54525.12
533.50	54700.66
533.67	54438.52
533.84	54710.02
534.01	54983.86
534.18	54574.27
534.35	55320.90
534.52	55033.02
534.69	54878.54
534.86	55157.06
535.03	54897.27
535.20	54862.16
535.37	54946.42
535.54	55152.38
535.71	55194.51
535.88	55285.79
536.05	55426.23
536.22	55426.23
536.38	55597.09
536.55	55189.83
536.72	55671.98
536.89	55545.59
537.06	55501.12
537.23	55480.06
537.40	55566.66
537.57	55676.66
537.74	55683.69
537.91	55789.01
538.08	55777.31
538.25	55566.66
538.42	55894.33
538.59	55789.01
538.75	55653.26
538.92	55777.31
539.09	56055.83
539.26	56030.08
539.43	55770.28
539.60	56093.28
539.77	56200.94
539.94	56460.74
540.11	56126.05
540.28	56207.97
540.44	56334.35
540.61	56427.98
540.78	56329.67
540.95	56322.65
541.12	56236.05
541.29	56332.01
541.46	56655.01
541.62	56315.63
541.79	56554.36
541.96	56037.11
542.13	56729.90
542.30	56608.20
542.47	56818.84
542.63	56638.62
542.80	56860.97
542.97	56896.08
543.14	57214.40
543.31	57169.93
543.48	57237.80
543.64	57380.57
543.81	57366.53
543.98	57083.33
544.15	57174.61
544.32	57399.30
544.48	57560.79
544.65	57322.06
544.82	57228.44
544.99	57296.31
545.16	57399.30
545.32	57279.93
545.49	57516.32
545.66	57607.61
545.83	57308.02
546.00	57717.61
546.16	57586.54
546.33	57413.34
546.50	57298.65
546.67	57584.20
546.83	57308.02
547.00	57558.45
547.17	57556.11
547.34	57748.04
547.50	57872.09
547.67	57860.38
547.84	57790.17
548.00	58255.93
548.17	58155.29
548.34	57970.39
548.51	58035.92
548.67	58138.91
548.84	57975.07
549.01	57944.64
549.18	58103.80
549.34	58176.36
549.51	58080.39
549.68	58211.46
549.84	58206.78
550.01	58333.17
550.18	58188.06
550.34	58497.01
550.51	58426.79
550.68	58237.21
550.84	58000.82
551.01	58337.85
551.18	58354.24
551.34	58651.48
551.51	58433.81
551.68	58487.65
551.84	58475.94
552.01	58457.22
552.18	58609.35
552.34	58365.94
552.51	58702.98
552.68	58518.07
552.84	58497.01
553.01	58883.20
553.18	58522.76
553.34	58805.96
553.51	58543.82
553.67	58838.73
553.84	59021.29
554.01	58937.03
554.17	58724.04
554.34	59091.51
554.51	58850.43
554.67	59061.08
554.84	58866.81
555.00	58824.68
555.17	58777.87
555.33	59054.06
555.50	58740.42
555.67	58644.46
555.83	58717.02
556.00	59079.80
556.16	59103.21
556.33	59035.33
556.50	59150.02
556.66	59072.78
556.83	58967.46
556.99	59182.79
557.16	59325.56
557.32	59274.07
557.49	59269.39
557.65	59374.71
557.82	59227.26
557.98	59370.03
558.15	59358.33
558.32	59414.50
558.48	59079.80
558.65	59348.96
558.81	59550.25
558.98	59278.75
559.14	59398.12
559.31	59395.77
559.47	59451.95
559.64	59503.44
559.80	59660.26
559.97	59557.27
560.13	59618.13
560.30	59545.57
560.46	59608.76
560.63	59571.32
560.79	59627.49
560.96	59714.09
561.12	59805.37
561.29	59653.23
561.45	59779.62
561.61	59690.68
561.78	59667.28
561.94	59686.00
562.11	59515.14
562.27	59779.62
562.44	59866.22
562.60	59826.43
562.77	60025.38
562.93	59667.28
563.10	60030.06
563.26	59866.22
563.42	60025.38
563.59	59884.95
563.75	59891.97
563.92	59927.08
564.08	59838.14
564.24	60018.36
564.41	60037.08
564.57	60154.11
564.74	60151.77
564.90	60004.31
565.07	60093.25
565.23	59941.12
565.39	59943.46
565.56	60104.96
565.72	60097.94
565.88	60051.12
566.05	60238.37
566.21	60177.51
566.38	60046.44
566.54	60133.04
566.70	60355.39
566.87	60378.80
567.03	59887.29
567.19	60540.30
567.36	60001.97
567.52	60212.62
567.68	60350.71
567.85	60261.77
568.01	60273.48
568.17	60343.69
568.34	60343.69
568.50	60088.57
568.66	60207.94
568.83	60266.45
568.99	60168.15
569.15	60165.81
569.32	60278.16
569.48	60186.88
569.64	60362.42
569.81	60280.50
569.97	60240.71
570.13	60273.48
570.30	60294.54
570.46	60491.15
570.62	60374.12
570.78	60350.71
570.95	60327.31
571.11	60381.14
571.27	60458.38
571.43	60406.89
571.60	60580.09
571.76	60463.06
571.92	60367.10
572.09	60570.72
572.25	60343.69
572.41	60472.42
572.57	60346.03
572.74	60720.52
572.90	60547.32
573.06	60596.47
573.22	60350.71
573.38	60481.78
573.55	60495.83
573.71	60863.29
573.87	60516.89
574.03	60486.46
574.20	60664.35
574.36	60568.38
574.52	60706.47
574.68	60486.46
574.84	60643.28
575.01	60711.16
575.17	60523.91
575.33	60453.70
575.49	60229.01
575.65	60774.35
575.82	60701.79
575.98	60573.06
576.14	60814.14
576.30	60760.31
576.46	60507.53
576.62	60603.49
576.79	60530.93
576.95	60392.84
577.11	60552.00
577.27	60596.47
577.43	60842.23
577.59	60568.38
577.75	60594.13
577.92	60652.64
578.08	60643.28
578.24	60638.60
578.40	60786.05
578.56	60839.89
578.72	60587.11
578.88	60919.46
579.04	60935.85
579.21	60863.29
579.37	60839.89
579.53	60851.59
579.69	60535.62
579.85	60654.98
580.01	60886.70
580.17	60633.92
580.33	60802.44
580.49	60729.88
580.65	60853.93
580.82	60734.56
580.98	60816.48
581.14	60676.05
581.30	60947.55
581.46	60699.45
581.62	60804.78
581.78	60729.88
581.94	60809.46
582.10	60612.85
582.26	60743.92
582.42	60720.52
582.58	60912.44
582.74	60917.12
582.90	60769.67
583.06	60764.99
583.22	60626.90
583.38	60935.85
583.54	60884.36
583.70	60790.73
583.86	60975.64
584.02	60882.02
584.18	60952.23
584.34	60917.12
584.50	60966.27
584.66	60678.39
584.82	60626.90
584.98	60889.04
585.14	60912.44
585.30	60879.67
585.46	61085.64
585.62	60903.08
585.78	60963.93
585.94	60933.51
586.10	60760.31
586.26	60942.87
586.42	60853.93
586.58	61006.06
586.74	60973.30
586.90	60781.37
587.06	60884.36
587.22	60996.70
587.38	60977.98
587.54	60966.27
587.70	61087.98
587.86	60977.98
588.02	61102.03
588.18	61242.46
588.34	60844.57
588.49	60945.21
