SpectraSuite Data File
++++++++++++++++++++++++++++++++++++
Date: Fri Oct 25 11:24:03 EDT 2013
User: price-jones
Dark Spectrum Present: No
Reference Spectrum Present: No
Number of Sampled Component Spectra: 1
Spectrometers: USB2+H05261
Integration Time (usec): 100000 (USB2+H05261)
Spectra Averaged: 1 (USB2+H05261)
Boxcar Smoothing: 0 (USB2+H05261)
Correct for Electrical Dark: No (USB2+H05261)
Strobe/Lamp Enabled: No (USB2+H05261)
Correct for Detector Non-linearity: No (USB2+H05261)
Correct for Stray Light: No (USB2+H05261)
Number of Pixels in Processed Spectrum: 2048
>>>>>Begin Processed Spectral Data<<<<<
365.73	184.90
365.92	184.90
366.12	184.90
366.32	60.85
366.52	63.19
366.72	138.09
366.91	110.01
367.11	102.98
367.31	107.66
367.51	93.62
367.70	77.24
367.90	121.71
368.10	56.17
368.30	117.03
368.49	203.63
368.69	159.16
368.89	159.16
369.09	154.48
369.28	117.03
369.48	205.97
369.68	149.79
369.87	259.80
370.07	175.54
370.27	163.84
370.47	322.99
370.66	521.94
370.86	648.33
371.06	699.82
371.25	704.50
371.45	695.14
371.65	725.57
371.84	692.80
372.04	667.05
372.24	643.65
372.44	753.65
372.63	765.36
372.83	758.33
373.03	753.65
373.22	744.29
373.42	737.27
373.62	777.06
373.81	770.04
374.01	823.87
374.21	753.65
374.40	800.46
374.60	816.85
374.79	833.23
374.99	833.23
375.19	889.40
375.38	842.59
375.58	851.96
375.78	889.40
375.97	868.34
376.17	919.83
376.37	870.68
376.56	828.55
376.76	863.66
376.95	819.19
377.15	903.45
377.35	894.08
377.54	795.78
377.74	910.47
377.93	833.23
378.13	866.00
378.33	889.40
378.52	901.11
378.72	973.66
378.91	980.68
379.11	929.19
379.31	976.00
379.50	917.49
379.70	950.26
379.89	973.66
380.09	954.94
380.28	1011.11
380.48	952.60
380.68	999.41
380.87	1001.75
381.07	997.07
381.26	954.94
381.46	1029.84
381.65	1100.05
381.85	1062.60
382.04	1057.92
382.24	1022.81
382.43	1074.31
382.63	1046.22
382.83	1149.20
383.02	1053.24
383.22	1097.71
383.41	1135.16
383.61	1137.50
383.80	1198.35
384.00	1069.62
384.19	1153.88
384.39	1149.20
384.58	1125.80
384.78	1034.52
384.97	1191.33
385.17	1139.84
385.36	1198.35
385.56	1123.46
385.75	1193.67
385.95	1198.35
386.14	1158.57
386.34	1212.40
386.53	1245.16
386.72	1219.42
386.92	1186.65
387.11	1299.00
387.31	1177.29
387.50	1170.27
387.70	1198.35
387.89	1268.57
388.09	1376.24
388.28	1317.72
388.48	1224.10
388.67	1252.19
388.86	1235.80
389.06	1214.74
389.25	1277.93
389.45	1317.72
389.64	1287.29
389.84	1406.66
390.03	1446.45
390.22	1411.34
390.42	1376.24
390.61	1376.24
390.81	1411.34
391.00	1355.17
391.19	1441.77
391.39	1486.24
391.58	1474.54
391.78	1399.64
391.97	1504.96
392.16	1437.09
392.36	1509.65
392.55	1584.54
392.75	1542.41
392.94	1479.22
393.13	1526.03
393.33	1448.79
393.52	1575.18
393.71	1556.46
393.91	1668.80
394.10	1563.48
394.29	1617.31
394.49	1582.20
394.68	1565.82
394.88	1647.74
395.07	1680.50
395.26	1654.76
395.46	1748.38
395.65	1624.33
395.84	1722.63
396.04	1717.95
396.23	1760.08
396.42	1654.76
396.62	1753.06
396.81	1710.93
397.00	1842.00
397.19	1797.53
397.39	1788.17
397.58	1790.51
397.77	1802.21
397.97	1849.02
398.16	1834.98
398.35	1935.62
398.55	1914.56
398.74	1792.85
398.93	2008.18
399.12	1928.60
399.32	1774.13
399.51	1912.22
399.70	2076.06
399.90	2040.95
400.09	2012.86
400.28	2069.03
400.47	2045.63
400.67	2045.63
400.86	2122.87
401.05	2033.93
401.24	2019.88
401.44	2179.04
401.63	2202.44
401.82	2228.19
402.01	2132.23
402.21	2172.02
402.40	2106.48
402.59	2181.38
402.78	2246.91
402.97	2267.98
403.17	2195.42
403.36	2160.31
403.55	2352.24
403.74	2464.58
403.93	2392.03
404.13	2399.05
404.32	2317.13
404.51	2260.96
404.70	2284.36
404.89	2445.86
405.09	2525.44
405.28	2464.58
405.47	2497.35
405.66	2443.52
405.85	2443.52
406.05	2534.80
406.24	2658.85
406.43	2593.31
406.62	2642.46
406.81	2572.25
407.00	2583.95
407.20	2593.31
407.39	2527.78
407.58	2722.04
407.77	2686.94
407.96	2750.13
408.15	2794.60
408.34	2782.90
408.54	2724.38
408.73	2818.00
408.92	2806.30
409.11	2869.50
409.30	2871.84
409.49	2951.42
409.68	2920.99
409.87	2834.39
410.07	2958.44
410.26	2977.16
410.45	3084.83
410.64	3016.95
410.83	3082.49
411.02	3103.55
411.21	3194.83
411.40	3040.36
411.59	3204.19
411.78	3141.00
411.98	3169.09
412.17	3293.13
412.36	3337.60
412.55	3262.71
412.74	3269.73
412.93	3389.10
413.12	3349.31
413.31	3407.82
413.50	3489.74
413.69	3499.10
413.88	3730.81
414.07	3545.91
414.26	3625.49
414.45	3595.06
414.64	3648.90
414.83	3754.22
415.02	3782.31
415.22	3868.91
415.41	3847.84
415.60	3782.31
415.79	3911.04
415.98	4086.58
416.17	3988.27
416.36	3985.93
416.55	4093.60
416.74	4063.17
416.93	4032.74
417.12	3997.64
417.31	4250.41
417.50	4117.00
417.69	4294.88
417.88	4175.52
418.07	4217.65
418.26	4210.62
418.45	4283.18
418.64	4442.34
418.83	4395.53
419.02	4362.76
419.21	4557.02
419.39	4482.13
419.58	4454.04
419.77	4542.98
419.96	4559.36
420.15	4664.69
420.34	4697.46
420.53	4482.13
420.72	4650.64
420.91	4657.67
421.10	4727.88
421.29	4791.08
421.48	4713.84
421.67	4854.27
421.86	4720.86
422.05	4833.21
422.24	4723.20
422.43	4774.69
422.61	5041.51
422.80	4943.21
422.99	5001.72
423.18	4910.44
423.37	5067.26
423.56	5069.60
423.75	4961.94
423.94	4798.10
424.13	4571.07
424.32	4915.12
424.50	5046.20
424.69	5032.15
424.88	5125.77
425.07	4968.96
425.26	4915.12
425.45	4884.70
425.64	4873.00
425.83	5020.45
426.01	4968.96
426.20	5093.01
426.39	5011.09
426.58	5109.39
426.77	5085.98
426.96	5041.51
427.15	5067.26
427.33	5055.56
427.52	5235.78
427.71	5205.35
427.90	5221.74
428.09	5249.82
428.28	5280.25
428.46	5359.83
428.65	5474.51
428.84	5617.29
429.03	5598.56
429.22	5378.55
429.40	5399.62
429.59	5544.73
429.78	5163.22
429.97	5238.12
430.16	5528.35
430.34	5636.01
430.53	5446.43
430.72	5458.13
430.91	5673.46
431.10	5731.97
431.28	5710.91
431.47	5837.30
431.66	6008.16
431.85	6038.58
432.03	5891.13
432.22	5809.21
432.41	5886.45
432.60	5949.64
432.79	5884.11
432.97	6118.16
433.16	5944.96
433.35	6111.14
433.54	6150.93
433.72	6146.25
433.91	6230.51
434.10	6160.29
434.28	6094.76
434.47	6200.08
434.66	6230.51
434.85	6298.38
435.03	6317.11
435.22	6286.68
435.41	6490.31
435.59	6583.93
435.78	6312.42
435.97	6466.90
436.16	6494.99
436.34	6452.86
436.53	6511.37
436.72	6733.72
436.90	6502.01
437.09	6724.36
437.28	6506.69
437.46	6518.39
437.65	6771.17
437.84	6689.25
438.02	6731.38
438.21	7007.56
438.40	6595.63
438.58	6998.20
438.77	6890.54
438.96	6853.09
439.14	7225.23
439.33	7052.03
439.52	7105.87
439.70	7316.51
439.89	7145.66
440.08	7302.47
440.26	7309.49
440.45	7293.11
440.63	7396.09
440.82	7730.79
441.01	7590.36
441.19	7698.02
441.38	7824.41
441.57	7702.70
441.75	7742.49
441.94	7936.76
442.12	8079.53
442.31	8086.55
442.50	8067.83
442.68	7934.42
442.87	7955.48
443.05	8009.31
443.24	8461.04
443.43	8184.85
443.61	8210.60
443.80	8496.14
443.98	8058.46
444.17	8086.55
444.35	8271.45
444.54	8344.01
444.73	8294.86
444.91	8243.37
445.10	8606.15
445.28	8351.03
445.47	8271.45
445.65	8475.08
445.84	8482.10
446.02	8594.45
446.21	8372.10
446.39	8290.18
446.58	8475.08
446.77	8444.65
446.95	8294.86
447.14	8170.81
447.32	8566.36
447.51	8547.64
447.69	8681.05
447.88	8531.25
448.06	8519.55
448.25	8505.51
448.43	8622.53
448.62	8650.62
448.80	8489.12
448.99	8741.90
449.17	8643.60
449.36	8624.87
449.54	8968.93
449.73	8877.65
449.91	8910.42
450.10	8938.51
450.28	9207.67
450.46	9109.36
450.65	9104.68
450.83	8987.66
451.02	9015.74
451.20	9308.31
451.39	9025.11
451.57	9083.62
451.76	9291.93
451.94	9137.45
452.13	9497.89
452.31	9497.89
452.49	9092.98
452.68	9252.14
452.86	9331.72
453.05	9500.23
453.23	9544.70
453.42	9373.85
453.60	9284.91
453.78	9586.83
453.97	9338.74
454.15	9331.72
454.34	9689.82
454.52	9493.21
454.70	9549.39
454.89	9912.17
455.07	9820.89
455.26	9785.78
455.44	10012.81
455.62	9902.81
455.81	9771.74
455.99	10043.24
456.17	10101.75
456.36	10143.88
456.54	10085.37
456.73	10258.57
456.91	10445.81
457.09	10424.75
457.28	10422.41
457.46	10352.19
457.64	10593.26
457.83	10611.99
458.01	10513.69
458.19	10663.48
458.38	10672.84
458.56	10619.01
458.74	10523.05
458.93	10604.97
459.11	10743.06
459.29	10677.52
459.48	10855.40
459.66	10607.31
459.84	10729.02
460.03	11052.01
460.21	11002.86
460.39	11208.83
460.57	11066.05
460.76	11157.33
460.94	11066.05
461.12	11225.21
461.31	10963.07
461.49	11162.01
461.67	11232.23
461.85	11342.24
462.04	11370.32
462.22	11496.71
462.40	11609.06
462.59	11524.80
462.77	11555.22
462.95	11578.63
463.13	11377.34
463.32	11784.60
463.50	11735.45
463.68	11861.84
463.86	11702.68
464.05	11548.20
464.23	11616.08
464.41	12142.70
464.59	11826.73
464.78	12128.66
464.96	11964.82
465.14	11611.40
465.32	12161.42
465.50	11939.07
465.69	12177.81
465.87	12030.35
466.05	12365.05
466.23	12152.06
466.41	12428.24
466.60	12369.73
466.78	12210.57
466.96	12292.49
467.14	12306.54
467.32	12432.93
467.51	12695.07
467.69	12397.82
467.87	12528.89
468.05	12802.73
468.23	12329.94
468.41	12456.33
468.60	12446.97
468.78	12805.07
468.96	12596.76
469.14	13130.41
469.32	12943.16
469.50	12746.56
469.69	13177.22
469.87	13179.56
470.05	13156.15
470.23	13383.18
470.41	13167.85
470.59	13362.12
470.77	13064.87
470.95	13186.58
471.14	13561.06
471.32	13153.81
471.50	13523.62
471.68	13671.07
471.86	13919.17
472.04	13841.93
472.22	14167.26
472.40	13528.30
472.58	14094.71
472.77	13818.52
472.95	14015.13
473.13	14508.98
473.31	14132.15
473.49	14087.68
473.67	14537.07
473.85	14211.73
474.03	14611.96
474.21	14513.66
474.39	14829.63
474.57	15117.52
474.75	14862.40
474.93	15002.83
475.12	15084.75
475.30	15297.74
475.48	15091.77
475.66	15360.94
475.84	15279.02
476.02	15300.08
476.20	15538.82
476.38	15576.27
476.56	15943.73
476.74	15997.56
476.92	16074.80
477.10	15957.77
477.28	16149.70
477.46	16428.22
477.64	16418.86
477.82	16468.01
478.00	16950.16
478.18	17125.70
478.36	17174.85
478.54	17074.21
478.72	17064.85
478.90	17319.96
479.08	17736.58
479.26	17783.39
479.44	17750.62
479.62	17930.84
479.80	18038.51
479.98	18204.69
480.16	18726.63
480.34	18558.11
480.52	18745.35
480.70	18663.43
480.88	18415.34
481.06	18717.26
481.24	18682.16
481.41	19147.92
481.59	19269.63
481.77	19562.20
481.95	19644.12
482.13	19662.84
482.31	19850.08
482.49	20236.27
482.67	20037.33
482.85	20648.21
483.03	20547.56
483.21	20706.72
483.39	21010.99
483.57	20879.92
483.74	21165.46
483.92	21673.36
484.10	21525.91
484.28	21778.68
484.46	22169.55
484.64	22270.20
484.82	21788.05
485.00	22134.45
485.18	22845.97
485.35	22860.01
485.53	22831.93
485.71	23136.20
485.89	23332.80
486.07	23398.34
486.25	23377.27
486.43	24077.09
486.61	23796.23
486.78	24327.53
486.96	24114.54
487.14	24407.11
487.32	24690.31
487.50	25055.43
487.68	25259.06
487.85	25305.87
488.03	25310.55
488.21	26003.35
488.39	26096.97
488.57	26134.42
488.75	26670.40
488.92	26513.59
489.10	26810.84
489.28	27091.70
489.46	26855.31
489.64	27180.64
489.81	27899.19
489.99	27335.12
490.17	28037.28
490.35	28081.75
490.53	28402.40
490.70	28507.72
490.88	28133.24
491.06	28971.15
491.24	28699.65
491.41	28840.08
491.59	29041.37
491.77	29408.83
491.95	29708.42
492.13	29572.67
492.30	30110.99
492.48	30312.28
492.66	30408.24
492.84	30419.94
493.01	30569.74
493.19	31124.44
493.37	31211.04
493.54	31094.02
493.72	31461.48
493.90	31463.82
494.08	31445.10
494.25	32173.00
494.43	32613.02
494.61	32327.48
494.79	32594.30
494.96	32772.18
495.14	32971.13
495.32	33296.46
495.49	33298.80
495.67	33277.74
495.85	33654.56
496.02	33970.54
496.20	33837.12
496.38	33951.81
496.55	33916.70
496.73	34763.98
496.91	34775.68
497.09	34504.18
497.26	35129.10
497.44	35182.93
497.62	35704.87
497.79	35803.17
497.97	35519.97
498.14	36175.32
498.32	36121.49
498.50	36062.97
498.67	36662.15
498.85	36402.35
499.03	36797.90
499.20	36746.41
499.38	36919.61
499.56	36957.06
499.73	37120.90
499.91	37670.92
500.08	37684.97
500.26	37214.52
500.44	38232.65
500.61	37663.90
500.79	37799.65
500.97	38078.18
501.14	38803.74
501.32	38487.77
501.49	38653.95
501.67	38913.75
501.84	39143.12
502.02	38827.15
502.20	39332.70
502.37	39096.31
502.55	39431.01
502.72	39667.40
502.90	39859.32
503.07	39885.07
503.25	39431.01
503.43	39693.15
503.60	40121.46
503.78	40570.85
503.95	40280.62
504.13	40414.03
504.30	40765.11
504.48	40179.98
504.65	40800.22
504.83	41111.51
505.01	41600.68
505.18	41104.49
505.36	41614.72
505.53	41415.78
505.71	41811.33
505.88	41865.16
506.06	41148.96
506.23	41715.37
506.41	41780.90
506.58	42232.63
506.76	42213.90
506.93	42380.08
507.11	42351.99
507.28	43084.58
507.46	43166.50
507.63	42979.26
507.81	43543.33
507.98	42953.51
508.16	43164.16
508.33	43578.43
508.50	43597.16
508.68	43856.96
508.85	43526.94
509.03	44130.80
509.20	44039.52
509.38	44275.91
509.55	44320.38
509.73	44442.09
509.90	44931.26
510.08	45020.20
510.25	44966.37
510.42	44790.83
510.60	44942.97
510.77	45354.90
510.95	45504.70
511.12	45146.59
511.30	45352.56
511.47	45518.74
511.64	45638.11
511.82	45645.13
511.99	45525.76
512.17	46047.70
512.34	46019.61
512.51	46447.93
512.69	46265.37
512.86	46843.48
513.04	46614.11
513.21	46946.47
513.38	46742.84
513.56	46571.98
513.73	46866.89
513.90	47166.48
514.08	47068.17
514.25	47405.21
514.43	47426.28
514.60	47098.60
514.77	47573.73
514.95	47676.71
515.12	47435.64
515.29	47957.58
515.47	47805.44
515.64	47938.85
515.81	47880.34
515.99	48334.40
516.16	48781.45
516.33	48648.03
516.51	48570.80
516.68	48507.60
516.85	48652.72
517.03	49118.48
517.20	49095.08
517.37	48563.78
517.54	49029.54
517.72	48774.42
517.89	49116.14
518.06	49441.48
518.24	49717.66
518.41	49490.63
518.58	49308.07
518.75	49373.60
518.93	49715.32
519.10	49347.86
519.27	49830.01
519.45	49769.15
519.62	50052.36
519.79	49975.12
519.96	49722.34
520.14	50373.01
520.31	50555.57
520.48	50593.02
520.65	50167.04
520.83	50459.61
521.00	50698.34
521.17	50520.46
521.34	50436.20
521.52	51098.58
521.69	50878.57
521.86	51339.65
522.03	51269.43
522.20	51452.00
522.38	51573.70
522.55	51414.55
522.72	51222.62
522.89	51505.83
523.07	51395.82
523.24	51217.94
523.41	51732.86
523.58	51503.49
523.75	52135.43
523.92	51739.88
524.10	51978.62
524.27	52081.60
524.44	52058.20
524.61	51861.59
524.78	52346.08
524.96	52207.99
525.13	52472.47
525.30	52542.69
525.47	52378.85
525.64	52301.61
525.81	52725.25
525.98	52868.02
526.16	52928.87
526.33	52533.32
526.50	53006.11
526.67	52657.37
526.84	52907.81
527.01	52844.62
527.18	53064.63
527.36	52818.87
527.53	53158.25
527.70	53399.32
527.87	53324.43
528.04	53251.87
528.21	53626.35
528.38	53350.17
528.55	53755.08
528.72	53301.02
528.89	53357.19
529.07	53373.58
529.24	53439.11
529.41	53748.06
529.58	54024.25
529.75	53722.32
529.92	53935.30
530.09	53698.91
530.26	53879.13
530.43	53982.12
530.60	54045.31
530.77	53916.58
530.94	54082.76
531.11	54075.74
531.28	54160.00
531.46	54497.03
531.63	54361.28
531.80	54176.38
531.97	54384.69
532.14	54639.81
532.31	54321.49
532.48	54660.87
532.65	54815.35
532.82	54422.14
532.99	54658.53
533.16	54749.81
533.33	54901.95
533.50	54899.61
533.67	54857.48
533.84	54773.22
534.01	55100.89
534.18	55000.25
534.35	55365.37
534.52	55260.05
534.69	55407.50
534.86	55508.14
535.03	54908.97
535.20	55344.31
535.37	55323.24
535.54	55477.72
535.71	55330.26
535.88	55498.78
536.05	55288.13
536.22	55573.68
536.38	55721.13
536.55	55690.71
536.72	55583.04
536.89	55643.90
537.06	55695.39
537.23	55831.14
537.40	55772.63
537.57	55800.71
537.74	55852.20
537.91	55903.70
538.08	56044.13
538.25	55597.09
538.42	55987.95
538.59	56102.64
538.75	56268.82
538.92	56100.30
539.09	56294.56
539.26	56093.28
539.43	56179.88
539.60	56182.22
539.77	56226.69
539.94	56519.26
540.11	56498.19
540.28	56432.66
540.44	56697.14
540.61	56327.33
540.78	56432.66
540.95	56563.73
541.12	56559.05
541.29	56423.29
541.46	56687.78
541.62	56732.25
541.79	56638.62
541.96	56516.92
542.13	56687.78
542.30	56762.67
542.47	56882.04
542.63	57092.69
542.80	56821.19
542.97	57190.99
543.14	57347.81
543.31	57076.30
543.48	57413.34
543.64	57516.32
543.81	57481.22
543.98	57689.52
544.15	57455.47
544.32	57581.86
544.48	57879.11
544.65	57642.71
544.82	57488.24
544.99	57481.22
545.16	57762.08
545.32	57399.30
545.49	57743.36
545.66	57879.11
545.83	57764.42
546.00	57724.63
546.16	57717.61
546.33	57661.44
546.50	57572.50
546.67	57640.37
546.83	57483.56
547.00	57616.97
547.17	57677.82
547.34	57886.13
547.50	58024.22
547.67	58129.54
547.84	57921.24
548.00	58178.70
548.17	58188.06
548.34	58155.29
548.51	58188.06
548.67	58227.85
548.84	58241.89
549.01	57907.19
549.18	58237.21
549.34	58143.59
549.51	58113.16
549.68	58506.37
549.84	58391.68
550.01	58548.50
550.18	58475.94
550.34	58419.77
550.51	58602.33
550.68	58686.59
550.84	58309.77
551.01	58590.63
551.18	58621.06
551.34	58541.48
551.51	58639.78
551.68	58518.07
551.84	58630.42
552.01	58569.57
552.18	58686.59
552.34	58581.27
552.51	58686.59
552.68	58508.71
552.84	58618.72
553.01	59047.04
553.18	58850.43
553.34	59000.22
553.51	58754.47
553.67	58904.26
553.84	58913.62
554.01	59007.25
554.17	59035.33
554.34	59124.27
554.51	58932.35
554.67	59173.42
554.84	59054.06
555.00	59014.27
555.17	59157.04
555.33	59049.38
555.50	59030.65
555.67	59084.48
555.83	59110.23
556.00	59215.55
556.16	59426.20
556.33	59456.63
556.50	59367.69
556.66	59358.33
556.83	58953.41
556.99	59597.06
557.16	59627.49
557.32	59601.74
557.49	59786.64
557.65	59316.20
557.82	59416.84
557.98	59285.77
558.15	59444.93
558.32	59639.19
558.48	59456.63
558.65	59662.60
558.81	59576.00
558.98	59662.60
559.14	59753.88
559.31	59758.56
559.47	59742.17
559.64	59613.44
559.80	59842.82
559.97	59646.21
560.13	59583.02
560.30	59957.50
560.46	59751.54
560.63	59709.41
560.79	59957.50
560.96	59824.09
561.12	60037.08
561.29	59863.88
561.45	59999.63
561.61	59760.90
561.78	59870.90
561.94	59906.01
562.11	59875.58
562.27	59711.75
562.44	60097.94
562.60	60142.41
562.77	59894.31
562.93	59856.86
563.10	60229.01
563.26	59894.31
563.42	60327.31
563.59	59920.05
563.75	59828.77
563.92	60104.96
564.08	59992.61
564.24	60121.34
564.41	60200.92
564.57	60252.41
564.74	60135.38
564.90	60076.87
565.07	60170.49
565.23	60193.90
565.39	60177.51
565.56	60224.32
565.72	60306.24
565.88	60306.24
566.05	60156.45
566.21	60100.28
566.38	60376.46
566.54	60364.76
566.70	60402.21
566.87	60498.17
567.03	60210.28
567.19	60612.85
567.36	60584.77
567.52	60285.18
567.68	60554.34
567.85	60336.67
568.01	60477.10
568.17	60282.84
568.34	60631.58
568.50	60460.72
568.66	60273.48
568.83	60486.46
568.99	60523.91
569.15	60526.25
569.32	60406.89
569.48	60418.59
569.64	60748.60
569.81	60582.43
569.97	60472.42
570.13	60477.10
570.30	60413.91
570.46	60441.99
570.62	60666.69
570.78	60638.60
570.95	60666.69
571.11	60673.71
571.27	60282.84
571.43	60416.25
571.60	60809.46
571.76	60456.04
571.92	60694.77
572.09	60444.33
572.25	60437.31
572.41	60554.34
572.57	60743.92
572.74	60912.44
572.90	60711.16
573.06	60802.44
573.22	60629.24
573.38	60734.56
573.55	60736.90
573.71	61013.08
573.87	60846.91
574.03	60491.15
574.20	60804.78
574.36	60533.28
574.52	60743.92
574.68	60963.93
574.84	60755.63
575.01	60598.81
575.17	60781.37
575.33	60694.77
575.49	60591.79
575.65	60776.69
575.82	60907.76
575.98	60811.80
576.14	61034.15
576.30	60893.72
576.46	60860.95
576.62	60690.09
576.79	60828.18
576.95	60584.77
577.11	60961.59
577.27	60804.78
577.43	60945.21
577.59	60633.92
577.75	60818.82
577.92	60556.68
578.08	60718.18
578.24	61027.13
578.40	60999.04
578.56	60893.72
578.72	60954.57
578.88	60858.61
579.04	61010.74
579.21	61134.79
579.37	61057.56
579.53	61261.18
579.69	60821.16
579.85	60802.44
580.01	60711.16
580.17	60727.54
580.33	61282.25
580.49	60858.61
580.65	61233.10
580.82	60933.51
580.98	60963.93
581.14	60804.78
581.30	60954.57
581.46	61036.49
581.62	60882.02
581.78	60896.06
581.94	60945.21
582.10	61162.88
582.26	60938.19
582.42	60966.27
582.58	60987.34
582.74	60898.40
582.90	60963.93
583.06	60865.63
583.22	60800.10
583.38	61008.40
583.54	61078.62
583.70	61001.38
583.86	60999.04
584.02	60786.05
584.18	61109.05
584.34	60938.19
584.50	60935.85
584.66	60830.52
584.82	60933.51
584.98	61130.11
585.14	61212.03
585.30	61031.81
585.46	61085.64
585.62	60994.36
585.78	61137.13
585.94	60835.20
586.10	60952.23
586.26	61027.13
586.42	61137.13
586.58	60982.66
586.74	61022.45
586.90	60940.53
587.06	61176.92
587.22	61085.64
587.38	61146.50
587.54	61338.42
587.70	61296.29
587.86	61251.82
588.02	61045.85
588.18	61268.20
588.34	61036.49
588.49	61118.41
