SpectraSuite Data File
++++++++++++++++++++++++++++++++++++
Date: Fri Oct 25 11:23:57 EDT 2013
User: price-jones
Dark Spectrum Present: No
Reference Spectrum Present: No
Number of Sampled Component Spectra: 1
Spectrometers: USB2+H05261
Integration Time (usec): 100000 (USB2+H05261)
Spectra Averaged: 1 (USB2+H05261)
Boxcar Smoothing: 0 (USB2+H05261)
Correct for Electrical Dark: No (USB2+H05261)
Strobe/Lamp Enabled: No (USB2+H05261)
Correct for Detector Non-linearity: No (USB2+H05261)
Correct for Stray Light: No (USB2+H05261)
Number of Pixels in Processed Spectrum: 2048
>>>>>Begin Processed Spectral Data<<<<<
365.73	236.39
365.92	236.39
366.12	236.39
366.32	121.71
366.52	58.51
366.72	201.29
366.91	117.03
367.11	67.88
367.31	77.24
367.51	119.37
367.70	126.39
367.90	84.26
368.10	145.11
368.30	124.05
368.49	173.20
368.69	187.24
368.89	138.09
369.09	100.64
369.28	173.20
369.48	163.84
369.68	173.20
369.87	241.08
370.07	201.29
370.27	217.67
370.47	318.31
370.66	531.30
370.86	624.92
371.06	620.24
371.25	688.12
371.45	636.63
371.65	606.20
371.84	734.93
372.04	692.80
372.24	713.86
372.44	683.44
372.63	723.23
372.83	702.16
373.03	734.93
373.22	739.61
373.42	748.97
373.62	772.38
373.81	798.12
374.01	877.70
374.21	821.53
374.40	739.61
374.60	891.74
374.79	828.55
374.99	791.10
375.19	889.40
375.38	748.97
375.58	924.51
375.78	875.36
375.97	784.08
376.17	912.81
376.37	819.19
376.56	882.38
376.76	880.04
376.95	833.23
377.15	842.59
377.35	889.40
377.54	915.15
377.74	844.93
377.93	887.06
378.13	809.83
378.33	870.68
378.52	912.81
378.72	959.62
378.91	1025.15
379.11	966.64
379.31	919.83
379.50	964.30
379.70	1015.79
379.89	957.28
380.09	903.45
380.28	966.64
380.48	1018.13
380.68	950.26
380.87	933.87
381.07	968.98
381.26	1020.47
381.46	971.32
381.65	992.39
381.85	1039.20
382.04	1022.81
382.24	1069.62
382.43	1050.90
382.63	922.17
382.83	1078.99
383.02	1116.44
383.22	1179.63
383.41	1048.56
383.61	1078.99
383.80	1212.40
384.00	1109.41
384.19	1062.60
384.39	1132.82
384.58	1158.57
384.78	1071.97
384.97	1050.90
385.17	1158.57
385.36	1081.33
385.56	1123.46
385.75	1247.51
385.95	1181.97
386.14	1165.59
386.34	1116.44
386.53	1160.91
386.72	1193.67
386.92	1247.51
387.11	1268.57
387.31	1219.42
387.50	1261.55
387.70	1273.25
387.89	1226.44
388.09	1289.64
388.28	1313.04
388.48	1329.42
388.67	1320.06
388.86	1348.15
389.06	1254.53
389.25	1315.38
389.45	1324.74
389.64	1418.36
389.84	1270.91
390.03	1378.58
390.22	1437.09
390.42	1327.08
390.61	1338.79
390.81	1434.75
391.00	1561.14
391.19	1481.56
391.39	1427.73
391.58	1486.24
391.78	1469.86
391.97	1446.45
392.16	1502.62
392.36	1596.25
392.55	1537.73
392.75	1472.20
392.94	1551.78
393.13	1554.12
393.33	1511.99
393.52	1514.33
393.71	1558.80
393.91	1561.14
394.10	1469.86
394.29	1633.69
394.49	1544.75
394.68	1593.90
394.88	1593.90
395.07	1654.76
395.26	1547.09
395.46	1713.27
395.65	1689.87
395.84	1720.29
396.04	1827.96
396.23	1769.44
396.42	1687.53
396.62	1863.07
396.81	1795.19
397.00	1729.66
397.19	1692.21
397.39	1762.42
397.58	1767.10
397.77	1867.75
397.97	1886.47
398.16	1851.36
398.35	1893.49
398.55	1895.83
398.74	1991.80
398.93	2059.67
399.12	1907.54
399.32	1879.45
399.51	1860.73
399.70	2106.48
399.90	1919.24
400.09	2033.93
400.28	2031.58
400.47	1933.28
400.67	1996.48
400.86	2076.06
401.05	2129.89
401.24	2080.74
401.44	2029.24
401.63	2183.72
401.82	2090.10
402.01	2122.87
402.21	2146.27
402.40	2251.60
402.59	2181.38
402.78	2235.21
402.97	2291.38
403.17	2289.04
403.36	2349.90
403.55	2382.67
403.74	2340.54
403.93	2413.09
404.13	2401.39
404.32	2401.39
404.51	2267.98
404.70	2335.85
404.89	2354.58
405.09	2434.16
405.28	2502.03
405.47	2445.86
405.66	2394.37
405.85	2431.82
406.05	2525.44
406.24	2605.02
406.43	2614.38
406.62	2626.08
406.81	2647.15
407.00	2548.84
407.20	2621.40
407.39	2647.15
407.58	2642.46
407.77	2736.09
407.96	2740.77
408.15	2679.91
408.34	2626.08
408.54	2794.60
408.73	2747.79
408.92	2820.35
409.11	2869.50
409.30	2979.50
409.49	2867.16
409.68	2979.50
409.87	2911.63
410.07	2960.78
410.26	2885.88
410.45	2991.20
410.64	2939.71
410.83	3047.38
411.02	3098.87
411.21	3110.57
411.40	3155.04
411.59	3166.74
411.78	3225.26
411.98	3133.98
412.17	3225.26
412.36	3227.60
412.55	3328.24
412.74	3384.41
412.93	3353.99
413.12	3286.11
413.31	3590.38
413.50	3478.04
413.69	3534.21
413.88	3606.77
414.07	3639.53
414.26	3674.64
414.45	3604.42
414.64	3721.45
414.83	3747.20
415.02	3672.30
415.22	3763.58
415.41	3826.78
415.60	3873.59
415.79	3967.21
415.98	3950.82
416.17	3976.57
416.36	3854.86
416.55	3997.64
416.74	4147.43
416.93	3983.59
417.12	4100.62
417.31	4177.86
417.50	4292.54
417.69	4390.84
417.88	4259.78
418.07	4358.08
418.26	4344.03
418.45	4353.40
418.64	4437.66
418.83	4493.83
419.02	4372.12
419.21	4507.87
419.39	4496.17
419.58	4465.74
419.77	4411.91
419.96	4580.43
420.15	4542.98
420.34	4585.11
420.53	4578.09
420.72	4678.73
420.91	4662.35
421.10	4765.33
421.29	4821.50
421.48	4699.80
421.67	4734.90
421.86	4833.21
422.05	4933.85
422.24	4868.31
422.43	4924.49
422.61	4926.83
422.80	4781.71
422.99	4868.31
423.18	4938.53
423.37	5114.07
423.56	4943.21
423.75	5043.85
423.94	4826.18
424.13	4748.95
424.32	4809.80
424.50	4968.96
424.69	5125.77
424.88	5167.90
425.07	4959.60
425.26	4983.00
425.45	4954.91
425.64	4938.53
425.83	4924.49
426.01	5181.95
426.20	5043.85
426.39	5048.54
426.58	5022.79
426.77	5121.09
426.96	5135.14
427.15	5078.96
427.33	5170.24
427.52	5097.69
427.71	5226.42
427.90	5188.97
428.09	5294.29
428.28	5434.72
428.46	5268.55
428.65	5406.64
428.84	5544.73
429.03	5626.65
429.22	5373.87
429.40	5462.81
429.59	5607.92
429.78	5364.51
429.97	5359.83
430.16	5345.78
430.34	5671.12
430.53	5694.52
430.72	5724.95
430.91	5582.18
431.10	5633.67
431.28	5799.85
431.47	5898.15
431.66	5811.55
431.85	5767.08
432.03	5692.18
432.22	5942.62
432.41	5881.77
432.60	5877.09
432.79	6005.81
432.97	5982.41
433.16	6148.59
433.35	5944.96
433.54	6008.16
433.72	6150.93
433.91	6179.01
434.10	6256.25
434.28	6160.29
434.47	6291.36
434.66	6256.25
434.85	6370.94
435.03	6373.28
435.22	6314.77
435.41	6399.02
435.59	6492.65
435.78	6384.98
435.97	6464.56
436.16	6408.39
436.34	6326.47
436.53	6551.16
436.72	6693.93
436.90	6464.56
437.09	6551.16
437.28	6473.92
437.46	6614.35
437.65	6597.97
437.84	6789.89
438.02	6686.91
438.21	6871.81
438.40	6658.82
438.58	7190.13
438.77	7007.56
438.96	7073.10
439.14	7204.17
439.33	7056.72
439.52	7290.77
439.70	7281.41
439.89	7215.87
440.08	7475.67
440.26	7365.67
440.45	7358.64
440.63	7538.87
440.82	7494.40
441.01	7494.40
441.19	7688.66
441.38	7882.92
441.57	7447.58
441.75	7831.43
441.94	7934.42
442.12	7964.84
442.31	8248.05
442.50	8072.51
442.68	7953.14
442.87	8046.76
443.05	8224.64
443.24	8297.20
443.43	8100.59
443.61	8177.83
443.80	8498.49
443.98	8210.60
444.17	7960.16
444.35	8292.52
444.54	8269.11
444.73	8325.29
444.91	8400.18
445.10	8388.48
445.28	8393.16
445.47	8294.86
445.65	8402.52
445.84	8276.13
446.02	8376.78
446.21	8369.76
446.39	8566.36
446.58	8695.09
446.77	8578.06
446.95	8432.95
447.14	8475.08
447.32	8704.45
447.51	8685.73
447.69	8393.16
447.88	8636.58
448.06	8547.64
448.25	8491.46
448.43	8702.11
448.62	8643.60
448.80	8430.61
448.99	8793.39
449.17	8662.32
449.36	8585.08
449.54	8887.01
449.73	8982.98
449.91	8905.74
450.10	8854.25
450.28	9139.79
450.46	9153.84
450.65	9135.11
450.83	9053.19
451.02	9245.12
451.20	9151.49
451.39	9121.07
451.57	9200.65
451.76	8985.32
451.94	9273.20
452.13	9472.15
452.31	9200.65
452.49	9224.05
452.68	9324.69
452.86	9228.73
453.05	9329.38
453.23	9603.22
453.42	9249.80
453.60	9238.09
453.78	9591.52
453.97	9455.76
454.15	9596.20
454.34	9423.00
454.52	9872.38
454.70	9584.49
454.89	9692.16
455.07	9841.95
455.26	9921.53
455.44	9977.70
455.62	9745.99
455.81	10026.86
455.99	9963.66
456.17	10246.87
456.36	10061.96
456.54	10078.35
456.73	10373.25
456.91	10576.88
457.09	10501.98
457.28	10469.22
457.46	10551.14
457.64	10560.50
457.83	10506.66
458.01	10340.49
458.19	10619.01
458.38	10569.86
458.56	10609.65
458.74	10829.66
458.93	10637.73
459.11	10803.91
459.29	10527.73
459.48	10820.30
459.66	10703.27
459.84	11019.24
460.03	11087.12
460.21	10963.07
460.39	11082.44
460.57	11091.80
460.76	11140.95
460.94	11157.33
461.12	11248.61
461.31	11279.04
461.49	11171.38
461.67	11403.09
461.85	11234.57
462.04	11344.58
462.22	11424.15
462.40	11707.36
462.59	11592.67
462.77	11499.05
462.95	11779.92
463.13	11737.79
463.32	11679.27
463.50	11763.53
463.68	11796.30
463.86	11868.86
464.05	11742.47
464.23	11492.03
464.41	11843.11
464.59	11864.18
464.78	12175.47
464.96	11908.65
465.14	11894.60
465.32	12049.08
465.50	12121.63
465.69	12308.88
465.87	12088.87
466.05	12320.58
466.23	12084.19
466.41	12318.24
466.60	12533.57
466.78	12175.47
466.96	12269.09
467.14	12252.70
467.32	12423.56
467.51	12189.51
467.69	12315.90
467.87	12519.53
468.05	12542.93
468.23	12615.49
468.41	12453.99
468.60	12898.69
468.78	12498.46
468.96	12500.80
469.14	12877.63
469.32	13036.78
469.50	12582.72
469.69	12929.12
469.87	13181.90
470.05	13186.58
470.23	13378.50
470.41	13184.24
470.59	13387.86
470.77	13184.24
470.95	13263.82
471.14	13511.91
471.32	13266.16
471.50	13640.64
471.68	13715.54
471.86	13930.87
472.04	13865.33
472.22	13872.36
472.40	13720.22
472.58	13750.65
472.77	13928.53
472.95	14202.37
473.13	14696.22
473.31	14083.00
473.49	14024.49
473.67	14174.28
473.85	14427.06
474.03	14745.38
474.21	14815.59
474.39	14752.40
474.57	14703.25
474.75	14764.10
474.93	15211.14
475.12	15136.24
475.30	15234.55
475.48	15145.61
475.66	15176.03
475.84	15365.62
476.02	15370.30
476.20	15236.89
476.38	15765.85
476.56	16306.51
476.74	15875.85
476.92	16077.14
477.10	15922.66
477.28	16182.46
477.46	16404.81
477.64	16563.97
477.82	16676.32
478.00	16807.39
478.18	16540.57
478.36	16924.41
478.54	17022.72
478.72	17156.13
478.90	17310.60
479.08	17909.78
479.26	17738.92
479.44	17626.57
479.62	17848.93
479.80	18090.00
479.98	18284.26
480.16	18986.43
480.34	18408.31
480.52	18766.42
480.70	18752.37
480.88	18607.26
481.06	18890.46
481.24	18757.05
481.41	19389.00
481.59	19274.31
481.77	19601.99
481.95	19482.62
482.13	19913.28
482.31	19878.17
482.49	20231.59
482.67	20322.87
482.85	20664.59
483.03	20744.17
483.21	21083.55
483.39	20790.98
483.57	20926.73
483.74	21460.37
483.92	21408.88
484.10	20971.20
484.28	22026.78
484.46	22099.34
484.64	22258.49
484.82	22237.43
485.00	22555.74
485.18	22609.58
485.35	23065.98
485.53	22841.29
485.71	22892.78
485.89	23529.41
486.07	23494.30
486.25	23501.32
486.43	23623.03
486.61	23999.85
486.78	23924.96
486.96	24168.37
487.14	24620.10
487.32	24596.69
487.50	24706.70
487.68	25057.78
487.85	25277.79
488.03	25635.89
488.21	26092.29
488.39	26012.71
488.57	25888.67
488.75	26604.87
488.92	26696.15
489.10	26632.96
489.28	26838.92
489.46	27360.86
489.64	26944.25
489.81	27721.30
489.99	27803.22
490.17	27702.58
490.35	28283.03
490.53	28116.86
490.70	28341.55
490.88	28362.61
491.06	29095.20
491.24	28900.94
491.41	29233.29
491.59	29298.83
491.77	29530.54
491.95	29764.59
492.13	29682.67
492.30	30122.69
492.48	30534.63
492.66	30518.25
492.84	30487.82
493.01	30700.81
493.19	30665.70
493.37	30976.99
493.54	30801.45
493.72	31498.93
493.90	31723.62
494.08	31838.31
494.25	32332.16
494.43	32294.71
494.61	32264.28
494.79	32755.80
494.96	32486.64
495.14	32290.03
495.32	33244.97
495.49	33486.04
495.67	33589.03
495.85	33907.34
496.02	34094.58
496.20	34223.31
496.38	34298.21
496.55	34096.92
496.73	34986.33
496.91	34768.66
497.09	34986.33
497.26	34881.00
497.44	34885.68
497.62	35154.85
497.79	36095.74
497.97	35943.61
498.14	36079.36
498.32	36259.58
498.50	36367.24
498.67	36655.13
498.85	36517.04
499.03	36788.54
499.20	36180.00
499.38	37340.91
499.56	37186.43
499.73	37373.67
499.91	37450.91
500.08	37701.35
500.26	37441.55
500.44	38197.54
500.61	38054.77
500.79	38103.92
500.97	38382.45
501.14	38845.87
501.32	38691.40
501.49	38583.73
501.67	38581.39
501.84	39037.80
502.02	38899.70
502.20	39171.21
502.37	39475.48
502.55	39306.96
502.72	39646.33
502.90	39739.96
503.07	39592.50
503.25	39995.07
503.43	40266.58
503.60	40147.21
503.78	40421.05
503.95	40493.61
504.13	40643.40
504.30	40957.03
504.48	40718.30
504.65	41092.79
504.83	41195.77
505.01	41467.27
505.18	41572.60
505.36	41949.42
505.53	41244.92
505.71	41825.37
505.88	41528.13
506.06	41837.08
506.23	41668.56
506.41	41752.82
506.58	42171.77
506.76	42115.60
506.93	42873.93
507.11	42588.39
507.28	42363.70
507.46	42834.14
507.63	42885.64
507.81	43763.34
507.98	42979.26
508.16	43189.91
508.33	43330.34
508.50	43477.79
508.68	43950.58
508.85	43943.56
509.03	43800.79
509.20	44296.98
509.38	44563.80
509.55	44538.05
509.73	44893.82
509.90	44533.37
510.08	44577.84
510.25	44767.43
510.42	44615.29
510.60	45146.59
510.77	45537.46
510.95	45883.86
511.12	45277.66
511.30	45610.02
511.47	45481.29
511.64	46045.36
511.82	46103.87
511.99	45951.74
512.17	45830.03
512.34	46021.95
512.51	46548.57
512.69	46232.60
512.86	46506.44
513.04	46843.48
513.21	46447.93
513.38	46635.17
513.56	47103.28
513.73	46817.74
513.90	46906.68
514.08	47049.45
514.25	47372.44
514.43	47449.68
514.60	47791.40
514.77	47412.23
514.95	48121.41
515.12	47627.56
515.29	47587.77
515.47	47679.05
515.64	48428.02
515.81	48289.93
515.99	48388.24
516.16	48446.75
516.33	48271.21
516.51	48664.42
516.68	48762.72
516.85	48645.69
517.03	48931.24
517.20	49174.66
517.37	48739.32
517.54	48736.98
517.72	49057.63
517.89	49525.74
518.06	49230.83
518.24	49485.95
518.41	49102.10
518.58	49530.42
518.75	49200.40
518.93	49825.32
519.10	49389.98
519.27	49858.09
519.45	49757.45
519.62	50031.29
519.79	50188.11
519.96	50047.68
520.14	50286.41
520.31	50092.15
520.48	50578.98
520.65	50436.20
520.83	50548.55
521.00	51185.18
521.17	50433.86
521.34	50747.50
521.52	50581.32
521.69	51016.66
521.86	51288.16
522.03	51271.78
522.20	51267.09
522.38	51742.22
522.55	51363.06
522.72	51496.47
522.89	51491.79
523.07	51716.48
523.24	51688.39
523.41	51828.82
523.58	51615.83
523.75	52058.20
523.92	51767.97
524.10	52364.81
524.27	52189.27
524.44	52212.67
524.61	51929.47
524.78	52416.30
524.96	52554.39
525.13	52158.84
525.30	52315.65
525.47	52617.58
525.64	52711.20
525.81	52793.12
525.98	52715.89
526.16	52643.33
526.33	52830.57
526.50	53375.92
526.67	53066.97
526.84	52905.47
527.01	52800.15
527.18	52884.40
527.36	53029.52
527.53	53272.93
527.70	53572.52
527.87	53427.41
528.04	53207.40
528.21	53694.23
528.38	53303.36
528.55	53567.84
528.72	53242.51
528.89	53602.95
529.07	53483.58
529.24	53528.05
529.41	53832.32
529.58	53673.16
529.75	53689.55
529.92	53808.92
530.09	54335.54
530.26	54038.29
530.43	54321.49
530.60	53876.79
530.77	53993.82
530.94	54183.40
531.11	54117.87
531.28	54284.04
531.46	54347.24
531.63	54415.11
531.80	54408.09
531.97	54445.54
532.14	54511.08
532.31	54447.88
532.48	54780.24
532.65	54576.61
532.82	54637.47
532.99	54944.08
533.16	54541.50
533.33	54717.04
533.50	55297.50
533.67	54679.60
533.84	55079.83
534.01	55018.97
534.18	55145.36
534.35	55238.98
534.52	55128.98
534.69	55253.03
534.86	55255.37
535.03	55086.85
535.20	55224.94
535.37	55257.71
535.54	55430.91
535.71	55299.84
535.88	55395.80
536.05	55363.03
536.22	55643.90
536.38	55791.35
536.55	55819.44
536.72	55620.49
536.89	55657.94
537.06	55639.22
537.23	56086.26
537.40	55419.20
537.57	55622.83
537.74	55992.64
537.91	56133.07
538.08	55875.61
538.25	55753.90
538.42	55903.70
538.59	56348.40
538.75	55891.99
538.92	56306.27
539.09	56226.69
539.26	56009.02
539.43	56294.56
539.60	56392.87
539.77	56210.31
539.94	56563.73
540.11	56388.19
540.28	56559.05
540.44	56446.70
540.61	56287.54
540.78	56509.89
540.95	56589.47
541.12	56495.85
541.29	56580.11
541.46	56779.06
541.62	56715.86
541.79	56669.05
541.96	56573.09
542.13	56748.63
542.30	56746.29
542.47	56966.30
542.63	57015.45
542.80	57120.77
542.97	57212.06
543.14	57322.06
543.31	57345.47
543.48	57418.02
543.64	57502.28
543.81	57347.81
543.98	57521.01
544.15	57495.26
544.32	57453.13
544.48	57703.57
544.65	57521.01
544.82	57614.63
544.99	57399.30
545.16	57490.58
545.32	57453.13
545.49	57743.36
545.66	58014.86
545.83	57755.06
546.00	57811.23
546.16	57649.74
546.33	57694.21
546.50	57558.45
546.67	57696.55
546.83	57446.11
547.00	57801.87
547.17	57801.87
547.34	57829.96
547.50	57946.98
547.67	58195.08
547.84	57883.79
548.00	58110.82
548.17	58387.00
548.34	58087.42
548.51	58185.72
548.67	58356.58
548.84	58239.55
549.01	58110.82
549.18	58281.68
549.34	58288.70
549.51	58436.16
549.68	58487.65
549.84	58431.47
550.01	58358.92
550.18	58354.24
550.34	58513.39
550.51	58550.84
550.68	58581.27
550.84	58209.12
551.01	58773.19
551.18	58480.63
551.34	58681.91
551.51	58492.33
551.68	58770.85
551.84	58454.88
552.01	58511.05
552.18	58693.61
552.34	58665.53
552.51	58864.47
552.68	58646.80
552.84	58698.30
553.01	58967.46
553.18	58892.56
553.34	58611.70
553.51	58862.13
553.67	58731.06
553.84	59042.35
554.01	58939.37
554.17	59217.89
554.34	59114.91
554.51	58967.46
554.67	59269.39
554.84	59147.68
555.00	59023.63
555.17	59105.55
555.33	59168.74
555.50	59119.59
555.67	58972.14
555.83	59042.35
556.00	59185.13
556.16	59381.73
556.33	59196.83
556.50	59451.95
556.66	59566.63
556.83	59283.43
556.99	59393.43
557.16	59557.27
557.32	59629.83
557.49	59629.83
557.65	59414.50
557.82	59379.39
557.98	59540.89
558.15	59332.58
558.32	59447.27
558.48	59468.33
558.65	59604.08
558.81	59571.32
558.98	59475.35
559.14	59648.55
559.31	59746.86
559.47	59784.30
559.64	59739.83
559.80	59781.96
559.97	59976.23
560.13	59683.66
560.30	59744.51
560.46	59774.94
560.63	59821.75
560.79	59999.63
560.96	59999.63
561.12	59999.63
561.29	59756.22
561.45	60130.70
561.61	59796.01
561.78	59812.39
561.94	59941.12
562.11	59800.69
562.27	59838.14
562.44	59938.78
562.60	60004.31
562.77	59906.01
562.93	59863.88
563.10	60032.40
563.26	59971.55
563.42	60292.20
563.59	59955.16
563.75	60044.10
563.92	60044.10
564.08	60313.26
564.24	60252.41
564.41	60179.85
564.57	60182.19
564.74	60177.51
564.90	60413.91
565.07	60214.96
565.23	60280.50
565.39	60163.47
565.56	60275.82
565.72	60079.21
565.88	60229.01
566.05	60165.81
566.21	60172.83
566.38	60341.35
566.54	60385.82
566.70	60334.33
566.87	60168.15
567.03	60296.88
567.19	60495.83
567.36	60357.74
567.52	60200.92
567.68	60650.30
567.85	60502.85
568.01	60594.13
568.17	60509.87
568.34	60629.24
568.50	60566.04
568.66	60383.48
568.83	60500.51
568.99	60388.16
569.15	60514.55
569.32	60591.79
569.48	60432.63
569.64	60488.80
569.81	60512.21
569.97	60460.72
570.13	60559.02
570.30	60530.93
570.46	60488.80
570.62	60893.72
570.78	60481.78
570.95	60535.62
571.11	60683.07
571.27	60645.62
571.43	60617.53
571.60	60793.07
571.76	60456.04
571.92	60418.59
572.09	60584.77
572.25	60568.38
572.41	60657.32
572.57	60477.10
572.74	60898.40
572.90	60659.66
573.06	60802.44
573.22	60802.44
573.38	60720.52
573.55	60645.62
573.71	60933.51
573.87	60692.43
574.03	60495.83
574.20	60605.83
574.36	60774.35
574.52	60973.30
574.68	60992.02
574.84	60940.53
575.01	60748.60
575.17	60542.64
575.33	60711.16
575.49	60711.16
575.65	60935.85
575.82	60739.24
575.98	60898.40
576.14	60947.55
576.30	60832.86
576.46	60933.51
576.62	60856.27
576.79	60680.73
576.95	60587.11
577.11	60900.74
577.27	60917.12
577.43	60933.51
577.59	60905.42
577.75	60828.18
577.92	60697.11
578.08	60715.84
578.24	60970.96
578.40	60816.48
578.56	60938.19
578.72	61078.62
578.88	60825.84
579.04	61092.66
579.21	61006.06
579.37	61008.40
579.53	61221.39
579.69	60664.35
579.85	60999.04
580.01	60844.57
580.17	60828.18
580.33	61076.28
580.49	60954.57
580.65	61048.19
580.82	60760.31
580.98	60839.89
581.14	60769.67
581.30	61080.96
581.46	60776.69
581.62	60996.70
581.78	60659.66
581.94	60912.44
582.10	61003.72
582.26	60853.93
582.42	60926.49
582.58	61085.64
582.74	60945.21
582.90	60985.00
583.06	60977.98
583.22	60816.48
583.38	61109.05
583.54	60860.95
583.70	61071.60
583.86	61176.92
584.02	61052.87
584.18	61179.26
584.34	61078.62
584.50	61024.79
584.66	60968.61
584.82	60844.57
584.98	61113.73
585.14	61052.87
585.30	61062.24
585.46	61183.94
585.62	61059.90
585.78	60973.30
585.94	61050.53
586.10	61024.79
586.26	61162.88
586.42	61090.32
586.58	61188.63
586.74	61188.63
586.90	61083.30
587.06	61057.56
587.22	61181.60
587.38	61102.03
587.54	61254.16
587.70	61219.05
587.86	61116.07
588.02	61261.18
588.18	61162.88
588.34	61146.50
588.49	61055.21
