SpectraSuite Data File
++++++++++++++++++++++++++++++++++++
Date: Fri Oct 25 11:25:44 EDT 2013
User: price-jones
Dark Spectrum Present: No
Reference Spectrum Present: No
Number of Sampled Component Spectra: 1
Spectrometers: USB2+H05261
Integration Time (usec): 100000 (USB2+H05261)
Spectra Averaged: 1 (USB2+H05261)
Boxcar Smoothing: 0 (USB2+H05261)
Correct for Electrical Dark: No (USB2+H05261)
Strobe/Lamp Enabled: No (USB2+H05261)
Correct for Detector Non-linearity: No (USB2+H05261)
Correct for Stray Light: No (USB2+H05261)
Number of Pixels in Processed Spectrum: 2048
>>>>>Begin Processed Spectral Data<<<<<
365.73	299.59
365.92	299.59
366.12	299.59
366.32	133.41
366.52	58.51
366.72	110.01
366.91	119.37
367.11	152.13
367.31	117.03
367.51	161.50
367.70	135.75
367.90	173.20
368.10	217.67
368.30	170.86
368.49	156.82
368.69	191.92
368.89	124.05
369.09	238.73
369.28	215.33
369.48	159.16
369.68	154.48
369.87	215.33
370.07	259.80
370.27	280.86
370.47	395.55
370.66	550.03
370.86	554.71
371.06	753.65
371.25	727.91
371.45	641.31
371.65	695.14
371.84	678.76
372.04	636.63
372.24	732.59
372.44	734.93
372.63	734.93
372.83	690.46
373.03	774.72
373.22	692.80
373.42	746.63
373.62	781.74
373.81	816.85
374.01	798.12
374.21	854.30
374.40	814.51
374.60	821.53
374.79	842.59
374.99	784.08
375.19	870.68
375.38	896.43
375.58	908.13
375.78	833.23
375.97	791.10
376.17	924.51
376.37	903.45
376.56	919.83
376.76	917.49
376.95	898.77
377.15	894.08
377.35	924.51
377.54	851.96
377.74	882.38
377.93	896.43
378.13	919.83
378.33	884.72
378.52	910.47
378.72	1008.77
378.91	898.77
379.11	915.15
379.31	915.15
379.50	826.21
379.70	910.47
379.89	968.98
380.09	891.74
380.28	1018.13
380.48	931.53
380.68	1018.13
380.87	952.60
381.07	997.07
381.26	1053.24
381.46	1060.26
381.65	1025.15
381.85	1053.24
382.04	1074.31
382.24	1179.63
382.43	1111.75
382.63	1034.52
382.83	1130.48
383.02	1118.78
383.22	1102.39
383.41	1083.67
383.61	1116.44
383.80	1172.61
384.00	1130.48
384.19	1097.71
384.39	1069.62
384.58	1093.03
384.78	1125.80
384.97	1188.99
385.17	1116.44
385.36	1214.74
385.56	1116.44
385.75	1224.10
385.95	1203.04
386.14	1301.34
386.34	1172.61
386.53	1198.35
386.72	1219.42
386.92	1289.64
387.11	1254.53
387.31	1170.27
387.50	1277.93
387.70	1282.61
387.89	1268.57
388.09	1259.21
388.28	1327.08
388.48	1249.85
388.67	1355.17
388.86	1275.59
389.06	1303.68
389.25	1329.42
389.45	1397.30
389.64	1331.76
389.84	1369.21
390.03	1308.36
390.22	1329.42
390.42	1380.92
390.61	1432.41
390.81	1341.13
391.00	1401.98
391.19	1460.49
391.39	1486.24
391.58	1483.90
391.78	1416.02
391.97	1437.09
392.16	1521.35
392.36	1465.18
392.55	1493.26
392.75	1516.67
392.94	1535.39
393.13	1460.49
393.33	1479.22
393.52	1551.78
393.71	1565.82
393.91	1614.97
394.10	1589.22
394.29	1572.84
394.49	1502.62
394.68	1633.69
394.88	1706.25
395.07	1710.93
395.26	1682.85
395.46	1701.57
395.65	1769.44
395.84	1664.12
396.04	1809.23
396.23	1783.49
396.42	1790.51
396.62	1870.09
396.81	1799.87
397.00	1717.95
397.19	1678.16
397.39	1783.49
397.58	1818.60
397.77	1827.96
397.97	1893.49
398.16	1823.28
398.35	1881.79
398.55	1907.54
398.74	1909.88
398.93	1975.41
399.12	1942.64
399.32	1881.79
399.51	1952.01
399.70	1905.20
399.90	1900.52
400.09	2054.99
400.28	2106.48
400.47	1919.24
400.67	2043.29
400.86	2111.16
401.05	2141.59
401.24	2050.31
401.44	2197.76
401.63	2157.97
401.82	2113.50
402.01	2062.01
402.21	2108.82
402.40	2148.61
402.59	2209.47
402.78	2183.72
402.97	2249.25
403.17	2225.85
403.36	2279.68
403.55	2399.05
403.74	2300.75
403.93	2335.85
404.13	2434.16
404.32	2307.77
404.51	2342.88
404.70	2389.69
404.89	2431.82
405.09	2504.37
405.28	2427.14
405.47	2434.16
405.66	2525.44
405.85	2464.58
406.05	2581.61
406.24	2560.55
406.43	2576.93
406.62	2537.14
406.81	2700.98
407.00	2647.15
407.20	2527.78
407.39	2623.74
407.58	2600.34
407.77	2705.66
407.96	2738.43
408.15	2686.94
408.34	2654.17
408.54	2799.28
408.73	2700.98
408.92	2827.37
409.11	2878.86
409.30	2818.00
409.49	2860.13
409.68	2925.67
409.87	2862.48
410.07	2930.35
410.26	3042.70
410.45	2977.16
410.64	3021.63
410.83	3059.08
411.02	2970.14
411.21	3150.36
411.40	3122.27
411.59	3206.53
411.78	3183.13
411.98	3204.19
412.17	3286.11
412.36	3225.26
412.55	3351.65
412.74	3225.26
412.93	3358.67
413.12	3353.99
413.31	3557.61
413.50	3407.82
413.69	3421.86
413.88	3531.87
414.07	3630.17
414.26	3506.12
414.45	3691.02
414.64	3595.06
414.83	3714.43
415.02	3681.66
415.22	3735.50
415.41	3836.14
415.60	3803.37
415.79	3880.61
415.98	3899.33
416.17	4016.36
416.36	3981.25
416.55	4070.19
416.74	4159.13
416.93	3964.87
417.12	4131.05
417.31	4109.98
417.50	4159.13
417.69	4362.76
417.88	4245.73
418.07	4245.73
418.26	4238.71
418.45	4248.07
418.64	4479.79
418.83	4393.19
419.02	4395.53
419.21	4376.80
419.39	4409.57
419.58	4454.04
419.77	4400.21
419.96	4589.79
420.15	4533.62
420.34	4606.17
420.53	4550.00
420.72	4805.12
420.91	4737.24
421.10	4795.76
421.29	4723.20
421.48	4636.60
421.67	4723.20
421.86	4835.55
422.05	4737.24
422.24	4856.61
422.43	4936.19
422.61	4985.34
422.80	4887.04
422.99	4912.78
423.18	4809.80
423.37	5107.05
423.56	4849.59
423.75	4816.82
423.94	4809.80
424.13	4540.64
424.32	4678.73
424.50	4924.49
424.69	5071.94
424.88	4922.15
425.07	4875.34
425.26	4847.25
425.45	5076.62
425.64	5027.47
425.83	5046.20
426.01	4929.17
426.20	4933.85
426.39	5006.41
426.58	5118.75
426.77	5191.31
426.96	5284.93
427.15	5064.92
427.33	5146.84
427.52	5179.61
427.71	5238.12
427.90	5200.67
428.09	5259.18
428.28	5378.55
428.46	5298.97
428.65	5184.29
428.84	5458.13
429.03	5371.53
429.22	5423.02
429.40	5336.42
429.59	5537.71
429.78	5329.40
429.97	5221.74
430.16	5420.68
430.34	5502.60
430.53	5610.26
430.72	5647.71
430.91	5619.63
431.10	5610.26
431.28	5652.39
431.47	5886.45
431.66	5764.74
431.85	5720.27
432.03	5895.81
432.22	5949.64
432.41	5930.92
432.60	5912.19
432.79	5743.67
432.97	6001.13
433.16	6061.99
433.35	6015.18
433.54	6090.07
433.72	6218.80
433.91	6120.50
434.10	6090.07
434.28	6164.97
434.47	6129.86
434.66	6202.42
434.85	6338.17
435.03	6242.21
435.22	6202.42
435.41	6459.88
435.59	6380.30
435.78	6338.17
435.97	6518.39
436.16	6389.66
436.34	6527.75
436.53	6579.25
436.72	6506.69
436.90	6406.05
437.09	6604.99
437.28	6513.71
437.46	6633.08
437.65	6487.96
437.84	6722.02
438.02	6754.79
438.21	6794.58
438.40	6775.85
438.58	7052.03
438.77	7073.10
438.96	6965.43
439.14	7204.17
439.33	7234.60
439.52	7124.59
439.70	7353.96
439.89	7314.17
440.08	7307.15
440.26	7384.39
440.45	7133.95
440.63	7538.87
440.82	7520.14
441.01	7527.16
441.19	7478.01
441.38	7812.71
441.57	7829.09
441.75	7751.85
441.94	8025.70
442.12	7852.50
442.31	7782.28
442.50	8074.85
442.68	7793.98
442.87	7829.09
443.05	8093.57
443.24	8166.13
443.43	8042.08
443.61	8138.04
443.80	8386.14
443.98	8025.70
444.17	7707.38
444.35	8109.96
444.54	8400.18
444.73	8299.54
444.91	8215.28
445.10	8449.33
445.28	8119.32
445.47	8187.19
445.65	8135.70
445.84	8524.23
446.02	8594.45
446.21	8383.80
446.39	8390.82
446.58	8435.29
446.77	8554.66
446.95	8166.13
447.14	8386.14
447.32	8589.77
447.51	8425.93
447.69	8205.92
447.88	8547.64
448.06	8390.82
448.25	8418.91
448.43	8446.99
448.62	8552.32
448.80	8664.66
448.99	8699.77
449.17	8400.18
449.36	8683.39
449.54	8678.71
449.73	8943.19
449.91	9050.85
450.10	8887.01
450.28	8844.88
450.46	9027.45
450.65	8926.80
450.83	8980.64
451.02	8980.64
451.20	9083.62
451.39	8917.44
451.57	9184.26
451.76	9022.77
451.94	9130.43
452.13	9142.13
452.31	9282.56
452.49	9074.26
452.68	9338.74
452.86	9418.32
453.05	9291.93
453.23	9355.12
453.42	9439.38
453.60	9404.27
453.78	9582.15
453.97	9483.85
454.15	9490.87
454.34	9715.56
454.52	9671.09
454.70	9635.99
454.89	9715.56
455.07	9535.34
455.26	9776.42
455.44	9834.93
455.62	9949.62
455.81	9837.27
455.99	9846.63
456.17	9928.55
456.36	9809.19
456.54	10132.18
456.73	10111.11
456.91	10721.99
457.09	10471.56
457.28	10609.65
457.46	10209.42
457.64	10581.56
457.83	10473.90
458.01	10415.38
458.19	10586.24
458.38	10267.93
458.56	10747.74
458.74	10768.80
458.93	10747.74
459.11	10801.57
459.29	10686.89
459.48	10801.57
459.66	10459.85
459.84	10721.99
460.03	11033.29
460.21	10761.78
460.39	11012.22
460.57	11007.54
460.76	11009.88
460.94	10998.18
461.12	11075.42
461.31	11206.48
461.49	11218.19
461.67	11110.52
461.85	11424.15
462.04	11028.60
462.22	11599.70
462.40	11445.22
462.59	11438.20
462.77	11337.56
462.95	11571.61
463.13	11719.06
463.32	11702.68
463.50	11513.10
463.68	11698.00
463.86	11688.64
464.05	11597.35
464.23	11946.09
464.41	11910.99
464.59	11461.60
464.78	12217.60
464.96	11754.17
465.14	11651.19
465.32	12168.45
465.50	12252.70
465.69	12056.10
465.87	12023.33
466.05	12128.66
466.23	12299.52
466.41	12035.03
466.60	12365.05
466.78	12046.74
466.96	12365.05
467.14	12219.94
467.32	12514.84
467.51	12702.09
467.69	12336.96
467.87	12552.29
468.05	12519.53
468.23	12610.81
468.41	12662.30
468.60	12449.31
468.78	12725.49
468.96	12767.62
469.14	12776.98
469.32	12891.67
469.50	12835.50
469.69	12989.97
469.87	12989.97
470.05	12830.82
470.23	13167.85
470.41	12936.14
470.59	13249.77
470.77	13102.32
470.95	13207.64
471.14	13502.55
471.32	13004.02
471.50	13495.53
471.68	13619.58
471.86	13661.71
472.04	13734.26
472.22	13891.08
472.40	13547.02
472.58	13731.92
472.77	13937.89
472.95	14218.75
473.13	14253.86
473.31	14017.47
473.49	14106.41
473.67	14043.21
473.85	14200.03
474.03	14595.58
474.21	14450.47
474.39	14764.10
474.57	14647.07
474.75	14696.22
474.93	15094.11
475.12	14860.06
475.30	15227.53
475.48	14890.49
475.66	15335.19
475.84	15042.62
476.02	15344.55
476.20	15234.55
476.38	15468.60
476.56	16060.76
476.74	16002.24
476.92	15817.34
477.10	16074.80
477.28	16030.33
477.46	16074.80
477.64	16070.12
477.82	16528.86
478.00	16594.40
478.18	16837.81
478.36	16791.00
478.54	17053.14
478.72	17153.79
478.90	17060.16
479.08	17561.04
479.26	17767.01
479.44	17717.86
479.62	17788.07
479.80	17886.37
479.98	18078.30
480.16	18930.25
480.34	18036.17
480.52	18597.90
480.70	18665.77
480.88	18515.98
481.06	18845.99
481.24	18813.23
481.41	19124.52
481.59	19381.98
481.77	19278.99
481.95	19548.15
482.13	19843.06
482.31	19620.71
482.49	20105.20
482.67	20147.33
482.85	20442.24
483.03	20648.21
483.21	20753.53
483.39	20713.74
483.57	20727.78
483.74	21170.15
483.92	20929.07
484.10	21343.35
484.28	21664.00
484.46	21930.82
484.64	22134.45
484.82	22422.33
485.00	22078.27
485.18	22705.54
485.35	23051.94
485.53	22387.22
485.71	23002.78
485.89	23470.89
486.07	23166.62
486.25	23110.45
486.43	23363.23
486.61	23819.63
486.78	24217.52
486.96	24074.75
487.14	24601.37
487.32	24177.73
487.50	24601.37
487.68	24737.12
487.85	25345.66
488.03	25486.09
488.21	25811.43
488.39	25612.48
488.57	26001.01
488.75	25902.71
488.92	26452.73
489.10	26754.66
489.28	26621.25
489.46	27147.87
489.64	27063.61
489.81	27627.68
489.99	27501.29
490.17	27358.52
490.35	28018.55
490.53	27784.50
490.70	28266.65
490.88	28030.26
491.06	28521.77
491.24	29006.26
491.41	29022.64
491.59	29076.48
491.77	29071.79
491.95	29481.39
492.13	29958.86
492.30	29727.14
492.48	29858.21
492.66	30150.78
492.84	30197.59
493.01	30195.25
493.19	30345.05
493.37	30913.80
493.54	31255.51
493.72	31222.75
493.90	31393.61
494.08	31756.39
494.25	31690.85
494.43	31644.04
494.61	32561.53
494.79	32275.99
494.96	32261.94
495.14	32510.04
495.32	33329.23
495.49	32938.36
495.67	32587.28
495.85	33457.96
496.02	33565.62
496.20	33766.91
496.38	33921.38
496.55	33968.19
496.73	34642.27
496.91	34415.24
497.09	34834.19
497.26	35196.98
497.44	34972.28
497.62	34885.68
497.79	35604.23
497.97	35079.95
498.14	35957.65
498.32	36072.34
498.50	36533.42
498.67	36114.47
498.85	36236.17
499.03	36070.00
499.20	36673.85
499.38	36683.22
499.56	37261.33
499.73	37317.50
499.91	37074.09
500.08	37305.80
500.26	37123.24
500.44	37745.82
500.61	37727.10
500.79	37699.01
500.97	38087.54
501.14	38899.70
501.32	38337.98
501.49	38443.30
501.67	38560.33
501.84	38270.10
502.02	39105.67
502.20	39187.59
502.37	39225.04
502.55	39115.03
502.72	39208.65
502.90	39201.63
503.07	39349.09
503.25	39526.97
503.43	39206.31
503.60	39739.96
503.78	39927.20
503.95	39583.14
504.13	39913.16
504.30	40252.53
504.48	40568.51
504.65	40825.96
504.83	40568.51
505.01	40765.11
505.18	41069.38
505.36	41048.32
505.53	41205.13
505.71	41502.38
505.88	41493.02
506.06	41284.71
506.23	42293.48
506.41	41312.80
506.58	42478.38
506.76	42120.28
506.93	42321.57
507.11	42307.52
507.28	42108.58
507.46	42478.38
507.63	43049.47
507.81	43157.14
507.98	42700.73
508.16	42920.74
508.33	43323.32
508.50	43501.20
508.68	43555.03
508.85	43831.21
509.03	43920.15
509.20	43805.47
509.38	44460.82
509.55	44559.12
509.73	44287.62
509.90	44554.44
510.08	44652.74
510.25	44568.48
510.42	44863.39
510.60	44849.35
510.77	45057.65
510.95	45713.00
511.12	44615.29
511.30	44935.95
511.47	44989.78
511.64	45504.70
511.82	46120.26
511.99	45333.84
512.17	45701.30
512.34	45617.04
512.51	46326.22
512.69	46412.82
512.86	46412.82
513.04	46286.43
513.21	46609.43
513.38	46953.49
513.56	46902.00
513.73	46515.81
513.90	47386.49
514.08	46667.94
514.25	47040.09
514.43	47000.30
514.60	47164.14
514.77	47178.18
514.95	47187.54
515.12	47487.13
515.29	47459.04
515.47	47988.00
515.64	48299.30
515.81	47531.60
515.99	48020.77
516.16	48348.45
516.33	48610.59
516.51	48809.53
516.68	48378.87
516.85	48179.93
517.03	49017.84
517.20	48804.85
517.37	48264.19
517.54	48765.06
517.72	48996.77
517.89	49024.86
518.06	48956.99
518.24	49088.06
518.41	49139.55
518.58	49221.47
518.75	49003.80
518.93	49329.13
519.10	49279.98
519.27	49727.02
519.45	49844.05
519.62	49504.67
519.79	49792.56
519.96	49935.33
520.14	50305.13
520.31	49984.48
520.48	50440.89
520.65	50176.40
520.83	50522.80
521.00	50391.73
521.17	50464.29
521.34	50588.34
521.52	50698.34
521.69	50522.80
521.86	50967.51
522.03	51199.22
522.20	50918.35
522.38	51360.72
522.55	51306.88
522.72	51435.61
522.89	51140.71
523.07	51667.33
523.24	51531.57
523.41	51608.81
523.58	51634.56
523.75	51868.61
523.92	51536.26
524.10	51824.14
524.27	52144.80
524.44	51707.12
524.61	51810.10
524.78	52137.77
524.96	51721.16
525.13	52205.65
525.30	52142.45
525.47	52399.91
525.64	52704.18
525.81	52264.16
525.98	52245.44
526.16	52308.63
526.33	52439.70
526.50	53078.67
526.67	52252.46
526.84	52882.06
527.01	52783.76
527.18	52758.02
527.36	52973.34
527.53	52790.78
527.70	52954.62
527.87	53406.34
528.04	53146.54
528.21	53237.83
528.38	53181.65
528.55	53333.79
528.72	53394.64
528.89	53387.62
529.07	53427.41
529.24	53207.40
529.41	53668.48
529.58	53703.59
529.75	53525.71
529.92	53373.58
530.09	53642.74
530.26	53757.42
530.43	54160.00
530.60	53848.71
530.77	53904.88
530.94	54040.63
531.11	53986.80
531.28	54028.93
531.46	54049.99
531.63	54431.50
531.80	54167.02
531.97	54298.09
532.14	54211.49
532.31	54363.62
532.48	54344.90
532.65	54518.10
532.82	54459.58
532.99	54412.77
533.16	54326.17
533.33	54583.63
533.50	54937.05
533.67	54747.47
533.84	54447.88
534.01	54761.51
534.18	55033.02
534.35	55084.51
534.52	54976.84
534.69	55229.62
534.86	55253.03
535.03	55072.81
535.20	55454.31
535.37	55140.68
535.54	55229.62
535.71	55271.75
535.88	55288.13
536.05	55487.08
536.22	55370.05
536.38	55323.24
536.55	55564.32
536.72	55650.92
536.89	55461.33
537.06	55554.96
537.23	55611.13
537.40	55728.16
537.57	55442.61
537.74	55639.22
537.91	56023.06
538.08	55742.20
538.25	55803.05
538.42	55870.93
538.59	56016.04
538.75	55765.60
538.92	55774.97
539.09	56229.03
539.26	56062.85
539.43	55922.42
539.60	56170.52
539.77	56339.04
539.94	56409.25
540.11	56210.31
540.28	56186.90
540.44	56439.68
540.61	56346.06
540.78	56437.34
540.95	56371.80
541.12	56561.39
541.29	56495.85
541.46	56392.87
541.62	56540.32
541.79	56523.94
541.96	56406.91
542.13	56669.05
542.30	56631.60
542.47	56837.57
542.63	56828.21
542.80	56802.46
542.97	57162.90
543.14	57200.35
543.31	57186.31
543.48	57165.24
543.64	57305.68
543.81	57464.83
543.98	57134.82
544.15	57223.76
544.32	57436.75
544.48	57422.70
544.65	57256.53
544.82	57504.62
544.99	57216.74
545.16	57464.83
545.32	57521.01
545.49	57502.28
545.66	57680.16
545.83	57666.12
546.00	57565.48
546.16	57799.53
546.33	57373.55
546.50	57464.83
546.67	57691.86
546.83	57368.87
547.00	57443.77
547.17	57633.35
547.34	57712.93
547.50	57907.19
547.67	57996.13
547.84	57991.45
548.00	58019.54
548.17	57921.24
548.34	57942.30
548.51	58183.38
548.67	58042.95
548.84	58092.10
549.01	57991.45
549.18	58138.91
549.34	58075.71
549.51	58220.83
549.68	58492.33
549.84	58178.70
550.01	58272.32
550.18	58365.94
550.34	58431.47
550.51	58337.85
550.68	58099.12
550.84	58089.76
551.01	58555.52
551.18	58354.24
551.34	58475.94
551.51	58546.16
551.68	58532.12
551.84	58616.38
552.01	58382.32
552.18	58782.55
552.34	58408.07
552.51	58621.06
552.68	58525.10
552.84	58803.62
553.01	58808.30
553.18	58726.38
553.34	58782.55
553.51	58609.35
553.67	58618.72
553.84	58745.11
554.01	59135.98
554.17	58969.80
554.34	58974.48
554.51	58930.01
554.67	59004.91
554.84	58777.87
555.00	58801.28
555.17	58801.28
555.33	58850.43
555.50	58808.30
555.67	58908.94
555.83	58810.64
556.00	59072.78
556.16	59311.52
556.33	59089.16
556.50	59147.68
556.66	59107.89
556.83	59056.40
556.99	59430.88
557.16	59461.31
557.32	59423.86
557.49	59529.19
557.65	59054.06
557.82	59391.09
557.98	59416.84
558.15	59475.35
558.32	59477.69
558.48	59332.58
558.65	59512.80
558.81	59395.77
558.98	59407.48
559.14	59550.25
559.31	59454.29
559.47	59686.00
559.64	59515.14
559.80	59604.08
559.97	59763.24
560.13	59559.61
560.30	59461.31
560.46	59639.19
560.63	59660.26
560.79	59765.58
560.96	59884.95
561.12	59709.41
561.29	59653.23
561.45	59990.27
561.61	59730.47
561.78	59625.15
561.94	59639.19
562.11	59840.48
562.27	59678.98
562.44	59835.80
562.60	59922.40
562.77	59931.76
562.93	59597.06
563.10	59927.08
563.26	59973.89
563.42	60140.07
563.59	59910.69
563.75	59875.58
563.92	59831.11
564.08	60046.44
564.24	60135.38
564.41	60149.43
564.57	60016.02
564.74	60025.38
564.90	60339.01
565.07	59852.18
565.23	60076.87
565.39	60053.47
565.56	59973.89
565.72	60130.70
565.88	60001.97
566.05	60111.98
566.21	60062.83
566.38	60161.13
566.54	60226.66
566.70	60245.39
566.87	60250.07
567.03	59934.10
567.19	60346.03
567.36	60214.96
567.52	60420.93
567.68	60488.80
567.85	60310.92
568.01	60353.05
568.17	60493.49
568.34	60350.71
568.50	60275.82
568.66	60376.46
568.83	60432.63
568.99	60254.75
569.15	60385.82
569.32	60528.59
569.48	60179.85
569.64	60420.93
569.81	60411.57
569.97	60285.18
570.13	60441.99
570.30	60378.80
570.46	60458.38
570.62	60451.36
570.78	60406.89
570.95	60446.68
571.11	60334.33
571.27	60383.48
571.43	60521.57
571.60	60582.43
571.76	60399.86
571.92	60516.89
572.09	60470.08
572.25	60439.65
572.41	60486.46
572.57	60537.96
572.74	60594.13
572.90	60514.55
573.06	60526.25
573.22	60481.78
573.38	60418.59
573.55	60552.00
573.71	60844.57
573.87	60774.35
574.03	60617.53
574.20	60622.22
574.36	60516.89
574.52	60741.58
574.68	60474.76
574.84	60708.82
575.01	60666.69
575.17	60647.96
575.33	60692.43
575.49	60605.83
575.65	60523.91
575.82	60563.70
575.98	60694.77
576.14	60652.64
576.30	60825.84
576.46	60601.15
576.62	60760.31
576.79	60612.85
576.95	60671.37
577.11	60743.92
577.27	60809.46
577.43	60697.11
577.59	60669.03
577.75	60633.92
577.92	60477.10
578.08	60566.04
578.24	60748.60
578.40	61113.73
578.56	60870.31
578.72	60657.32
578.88	60860.95
579.04	60947.55
579.21	60746.26
579.37	60863.29
579.53	61048.19
579.69	60608.17
579.85	60725.20
580.01	60715.84
580.17	60877.33
580.33	60844.57
580.49	60874.99
580.65	60650.30
580.82	60872.65
580.98	60757.97
581.14	60781.37
581.30	60968.61
581.46	60832.86
581.62	60896.06
581.78	60512.21
581.94	60734.56
582.10	60699.45
582.26	60837.54
582.42	60736.90
582.58	60781.37
582.74	60790.73
582.90	60858.61
583.06	60774.35
583.22	60776.69
583.38	60886.70
583.54	60846.91
583.70	60835.20
583.86	60907.76
584.02	60856.27
584.18	61113.73
584.34	60776.69
584.50	61029.47
584.66	60797.76
584.82	60809.46
584.98	61141.81
585.14	61127.77
585.30	60858.61
585.46	60762.65
585.62	61027.13
585.78	61045.85
585.94	60776.69
586.10	61057.56
586.26	61041.17
586.42	61127.77
586.58	61134.79
586.74	60933.51
586.90	60889.04
587.06	60851.59
587.22	61249.48
587.38	60832.86
587.54	61261.18
587.70	61134.79
587.86	60968.61
588.02	61022.45
588.18	61247.14
588.34	60821.16
588.49	60994.36
