SpectraSuite Data File
++++++++++++++++++++++++++++++++++++
Date: Fri Oct 25 11:33:47 EDT 2013
User: price-jones
Dark Spectrum Present: No
Reference Spectrum Present: No
Number of Sampled Component Spectra: 1
Spectrometers: USB2+H05261
Integration Time (usec): 100000 (USB2+H05261)
Spectra Averaged: 1 (USB2+H05261)
Boxcar Smoothing: 0 (USB2+H05261)
Correct for Electrical Dark: No (USB2+H05261)
Strobe/Lamp Enabled: No (USB2+H05261)
Correct for Detector Non-linearity: No (USB2+H05261)
Correct for Stray Light: No (USB2+H05261)
Number of Pixels in Processed Spectrum: 2048
>>>>>Begin Processed Spectral Data<<<<<
365.73	325.33
365.92	325.33
366.12	325.33
366.32	248.10
366.52	229.37
366.72	184.90
366.91	191.92
367.11	299.59
367.31	175.54
367.51	168.52
367.70	105.32
367.90	243.42
368.10	161.50
368.30	201.29
368.49	154.48
368.69	243.42
368.89	238.73
369.09	238.73
369.28	224.69
369.48	203.63
369.68	205.97
369.87	227.03
370.07	220.01
370.27	374.49
370.47	346.40
370.66	528.96
370.86	519.60
371.06	557.05
371.25	578.11
371.45	559.39
371.65	557.05
371.84	585.13
372.04	528.96
372.24	564.07
372.44	606.20
372.63	533.64
372.83	552.37
373.03	624.92
373.22	622.58
373.42	589.82
373.62	662.37
373.81	622.58
374.01	650.67
374.21	587.47
374.40	538.32
374.60	732.59
374.79	692.80
374.99	681.10
375.19	622.58
375.38	617.90
375.58	683.44
375.78	655.35
375.97	667.05
376.17	739.61
376.37	671.73
376.56	688.12
376.76	678.76
376.95	676.41
377.15	622.58
377.35	636.63
377.54	678.76
377.74	664.71
377.93	697.48
378.13	617.90
378.33	732.59
378.52	660.03
378.72	711.52
378.91	739.61
379.11	667.05
379.31	704.50
379.50	664.71
379.70	770.04
379.89	727.91
380.09	737.27
380.28	753.65
380.48	744.29
380.68	702.16
380.87	781.74
381.07	744.29
381.26	798.12
381.46	842.59
381.65	730.25
381.85	760.67
382.04	779.40
382.24	751.31
382.43	767.70
382.63	763.01
382.83	755.99
383.02	837.91
383.22	734.93
383.41	788.76
383.61	788.76
383.80	847.27
384.00	816.85
384.19	823.87
384.39	889.40
384.58	880.04
384.78	877.70
384.97	842.59
385.17	807.48
385.36	828.55
385.56	837.91
385.75	835.57
385.95	917.49
386.14	854.30
386.34	795.78
386.53	828.55
386.72	882.38
386.92	894.08
387.11	896.43
387.31	901.11
387.50	903.45
387.70	901.11
387.89	905.79
388.09	877.70
388.28	940.90
388.48	889.40
388.67	912.81
388.86	961.96
389.06	875.36
389.25	1015.79
389.45	912.81
389.64	903.45
389.84	976.00
390.03	1004.09
390.22	938.55
390.42	1001.75
390.61	978.34
390.81	1004.09
391.00	915.15
391.19	1071.97
391.39	1076.65
391.58	1029.84
391.78	1011.11
391.97	1013.45
392.16	983.02
392.36	1064.94
392.55	1078.99
392.75	1057.92
392.94	1046.22
393.13	1067.28
393.33	964.30
393.52	1100.05
393.71	1121.12
393.91	1107.07
394.10	1076.65
394.29	1029.84
394.49	1100.05
394.68	1149.20
394.88	1151.54
395.07	1111.75
395.26	1137.50
395.46	1205.38
395.65	1172.61
395.84	1205.38
396.04	1188.99
396.23	1284.95
396.42	1130.48
396.62	1193.67
396.81	1315.38
397.00	1226.44
397.19	1153.88
397.39	1242.82
397.58	1226.44
397.77	1163.25
397.97	1200.69
398.16	1350.49
398.35	1268.57
398.55	1240.48
398.74	1308.36
398.93	1303.68
399.12	1324.74
399.32	1270.91
399.51	1231.12
399.70	1350.49
399.90	1343.47
400.09	1401.98
400.28	1432.41
400.47	1357.51
400.67	1441.77
400.86	1329.42
401.05	1425.39
401.24	1434.75
401.44	1441.77
401.63	1455.81
401.82	1493.26
402.01	1488.58
402.21	1376.24
402.40	1451.13
402.59	1472.20
402.78	1437.09
402.97	1584.54
403.17	1551.78
403.36	1547.09
403.55	1645.40
403.74	1572.84
403.93	1645.40
404.13	1652.42
404.32	1600.93
404.51	1624.33
404.70	1666.46
404.89	1626.67
405.09	1671.14
405.28	1736.68
405.47	1619.65
405.66	1727.32
405.85	1746.04
406.05	1706.25
406.24	1776.47
406.43	1776.47
406.62	1792.85
406.81	1741.36
407.00	1853.70
407.20	1710.93
407.39	1806.89
407.58	1888.81
407.77	1898.17
407.96	1874.77
408.15	1928.60
408.34	1933.28
408.54	1900.52
408.73	1956.69
408.92	1870.09
409.11	1858.39
409.30	2029.24
409.49	1987.11
409.68	2001.16
409.87	2024.56
410.07	1949.67
410.26	2059.67
410.45	2005.84
410.64	1961.37
410.83	2146.27
411.02	2174.36
411.21	2160.31
411.40	2235.21
411.59	2186.06
411.78	2279.68
411.98	2162.66
412.17	2209.47
412.36	2251.60
412.55	2244.57
412.74	2275.00
412.93	2363.94
413.12	2293.72
413.31	2431.82
413.50	2399.05
413.69	2291.38
413.88	2464.58
414.07	2478.63
414.26	2511.39
414.45	2483.31
414.64	2448.20
414.83	2548.84
415.02	2572.25
415.22	2593.31
415.41	2663.53
415.60	2778.22
415.79	2726.72
415.98	2747.79
416.17	2778.22
416.36	2801.62
416.55	2710.34
416.74	2874.18
416.93	2693.96
417.12	2897.58
417.31	2946.73
417.50	2796.94
417.69	2930.35
417.88	2974.82
418.07	2939.71
418.26	2939.71
418.45	2834.39
418.64	3084.83
418.83	2902.26
419.02	2956.10
419.21	3054.40
419.39	3040.36
419.58	3131.64
419.77	3115.25
419.96	3066.10
420.15	3176.11
420.34	3136.32
420.53	3192.49
420.72	3145.68
420.91	3178.45
421.10	3234.62
421.29	3309.52
421.48	3234.62
421.67	3136.32
421.86	3178.45
422.05	3363.35
422.24	3066.10
422.43	3328.24
422.61	3363.35
422.80	3449.95
422.99	3384.41
423.18	3510.80
423.37	3449.95
423.56	3405.48
423.75	3485.06
423.94	3365.69
424.13	3164.40
424.32	3375.05
424.50	3370.37
424.69	3548.25
424.88	3492.08
425.07	3424.20
425.26	3466.33
425.45	3407.82
425.64	3445.27
425.83	3346.97
426.01	3538.89
426.20	3452.29
426.39	3440.59
426.58	3382.07
426.77	3473.36
426.96	3545.91
427.15	3517.83
427.33	3468.67
427.52	3475.70
427.71	3592.72
427.90	3524.85
428.09	3655.92
428.28	3684.00
428.46	3772.94
428.65	3763.58
428.84	3824.44
429.03	3702.73
429.22	3756.56
429.40	3761.24
429.59	3852.52
429.78	3639.53
429.97	3658.26
430.16	3758.90
430.34	3868.91
430.53	3822.09
430.72	3796.35
430.91	3941.46
431.10	3775.28
431.28	4011.68
431.47	3904.01
431.66	3995.29
431.85	4049.13
432.03	4140.41
432.22	4053.81
432.41	4086.58
432.60	4187.22
432.79	4131.05
432.97	4196.58
433.16	4128.70
433.35	4177.86
433.54	4229.35
433.72	4088.92
433.91	4100.62
434.10	4051.47
434.28	4163.81
434.47	4227.01
434.66	4248.07
434.85	4285.52
435.03	4315.95
435.22	4245.73
435.41	4337.01
435.59	4297.22
435.78	4395.53
435.97	4313.61
436.16	4444.68
436.34	4566.39
436.53	4472.76
436.72	4503.19
436.90	4407.23
437.09	4524.26
437.28	4554.68
437.46	4440.00
437.65	4465.74
437.84	4540.64
438.02	4545.32
438.21	4477.44
438.40	4671.71
438.58	4741.93
438.77	4723.20
438.96	4702.14
439.14	4851.93
439.33	4983.00
439.52	4877.68
439.70	4901.08
439.89	5090.67
440.08	4987.68
440.26	4877.68
440.45	5144.50
440.63	5172.58
440.82	5245.14
441.01	5193.65
441.19	5149.18
441.38	5114.07
441.57	5013.43
441.75	5301.31
441.94	5533.03
442.12	5348.12
442.31	5432.38
442.50	5345.78
442.68	5320.04
442.87	5516.64
443.05	5509.62
443.24	5467.49
443.43	5617.29
443.61	5490.90
443.80	5530.69
443.98	5188.97
444.17	5364.51
444.35	5577.50
444.54	5645.37
444.73	5687.50
444.91	5657.07
445.10	5659.42
445.28	5729.63
445.47	5530.69
445.65	5699.20
445.84	5741.33
446.02	5650.05
446.21	5710.91
446.39	5504.94
446.58	5844.32
446.77	5804.53
446.95	5624.31
447.14	5783.46
447.32	5811.55
447.51	5795.17
447.69	5650.05
447.88	5799.85
448.06	5671.12
448.25	5909.85
448.43	5738.99
448.62	5533.03
448.80	5797.51
448.99	5738.99
449.17	5998.79
449.36	5753.04
449.54	6017.52
449.73	5975.39
449.91	6033.90
450.10	6176.67
450.28	6263.27
450.46	6176.67
450.65	6211.78
450.83	6115.82
451.02	6003.47
451.20	6183.70
451.39	6080.71
451.57	6279.66
451.76	6193.06
451.94	6118.16
452.13	6361.58
452.31	6417.75
452.49	6333.49
452.68	6303.06
452.86	6296.04
453.05	6438.81
453.23	6361.58
453.42	6179.01
453.60	6211.78
453.78	6530.09
453.97	6338.17
454.15	6441.15
454.34	6466.90
454.52	6452.86
454.70	6410.73
454.89	6712.66
455.07	6576.91
455.26	6665.85
455.44	6836.70
455.62	6558.18
455.81	6656.48
455.99	7014.59
456.17	6661.16
456.36	6782.87
456.54	6817.98
456.73	6972.46
456.91	6953.73
457.09	7117.57
457.28	7148.00
457.46	6963.09
457.64	7042.67
457.83	7037.99
458.01	6979.48
458.19	7246.30
458.38	7110.55
458.56	7236.94
458.74	7171.40
458.93	7157.36
459.11	7262.68
459.29	7229.91
459.48	7157.36
459.66	7295.45
459.84	7358.64
460.03	7581.00
460.21	7419.50
460.39	7255.66
460.57	7396.09
460.76	7531.84
460.94	7445.24
461.12	7588.02
461.31	7691.00
461.49	7557.59
461.67	7438.22
461.85	7719.09
462.04	7571.63
462.22	7918.03
462.40	7927.39
462.59	7779.94
462.77	7681.64
462.95	7962.50
463.13	7803.35
463.32	7749.51
463.50	7798.66
463.68	8006.97
463.86	7906.33
464.05	7850.16
464.23	7974.21
464.41	7894.63
464.59	7618.44
464.78	8018.68
464.96	7943.78
465.14	7772.92
465.32	8093.57
465.50	8035.06
465.69	8201.24
465.87	8011.65
466.05	8016.33
466.23	8060.80
466.41	8112.30
466.60	8484.44
466.78	8095.91
466.96	8149.75
467.14	8163.79
467.32	8341.67
467.51	8451.67
467.69	8219.96
467.87	8381.46
468.05	8430.61
468.23	8388.48
468.41	8177.83
468.60	8533.59
468.78	8615.51
468.96	8484.44
469.14	8716.16
469.32	8507.85
469.50	8451.67
469.69	8638.92
469.87	8777.01
470.05	8692.75
470.23	8856.59
470.41	8891.70
470.59	8805.10
470.77	8966.59
470.95	8762.97
471.14	9076.60
471.32	8826.16
471.50	9193.62
471.68	9025.11
471.86	9125.75
472.04	9228.73
472.22	9343.42
472.40	9036.81
472.58	9228.73
472.77	9238.09
472.95	9387.89
473.13	9717.90
473.31	9355.12
473.49	9736.63
473.67	9277.88
473.85	9570.45
474.03	9743.65
474.21	9682.80
474.39	9788.12
474.57	9743.65
474.75	10038.56
474.93	9720.24
475.12	9703.86
475.30	10085.37
475.48	9998.77
475.66	10059.62
475.84	10118.14
476.02	10209.42
476.20	10090.05
476.38	10214.10
476.56	10473.90
476.74	10541.77
476.92	10464.54
477.10	10487.94
477.28	10551.14
477.46	10586.24
477.64	10719.65
477.82	11063.71
478.00	11372.66
478.18	11197.12
478.36	11218.19
478.54	11183.08
478.72	11206.48
478.90	11414.79
479.08	11599.70
479.26	11480.33
479.44	11688.64
479.62	11927.37
479.80	11826.73
479.98	11882.90
480.16	12182.49
480.34	11967.16
480.52	12346.33
480.70	12322.92
480.88	12320.58
481.06	12259.73
481.24	12383.77
481.41	12446.97
481.59	12802.73
481.77	12996.99
481.95	13006.36
482.13	12875.29
482.31	12849.54
482.49	13294.24
482.67	13348.08
482.85	13755.33
483.03	13589.15
483.21	13488.51
483.39	13886.40
483.57	13706.18
483.74	14022.15
483.92	14043.21
484.10	14059.60
484.28	14396.64
484.46	14441.11
484.64	14820.27
484.82	14593.24
485.00	14654.09
485.18	14675.16
485.35	15267.31
485.53	15222.84
485.71	15150.29
485.89	15475.62
486.07	15391.36
486.25	15531.80
486.43	15604.35
486.61	15421.79
486.78	15789.25
486.96	16074.80
487.14	16084.16
487.32	16372.05
487.50	16224.59
487.68	16592.06
487.85	16601.42
488.03	16734.83
488.21	16706.74
488.39	16947.82
488.57	16858.88
488.75	17181.87
488.92	17364.43
489.10	17490.82
489.28	17212.30
489.46	17954.25
489.64	17586.79
489.81	18462.15
489.99	17930.84
490.17	18075.96
490.35	18326.39
490.53	18778.12
490.70	18403.63
490.88	18548.75
491.06	19016.85
491.24	19154.94
491.41	18862.38
491.59	18993.45
491.77	18988.77
491.95	19349.21
492.13	19529.43
492.30	19922.64
492.48	19557.52
492.66	19791.57
492.84	19810.29
493.01	19950.73
493.19	20168.40
493.37	20194.14
493.54	20285.42
493.72	20685.65
493.90	20688.00
494.08	20713.74
494.25	21001.63
494.43	20936.09
494.61	21123.33
494.79	20905.66
494.96	21186.53
495.14	21624.21
495.32	21654.64
495.49	22033.80
495.67	21991.67
495.85	22099.34
496.02	22118.06
496.20	22579.15
496.38	22195.30
496.55	22155.51
496.73	22686.81
496.91	22731.28
497.09	23283.65
497.26	22939.59
497.44	23023.85
497.62	23307.05
497.79	23543.45
497.97	23229.82
498.14	23660.48
498.32	23587.92
498.50	23676.86
498.67	23976.45
498.85	23616.01
499.03	24002.19
499.20	24011.56
499.38	24250.29
499.56	24568.60
499.73	24409.45
499.91	24465.62
500.08	24659.88
500.26	24474.98
500.44	24505.41
500.61	24702.01
500.79	24491.37
500.97	24978.20
501.14	25062.46
501.32	25085.86
501.49	24989.90
501.67	25099.90
501.84	25614.82
502.02	25296.51
502.20	25788.02
502.37	25809.09
502.55	25881.64
502.72	26115.70
502.90	25865.26
503.07	25788.02
503.25	26052.50
503.43	25921.43
503.60	26499.55
503.78	26300.60
503.95	26522.95
504.13	26492.52
504.30	26382.52
504.48	26560.40
504.65	26991.06
504.83	27377.25
505.01	27171.28
505.18	27119.79
505.36	27681.52
505.53	27101.06
505.71	27447.46
505.88	27417.04
506.06	27468.53
506.23	27796.20
506.41	27356.18
506.58	27742.37
506.76	27517.68
506.93	27906.21
507.11	27814.93
507.28	28023.23
507.46	28187.07
507.63	28425.81
507.81	28664.54
507.98	28261.97
508.16	28580.28
508.33	28533.47
508.50	28987.53
508.68	29008.60
508.85	29142.01
509.03	29027.32
509.20	28861.15
509.38	29273.08
509.55	29446.28
509.73	29071.79
509.90	28996.90
510.08	29853.53
510.25	29216.91
510.42	29291.80
510.60	29453.30
510.77	29879.28
510.95	29930.77
511.12	29677.99
511.30	30127.38
511.47	30052.48
511.64	30316.96
511.82	30438.67
511.99	30258.45
512.17	30307.60
512.34	30309.94
512.51	30796.77
512.69	30670.38
512.86	31103.38
513.04	31028.48
513.21	31026.14
513.38	30813.15
513.56	31721.28
513.73	31000.40
513.90	31119.76
514.08	30866.98
514.25	31339.77
514.43	31482.55
514.60	31555.10
514.77	31686.17
514.95	31835.97
515.12	31791.50
515.29	31772.77
515.47	31648.72
515.64	32488.98
515.81	32011.51
515.99	32189.39
516.16	32364.93
516.33	32559.19
516.51	32416.42
516.68	32322.80
516.85	32266.63
517.03	32580.26
517.20	32601.32
517.37	32470.25
517.54	32889.21
517.72	32535.79
517.89	32886.87
518.06	32903.25
518.24	33464.98
518.41	33085.81
518.58	33031.98
518.75	33125.60
518.93	33333.91
519.10	33383.06
519.27	33399.44
519.45	33897.98
519.62	33392.42
519.79	33392.42
519.96	33495.41
520.14	34082.88
520.31	33591.37
520.48	33769.25
520.65	33905.00
520.83	34216.29
521.00	34260.76
521.17	34183.52
521.34	34583.76
521.52	34366.09
521.69	34621.20
521.86	34199.91
522.03	34759.30
522.20	34771.00
522.38	35262.51
522.55	35056.54
522.72	34878.66
522.89	35089.31
523.07	35370.18
523.24	35311.66
523.41	35328.05
523.58	34843.56
523.75	35679.13
523.92	35342.09
524.10	35222.72
524.27	35531.67
524.44	35409.96
524.61	35416.99
524.78	35835.94
524.96	36212.77
525.13	35988.08
525.30	36037.23
525.47	36065.31
525.64	36411.71
525.81	36058.29
525.98	36570.87
526.16	36336.82
526.33	36238.51
526.50	36271.28
526.67	36376.61
526.84	36531.08
527.01	36657.47
527.18	36381.29
527.36	36694.92
527.53	36683.22
527.70	37078.77
527.87	37123.24
528.04	37158.34
528.21	37134.94
528.38	36753.43
528.55	37659.22
528.72	37111.53
528.89	37408.78
529.07	37315.16
529.24	36573.21
529.41	37537.51
529.58	37322.18
529.75	37219.20
529.92	37797.31
530.09	37610.07
530.26	37551.56
530.43	37670.92
530.60	37570.28
530.77	37422.83
530.94	37832.42
531.11	37479.00
531.28	38274.78
531.46	38129.67
531.63	38033.71
531.80	37935.40
531.97	38239.67
532.14	38267.76
532.31	38389.47
532.48	38574.37
532.65	38658.63
532.82	38373.08
532.99	38272.44
533.16	38555.64
533.33	38436.28
533.50	38595.43
533.67	38565.01
533.84	38462.02
534.01	38990.98
534.18	38787.36
534.35	39311.64
534.52	39351.43
534.69	39283.55
534.86	39590.16
535.03	39079.92
535.20	39704.85
535.37	39281.21
535.54	39412.28
535.71	39255.46
535.88	39248.44
536.05	39445.05
536.22	39681.44
536.38	39791.45
536.55	39704.85
536.72	39555.05
536.89	39962.31
537.06	39241.42
537.23	40182.32
537.40	39360.79
537.57	39538.67
537.74	39746.98
537.91	40217.43
538.08	39934.22
538.25	39718.89
538.42	39971.67
538.59	40037.20
538.75	40542.76
538.92	40552.12
539.09	40467.86
539.26	40194.02
539.43	40428.07
539.60	40491.27
539.77	40210.40
539.94	40706.60
540.11	41071.72
540.28	40671.49
540.44	40399.99
540.61	40926.61
540.78	40444.46
540.95	40856.39
541.12	40849.37
541.29	40788.52
541.46	40706.60
541.62	40931.29
541.79	41439.18
541.96	40615.32
542.13	40802.56
542.30	41605.36
542.47	41202.79
542.63	41317.48
542.80	41617.07
542.97	41762.18
543.14	41780.90
543.31	41846.44
543.48	41834.74
543.64	42295.82
543.81	41984.53
543.98	42052.41
544.15	41944.74
544.32	42110.92
544.48	42099.22
544.65	42494.77
544.82	42291.14
544.99	41902.61
545.16	42330.93
545.32	41949.42
545.49	42600.09
545.66	43297.57
545.83	42749.88
546.00	42534.56
546.16	42696.05
546.33	42101.56
546.50	41626.43
546.67	42536.90
546.83	42052.41
547.00	42274.76
547.17	42773.29
547.34	42588.39
547.50	42890.32
547.67	43489.49
547.84	42817.76
548.00	43171.18
548.17	42864.57
548.34	42934.79
548.51	43234.38
548.67	43173.52
548.84	43122.03
549.01	43318.64
549.18	43189.91
549.34	43686.10
549.51	43608.86
549.68	43772.70
549.84	43306.93
550.01	43812.49
550.18	43115.01
550.34	42906.70
550.51	43328.00
550.68	43730.57
550.84	43601.84
551.01	44002.07
551.18	43335.02
551.34	43271.82
551.51	43552.69
551.68	43749.29
551.84	44072.29
552.01	43768.02
552.18	43990.37
552.34	43901.43
552.51	44002.07
552.68	43189.91
552.84	44161.23
553.01	43821.85
553.18	44418.69
553.34	43559.71
553.51	43852.28
553.67	44402.30
553.84	44554.44
554.01	44224.42
554.17	44194.00
554.34	44341.45
554.51	44121.44
554.67	44678.49
554.84	44643.38
555.00	44196.34
555.17	44725.30
555.33	44746.36
555.50	44184.63
555.67	44437.41
555.83	44631.68
556.00	44875.09
556.16	45067.02
556.33	44687.85
556.50	44577.84
556.66	44645.72
556.83	45123.19
556.99	44711.25
557.16	44935.95
557.32	44849.35
557.49	45001.48
557.65	44360.17
557.82	44900.84
557.98	44849.35
558.15	45134.89
558.32	45174.68
558.48	45085.74
558.65	44942.97
558.81	45048.29
558.98	45209.79
559.14	45263.62
559.31	45230.85
559.47	45399.37
559.64	45118.51
559.80	45450.86
559.97	45359.58
560.13	45298.73
560.30	44973.39
560.46	46094.51
560.63	45546.82
560.79	45909.61
560.96	45752.79
561.12	45710.66
561.29	45422.78
561.45	46066.42
561.61	45844.07
561.78	45640.45
561.94	45132.55
562.11	45823.01
562.27	45205.11
562.44	45823.01
562.60	45607.68
562.77	45738.75
562.93	45179.36
563.10	45839.39
563.26	45886.20
563.42	46525.17
563.59	45757.47
563.75	45705.98
563.92	45951.74
564.08	45638.11
564.24	45780.88
564.41	45979.82
564.57	46045.36
564.74	45895.56
564.90	45769.18
565.07	45724.71
565.23	46141.32
565.39	45951.74
565.56	46665.60
565.72	46138.98
565.88	46120.26
566.05	46150.68
566.21	45914.29
566.38	46178.77
566.54	46258.35
566.70	46363.67
566.87	46129.62
567.03	45825.35
567.19	46363.67
567.36	46377.72
567.52	45942.38
567.68	46649.22
567.85	46459.63
568.01	46447.93
568.17	46171.75
568.34	46300.48
568.50	46522.83
568.66	46050.04
568.83	46522.83
568.99	46312.18
569.15	46433.89
569.32	46548.57
569.48	46272.39
569.64	46920.72
569.81	46630.49
569.97	46904.34
570.13	46712.41
570.30	46213.88
570.46	46529.85
570.62	46756.88
570.78	46761.56
570.95	46663.26
571.11	46756.88
571.27	46457.29
571.43	46274.73
571.60	46632.83
571.76	46651.56
571.92	46571.98
572.09	46639.86
572.25	46548.57
572.41	46223.24
572.57	46890.29
572.74	47171.16
572.90	46684.33
573.06	46899.65
573.22	46845.82
573.38	47019.02
573.55	46555.60
573.71	47112.64
573.87	47061.15
574.03	46934.76
574.20	47152.43
574.36	47110.30
574.52	47047.11
574.68	46660.92
574.84	47552.66
575.01	47210.95
575.17	47150.09
575.33	47070.51
575.49	46822.42
575.65	46967.53
575.82	46972.21
575.98	46773.27
576.14	47398.19
576.30	47154.77
576.46	47021.36
576.62	46869.23
576.79	46611.77
576.95	46574.32
577.11	46834.12
577.27	47061.15
577.43	47143.07
577.59	46941.78
577.75	46724.11
577.92	46930.08
578.08	46747.52
578.24	47173.50
578.40	46869.23
578.56	47063.49
578.72	47166.48
578.88	47208.61
579.04	47138.39
579.21	46705.39
579.37	47470.75
579.53	47260.10
579.69	46696.03
579.85	47004.98
580.01	47407.55
580.17	47257.76
580.33	47597.13
580.49	46965.19
580.65	46787.31
580.82	47007.32
580.98	47131.37
581.14	46862.21
581.30	46995.62
581.46	46937.10
581.62	46965.19
581.78	46794.33
581.94	47173.50
582.10	47262.44
582.26	47061.15
582.42	47278.82
582.58	46948.81
582.74	47208.61
582.90	47185.20
583.06	47229.67
583.22	47344.36
583.38	47054.13
583.54	47042.43
583.70	47313.93
583.86	47257.76
584.02	46962.85
584.18	47388.83
584.34	47398.19
584.50	47594.79
584.66	47323.29
584.82	47295.21
584.98	47222.65
585.14	47547.98
585.30	46747.52
585.46	47016.68
585.62	47007.32
585.78	47285.84
585.94	46925.40
586.10	47168.82
586.26	46962.85
586.42	47192.22
586.58	47367.76
586.74	47388.83
586.90	47220.31
587.06	47419.25
587.22	47604.16
587.38	47117.32
587.54	47763.31
587.70	47519.90
587.86	47501.17
588.02	47103.28
588.18	47639.26
588.34	47447.34
588.49	47257.76
588.65	47480.11
588.81	47688.42
588.97	47320.95
589.13	47517.56
589.29	47079.88
589.45	47615.86
589.61	47543.30
589.77	47767.99
589.93	47550.32
