SpectraSuite Data File
++++++++++++++++++++++++++++++++++++
Date: Fri Oct 25 10:47:33 EDT 2013
User: price-jones
Dark Spectrum Present: No
Reference Spectrum Present: No
Number of Sampled Component Spectra: 1
Spectrometers: USB2+H05261
Integration Time (usec): 100000 (USB2+H05261)
Spectra Averaged: 1 (USB2+H05261)
Boxcar Smoothing: 0 (USB2+H05261)
Correct for Electrical Dark: No (USB2+H05261)
Strobe/Lamp Enabled: No (USB2+H05261)
Correct for Detector Non-linearity: No (USB2+H05261)
Correct for Stray Light: No (USB2+H05261)
Number of Pixels in Processed Spectrum: 2048
>>>>>Begin Processed Spectral Data<<<<<
365.73	79.58
365.92	79.58
366.12	79.58
366.32	98.30
366.52	16.38
366.72	53.83
366.91	0.00
367.11	37.45
367.31	14.04
367.51	11.70
367.70	4.68
367.90	67.88
368.10	37.45
368.30	28.09
368.49	42.13
368.69	67.88
368.89	84.26
369.09	58.51
369.28	30.43
369.48	2.34
369.68	170.86
369.87	177.88
370.07	100.64
370.27	124.05
370.47	191.92
370.66	353.42
370.86	416.62
371.06	393.21
371.25	440.02
371.45	397.89
371.65	479.81
371.84	418.96
372.04	407.25
372.24	526.62
372.44	472.79
372.63	580.45
372.83	468.11
373.03	479.81
373.22	486.83
373.42	489.17
373.62	449.38
373.81	517.26
374.01	545.34
374.21	526.62
374.40	519.60
374.60	526.62
374.79	503.22
374.99	496.19
375.19	603.86
375.38	585.13
375.58	528.96
375.78	599.18
375.97	578.11
376.17	636.63
376.37	543.00
376.56	615.56
376.76	493.85
376.95	528.96
377.15	660.03
377.35	559.39
377.54	573.43
377.74	596.84
377.93	566.41
378.13	533.64
378.33	582.79
378.52	613.22
378.72	589.82
378.91	566.41
379.11	589.82
379.31	540.66
379.50	540.66
379.70	681.10
379.89	613.22
380.09	603.86
380.28	631.94
380.48	674.07
380.68	631.94
380.87	608.54
381.07	657.69
381.26	641.31
381.46	643.65
381.65	655.35
381.85	627.26
382.04	638.97
382.24	755.99
382.43	655.35
382.63	681.10
382.83	727.91
383.02	653.01
383.22	760.67
383.41	653.01
383.61	610.88
383.80	793.44
384.00	765.36
384.19	723.23
384.39	849.61
384.58	725.57
384.78	763.01
384.97	786.42
385.17	795.78
385.36	692.80
385.56	725.57
385.75	706.84
385.95	753.65
386.14	692.80
386.34	777.06
386.53	828.55
386.72	770.04
386.92	755.99
387.11	739.61
387.31	889.40
387.50	814.51
387.70	798.12
387.89	847.27
388.09	802.80
388.28	737.27
388.48	826.21
388.67	901.11
388.86	873.02
389.06	802.80
389.25	915.15
389.45	814.51
389.64	926.85
389.84	889.40
390.03	936.21
390.22	908.13
390.42	826.21
390.61	788.76
390.81	870.68
391.00	870.68
391.19	976.00
391.39	983.02
391.58	868.34
391.78	992.39
391.97	1013.45
392.16	922.17
392.36	966.64
392.55	898.77
392.75	959.62
392.94	912.81
393.13	917.49
393.33	966.64
393.52	936.21
393.71	1025.15
393.91	1013.45
394.10	957.28
394.29	1013.45
394.49	1086.01
394.68	1123.46
394.88	1039.20
395.07	917.49
395.26	1062.60
395.46	1093.03
395.65	1104.73
395.84	1018.13
396.04	1083.67
396.23	973.66
396.42	1097.71
396.62	1078.99
396.81	1062.60
397.00	1067.28
397.19	1160.91
397.39	1287.29
397.58	1235.80
397.77	1088.35
397.97	1210.06
398.16	1252.19
398.35	1188.99
398.55	1235.80
398.74	1259.21
398.93	1327.08
399.12	1256.87
399.32	1198.35
399.51	1233.46
399.70	1294.32
399.90	1287.29
400.09	1420.71
400.28	1430.07
400.47	1343.47
400.67	1453.47
400.86	1366.87
401.05	1380.92
401.24	1474.54
401.44	1430.07
401.63	1437.09
401.82	1406.66
402.01	1502.62
402.21	1465.18
402.40	1469.86
402.59	1420.71
402.78	1495.60
402.97	1507.30
403.17	1558.80
403.36	1481.56
403.55	1558.80
403.74	1600.93
403.93	1535.39
404.13	1591.56
404.32	1617.31
404.51	1619.65
404.70	1746.04
404.89	1685.19
405.09	1724.97
405.28	1605.61
405.47	1652.42
405.66	1771.79
405.85	1755.40
406.05	1701.57
406.24	1717.95
406.43	1757.74
406.62	1764.76
406.81	1842.00
407.00	1755.40
407.20	1776.47
407.39	1877.11
407.58	1762.42
407.77	1844.34
407.96	1792.85
408.15	1902.86
408.34	1900.52
408.54	1907.54
408.73	1994.14
408.92	1956.69
409.11	1942.64
409.30	1937.96
409.49	1989.46
409.68	1961.37
409.87	2062.01
410.07	2015.20
410.26	2069.03
410.45	2101.80
410.64	2113.50
410.83	2101.80
411.02	2179.04
411.21	2165.00
411.40	2172.02
411.59	2179.04
411.78	2197.76
411.98	2195.42
412.17	2361.60
412.36	2244.57
412.55	2363.94
412.74	2354.58
412.93	2448.20
413.12	2260.96
413.31	2436.50
413.50	2443.52
413.69	2401.39
413.88	2443.52
414.07	2504.37
414.26	2541.82
414.45	2525.44
414.64	2656.51
414.83	2719.70
415.02	2654.17
415.22	2717.36
415.41	2595.65
415.60	2609.70
415.79	2759.49
415.98	2768.85
416.17	2740.77
416.36	2827.37
416.55	2869.50
416.74	2715.02
416.93	2789.92
417.12	2862.48
417.31	2869.50
417.50	2958.44
417.69	3042.70
417.88	2991.20
418.07	2899.92
418.26	2963.12
418.45	2960.78
418.64	3155.04
418.83	3124.62
419.02	3103.55
419.21	3138.66
419.39	3208.87
419.58	3173.77
419.77	3148.02
419.96	3227.60
420.15	3126.96
420.34	3122.27
420.53	3241.64
420.72	3314.20
420.91	3236.96
421.10	3335.26
421.29	3454.63
421.48	3407.82
421.67	3384.41
421.86	3339.94
422.05	3398.46
422.24	3363.35
422.43	3384.41
422.61	3349.31
422.80	3410.16
422.99	3417.18
423.18	3473.36
423.37	3520.17
423.56	3454.63
423.75	3433.57
423.94	3346.97
424.13	3190.15
424.32	3344.63
424.50	3442.93
424.69	3618.47
424.88	3548.25
425.07	3412.50
425.26	3396.12
425.45	3393.78
425.64	3428.88
425.83	3581.02
426.01	3452.29
426.20	3454.63
426.39	3599.74
426.58	3513.14
426.77	3578.68
426.96	3428.88
427.15	3538.89
427.33	3599.74
427.52	3515.48
427.71	3667.62
427.90	3618.47
428.09	3709.75
428.28	3768.26
428.46	3705.07
428.65	3698.05
428.84	3857.20
429.03	3896.99
429.22	3705.07
429.40	3700.39
429.59	3758.90
429.78	3660.60
429.97	3466.33
430.16	3702.73
430.34	3658.26
430.53	3805.71
430.72	3857.20
430.91	3957.85
431.10	3906.35
431.28	4056.15
431.47	4002.32
431.66	4156.79
431.85	3999.98
432.03	4018.70
432.22	4182.54
432.41	4049.13
432.60	4142.75
432.79	3906.35
432.97	4023.38
433.16	4086.58
433.35	4119.34
433.54	4074.87
433.72	4131.05
433.91	4046.79
434.10	4245.73
434.28	4219.99
434.47	4315.95
434.66	4297.22
434.85	4301.90
435.03	4432.97
435.22	4266.80
435.41	4479.79
435.59	4400.21
435.78	4526.60
435.97	4381.48
436.16	4301.90
436.34	4325.31
436.53	4442.34
436.72	4484.47
436.90	4496.17
437.09	4603.83
437.28	4479.79
437.46	4568.73
437.65	4533.62
437.84	4517.23
438.02	4643.62
438.21	4692.77
438.40	4535.96
438.58	4772.35
438.77	4638.94
438.96	4772.35
439.14	4954.91
439.33	4868.31
439.52	5048.54
439.70	4830.87
439.89	5078.96
440.08	5032.15
440.26	4919.81
440.45	5104.71
440.63	5240.46
440.82	5195.99
441.01	5177.26
441.19	5121.09
441.38	5289.61
441.57	5350.46
441.75	5451.11
441.94	5596.22
442.12	5479.19
442.31	5469.83
442.50	5518.98
442.68	5476.85
442.87	5378.55
443.05	5610.26
443.24	5619.63
443.43	5493.24
443.61	5689.84
443.80	5783.46
443.98	5483.88
444.17	5465.15
444.35	5738.99
444.54	5699.20
444.73	5680.48
444.91	5891.13
445.10	5628.99
445.28	5579.84
445.47	5795.17
445.65	5682.82
445.84	5760.06
446.02	5746.02
446.21	5636.01
446.39	5720.27
446.58	5769.42
446.77	5703.89
446.95	5689.84
447.14	5834.96
447.32	6029.22
447.51	5959.00
447.69	5926.24
447.88	5797.51
448.06	5909.85
448.25	5888.79
448.43	5991.77
448.62	5970.71
448.80	5898.15
448.99	5891.13
449.17	6036.24
449.36	5872.40
449.54	6176.67
449.73	6101.78
449.91	6186.04
450.10	6120.50
450.28	6181.35
450.46	6251.57
450.65	6331.15
450.83	6253.91
451.02	6150.93
451.20	6228.17
451.39	6312.42
451.57	6202.42
451.76	6120.50
451.94	6483.28
452.13	6377.96
452.31	6375.62
452.49	6272.64
452.68	6462.22
452.86	6399.02
453.05	6576.91
453.23	6509.03
453.42	6331.15
453.60	6333.49
453.78	6480.94
453.97	6476.26
454.15	6429.45
454.34	6574.56
454.52	6640.10
454.70	6679.89
454.89	6539.46
455.07	6586.27
455.26	6705.63
455.44	6672.87
455.62	6726.70
455.81	6661.16
455.99	6906.92
456.17	6927.99
456.36	6789.89
456.54	6794.58
456.73	6761.81
456.91	7201.83
457.09	7056.72
457.28	7152.68
457.46	7155.02
457.64	7190.13
457.83	6937.35
458.01	7152.68
458.19	7267.36
458.38	7152.68
458.56	7220.55
458.74	7215.87
458.93	7140.97
459.11	7339.92
459.29	7211.19
459.48	7391.41
459.66	7302.47
459.84	7316.51
460.03	7604.40
460.21	7461.63
460.39	7344.60
460.57	7286.09
460.76	7447.58
460.94	7576.31
461.12	7538.87
461.31	7534.18
461.49	7630.15
461.67	7555.25
461.85	7597.38
462.04	7571.63
462.22	8243.37
462.40	7953.14
462.59	7660.57
462.77	7829.09
462.95	7845.48
463.13	7772.92
463.32	7770.58
463.50	7758.88
463.68	7903.99
463.86	7868.88
464.05	8011.65
464.23	7840.79
464.41	8063.15
464.59	7889.95
464.78	8074.85
464.96	8131.02
465.14	8016.33
465.32	8035.06
465.50	8278.47
465.69	8402.52
465.87	8135.70
466.05	8149.75
466.23	8184.85
466.41	8152.09
466.60	8404.86
466.78	8243.37
466.96	8238.69
467.14	8290.18
467.32	8437.63
467.51	8313.58
467.69	7892.29
467.87	8145.06
468.05	8470.40
468.23	8250.39
468.41	8205.92
468.60	8318.26
468.78	8578.06
468.96	8416.57
469.14	8627.21
469.32	8606.15
469.50	8409.54
469.69	8620.19
469.87	8755.94
470.05	8847.22
470.23	8699.77
470.41	8739.56
470.59	8830.84
470.77	8912.76
470.95	8875.31
471.14	9067.24
471.32	9029.79
471.50	9095.32
471.68	9067.24
471.86	9114.05
472.04	9092.98
472.22	9268.52
472.40	9270.86
472.58	9261.50
472.77	9186.60
472.95	9472.15
473.13	9724.93
473.31	9703.86
473.49	9322.35
473.67	9284.91
473.85	9537.68
474.03	9643.01
474.21	9605.56
474.39	9612.58
474.57	9844.29
474.75	9940.26
474.93	10094.73
475.12	9832.59
475.30	9933.23
475.48	10061.96
475.66	9942.60
475.84	9987.07
476.02	10366.23
476.20	10148.56
476.38	10361.55
476.56	10588.58
476.74	10504.32
476.92	10466.88
477.10	10359.21
477.28	10731.36
477.46	10590.92
477.64	10927.96
477.82	10792.21
478.00	11166.70
478.18	11176.06
478.36	11126.91
478.54	11522.46
478.72	11229.89
478.90	11328.19
479.08	11573.95
479.26	11604.38
479.44	11632.46
479.62	11637.14
479.80	11705.02
479.98	12035.03
480.16	12042.06
480.34	12067.80
480.52	12325.26
480.70	12088.87
480.88	12063.12
481.06	12229.30
481.24	12482.08
481.41	12456.33
481.59	12645.91
481.77	12566.34
481.95	12973.59
482.13	13036.78
482.31	12868.27
482.49	13249.77
482.67	13137.43
482.85	13371.48
483.03	13509.57
483.21	13565.74
483.39	13640.64
483.57	13664.05
483.74	13954.27
483.92	14052.58
484.10	13947.25
484.28	14267.91
484.46	14511.32
484.64	14452.81
484.82	14232.80
485.00	14946.66
485.18	14782.82
485.35	15005.17
485.53	14834.32
485.71	14684.52
485.89	14972.41
486.07	14853.04
486.25	15105.82
486.43	15124.54
486.61	15445.20
486.78	15974.16
486.96	15709.68
487.14	16128.63
487.32	15665.21
487.50	16339.28
487.68	16388.43
487.85	16395.45
488.03	16624.83
488.21	16910.37
488.39	16954.84
488.57	16725.47
488.75	17015.69
488.92	17296.56
489.10	17635.94
489.28	17490.82
489.46	17741.26
489.64	17544.66
489.81	18038.51
489.99	18075.96
490.17	18085.32
490.35	18497.25
490.53	18422.36
490.70	18307.67
490.88	18574.49
491.06	18555.77
491.24	18853.02
491.41	19094.09
491.59	18743.01
491.77	19026.21
491.95	19346.87
492.13	19014.51
492.30	19037.92
492.48	19480.28
492.66	19728.38
492.84	19674.54
493.01	19824.34
493.19	19627.73
493.37	20201.16
493.54	20262.02
493.72	20428.20
493.90	20182.44
494.08	20535.86
494.25	20704.38
494.43	20915.03
494.61	20950.14
494.79	21104.61
494.96	20896.30
495.14	21074.18
495.32	21539.95
495.49	21153.76
495.67	21415.90
495.85	21628.89
496.02	21982.31
496.20	21909.75
496.38	21961.25
496.55	22356.80
496.73	22565.10
496.91	22246.79
497.09	22642.34
497.26	22501.91
497.44	22497.23
497.62	23012.15
497.79	23318.76
497.97	22958.31
498.14	22808.52
498.32	23197.05
498.50	23248.54
498.67	23498.98
498.85	23594.94
499.03	23566.85
499.20	23435.78
499.38	23981.13
499.56	23880.49
499.73	23903.89
499.91	24086.45
500.08	24074.75
500.26	23939.00
500.44	24432.85
500.61	23920.28
500.79	24369.66
500.97	24261.99
501.14	24517.11
501.32	24870.53
501.49	24364.98
501.67	24606.05
501.84	25055.43
502.02	24678.61
502.20	25366.73
502.37	25415.88
502.55	25516.52
502.72	25326.94
502.90	25378.43
503.07	25188.85
503.25	25254.38
503.43	25413.54
503.60	26071.23
503.78	25972.92
503.95	26015.05
504.13	25900.37
504.30	25912.07
504.48	26108.68
504.65	26309.96
504.83	26494.86
505.01	26911.48
505.18	26394.22
505.36	26944.25
505.53	26930.20
505.71	26885.73
505.88	27168.94
506.06	26815.52
506.23	26930.20
506.41	26806.16
506.58	26984.04
506.76	27049.57
506.93	27702.58
507.11	27314.05
507.28	27101.06
507.46	27435.76
507.63	27651.09
507.81	27852.38
507.98	27332.78
508.16	28016.21
508.33	28018.55
508.50	28189.41
508.68	27988.13
508.85	28362.61
509.03	28189.41
509.20	28208.14
509.38	28264.31
509.55	28472.62
509.73	29024.98
509.90	28746.46
510.08	28566.24
510.25	28786.25
510.42	28933.70
510.60	28802.63
510.77	28929.02
510.95	29219.25
511.12	28912.64
511.30	29303.51
511.47	29455.64
511.64	29378.40
511.82	29160.73
511.99	29413.51
512.17	30223.34
512.34	29553.94
512.51	29769.27
512.69	29837.15
512.86	30045.46
513.04	30494.84
513.21	29944.81
513.38	30085.25
513.56	29998.65
513.73	30141.42
513.90	30487.82
514.08	30438.67
514.25	30661.02
514.43	30749.96
514.60	30480.80
514.77	30553.35
514.95	30892.73
515.12	30827.20
515.29	30574.42
515.47	31122.10
515.64	31374.88
515.81	30883.37
515.99	31166.57
516.16	31407.65
516.33	30953.58
516.51	31728.30
516.68	31332.75
516.85	30923.16
517.03	31239.13
517.20	31578.51
517.37	31999.80
517.54	31615.96
517.72	31580.85
517.89	31747.03
518.06	31665.11
518.24	31929.59
518.41	31634.68
518.58	31730.64
518.75	31899.16
518.93	32381.31
519.10	31758.73
519.27	32481.95
519.45	32388.33
519.62	32472.59
519.79	32432.80
519.96	32713.67
520.14	33214.54
520.31	32821.33
520.48	32872.82
520.65	32851.76
520.83	32945.38
521.00	32964.10
521.17	33034.32
521.34	33401.79
521.52	33619.46
521.69	33277.74
521.86	33776.27
522.03	33514.13
522.20	33673.29
522.38	33715.42
522.55	33692.01
522.72	33701.37
522.89	33797.34
523.07	33790.31
523.24	33523.49
523.41	34038.41
523.58	34192.89
523.75	34380.13
523.92	34181.18
524.10	34857.60
524.27	34361.40
524.44	34246.72
524.61	34665.67
524.78	34600.14
524.96	34728.87
525.13	34450.35
525.30	34941.86
525.47	35243.79
525.64	34859.94
525.81	35262.51
525.98	34895.05
526.16	34590.78
526.33	34972.28
526.50	35473.16
526.67	35208.68
526.84	35131.44
527.01	35068.25
527.18	35033.14
527.36	35566.78
527.53	35929.56
527.70	35807.86
527.87	35791.47
528.04	35571.46
528.21	34967.60
528.38	35594.87
528.55	36006.80
528.72	35859.35
528.89	36121.49
529.07	35943.61
529.24	36002.12
529.41	35817.22
529.58	35629.98
529.75	36201.07
529.92	36741.73
530.09	35976.37
530.26	36603.64
530.43	36428.10
530.60	36231.49
530.77	36163.62
530.94	36531.08
531.11	36350.86
531.28	36694.92
531.46	37053.02
531.63	36582.57
531.80	36912.59
531.97	36715.98
532.14	36919.61
532.31	36690.24
532.48	36617.68
532.65	37333.89
532.82	37373.67
532.99	37343.25
533.16	36809.61
533.33	36807.26
533.50	37228.56
533.67	37483.68
533.84	37160.69
534.01	37488.36
534.18	37366.65
534.35	37916.68
534.52	37298.78
534.69	37745.82
534.86	37233.24
535.03	37462.61
535.20	38143.71
535.37	37963.49
535.54	38122.65
535.71	37996.26
535.88	37907.32
536.05	38162.43
536.22	38103.92
536.38	38139.03
536.55	38050.09
536.72	38340.32
536.89	38143.71
537.06	37677.94
537.23	38007.96
537.40	38281.80
537.57	38251.38
537.74	38199.88
537.91	38864.60
538.08	38990.98
538.25	38064.13
538.42	38464.36
538.59	38817.78
538.75	38270.10
538.92	38684.37
539.09	38792.04
539.26	38766.29
539.43	38621.18
539.60	38522.88
539.77	38440.96
539.94	38871.62
540.11	38705.44
540.28	38923.11
540.44	38543.94
540.61	38965.24
540.78	38913.75
540.95	39318.66
541.12	39005.03
541.29	38981.62
541.46	39426.32
541.62	39161.84
541.79	39482.50
541.96	39274.19
542.13	39468.45
542.30	39381.85
542.47	39716.55
542.63	39374.83
542.80	39522.29
542.97	40107.42
543.14	40390.62
543.31	40105.08
543.48	40259.55
543.64	40025.50
543.81	40128.48
543.98	40432.75
544.15	39988.05
544.32	40346.15
544.48	40547.44
544.65	40182.32
544.82	40282.96
544.99	39929.54
545.16	40617.66
545.32	40594.25
545.49	40959.38
545.66	40570.85
545.83	40535.74
546.00	40657.45
546.16	40643.40
546.33	40823.62
546.50	40084.01
546.67	40774.47
546.83	40116.78
547.00	40428.07
547.17	40430.41
547.34	40294.66
547.50	41029.59
547.67	41050.66
547.84	41083.42
548.00	41127.89
548.17	41301.09
548.34	40957.03
548.51	41427.48
548.67	41284.71
548.84	41673.24
549.01	41361.95
549.18	41296.41
549.34	41326.84
549.51	41034.27
549.68	41081.08
549.84	41745.80
550.01	41464.93
550.18	41581.96
550.34	41486.00
550.51	41448.55
550.68	41097.47
550.84	41352.58
551.01	41422.80
551.18	41764.52
551.34	41745.80
551.51	41757.50
551.68	41771.54
551.84	42080.49
552.01	41694.30
552.18	41523.44
552.34	41172.36
552.51	41970.49
552.68	41703.67
552.84	42141.35
553.01	42209.22
553.18	41752.82
553.34	41773.88
553.51	41661.54
553.67	41923.68
553.84	42307.52
554.01	42560.30
554.17	42497.11
554.34	42527.53
554.51	42253.69
554.67	42611.79
554.84	42312.20
555.00	42298.16
555.17	42155.39
555.33	42410.51
555.50	42485.40
555.67	42115.60
555.83	42260.71
556.00	42356.67
556.16	42948.83
556.33	42569.66
556.50	42583.71
556.66	42672.65
556.83	42178.79
556.99	42794.36
557.16	42686.69
557.32	42724.14
557.49	42293.48
557.65	42686.69
557.82	42635.20
557.98	42986.28
558.15	42955.85
558.32	42747.54
558.48	42490.09
558.65	42965.21
558.81	42815.42
558.98	42880.95
559.14	42979.26
559.31	43009.68
559.47	42948.83
559.64	42656.26
559.80	43363.11
559.97	43328.00
560.13	43070.54
560.30	43016.71
560.46	42960.53
560.63	42932.45
560.79	43276.51
560.96	43154.80
561.12	43388.85
561.29	43131.39
561.45	43082.24
561.61	42878.61
561.78	43349.06
561.94	43358.42
562.11	43243.74
562.27	43157.14
562.44	42766.27
562.60	43775.04
562.77	43325.66
562.93	43194.59
563.10	43250.76
563.26	43452.05
563.42	43332.68
563.59	43402.89
563.75	43372.47
563.92	43643.97
564.08	43454.39
564.24	43697.80
564.41	43716.53
564.57	43435.66
564.74	43491.83
564.90	43711.84
565.07	43667.37
565.23	42852.87
565.39	43416.94
565.56	44088.67
565.72	43627.59
565.88	43924.83
566.05	43419.28
566.21	43391.19
566.38	43672.06
566.54	43545.67
566.70	44004.41
566.87	44154.21
567.03	43285.87
567.19	44318.04
567.36	43716.53
567.52	43814.83
567.68	43714.19
567.85	43971.64
568.01	43360.76
568.17	43665.03
568.34	43702.48
568.50	43693.12
568.66	43597.16
568.83	43819.51
568.99	43800.79
569.15	43690.78
569.32	43779.72
569.48	43854.62
569.64	44039.52
569.81	43779.72
569.97	43988.03
570.13	43749.29
570.30	43529.28
570.46	44128.46
570.62	43438.00
570.78	43438.00
570.95	43407.58
571.11	44308.68
571.27	43889.73
571.43	44086.33
571.60	43997.39
571.76	43683.76
571.92	43768.02
572.09	44217.40
572.25	43908.45
572.41	43716.53
572.57	44091.01
572.74	44285.28
572.90	44004.41
573.06	43524.60
573.22	43985.69
573.38	44051.22
573.55	43768.02
573.71	44219.74
573.87	43732.91
574.03	43662.69
574.20	44025.48
574.36	44102.71
574.52	44280.60
574.68	44121.44
574.84	44280.60
575.01	44278.25
575.17	44271.23
575.33	43955.26
575.49	43655.67
575.65	43924.83
575.82	44526.35
575.98	44224.42
576.14	44629.34
576.30	44114.42
576.46	43711.84
576.62	43674.40
576.79	43903.77
576.95	43758.66
577.11	44210.38
577.27	44486.56
577.43	44119.10
577.59	43899.09
577.75	44247.83
577.92	43756.32
578.08	43894.41
578.24	43714.19
578.40	44112.08
578.56	44133.14
578.72	44535.71
578.88	44231.44
579.04	44329.75
579.21	43737.59
579.37	44311.02
579.53	44065.27
579.69	43929.51
579.85	44037.18
580.01	44631.68
580.17	44203.36
580.33	44645.72
580.49	44493.58
580.65	44437.41
580.82	44128.46
580.98	44561.46
581.14	44444.43
581.30	44229.10
581.46	44128.46
581.62	44205.70
581.78	44367.20
581.94	44739.34
582.10	44032.50
582.26	44332.09
582.42	44182.29
582.58	44039.52
582.74	44304.00
582.90	44622.31
583.06	44147.18
583.22	44179.95
583.38	44622.31
583.54	44271.23
583.70	44243.15
583.86	44023.14
584.02	43800.79
584.18	43885.04
584.34	44252.51
584.50	44343.79
584.66	44065.27
584.82	44140.16
584.98	44273.57
585.14	44339.11
585.30	43573.75
585.46	43803.13
585.62	44261.87
585.78	44343.79
585.94	44186.97
586.10	44282.94
586.26	44179.95
586.42	44570.82
586.58	44692.53
586.74	44465.50
586.90	44442.09
587.06	44095.69
587.22	44334.43
587.38	43957.60
587.54	44360.17
587.70	44584.86
587.86	44395.28
588.02	44430.39
588.18	44479.54
588.34	44130.80
588.49	44219.74
588.65	44341.45
588.81	44278.25
588.97	44201.02
589.13	44355.49
589.29	44224.42
589.45	44392.94
589.61	44320.38
589.77	44744.02
589.93	44072.29
590.08	44421.03
590.24	44755.72
590.40	44741.68
