SpectraSuite Data File
++++++++++++++++++++++++++++++++++++
Date: Fri Oct 25 10:48:02 EDT 2013
User: price-jones
Dark Spectrum Present: No
Reference Spectrum Present: No
Number of Sampled Component Spectra: 1
Spectrometers: USB2+H05261
Integration Time (usec): 100000 (USB2+H05261)
Spectra Averaged: 1 (USB2+H05261)
Boxcar Smoothing: 0 (USB2+H05261)
Correct for Electrical Dark: No (USB2+H05261)
Strobe/Lamp Enabled: No (USB2+H05261)
Correct for Detector Non-linearity: No (USB2+H05261)
Correct for Stray Light: No (USB2+H05261)
Number of Pixels in Processed Spectrum: 2048
>>>>>Begin Processed Spectral Data<<<<<
365.73	126.39
365.92	126.39
366.12	126.39
366.32	44.47
366.52	4.68
366.72	140.43
366.91	35.11
367.11	110.01
367.31	51.49
367.51	42.13
367.70	0.00
367.90	0.00
368.10	95.96
368.30	16.38
368.49	32.77
368.69	74.90
368.89	25.75
369.09	74.90
369.28	105.32
369.48	42.13
369.68	0.00
369.87	21.06
370.07	131.07
370.27	100.64
370.47	262.14
370.66	379.17
370.86	482.15
371.06	456.40
371.25	486.83
371.45	411.93
371.65	430.66
371.84	407.25
372.04	454.06
372.24	543.00
372.44	477.47
372.63	573.43
372.83	505.56
373.03	557.05
373.22	470.45
373.42	498.53
373.62	484.49
373.81	543.00
374.01	585.13
374.21	538.32
374.40	503.22
374.60	559.39
374.79	550.03
374.99	622.58
375.19	550.03
375.38	550.03
375.58	528.96
375.78	606.20
375.97	571.09
376.17	589.82
376.37	582.79
376.56	631.94
376.76	580.45
376.95	566.41
377.15	608.54
377.35	601.52
377.54	568.75
377.74	592.16
377.93	599.18
378.13	608.54
378.33	608.54
378.52	615.56
378.72	638.97
378.91	564.07
379.11	669.39
379.31	510.24
379.50	479.81
379.70	603.86
379.89	664.71
380.09	575.77
380.28	564.07
380.48	641.31
380.68	578.11
380.87	582.79
381.07	699.82
381.26	720.88
381.46	688.12
381.65	697.48
381.85	674.07
382.04	664.71
382.24	622.58
382.43	648.33
382.63	690.46
382.83	678.76
383.02	669.39
383.22	671.73
383.41	620.24
383.61	697.48
383.80	763.01
384.00	734.93
384.19	732.59
384.39	690.46
384.58	774.72
384.78	692.80
384.97	767.70
385.17	697.48
385.36	678.76
385.56	826.21
385.75	791.10
385.95	739.61
386.14	807.48
386.34	819.19
386.53	819.19
386.72	741.95
386.92	772.38
387.11	814.51
387.31	770.04
387.50	767.70
387.70	770.04
387.89	800.46
388.09	819.19
388.28	821.53
388.48	812.17
388.67	863.66
388.86	842.59
389.06	947.92
389.25	919.83
389.45	915.15
389.64	863.66
389.84	957.28
390.03	908.13
390.22	924.51
390.42	870.68
390.61	814.51
390.81	931.53
391.00	873.02
391.19	978.34
391.39	866.00
391.58	997.07
391.78	1001.75
391.97	887.06
392.16	945.58
392.36	1022.81
392.55	931.53
392.75	959.62
392.94	929.19
393.13	947.92
393.33	910.47
393.52	950.26
393.71	1008.77
393.91	943.24
394.10	973.66
394.29	1111.75
394.49	1067.28
394.68	1081.33
394.88	1048.56
395.07	1039.20
395.26	1118.78
395.46	1174.95
395.65	1128.14
395.84	1071.97
396.04	1104.73
396.23	1097.71
396.42	1078.99
396.62	1191.33
396.81	1135.16
397.00	1174.95
397.19	1210.06
397.39	1191.33
397.58	1184.31
397.77	1254.53
397.97	1263.89
398.16	1294.32
398.35	1231.12
398.55	1256.87
398.74	1371.55
398.93	1324.74
399.12	1359.85
399.32	1205.38
399.51	1387.94
399.70	1336.45
399.90	1334.11
400.09	1306.02
400.28	1329.42
400.47	1434.75
400.67	1406.66
400.86	1495.60
401.05	1418.36
401.24	1481.56
401.44	1397.30
401.63	1483.90
401.82	1420.71
402.01	1462.83
402.21	1409.00
402.40	1500.28
402.59	1460.49
402.78	1519.01
402.97	1453.47
403.17	1575.18
403.36	1544.75
403.55	1556.46
403.74	1537.73
403.93	1605.61
404.13	1603.27
404.32	1544.75
404.51	1621.99
404.70	1710.93
404.89	1645.40
405.09	1682.85
405.28	1617.31
405.47	1722.63
405.66	1748.38
405.85	1633.69
406.05	1741.36
406.24	1802.21
406.43	1729.66
406.62	1790.51
406.81	1795.19
407.00	1825.62
407.20	1678.16
407.39	1834.98
407.58	1860.73
407.77	1856.04
407.96	1877.11
408.15	1944.99
408.34	1942.64
408.54	1940.30
408.73	1966.05
408.92	1987.11
409.11	1975.41
409.30	2043.29
409.49	1989.46
409.68	2087.76
409.87	1914.56
410.07	2040.95
410.26	2083.08
410.45	2050.31
410.64	2057.33
410.83	2195.42
411.02	2179.04
411.21	2258.62
411.40	2310.11
411.59	2275.00
411.78	2139.25
411.98	2363.94
412.17	2321.81
412.36	2249.25
412.55	2382.67
412.74	2307.77
412.93	2380.32
413.12	2457.56
413.31	2464.58
413.50	2455.22
413.69	2487.99
413.88	2502.03
414.07	2546.50
414.26	2523.10
414.45	2642.46
414.64	2679.91
414.83	2623.74
415.02	2736.09
415.22	2733.75
415.41	2698.64
415.60	2766.51
415.79	2764.17
415.98	2787.58
416.17	2827.37
416.36	2818.00
416.55	2874.18
416.74	2799.28
416.93	2759.49
417.12	2761.83
417.31	2935.03
417.50	2895.24
417.69	2995.89
417.88	2906.95
418.07	2935.03
418.26	2946.73
418.45	2946.73
418.64	3124.62
418.83	3021.63
419.02	3105.89
419.21	3133.98
419.39	3197.17
419.58	3056.74
419.77	2946.73
419.96	3155.04
420.15	3232.28
420.34	3225.26
420.53	3274.41
420.72	3356.33
420.91	3279.09
421.10	3412.50
421.29	3370.37
421.48	3255.69
421.67	3361.01
421.86	3274.41
422.05	3358.67
422.24	3222.92
422.43	3447.61
422.61	3393.78
422.80	3337.60
422.99	3602.08
423.18	3342.28
423.37	3461.65
423.56	3410.16
423.75	3459.31
423.94	3440.59
424.13	3393.78
424.32	3365.69
424.50	3531.87
424.69	3428.88
424.88	3578.68
425.07	3548.25
425.26	3414.84
425.45	3445.27
425.64	3365.69
425.83	3510.80
426.01	3485.06
426.20	3515.48
426.39	3473.36
426.58	3433.57
426.77	3393.78
426.96	3618.47
427.15	3447.61
427.33	3548.25
427.52	3482.72
427.71	3728.47
427.90	3632.51
428.09	3772.94
428.28	3714.43
428.46	3618.47
428.65	3740.18
428.84	3882.95
429.03	3691.02
429.22	3721.45
429.40	3691.02
429.59	3698.05
429.78	3536.55
429.97	3508.46
430.16	3779.97
430.34	3749.54
430.53	3775.28
430.72	3953.16
430.91	3911.04
431.10	4051.47
431.28	4002.32
431.47	4046.79
431.66	4107.64
431.85	4011.68
432.03	3941.46
432.22	4154.45
432.41	4156.79
432.60	4264.46
432.79	4138.07
432.97	4117.00
433.16	4234.03
433.35	4147.43
433.54	4255.09
433.72	4138.07
433.91	4238.71
434.10	4161.47
434.28	4421.27
434.47	4332.33
434.66	4337.01
434.85	4428.29
435.03	4468.08
435.22	4339.35
435.41	4650.64
435.59	4517.23
435.78	4409.57
435.97	4407.23
436.16	4451.70
436.34	4519.57
436.53	4461.06
436.72	4444.68
436.90	4440.00
437.09	4517.23
437.28	4545.32
437.46	4627.24
437.65	4734.90
437.84	4767.67
438.02	4613.20
438.21	4674.05
438.40	4559.36
438.58	4718.52
438.77	4777.03
438.96	4662.35
439.14	5085.98
439.33	4987.68
439.52	4812.14
439.70	5142.16
439.89	5025.13
440.08	5060.24
440.26	5043.85
440.45	5078.96
440.63	4990.02
440.82	5362.17
441.01	5184.29
441.19	5315.36
441.38	5249.82
441.57	5373.87
441.75	5453.45
441.94	5535.37
442.12	5671.12
442.31	5497.92
442.50	5621.97
442.68	5598.56
442.87	5575.16
443.05	5783.46
443.24	5689.84
443.43	5750.70
443.61	5612.60
443.80	5806.87
443.98	5706.23
444.17	5556.43
444.35	5692.18
444.54	5724.95
444.73	5755.38
444.91	5731.97
445.10	5640.69
445.28	5673.46
445.47	5664.10
445.65	5687.50
445.84	5760.06
446.02	5832.62
446.21	5872.40
446.39	5713.25
446.58	5893.47
446.77	5760.06
446.95	5687.50
447.14	5827.93
447.32	5853.68
447.51	5884.11
447.69	5776.44
447.88	6106.46
448.06	5959.00
448.25	5907.51
448.43	6015.18
448.62	6033.90
448.80	6005.81
448.99	6076.03
449.17	6129.86
449.36	5954.32
449.54	6132.20
449.73	6005.81
449.91	6242.21
450.10	6373.28
450.28	6232.85
450.46	6167.31
450.65	6267.95
450.83	6457.54
451.02	6352.21
451.20	6160.29
451.39	6169.65
451.57	6429.45
451.76	6305.40
451.94	6406.05
452.13	6415.41
452.31	6272.64
452.49	6274.98
452.68	6331.15
452.86	6284.34
453.05	6506.69
453.23	6516.05
453.42	6665.85
453.60	6574.56
453.78	6443.49
453.97	6469.24
454.15	6558.18
454.34	6464.56
454.52	6729.04
454.70	6705.63
454.89	6766.49
455.07	6569.88
455.26	6649.46
455.44	6829.68
455.62	6864.79
455.81	6892.88
455.99	6862.45
456.17	7026.29
456.36	6871.81
456.54	7075.44
456.73	6953.73
456.91	7197.15
457.09	6986.50
457.28	7213.53
457.46	7063.74
457.64	7108.21
457.83	7229.91
458.01	7197.15
458.19	7234.60
458.38	7204.17
458.56	7419.50
458.74	7431.20
458.93	7211.19
459.11	7393.75
459.29	7494.40
459.48	7379.71
459.66	7456.95
459.84	7391.41
460.03	7576.31
460.21	7501.42
460.39	7452.27
460.57	7620.78
460.76	7681.64
460.94	7616.10
461.12	7529.50
461.31	7709.72
461.49	7793.98
461.67	7564.61
461.85	7861.86
462.04	7658.23
462.22	8243.37
462.40	7838.45
462.59	7742.49
462.77	7758.88
462.95	8037.40
463.13	7840.79
463.32	7798.66
463.50	8098.25
463.68	8037.40
463.86	8056.12
464.05	7971.86
464.23	7864.20
464.41	8119.32
464.59	7859.52
464.78	8234.00
464.96	8135.70
465.14	8070.17
465.32	8271.45
465.50	8063.15
465.69	8346.35
465.87	8198.90
466.05	8259.75
466.23	8243.37
466.41	8252.73
466.60	8500.83
466.78	8238.69
466.96	8032.72
467.14	8341.67
467.32	8540.61
467.51	8475.08
467.69	8456.36
467.87	8262.09
468.05	8510.19
468.23	8458.70
468.41	8439.97
468.60	8329.97
468.78	8762.97
468.96	8610.83
469.14	8683.39
469.32	8718.50
469.50	8315.92
469.69	8791.05
469.87	8716.16
470.05	8973.61
470.23	8835.52
470.41	8772.33
470.59	8809.78
470.77	8812.12
470.95	8915.10
471.14	9057.87
471.32	8950.21
471.50	9186.60
471.68	9107.02
471.86	9261.50
472.04	9032.13
472.22	9446.40
472.40	9025.11
472.58	9228.73
472.77	9364.48
472.95	9659.39
473.13	9549.39
473.31	9401.93
473.49	9373.85
473.67	9418.32
473.85	9495.55
474.03	9640.67
474.21	9755.35
474.39	9689.82
474.57	9989.41
474.75	9951.96
474.93	9748.33
475.12	10125.16
475.30	10080.69
475.48	10167.29
475.66	10310.06
475.84	10071.33
476.02	10101.75
476.20	10600.29
476.38	10551.14
476.56	10796.89
476.74	10546.45
476.92	10471.56
477.10	10565.18
477.28	10642.42
477.46	10808.59
477.64	10738.38
477.82	10991.16
478.00	11215.85
478.18	11253.30
478.36	11075.42
478.54	11281.38
478.72	11571.61
478.90	11454.58
479.08	11836.09
479.26	11609.06
479.44	11623.10
479.62	11662.89
479.80	11955.46
479.98	12020.99
480.16	12318.24
480.34	12315.90
480.52	12257.39
480.70	12306.54
480.88	12248.02
481.06	12355.69
481.24	12334.62
481.41	12580.38
481.59	12858.90
481.77	12882.31
481.95	12781.67
482.13	13027.42
482.31	12989.97
482.49	13504.89
482.67	13366.80
482.85	13373.82
483.03	13654.69
483.21	13752.99
483.39	13795.12
483.57	13813.84
483.74	14012.79
483.92	14029.17
484.10	13984.70
484.28	14340.46
484.46	14242.16
484.64	14597.92
484.82	14527.71
485.00	14415.36
485.18	14864.74
485.35	15023.90
485.53	14773.46
485.71	14892.83
485.89	15009.86
486.07	15117.52
486.25	15084.75
486.43	15232.21
486.61	15604.35
486.78	15812.66
486.96	15768.19
487.14	15992.88
487.32	16130.97
487.50	16201.19
487.68	16624.83
487.85	16606.10
488.03	16912.71
488.21	16872.92
488.39	16863.56
488.57	16711.42
488.75	17242.73
488.92	17242.73
489.10	17446.35
489.28	17282.52
489.46	17940.21
489.64	17776.37
489.81	18223.41
489.99	18038.51
490.17	18391.93
490.35	18483.21
490.53	18410.65
490.70	18410.65
490.88	18567.47
491.06	18834.29
491.24	18633.00
491.41	18745.35
491.59	18904.51
491.77	19063.66
491.95	19168.99
492.13	19499.00
492.30	19564.54
492.48	19311.76
492.66	19754.12
492.84	19641.78
493.01	19915.62
493.19	20276.06
493.37	20198.82
493.54	20446.92
493.72	20449.26
493.90	20517.14
494.08	20779.28
494.25	20926.73
494.43	20849.49
494.61	21280.15
494.79	21151.42
494.96	21266.11
495.14	21069.50
495.32	21474.42
495.49	21495.48
495.67	21399.52
495.85	22094.66
496.02	22143.81
496.20	22085.30
496.38	22478.50
496.55	22260.84
496.73	22995.76
496.91	22604.89
497.09	22661.07
497.26	23021.51
497.44	22522.98
497.62	22642.34
497.79	23311.74
497.97	22906.82
498.14	23264.92
498.32	23215.77
498.50	23548.13
498.67	23639.41
498.85	23747.08
499.03	23960.06
499.20	23821.97
499.38	23903.89
499.56	23995.17
499.73	24133.26
499.91	24130.92
500.08	24503.07
500.26	24357.96
500.44	24402.43
500.61	24538.18
500.79	24100.50
500.97	24917.34
501.14	25249.70
501.32	25017.99
501.49	24968.84
501.67	24945.43
501.84	25280.13
502.02	25076.50
502.20	25722.49
502.37	25528.22
502.55	25720.15
502.72	25467.37
502.90	25441.62
503.07	25577.37
503.25	25701.42
503.43	26101.65
503.60	26181.23
503.78	25949.52
503.95	25942.50
504.13	26387.20
504.30	26228.04
504.48	26057.18
504.65	26551.04
504.83	26740.62
505.01	26703.17
505.18	26527.63
505.36	27206.39
505.53	26658.70
505.71	26930.20
505.88	26906.80
506.06	26848.29
506.23	27166.60
506.41	26719.56
506.58	27541.08
506.76	27229.79
506.93	27681.52
507.11	27955.36
507.28	27892.16
507.46	27601.94
507.63	27517.68
507.81	28088.77
507.98	27721.30
508.16	27967.06
508.33	28201.11
508.50	28409.42
508.68	28257.29
508.85	28306.44
509.03	28751.14
509.20	28704.33
509.38	28512.41
509.55	28594.32
509.73	28467.94
509.90	28811.99
510.08	28863.49
510.25	29252.02
510.42	29017.96
510.60	28821.36
510.77	29493.09
510.95	29219.25
511.12	29233.29
511.30	29675.65
511.47	29663.95
511.64	29699.06
511.82	29851.19
511.99	30089.93
512.17	29977.58
512.34	29663.95
512.51	30015.03
512.69	30167.16
512.86	30321.64
513.04	30525.27
513.21	30316.96
513.38	30272.49
513.56	30349.73
513.73	30171.85
513.90	30618.89
514.08	30382.49
514.25	30895.07
514.43	30644.63
514.60	30658.68
514.77	30656.34
514.95	30808.47
515.12	30927.84
515.29	31178.28
515.47	31751.71
515.64	31835.97
515.81	31346.79
515.99	31477.86
516.16	31491.91
516.33	31641.70
516.51	31505.95
516.68	31311.69
516.85	31569.15
517.03	31632.34
517.20	32027.89
517.37	31901.50
517.54	31866.39
517.72	31831.29
517.89	32067.68
518.06	32275.99
518.24	31700.22
518.41	31915.54
518.58	32161.30
518.75	32254.92
518.93	32856.44
519.10	32662.18
519.27	32467.91
519.45	32460.89
519.62	32507.70
519.79	32837.72
519.96	33139.65
520.14	32903.25
520.31	32926.66
520.48	33127.94
520.65	33170.07
520.83	33415.83
521.00	33425.19
521.17	33422.85
521.34	33380.72
521.52	33509.45
521.69	33757.55
521.86	33621.80
522.03	33486.04
522.20	33692.01
522.38	33834.78
522.55	34459.71
522.72	34185.86
522.89	34082.88
523.07	34321.62
523.24	33570.30
523.41	34553.33
523.58	34073.52
523.75	34621.20
523.92	34256.08
524.10	34466.73
524.27	34766.32
524.44	34684.40
524.61	34717.17
524.78	34876.32
524.96	34733.55
525.13	35250.81
525.30	35255.49
525.47	35372.52
525.64	35138.46
525.81	35248.47
525.98	35246.13
526.16	35229.74
526.33	35103.35
526.50	35133.78
526.67	35196.98
526.84	35358.47
527.01	35082.29
527.18	35337.41
527.36	35646.36
527.53	35945.95
527.70	35871.05
527.87	36128.51
528.04	35615.93
528.21	35793.81
528.38	35735.30
528.55	35875.73
528.72	36510.02
528.89	36107.44
529.07	36133.19
529.24	36416.40
529.41	36280.64
529.58	36226.81
529.75	36039.57
529.92	36257.24
530.09	36533.42
530.26	36631.72
530.43	36526.40
530.60	36290.01
530.77	36685.56
530.94	36800.24
531.11	36648.11
531.28	36769.82
531.46	36659.81
531.63	36891.52
531.80	37111.53
531.97	36964.08
532.14	37167.71
532.31	37010.89
532.48	37448.57
532.65	37439.21
532.82	37476.66
532.99	37699.01
533.16	37284.73
533.33	37273.03
533.50	37610.07
533.67	37783.27
533.84	37581.98
534.01	37675.60
534.18	38003.28
534.35	38045.41
534.52	37436.87
534.69	37783.27
534.86	38106.26
535.03	37532.83
535.20	38277.12
535.37	38082.86
535.54	38234.99
535.71	38031.36
535.88	38581.39
536.05	38010.30
536.22	38483.09
536.38	38253.72
536.55	38513.52
536.72	37956.47
536.89	38204.56
537.06	38057.11
537.23	38431.60
537.40	38157.75
537.57	38532.24
537.74	38307.55
537.91	38848.21
538.08	38614.16
538.25	38618.84
538.42	38380.10
538.59	38972.26
538.75	38295.85
538.92	39241.42
539.09	39009.71
539.26	39005.03
539.43	39154.82
539.60	39358.45
539.77	39370.15
539.94	38909.07
540.11	39203.97
540.28	38859.91
540.44	39323.34
540.61	39122.05
540.78	39173.55
540.95	38710.12
541.12	39332.70
541.29	39531.65
541.46	39487.18
541.62	39566.76
541.79	39564.42
541.96	39365.47
542.13	39321.00
542.30	39625.27
542.47	40055.93
542.63	39569.10
542.80	39594.84
542.97	40252.53
543.14	40395.31
543.31	39772.72
543.48	40383.60
543.64	40645.74
543.81	40013.80
543.98	40369.56
544.15	39896.77
544.32	40924.27
544.48	41008.53
544.65	40512.33
544.82	40542.76
544.99	40081.67
545.16	40580.21
545.32	40439.78
545.49	41083.42
545.66	41027.25
545.83	40945.33
546.00	41038.95
546.16	41265.99
546.33	40842.35
546.50	40722.98
546.67	40989.80
546.83	40617.66
547.00	41017.89
547.17	40540.42
547.34	40512.33
547.50	41378.33
547.67	41422.80
547.84	41289.39
548.00	41427.48
548.17	41523.44
548.34	41179.39
548.51	41333.86
548.67	41109.17
548.84	41345.56
549.01	41432.16
549.18	41298.75
549.34	41532.81
549.51	41696.64
549.68	41635.79
549.84	41544.51
550.01	42043.04
550.18	41535.15
550.34	41462.59
550.51	41223.86
550.68	41165.34
550.84	41689.62
551.01	41354.93
551.18	41860.48
551.34	41914.31
551.51	42085.17
551.68	41865.16
551.84	42061.77
552.01	41729.41
552.18	42068.79
552.34	42005.59
552.51	42265.39
552.68	41972.83
552.84	42361.36
553.01	42595.41
553.18	41890.91
553.34	42155.39
553.51	42274.76
553.67	42225.60
553.84	42529.87
554.01	42504.13
554.17	42859.89
554.34	42518.17
554.51	42677.33
554.67	42756.91
554.84	42525.19
555.00	41823.03
555.17	42548.60
555.33	42291.14
555.50	42707.76
555.67	42567.32
555.83	42607.11
556.00	42787.33
556.16	43033.09
556.33	43124.37
556.50	42824.78
556.66	42951.17
556.83	42836.48
556.99	43196.93
557.16	43065.86
557.32	42782.65
557.49	42988.62
557.65	42759.25
557.82	42614.13
557.98	43157.14
558.15	42864.57
558.32	43430.98
558.48	43196.93
558.65	43164.16
558.81	43115.01
558.98	43124.37
559.14	43309.27
559.31	42766.27
559.47	43430.98
559.64	43562.05
559.80	43461.41
559.97	43531.62
560.13	42845.85
560.30	43246.08
560.46	43335.02
560.63	42731.16
560.79	43014.37
560.96	43489.49
561.12	43646.31
561.29	43320.98
561.45	43262.46
561.61	43416.94
561.78	43248.42
561.94	43573.75
562.11	43225.01
562.27	43276.51
562.44	43859.30
562.60	43950.58
562.77	43842.92
562.93	43597.16
563.10	43548.01
563.26	43559.71
563.42	43791.42
563.59	43536.30
563.75	43931.86
563.92	44240.81
564.08	43812.49
564.24	43845.26
564.41	43665.03
564.57	43819.51
564.74	43735.25
564.90	44004.41
565.07	43648.65
565.23	43810.15
565.39	43892.07
565.56	44006.75
565.72	43648.65
565.88	43751.63
566.05	43777.38
566.21	43981.01
566.38	43866.32
566.54	44048.88
566.70	44264.21
566.87	44516.99
567.03	43868.66
567.19	44306.34
567.36	44519.33
567.52	43524.60
567.68	44055.90
567.85	43739.93
568.01	44121.44
568.17	43978.67
568.34	43826.53
568.50	44142.50
568.66	43739.93
568.83	43878.02
568.99	44156.55
569.15	44184.63
569.32	43714.19
569.48	44140.16
569.64	44619.97
569.81	44091.01
569.97	44177.61
570.13	44048.88
570.30	43587.80
570.46	43751.63
570.62	44189.31
570.78	43784.40
570.95	43976.33
571.11	44318.04
571.27	43920.15
571.43	44481.88
571.60	44341.45
571.76	43772.70
571.92	44226.76
572.09	44151.87
572.25	44430.39
572.41	44292.30
572.57	44231.44
572.74	44486.56
572.90	44296.98
573.06	44081.65
573.22	44603.59
573.38	43973.98
573.55	44039.52
573.71	44538.05
573.87	44411.67
574.03	44147.18
574.20	43985.69
574.36	43948.24
574.52	44598.91
574.68	44519.33
574.84	44615.29
575.01	44378.90
575.17	44418.69
575.33	44201.02
575.49	43548.01
575.65	44526.35
575.82	44451.45
575.98	44484.22
576.14	44818.92
576.30	44788.49
576.46	44069.95
576.62	44325.07
576.79	44425.71
576.95	44133.14
577.11	44238.47
577.27	44285.28
577.43	44254.85
577.59	44437.41
577.75	44332.09
577.92	43833.55
578.08	44086.33
578.24	44336.77
578.40	44182.29
578.56	44465.50
578.72	44083.99
578.88	44645.72
579.04	44570.82
579.21	44179.95
579.37	44512.31
579.53	44381.24
579.69	43988.03
579.85	44669.12
580.01	44575.50
580.17	44435.07
580.33	44612.95
580.49	44725.30
580.65	44311.02
580.82	45090.42
580.98	44570.82
581.14	44231.44
581.30	44381.24
581.46	44783.81
581.62	44488.90
581.78	44194.00
581.94	45001.48
582.10	44378.90
582.26	44542.74
582.42	44671.46
582.58	44655.08
582.74	44524.01
582.90	44360.17
583.06	44940.63
583.22	44488.90
583.38	44758.06
583.54	44479.54
583.70	44673.81
583.86	44453.79
584.02	44069.95
584.18	44339.11
584.34	44566.14
584.50	44694.87
584.66	44907.86
584.82	44306.34
584.98	44655.08
585.14	44839.98
585.30	44671.46
585.46	44566.14
585.62	44605.93
585.78	44491.24
585.94	44194.00
586.10	44804.88
586.26	44048.88
586.42	44631.68
586.58	45006.16
586.74	44364.85
586.90	44416.35
587.06	44470.18
587.22	44804.88
587.38	44229.10
587.54	44879.77
587.70	44905.52
587.86	44526.35
588.02	44765.09
588.18	44786.15
588.34	44507.63
588.49	43983.35
588.65	44495.92
588.81	44144.84
588.97	44538.05
589.13	44364.85
589.29	44479.54
589.45	44938.29
589.61	44758.06
589.77	45125.53
589.93	44954.67
590.08	45109.14
590.24	44704.23
