SpectraSuite Data File
++++++++++++++++++++++++++++++++++++
Date: Fri Oct 25 11:23:09 EDT 2013
User: price-jones
Dark Spectrum Present: No
Reference Spectrum Present: No
Number of Sampled Component Spectra: 1
Spectrometers: USB2+H05261
Integration Time (usec): 100000 (USB2+H05261)
Spectra Averaged: 1 (USB2+H05261)
Boxcar Smoothing: 0 (USB2+H05261)
Correct for Electrical Dark: No (USB2+H05261)
Strobe/Lamp Enabled: No (USB2+H05261)
Correct for Detector Non-linearity: No (USB2+H05261)
Correct for Stray Light: No (USB2+H05261)
Number of Pixels in Processed Spectrum: 2048
>>>>>Begin Processed Spectral Data<<<<<
365.73	217.67
365.92	217.67
366.12	217.67
366.32	156.82
366.52	88.94
366.72	161.50
366.91	117.03
367.11	72.56
367.31	163.84
367.51	205.97
367.70	182.56
367.90	201.29
368.10	140.43
368.30	142.77
368.49	95.96
368.69	156.82
368.89	154.48
369.09	114.69
369.28	154.48
369.48	198.95
369.68	105.32
369.87	142.77
370.07	182.56
370.27	156.82
370.47	294.91
370.66	622.58
370.86	617.90
371.06	622.58
371.25	692.80
371.45	641.31
371.65	702.16
371.84	674.07
372.04	645.99
372.24	725.57
372.44	744.29
372.63	798.12
372.83	772.38
373.03	816.85
373.22	704.50
373.42	826.21
373.62	760.67
373.81	821.53
374.01	835.57
374.21	866.00
374.40	833.23
374.60	870.68
374.79	777.06
374.99	821.53
375.19	880.04
375.38	805.14
375.58	819.19
375.78	844.93
375.97	880.04
376.17	840.25
376.37	933.87
376.56	793.44
376.76	912.81
376.95	826.21
377.15	894.08
377.35	880.04
377.54	917.49
377.74	915.15
377.93	840.25
378.13	896.43
378.33	833.23
378.52	905.79
378.72	954.94
378.91	1004.09
379.11	999.41
379.31	940.90
379.50	950.26
379.70	924.51
379.89	957.28
380.09	992.39
380.28	898.77
380.48	1001.75
380.68	940.90
380.87	1001.75
381.07	1001.75
381.26	966.64
381.46	959.62
381.65	1060.26
381.85	999.41
382.04	1043.88
382.24	1102.39
382.43	1078.99
382.63	1025.15
382.83	1083.67
383.02	1032.18
383.22	1125.80
383.41	1088.35
383.61	1107.07
383.80	1102.39
384.00	1174.95
384.19	1111.75
384.39	1137.50
384.58	1111.75
384.78	1151.54
384.97	1088.35
385.17	1210.06
385.36	1170.27
385.56	1221.76
385.75	1198.35
385.95	1200.69
386.14	1153.88
386.34	1174.95
386.53	1212.40
386.72	1238.14
386.92	1214.74
387.11	1191.33
387.31	1240.48
387.50	1350.49
387.70	1275.59
387.89	1280.27
388.09	1247.51
388.28	1380.92
388.48	1320.06
388.67	1261.55
388.86	1317.72
389.06	1348.15
389.25	1317.72
389.45	1315.38
389.64	1327.08
389.84	1324.74
390.03	1294.32
390.22	1430.07
390.42	1366.87
390.61	1472.20
390.81	1434.75
391.00	1504.96
391.19	1554.12
391.39	1444.11
391.58	1423.05
391.78	1469.86
391.97	1493.26
392.16	1469.86
392.36	1483.90
392.55	1575.18
392.75	1619.65
392.94	1460.49
393.13	1502.62
393.33	1598.59
393.52	1647.74
393.71	1626.67
393.91	1572.84
394.10	1551.78
394.29	1619.65
394.49	1657.10
394.68	1699.23
394.88	1682.85
395.07	1647.74
395.26	1600.93
395.46	1729.66
395.65	1760.08
395.84	1692.21
396.04	1816.26
396.23	1748.38
396.42	1746.04
396.62	1764.76
396.81	1797.53
397.00	1776.47
397.19	1696.89
397.39	1909.88
397.58	1844.34
397.77	1898.17
397.97	1926.26
398.16	1802.21
398.35	1846.68
398.55	1944.99
398.74	1961.37
398.93	1954.35
399.12	1891.15
399.32	1891.15
399.51	1872.43
399.70	1907.54
399.90	2052.65
400.09	2003.50
400.28	2005.84
400.47	1895.83
400.67	2132.23
400.86	2071.37
401.05	2087.76
401.24	2057.33
401.44	2183.72
401.63	2160.31
401.82	2207.13
402.01	2221.17
402.21	2167.34
402.40	2162.66
402.59	2328.83
402.78	2221.17
402.97	2237.55
403.17	2263.30
403.36	2300.75
403.55	2356.92
403.74	2277.34
403.93	2420.11
404.13	2441.18
404.32	2265.64
404.51	2345.22
404.70	2436.50
404.89	2436.50
405.09	2434.16
405.28	2387.35
405.47	2480.97
405.66	2478.63
405.85	2562.89
406.05	2523.10
406.24	2539.48
406.43	2459.90
406.62	2623.74
406.81	2726.72
407.00	2555.86
407.20	2581.61
407.39	2665.87
407.58	2757.15
407.77	2745.45
407.96	2705.66
408.15	2792.26
408.34	2703.32
408.54	2775.88
408.73	2789.92
408.92	2881.20
409.11	2897.58
409.30	3019.29
409.49	2850.77
409.68	2984.18
409.87	2993.55
410.07	2981.84
410.26	3049.72
410.45	3023.97
410.64	3052.06
410.83	3070.78
411.02	3211.22
411.21	3201.85
411.40	3066.10
411.59	3117.59
411.78	3258.03
411.98	3290.79
412.17	3122.27
412.36	3346.97
412.55	3274.41
412.74	3396.12
412.93	3342.28
413.12	3372.71
413.31	3513.14
413.50	3496.76
413.69	3545.91
413.88	3510.80
414.07	3520.17
414.26	3569.32
414.45	3693.37
414.64	3812.73
414.83	3843.16
415.02	3791.67
415.22	3770.60
415.41	3896.99
415.60	3934.44
415.79	4079.55
415.98	4074.87
416.17	3992.95
416.36	4086.58
416.55	4086.58
416.74	4042.11
416.93	4114.66
417.12	4126.36
417.31	4007.00
417.50	4210.62
417.69	4393.19
417.88	4358.08
418.07	4341.69
418.26	4264.46
418.45	4432.97
418.64	4596.81
418.83	4613.20
419.02	4514.89
419.21	4610.86
419.39	4470.42
419.58	4519.57
419.77	4519.57
419.96	4582.77
420.15	4685.75
420.34	4620.22
420.53	4643.62
420.72	4678.73
420.91	4596.81
421.10	4849.59
421.29	4720.86
421.48	4760.65
421.67	4669.37
421.86	4882.36
422.05	4826.18
422.24	4753.63
422.43	4947.89
422.61	4987.68
422.80	4908.10
422.99	4990.02
423.18	4887.04
423.37	4961.94
423.56	4844.91
423.75	4915.12
423.94	4999.38
424.13	4655.33
424.32	4685.75
424.50	4978.32
424.69	5163.22
424.88	5242.80
425.07	4990.02
425.26	4933.85
425.45	5100.03
425.64	5018.11
425.83	4954.91
426.01	5130.45
426.20	4997.04
426.39	5149.18
426.58	5039.17
426.77	4947.89
426.96	5270.89
427.15	5137.48
427.33	5268.55
427.52	5111.73
427.71	5320.04
427.90	5207.69
428.09	5280.25
428.28	5455.79
428.46	5495.58
428.65	5523.66
428.84	5338.76
429.03	5523.66
429.22	5434.72
429.40	5378.55
429.59	5479.19
429.78	5497.92
429.97	5301.31
430.16	5561.11
430.34	5554.09
430.53	5458.13
430.72	5584.52
430.91	5771.76
431.10	5675.80
431.28	5806.87
431.47	5853.68
431.66	5886.45
431.85	5792.83
432.03	5930.92
432.22	6038.58
432.41	6064.33
432.60	5923.90
432.79	5937.94
432.97	6080.71
433.16	6029.22
433.35	6073.69
433.54	6099.44
433.72	6026.88
433.91	6242.21
434.10	6274.98
434.28	6155.61
434.47	6373.28
434.66	6235.19
434.85	6274.98
435.03	6406.05
435.22	6494.99
435.41	6452.86
435.59	6525.41
435.78	6487.96
435.97	6464.56
436.16	6602.65
436.34	6583.93
436.53	6511.37
436.72	6719.68
436.90	6504.35
437.09	6600.31
437.28	6380.30
437.46	6616.69
437.65	6860.11
437.84	6656.48
438.02	6825.00
438.21	6766.49
438.40	6691.59
438.58	7164.38
438.77	7105.87
438.96	6986.50
439.14	7236.94
439.33	7119.91
439.52	7272.04
439.70	7295.45
439.89	7316.51
440.08	7503.76
440.26	7480.35
440.45	7552.91
440.63	7438.22
440.82	7529.50
441.01	7599.72
441.19	7599.72
441.38	7789.30
441.57	7911.01
441.75	7829.09
441.94	8006.97
442.12	8095.91
442.31	8175.49
442.50	7976.55
442.68	8035.06
442.87	8109.96
443.05	8219.96
443.24	8280.82
443.43	8156.77
443.61	8177.83
443.80	8301.88
443.98	8208.26
444.17	8035.06
444.35	8322.94
444.54	8454.02
444.73	8299.54
444.91	8311.24
445.10	8465.72
445.28	8425.93
445.47	8355.71
445.65	8449.33
445.84	8404.86
446.02	8533.59
446.21	8568.70
446.39	8498.49
446.58	8470.40
446.77	8313.58
446.95	8379.12
447.14	8416.57
447.32	8428.27
447.51	8549.98
447.69	8496.14
447.88	8636.58
448.06	8674.03
448.25	8531.25
448.43	8573.38
448.62	8674.03
448.80	8697.43
448.99	8837.86
449.17	8610.83
449.36	8772.33
449.54	8901.06
449.73	9107.02
449.91	9074.26
450.10	9074.26
450.28	8971.27
450.46	9195.96
450.65	8973.61
450.83	9050.85
451.02	9149.15
451.20	9298.95
451.39	9259.16
451.57	9338.74
451.76	9219.37
451.94	9439.38
452.13	9387.89
452.31	9397.25
452.49	9357.46
452.68	9502.58
452.86	9329.38
453.05	9462.79
453.23	9448.74
453.42	9586.83
453.60	9472.15
453.78	9607.90
453.97	9387.89
454.15	9680.46
454.34	9511.94
454.52	9783.44
454.70	9729.61
454.89	10059.62
455.07	9706.20
455.26	9860.68
455.44	10054.94
455.62	9944.94
455.81	10167.29
455.99	10092.39
456.17	10071.33
456.36	9958.98
456.54	10167.29
456.73	10303.04
456.91	10682.20
457.09	10640.08
457.28	10806.25
457.46	10562.84
457.64	10562.84
457.83	10764.12
458.01	10518.37
458.19	10956.05
458.38	10462.19
458.56	10953.71
458.74	10745.40
458.93	10787.53
459.11	10939.66
459.29	10766.46
459.48	10923.28
459.66	10874.13
459.84	11033.29
460.03	11164.36
460.21	11019.24
460.39	11026.26
460.57	11052.01
460.76	11084.78
460.94	11122.23
461.12	11035.63
461.31	11265.00
461.49	11281.38
461.67	11253.30
461.85	11386.71
462.04	11665.23
462.22	11742.47
462.40	11440.54
462.59	11618.42
462.77	11639.48
462.95	11611.40
463.13	11712.04
463.32	11660.55
463.50	11695.66
463.68	11960.14
463.86	11943.75
464.05	11815.02
464.23	11925.03
464.41	12091.21
464.59	11543.52
464.78	12297.17
464.96	11967.16
465.14	11843.11
465.32	11864.18
465.50	12376.75
465.69	12189.51
465.87	12215.26
466.05	12142.70
466.23	12023.33
466.41	12269.09
466.60	12374.41
466.78	12418.88
466.96	12252.70
467.14	12411.86
467.32	12308.88
467.51	12585.06
467.69	12365.05
467.87	12542.93
468.05	12681.02
468.23	12566.34
468.41	12336.96
468.60	12868.27
468.78	12620.17
468.96	12573.36
469.14	13006.36
469.32	13055.51
469.50	12821.45
469.69	13209.98
469.87	12985.29
470.05	13364.46
470.23	13348.08
470.41	13104.66
470.59	13373.82
470.77	13231.05
470.95	13495.53
471.14	13617.24
471.32	13331.69
471.50	13748.31
471.68	13565.74
471.86	13818.52
472.04	13797.46
472.22	14204.71
472.40	13870.01
472.58	14101.73
472.77	14256.20
472.95	14345.14
473.13	14710.27
473.31	14260.88
473.49	14370.89
473.67	14099.39
473.85	14148.54
474.03	14890.49
474.21	14611.96
474.39	14906.87
474.57	14934.96
474.75	15002.83
474.93	14956.02
475.12	15176.03
475.30	15084.75
475.48	15239.23
475.66	15463.92
475.84	15538.82
476.02	15536.48
476.20	15700.31
476.38	15648.82
476.56	15901.60
476.74	16180.12
476.92	16086.50
477.10	15999.90
477.28	16135.65
477.46	16421.20
477.64	16507.80
477.82	16769.94
478.00	17151.45
478.18	17029.74
478.36	17011.01
478.54	17329.33
478.72	17453.37
478.90	17628.92
479.08	17633.60
479.26	17919.14
479.44	17523.59
479.62	17996.38
479.80	18387.25
479.98	18658.75
480.16	18892.80
480.34	18160.22
480.52	18848.33
480.70	19068.34
480.88	18764.07
481.06	18789.82
481.24	18923.23
481.41	19136.22
481.59	19475.60
481.77	19871.15
481.95	20149.67
482.13	20060.73
482.31	19903.92
482.49	20236.27
482.67	20262.02
482.85	20898.64
483.03	20826.09
483.21	20692.68
483.39	21329.30
483.57	20912.69
483.74	21343.35
483.92	21626.55
484.10	21270.79
484.28	21752.94
484.46	22139.13
484.64	22513.61
484.82	22642.34
485.00	22614.26
485.18	22993.42
485.35	23232.16
485.53	23087.04
485.71	23494.30
485.89	23854.74
486.07	23585.58
486.25	23569.19
486.43	23641.75
486.61	23964.75
486.78	24467.96
486.96	24423.49
487.14	24690.31
487.32	25020.33
487.50	25139.69
487.68	25219.27
487.85	25348.00
488.03	26031.44
488.21	26078.25
488.39	25759.94
488.57	26469.12
488.75	26443.37
488.92	26576.78
489.10	27021.48
489.28	26974.67
489.46	27337.46
489.64	27145.53
489.81	27735.35
489.99	27782.16
490.17	28128.56
490.35	28442.19
490.53	28561.56
490.70	28608.37
490.88	28723.05
491.06	29263.72
491.24	28861.15
491.41	29472.03
491.59	29514.16
491.77	29649.91
491.95	29795.02
492.13	30110.99
492.30	30333.34
492.48	30181.21
492.66	30141.42
492.84	30693.79
493.01	31182.96
493.19	31016.78
493.37	31356.16
493.54	31255.51
493.72	31833.63
493.90	31688.51
494.08	32065.34
494.25	32065.34
494.43	32074.70
494.61	32739.41
494.79	32800.27
494.96	32886.87
495.14	33221.56
495.32	33219.22
495.49	33291.78
495.67	33839.47
495.85	33991.60
496.02	34031.39
496.20	34464.39
496.38	34445.66
496.55	34291.19
496.73	35079.95
496.91	34960.58
497.09	35072.93
497.26	34995.69
497.44	34998.03
497.62	35693.17
497.79	36084.04
497.97	35405.28
498.14	36381.29
498.32	36493.63
498.50	36285.33
498.67	37067.06
498.85	37060.04
499.03	36858.76
499.20	36992.17
499.38	37015.57
499.56	37390.06
499.73	37825.40
499.91	37584.32
500.08	38068.81
500.26	37921.36
500.44	37874.55
500.61	38178.82
500.79	37830.08
500.97	38345.00
501.14	39009.71
501.32	38857.57
501.49	38670.33
501.67	39189.93
501.84	39295.25
502.02	38859.91
502.20	39515.26
502.37	39622.93
502.55	39700.17
502.72	40046.57
502.90	40224.45
503.07	40102.74
503.25	40271.26
503.43	39988.05
503.60	40430.41
503.78	40493.61
503.95	40250.19
504.13	40891.50
504.30	40788.52
504.48	41008.53
504.65	40601.27
504.83	41397.06
505.01	41839.42
505.18	41055.34
505.36	42073.47
505.53	41170.02
505.71	41858.14
505.88	41874.52
506.06	41930.70
506.23	42347.31
506.41	42054.75
506.58	42717.12
506.76	42696.05
506.93	42534.56
507.11	42794.36
507.28	43007.34
507.46	42782.65
507.63	43084.58
507.81	43599.50
507.98	43026.07
508.16	43089.26
508.33	43601.84
508.50	43948.24
508.68	44334.43
508.85	44219.74
509.03	44140.16
509.20	44374.22
509.38	45184.04
509.55	44737.00
509.73	44933.60
509.90	44940.63
510.08	44945.31
510.25	45083.40
510.42	45380.65
510.60	45453.20
510.77	45378.31
510.95	45333.84
511.12	45216.81
511.30	45785.56
511.47	45633.42
511.64	45841.73
511.82	46052.38
511.99	45989.19
512.17	46569.64
512.34	46218.56
512.51	46691.35
512.69	46948.81
512.86	46658.58
513.04	46876.25
513.21	47358.40
513.38	47285.84
513.56	47152.43
513.73	47203.92
513.90	47241.37
514.08	47428.62
514.25	47578.41
514.43	48025.45
514.60	47536.28
514.77	48037.16
514.95	47751.61
515.12	48013.75
515.29	48156.52
515.47	48245.46
515.64	48301.64
515.81	48409.30
515.99	48781.45
516.16	48741.66
516.33	48830.60
516.51	48870.39
516.68	48879.75
516.85	49102.10
517.03	49523.40
517.20	49265.94
517.37	49106.78
517.54	49448.50
517.72	49277.64
517.89	49577.23
518.06	49771.49
518.24	49989.16
518.41	49263.60
518.58	49673.19
518.75	49820.64
518.93	49911.92
519.10	49689.57
519.27	49794.90
519.45	50260.66
519.62	50363.65
519.79	50031.29
519.96	50658.56
520.14	50468.97
520.31	50721.75
520.48	50696.00
520.65	50614.08
520.83	51011.98
521.00	51154.75
521.17	50747.50
521.34	50941.76
521.52	51180.49
521.69	51583.07
521.86	51384.12
522.03	51480.08
522.20	51854.57
522.38	51526.89
522.55	51899.04
522.72	51765.63
522.89	51765.63
523.07	51882.66
523.24	51573.70
523.41	52083.94
523.58	51901.38
523.75	51995.00
523.92	52114.37
524.10	52268.84
524.27	52069.90
524.44	52296.93
524.61	52327.36
524.78	52418.64
524.96	52294.59
525.13	52470.13
525.30	52832.91
525.47	52839.93
525.64	52809.51
525.81	52985.05
525.98	53022.50
526.16	53057.60
526.33	52989.73
526.50	53312.72
526.67	53036.54
526.84	53364.21
527.01	53310.38
527.18	53013.13
527.36	53146.54
527.53	53048.24
527.70	53652.10
527.87	53661.46
528.04	53525.71
528.21	53340.81
528.38	53591.25
528.55	53963.39
528.72	53619.33
528.89	53719.98
529.07	53921.26
529.24	53705.93
529.41	53907.22
529.58	54017.22
529.75	53820.62
529.92	53993.82
530.09	53982.12
530.26	54398.73
530.43	54380.01
530.60	53822.96
530.77	54127.23
530.94	54543.84
531.11	54260.64
531.28	54405.75
531.46	54314.47
531.63	54688.96
531.80	54412.77
531.97	54738.11
532.14	54693.64
532.31	54791.94
532.48	54986.21
532.65	54824.71
532.82	54787.26
532.99	54815.35
533.16	54852.80
533.33	55009.61
533.50	55093.87
533.67	55161.75
533.84	54901.95
534.01	55128.98
534.18	55023.65
534.35	55487.08
534.52	55320.90
534.69	55419.20
534.86	55423.89
535.03	55161.75
535.20	55227.28
535.37	55480.06
535.54	55466.02
535.71	55508.14
535.88	55681.34
536.05	55688.37
536.22	55966.89
536.38	55873.27
536.55	55891.99
536.72	55915.40
536.89	55466.02
537.06	55828.80
537.23	56067.53
537.40	56083.92
537.57	56065.19
537.74	55943.48
537.91	56310.95
538.08	55948.17
538.25	55929.44
538.42	56205.62
538.59	56598.83
538.75	56212.65
538.92	56121.37
539.09	56285.20
539.26	56561.39
539.43	56446.70
539.60	56587.13
539.77	56327.33
539.94	56893.74
540.11	56399.89
540.28	56694.80
540.44	56727.56
540.61	56694.80
540.78	56547.34
540.95	56830.55
541.12	56743.95
541.29	56587.13
541.46	56720.54
541.62	56856.29
541.79	57080.98
541.96	56734.59
542.13	56783.74
542.30	56879.70
542.47	57109.07
542.63	56933.53
542.80	57158.22
542.97	57394.62
543.14	57521.01
543.31	57190.99
543.48	57434.41
543.64	57881.45
543.81	57537.39
543.98	57642.71
544.15	57652.08
544.32	57593.56
544.48	57574.84
544.65	57757.40
544.82	57535.05
544.99	57502.28
545.16	57612.29
545.32	57588.88
545.49	57928.26
545.66	58017.20
545.83	57698.89
546.00	57851.02
546.16	57719.95
546.33	57794.85
546.50	57949.32
546.67	58071.03
546.83	57513.98
547.00	58159.97
547.17	57890.81
547.34	58005.50
547.50	58129.54
547.67	58110.82
547.84	58096.78
548.00	58361.26
548.17	58468.92
548.34	58457.22
548.51	58351.90
548.67	58403.39
548.84	58347.21
549.01	58138.91
549.18	58316.79
549.34	58340.19
549.51	58562.54
549.68	58576.59
549.84	58695.95
550.01	58539.14
550.18	58431.47
550.34	58740.42
550.51	58843.41
550.68	58597.65
550.84	58555.52
551.01	58768.51
551.18	58649.14
551.34	58695.95
551.51	58752.13
551.68	58857.45
551.84	58815.32
552.01	58747.45
552.18	58859.79
552.34	58937.03
552.51	59107.89
552.68	58777.87
552.84	58848.09
553.01	59016.61
553.18	59018.95
553.34	59091.51
553.51	59124.27
553.67	59119.59
553.84	59002.56
554.01	59161.72
554.17	59222.58
554.34	59414.50
554.51	59058.74
554.67	59150.02
554.84	59355.99
555.00	59105.55
555.17	59206.19
555.33	59234.28
555.50	59107.89
555.67	59334.92
555.83	59260.02
556.00	59363.01
556.16	59571.32
556.33	59381.73
556.50	59585.36
556.66	59611.10
556.83	59515.14
556.99	59608.76
557.16	59814.73
557.32	59779.62
557.49	59915.37
557.65	59615.79
557.82	59618.13
557.98	59613.44
558.15	59505.78
558.32	59664.94
558.48	59414.50
558.65	59828.77
558.81	59800.69
558.98	59641.53
559.14	59828.77
559.31	60044.10
559.47	59924.74
559.64	60004.31
559.80	59840.48
559.97	59962.18
560.13	59814.73
560.30	59863.88
560.46	60011.34
560.63	59999.63
560.79	60111.98
560.96	60156.45
561.12	60189.22
561.29	60076.87
561.45	60130.70
561.61	59891.97
561.78	59901.33
561.94	60072.19
562.11	60088.57
562.27	60161.13
562.44	60289.86
562.60	60285.18
562.77	60034.74
562.93	59994.95
563.10	60331.99
563.26	60093.25
563.42	60453.70
563.59	60310.92
563.75	60065.17
563.92	60149.43
564.08	60018.36
564.24	60484.12
564.41	60168.15
564.57	60229.01
564.74	60299.22
564.90	60287.52
565.07	60303.90
565.23	60219.64
565.39	60378.80
565.56	60378.80
565.72	60313.26
565.88	60528.59
566.05	60463.06
566.21	60512.21
566.38	60734.56
566.54	60425.61
566.70	60685.41
566.87	60706.47
567.03	60341.35
567.19	60652.64
567.36	60566.04
567.52	60547.32
567.68	60720.52
567.85	60434.97
568.01	60608.17
568.17	60552.00
568.34	60657.32
568.50	60472.42
568.66	60568.38
568.83	60760.31
568.99	60757.97
569.15	60584.77
569.32	60704.13
569.48	60516.89
569.64	60865.63
569.81	60650.30
569.97	60566.04
570.13	60685.41
570.30	60559.02
570.46	60722.86
570.62	60743.92
570.78	60636.26
570.95	60673.71
571.11	60722.86
571.27	60540.30
571.43	60594.13
571.60	60924.14
571.76	60645.62
571.92	60879.67
572.09	60804.78
572.25	60896.06
572.41	60519.23
572.57	60844.57
572.74	60982.66
572.90	60844.57
573.06	60762.65
573.22	60694.77
573.38	60917.12
573.55	60706.47
573.71	60924.14
573.87	60970.96
574.03	60662.00
574.20	60860.95
574.36	61057.56
574.52	60809.46
574.68	60870.31
574.84	61048.19
575.01	61015.43
575.17	61003.72
575.33	60797.76
575.49	60839.89
575.65	61020.11
575.82	61029.47
575.98	60924.14
576.14	61095.00
576.30	61106.71
576.46	60898.40
576.62	60910.10
576.79	60797.76
576.95	60882.02
577.11	61041.17
577.27	61090.32
577.43	61022.45
577.59	60966.27
577.75	60764.99
577.92	60877.33
578.08	61097.34
578.24	60956.91
578.40	61160.54
578.56	61017.77
578.72	61263.52
578.88	61179.26
579.04	61057.56
579.21	61116.07
579.37	61235.44
579.53	61343.10
579.69	61120.75
579.85	60980.32
580.01	61045.85
580.17	60816.48
580.33	60935.85
580.49	61071.60
580.65	61333.74
580.82	61111.39
580.98	60900.74
581.14	60912.44
581.30	61261.18
581.46	61055.21
581.62	61188.63
581.78	61097.34
581.94	61343.10
582.10	61155.86
582.26	61034.15
582.42	61071.60
582.58	61226.07
582.74	60973.30
582.90	61169.90
583.06	61024.79
583.22	61090.32
583.38	61132.45
583.54	61205.01
583.70	61127.77
583.86	61155.86
584.02	61034.15
584.18	61343.10
584.34	61158.20
584.50	61139.47
584.66	60963.93
584.82	61106.71
584.98	61305.65
585.14	61298.63
585.30	61249.48
585.46	61092.66
585.62	61223.73
585.78	61441.40
585.94	61165.22
586.10	61324.38
586.26	61310.33
586.42	61366.51
586.58	61432.04
586.74	61375.87
586.90	61162.88
587.06	61261.18
587.22	61366.51
587.38	61240.12
587.54	61375.87
587.70	61595.88
587.86	61275.22
588.02	61254.16
588.18	61448.42
588.34	61228.41
588.49	61446.08
