SpectraSuite Data File
++++++++++++++++++++++++++++++++++++
Date: Fri Oct 25 11:25:02 EDT 2013
User: price-jones
Dark Spectrum Present: No
Reference Spectrum Present: No
Number of Sampled Component Spectra: 1
Spectrometers: USB2+H05261
Integration Time (usec): 100000 (USB2+H05261)
Spectra Averaged: 1 (USB2+H05261)
Boxcar Smoothing: 0 (USB2+H05261)
Correct for Electrical Dark: No (USB2+H05261)
Strobe/Lamp Enabled: No (USB2+H05261)
Correct for Detector Non-linearity: No (USB2+H05261)
Correct for Stray Light: No (USB2+H05261)
Number of Pixels in Processed Spectrum: 2048
>>>>>Begin Processed Spectral Data<<<<<
365.73	301.93
365.92	301.93
366.12	301.93
366.32	131.07
366.52	210.65
366.72	126.39
366.91	156.82
367.11	149.79
367.31	145.11
367.51	152.13
367.70	161.50
367.90	208.31
368.10	145.11
368.30	79.58
368.49	154.48
368.69	72.56
368.89	147.45
369.09	163.84
369.28	156.82
369.48	166.18
369.68	215.33
369.87	147.45
370.07	194.26
370.27	252.78
370.47	311.29
370.66	669.39
370.86	578.11
371.06	606.20
371.25	648.33
371.45	641.31
371.65	711.52
371.84	638.97
372.04	688.12
372.24	702.16
372.44	709.18
372.63	697.48
372.83	702.16
373.03	751.31
373.22	786.42
373.42	748.97
373.62	779.40
373.81	826.21
374.01	718.54
374.21	723.23
374.40	791.10
374.60	819.19
374.79	800.46
374.99	812.17
375.19	795.78
375.38	856.64
375.58	751.31
375.78	826.21
375.97	866.00
376.17	917.49
376.37	917.49
376.56	830.89
376.76	926.85
376.95	854.30
377.15	901.11
377.35	952.60
377.54	910.47
377.74	851.96
377.93	945.58
378.13	866.00
378.33	912.81
378.52	919.83
378.72	882.38
378.91	966.64
379.11	908.13
379.31	957.28
379.50	952.60
379.70	936.21
379.89	950.26
380.09	945.58
380.28	933.87
380.48	943.24
380.68	980.68
380.87	919.83
381.07	1029.84
381.26	1076.65
381.46	992.39
381.65	1081.33
381.85	1048.56
382.04	1083.67
382.24	1158.57
382.43	1078.99
382.63	1032.18
382.83	1053.24
383.02	1125.80
383.22	1069.62
383.41	1046.22
383.61	1156.22
383.80	1071.97
384.00	1090.69
384.19	1043.88
384.39	1095.37
384.58	1102.39
384.78	1188.99
384.97	1125.80
385.17	1160.91
385.36	1135.16
385.56	1081.33
385.75	1100.05
385.95	1263.89
386.14	1256.87
386.34	1179.63
386.53	1214.74
386.72	1268.57
386.92	1240.48
387.11	1177.29
387.31	1277.93
387.50	1170.27
387.70	1228.78
387.89	1334.11
388.09	1291.98
388.28	1287.29
388.48	1299.00
388.67	1263.89
388.86	1275.59
389.06	1294.32
389.25	1343.47
389.45	1270.91
389.64	1310.70
389.84	1394.96
390.03	1345.81
390.22	1331.76
390.42	1394.96
390.61	1385.60
390.81	1448.79
391.00	1378.58
391.19	1387.94
391.39	1474.54
391.58	1406.66
391.78	1383.26
391.97	1570.50
392.16	1430.07
392.36	1572.84
392.55	1476.88
392.75	1486.24
392.94	1556.46
393.13	1554.12
393.33	1612.63
393.52	1530.71
393.71	1563.48
393.91	1558.80
394.10	1617.31
394.29	1603.27
394.49	1596.25
394.68	1734.34
394.88	1664.12
395.07	1661.78
395.26	1703.91
395.46	1706.25
395.65	1713.27
395.84	1713.27
396.04	1797.53
396.23	1689.87
396.42	1689.87
396.62	1792.85
396.81	1827.96
397.00	1778.81
397.19	1820.94
397.39	1844.34
397.58	1863.07
397.77	1863.07
397.97	1846.68
398.16	1830.30
398.35	1872.43
398.55	1902.86
398.74	1884.13
398.93	1989.46
399.12	1914.56
399.32	1858.39
399.51	1874.77
399.70	2064.35
399.90	2094.78
400.09	1959.03
400.28	2019.88
400.47	2085.42
400.67	2026.90
400.86	2017.54
401.05	1970.73
401.24	2157.97
401.44	2022.22
401.63	2080.74
401.82	2193.08
402.01	2165.00
402.21	2172.02
402.40	2101.80
402.59	2155.63
402.78	2157.97
402.97	2162.66
403.17	2277.34
403.36	2263.30
403.55	2286.70
403.74	2382.67
403.93	2183.72
404.13	2375.64
404.32	2277.34
404.51	2394.37
404.70	2422.45
404.89	2413.09
405.09	2455.22
405.28	2410.75
405.47	2443.52
405.66	2513.74
405.85	2530.12
406.05	2502.03
406.24	2602.68
406.43	2602.68
406.62	2558.21
406.81	2532.46
407.00	2628.42
407.20	2710.34
407.39	2605.02
407.58	2612.04
407.77	2686.94
407.96	2686.94
408.15	2761.83
408.34	2766.51
408.54	2810.98
408.73	2719.70
408.92	2719.70
409.11	2813.32
409.30	2925.67
409.49	2911.63
409.68	2906.95
409.87	2967.80
410.07	3098.87
410.26	2965.46
410.45	2956.10
410.64	3082.49
410.83	2932.69
411.02	3045.04
411.21	3164.40
411.40	3096.53
411.59	3148.02
411.78	3243.98
411.98	3178.45
412.17	3255.69
412.36	3307.18
412.55	3351.65
412.74	3456.97
412.93	3447.61
413.12	3456.97
413.31	3538.89
413.50	3517.83
413.69	3393.78
413.88	3550.59
414.07	3599.74
414.26	3644.21
414.45	3674.64
414.64	3606.77
414.83	3775.28
415.02	3655.92
415.22	3833.80
415.41	3953.16
415.60	3915.72
415.79	3833.80
415.98	3941.46
416.17	3939.12
416.36	3803.37
416.55	3976.57
416.74	4067.85
416.93	3948.48
417.12	4018.70
417.31	4217.65
417.50	4138.07
417.69	4337.01
417.88	4243.39
418.07	4189.56
418.26	4299.56
418.45	4332.33
418.64	4440.00
418.83	4510.21
419.02	4353.40
419.21	4517.23
419.39	4622.56
419.58	4493.83
419.77	4344.03
419.96	4531.28
420.15	4482.13
420.34	4561.70
420.53	4496.17
420.72	4592.13
420.91	4681.07
421.10	4671.71
421.29	4849.59
421.48	4762.99
421.67	4741.93
421.86	4748.95
422.05	4748.95
422.24	4744.27
422.43	4908.10
422.61	4905.76
422.80	4940.87
422.99	4922.15
423.18	5078.96
423.37	5034.49
423.56	4812.14
423.75	4800.44
423.94	4842.57
424.13	4620.22
424.32	4772.35
424.50	5018.11
424.69	4952.57
424.88	5076.62
425.07	5067.26
425.26	4915.12
425.45	5008.75
425.64	5125.77
425.83	4819.16
426.01	5029.81
426.20	5043.85
426.39	5228.76
426.58	4966.62
426.77	5057.90
426.96	5090.67
427.15	5125.77
427.33	5226.42
427.52	5135.14
427.71	5275.57
427.90	5327.06
428.09	5231.10
428.28	5327.06
428.46	5320.04
428.65	5341.10
428.84	5343.44
429.03	5345.78
429.22	5170.24
429.40	5425.36
429.59	5458.13
429.78	5256.84
429.97	5289.61
430.16	5401.96
430.34	5650.05
430.53	5668.78
430.72	5640.69
430.91	5565.79
431.10	5575.16
431.28	5736.65
431.47	5680.48
431.66	5884.11
431.85	5708.57
432.03	5820.91
432.22	5991.77
432.41	5867.72
432.60	5909.85
432.79	5940.28
432.97	6136.88
433.16	5870.06
433.35	5863.04
433.54	6136.88
433.72	6120.50
433.91	6017.52
434.10	6164.97
434.28	6090.07
434.47	6319.45
434.66	6314.77
434.85	6279.66
435.03	6291.36
435.22	6455.20
435.41	6537.12
435.59	6431.79
435.78	6450.52
435.97	6492.65
436.16	6401.37
436.34	6328.81
436.53	6417.75
436.72	6691.59
436.90	6387.32
437.09	6675.21
437.28	6560.52
437.46	6588.61
437.65	6616.69
437.84	6705.63
438.02	6619.04
438.21	6832.02
438.40	6670.53
438.58	7131.61
438.77	6986.50
438.96	6977.14
439.14	7021.61
439.33	7110.55
439.52	7152.68
439.70	7272.04
439.89	7133.95
440.08	7513.12
440.26	7290.77
440.45	7391.41
440.63	7258.00
440.82	7637.17
441.01	7447.58
441.19	7583.34
441.38	7583.34
441.57	7672.28
441.75	7768.24
441.94	8074.85
442.12	7927.39
442.31	7901.65
442.50	7939.10
442.68	7915.69
442.87	7864.20
443.05	8210.60
443.24	7960.16
443.43	8182.51
443.61	8198.90
443.80	8318.26
443.98	7948.46
444.17	7648.87
444.35	8095.91
444.54	8451.67
444.73	8325.29
444.91	8348.69
445.10	8332.31
445.28	8306.56
445.47	8219.96
445.65	8376.78
445.84	8505.51
446.02	8514.87
446.21	8538.27
446.39	8311.24
446.58	8545.30
446.77	8449.33
446.95	8236.35
447.14	8388.48
447.32	8496.14
447.51	8400.18
447.69	8388.48
447.88	8484.44
448.06	8746.58
448.25	8547.64
448.43	8367.42
448.62	8454.02
448.80	8608.49
448.99	8585.08
449.17	8884.67
449.36	8629.56
449.54	8842.54
449.73	9057.87
449.91	8856.59
450.10	8842.54
450.28	9060.21
450.46	8961.91
450.65	8795.73
450.83	9069.58
451.02	9137.45
451.20	9282.56
451.39	9167.88
451.57	9160.86
451.76	9224.05
451.94	8954.89
452.13	9198.31
452.31	9174.90
452.49	9130.43
452.68	9296.61
452.86	9369.16
453.05	9308.31
453.23	9394.91
453.42	9303.63
453.60	9312.99
453.78	9682.80
453.97	9289.59
454.15	9495.55
454.34	9460.45
454.52	9907.49
454.70	9687.48
454.89	9865.36
455.07	9769.40
455.26	9607.90
455.44	9984.73
455.62	9813.87
455.81	9933.23
455.99	10012.81
456.17	10068.98
456.36	10036.22
456.54	10099.41
456.73	10019.83
456.91	10457.51
457.09	10293.68
457.28	10644.76
457.46	10190.69
457.64	10441.13
457.83	10410.70
458.01	10401.34
458.19	10553.48
458.38	10509.01
458.56	10616.67
458.74	10579.22
458.93	10593.26
459.11	10672.84
459.29	10682.20
459.48	10764.12
459.66	10829.66
459.84	10626.03
460.03	10932.64
460.21	11105.84
460.39	10932.64
460.57	10733.70
460.76	11126.91
460.94	11138.61
461.12	11183.08
461.31	11199.46
461.49	11300.11
461.67	11183.08
461.85	11541.18
462.04	11234.57
462.22	11714.38
462.40	11578.63
462.59	11236.91
462.77	11630.12
462.95	11578.63
463.13	11599.70
463.32	11700.34
463.50	11829.07
463.68	11587.99
463.86	11618.42
464.05	11470.97
464.23	11702.68
464.41	11871.20
464.59	11852.47
464.78	12025.67
464.96	11793.96
465.14	11913.33
465.32	11953.12
465.50	12051.42
465.69	12187.17
465.87	12107.59
466.05	12013.97
466.23	12018.65
466.41	12287.81
466.60	12383.77
466.78	12084.19
466.96	12004.61
467.14	12292.49
467.32	12346.33
467.51	12575.70
467.69	12037.38
467.87	12332.28
468.05	12566.34
468.23	12367.39
468.41	12428.24
468.60	12475.06
468.78	12622.51
468.96	12606.13
469.14	12802.73
469.32	13090.62
469.50	12627.19
469.69	12716.13
469.87	13144.45
470.05	13114.02
470.23	13099.98
470.41	13135.09
470.59	13071.89
470.77	13200.62
470.95	13198.28
471.14	13570.43
471.32	13069.55
471.50	13542.34
471.68	13224.03
471.86	13696.82
472.04	13483.83
472.22	13870.01
472.40	13497.87
472.58	13898.10
472.77	14150.88
472.95	14260.88
473.13	14572.18
473.31	13996.40
473.49	14197.69
473.67	14150.88
473.85	14129.81
474.03	14469.19
474.21	14548.77
474.39	14743.03
474.57	14846.02
474.75	14829.63
474.93	14640.05
475.12	14850.70
475.30	14970.07
475.48	14979.43
475.66	15218.16
475.84	15063.69
476.02	15391.36
476.20	15248.59
476.38	15946.07
476.56	15971.82
476.74	15861.81
476.92	16343.96
477.10	15693.29
477.28	16107.57
477.46	16018.63
477.64	16217.57
477.82	16673.98
478.00	17050.80
478.18	16776.96
478.36	16823.77
478.54	16898.67
478.72	16975.91
478.90	17621.89
479.08	17617.21
479.26	17514.23
479.44	17460.40
479.62	17776.37
479.80	17994.04
479.98	17961.27
480.16	18424.70
480.34	18485.55
480.52	18829.61
480.70	18394.27
480.88	18129.79
481.06	18696.20
481.24	18515.98
481.41	18834.29
481.59	19126.86
481.77	19168.99
481.95	19646.46
482.13	19599.65
482.31	19632.41
482.49	20081.80
482.67	20112.22
482.85	20559.27
483.03	20753.53
483.21	20669.27
483.39	20917.37
483.57	20900.98
483.74	21352.71
483.92	21418.24
484.10	21076.52
484.28	21820.81
484.46	21898.05
484.64	22272.54
484.82	22080.61
485.00	22052.53
485.18	22782.77
485.35	23438.12
485.53	22670.43
485.71	22986.40
485.89	23571.54
486.07	23220.45
486.25	23428.76
486.43	23648.77
486.61	23828.99
486.78	23962.40
486.96	24107.52
487.14	24966.49
487.32	24285.40
487.50	24659.88
487.68	24835.42
487.85	25071.82
488.03	25378.43
488.21	25575.03
488.39	25706.10
488.57	25685.04
488.75	26354.43
488.92	26384.86
489.10	26787.43
489.28	26408.26
489.46	27239.15
489.64	26998.08
489.81	27740.03
489.99	27482.57
490.17	27669.81
490.35	28107.49
490.53	28219.84
490.70	28315.80
490.88	28322.82
491.06	28734.76
491.24	28510.07
491.41	28891.57
491.59	29347.98
491.77	29179.46
491.95	29422.87
492.13	30075.88
492.30	29813.74
492.48	29874.60
492.66	30059.50
492.84	30118.01
493.01	30761.66
493.19	30499.52
493.37	30637.61
493.54	31026.14
493.72	31409.99
493.90	31239.13
494.08	31740.00
494.25	31821.92
494.43	31857.03
494.61	32610.68
494.79	32730.05
494.96	32105.13
495.14	32655.15
495.32	32811.97
495.49	33163.05
495.67	33167.73
495.85	33464.98
496.02	33752.87
496.20	33844.15
496.38	34045.43
496.55	33673.29
496.73	34560.35
496.91	34483.11
497.09	34897.39
497.26	34712.49
497.44	34845.90
497.62	35002.71
497.79	35302.30
497.97	35419.33
498.14	35992.76
498.32	36341.50
498.50	36002.12
498.67	36643.43
498.85	36327.45
499.03	36561.51
499.20	36662.15
499.38	36596.62
499.56	36872.80
499.73	36830.67
499.91	37125.58
500.08	37373.67
500.26	37560.92
500.44	37635.81
500.61	37853.48
500.79	37872.21
500.97	38160.09
501.14	38579.05
501.32	38045.41
501.49	38653.95
501.67	38829.49
501.84	38607.14
502.02	38497.13
502.20	38817.78
502.37	38724.16
502.55	39431.01
502.72	39201.63
502.90	39569.10
503.07	39555.05
503.25	40217.43
503.43	39672.08
503.60	39835.92
503.78	40266.58
503.95	39936.56
504.13	40322.75
504.30	41064.70
504.48	40605.95
504.65	40514.67
504.83	40701.92
505.01	40830.65
505.18	41483.66
505.36	41202.79
505.53	41193.43
505.71	41516.42
505.88	42073.47
506.06	41209.81
506.23	42010.28
506.41	41837.08
506.58	41619.41
506.76	41879.21
506.93	42213.90
507.11	42089.85
507.28	42419.87
507.46	42756.91
507.63	42990.96
507.81	43037.77
507.98	42518.17
508.16	43222.67
508.33	42939.47
508.50	43119.69
508.68	43414.60
508.85	43978.67
509.03	43232.04
509.20	43791.42
509.38	44374.22
509.55	44191.65
509.73	44360.17
509.90	44296.98
510.08	44538.05
510.25	44591.89
510.42	44432.73
510.60	44942.97
510.77	44968.71
510.95	45368.94
511.12	45233.19
511.30	45254.26
511.47	45146.59
511.64	45249.58
511.82	45750.45
511.99	45497.67
512.17	45727.05
512.34	45811.31
512.51	46445.59
512.69	46183.45
512.86	46394.10
513.04	46527.51
513.21	46253.67
513.38	46593.04
513.56	47051.79
513.73	46768.58
513.90	46979.23
514.08	46754.54
514.25	47185.20
514.43	47220.31
514.60	47084.56
514.77	47599.47
514.95	48208.01
515.12	47222.65
515.29	47290.52
515.47	48083.97
515.64	47910.77
515.81	47948.21
515.99	48238.44
516.16	48474.84
516.33	48547.39
516.51	48751.02
516.68	48285.25
516.85	48779.10
517.03	48900.81
517.20	48830.60
517.37	48823.58
517.54	48519.31
517.72	48968.69
517.89	48858.68
518.06	49088.06
518.24	49277.64
518.41	48989.75
518.58	49387.64
518.75	49577.23
518.93	49516.37
519.10	49148.91
519.27	49593.61
519.45	49649.78
519.62	49741.06
519.79	49848.73
519.96	49909.58
520.14	49830.01
520.31	50293.43
520.48	50227.90
520.65	50064.06
520.83	50630.47
521.00	50492.38
521.17	50094.49
521.34	50770.90
521.52	50658.56
521.69	50721.75
521.86	50712.39
522.03	51166.45
522.20	51384.12
522.38	51306.88
522.55	51070.49
522.72	51260.07
522.89	50801.33
523.07	51606.47
523.24	51367.74
523.41	51508.17
523.58	51136.02
523.75	51746.90
523.92	51704.77
524.10	51819.46
524.27	52009.04
524.44	51793.71
524.61	52109.69
524.78	52222.03
524.96	52081.60
525.13	52334.38
525.30	52222.03
525.47	52275.87
525.64	52142.45
525.81	52608.22
525.98	52823.55
526.16	52336.72
526.33	52800.15
526.50	52924.19
526.67	52760.36
526.84	52697.16
527.01	52708.86
527.18	52865.68
527.36	52638.65
527.53	53256.55
527.70	53186.33
527.87	53219.10
528.04	53223.78
528.21	53230.80
528.38	53296.34
528.55	53284.64
528.72	53511.67
528.89	53347.83
529.07	53422.73
529.24	53434.43
529.41	53549.12
529.58	53495.28
529.75	53586.57
529.92	53757.42
530.09	53724.66
530.26	53947.01
530.43	53890.83
530.60	53570.18
530.77	53794.87
530.94	54068.72
531.11	53698.91
531.28	54026.59
531.46	53900.20
531.63	53832.32
531.80	54188.08
531.97	54482.99
532.14	54742.79
532.31	54302.77
532.48	54309.79
532.65	54625.76
532.82	54387.03
532.99	54869.18
533.16	54518.10
533.33	54939.39
533.50	54915.99
533.67	54944.08
533.84	54600.02
534.01	55089.19
534.18	54813.01
534.35	55114.94
534.52	55002.59
534.69	55121.96
534.86	55189.83
535.03	54901.95
535.20	55082.17
535.37	55241.32
535.54	54955.78
535.71	54885.56
535.88	55442.61
536.05	55447.29
536.22	55543.25
536.38	55538.57
536.55	55482.40
536.72	55494.10
536.89	55224.94
537.06	55540.91
537.23	55941.14
537.40	55447.29
537.57	55576.02
537.74	55679.00
537.91	55863.91
538.08	55964.55
538.25	55749.22
538.42	55994.98
538.59	56076.90
538.75	55756.24
538.92	55945.83
539.09	56310.95
539.26	55849.86
539.43	56058.17
539.60	56170.52
539.77	56107.32
539.94	56505.21
540.11	56404.57
540.28	56301.59
540.44	56442.02
540.61	56240.73
540.78	56310.95
540.95	56444.36
541.12	56142.43
541.29	56540.32
541.46	56442.02
541.62	56769.69
541.79	56676.07
541.96	56458.40
542.13	56507.55
542.30	56676.07
542.47	56814.16
542.63	56556.70
542.80	56823.53
542.97	56889.06
543.14	57256.53
543.31	57312.70
543.48	57174.61
543.64	57432.07
543.81	57600.58
543.98	57340.78
544.15	57176.95
544.32	57268.23
544.48	57808.89
544.65	57324.40
544.82	57216.74
544.99	57223.76
545.16	57378.23
545.32	57476.54
545.49	57549.09
545.66	57712.93
545.83	57649.74
546.00	57750.38
546.16	57661.44
546.33	57455.47
546.50	57628.67
546.67	57626.33
546.83	57432.07
547.00	57647.39
547.17	57703.57
547.34	58035.92
547.50	58042.95
547.67	58052.31
547.84	57937.62
548.00	57946.98
548.17	58080.39
548.34	58000.82
548.51	58075.71
548.67	58213.80
548.84	58122.52
549.01	57956.35
549.18	58129.54
549.34	58344.87
549.51	58239.55
549.68	58408.07
549.84	58354.24
550.01	58508.71
550.18	58246.57
550.34	58412.75
550.51	58330.83
550.68	58436.16
550.84	58347.21
551.01	58424.45
551.18	58405.73
551.34	58370.62
551.51	58450.20
551.68	58461.90
551.84	58398.71
552.01	58417.43
552.18	58674.89
552.34	58642.12
552.51	58562.54
552.68	58712.34
552.84	58632.76
553.01	58862.13
553.18	58719.36
553.34	58939.37
553.51	58574.25
553.67	58759.15
553.84	58721.70
554.01	58969.80
554.17	58822.34
554.34	59016.61
554.51	58724.04
554.67	59004.91
554.84	59047.04
555.00	59100.87
555.17	58951.07
555.33	58997.88
555.50	58969.80
555.67	59011.93
555.83	58906.60
556.00	59054.06
556.16	59309.18
556.33	59302.15
556.50	59344.28
556.66	59391.09
556.83	59173.42
556.99	59480.03
557.16	59583.02
557.32	59388.75
557.49	59545.57
557.65	59119.59
557.82	59367.69
557.98	59302.15
558.15	59458.97
558.32	59353.65
558.48	59311.52
558.65	59517.48
558.81	59510.46
558.98	59339.60
559.14	59709.41
559.31	59524.50
559.47	59636.85
559.64	59423.86
559.80	59554.93
559.97	59728.13
560.13	59618.13
560.30	59615.79
560.46	59606.42
560.63	59772.60
560.79	59826.43
560.96	60067.51
561.12	59742.17
561.29	59931.76
561.45	59817.07
561.61	59770.26
561.78	59854.52
561.94	59660.26
562.11	59803.03
562.27	59906.01
562.44	59678.98
562.60	60086.23
562.77	60114.32
562.93	59758.56
563.10	60055.81
563.26	59817.07
563.42	60296.88
563.59	60074.53
563.75	59934.10
563.92	60023.04
564.08	59906.01
564.24	60161.13
564.41	60079.21
564.57	60013.68
564.74	60097.94
564.90	60020.70
565.07	59824.09
565.23	59873.24
565.39	60172.83
565.56	60247.73
565.72	60142.41
565.88	60320.29
566.05	60086.23
566.21	60123.68
566.38	60119.00
566.54	60102.62
566.70	60317.95
566.87	60238.37
567.03	60065.17
567.19	60346.03
567.36	59999.63
567.52	60371.78
567.68	60383.48
567.85	60296.88
568.01	60418.59
568.17	60390.50
568.34	60247.73
568.50	60271.14
568.66	60320.29
568.83	60247.73
568.99	60193.90
569.15	60317.95
569.32	60458.38
569.48	60381.14
569.64	60465.40
569.81	60313.26
569.97	60381.14
570.13	60336.67
570.30	60418.59
570.46	60336.67
570.62	60456.04
570.78	60577.75
570.95	60498.17
571.11	60498.17
571.27	60331.99
571.43	60507.53
571.60	60484.12
571.76	60509.87
571.92	60530.93
572.09	60647.96
572.25	60650.30
572.41	60467.74
572.57	60470.08
572.74	60683.07
572.90	60549.66
573.06	60673.71
573.22	60748.60
573.38	60657.32
573.55	60477.10
573.71	60987.34
573.87	60640.94
574.03	60519.23
574.20	60441.99
574.36	60559.02
574.52	60673.71
574.68	60631.58
574.84	60931.17
575.01	60561.36
575.17	60685.41
575.33	60566.04
575.49	60411.57
575.65	60662.00
575.82	60729.88
575.98	60804.78
576.14	60589.45
576.30	60584.77
576.46	60659.66
576.62	60678.39
576.79	60764.99
576.95	60540.30
577.11	60706.47
577.27	60814.14
577.43	60807.12
577.59	60828.18
577.75	60654.98
577.92	60711.16
578.08	60816.48
578.24	60699.45
578.40	60889.04
578.56	61006.06
578.72	60863.29
578.88	60884.36
579.04	61076.28
579.21	60917.12
579.37	60980.32
579.53	60903.08
579.69	60533.28
579.85	60863.29
580.01	60739.24
580.17	60680.73
580.33	60767.33
580.49	60828.18
580.65	60825.84
580.82	60804.78
580.98	60734.56
581.14	60757.97
581.30	61052.87
581.46	61008.40
581.62	60949.89
581.78	60692.43
581.94	60727.54
582.10	60582.43
582.26	60952.23
582.42	60945.21
582.58	60809.46
582.74	60809.46
582.90	61050.53
583.06	61043.51
583.22	60547.32
583.38	60975.64
583.54	61013.08
583.70	60900.74
583.86	61015.43
584.02	60767.33
584.18	60882.02
584.34	61031.81
584.50	60851.59
584.66	60886.70
584.82	60718.18
584.98	61097.34
585.14	60987.34
585.30	60896.06
585.46	61167.56
585.62	60956.91
585.78	61008.40
585.94	60748.60
586.10	60865.63
586.26	60856.27
586.42	60954.57
586.58	61106.71
586.74	61027.13
586.90	60924.14
587.06	60905.42
587.22	61092.66
587.38	61064.58
587.54	61113.73
587.70	61324.38
587.86	60860.95
588.02	61102.03
588.18	61165.22
588.34	60963.93
588.49	61008.40
