SpectraSuite Data File
++++++++++++++++++++++++++++++++++++
Date: Fri Oct 25 11:34:13 EDT 2013
User: price-jones
Dark Spectrum Present: No
Reference Spectrum Present: No
Number of Sampled Component Spectra: 1
Spectrometers: USB2+H05261
Integration Time (usec): 100000 (USB2+H05261)
Spectra Averaged: 1 (USB2+H05261)
Boxcar Smoothing: 0 (USB2+H05261)
Correct for Electrical Dark: No (USB2+H05261)
Strobe/Lamp Enabled: No (USB2+H05261)
Correct for Detector Non-linearity: No (USB2+H05261)
Correct for Stray Light: No (USB2+H05261)
Number of Pixels in Processed Spectrum: 2048
>>>>>Begin Processed Spectral Data<<<<<
365.73	278.52
365.92	278.52
366.12	278.52
366.32	227.03
366.52	100.64
366.72	227.03
366.91	184.90
367.11	203.63
367.31	138.09
367.51	196.60
367.70	131.07
367.90	156.82
368.10	159.16
368.30	135.75
368.49	196.60
368.69	191.92
368.89	168.52
369.09	203.63
369.28	201.29
369.48	154.48
369.68	222.35
369.87	241.08
370.07	269.16
370.27	271.50
370.47	283.20
370.66	463.43
370.86	442.36
371.06	538.32
371.25	613.22
371.45	571.09
371.65	580.45
371.84	545.34
372.04	547.69
372.24	550.03
372.44	484.49
372.63	589.82
372.83	535.98
373.03	585.13
373.22	638.97
373.42	662.37
373.62	589.82
373.81	657.69
374.01	690.46
374.21	697.48
374.40	634.29
374.60	695.14
374.79	662.37
374.99	631.94
375.19	599.18
375.38	648.33
375.58	662.37
375.78	653.01
375.97	711.52
376.17	748.97
376.37	674.07
376.56	645.99
376.76	697.48
376.95	685.78
377.15	660.03
377.35	655.35
377.54	636.63
377.74	744.29
377.93	706.84
378.13	667.05
378.33	678.76
378.52	737.27
378.72	791.10
378.91	697.48
379.11	622.58
379.31	755.99
379.50	716.20
379.70	734.93
379.89	692.80
380.09	699.82
380.28	636.63
380.48	730.25
380.68	723.23
380.87	711.52
381.07	800.46
381.26	737.27
381.46	830.89
381.65	770.04
381.85	697.48
382.04	788.76
382.24	793.44
382.43	793.44
382.63	826.21
382.83	861.32
383.02	826.21
383.22	861.32
383.41	779.40
383.61	830.89
383.80	755.99
384.00	788.76
384.19	816.85
384.39	833.23
384.58	746.63
384.78	849.61
384.97	849.61
385.17	800.46
385.36	793.44
385.56	770.04
385.75	837.91
385.95	746.63
386.14	837.91
386.34	868.34
386.53	837.91
386.72	835.57
386.92	854.30
387.11	945.58
387.31	847.27
387.50	837.91
387.70	891.74
387.89	894.08
388.09	940.90
388.28	873.02
388.48	926.85
388.67	929.19
388.86	968.98
389.06	894.08
389.25	994.73
389.45	917.49
389.64	940.90
389.84	985.37
390.03	973.66
390.22	922.17
390.42	976.00
390.61	938.55
390.81	980.68
391.00	1006.43
391.19	1004.09
391.39	924.51
391.58	1067.28
391.78	1036.86
391.97	957.28
392.16	1032.18
392.36	978.34
392.55	1071.97
392.75	1111.75
392.94	1074.31
393.13	983.02
393.33	1022.81
393.52	1043.88
393.71	1060.26
393.91	1086.01
394.10	1064.94
394.29	994.73
394.49	994.73
394.68	1095.37
394.88	1083.67
395.07	1104.73
395.26	1132.82
395.46	1153.88
395.65	1235.80
395.84	1256.87
396.04	1144.52
396.23	1144.52
396.42	1121.12
396.62	1207.72
396.81	1270.91
397.00	1196.01
397.19	1238.14
397.39	1170.27
397.58	1273.25
397.77	1149.20
397.97	1224.10
398.16	1249.85
398.35	1228.78
398.55	1121.12
398.74	1306.02
398.93	1245.16
399.12	1207.72
399.32	1217.08
399.51	1320.06
399.70	1247.51
399.90	1345.81
400.09	1334.11
400.28	1383.26
400.47	1327.08
400.67	1380.92
400.86	1376.24
401.05	1378.58
401.24	1441.77
401.44	1432.41
401.63	1423.05
401.82	1380.92
402.01	1413.68
402.21	1380.92
402.40	1479.22
402.59	1458.15
402.78	1556.46
402.97	1549.43
403.17	1430.07
403.36	1523.69
403.55	1490.92
403.74	1502.62
403.93	1549.43
404.13	1577.52
404.32	1565.82
404.51	1577.52
404.70	1523.69
404.89	1619.65
405.09	1739.02
405.28	1619.65
405.47	1701.57
405.66	1696.89
405.85	1720.29
406.05	1650.08
406.24	1661.78
406.43	1685.19
406.62	1755.40
406.81	1797.53
407.00	1748.38
407.20	1724.97
407.39	1771.79
407.58	1776.47
407.77	1755.40
407.96	1834.98
408.15	1994.14
408.34	1764.76
408.54	1844.34
408.73	1893.49
408.92	1839.66
409.11	1846.68
409.30	1959.03
409.49	1825.62
409.68	1923.92
409.87	1839.66
410.07	1952.01
410.26	2057.33
410.45	2080.74
410.64	2015.20
410.83	2029.24
411.02	2113.50
411.21	2181.38
411.40	2054.99
411.59	2277.34
411.78	2120.53
411.98	2160.31
412.17	2251.60
412.36	2225.85
412.55	2214.15
412.74	2270.32
412.93	2242.23
413.12	2296.07
413.31	2333.51
413.50	2370.96
413.69	2349.90
413.88	2434.16
414.07	2333.51
414.26	2377.98
414.45	2420.11
414.64	2356.92
414.83	2420.11
415.02	2504.37
415.22	2551.18
415.41	2530.12
415.60	2544.16
415.79	2686.94
415.98	2670.55
416.17	2684.59
416.36	2630.76
416.55	2616.72
416.74	2780.56
416.93	2693.96
417.12	2773.53
417.31	2778.22
417.50	2773.53
417.69	2750.13
417.88	2906.95
418.07	2810.98
418.26	2846.09
418.45	2895.24
418.64	2949.08
418.83	3082.49
419.02	2991.20
419.21	3084.83
419.39	3030.99
419.58	2979.50
419.77	2883.54
419.96	3119.93
420.15	3171.43
420.34	3019.29
420.53	3183.13
420.72	3112.91
420.91	3159.72
421.10	3201.85
421.29	3169.09
421.48	3222.92
421.67	3290.79
421.86	3169.09
422.05	3328.24
422.24	3180.79
422.43	3169.09
422.61	3283.77
422.80	3342.28
422.99	3239.30
423.18	3304.84
423.37	3384.41
423.56	3424.20
423.75	3344.63
423.94	3286.11
424.13	3094.19
424.32	3253.34
424.50	3396.12
424.69	3393.78
424.88	3353.99
425.07	3368.03
425.26	3424.20
425.45	3339.94
425.64	3461.65
425.83	3318.88
426.01	3405.48
426.20	3435.91
426.39	3358.67
426.58	3328.24
426.77	3426.54
426.96	3456.97
427.15	3389.10
427.33	3435.91
427.52	3433.57
427.71	3513.14
427.90	3566.98
428.09	3463.99
428.28	3492.08
428.46	3583.36
428.65	3534.21
428.84	3616.13
429.03	3676.98
429.22	3595.06
429.40	3637.19
429.59	3632.51
429.78	3606.77
429.97	3557.61
430.16	3669.96
430.34	3707.41
430.53	3885.29
430.72	3936.78
430.91	3808.05
431.10	3772.94
431.28	3936.78
431.47	3819.75
431.66	3911.04
431.85	3948.48
432.03	4018.70
432.22	4074.87
432.41	3985.93
432.60	4011.68
432.79	4011.68
432.97	4004.66
433.16	4124.02
433.35	3915.72
433.54	4016.36
433.72	4161.47
433.91	4109.98
434.10	3953.16
434.28	4025.72
434.47	4145.09
434.66	4095.94
434.85	4287.86
435.03	4191.90
435.22	4219.99
435.41	4318.29
435.59	4198.92
435.78	4365.10
435.97	4236.37
436.16	4294.88
436.34	4191.90
436.53	4454.04
436.72	4372.12
436.90	4311.27
437.09	4409.57
437.28	4315.95
437.46	4554.68
437.65	4402.55
437.84	4491.49
438.02	4461.06
438.21	4451.70
438.40	4444.68
438.58	4533.62
438.77	4652.98
438.96	4596.81
439.14	4582.77
439.33	4765.33
439.52	4786.40
439.70	4833.21
439.89	4823.84
440.08	4945.55
440.26	4903.42
440.45	4933.85
440.63	4851.93
440.82	5109.39
441.01	4957.25
441.19	5156.20
441.38	5144.50
441.57	4997.04
441.75	5275.57
441.94	5252.16
442.12	5212.37
442.31	5102.37
442.50	5329.40
442.68	5308.34
442.87	5291.95
443.05	5371.53
443.24	5401.96
443.43	5439.40
443.61	5493.24
443.80	5476.85
443.98	5394.93
444.17	5259.18
444.35	5416.00
444.54	5451.11
444.73	5465.15
444.91	5376.21
445.10	5516.64
445.28	5465.15
445.47	5334.08
445.65	5444.09
445.84	5603.24
446.02	5554.09
446.21	5577.50
446.39	5439.40
446.58	5516.64
446.77	5561.11
446.95	5446.43
447.14	5518.98
447.32	5647.71
447.51	5610.26
447.69	5511.96
447.88	5678.14
448.06	5483.88
448.25	5664.10
448.43	5591.54
448.62	5664.10
448.80	5603.24
448.99	5881.77
449.17	5813.89
449.36	5689.84
449.54	5888.79
449.73	5898.15
449.91	5944.96
450.10	5991.77
450.28	5973.05
450.46	5846.66
450.65	5856.02
450.83	5863.04
451.02	6101.78
451.20	5954.32
451.39	6059.65
451.57	5973.05
451.76	6050.28
451.94	6164.97
452.13	6132.20
452.31	6024.54
452.49	6050.28
452.68	6125.18
452.86	5977.73
453.05	6436.47
453.23	6354.55
453.42	6080.71
453.60	6071.35
453.78	6211.78
453.97	6296.04
454.15	6328.81
454.34	6129.86
454.52	6333.49
454.70	6368.60
454.89	6445.84
455.07	6530.09
455.26	6394.34
455.44	6572.22
455.62	6394.34
455.81	6546.48
455.99	6548.82
456.17	6499.67
456.36	6368.60
456.54	6548.82
456.73	6759.47
456.91	6827.34
457.09	6738.40
457.28	6902.24
457.46	6846.07
457.64	6897.56
457.83	6822.66
458.01	6810.96
458.19	7007.56
458.38	6988.84
458.56	7026.29
458.74	6871.81
458.93	6916.28
459.11	7016.93
459.29	7030.97
459.48	6927.99
459.66	7101.19
459.84	7201.83
460.03	7119.91
460.21	7157.36
460.39	7398.43
460.57	7265.02
460.76	7300.13
460.94	7185.44
461.12	7328.22
461.31	7105.87
461.49	7145.66
461.67	7396.09
461.85	7435.88
462.04	7365.67
462.22	7751.85
462.40	7672.28
462.59	7508.44
462.77	7494.40
462.95	7548.23
463.13	7548.23
463.32	7536.52
463.50	7641.85
463.68	7803.35
463.86	7735.47
464.05	7796.32
464.23	7698.02
464.41	7861.86
464.59	7529.50
464.78	7817.39
464.96	7681.64
465.14	7793.98
465.32	7936.76
465.50	8023.36
465.69	7922.71
465.87	7836.11
466.05	7955.48
466.23	7939.10
466.41	7990.59
466.60	8116.98
466.78	7892.29
466.96	7819.73
467.14	7899.31
467.32	8051.44
467.51	8236.35
467.69	7978.89
467.87	8215.28
468.05	8109.96
468.23	8142.72
468.41	8140.38
468.60	8013.99
468.78	8329.97
468.96	8109.96
469.14	8393.16
469.32	8322.94
469.50	8262.09
469.69	8463.38
469.87	8423.59
470.05	8264.43
470.23	8484.44
470.41	8461.04
470.59	8702.11
470.77	8610.83
470.95	8695.09
471.14	8690.41
471.32	8344.01
471.50	8863.61
471.68	8795.73
471.86	8746.58
472.04	8769.99
472.22	8943.19
472.40	8823.82
472.58	8812.12
472.77	8870.63
472.95	9142.13
473.13	9511.94
473.31	9287.25
473.49	9249.80
473.67	9039.15
473.85	9270.86
474.03	9493.21
474.21	9455.76
474.39	9434.70
474.57	9554.07
474.75	9579.81
474.93	9614.92
475.12	9750.67
475.30	9734.29
475.48	9858.34
475.66	9895.78
475.84	9657.05
476.02	9760.03
476.20	10050.26
476.38	10195.37
476.56	10260.91
476.74	10558.16
476.92	10150.90
477.10	10115.80
477.28	10525.39
477.46	10328.78
477.64	10473.90
477.82	10525.39
478.00	11047.33
478.18	10815.62
478.36	11131.59
478.54	10920.94
478.72	11012.22
478.90	11199.46
479.08	11346.92
479.26	11543.52
479.44	11351.60
479.62	11328.19
479.80	11477.99
479.98	11639.48
480.16	11939.07
480.34	11735.45
480.52	11969.50
480.70	11903.96
480.88	11709.70
481.06	12154.40
481.24	12187.17
481.41	12379.09
481.59	12540.59
481.77	12388.46
481.95	12432.93
482.13	12730.17
482.31	12564.00
482.49	12683.36
482.67	12896.35
482.85	12989.97
483.03	13118.70
483.21	13383.18
483.39	13296.58
483.57	13074.23
483.74	13621.92
483.92	13586.81
484.10	13816.18
484.28	13991.72
484.46	14328.76
484.64	14113.43
484.82	13795.12
485.00	14459.83
485.18	14382.59
485.35	14551.11
485.53	14513.66
485.71	14834.32
485.89	14782.82
486.07	15016.88
486.25	15250.93
486.43	15115.18
486.61	15054.33
486.78	15227.53
486.96	15208.80
487.14	15665.21
487.32	15779.89
487.50	15756.49
487.68	16341.62
487.85	16212.89
488.03	16156.72
488.21	16423.54
488.39	16554.61
488.57	16318.22
488.75	16748.87
488.92	16936.12
489.10	17167.83
489.28	17130.38
489.46	17378.48
489.64	17011.01
489.81	17619.55
489.99	17544.66
490.17	17633.60
490.35	18150.85
490.53	17839.56
490.70	18136.81
490.88	18082.98
491.06	18221.07
491.24	17968.29
491.41	18356.82
491.59	18625.98
491.77	18808.54
491.95	18773.44
492.13	19117.50
492.30	18974.72
492.48	19222.82
492.66	18911.53
492.84	19044.94
493.01	19550.49
493.19	19672.20
493.37	19955.41
493.54	19534.11
493.72	19985.83
493.90	20264.36
494.08	19866.47
494.25	20318.19
494.43	20278.40
494.61	20596.71
494.79	20767.57
494.96	20570.97
495.14	20655.23
495.32	20868.22
495.49	20985.24
495.67	20879.92
495.85	21104.61
496.02	21284.83
496.20	21865.28
496.38	21748.26
496.55	21757.62
496.73	22146.15
496.91	22115.72
497.09	22197.64
497.26	22349.78
497.44	22333.39
497.62	22345.09
497.79	22874.06
497.97	22675.11
498.14	22757.03
498.32	23213.43
498.50	23264.92
498.67	23049.60
498.85	23126.83
499.03	23180.67
499.20	23208.75
499.38	23531.75
499.56	23583.24
499.73	23580.90
499.91	23946.02
500.08	23887.51
500.26	23529.41
500.44	24271.36
500.61	24060.71
500.79	24105.18
500.97	24187.10
501.14	24797.98
501.32	24175.39
501.49	24533.50
501.67	24467.96
501.84	24910.32
502.02	24580.31
502.20	24856.49
502.37	25200.55
502.55	24931.39
502.72	25238.00
502.90	25294.17
503.07	25120.97
503.25	25352.68
503.43	25020.33
503.60	25640.57
503.78	25731.85
503.95	25628.87
504.13	25759.94
504.30	25888.67
504.48	25710.78
504.65	25703.76
504.83	26244.43
505.01	26319.32
505.18	26300.60
505.36	26515.93
505.53	26579.12
505.71	26616.57
505.88	27131.49
506.06	26270.17
506.23	26810.84
506.41	26717.22
506.58	26984.04
506.76	26541.68
506.93	27292.99
507.11	27037.87
507.28	27199.37
507.46	27323.41
507.63	27487.25
507.81	27517.68
507.98	27260.22
508.16	27751.73
508.33	27967.06
508.50	27641.73
508.68	27990.47
508.85	28364.95
509.03	27885.14
509.20	28095.79
509.38	28404.74
509.55	28456.23
509.73	28477.30
509.90	28210.48
510.08	28575.60
510.25	28854.12
510.42	28891.57
510.60	28898.59
510.77	28720.71
510.95	28893.91
511.12	28954.77
511.30	29406.49
511.47	29062.43
511.64	29284.78
511.82	29240.31
511.99	29298.83
512.17	29326.91
512.34	29415.85
512.51	29551.60
512.69	30047.80
512.86	30040.78
513.04	29766.93
513.21	30101.63
513.38	30389.52
513.56	30141.42
513.73	30323.98
513.90	30609.53
514.08	30277.17
514.25	30600.16
514.43	30684.42
514.60	30534.63
514.77	30569.74
514.95	30752.30
515.12	30623.57
515.29	30759.32
515.47	30930.18
515.64	30904.43
515.81	31122.10
515.99	31159.55
516.16	31625.32
516.33	31583.19
516.51	31702.56
516.68	31227.43
516.85	31807.88
517.03	31892.14
517.20	31751.71
517.37	31632.34
517.54	31590.21
517.72	31782.13
517.89	31983.42
518.06	31817.24
518.24	32121.51
518.41	32257.26
518.58	32128.53
518.75	32030.23
518.93	32414.08
519.10	32273.65
519.27	32233.86
519.45	32598.98
519.62	33127.94
519.79	32952.40
519.96	32870.48
520.14	32657.49
520.31	32589.62
520.48	32512.38
520.65	33483.70
520.83	33301.14
521.00	33371.36
521.17	33579.67
521.34	33184.12
521.52	33308.16
521.69	33029.64
521.86	33853.51
522.03	33951.81
522.20	33673.29
522.38	33731.80
522.55	34064.16
522.72	34050.11
522.89	34085.22
523.07	34359.06
523.24	33933.09
523.41	34345.02
523.58	33963.51
523.75	34539.29
523.92	34218.63
524.10	34632.91
524.27	34558.01
524.44	34862.28
524.61	34979.31
524.78	34820.15
524.96	35302.30
525.13	34752.27
525.30	34955.90
525.47	34810.79
525.64	34754.61
525.81	35161.87
525.98	35072.93
526.16	35309.32
526.33	35072.93
526.50	35629.98
526.67	35068.25
526.84	35189.95
527.01	35164.21
527.18	35477.84
527.36	35360.81
527.53	35594.87
527.70	36072.34
527.87	36341.50
528.04	35824.24
528.21	36142.55
528.38	35812.54
528.55	35927.22
528.72	36006.80
528.89	36327.45
529.07	36404.69
529.24	36313.41
529.41	36449.16
529.58	36409.37
529.75	36336.82
529.92	36156.60
530.09	36510.02
530.26	36624.70
530.43	36605.98
530.60	36711.30
530.77	36285.33
530.94	36524.06
531.11	36715.98
531.28	37223.88
531.46	36760.45
531.63	36935.99
531.80	36907.91
531.97	37275.37
532.14	37191.11
532.31	37055.36
532.48	37453.25
532.65	37294.10
532.82	36535.76
532.99	37251.97
533.16	37635.81
533.33	37563.26
533.50	37745.82
533.67	37818.38
533.84	37776.25
534.01	37837.10
534.18	38059.45
534.35	38141.37
534.52	38602.46
534.69	38363.72
534.86	38363.72
535.03	38005.62
535.20	38085.20
535.37	38309.89
535.54	38565.01
535.71	38300.53
535.88	38314.57
536.05	38438.62
536.22	38843.53
536.38	38731.18
536.55	37895.61
536.72	38040.73
536.89	38672.67
537.06	38590.75
537.23	38721.82
537.40	38302.87
537.57	38630.54
537.74	38934.81
537.91	39002.69
538.08	38731.18
538.25	38632.88
538.42	38932.47
538.59	39089.29
538.75	39210.99
538.92	39950.60
539.09	39421.64
539.26	38888.00
539.43	39260.15
539.60	39313.98
539.77	39751.66
539.94	39522.29
540.11	39431.01
540.28	39587.82
540.44	39552.71
540.61	39393.56
540.78	39445.05
540.95	39440.37
541.12	39653.36
541.29	39800.81
541.46	39796.13
541.62	39716.55
541.79	40287.64
541.96	40025.50
542.13	39611.23
542.30	40144.87
542.47	40037.20
542.63	40212.74
542.80	40027.84
542.97	40615.32
543.14	40486.59
543.31	40329.77
543.48	39889.75
543.64	41170.02
543.81	40825.96
543.98	40507.65
544.15	41038.95
544.32	40863.41
544.48	41235.56
544.65	40715.96
544.82	41144.28
544.99	40673.83
545.16	40989.80
545.32	41188.75
545.49	41469.61
545.66	41371.31
545.83	41317.48
546.00	41383.01
546.16	41619.41
546.33	41001.50
546.50	41354.93
546.67	41914.31
546.83	40992.14
547.00	41287.05
547.17	41263.64
547.34	41574.94
547.50	41736.43
547.67	41385.35
547.84	41612.38
548.00	42220.92
548.17	42370.72
548.34	42333.27
548.51	41710.69
548.67	41750.48
548.84	41944.74
549.01	42108.58
549.18	41844.10
549.34	42094.53
549.51	42672.65
549.68	42143.69
549.84	42274.76
550.01	42511.15
550.18	42321.57
550.34	42192.84
550.51	42209.22
550.68	42572.00
550.84	42300.50
551.01	42396.46
551.18	42036.02
551.34	42134.32
551.51	42454.98
551.68	42515.83
551.84	42213.90
552.01	42637.54
552.18	42557.96
552.34	42394.12
552.51	42775.63
552.68	42560.30
552.84	42344.97
553.01	43000.32
553.18	42953.51
553.34	42948.83
553.51	42796.70
553.67	42431.57
553.84	43122.03
554.01	43182.88
554.17	42988.62
554.34	43562.05
554.51	43196.93
554.67	43496.52
554.84	43391.19
555.00	43089.26
555.17	43044.79
555.33	43246.08
555.50	43353.74
555.67	43475.45
555.83	43002.66
556.00	43643.97
556.16	43861.64
556.33	43498.86
556.50	43533.96
556.66	43201.61
556.83	43395.87
556.99	43445.02
557.16	43969.30
557.32	43709.50
557.49	43812.49
557.65	43835.89
557.82	43782.06
557.98	43927.17
558.15	43393.53
558.32	44041.86
558.48	43306.93
558.65	44016.11
558.81	43964.62
558.98	43782.06
559.14	43519.92
559.31	43793.76
559.47	43842.92
559.64	44072.29
559.80	43988.03
559.97	44320.38
560.13	43892.07
560.30	44362.51
560.46	44236.12
560.63	44563.80
560.79	44980.42
560.96	44186.97
561.12	44385.92
561.29	44509.97
561.45	44741.68
561.61	44781.47
561.78	44275.91
561.94	44664.44
562.11	44507.63
562.27	44751.04
562.44	44502.95
562.60	44942.97
562.77	44821.26
562.93	44638.70
563.10	44830.62
563.26	44390.60
563.42	44882.11
563.59	44304.00
563.75	44477.20
563.92	44851.69
564.08	44727.64
564.24	44676.15
564.41	44758.06
564.57	44774.45
564.74	44879.77
564.90	44737.00
565.07	44545.08
565.23	44898.50
565.39	44669.12
565.56	45413.41
565.72	44715.93
565.88	44973.39
566.05	44959.35
566.21	45287.03
566.38	45326.81
566.54	44828.28
566.70	45294.05
566.87	45226.17
567.03	44896.16
567.19	45495.33
567.36	44856.37
567.52	44910.20
567.68	45336.18
567.85	45455.54
568.01	45160.64
568.17	45048.29
568.34	45132.55
568.50	45280.00
568.66	44891.48
568.83	45406.39
568.99	45502.35
569.15	45172.34
569.32	45305.75
569.48	45137.23
569.64	45221.49
569.81	45371.28
569.97	45626.40
570.13	45436.82
570.30	44896.16
570.46	45247.24
570.62	45294.05
570.78	45603.00
570.95	45680.24
571.11	45478.95
571.27	45338.52
571.43	45284.68
571.60	45420.44
571.76	45261.28
571.92	45331.50
572.09	45340.86
572.25	45057.65
572.41	45308.09
572.57	45595.98
572.74	45998.55
572.90	45485.97
573.06	45633.42
573.22	45787.90
573.38	45961.10
573.55	45708.32
573.71	45701.30
573.87	45951.74
574.03	45773.86
574.20	46038.34
574.36	46000.89
574.52	45823.01
574.68	45818.33
574.84	46052.38
575.01	45724.71
575.17	46244.30
575.33	45399.37
575.49	45467.25
575.65	45984.51
575.82	46003.23
575.98	45907.27
576.14	46131.96
576.30	46124.94
576.46	45698.96
576.62	45502.35
576.79	45050.63
576.95	45595.98
577.11	45436.82
577.27	45633.42
577.43	45734.07
577.59	45813.65
577.75	45572.57
577.92	45521.08
578.08	45701.30
578.24	45326.81
578.40	45698.96
578.56	46007.91
578.72	46007.91
578.88	46155.36
579.04	45841.73
579.21	45757.47
579.37	45881.52
579.53	45553.85
579.69	45780.88
579.85	45804.28
580.01	45715.34
580.17	45256.60
580.33	46553.26
580.49	46244.30
580.65	46078.13
580.82	45666.19
580.98	45406.39
581.14	45331.50
581.30	45935.35
581.46	46354.31
581.62	45947.06
581.78	45773.86
581.94	46199.83
582.10	46096.85
582.26	45771.52
582.42	45862.80
582.58	45691.94
582.74	45839.39
582.90	46429.21
583.06	45865.14
583.22	45661.51
583.38	46398.78
583.54	46026.63
583.70	45970.46
583.86	45858.12
584.02	46127.28
584.18	46316.86
584.34	45907.27
584.50	46260.69
584.66	46094.51
584.82	45951.74
584.98	46234.94
585.14	46033.66
585.30	46220.90
585.46	46043.02
585.62	45713.00
585.78	45925.99
585.94	45624.06
586.10	45705.98
586.26	45595.98
586.42	45907.27
586.58	45989.19
586.74	45979.82
586.90	46019.61
587.06	46571.98
587.22	46054.72
587.38	45907.27
587.54	46422.19
587.70	46335.59
587.86	46138.98
588.02	46438.57
588.18	46204.52
588.34	46244.30
588.49	46534.53
588.65	46314.52
588.81	46241.96
588.97	46733.48
589.13	45923.65
589.29	46113.23
589.45	46216.22
589.61	46260.69
589.77	46483.04
589.93	46244.30
590.08	46183.45
