SpectraSuite Data File
++++++++++++++++++++++++++++++++++++
Date: Fri Oct 25 10:48:17 EDT 2013
User: price-jones
Dark Spectrum Present: No
Reference Spectrum Present: No
Number of Sampled Component Spectra: 1
Spectrometers: USB2+H05261
Integration Time (usec): 100000 (USB2+H05261)
Spectra Averaged: 1 (USB2+H05261)
Boxcar Smoothing: 0 (USB2+H05261)
Correct for Electrical Dark: No (USB2+H05261)
Strobe/Lamp Enabled: No (USB2+H05261)
Correct for Detector Non-linearity: No (USB2+H05261)
Correct for Stray Light: No (USB2+H05261)
Number of Pixels in Processed Spectrum: 2048
>>>>>Begin Processed Spectral Data<<<<<
365.73	74.90
365.92	74.90
366.12	74.90
366.32	131.07
366.52	23.41
366.72	23.41
366.91	18.72
367.11	30.43
367.31	37.45
367.51	25.75
367.70	53.83
367.90	93.62
368.10	21.06
368.30	49.15
368.49	112.35
368.69	88.94
368.89	107.66
369.09	98.30
369.28	86.60
369.48	77.24
369.68	63.19
369.87	140.43
370.07	102.98
370.27	140.43
370.47	184.90
370.66	365.12
370.86	360.44
371.06	491.51
371.25	547.69
371.45	482.15
371.65	547.69
371.84	468.11
372.04	484.49
372.24	512.58
372.44	465.77
372.63	564.07
372.83	538.32
373.03	526.62
373.22	512.58
373.42	505.56
373.62	507.90
373.81	578.11
374.01	575.77
374.21	561.73
374.40	498.53
374.60	641.31
374.79	550.03
374.99	552.37
375.19	613.22
375.38	643.65
375.58	620.24
375.78	610.88
375.97	629.60
376.17	662.37
376.37	599.18
376.56	676.41
376.76	650.67
376.95	631.94
377.15	559.39
377.35	671.73
377.54	706.84
377.74	622.58
377.93	667.05
378.13	676.41
378.33	716.20
378.52	662.37
378.72	709.18
378.91	617.90
379.11	676.41
379.31	667.05
379.50	683.44
379.70	730.25
379.89	767.70
380.09	723.23
380.28	751.31
380.48	704.50
380.68	760.67
380.87	690.46
381.07	695.14
381.26	697.48
381.46	676.41
381.65	720.88
381.85	681.10
382.04	800.46
382.24	753.65
382.43	662.37
382.63	732.59
382.83	716.20
383.02	697.48
383.22	826.21
383.41	739.61
383.61	716.20
383.80	835.57
384.00	774.72
384.19	779.40
384.39	880.04
384.58	791.10
384.78	807.48
384.97	858.98
385.17	802.80
385.36	802.80
385.56	917.49
385.75	842.59
385.95	856.64
386.14	835.57
386.34	851.96
386.53	929.19
386.72	873.02
386.92	919.83
387.11	896.43
387.31	936.21
387.50	868.34
387.70	891.74
387.89	924.51
388.09	901.11
388.28	922.17
388.48	873.02
388.67	964.30
388.86	1032.18
389.06	891.74
389.25	1039.20
389.45	961.96
389.64	938.55
389.84	1004.09
390.03	1062.60
390.22	1064.94
390.42	1053.24
390.61	983.02
390.81	1071.97
391.00	1041.54
391.19	1036.86
391.39	1055.58
391.58	1090.69
391.78	1071.97
391.97	1078.99
392.16	1095.37
392.36	1060.26
392.55	1083.67
392.75	1022.81
392.94	1060.26
393.13	1001.75
393.33	1036.86
393.52	1020.47
393.71	1123.46
393.91	1142.18
394.10	1137.50
394.29	1207.72
394.49	1165.59
394.68	1228.78
394.88	1240.48
395.07	1322.40
395.26	1181.97
395.46	1224.10
395.65	1249.85
395.84	1263.89
396.04	1308.36
396.23	1205.38
396.42	1151.54
396.62	1266.23
396.81	1266.23
397.00	1210.06
397.19	1317.72
397.39	1399.64
397.58	1380.92
397.77	1418.36
397.97	1486.24
398.16	1401.98
398.35	1406.66
398.55	1437.09
398.74	1413.68
398.93	1528.37
399.12	1572.84
399.32	1462.83
399.51	1502.62
399.70	1561.14
399.90	1558.80
400.09	1619.65
400.28	1579.86
400.47	1643.06
400.67	1724.97
400.86	1689.87
401.05	1607.95
401.24	1734.34
401.44	1706.25
401.63	1629.01
401.82	1706.25
402.01	1724.97
402.21	1806.89
402.40	1795.19
402.59	1724.97
402.78	1818.60
402.97	1872.43
403.17	1816.26
403.36	1750.72
403.55	1802.21
403.74	1853.70
403.93	1851.36
404.13	1860.73
404.32	1900.52
404.51	1947.33
404.70	1891.15
404.89	1818.60
405.09	2022.22
405.28	1916.90
405.47	1937.96
405.66	1994.14
405.85	1963.71
406.05	1895.83
406.24	1919.24
406.43	2066.69
406.62	2038.61
406.81	2101.80
407.00	2012.86
407.20	2136.91
407.39	2101.80
407.58	2202.44
407.77	2125.21
407.96	2181.38
408.15	2190.74
408.34	2214.15
408.54	2319.47
408.73	2249.25
408.92	2305.43
409.11	2399.05
409.30	2305.43
409.49	2258.62
409.68	2251.60
409.87	2244.57
410.07	2307.77
410.26	2317.13
410.45	2478.63
410.64	2445.86
410.83	2593.31
411.02	2464.58
411.21	2581.61
411.40	2502.03
411.59	2609.70
411.78	2656.51
411.98	2607.36
412.17	2651.83
412.36	2600.34
412.55	2684.59
412.74	2775.88
412.93	2588.63
413.12	2658.85
413.31	2780.56
413.50	2782.90
413.69	2874.18
413.88	2775.88
414.07	3000.57
414.26	2925.67
414.45	2949.08
414.64	3014.61
414.83	2984.18
415.02	3087.17
415.22	3103.55
415.41	3152.70
415.60	3136.32
415.79	3152.70
415.98	3241.64
416.17	3356.33
416.36	3239.30
416.55	3272.07
416.74	3382.07
416.93	3330.58
417.12	3255.69
417.31	3206.53
417.50	3330.58
417.69	3471.01
417.88	3407.82
418.07	3414.84
418.26	3318.88
418.45	3433.57
418.64	3604.42
418.83	3623.15
419.02	3534.21
419.21	3475.70
419.39	3578.68
419.58	3585.70
419.77	3480.38
419.96	3754.22
420.15	3616.13
420.34	3761.24
420.53	3688.68
420.72	3838.48
420.91	3815.07
421.10	3896.99
421.29	3948.48
421.48	3723.79
421.67	3922.74
421.86	3875.93
422.05	3779.97
422.24	3824.44
422.43	3754.22
422.61	3948.48
422.80	3922.74
422.99	3847.84
423.18	3964.87
423.37	3985.93
423.56	3950.82
423.75	3939.12
423.94	3922.74
424.13	3751.88
424.32	3854.86
424.50	4112.32
424.69	4039.76
424.88	4030.40
425.07	3859.54
425.26	3878.27
425.45	4004.66
425.64	3939.12
425.83	3880.61
426.01	4032.74
426.20	4037.42
426.39	4067.85
426.58	4056.15
426.77	3948.48
426.96	3995.29
427.15	4049.13
427.33	4032.74
427.52	4039.76
427.71	4159.13
427.90	3995.29
428.09	4070.19
428.28	4044.45
428.46	4135.73
428.65	4056.15
428.84	4145.09
429.03	4337.01
429.22	4046.79
429.40	4194.24
429.59	4236.37
429.78	4016.36
429.97	4021.04
430.16	4032.74
430.34	4245.73
430.53	4147.43
430.72	4147.43
430.91	4210.62
431.10	4241.05
431.28	4709.16
431.47	4645.96
431.66	4681.07
431.85	4587.45
432.03	4561.70
432.22	4664.69
432.41	4617.88
432.60	4573.41
432.79	4596.81
432.97	4760.65
433.16	4716.18
433.35	4676.39
433.54	4587.45
433.72	4741.93
433.91	4582.77
434.10	4725.54
434.28	4741.93
434.47	4816.82
434.66	4950.23
434.85	5001.72
435.03	4931.51
435.22	5078.96
435.41	5004.07
435.59	4959.60
435.78	5020.45
435.97	5057.90
436.16	4924.49
436.34	5231.10
436.53	5160.88
436.72	5270.89
436.90	5093.01
437.09	5273.23
437.28	5053.22
437.46	5153.86
437.65	5322.38
437.84	5198.33
438.02	5043.85
438.21	5170.24
438.40	4936.19
438.58	5308.34
438.77	5425.36
438.96	5355.15
439.14	5556.43
439.33	5685.16
439.52	5645.37
439.70	5675.80
439.89	5621.97
440.08	5703.89
440.26	5713.25
440.45	5724.95
440.63	5884.11
440.82	6092.41
441.01	5760.06
441.19	5907.51
441.38	6066.67
441.57	5902.83
441.75	6157.95
441.94	6303.06
442.12	6317.11
442.31	6658.82
442.50	6375.62
442.68	6511.37
442.87	6380.30
443.05	6429.45
443.24	6513.71
443.43	6389.66
443.61	6473.92
443.80	6562.86
443.98	6232.85
444.17	6188.38
444.35	6548.82
444.54	6635.42
444.73	6616.69
444.91	6607.33
445.10	6324.13
445.28	6551.16
445.47	6457.54
445.65	6544.14
445.84	6565.20
446.02	6644.78
446.21	6621.38
446.39	6633.08
446.58	6715.00
446.77	6628.40
446.95	6541.80
447.14	6675.21
447.32	6780.53
447.51	6775.85
447.69	6792.23
447.88	6810.96
448.06	6520.73
448.25	6848.41
448.43	6740.74
448.62	6759.47
448.80	6668.19
448.99	6724.36
449.17	6817.98
449.36	6808.62
449.54	6899.90
449.73	6998.20
449.91	7173.74
450.10	7297.79
450.28	7323.54
450.46	7157.36
450.65	7288.43
450.83	7248.64
451.02	7370.35
451.20	7126.93
451.39	7211.19
451.57	7122.25
451.76	7262.68
451.94	7243.96
452.13	7337.58
452.31	7262.68
452.49	6935.01
452.68	7255.66
452.86	7211.19
453.05	7379.71
453.23	7557.59
453.42	7300.13
453.60	7349.28
453.78	7695.68
453.97	7417.16
454.15	7487.37
454.34	7503.76
454.52	7595.04
454.70	7557.59
454.89	7260.34
455.07	7611.42
455.26	7552.91
455.44	8011.65
455.62	7756.54
455.81	7665.25
455.99	7707.38
456.17	7733.13
456.36	7908.67
456.54	7754.19
456.73	7885.26
456.91	8121.66
457.09	8009.31
457.28	8084.21
457.46	8121.66
457.64	8285.50
457.83	8035.06
458.01	8030.38
458.19	8245.71
458.38	8070.17
458.56	8234.00
458.74	8219.96
458.93	8147.40
459.11	8334.65
459.29	8299.54
459.48	8283.16
459.66	8383.80
459.84	8297.20
460.03	8500.83
460.21	8454.02
460.39	8554.66
460.57	8444.65
460.76	8568.70
460.94	8652.96
461.12	8500.83
461.31	8521.89
461.49	8657.64
461.67	8645.94
461.85	8711.47
462.04	8812.12
462.22	9107.02
462.40	8861.27
462.59	8746.58
462.77	8802.75
462.95	8940.85
463.13	8879.99
463.32	8994.68
463.50	9078.94
463.68	8975.95
463.86	8990.00
464.05	8940.85
464.23	8954.89
464.41	9083.62
464.59	8706.79
464.78	9231.07
464.96	8959.57
465.14	8884.67
465.32	9097.66
465.50	9256.82
465.69	9312.99
465.87	9156.18
466.05	9097.66
466.23	9130.43
466.41	9193.62
466.60	9235.75
466.78	9261.50
466.96	9202.99
467.14	9467.47
467.32	9350.44
467.51	9558.75
467.69	9114.05
467.87	9603.22
468.05	9507.26
468.23	9439.38
468.41	9263.84
468.60	9322.35
468.78	9504.92
468.96	9645.35
469.14	9650.03
469.32	9921.53
469.50	9521.30
469.69	9626.62
469.87	9724.93
470.05	9956.64
470.23	9863.02
470.41	9631.30
470.59	10029.20
470.77	9696.84
470.95	9863.02
471.14	10047.92
471.32	9863.02
471.50	10148.56
471.68	10335.81
471.86	10143.88
472.04	10445.81
472.22	10623.69
472.40	10258.57
472.58	10616.67
472.77	10162.61
472.95	10647.10
473.13	10846.04
473.31	10384.96
473.49	10480.92
473.67	10609.65
473.85	10738.38
474.03	11026.26
474.21	10927.96
474.39	11166.70
474.57	10949.03
474.75	11023.92
474.93	10972.43
475.12	11063.71
475.30	11295.43
475.48	11199.46
475.66	11265.00
475.84	11239.25
476.02	11510.75
476.20	11431.18
476.38	11630.12
476.56	11859.49
476.74	11866.52
476.92	11751.83
477.10	11733.11
477.28	11957.80
477.46	11946.09
477.64	12116.95
477.82	12435.27
478.00	12507.82
478.18	12411.86
478.36	12564.00
478.54	12650.60
478.72	12737.20
478.90	13053.17
479.08	12830.82
479.26	13071.89
479.44	13401.91
479.62	13167.85
479.80	13240.41
479.98	13504.89
480.16	13921.51
480.34	13544.68
480.52	13923.85
480.70	13706.18
480.88	13699.16
481.06	13776.39
481.24	13940.23
481.41	14354.51
481.59	14576.86
481.77	14382.59
481.95	14333.44
482.13	14640.05
482.31	14279.61
482.49	14658.78
482.67	14878.79
482.85	15108.16
483.03	15082.41
483.21	15222.84
483.39	15594.99
483.57	14941.98
483.74	15438.17
483.92	15824.36
484.10	15398.38
484.28	15894.58
484.46	15777.55
484.64	16283.11
484.82	16308.85
485.00	15925.00
485.18	16460.99
485.35	16723.13
485.53	16133.31
485.71	16231.62
485.89	16662.27
486.07	16358.00
486.25	16449.28
486.43	17032.08
486.61	16929.09
486.78	17142.08
486.96	17357.41
487.14	17930.84
487.32	17947.23
487.50	17844.24
487.68	18064.25
487.85	18408.31
488.03	18689.18
488.21	18541.72
488.39	18548.75
488.57	18532.36
488.75	18895.14
488.92	19300.06
489.10	19386.66
489.28	19637.09
489.46	19711.99
489.64	19243.88
489.81	20002.22
489.99	20023.28
490.17	20072.43
490.35	20346.28
490.53	20327.55
490.70	20812.04
490.88	20725.44
491.06	20863.54
491.24	20645.87
491.41	20706.72
491.59	20849.49
491.77	20739.49
491.95	21221.64
492.13	21301.22
492.30	21345.69
492.48	21551.65
492.66	21797.41
492.84	21766.98
493.01	22045.51
493.19	22115.72
493.37	21977.63
493.54	22361.48
493.72	22735.96
493.90	22918.53
494.08	23000.44
494.25	23080.02
494.43	23028.53
494.61	23330.46
494.79	23501.32
494.96	23634.73
495.14	23625.37
495.32	24039.64
495.49	23807.93
495.67	23995.17
495.85	23901.55
496.02	24435.19
496.20	24496.05
496.38	24369.66
496.55	24407.11
496.73	25207.57
496.91	24706.70
497.09	25069.48
497.26	24856.49
497.44	25057.78
497.62	25017.99
497.79	25238.00
497.97	25144.38
498.14	25778.66
498.32	25715.47
498.50	25935.48
498.67	26422.31
498.85	26087.61
499.03	26260.81
499.20	26125.06
499.38	26394.22
499.56	26558.06
499.73	26703.17
499.91	26602.53
500.08	26850.63
500.26	26412.95
500.44	26878.71
500.61	26707.85
500.79	26773.39
500.97	27115.11
501.14	27302.35
501.32	27133.83
501.49	27131.49
501.67	27173.62
501.84	27789.18
502.02	27529.38
502.20	27821.95
502.37	27896.85
502.55	27782.16
502.72	27805.56
502.90	27999.83
503.07	28002.17
503.25	28130.90
503.43	28273.67
503.60	28615.39
503.78	28477.30
503.95	28329.84
504.13	28779.23
504.30	28540.49
504.48	28662.20
504.65	29081.16
504.83	29305.85
505.01	28802.63
505.18	29336.27
505.36	29467.34
505.53	29483.73
505.71	29694.38
505.88	29874.60
506.06	29553.94
506.23	29621.82
506.41	29441.60
506.58	29883.96
506.76	29900.34
506.93	29998.65
507.11	30272.49
507.28	30305.26
507.46	29834.81
507.63	29993.97
507.81	30349.73
507.98	29926.09
508.16	30188.23
508.33	30618.89
508.50	30700.81
508.68	30993.37
508.85	31346.79
509.03	30792.09
509.20	31051.89
509.38	31136.15
509.55	31735.32
509.73	31377.22
509.90	31550.42
510.08	31318.71
510.25	31386.58
510.42	31847.67
510.60	32140.24
510.77	31660.43
510.95	32231.52
511.12	32154.28
511.30	32140.24
511.47	32690.26
511.64	32849.42
511.82	32613.02
511.99	32603.66
512.17	32526.42
512.34	32556.85
512.51	32531.11
512.69	32833.04
512.86	32964.10
513.04	33106.88
513.21	32804.95
513.38	32549.83
513.56	32933.68
513.73	32786.22
513.90	33359.66
514.08	33050.70
514.25	33614.77
514.43	33179.43
514.60	33572.64
514.77	33436.89
514.95	33923.72
515.12	33633.50
515.29	34146.08
515.47	33921.38
515.64	34092.24
515.81	33647.54
515.99	34068.84
516.16	33745.84
516.33	33565.62
516.51	34122.67
516.68	33776.27
516.85	33366.68
517.03	33762.23
517.20	34387.15
517.37	34309.91
517.54	34976.97
517.72	34232.68
517.89	34443.32
518.06	33919.04
518.24	34328.64
518.41	34618.86
518.58	34864.62
518.75	34831.85
518.93	35388.90
519.10	35058.88
519.27	35161.87
519.45	35302.30
519.62	35140.80
519.79	35278.89
519.96	35988.08
520.14	35711.89
520.31	35662.74
520.48	36016.16
520.65	35819.56
520.83	36126.17
521.00	36243.20
521.17	35995.10
521.34	35892.12
521.52	36407.03
521.69	36385.97
521.86	36678.54
522.03	36114.47
522.20	36723.01
522.38	36521.72
522.55	36797.90
522.72	36690.24
522.89	36676.19
523.07	36734.71
523.24	36678.54
523.41	37289.42
523.58	36755.77
523.75	37244.94
523.92	37483.68
524.10	37539.85
524.27	37673.26
524.44	37310.48
524.61	37347.93
524.78	37532.83
524.96	38288.82
525.13	37811.35
525.30	38124.99
525.47	38478.41
525.64	38050.09
525.81	37701.35
525.98	37968.17
526.16	37722.41
526.33	37710.71
526.50	38094.56
526.67	37659.22
526.84	37701.35
527.01	37919.02
527.18	38150.73
527.36	38572.03
527.53	38532.24
527.70	38710.12
527.87	38452.66
528.04	38129.67
528.21	38632.88
528.38	38829.49
528.55	39012.05
528.72	38705.44
528.89	39210.99
529.07	39005.03
529.24	38726.50
529.41	38785.02
529.58	38946.51
529.75	39005.03
529.92	38904.38
530.09	39159.50
530.26	39356.11
530.43	39381.85
530.60	39421.64
530.77	39552.71
530.94	40081.67
531.11	39445.05
531.28	39730.59
531.46	39770.38
531.63	40069.97
531.80	39842.94
531.97	40062.95
532.14	40100.40
532.31	39363.13
532.48	39330.36
532.65	40119.12
532.82	39948.26
532.99	40287.64
533.16	40453.82
533.33	40318.07
533.50	40432.75
533.67	40282.96
533.84	40336.79
534.01	40264.24
534.18	39849.96
534.35	40545.10
534.52	40437.44
534.69	40704.26
534.86	40737.02
535.03	40498.29
535.20	40561.48
535.37	40854.05
535.54	41881.55
535.71	40790.86
535.88	41179.39
536.05	40807.24
536.22	41317.48
536.38	41139.60
536.55	41186.41
536.72	40992.14
536.89	41205.13
537.06	41212.15
537.23	41305.77
537.40	41137.26
537.57	41544.51
537.74	41287.05
537.91	41860.48
538.08	41478.97
538.25	41448.55
538.42	41572.60
538.59	41839.42
538.75	41256.62
538.92	41193.43
539.09	41724.73
539.26	41539.83
539.43	41818.35
539.60	41511.74
539.77	41315.14
539.94	41748.14
540.11	41682.60
540.28	41855.80
540.44	41422.80
540.61	41769.20
540.78	41832.39
540.95	42050.06
541.12	42010.28
541.29	41453.23
541.46	41832.39
541.62	42260.71
541.79	42391.78
541.96	42337.95
542.13	42181.13
542.30	42623.50
542.47	42724.14
542.63	42213.90
542.80	42494.77
542.97	42981.60
543.14	43054.15
543.31	42820.10
543.48	42916.06
543.64	43440.34
543.81	43138.41
543.98	42965.21
544.15	42883.30
544.32	43438.00
544.48	43704.82
544.65	43583.12
544.82	43274.16
544.99	43161.82
545.16	43302.25
545.32	43201.61
545.49	43510.56
545.66	43667.37
545.83	43152.46
546.00	43428.64
546.16	43438.00
546.33	43182.88
546.50	43442.68
546.67	43604.18
546.83	43133.73
547.00	43835.89
547.17	44058.24
547.34	43150.12
547.50	43831.21
547.67	43929.51
547.84	43782.06
548.00	44233.78
548.17	43922.49
548.34	43936.54
548.51	44189.31
548.67	43690.78
548.84	44334.43
549.01	43990.37
549.18	43927.17
549.34	44369.54
549.51	44233.78
549.68	44083.99
549.84	44088.67
550.01	44264.21
550.18	44128.46
550.34	44294.64
550.51	44470.18
550.68	44329.75
550.84	43793.76
551.01	44037.18
551.18	44215.06
551.34	44676.15
551.51	44552.10
551.68	44463.16
551.84	44479.54
552.01	44222.08
552.18	44542.74
552.34	44313.36
552.51	44765.09
552.68	44605.93
552.84	44975.73
553.01	44814.24
553.18	45242.56
553.34	44694.87
553.51	44528.69
553.67	45003.82
553.84	45230.85
554.01	45331.50
554.17	44919.56
554.34	45081.06
554.51	45078.72
554.67	45113.83
554.84	45158.30
555.00	44418.69
555.17	44671.46
555.33	45371.28
555.50	45134.89
555.67	45048.29
555.83	45284.68
556.00	45230.85
556.16	45464.91
556.33	45406.39
556.50	45469.59
556.66	45731.73
556.83	45102.12
556.99	45134.89
557.16	45502.35
557.32	45514.06
557.49	45631.08
557.65	45333.84
557.82	45542.14
557.98	45375.97
558.15	45635.77
558.32	45057.65
558.48	45275.32
558.65	45638.11
558.81	45453.20
558.98	45588.95
559.14	45600.66
559.31	45441.50
559.47	45539.80
559.64	45530.44
559.80	46075.79
559.97	45542.14
560.13	45544.48
560.30	46026.63
560.46	45710.66
560.63	45724.71
560.79	45727.05
560.96	46113.23
561.12	46220.90
561.29	46195.15
561.45	46117.92
561.61	46005.57
561.78	45502.35
561.94	45956.42
562.11	45610.02
562.27	45914.29
562.44	45890.88
562.60	46087.49
562.77	45968.12
562.93	45883.86
563.10	46499.42
563.26	46021.95
563.42	46213.88
563.59	45820.67
563.75	45895.56
563.92	46440.91
564.08	46312.18
564.24	46169.41
564.41	46003.23
564.57	46028.98
564.74	46162.39
564.90	46232.60
565.07	46005.57
565.23	45797.26
565.39	46155.36
565.56	46141.32
565.72	46005.57
565.88	46213.88
566.05	45935.35
566.21	46263.03
566.38	45855.78
566.54	46052.38
566.70	45820.67
566.87	46649.22
567.03	46571.98
567.19	46557.94
567.36	46342.61
567.52	46075.79
567.68	46403.46
567.85	46469.00
568.01	46073.45
568.17	46075.79
568.34	46258.35
568.50	46417.50
568.66	46450.27
568.83	46340.27
568.99	46256.01
569.15	46302.82
569.32	46302.82
569.48	45916.63
569.64	46941.78
569.81	46309.84
569.97	46375.37
570.13	46639.86
570.30	46061.74
570.46	46017.27
570.62	45986.85
570.78	46291.12
570.95	46237.28
571.11	46548.57
571.27	46712.41
571.43	46384.74
571.60	46108.55
571.76	46653.90
571.92	46611.77
572.09	46485.38
572.25	46415.16
572.41	46183.45
572.57	46349.63
572.74	46871.57
572.90	46473.68
573.06	46576.66
573.22	46848.16
573.38	46974.55
573.55	46204.52
573.71	46705.39
573.87	46469.00
574.03	46581.34
574.20	46887.95
574.36	46560.28
574.52	46733.48
574.68	46644.54
574.84	46728.80
575.01	46761.56
575.17	46356.65
575.33	45914.29
575.49	46497.08
575.65	46824.76
575.82	47189.88
575.98	46354.31
576.14	46681.98
576.30	46726.46
576.46	46600.07
576.62	46007.91
576.79	46492.40
576.95	46050.04
577.11	46225.58
577.27	46459.63
577.43	46862.21
577.59	47072.85
577.75	46248.99
577.92	46391.76
578.08	46190.47
578.24	46007.91
578.40	46579.00
578.56	46623.47
578.72	46529.85
578.88	46838.80
579.04	46548.57
579.21	45986.85
579.37	46403.46
579.53	46749.86
579.69	46457.29
579.85	46604.75
580.01	46724.11
580.17	46595.38
580.33	46873.91
580.49	46703.05
580.65	46541.55
580.82	46485.38
580.98	46539.21
581.14	46232.60
581.30	46892.63
581.46	46403.46
581.62	47159.45
581.78	46403.46
581.94	46649.22
582.10	46880.93
582.26	47063.49
582.42	46902.00
582.58	46756.88
582.74	46358.99
582.90	47105.62
583.06	46787.31
583.22	46571.98
583.38	47061.15
583.54	47049.45
583.70	46836.46
583.86	46171.75
584.02	46560.28
584.18	46658.58
584.34	46897.31
584.50	46869.23
584.66	46735.82
584.82	46316.86
584.98	46946.47
585.14	46848.16
585.30	46707.73
585.46	46728.80
585.62	46148.34
585.78	46286.43
585.94	46431.55
586.10	46604.75
586.26	46375.37
586.42	46887.95
586.58	46712.41
586.74	46607.09
586.90	46859.87
587.06	46845.82
587.22	46815.40
587.38	46693.69
587.54	47021.36
587.70	47126.69
587.86	47217.97
588.02	46485.38
588.18	46733.48
588.34	46405.80
588.49	46422.19
588.65	45839.39
588.81	46237.28
588.97	46363.67
589.13	46330.90
589.29	46452.61
589.45	46541.55
589.61	46426.87
589.77	46815.40
589.93	46726.46
