SpectraSuite Data File
++++++++++++++++++++++++++++++++++++
Date: Fri Oct 25 10:43:50 EDT 2013
User: price-jones
Dark Spectrum Present: No
Reference Spectrum Present: No
Number of Sampled Component Spectra: 1
Spectrometers: USB2+H05261
Integration Time (usec): 100000 (USB2+H05261)
Spectra Averaged: 1 (USB2+H05261)
Boxcar Smoothing: 0 (USB2+H05261)
Correct for Electrical Dark: No (USB2+H05261)
Strobe/Lamp Enabled: No (USB2+H05261)
Correct for Detector Non-linearity: No (USB2+H05261)
Correct for Stray Light: No (USB2+H05261)
Number of Pixels in Processed Spectrum: 2048
>>>>>Begin Processed Spectral Data<<<<<
365.73	60.85
365.92	60.85
366.12	60.85
366.32	65.54
366.52	0.00
366.72	79.58
366.91	0.00
367.11	35.11
367.31	39.79
367.51	4.68
367.70	0.00
367.90	30.43
368.10	0.00
368.30	70.22
368.49	0.00
368.69	74.90
368.89	51.49
369.09	42.13
369.28	18.72
369.48	98.30
369.68	84.26
369.87	88.94
370.07	110.01
370.27	131.07
370.47	194.26
370.66	376.83
370.86	386.19
371.06	507.90
371.25	435.34
371.45	477.47
371.65	423.64
371.84	430.66
372.04	425.98
372.24	479.81
372.44	479.81
372.63	528.96
372.83	580.45
373.03	566.41
373.22	496.19
373.42	528.96
373.62	540.66
373.81	517.26
374.01	545.34
374.21	470.45
374.40	610.88
374.60	613.22
374.79	482.15
374.99	603.86
375.19	543.00
375.38	566.41
375.58	519.60
375.78	636.63
375.97	533.64
376.17	695.14
376.37	594.50
376.56	603.86
376.76	587.47
376.95	561.73
377.15	655.35
377.35	681.10
377.54	662.37
377.74	617.90
377.93	645.99
378.13	645.99
378.33	648.33
378.52	622.58
378.72	610.88
378.91	645.99
379.11	657.69
379.31	660.03
379.50	690.46
379.70	741.95
379.89	664.71
380.09	660.03
380.28	650.67
380.48	732.59
380.68	727.91
380.87	681.10
381.07	608.54
381.26	737.27
381.46	704.50
381.65	772.38
381.85	655.35
382.04	645.99
382.24	711.52
382.43	704.50
382.63	732.59
382.83	706.84
383.02	660.03
383.22	713.86
383.41	645.99
383.61	798.12
383.80	704.50
384.00	781.74
384.19	763.01
384.39	767.70
384.58	851.96
384.78	861.32
384.97	748.97
385.17	802.80
385.36	805.14
385.56	678.76
385.75	772.38
385.95	856.64
386.14	863.66
386.34	854.30
386.53	805.14
386.72	788.76
386.92	870.68
387.11	866.00
387.31	940.90
387.50	777.06
387.70	856.64
387.89	798.12
388.09	891.74
388.28	926.85
388.48	863.66
388.67	849.61
388.86	901.11
389.06	987.71
389.25	1034.52
389.45	924.51
389.64	952.60
389.84	971.32
390.03	1036.86
390.22	1064.94
390.42	1004.09
390.61	922.17
390.81	1025.15
391.00	990.05
391.19	997.07
391.39	1008.77
391.58	968.98
391.78	994.73
391.97	1062.60
392.16	952.60
392.36	1034.52
392.55	973.66
392.75	1013.45
392.94	945.58
393.13	1062.60
393.33	1039.20
393.52	1107.07
393.71	1034.52
393.91	1074.31
394.10	1081.33
394.29	1118.78
394.49	1109.41
394.68	1217.08
394.88	1135.16
395.07	1191.33
395.26	1214.74
395.46	1233.46
395.65	1231.12
395.84	1308.36
396.04	1310.70
396.23	1254.53
396.42	1142.18
396.62	1139.84
396.81	1172.61
397.00	1287.29
397.19	1252.19
397.39	1240.48
397.58	1338.79
397.77	1401.98
397.97	1453.47
398.16	1345.81
398.35	1416.02
398.55	1537.73
398.74	1385.60
398.93	1516.67
399.12	1577.52
399.32	1385.60
399.51	1582.20
399.70	1610.29
399.90	1528.37
400.09	1563.48
400.28	1629.01
400.47	1572.84
400.67	1570.50
400.86	1790.51
401.05	1636.03
401.24	1643.06
401.44	1647.74
401.63	1610.29
401.82	1626.67
402.01	1781.15
402.21	1767.10
402.40	1811.57
402.59	1802.21
402.78	1638.38
402.97	1743.70
403.17	1839.66
403.36	1732.00
403.55	1795.19
403.74	1879.45
403.93	1790.51
404.13	1870.09
404.32	1874.77
404.51	1891.15
404.70	1909.88
404.89	1881.79
405.09	1956.69
405.28	1916.90
405.47	1923.92
405.66	2003.50
405.85	1921.58
406.05	2054.99
406.24	2033.93
406.43	2029.24
406.62	2148.61
406.81	2169.68
407.00	2108.82
407.20	1930.94
407.39	2132.23
407.58	2120.53
407.77	2085.42
407.96	2253.94
408.15	2179.04
408.34	2249.25
408.54	2258.62
408.73	2305.43
408.92	2207.13
409.11	2363.94
409.30	2207.13
409.49	2317.13
409.68	2169.68
409.87	2310.11
410.07	2443.52
410.26	2370.96
410.45	2260.96
410.64	2459.90
410.83	2581.61
411.02	2413.09
411.21	2558.21
411.40	2511.39
411.59	2579.27
411.78	2532.46
411.98	2616.72
412.17	2719.70
412.36	2614.38
412.55	2733.75
412.74	2808.64
412.93	2794.60
413.12	2679.91
413.31	2928.01
413.50	2796.94
413.69	2808.64
413.88	2923.33
414.07	2913.97
414.26	2913.97
414.45	2995.89
414.64	2965.46
414.83	2993.55
415.02	3042.70
415.22	2993.55
415.41	3119.93
415.60	3105.89
415.79	3234.62
415.98	3295.47
416.17	3119.93
416.36	3405.48
416.55	3335.26
416.74	3290.79
416.93	3295.47
417.12	3279.09
417.31	3288.45
417.50	3393.78
417.69	3447.61
417.88	3421.86
418.07	3501.44
418.26	3337.60
418.45	3412.50
418.64	3716.77
418.83	3510.80
419.02	3597.40
419.21	3714.43
419.39	3602.08
419.58	3585.70
419.77	3480.38
419.96	3681.66
420.15	3796.35
420.34	3674.64
420.53	3758.90
420.72	3878.27
420.91	3744.86
421.10	3901.67
421.29	3941.46
421.48	3927.42
421.67	3999.98
421.86	3847.84
422.05	3864.22
422.24	3812.73
422.43	3831.46
422.61	3854.86
422.80	3803.37
422.99	3871.25
423.18	3976.57
423.37	3911.04
423.56	3915.72
423.75	3953.16
423.94	3943.80
424.13	3798.69
424.32	3878.27
424.50	3878.27
424.69	3939.12
424.88	4065.51
425.07	3908.69
425.26	3974.23
425.45	3943.80
425.64	3971.89
425.83	4067.85
426.01	4145.09
426.20	4046.79
426.39	4079.55
426.58	3997.64
426.77	3894.65
426.96	4133.39
427.15	4042.11
427.33	3997.64
427.52	4039.76
427.71	4067.85
427.90	4252.75
428.09	4231.69
428.28	4280.84
428.46	4142.75
428.65	4154.45
428.84	4257.43
429.03	4255.09
429.22	3971.89
429.40	4271.48
429.59	4236.37
429.78	4084.23
429.97	3915.72
430.16	3953.16
430.34	4074.87
430.53	4234.03
430.72	4236.37
430.91	4175.52
431.10	4381.48
431.28	4498.51
431.47	4660.01
431.66	4690.43
431.85	4566.39
432.03	4531.28
432.22	4655.33
432.41	4692.77
432.60	4657.67
432.79	4533.62
432.97	4842.57
433.16	4802.78
433.35	4660.01
433.54	4660.01
433.72	4692.77
433.91	4599.15
434.10	4744.27
434.28	4709.16
434.47	4716.18
434.66	5027.47
434.85	5048.54
435.03	4903.42
435.22	4880.02
435.41	5177.26
435.59	5184.29
435.78	5158.54
435.97	5121.09
436.16	5137.48
436.34	5121.09
436.53	5294.29
436.72	5221.74
436.90	5076.62
437.09	5071.94
437.28	5151.52
437.46	5069.60
437.65	4997.04
437.84	5294.29
438.02	5186.63
438.21	5217.05
438.40	5188.97
438.58	5359.83
438.77	5439.40
438.96	5460.47
439.14	5441.75
439.33	5605.58
439.52	5654.73
439.70	5607.92
439.89	5640.69
440.08	5626.65
440.26	5528.35
440.45	5673.46
440.63	5734.31
440.82	6118.16
441.01	5809.21
441.19	5951.98
441.38	6122.84
441.57	6122.84
441.75	6148.59
441.94	6375.62
442.12	6260.93
442.31	6272.64
442.50	6363.92
442.68	6277.32
442.87	6361.58
443.05	6296.04
443.24	6422.43
443.43	6715.00
443.61	6483.28
443.80	6628.40
443.98	6427.11
444.17	6321.79
444.35	6436.47
444.54	6796.92
444.73	6520.73
444.91	6534.78
445.10	6502.01
445.28	6637.76
445.47	6249.23
445.65	6452.86
445.84	6595.63
446.02	6597.97
446.21	6436.47
446.39	6684.57
446.58	6703.29
446.77	6541.80
446.95	6546.48
447.14	6637.76
447.32	6923.30
447.51	6586.27
447.69	6729.04
447.88	6841.39
448.06	6663.51
448.25	6743.08
448.43	6761.81
448.62	6707.98
448.80	6808.62
448.99	6860.11
449.17	6939.69
449.36	6857.77
449.54	6935.01
449.73	7143.32
449.91	7173.74
450.10	7059.06
450.28	7272.04
450.46	7225.23
450.65	7250.98
450.83	7204.17
451.02	7148.00
451.20	7243.96
451.39	7281.41
451.57	7234.60
451.76	7286.09
451.94	7157.36
452.13	7243.96
452.31	7248.64
452.49	6960.75
452.68	7122.25
452.86	7293.11
453.05	7337.58
453.23	7229.91
453.42	7391.41
453.60	7178.42
453.78	7620.78
453.97	7358.64
454.15	7365.67
454.34	7375.03
454.52	7508.44
454.70	7463.97
454.89	7590.36
455.07	7630.15
455.26	7639.51
455.44	7805.69
455.62	7805.69
455.81	7815.05
455.99	7688.66
456.17	7829.09
456.36	7775.26
456.54	8006.97
456.73	7903.99
456.91	8037.40
457.09	8035.06
457.28	8367.42
457.46	7808.03
457.64	7941.44
457.83	8065.49
458.01	7990.59
458.19	8259.75
458.38	8105.28
458.56	8379.12
458.74	8360.39
458.93	8126.34
459.11	8367.42
459.29	8479.76
459.48	8287.84
459.66	8308.90
459.84	8421.25
460.03	8589.77
460.21	8610.83
460.39	8416.57
460.57	8472.74
460.76	8580.40
460.94	8648.28
461.12	8610.83
461.31	8713.81
461.49	8692.75
461.67	8641.26
461.85	8795.73
462.04	8692.75
462.22	8905.74
462.40	8943.19
462.59	9034.47
462.77	9046.17
462.95	9100.00
463.13	8980.64
463.32	8922.12
463.50	9039.15
463.68	8926.80
463.86	9050.85
464.05	9011.06
464.23	8784.03
464.41	9102.34
464.59	8943.19
464.78	9118.73
464.96	9041.49
465.14	9142.13
465.32	9217.03
465.50	9413.63
465.69	9109.36
465.87	9387.89
466.05	9420.66
466.23	9151.49
466.41	9259.16
466.60	9350.44
466.78	9233.41
466.96	9254.48
467.14	9259.16
467.32	9308.31
467.51	9404.27
467.69	9233.41
467.87	9451.08
468.05	9802.16
468.23	9516.62
468.41	9521.30
468.60	9774.08
468.78	9661.73
468.96	9591.52
469.14	9687.48
469.32	9783.44
469.50	9371.50
469.69	9736.63
469.87	9792.80
470.05	9745.99
470.23	9968.34
470.41	9947.28
470.59	9895.78
470.77	9816.21
470.95	9937.91
471.14	10094.73
471.32	9886.42
471.50	10349.85
471.68	10352.19
471.86	10347.51
472.04	10457.51
472.22	10679.86
472.40	10106.43
472.58	10319.42
472.77	10277.29
472.95	10602.63
473.13	10904.56
473.31	10642.42
473.49	10462.19
473.67	10736.04
473.85	10853.06
474.03	10956.05
474.21	10846.04
474.39	11206.48
474.57	10965.41
474.75	11054.35
474.93	11279.04
475.12	11075.42
475.30	11335.21
475.48	11171.38
475.66	11337.56
475.84	11227.55
476.02	11412.45
476.20	11363.30
476.38	11611.40
476.56	11988.22
476.74	11667.57
476.92	11784.60
477.10	11941.41
477.28	12219.94
477.46	12044.40
477.64	12299.52
477.82	12327.60
478.00	12528.89
478.18	12496.12
478.36	12475.06
478.54	12812.09
478.72	12666.98
478.90	12917.42
479.08	13256.79
479.26	13114.02
479.44	13415.95
479.62	13224.03
479.80	13425.31
479.98	13397.23
480.16	13783.41
480.34	13406.59
480.52	14003.43
480.70	13832.57
480.88	13760.01
481.06	13891.08
481.24	14097.05
481.41	14326.42
481.59	14523.02
481.77	14480.89
481.95	14501.96
482.13	14640.05
482.31	14438.76
482.49	14974.75
482.67	14920.92
482.85	15026.24
483.03	15112.84
483.21	15407.75
483.39	15276.68
483.57	15321.15
483.74	15604.35
483.92	15398.38
484.10	15510.73
484.28	15920.32
484.46	16140.33
484.64	16339.28
484.82	16418.86
485.00	16369.71
485.18	16280.77
485.35	16276.09
485.53	16381.41
485.71	16159.06
485.89	16348.64
486.07	16587.38
486.25	16638.87
486.43	17130.38
486.61	17228.68
486.78	17509.55
486.96	17245.07
487.14	17565.72
487.32	17696.79
487.50	18099.36
487.68	18200.01
487.85	18476.19
488.03	18274.90
488.21	18721.95
488.39	18581.51
488.57	18668.11
488.75	18820.25
488.92	19112.81
489.10	19491.98
489.28	19583.26
489.46	19756.46
489.64	19513.05
489.81	20240.95
489.99	20065.41
490.17	20056.05
490.35	20442.24
490.53	20252.66
490.70	20692.68
490.88	20725.44
491.06	20606.08
491.24	20943.11
491.41	20957.16
491.59	20978.22
491.77	20772.25
491.95	21273.13
492.13	21146.74
492.30	21687.40
492.48	21769.32
492.66	22141.47
492.84	22001.04
493.01	21781.03
493.19	22185.94
493.37	22321.69
493.54	22104.02
493.72	22651.70
493.90	22721.92
494.08	22941.93
494.25	23110.45
494.43	23178.33
494.61	23426.42
494.79	23449.83
494.96	23449.83
495.14	23702.61
495.32	23597.28
495.49	23716.65
495.67	23616.01
495.85	24095.82
496.02	23960.06
496.20	24360.30
496.38	24453.92
496.55	24456.26
496.73	24896.28
496.91	24795.64
497.09	25020.33
497.26	25186.50
497.44	25001.60
497.62	25245.02
497.79	25483.75
497.97	25301.19
498.14	25373.75
498.32	25645.25
498.50	25778.66
498.67	25949.52
498.85	26235.06
499.03	26307.62
499.20	26511.25
499.38	26925.52
499.56	26536.99
499.73	26511.25
499.91	26377.84
500.08	26728.92
500.26	26338.05
500.44	26625.93
500.61	26923.18
500.79	26859.99
500.97	26693.81
501.14	27222.77
501.32	27215.75
501.49	27164.26
501.67	27182.98
501.84	27269.58
502.02	27967.06
502.20	27665.13
502.37	28060.68
502.55	28187.07
502.72	28030.26
502.90	27906.21
503.07	27587.89
503.25	28184.73
503.43	27974.08
503.60	28196.43
503.78	27920.25
503.95	28074.73
504.13	28261.97
504.30	28680.92
504.48	28694.97
504.65	29039.03
504.83	29118.60
505.01	29390.11
505.18	29263.72
505.36	29427.56
505.53	29493.09
505.71	30064.18
505.88	29565.65
506.06	29738.85
506.23	29589.05
506.41	29312.87
506.58	29816.08
506.76	30417.60
506.93	29965.88
507.11	29970.56
507.28	29832.47
507.46	30162.48
507.63	29998.65
507.81	30136.74
507.98	30127.38
508.16	30450.37
508.33	30621.23
508.50	30267.81
508.68	30939.54
508.85	31199.34
509.03	31213.38
509.20	30888.05
509.38	31264.88
509.55	31035.50
509.73	31295.30
509.90	31445.10
510.08	31931.93
510.25	31384.24
510.42	31583.19
510.60	31630.00
510.77	31854.69
510.95	32095.77
511.12	31931.93
511.30	32442.17
511.47	32484.30
511.64	32568.55
511.82	32430.46
511.99	32187.05
512.17	32364.93
512.34	32378.97
512.51	32947.72
512.69	32587.28
512.86	32739.41
513.04	33235.61
513.21	33116.24
513.38	32741.75
513.56	32697.28
513.73	32727.71
513.90	33338.59
514.08	32615.37
514.25	33284.76
514.43	33500.09
514.60	33235.61
514.77	33413.49
514.95	33607.75
515.12	33436.89
515.29	33593.71
515.47	33869.89
515.64	34005.64
515.81	33890.96
515.99	33895.64
516.16	33795.00
516.33	33528.17
516.51	33806.70
516.68	33469.66
516.85	33237.95
517.03	33706.05
517.20	33663.93
517.37	34307.57
517.54	34244.38
517.72	34691.42
517.89	33797.34
518.06	34143.74
518.24	34258.42
518.41	34583.76
518.58	34602.48
518.75	34492.47
518.93	35208.68
519.10	34738.23
519.27	35068.25
519.45	35405.28
519.62	35086.97
519.79	35365.49
519.96	35791.47
520.14	35302.30
520.31	35030.80
520.48	35548.06
520.65	35330.39
520.83	35777.43
521.00	35700.19
521.17	35800.83
521.34	36109.78
521.52	36065.31
521.69	36208.09
521.86	36495.97
522.03	36156.60
522.20	36105.10
522.38	36512.36
522.55	36397.67
522.72	36236.17
522.89	36449.16
523.07	36683.22
523.24	36919.61
523.41	36727.69
523.58	36940.68
523.75	37308.14
523.92	37266.01
524.10	37233.24
524.27	37581.98
524.44	37567.94
524.61	37390.06
524.78	37474.32
524.96	37446.23
525.13	37970.51
525.30	37942.42
525.47	38059.45
525.64	37507.08
525.81	37647.52
525.98	37277.71
526.16	37319.84
526.33	37308.14
526.50	37691.99
526.67	37212.18
526.84	37256.65
527.01	37638.15
527.18	37729.44
527.36	37872.21
527.53	38333.29
527.70	38600.12
527.87	38422.23
528.04	38384.79
528.21	38745.23
528.38	37963.49
528.55	38923.11
528.72	39196.95
528.89	38778.00
529.07	38806.08
529.24	38965.24
529.41	38902.04
529.58	38782.68
529.75	38689.06
529.92	38766.29
530.09	38951.20
530.26	39061.20
530.43	39159.50
530.60	39091.63
530.77	39030.77
530.94	39672.08
531.11	39627.61
531.28	39749.32
531.46	39735.27
531.63	39332.70
531.80	39522.29
531.97	39761.02
532.14	39356.11
532.31	38892.68
532.48	39672.08
532.65	39971.67
532.82	39648.68
532.99	40023.16
533.16	39871.03
533.33	39948.26
533.50	40079.33
533.67	40175.30
533.84	40055.93
534.01	39845.28
534.18	40285.30
534.35	40257.21
534.52	40535.74
534.69	40414.03
534.86	40484.25
535.03	40453.82
535.20	41036.61
535.37	40825.96
535.54	40793.20
535.71	40837.67
535.88	40893.84
536.05	40800.22
536.22	40655.11
536.38	40926.61
536.55	40964.06
536.72	40582.55
536.89	40837.67
537.06	40634.04
537.23	41010.87
537.40	41067.04
537.57	41137.26
537.74	41432.16
537.91	41467.27
538.08	41340.88
538.25	41298.75
538.42	41380.67
538.59	41511.74
538.75	41235.56
538.92	41251.94
539.09	41504.72
539.26	41460.25
539.43	41179.39
539.60	41179.39
539.77	41577.28
539.94	41621.75
540.11	41469.61
540.28	41368.97
540.44	41464.93
540.61	41605.36
540.78	41773.88
540.95	41205.13
541.12	41792.61
541.29	41881.55
541.46	42045.38
541.62	42195.18
541.79	41977.51
541.96	41469.61
542.13	41621.75
542.30	42234.97
542.47	42274.76
542.63	41844.10
542.80	41937.72
542.97	42794.36
543.14	42576.69
543.31	42829.46
543.48	42707.76
543.64	43295.23
543.81	42703.07
543.98	42693.71
544.15	42986.28
544.32	42962.87
544.48	43210.97
544.65	42731.16
544.82	42906.70
544.99	43133.73
545.16	43131.39
545.32	42806.06
545.49	43356.08
545.66	43533.96
545.83	43297.57
546.00	43232.04
546.16	43173.52
546.33	43477.79
546.50	42864.57
546.67	43353.74
546.83	42911.38
547.00	43494.18
547.17	43297.57
547.34	43215.65
547.50	43426.30
547.67	43899.09
547.84	43255.44
548.00	43438.00
548.17	43824.19
548.34	43700.14
548.51	44161.23
548.67	43295.23
548.84	44046.54
549.01	43480.13
549.18	43751.63
549.34	44074.63
549.51	43777.38
549.68	44322.72
549.84	44018.46
550.01	44519.33
550.18	44168.25
550.34	44079.31
550.51	44289.96
550.68	43990.37
550.84	43452.05
551.01	44559.12
551.18	43924.83
551.34	43805.47
551.51	44299.32
551.68	44343.79
551.84	44755.72
552.01	43899.09
552.18	44477.20
552.34	43962.28
552.51	44189.31
552.68	44098.03
552.84	44493.58
553.01	44542.74
553.18	44451.45
553.34	44212.72
553.51	44488.90
553.67	44706.57
553.84	44514.65
554.01	44952.33
554.17	45123.19
554.34	44891.48
554.51	44917.22
554.67	44870.41
554.84	44699.55
555.00	44753.38
555.17	44282.94
555.33	44959.35
555.50	45296.39
555.67	44692.53
555.83	45099.78
556.00	45301.07
556.16	45141.91
556.33	45006.16
556.50	45153.62
556.66	45055.31
556.83	44795.51
556.99	45015.52
557.16	45155.96
557.32	45134.89
557.49	44828.28
557.65	44861.05
557.82	45588.95
557.98	45429.80
558.15	45132.55
558.32	45357.24
558.48	44744.02
558.65	45083.40
558.81	45095.10
558.98	45191.06
559.14	45186.38
559.31	44926.58
559.47	45446.18
559.64	45413.41
559.80	45155.96
559.97	45404.05
560.13	44854.03
560.30	45467.25
560.46	45364.26
560.63	45656.83
560.79	45436.82
560.96	45577.25
561.12	45368.94
561.29	45408.73
561.45	45848.75
561.61	45624.06
561.78	45366.60
561.94	45008.50
562.11	45324.47
562.27	45340.86
562.44	45656.83
562.60	45586.61
562.77	45982.16
562.93	45717.68
563.10	45844.07
563.26	45251.92
563.42	45492.99
563.59	45549.17
563.75	45933.01
563.92	46012.59
564.08	45879.18
564.24	45771.52
564.41	45769.18
564.57	46134.30
564.74	45748.11
564.90	45909.61
565.07	46028.98
565.23	45975.14
565.39	45640.45
565.56	45521.08
565.72	45233.19
565.88	45743.43
566.05	45635.77
566.21	45724.71
566.38	45333.84
566.54	45698.96
566.70	45614.70
566.87	45928.33
567.03	45801.94
567.19	46274.73
567.36	45942.38
567.52	45731.73
567.68	45968.12
567.85	45832.37
568.01	46124.94
568.17	45923.65
568.34	46174.09
568.50	45764.49
568.66	45958.76
568.83	46330.90
568.99	45270.64
569.15	46003.23
569.32	45825.35
569.48	45801.94
569.64	46153.02
569.81	45815.99
569.97	45823.01
570.13	45998.55
570.30	46375.37
570.46	45434.48
570.62	45769.18
570.78	45287.03
570.95	45970.46
571.11	45724.71
571.27	45691.94
571.43	45855.78
571.60	46078.13
571.76	45778.54
571.92	46394.10
572.09	46099.19
572.25	45881.52
572.41	45757.47
572.57	46000.89
572.74	46394.10
572.90	46260.69
573.06	46260.69
573.22	46344.95
573.38	45837.05
573.55	46120.26
573.71	46419.84
573.87	46021.95
574.03	46136.64
574.20	46433.89
574.36	46115.58
574.52	45876.84
574.68	45954.08
574.84	46204.52
575.01	46267.71
575.17	45848.75
575.33	45734.07
575.49	46192.81
575.65	46492.40
575.82	46295.80
575.98	45975.14
576.14	46333.24
576.30	46267.71
576.46	45998.55
576.62	45778.54
576.79	45853.44
576.95	45750.45
577.11	46110.89
577.27	46417.50
577.43	46036.00
577.59	46075.79
577.75	45975.14
577.92	45649.81
578.08	45659.17
578.24	45764.49
578.40	46073.45
578.56	45984.51
578.72	46136.64
578.88	46550.91
579.04	46710.07
579.21	46078.13
579.37	46007.91
579.53	45963.44
579.69	46178.77
579.85	46075.79
580.01	46014.93
580.17	45916.63
580.33	46169.41
580.49	46368.35
580.65	46370.69
580.82	46258.35
580.98	45771.52
581.14	46246.65
581.30	46082.81
581.46	46447.93
581.62	46122.60
581.78	46389.42
581.94	46504.10
582.10	46447.93
582.26	46279.41
582.42	46742.84
582.58	46499.42
582.74	46532.19
582.90	46274.73
583.06	46623.47
583.22	46719.43
583.38	46382.40
583.54	46174.09
583.70	46195.15
583.86	46419.84
584.02	45907.27
584.18	46344.95
584.34	46183.45
584.50	46377.72
584.66	46073.45
584.82	46209.20
584.98	46057.06
585.14	46347.29
585.30	45743.43
585.46	46394.10
585.62	45909.61
585.78	46134.30
585.94	46108.55
586.10	46426.87
586.26	45844.07
586.42	46138.98
586.58	46700.71
586.74	46377.72
586.90	46382.40
587.06	45933.01
587.22	46342.61
587.38	46377.72
587.54	46522.83
587.70	46583.68
587.86	46211.54
588.02	46036.00
588.18	46375.37
588.34	45846.41
588.49	45675.55
588.65	45544.48
588.81	45474.27
588.97	45846.41
589.13	45659.17
589.29	46038.34
589.45	45921.31
589.61	46045.36
589.77	46410.48
589.93	46209.20
590.08	46110.89
