SpectraSuite Data File
++++++++++++++++++++++++++++++++++++
Date: Fri Oct 25 10:44:11 EDT 2013
User: price-jones
Dark Spectrum Present: No
Reference Spectrum Present: No
Number of Sampled Component Spectra: 1
Spectrometers: USB2+H05261
Integration Time (usec): 100000 (USB2+H05261)
Spectra Averaged: 1 (USB2+H05261)
Boxcar Smoothing: 0 (USB2+H05261)
Correct for Electrical Dark: No (USB2+H05261)
Strobe/Lamp Enabled: No (USB2+H05261)
Correct for Detector Non-linearity: No (USB2+H05261)
Correct for Stray Light: No (USB2+H05261)
Number of Pixels in Processed Spectrum: 2048
>>>>>Begin Processed Spectral Data<<<<<
365.73	170.86
365.92	170.86
366.12	170.86
366.32	60.85
366.52	0.00
366.72	18.72
366.91	56.17
367.11	0.00
367.31	95.96
367.51	49.15
367.70	23.41
367.90	23.41
368.10	32.77
368.30	86.60
368.49	81.92
368.69	23.41
368.89	35.11
369.09	46.81
369.28	65.54
369.48	46.81
369.68	81.92
369.87	65.54
370.07	119.37
370.27	110.01
370.47	208.31
370.66	444.70
370.86	402.57
371.06	433.00
371.25	491.51
371.45	418.96
371.65	383.85
371.84	437.68
372.04	489.17
372.24	531.30
372.44	454.06
372.63	615.56
372.83	528.96
373.03	561.73
373.22	496.19
373.42	491.51
373.62	519.60
373.81	524.28
374.01	564.07
374.21	596.84
374.40	603.86
374.60	557.05
374.79	566.41
374.99	561.73
375.19	589.82
375.38	552.37
375.58	578.11
375.78	543.00
375.97	561.73
376.17	676.41
376.37	550.03
376.56	631.94
376.76	627.26
376.95	585.13
377.15	664.71
377.35	575.77
377.54	653.01
377.74	662.37
377.93	662.37
378.13	636.63
378.33	669.39
378.52	685.78
378.72	624.92
378.91	767.70
379.11	671.73
379.31	674.07
379.50	669.39
379.70	781.74
379.89	709.18
380.09	610.88
380.28	629.60
380.48	690.46
380.68	631.94
380.87	683.44
381.07	758.33
381.26	751.31
381.46	664.71
381.65	709.18
381.85	688.12
382.04	751.31
382.24	727.91
382.43	709.18
382.63	751.31
382.83	758.33
383.02	868.34
383.22	809.83
383.41	732.59
383.61	788.76
383.80	779.40
384.00	748.97
384.19	791.10
384.39	763.01
384.58	786.42
384.78	788.76
384.97	802.80
385.17	849.61
385.36	760.67
385.56	858.98
385.75	812.17
385.95	788.76
386.14	828.55
386.34	793.44
386.53	800.46
386.72	875.36
386.92	868.34
387.11	844.93
387.31	992.39
387.50	851.96
387.70	816.85
387.89	887.06
388.09	901.11
388.28	821.53
388.48	936.21
388.67	802.80
388.86	926.85
389.06	936.21
389.25	922.17
389.45	1053.24
389.64	992.39
389.84	954.94
390.03	1043.88
390.22	1053.24
390.42	917.49
390.61	950.26
390.81	968.98
391.00	1076.65
391.19	1093.03
391.39	1102.39
391.58	1081.33
391.78	1001.75
391.97	1039.20
392.16	1100.05
392.36	1018.13
392.55	957.28
392.75	1006.43
392.94	987.71
393.13	1041.54
393.33	1027.50
393.52	1001.75
393.71	1076.65
393.91	1050.90
394.10	1125.80
394.29	1083.67
394.49	1198.35
394.68	1221.76
394.88	1221.76
395.07	1231.12
395.26	1203.04
395.46	1172.61
395.65	1181.97
395.84	1224.10
396.04	1301.34
396.23	1219.42
396.42	1172.61
396.62	1167.93
396.81	1315.38
397.00	1224.10
397.19	1322.40
397.39	1338.79
397.58	1266.23
397.77	1336.45
397.97	1481.56
398.16	1420.71
398.35	1364.53
398.55	1453.47
398.74	1481.56
398.93	1533.05
399.12	1500.28
399.32	1530.71
399.51	1481.56
399.70	1535.39
399.90	1638.38
400.09	1544.75
400.28	1614.97
400.47	1659.44
400.67	1593.90
400.86	1582.20
401.05	1626.67
401.24	1657.10
401.44	1556.46
401.63	1715.61
401.82	1802.21
402.01	1713.27
402.21	1746.04
402.40	1732.00
402.59	1827.96
402.78	1755.40
402.97	1827.96
403.17	1816.26
403.36	1739.02
403.55	1813.92
403.74	1921.58
403.93	1816.26
404.13	1820.94
404.32	1853.70
404.51	1799.87
404.70	1898.17
404.89	1818.60
405.09	1998.82
405.28	1916.90
405.47	1933.28
405.66	2017.54
405.85	1982.43
406.05	1856.04
406.24	1994.14
406.43	2050.31
406.62	2106.48
406.81	2087.76
407.00	2040.95
407.20	1952.01
407.39	2111.16
407.58	2104.14
407.77	2155.63
407.96	2256.28
408.15	2174.36
408.34	2160.31
408.54	2310.11
408.73	2284.36
408.92	2305.43
409.11	2298.41
409.30	2284.36
409.49	2223.51
409.68	2235.21
409.87	2249.25
410.07	2319.47
410.26	2406.07
410.45	2422.45
410.64	2513.74
410.83	2532.46
411.02	2473.95
411.21	2593.31
411.40	2469.27
411.59	2705.66
411.78	2626.08
411.98	2656.51
412.17	2644.81
412.36	2530.12
412.55	2764.17
412.74	2602.68
412.93	2787.58
413.12	2635.44
413.31	2799.28
413.50	2808.64
413.69	2715.02
413.88	2930.35
414.07	2855.45
414.26	2949.08
414.45	2946.73
414.64	2871.84
414.83	3075.46
415.02	2986.52
415.22	3047.38
415.41	3204.19
415.60	3293.13
415.79	3155.04
415.98	3241.64
416.17	3353.99
416.36	3295.47
416.55	3276.75
416.74	3330.58
416.93	3199.51
417.12	3346.97
417.31	3229.94
417.50	3328.24
417.69	3447.61
417.88	3363.35
418.07	3428.88
418.26	3370.37
418.45	3487.40
418.64	3581.02
418.83	3456.97
419.02	3482.72
419.21	3562.30
419.39	3721.45
419.58	3452.29
419.77	3398.46
419.96	3634.85
420.15	3653.58
420.34	3653.58
420.53	3826.78
420.72	3784.65
420.91	3719.11
421.10	3754.22
421.29	3854.86
421.48	3819.75
421.67	3943.80
421.86	3826.78
422.05	3838.48
422.24	3716.77
422.43	3646.55
422.61	3925.08
422.80	3871.25
422.99	3786.99
423.18	3941.46
423.37	3957.85
423.56	3805.71
423.75	3955.51
423.94	3908.69
424.13	3705.07
424.32	3786.99
424.50	4039.76
424.69	3969.55
424.88	4028.06
425.07	3911.04
425.26	3875.93
425.45	3878.27
425.64	3896.99
425.83	3957.85
426.01	4058.49
426.20	3971.89
426.39	4007.00
426.58	3927.42
426.77	3845.50
426.96	4011.68
427.15	3885.29
427.33	3911.04
427.52	3985.93
427.71	4035.08
427.90	4105.30
428.09	4278.50
428.28	4147.43
428.46	4140.41
428.65	4163.81
428.84	4121.68
429.03	4332.33
429.22	4016.36
429.40	4196.58
429.59	4187.22
429.78	3918.06
429.97	4004.66
430.16	3990.61
430.34	4112.32
430.53	4058.49
430.72	4290.20
430.91	4311.27
431.10	4297.22
431.28	4521.92
431.47	4568.73
431.66	4765.33
431.85	4505.53
432.03	4540.64
432.22	4571.07
432.41	4550.00
432.60	4561.70
432.79	4744.27
432.97	4573.41
433.16	4753.63
433.35	4545.32
433.54	4524.26
433.72	4622.56
433.91	4568.73
434.10	4725.54
434.28	4674.05
434.47	4854.27
434.66	4870.65
434.85	4894.06
435.03	4905.76
435.22	4971.30
435.41	5095.35
435.59	5020.45
435.78	4971.30
435.97	5135.14
436.16	4980.66
436.34	5078.96
436.53	5142.16
436.72	5294.29
436.90	5043.85
437.09	5252.16
437.28	5123.43
437.46	5268.55
437.65	5109.39
437.84	5100.03
438.02	5116.41
438.21	5156.20
438.40	5067.26
438.58	5451.11
438.77	5462.81
438.96	5392.59
439.14	5533.03
439.33	5547.07
439.52	5631.33
439.70	5495.58
439.89	5673.46
440.08	5699.20
440.26	5675.80
440.45	5708.57
440.63	5909.85
440.82	5881.77
441.01	5856.02
441.19	6010.50
441.38	6256.25
441.57	6012.84
441.75	6150.93
441.94	6289.02
442.12	6197.74
442.31	6277.32
442.50	6277.32
442.68	6282.00
442.87	6356.90
443.05	6366.26
443.24	6548.82
443.43	6352.21
443.61	6604.99
443.80	6619.04
443.98	6223.48
444.17	6223.48
444.35	6349.87
444.54	6441.15
444.73	6345.19
444.91	6366.26
445.10	6576.91
445.28	6443.49
445.47	6174.33
445.65	6466.90
445.84	6450.52
446.02	6593.29
446.21	6469.24
446.39	6523.07
446.58	6576.91
446.77	6689.25
446.95	6480.94
447.14	6712.66
447.32	6633.08
447.51	6593.29
447.69	6747.76
447.88	6703.29
448.06	6590.95
448.25	6740.74
448.43	6752.45
448.62	6675.21
448.80	6628.40
448.99	6839.05
449.17	6803.94
449.36	6806.28
449.54	7063.74
449.73	7016.93
449.91	7211.19
450.10	6960.75
450.28	7232.26
450.46	7087.14
450.65	7192.47
450.83	7159.70
451.02	7220.55
451.20	7143.32
451.39	7255.66
451.57	7148.00
451.76	7157.36
451.94	7190.13
452.13	7283.75
452.31	7353.96
452.49	7101.19
452.68	7274.38
452.86	7166.72
453.05	7253.32
453.23	7375.03
453.42	7332.90
453.60	7487.37
453.78	7370.35
453.97	7290.77
454.15	7152.68
454.34	7281.41
454.52	7559.93
454.70	7578.65
454.89	7335.24
455.07	7524.82
455.26	7728.45
455.44	7573.97
455.62	7714.41
455.81	7571.63
455.99	7838.45
456.17	7658.23
456.36	7871.22
456.54	7756.54
456.73	7815.05
456.91	8056.12
457.09	8194.22
457.28	8177.83
457.46	8046.76
457.64	8180.17
457.83	8093.57
458.01	7953.14
458.19	8205.92
458.38	7988.25
458.56	8351.03
458.74	8182.51
458.93	8297.20
459.11	8339.33
459.29	8248.05
459.48	8308.90
459.66	8404.86
459.84	8355.71
460.03	8369.76
460.21	8374.44
460.39	8351.03
460.57	8437.63
460.76	8320.60
460.94	8627.21
461.12	8510.19
461.31	8854.25
461.49	8645.94
461.67	8608.49
461.85	8748.92
462.04	8774.67
462.22	8868.29
462.40	8868.29
462.59	8891.70
462.77	8903.40
462.95	8856.59
463.13	8837.86
463.32	8868.29
463.50	9081.28
463.68	9013.40
463.86	9048.51
464.05	8655.30
464.23	8870.63
464.41	9062.55
464.59	8802.75
464.78	9158.52
464.96	9160.86
465.14	9195.96
465.32	8966.59
465.50	9249.80
465.69	9238.09
465.87	9207.67
466.05	9076.60
466.23	9102.34
466.41	9121.07
466.60	9383.21
466.78	9336.40
466.96	9345.76
467.14	9266.18
467.32	9270.86
467.51	9235.75
467.69	9226.39
467.87	9455.76
468.05	9394.91
468.23	9345.76
468.41	9537.68
468.60	9673.43
468.78	9558.75
468.96	9565.77
469.14	9568.11
469.32	9647.69
469.50	9671.09
469.69	9783.44
469.87	9750.67
470.05	9731.95
470.23	9731.95
470.41	9591.52
470.59	9652.37
470.77	9895.78
470.95	9886.42
471.14	10134.52
471.32	10015.15
471.50	10129.84
471.68	10265.59
471.86	10377.94
472.04	10399.00
472.22	10539.43
472.40	10279.63
472.58	10352.19
472.77	10382.62
472.95	10569.86
473.13	10794.55
473.31	10544.11
473.49	10466.88
473.67	10717.31
473.85	10614.33
474.03	10663.48
474.21	11037.97
474.39	11044.99
474.57	10920.94
474.75	11133.93
474.93	11061.37
475.12	11318.83
475.30	11056.69
475.48	11283.72
475.66	11367.98
475.84	11087.12
476.02	11218.19
476.20	11309.47
476.38	11590.33
476.56	12203.55
476.74	11957.80
476.92	11789.28
477.10	11913.33
477.28	12013.97
477.46	12079.50
477.64	12166.10
477.82	12388.46
478.00	12718.47
478.18	12358.03
478.36	12517.18
478.54	12688.04
478.72	12568.68
478.90	12812.09
479.08	13071.89
479.26	13013.38
479.44	13252.11
479.62	13099.98
479.80	13256.79
479.98	13310.63
480.16	13610.22
480.34	13429.99
480.52	13909.80
480.70	13537.66
480.88	13699.16
481.06	13760.01
481.24	13928.53
481.41	14380.25
481.59	14080.66
481.77	14382.59
481.95	14310.04
482.13	14506.64
482.31	14295.99
482.49	14789.85
482.67	15063.69
482.85	15126.88
483.03	15145.61
483.21	15145.61
483.39	15059.01
483.57	15234.55
483.74	15295.40
483.92	15761.17
484.10	15550.52
484.28	15939.05
484.46	16205.87
484.64	16362.69
484.82	15871.17
485.00	16299.49
485.18	16444.60
485.35	16442.26
485.53	16255.02
485.71	16257.36
485.89	16498.44
486.07	16468.01
486.25	16549.93
486.43	16952.50
486.61	17156.13
486.78	17195.92
486.96	17184.21
487.14	17596.15
487.32	17558.70
487.50	18197.67
487.68	18012.76
487.85	18382.57
488.03	18417.68
488.21	18689.18
488.39	18773.44
488.57	18443.42
488.75	18792.16
488.92	18768.76
489.10	19318.78
489.28	19295.38
489.46	19721.35
489.64	19597.31
489.81	20046.69
489.99	20130.95
490.17	20128.61
490.35	20353.30
490.53	20311.17
490.70	20428.20
490.88	20341.60
491.06	20570.97
491.24	20568.63
491.41	20437.56
491.59	20938.43
491.77	20762.89
491.95	21216.96
492.13	21348.03
492.30	21408.88
492.48	21589.10
492.66	21982.31
492.84	21820.81
493.01	22061.89
493.19	21865.28
493.37	22019.76
493.54	22256.15
493.72	22637.66
493.90	22623.62
494.08	22740.64
494.25	23473.23
494.43	22860.01
494.61	23417.06
494.79	23428.76
494.96	23342.16
495.14	23445.15
495.32	23740.05
495.49	23639.41
495.67	23709.63
495.85	24063.05
496.02	23939.00
496.20	24449.24
496.38	24184.76
496.55	24503.07
496.73	25177.14
496.91	24851.81
497.09	25287.15
497.26	25088.20
497.44	24786.27
497.62	25193.53
497.79	25390.13
497.97	25254.38
498.14	25303.53
498.32	25516.52
498.50	25507.16
498.67	26059.52
498.85	26089.95
499.03	26321.66
499.20	26089.95
499.38	26237.41
499.56	26338.05
499.73	26476.14
499.91	26354.43
500.08	26714.87
500.26	26279.54
500.44	26691.47
500.61	26272.51
500.79	27007.44
500.97	26731.26
501.14	27030.85
501.32	26827.22
501.49	27262.56
501.67	27197.02
501.84	27075.32
502.02	27466.19
502.20	27716.62
502.37	28020.89
502.55	27838.33
502.72	28030.26
502.90	28177.71
503.07	28041.96
503.25	28587.30
503.43	28198.77
503.60	28098.13
503.78	28037.28
503.95	28102.81
504.13	28694.97
504.30	28584.96
504.48	28243.24
504.65	28936.04
504.83	28917.32
505.01	29221.59
505.18	29261.38
505.36	29415.85
505.53	29528.20
505.71	29827.79
505.88	29837.15
506.06	29156.05
506.23	29406.49
506.41	29731.83
506.58	30162.48
506.76	29764.59
506.93	30204.61
507.11	30309.94
507.28	30213.98
507.46	29668.63
507.63	30068.86
507.81	30157.80
507.98	29713.10
508.16	30632.93
508.33	30534.63
508.50	30756.98
508.68	30684.42
508.85	31047.21
509.03	31087.00
509.20	31082.31
509.38	30969.97
509.55	31040.18
509.73	31431.05
509.90	31557.44
510.08	31124.44
510.25	31206.36
510.42	31690.85
510.60	31290.62
510.77	31758.73
510.95	32250.24
511.12	32098.11
511.30	31992.78
511.47	32519.40
511.64	32528.77
511.82	32348.54
511.99	31838.31
512.17	32411.74
512.34	32044.27
512.51	32264.28
512.69	32519.40
512.86	32411.74
513.04	32987.51
513.21	33010.92
513.38	32540.47
513.56	33296.46
513.73	32896.23
513.90	32694.94
514.08	32556.85
514.25	33207.52
514.43	33294.12
514.60	33574.98
514.77	33223.90
514.95	33502.43
515.12	33572.64
515.29	33560.94
515.47	34057.14
515.64	33897.98
515.81	33977.56
515.99	34242.04
516.16	33809.04
516.33	33518.81
516.51	34040.75
516.68	32854.10
516.85	33373.70
517.03	33514.13
517.20	33830.10
517.37	33926.07
517.54	34092.24
517.72	34267.78
517.89	34050.11
518.06	34024.37
518.24	33883.94
518.41	34036.07
518.58	34443.32
518.75	34668.02
518.93	34438.64
519.10	35042.50
519.27	34923.13
519.45	35262.51
519.62	35204.00
519.79	35531.67
519.96	35157.19
520.14	35679.13
520.31	35274.21
520.48	35524.65
520.65	35648.70
520.83	35901.48
521.00	35864.03
521.17	35833.60
521.34	36016.16
521.52	36091.06
521.69	36105.10
521.86	36378.95
522.03	36524.06
522.20	36194.04
522.38	36383.63
522.55	36589.59
522.72	35969.35
522.89	36336.82
523.07	36538.10
523.24	36355.54
523.41	37090.47
523.58	36732.37
523.75	37177.07
523.92	37263.67
524.10	37542.19
524.27	37474.32
524.44	37684.97
524.61	37317.50
524.78	37385.38
524.96	37516.45
525.13	37776.25
525.30	38059.45
525.47	37865.19
525.64	37612.41
525.81	37380.70
525.98	37727.10
526.16	37792.63
526.33	37041.32
526.50	36996.85
526.67	37340.91
526.84	37371.33
527.01	37486.02
527.18	37570.28
527.36	38157.75
527.53	38244.35
527.70	38382.45
527.87	38405.85
528.04	37752.84
528.21	38260.74
528.38	38754.59
528.55	38504.15
528.72	38770.97
528.89	38857.57
529.07	39210.99
529.24	38501.81
529.41	38646.93
529.58	38684.37
529.75	38525.22
529.92	39271.85
530.09	38990.98
530.26	39494.20
530.43	39491.86
530.60	38920.77
530.77	39070.56
530.94	39484.84
531.11	39503.56
531.28	39770.38
531.46	39594.84
531.63	39697.83
531.80	39679.10
531.97	39868.69
532.14	39613.57
532.31	39517.60
532.48	39388.88
532.65	39346.75
532.82	39744.64
532.99	39974.01
533.16	39587.82
533.33	40201.04
533.50	40009.12
533.67	40388.28
533.84	39775.06
534.01	40158.91
534.18	40086.36
534.35	39969.33
534.52	40229.13
534.69	40376.58
534.86	40591.91
535.03	40259.55
535.20	40360.20
535.37	41137.26
535.54	41064.70
535.71	40659.79
535.88	40884.48
536.05	40659.79
536.22	40559.14
536.38	40575.53
536.55	40683.19
536.72	40587.23
536.89	40247.85
537.06	40610.64
537.23	40840.01
537.40	40685.53
537.57	41006.19
537.74	41067.04
537.91	41558.55
538.08	41357.27
538.25	40910.22
538.42	41273.01
538.59	41394.71
538.75	40807.24
538.92	41074.06
539.09	41478.97
539.26	41553.87
539.43	41588.98
539.60	41366.63
539.77	41542.17
539.94	41331.52
540.11	41067.04
540.28	41766.86
540.44	41764.52
540.61	41553.87
540.78	41287.05
540.95	41434.50
541.12	41748.14
541.29	41785.58
541.46	41392.37
541.62	41972.83
541.79	42281.78
541.96	41743.45
542.13	41883.89
542.30	41727.07
542.47	42033.68
542.63	41853.46
542.80	42497.11
542.97	42937.13
543.14	42759.25
543.31	42539.24
543.48	42440.93
543.64	43367.79
543.81	42983.94
543.98	42960.53
544.15	42967.55
544.32	43030.75
544.48	42843.51
544.65	42637.54
544.82	43096.28
544.99	42759.25
545.16	42796.70
545.32	42799.04
545.49	43501.20
545.66	43398.21
545.83	43578.43
546.00	43709.50
546.16	43182.88
546.33	43030.75
546.50	43042.45
546.67	43360.76
546.83	42981.60
547.00	43313.95
547.17	43323.32
547.34	43349.06
547.50	43117.35
547.67	43732.91
547.84	43290.55
548.00	43449.70
548.17	43973.98
548.34	43618.22
548.51	43903.77
548.67	43831.21
548.84	43599.50
549.01	44240.81
549.18	43648.65
549.34	44023.14
549.51	44418.69
549.68	44194.00
549.84	43997.39
550.01	44296.98
550.18	43880.36
550.34	44245.49
550.51	43690.78
550.68	43641.63
550.84	43847.60
551.01	43852.28
551.18	44179.95
551.34	43913.13
551.51	44645.72
551.68	44247.83
551.84	44619.97
552.01	43962.28
552.18	44432.73
552.34	44325.07
552.51	43985.69
552.68	44231.44
552.84	44619.97
553.01	44828.28
553.18	44126.12
553.34	44542.74
553.51	44320.38
553.67	44250.17
553.84	44753.38
554.01	44844.66
554.17	44823.60
554.34	45151.27
554.51	44921.90
554.67	45219.15
554.84	44772.11
555.00	44589.55
555.17	44942.97
555.33	45081.06
555.50	45043.61
555.67	44594.23
555.83	44783.81
556.00	44942.97
556.16	45361.92
556.33	45139.57
556.50	44615.29
556.66	45392.35
556.83	44685.51
556.99	45036.59
557.16	45127.87
557.32	45205.11
557.49	44940.63
557.65	44891.48
557.82	45132.55
557.98	45647.47
558.15	44884.45
558.32	45041.27
558.48	45340.86
558.65	45200.43
558.81	45282.34
558.98	45052.97
559.14	44760.40
559.31	45083.40
559.47	45048.29
559.64	45514.06
559.80	45521.08
559.97	45319.79
560.13	45074.04
560.30	45347.88
560.46	45488.31
560.63	45265.96
560.79	45783.22
560.96	45595.98
561.12	45289.37
561.29	45897.91
561.45	45113.83
561.61	45076.38
561.78	45801.94
561.94	45294.05
562.11	45329.16
562.27	45460.23
562.44	45406.39
562.60	45808.96
562.77	45694.28
562.93	45380.65
563.10	45825.35
563.26	45202.77
563.42	45867.48
563.59	45392.35
563.75	45530.44
563.92	46246.65
564.08	45867.48
564.24	45895.56
564.41	46059.40
564.57	45591.30
564.74	45406.39
564.90	45490.65
565.07	45961.10
565.23	45579.59
565.39	45399.37
565.56	46059.40
565.72	45481.29
565.88	45638.11
566.05	45705.98
566.21	45869.82
566.38	45572.57
566.54	45834.71
566.70	46129.62
566.87	46546.23
567.03	46007.91
567.19	46270.05
567.36	45563.21
567.52	45701.30
567.68	45921.31
567.85	45614.70
568.01	46052.38
568.17	45462.57
568.34	45986.85
568.50	46148.34
568.66	46024.29
568.83	46335.59
568.99	45787.90
569.15	45925.99
569.32	45567.89
569.48	45322.13
569.64	46043.02
569.81	46071.10
569.97	46005.57
570.13	46106.21
570.30	46120.26
570.46	45778.54
570.62	45457.88
570.78	45603.00
570.95	45710.66
571.11	45968.12
571.27	45823.01
571.43	45759.81
571.60	45722.37
571.76	46080.47
571.92	45710.66
572.09	45961.10
572.25	45874.50
572.41	46251.33
572.57	46525.17
572.74	46312.18
572.90	46195.15
573.06	46295.80
573.22	46167.07
573.38	45673.21
573.55	46108.55
573.71	46653.90
573.87	46181.11
574.03	45963.44
574.20	46036.00
574.36	45888.54
574.52	45907.27
574.68	46033.66
574.84	45745.77
575.01	46380.06
575.17	46134.30
575.33	45785.56
575.49	45820.67
575.65	46389.42
575.82	46401.12
575.98	45923.65
576.14	46068.76
576.30	46337.93
576.46	46061.74
576.62	45792.58
576.79	46169.41
576.95	45652.15
577.11	46066.42
577.27	46246.65
577.43	46335.59
577.59	45993.87
577.75	45858.12
577.92	46017.27
578.08	45858.12
578.24	45862.80
578.40	46340.27
578.56	46340.27
578.72	46190.47
578.88	46342.61
579.04	46403.46
579.21	46267.71
579.37	46405.80
579.53	46263.03
579.69	45750.45
579.85	46068.76
580.01	46438.57
580.17	46106.21
580.33	46520.49
580.49	46150.68
580.65	46541.55
580.82	46178.77
580.98	46260.69
581.14	46115.58
581.30	46389.42
581.46	46471.34
581.62	46686.67
581.78	46096.85
581.94	46553.26
582.10	46412.82
582.26	46286.43
582.42	46504.10
582.58	46401.12
582.74	46195.15
582.90	46199.83
583.06	46848.16
583.22	46171.75
583.38	46656.24
583.54	46237.28
583.70	46157.70
583.86	46660.92
584.02	46010.25
584.18	46358.99
584.34	46134.30
584.50	45996.21
584.66	46602.41
584.82	45895.56
584.98	46590.70
585.14	46361.33
585.30	46178.77
585.46	46349.63
585.62	46073.45
585.78	46106.21
585.94	46148.34
586.10	46071.10
586.26	46080.47
586.42	46518.15
586.58	46693.69
586.74	46534.53
586.90	46108.55
587.06	46078.13
587.22	46775.61
587.38	46052.38
587.54	46417.50
587.70	46452.61
587.86	46419.84
588.02	46171.75
588.18	46021.95
588.34	46436.23
588.49	45736.41
588.65	45570.23
588.81	45668.53
588.97	46157.70
589.13	45914.29
589.29	46176.43
589.45	46340.27
589.61	46127.28
589.77	46389.42
589.93	46515.81
