SpectraSuite Data File
++++++++++++++++++++++++++++++++++++
Date: Fri Oct 25 10:44:50 EDT 2013
User: price-jones
Dark Spectrum Present: No
Reference Spectrum Present: No
Number of Sampled Component Spectra: 1
Spectrometers: USB2+H05261
Integration Time (usec): 100000 (USB2+H05261)
Spectra Averaged: 1 (USB2+H05261)
Boxcar Smoothing: 0 (USB2+H05261)
Correct for Electrical Dark: No (USB2+H05261)
Strobe/Lamp Enabled: No (USB2+H05261)
Correct for Detector Non-linearity: No (USB2+H05261)
Correct for Stray Light: No (USB2+H05261)
Number of Pixels in Processed Spectrum: 2048
>>>>>Begin Processed Spectral Data<<<<<
365.73	110.01
365.92	110.01
366.12	110.01
366.32	107.66
366.52	44.47
366.72	65.54
366.91	16.38
367.11	32.77
367.31	32.77
367.51	23.41
367.70	86.60
367.90	0.00
368.10	35.11
368.30	84.26
368.49	51.49
368.69	124.05
368.89	81.92
369.09	16.38
369.28	7.02
369.48	25.75
369.68	93.62
369.87	86.60
370.07	98.30
370.27	58.51
370.47	224.69
370.66	311.29
370.86	369.80
371.06	425.98
371.25	475.13
371.45	411.93
371.65	493.85
371.84	458.74
372.04	407.25
372.24	477.47
372.44	489.17
372.63	411.93
372.83	458.74
373.03	414.27
373.22	404.91
373.42	538.32
373.62	498.53
373.81	507.90
374.01	472.79
374.21	547.69
374.40	493.85
374.60	524.28
374.79	538.32
374.99	608.54
375.19	493.85
375.38	653.01
375.58	561.73
375.78	547.69
375.97	538.32
376.17	531.30
376.37	592.16
376.56	526.62
376.76	610.88
376.95	613.22
377.15	627.26
377.35	585.13
377.54	624.92
377.74	641.31
377.93	678.76
378.13	620.24
378.33	606.20
378.52	610.88
378.72	643.65
378.91	596.84
379.11	547.69
379.31	674.07
379.50	524.28
379.70	603.86
379.89	669.39
380.09	636.63
380.28	592.16
380.48	650.67
380.68	678.76
380.87	657.69
381.07	725.57
381.26	723.23
381.46	638.97
381.65	624.92
381.85	645.99
382.04	741.95
382.24	704.50
382.43	681.10
382.63	657.69
382.83	676.41
383.02	699.82
383.22	718.54
383.41	664.71
383.61	603.86
383.80	763.01
384.00	763.01
384.19	697.48
384.39	772.38
384.58	751.31
384.78	739.61
384.97	718.54
385.17	774.72
385.36	744.29
385.56	732.59
385.75	702.16
385.95	800.46
386.14	655.35
386.34	791.10
386.53	699.82
386.72	734.93
386.92	816.85
387.11	866.00
387.31	866.00
387.50	744.29
387.70	746.63
387.89	809.83
388.09	755.99
388.28	802.80
388.48	826.21
388.67	863.66
388.86	896.43
389.06	847.27
389.25	912.81
389.45	896.43
389.64	950.26
389.84	910.47
390.03	870.68
390.22	910.47
390.42	828.55
390.61	957.28
390.81	894.08
391.00	957.28
391.19	896.43
391.39	887.06
391.58	966.64
391.78	1032.18
391.97	936.21
392.16	952.60
392.36	987.71
392.55	973.66
392.75	938.55
392.94	912.81
393.13	938.55
393.33	950.26
393.52	1032.18
393.71	966.64
393.91	971.32
394.10	1029.84
394.29	1046.22
394.49	1048.56
394.68	1118.78
394.88	1097.71
395.07	1088.35
395.26	1069.62
395.46	999.41
395.65	1076.65
395.84	1102.39
396.04	1116.44
396.23	1172.61
396.42	1121.12
396.62	1088.35
396.81	1069.62
397.00	1158.57
397.19	1125.80
397.39	1207.72
397.58	1226.44
397.77	1247.51
397.97	1151.54
398.16	1338.79
398.35	1338.79
398.55	1238.14
398.74	1245.16
398.93	1296.66
399.12	1427.73
399.32	1343.47
399.51	1277.93
399.70	1418.36
399.90	1343.47
400.09	1357.51
400.28	1394.96
400.47	1416.02
400.67	1411.34
400.86	1523.69
401.05	1509.65
401.24	1430.07
401.44	1458.15
401.63	1544.75
401.82	1514.33
402.01	1425.39
402.21	1523.69
402.40	1661.78
402.59	1490.92
402.78	1540.07
402.97	1650.08
403.17	1631.35
403.36	1586.88
403.55	1612.63
403.74	1631.35
403.93	1650.08
404.13	1666.46
404.32	1647.74
404.51	1652.42
404.70	1802.21
404.89	1659.44
405.09	1741.36
405.28	1645.40
405.47	1636.03
405.66	1668.80
405.85	1795.19
406.05	1682.85
406.24	1813.92
406.43	1804.55
406.62	1788.17
406.81	1872.43
407.00	1727.32
407.20	1895.83
407.39	2008.18
407.58	1895.83
407.77	1830.30
407.96	1895.83
408.15	1980.09
408.34	1912.22
408.54	1909.88
408.73	2022.22
408.92	1998.82
409.11	1982.43
409.30	2076.06
409.49	2090.10
409.68	2057.33
409.87	2008.18
410.07	2115.84
410.26	2153.29
410.45	2143.93
410.64	2129.89
410.83	2113.50
411.02	2165.00
411.21	2338.20
411.40	2218.83
411.59	2373.30
411.78	2279.68
411.98	2349.90
412.17	2370.96
412.36	2296.07
412.55	2385.01
412.74	2450.54
412.93	2483.31
413.12	2415.43
413.31	2595.65
413.50	2450.54
413.69	2537.14
413.88	2537.14
414.07	2750.13
414.26	2679.91
414.45	2555.86
414.64	2703.32
414.83	2637.78
415.02	2689.28
415.22	2771.19
415.41	2876.52
415.60	2857.79
415.79	2839.07
415.98	2951.42
416.17	2874.18
416.36	2857.79
416.55	2878.86
416.74	2949.08
416.93	2881.20
417.12	2920.99
417.31	2977.16
417.50	3077.80
417.69	3138.66
417.88	3040.36
418.07	3126.96
418.26	3098.87
418.45	3082.49
418.64	3377.39
418.83	3297.81
419.02	3234.62
419.21	3267.39
419.39	3248.66
419.58	3183.13
419.77	3288.45
419.96	3213.56
420.15	3307.18
420.34	3421.86
420.53	3440.59
420.72	3494.42
420.91	3447.61
421.10	3318.88
421.29	3522.51
421.48	3478.04
421.67	3496.76
421.86	3393.78
422.05	3349.31
422.24	3276.75
422.43	3545.91
422.61	3492.08
422.80	3510.80
422.99	3564.64
423.18	3632.51
423.37	3510.80
423.56	3602.08
423.75	3482.72
423.94	3545.91
424.13	3379.73
424.32	3346.97
424.50	3716.77
424.69	3646.55
424.88	3779.97
425.07	3585.70
425.26	3475.70
425.45	3651.24
425.64	3653.58
425.83	3569.32
426.01	3625.49
426.20	3686.34
426.39	3667.62
426.58	3637.19
426.77	3485.06
426.96	3545.91
427.15	3531.87
427.33	3611.45
427.52	3632.51
427.71	3798.69
427.90	3847.84
428.09	3684.00
428.28	3801.03
428.46	3740.18
428.65	3896.99
428.84	3899.33
429.03	3899.33
429.22	3754.22
429.40	3744.86
429.59	3733.15
429.78	3749.54
429.97	3555.27
430.16	3721.45
430.34	3847.84
430.53	3754.22
430.72	3831.46
430.91	3875.93
431.10	3894.65
431.28	4032.74
431.47	4189.56
431.66	4180.20
431.85	4037.42
432.03	4131.05
432.22	4227.01
432.41	4280.84
432.60	4327.65
432.79	4236.37
432.97	4271.48
433.16	4217.65
433.35	4161.47
433.54	4208.28
433.72	4269.14
433.91	4208.28
434.10	4402.55
434.28	4421.27
434.47	4482.13
434.66	4402.55
434.85	4484.47
435.03	4425.95
435.22	4505.53
435.41	4643.62
435.59	4451.70
435.78	4695.11
435.97	4652.98
436.16	4732.56
436.34	4599.15
436.53	4744.27
436.72	4599.15
436.90	4606.17
437.09	4699.80
437.28	4758.31
437.46	4657.67
437.65	4870.65
437.84	4734.90
438.02	4760.65
438.21	4692.77
438.40	4737.24
438.58	4730.22
438.77	4901.08
438.96	4929.17
439.14	5069.60
439.33	5022.79
439.52	5097.69
439.70	5228.76
439.89	5226.42
440.08	5268.55
440.26	5371.53
440.45	5268.55
440.63	5305.99
440.82	5460.47
441.01	5343.44
441.19	5467.49
441.38	5483.88
441.57	5399.62
441.75	5582.18
441.94	5689.84
442.12	5607.92
442.31	5582.18
442.50	5668.78
442.68	5769.42
442.87	5781.12
443.05	5792.83
443.24	5940.28
443.43	5799.85
443.61	5914.53
443.80	6155.61
443.98	5830.27
444.17	5664.10
444.35	5795.17
444.54	5820.91
444.73	5870.06
444.91	5907.51
445.10	5827.93
445.28	5947.30
445.47	5689.84
445.65	5856.02
445.84	5825.59
446.02	6127.52
446.21	5928.58
446.39	5867.72
446.58	6087.73
446.77	6043.26
446.95	6017.52
447.14	6015.18
447.32	5949.64
447.51	6015.18
447.69	5994.11
447.88	6139.23
448.06	6083.05
448.25	6120.50
448.43	5996.45
448.62	6078.37
448.80	6141.57
448.99	6050.28
449.17	6249.23
449.36	6197.74
449.54	6333.49
449.73	6270.30
449.91	6434.13
450.10	6359.24
450.28	6583.93
450.46	6609.67
450.65	6377.96
450.83	6471.58
451.02	6319.45
451.20	6431.79
451.39	6546.48
451.57	6429.45
451.76	6483.28
451.94	6586.27
452.13	6424.77
452.31	6377.96
452.49	6267.95
452.68	6567.54
452.86	6604.99
453.05	6562.86
453.23	6696.27
453.42	6626.06
453.60	6649.46
453.78	6710.32
453.97	6604.99
454.15	6476.26
454.34	6635.42
454.52	6773.51
454.70	6864.79
454.89	6827.34
455.07	6951.39
455.26	6937.35
455.44	7152.68
455.62	7040.33
455.81	7061.40
455.99	7105.87
456.17	7084.80
456.36	7143.32
456.54	7192.47
456.73	7131.61
456.91	7342.26
457.09	7307.15
457.28	7445.24
457.46	7239.28
457.64	7454.61
457.83	7133.95
458.01	7176.08
458.19	7470.99
458.38	7236.94
458.56	7485.03
458.74	7412.48
458.93	7384.39
459.11	7503.76
459.29	7428.86
459.48	7435.88
459.66	7386.73
459.84	7691.00
460.03	7581.00
460.21	7676.96
460.39	7829.09
460.57	7686.32
460.76	7700.36
460.94	7772.92
461.12	7796.32
461.31	7901.65
461.49	7889.95
461.67	7630.15
461.85	7997.61
462.04	7864.20
462.22	8086.55
462.40	8039.74
462.59	8065.49
462.77	8149.75
462.95	7967.18
463.13	7880.58
463.32	8112.30
463.50	7995.27
463.68	8170.81
463.86	8243.37
464.05	8025.70
464.23	8252.73
464.41	8147.40
464.59	7875.90
464.78	8571.04
464.96	8308.90
465.14	8191.88
465.32	8266.77
465.50	8613.17
465.69	8301.88
465.87	8547.64
466.05	8285.50
466.23	8365.07
466.41	8341.67
466.60	8786.37
466.78	8393.16
466.96	8557.00
467.14	8545.30
467.32	8510.19
467.51	8608.49
467.69	8397.84
467.87	8475.08
468.05	8489.12
468.23	8540.61
468.41	8655.30
468.60	8662.32
468.78	8798.07
468.96	8779.35
469.14	8887.01
469.32	9097.66
469.50	8720.84
469.69	8716.16
469.87	9071.92
470.05	9001.70
470.23	9076.60
470.41	9034.47
470.59	8929.14
470.77	8945.53
470.95	9259.16
471.14	9149.15
471.32	8992.34
471.50	9399.59
471.68	9200.65
471.86	9425.34
472.04	9369.16
472.22	9631.30
472.40	9254.48
472.58	9500.23
472.77	9540.02
472.95	9638.33
473.13	9928.55
473.31	9626.62
473.49	9465.13
473.67	9837.27
473.85	9914.51
474.03	10188.35
474.21	10038.56
474.39	9928.55
474.57	10127.50
474.75	10246.87
474.93	10176.65
475.12	10370.91
475.30	10335.81
475.48	10310.06
475.66	10525.39
475.84	10333.47
476.02	10562.84
476.20	10349.85
476.38	10665.82
476.56	11026.26
476.74	10724.33
476.92	10843.70
477.10	10822.64
477.28	11021.58
477.46	11098.82
477.64	10939.66
477.82	11035.63
478.00	11314.15
478.18	11480.33
478.36	11403.09
478.54	11527.14
478.72	11489.69
478.90	11655.87
479.08	11786.94
479.26	11995.25
479.44	12037.38
479.62	11971.84
479.80	11976.52
479.98	12339.30
480.16	12374.41
480.34	12372.07
480.52	12521.87
480.70	12521.87
480.88	12479.74
481.06	12482.08
481.24	12526.55
481.41	13125.72
481.59	13200.62
481.77	12982.95
481.95	13345.73
482.13	13104.66
482.31	13317.65
482.49	13675.75
482.67	13575.11
482.85	13736.60
483.03	13696.82
483.21	13870.01
483.39	14097.05
483.57	14054.92
483.74	14345.14
483.92	14406.00
484.10	14129.81
484.28	14441.11
484.46	14494.94
484.64	14916.23
484.82	14567.49
485.00	14881.13
485.18	15105.82
485.35	15227.53
485.53	14993.47
485.71	15091.77
485.89	15681.59
486.07	15220.50
486.25	15440.51
486.43	15524.77
486.61	15948.41
486.78	16126.29
486.96	15887.56
487.14	16362.69
487.32	16596.74
487.50	16486.73
487.68	16475.03
487.85	17135.06
488.03	17064.85
488.21	16982.93
488.39	17645.30
488.57	17151.45
488.75	17544.66
488.92	17947.23
489.10	17898.08
489.28	17673.39
489.46	18064.25
489.64	18143.83
489.81	18604.92
489.99	18291.29
490.17	18525.34
490.35	18810.89
490.53	18799.18
490.70	18703.22
490.88	19037.92
491.06	19201.76
491.24	18932.59
491.41	19066.00
491.59	19325.80
491.77	19323.46
491.95	19637.09
492.13	19723.69
492.30	20182.44
492.48	20098.18
492.66	20013.92
492.84	20231.59
493.01	20271.38
493.19	20430.54
493.37	20285.42
493.54	20395.43
493.72	20776.94
493.90	20727.78
494.08	21172.49
494.25	21458.03
494.43	21219.30
494.61	21277.81
494.79	21675.70
494.96	21593.78
495.14	21568.04
495.32	21994.01
495.49	21968.27
495.67	22059.55
495.85	22129.77
496.02	22363.82
496.20	22710.22
496.38	22258.49
496.55	22569.79
496.73	23180.67
496.91	22700.86
497.09	23014.49
497.26	22991.08
497.44	22913.84
497.62	23281.31
497.79	23770.48
497.97	23215.77
498.14	23641.75
498.32	23646.43
498.50	23690.90
498.67	24173.05
498.85	23997.51
499.03	24301.78
499.20	24271.36
499.38	24465.62
499.56	24343.91
499.73	24697.33
499.91	24783.93
500.08	24748.82
500.26	24299.44
500.44	24769.89
500.61	24498.39
500.79	24416.47
500.97	25076.50
501.14	25443.96
501.32	25446.30
501.49	25289.49
501.67	25305.87
501.84	25479.07
502.02	25750.57
502.20	25696.74
502.37	26150.81
502.55	25724.83
502.72	25781.00
502.90	26078.25
503.07	26113.36
503.25	26017.40
503.43	25867.60
503.60	26492.52
503.78	26178.89
503.95	26223.36
504.13	26263.15
504.30	26476.14
504.48	26764.03
504.65	26794.45
504.83	26679.77
505.01	26761.69
505.18	27292.99
505.36	27374.91
505.53	27218.09
505.71	27728.33
505.88	27487.25
506.06	27147.87
506.23	27098.72
506.41	27674.49
506.58	27613.64
506.76	27864.08
506.93	28238.56
507.11	28084.09
507.28	27978.76
507.46	28126.22
507.63	28135.58
507.81	28329.84
507.98	27943.66
508.16	28428.15
508.33	28325.16
508.50	28755.82
508.68	28573.26
508.85	29184.14
509.03	28573.26
509.20	29085.84
509.38	29134.99
509.55	29371.38
509.73	29118.60
509.90	29160.73
510.08	29336.27
510.25	29483.73
510.42	29373.72
510.60	29125.63
510.77	29659.27
510.95	30108.65
511.12	29495.43
511.30	30012.69
511.47	30015.03
511.64	29888.64
511.82	30192.91
511.99	30558.03
512.17	30323.98
512.34	29881.62
512.51	30288.87
512.69	30431.65
512.86	30810.81
513.04	30698.47
513.21	30803.79
513.38	30909.11
513.56	30904.43
513.73	30679.74
513.90	30808.47
514.08	30871.67
514.25	30871.67
514.43	31204.02
514.60	31192.32
514.77	31402.97
514.95	31571.49
515.12	31234.45
515.29	31648.72
515.47	31908.52
515.64	32023.21
515.81	31807.88
515.99	31740.00
516.16	31859.37
516.33	31473.18
516.51	32116.83
516.68	31510.63
516.85	31976.40
517.03	31791.50
517.20	32018.53
517.37	31812.56
517.54	32254.92
517.72	32488.98
517.89	32271.31
518.06	32018.53
518.24	32032.57
518.41	32332.16
518.58	32304.07
518.75	32734.73
518.93	32498.34
519.10	33097.52
519.27	32936.02
519.45	32730.05
519.62	32999.21
519.79	33074.11
519.96	33354.97
520.14	33614.77
520.31	33474.34
520.48	33275.40
520.65	33589.03
520.83	33504.77
521.00	34022.03
521.17	34043.09
521.34	33523.49
521.52	33722.44
521.69	33951.81
521.86	34457.37
522.03	34162.46
522.20	34033.73
522.38	34623.54
522.55	34192.89
522.72	34195.23
522.89	33930.75
523.07	34609.50
523.24	34321.62
523.41	34822.49
523.58	34656.31
523.75	35054.20
523.92	34969.94
524.10	35110.38
524.27	35119.74
524.44	35377.20
524.61	35255.49
524.78	35182.93
524.96	35267.19
525.13	35232.08
525.30	35838.28
525.47	35660.40
525.64	35431.03
525.81	35241.45
525.98	35452.09
526.16	35257.83
526.33	35494.22
526.50	36077.02
526.67	35482.52
526.84	35597.21
527.01	35569.12
527.18	35583.16
527.36	36278.30
527.53	35873.39
527.70	36254.90
527.87	36259.58
528.04	36402.35
528.21	36313.41
528.38	36182.34
528.55	36797.90
528.72	36739.39
528.89	36690.24
529.07	36973.44
529.24	36184.68
529.41	36414.05
529.58	36772.16
529.75	36278.30
529.92	36442.14
530.09	37137.28
530.26	37205.16
530.43	37371.33
530.60	37017.91
530.77	37043.66
530.94	37507.08
531.11	37280.05
531.28	37336.23
531.46	37406.44
531.63	37701.35
531.80	37181.75
531.97	37102.17
532.14	37244.94
532.31	37350.27
532.48	37258.99
532.65	37530.49
532.82	37837.10
532.99	37874.55
533.16	37471.98
533.33	38017.32
533.50	38014.98
533.67	38204.56
533.84	37352.61
534.01	37851.14
534.18	37801.99
534.35	38679.69
534.52	38377.76
534.69	38869.28
534.86	38309.89
535.03	37830.08
535.20	38644.59
535.37	38714.80
535.54	39009.71
535.71	38611.82
535.88	38611.82
536.05	38471.39
536.22	38675.01
536.38	38506.49
536.55	38632.88
536.72	38562.67
536.89	38576.71
537.06	38829.49
537.23	38918.43
537.40	38763.95
537.57	38930.13
537.74	39136.10
537.91	39302.28
538.08	38972.26
538.25	38660.97
538.42	38909.07
538.59	39044.82
538.75	38857.57
538.92	39360.79
539.09	39225.04
539.26	39297.59
539.43	39171.21
539.60	39140.78
539.77	39185.25
539.94	39622.93
540.11	39295.25
540.28	39185.25
540.44	39716.55
540.61	39620.59
540.78	39456.75
540.95	39548.03
541.12	39700.17
541.29	39819.53
541.46	40177.64
541.62	39821.87
541.79	39995.07
541.96	39756.34
542.13	39810.17
542.30	40264.24
542.47	40233.81
542.63	40051.25
542.80	40421.05
542.97	40926.61
543.14	40666.81
543.31	40622.34
543.48	40360.20
543.64	40959.38
543.81	40624.68
543.98	41155.98
544.15	40753.41
544.32	40900.86
544.48	41359.61
544.65	40837.67
544.82	41102.15
544.99	40552.12
545.16	41240.24
545.32	41282.37
545.49	41045.97
545.66	41361.95
545.83	41455.57
546.00	41488.34
546.16	40978.10
546.33	41322.16
546.50	41385.35
546.67	41141.94
546.83	40481.91
547.00	41385.35
547.17	41216.83
547.34	41542.17
547.50	41132.57
547.67	41460.25
547.84	41659.20
548.00	41294.07
548.17	41893.25
548.34	41963.46
548.51	41610.04
548.67	41731.75
548.84	41591.32
549.01	41752.82
549.18	41474.29
549.34	41865.16
549.51	42085.17
549.68	41684.94
549.84	42073.47
550.01	42174.11
550.18	41841.76
550.34	42087.51
550.51	42150.71
550.68	42319.23
550.84	41961.12
551.01	42213.90
551.18	41675.58
551.34	41785.58
551.51	42162.41
551.68	41933.04
551.84	41989.21
552.01	42059.43
552.18	41940.06
552.34	42258.37
552.51	42424.55
552.68	42440.93
552.84	42560.30
553.01	42670.31
553.18	42384.76
553.34	42539.24
553.51	42129.64
553.67	42436.25
553.84	42988.62
554.01	42845.85
554.17	42735.84
554.34	42972.24
554.51	42525.19
554.67	42829.46
554.84	42958.19
555.00	42719.46
555.17	43119.69
555.33	42543.92
555.50	43377.15
555.67	42834.14
555.83	42946.49
556.00	42831.80
556.16	43164.16
556.33	43400.55
556.50	42939.47
556.66	43332.68
556.83	43217.99
556.99	42822.44
557.16	43618.22
557.32	43213.31
557.49	43636.95
557.65	43306.93
557.82	43342.04
557.98	43398.21
558.15	43248.42
558.32	43606.52
558.48	43225.01
558.65	43131.39
558.81	43482.47
558.98	43250.76
559.14	43227.35
559.31	43037.77
559.47	43639.29
559.64	43981.01
559.80	43805.47
559.97	43318.64
560.13	43505.88
560.30	43552.69
560.46	43690.78
560.63	43189.91
560.79	43763.34
560.96	43934.20
561.12	43475.45
561.29	43718.87
561.45	43641.63
561.61	43917.81
561.78	43744.61
561.94	43573.75
562.11	44196.34
562.27	43133.73
562.44	43496.52
562.60	44004.41
562.77	44062.93
562.93	43587.80
563.10	43805.47
563.26	43328.00
563.42	44215.06
563.59	43480.13
563.75	44020.80
563.92	43990.37
564.08	43810.15
564.24	44226.76
564.41	44282.94
564.57	43674.40
564.74	44348.47
564.90	44109.74
565.07	44210.38
565.23	44051.22
565.39	44144.84
565.56	43910.79
565.72	43894.41
565.88	44100.37
566.05	44142.50
566.21	44196.34
566.38	43812.49
566.54	43688.44
566.70	44100.37
566.87	44114.42
567.03	44418.69
567.19	44676.15
567.36	44821.26
567.52	43938.88
567.68	44252.51
567.85	44086.33
568.01	44465.50
568.17	43929.51
568.34	44329.75
568.50	44573.16
568.66	43885.04
568.83	44563.80
568.99	44219.74
569.15	44051.22
569.32	44081.65
569.48	43812.49
569.64	44619.97
569.81	44596.57
569.97	44069.95
570.13	44348.47
570.30	44212.72
570.46	43723.55
570.62	43732.91
570.78	44011.43
570.95	43964.62
571.11	44465.50
571.27	44121.44
571.43	44315.70
571.60	44261.87
571.76	43910.79
571.92	44573.16
572.09	44271.23
572.25	44189.31
572.41	44320.38
572.57	44364.85
572.74	44800.19
572.90	44430.39
573.06	44683.17
573.22	44238.47
573.38	44208.04
573.55	44388.26
573.71	44472.52
573.87	44535.71
574.03	44409.32
574.20	44458.48
574.36	44580.18
574.52	44652.74
574.68	44463.16
574.84	44947.65
575.01	44776.79
575.17	44512.31
575.33	44233.78
575.49	44236.12
575.65	44673.81
575.82	44638.70
575.98	44409.32
576.14	44711.25
576.30	44779.13
576.46	44554.44
576.62	43854.62
576.79	44624.65
576.95	44456.14
577.11	44411.67
577.27	44645.72
577.43	44671.46
577.59	44584.86
577.75	44671.46
577.92	44470.18
578.08	44491.24
578.24	44037.18
578.40	44240.81
578.56	44381.24
578.72	44741.68
578.88	44133.14
579.04	44669.12
579.21	44776.79
579.37	44589.55
579.53	44634.02
579.69	44048.88
579.85	44020.80
580.01	44814.24
580.17	44481.88
580.33	44872.75
580.49	44575.50
580.65	44678.49
580.82	44788.49
580.98	44175.27
581.14	44133.14
581.30	44643.38
581.46	44570.82
581.62	44615.29
581.78	44252.51
581.94	44987.44
582.10	44430.39
582.26	44514.65
582.42	44598.91
582.58	44835.30
582.74	44442.09
582.90	44722.96
583.06	45027.23
583.22	44776.79
583.38	45038.93
583.54	45010.84
583.70	44488.90
583.86	44685.51
584.02	44308.68
584.18	44758.06
584.34	44481.88
584.50	44701.89
584.66	44919.56
584.82	44765.09
584.98	44626.99
585.14	44575.50
585.30	44596.57
585.46	44741.68
585.62	44748.70
585.78	44575.50
585.94	44268.89
586.10	44725.30
586.26	44392.94
586.42	44807.22
586.58	45144.25
586.74	45059.99
586.90	44432.73
587.06	44851.69
587.22	44699.55
587.38	44172.93
587.54	44802.53
587.70	44662.10
587.86	44882.11
588.02	44746.36
588.18	44917.22
588.34	44928.92
588.49	44858.71
588.65	44233.78
588.81	44229.10
588.97	44580.18
589.13	44573.16
589.29	44783.81
589.45	44594.23
589.61	44596.57
589.77	45296.39
589.93	45272.98
590.08	45256.60
590.24	44854.03
