SpectraSuite Data File
++++++++++++++++++++++++++++++++++++
Date: Fri Oct 25 11:22:28 EDT 2013
User: price-jones
Dark Spectrum Present: No
Reference Spectrum Present: No
Number of Sampled Component Spectra: 1
Spectrometers: USB2+H05261
Integration Time (usec): 100000 (USB2+H05261)
Spectra Averaged: 1 (USB2+H05261)
Boxcar Smoothing: 0 (USB2+H05261)
Correct for Electrical Dark: No (USB2+H05261)
Strobe/Lamp Enabled: No (USB2+H05261)
Correct for Detector Non-linearity: No (USB2+H05261)
Correct for Stray Light: No (USB2+H05261)
Number of Pixels in Processed Spectrum: 2048
>>>>>Begin Processed Spectral Data<<<<<
365.73	297.25
365.92	297.25
366.12	297.25
366.32	152.13
366.52	163.84
366.72	191.92
366.91	135.75
367.11	140.43
367.31	95.96
367.51	95.96
367.70	133.41
367.90	147.45
368.10	154.48
368.30	74.90
368.49	91.28
368.69	168.52
368.89	205.97
369.09	131.07
369.28	203.63
369.48	133.41
369.68	203.63
369.87	238.73
370.07	184.90
370.27	229.37
370.47	322.99
370.66	557.05
370.86	645.99
371.06	720.88
371.25	706.84
371.45	601.52
371.65	660.03
371.84	653.01
372.04	695.14
372.24	718.54
372.44	713.86
372.63	725.57
372.83	697.48
373.03	798.12
373.22	695.14
373.42	814.51
373.62	774.72
373.81	805.14
374.01	870.68
374.21	788.76
374.40	798.12
374.60	861.32
374.79	828.55
374.99	833.23
375.19	835.57
375.38	835.57
375.58	835.57
375.78	891.74
375.97	840.25
376.17	856.64
376.37	821.53
376.56	924.51
376.76	802.80
376.95	851.96
377.15	940.90
377.35	877.70
377.54	891.74
377.74	919.83
377.93	943.24
378.13	947.92
378.33	994.73
378.52	884.72
378.72	987.71
378.91	947.92
379.11	844.93
379.31	901.11
379.50	943.24
379.70	938.55
379.89	903.45
380.09	1013.45
380.28	943.24
380.48	1025.15
380.68	1046.22
380.87	1050.90
381.07	1036.86
381.26	1041.54
381.46	997.07
381.65	1057.92
381.85	1050.90
382.04	1032.18
382.24	1102.39
382.43	1086.01
382.63	1069.62
382.83	1114.10
383.02	1039.20
383.22	1153.88
383.41	1046.22
383.61	1097.71
383.80	1102.39
384.00	1081.33
384.19	1193.67
384.39	1137.50
384.58	1196.01
384.78	1034.52
384.97	1163.25
385.17	1086.01
385.36	1146.86
385.56	1188.99
385.75	1174.95
385.95	1179.63
386.14	1303.68
386.34	1179.63
386.53	1174.95
386.72	1205.38
386.92	1217.08
387.11	1200.69
387.31	1167.93
387.50	1181.97
387.70	1313.04
387.89	1252.19
388.09	1146.86
388.28	1301.34
388.48	1270.91
388.67	1394.96
388.86	1338.79
389.06	1348.15
389.25	1301.34
389.45	1399.64
389.64	1275.59
389.84	1373.89
390.03	1348.15
390.22	1474.54
390.42	1306.02
390.61	1423.05
390.81	1418.36
391.00	1430.07
391.19	1385.60
391.39	1460.49
391.58	1441.77
391.78	1434.75
391.97	1486.24
392.16	1504.96
392.36	1556.46
392.55	1502.62
392.75	1490.92
392.94	1570.50
393.13	1565.82
393.33	1516.67
393.52	1582.20
393.71	1526.03
393.91	1579.86
394.10	1626.67
394.29	1593.90
394.49	1549.43
394.68	1673.48
394.88	1673.48
395.07	1678.16
395.26	1732.00
395.46	1701.57
395.65	1710.93
395.84	1729.66
396.04	1877.11
396.23	1680.50
396.42	1750.72
396.62	1790.51
396.81	1764.76
397.00	1818.60
397.19	1797.53
397.39	1802.21
397.58	1919.24
397.77	1785.83
397.97	2010.52
398.16	1755.40
398.35	1842.00
398.55	1792.85
398.74	1930.94
398.93	2029.24
399.12	1893.49
399.32	1884.13
399.51	1952.01
399.70	1968.39
399.90	1973.07
400.09	2111.16
400.28	2080.74
400.47	2010.52
400.67	2134.57
400.86	2012.86
401.05	2052.65
401.24	2111.16
401.44	2132.23
401.63	2076.06
401.82	2181.38
402.01	2230.53
402.21	2216.49
402.40	2256.28
402.59	2104.14
402.78	2242.23
402.97	2228.19
403.17	2307.77
403.36	2270.32
403.55	2298.41
403.74	2413.09
403.93	2211.81
404.13	2422.45
404.32	2300.75
404.51	2342.88
404.70	2406.07
404.89	2450.54
405.09	2506.71
405.28	2544.16
405.47	2537.14
405.66	2562.89
405.85	2530.12
406.05	2607.36
406.24	2626.08
406.43	2628.42
406.62	2635.44
406.81	2644.81
407.00	2569.91
407.20	2548.84
407.39	2700.98
407.58	2719.70
407.77	2729.06
407.96	2731.41
408.15	2682.25
408.34	2689.28
408.54	2871.84
408.73	2764.17
408.92	2939.71
409.11	2871.84
409.30	2965.46
409.49	3103.55
409.68	3061.42
409.87	2956.10
410.07	3084.83
410.26	3070.78
410.45	2949.08
410.64	3138.66
410.83	3150.36
411.02	3253.34
411.21	3108.23
411.40	3232.28
411.59	3218.24
411.78	3187.81
411.98	3187.81
412.17	3199.51
412.36	3433.57
412.55	3405.48
412.74	3571.66
412.93	3459.31
413.12	3370.37
413.31	3620.81
413.50	3431.23
413.69	3529.53
413.88	3452.29
414.07	3705.07
414.26	3623.15
414.45	3782.31
414.64	3714.43
414.83	3758.90
415.02	3913.38
415.22	3819.75
415.41	3896.99
415.60	3922.74
415.79	3868.91
415.98	3887.63
416.17	4152.11
416.36	3948.48
416.55	4039.76
416.74	4056.15
416.93	4102.96
417.12	4210.62
417.31	4194.24
417.50	4315.95
417.69	4365.10
417.88	4348.72
418.07	4273.82
418.26	4442.34
418.45	4416.59
418.64	4599.15
418.83	4482.13
419.02	4531.28
419.21	4620.22
419.39	4566.39
419.58	4442.34
419.77	4491.49
419.96	4695.11
420.15	4624.90
420.34	4681.07
420.53	4683.41
420.72	4709.16
420.91	4760.65
421.10	4814.48
421.29	4849.59
421.48	4767.67
421.67	4826.18
421.86	4821.50
422.05	4835.55
422.24	4788.74
422.43	4952.57
422.61	4919.81
422.80	5060.24
422.99	4880.02
423.18	4987.68
423.37	5153.86
423.56	5018.11
423.75	4943.21
423.94	4847.25
424.13	4819.16
424.32	4865.97
424.50	5083.64
424.69	5100.03
424.88	5210.03
425.07	4975.98
425.26	4784.06
425.45	4975.98
425.64	4994.70
425.83	5125.77
426.01	5135.14
426.20	5179.61
426.39	5102.37
426.58	5137.48
426.77	4980.66
426.96	5142.16
427.15	5203.01
427.33	5362.17
427.52	5193.65
427.71	5252.16
427.90	5296.63
428.09	5266.21
428.28	5481.53
428.46	5549.41
428.65	5366.85
428.84	5610.26
429.03	5612.60
429.22	5533.03
429.40	5530.69
429.59	5624.31
429.78	5406.64
429.97	5331.74
430.16	5397.28
430.34	5591.54
430.53	5720.27
430.72	5741.33
430.91	5760.06
431.10	5579.84
431.28	5870.06
431.47	5849.00
431.66	5919.21
431.85	5809.21
432.03	5980.07
432.22	5900.49
432.41	5919.21
432.60	6003.47
432.79	6038.58
432.97	6073.69
433.16	6120.50
433.35	6101.78
433.54	6228.17
433.72	6162.63
433.91	6092.41
434.10	6225.82
434.28	6167.31
434.47	6120.50
434.66	6326.47
434.85	6375.62
435.03	6504.35
435.22	6160.29
435.41	6546.48
435.59	6401.37
435.78	6464.56
435.97	6478.60
436.16	6305.40
436.34	6303.06
436.53	6434.13
436.72	6722.02
436.90	6401.37
437.09	6736.06
437.28	6696.27
437.46	6726.70
437.65	6731.38
437.84	6981.82
438.02	6846.07
438.21	6799.26
438.40	6717.34
438.58	7033.31
438.77	6974.80
438.96	6986.50
439.14	7356.30
439.33	7061.40
439.52	7162.04
439.70	7363.33
439.89	7398.43
440.08	7435.88
440.26	7473.33
440.45	7258.00
440.63	7447.58
440.82	7770.58
441.01	7754.19
441.19	7655.89
441.38	7768.24
441.57	7789.30
441.75	7836.11
441.94	8063.15
442.12	7990.59
442.31	8086.55
442.50	8037.40
442.68	8079.53
442.87	8030.38
443.05	8255.07
443.24	8430.61
443.43	8124.00
443.61	8262.09
443.80	8479.76
443.98	8065.49
444.17	7737.81
444.35	8198.90
444.54	8287.84
444.73	8465.72
444.91	8463.38
445.10	8566.36
445.28	8428.27
445.47	8468.06
445.65	8318.26
445.84	8531.25
446.02	8430.61
446.21	8292.52
446.39	8304.22
446.58	8610.83
446.77	8638.92
446.95	8416.57
447.14	8437.63
447.32	8540.61
447.51	8578.06
447.69	8622.53
447.88	8669.34
448.06	8779.35
448.25	8641.26
448.43	8526.57
448.62	8606.15
448.80	8791.05
448.99	8737.22
449.17	8786.37
449.36	8676.37
449.54	8994.68
449.73	9076.60
449.91	9022.77
450.10	8997.02
450.28	9188.94
450.46	9231.07
450.65	9095.32
450.83	9057.87
451.02	8966.59
451.20	9298.95
451.39	9146.81
451.57	9217.03
451.76	9088.30
451.94	9312.99
452.13	9401.93
452.31	9205.33
452.49	9301.29
452.68	9514.28
452.86	9495.55
453.05	9568.11
453.23	9799.82
453.42	9474.49
453.60	9432.36
453.78	9495.55
453.97	9537.68
454.15	9533.00
454.34	9643.01
454.52	9727.27
454.70	9797.48
454.89	10059.62
455.07	9977.70
455.26	9776.42
455.44	10118.14
455.62	10036.22
455.81	10202.40
455.99	10244.52
456.17	10183.67
456.36	10104.09
456.54	10160.27
456.73	10174.31
456.91	10583.90
457.09	10389.64
457.28	10504.32
457.46	10501.98
457.64	10729.02
457.83	10661.14
458.01	10354.53
458.19	10782.85
458.38	10729.02
458.56	10799.23
458.74	10778.17
458.93	10850.72
459.11	10724.33
459.29	10820.30
459.48	11009.88
459.66	10824.98
459.84	10932.64
460.03	11316.49
460.21	11150.31
460.39	11052.01
460.57	11316.49
460.76	11321.17
460.94	11204.14
461.12	11489.69
461.31	11522.46
461.49	11407.77
461.67	11194.78
461.85	11651.19
462.04	11234.57
462.22	11770.55
462.40	11712.04
462.59	11735.45
462.77	11641.82
462.95	11726.08
463.13	12037.38
463.32	11658.21
463.50	11903.96
463.68	11826.73
463.86	12135.68
464.05	11758.85
464.23	11660.55
464.41	12194.19
464.59	11854.81
464.78	11943.75
464.96	12453.99
465.14	11936.73
465.32	12187.17
465.50	12191.85
465.69	12259.73
465.87	12292.49
466.05	12287.81
466.23	12301.86
466.41	12538.25
466.60	12388.46
466.78	12381.43
466.96	12498.46
467.14	12339.30
467.32	12409.52
467.51	12655.28
467.69	12404.84
467.87	12802.73
468.05	12865.92
468.23	12666.98
468.41	12615.49
468.60	12622.51
468.78	12821.45
468.96	12716.13
469.14	12910.40
469.32	13078.91
469.50	12798.05
469.69	12978.27
469.87	13345.73
470.05	13446.38
470.23	13610.22
470.41	13259.13
470.59	13610.22
470.77	13586.81
470.95	13696.82
471.14	13703.84
471.32	13317.65
471.50	13685.11
471.68	13947.25
471.86	13907.46
472.04	13755.33
472.22	14300.67
472.40	13797.46
472.58	14033.85
472.77	14171.94
472.95	14373.23
473.13	14731.33
473.31	14174.28
473.49	14061.94
473.67	14249.18
473.85	14597.92
474.03	14970.07
474.21	15042.62
474.39	14883.47
474.57	14944.32
474.75	15131.56
474.93	15126.88
475.12	15171.35
475.30	15279.02
475.48	15126.88
475.66	15419.45
475.84	15316.47
476.02	15580.95
476.20	15662.86
476.38	15775.21
476.56	16271.40
476.74	16283.11
476.92	16016.29
477.10	16070.12
477.28	16350.98
477.46	16383.75
477.64	16601.42
477.82	16641.21
478.00	17034.42
478.18	17057.82
478.36	17212.30
478.54	17193.58
478.72	17404.22
478.90	17671.04
479.08	17652.32
479.26	17907.44
479.44	17987.02
479.62	17675.73
479.80	18223.41
479.98	18621.30
480.16	18661.09
480.34	18508.96
480.52	18686.84
480.70	18902.17
480.88	18728.97
481.06	19201.76
481.24	19021.53
481.41	19260.27
481.59	19768.16
481.77	19756.46
481.95	19655.82
482.13	20018.60
482.31	20081.80
482.49	20306.49
482.67	20563.95
482.85	20592.03
483.03	20821.41
483.21	20912.69
483.39	21149.08
483.57	20959.50
483.74	21551.65
483.92	21846.56
484.10	21397.18
484.28	22059.55
484.46	22019.76
484.64	22717.24
484.82	22338.07
485.00	22410.63
485.18	22719.58
485.35	23250.88
485.53	23077.68
485.71	23248.54
485.89	23992.83
486.07	23576.22
486.25	23768.14
486.43	23880.49
486.61	24098.16
486.78	24121.56
486.96	24458.60
487.14	24744.14
487.32	24851.81
487.50	24863.51
487.68	25078.84
487.85	25586.74
488.03	26001.01
488.21	26288.90
488.39	26146.12
488.57	26206.98
488.75	26452.73
488.92	26951.27
489.10	27192.34
489.28	27138.51
489.46	27742.37
489.64	27274.26
489.81	27880.46
489.99	27831.31
490.17	28386.02
490.35	28608.37
490.53	28568.58
490.70	28837.74
490.88	28563.90
491.06	29546.92
491.24	29083.50
491.41	29546.92
491.59	29701.40
491.77	29652.25
491.95	29954.18
492.13	30663.36
492.30	30504.20
492.48	30462.07
492.66	30422.28
492.84	30841.24
493.01	30906.77
493.19	30944.22
493.37	31316.37
493.54	31489.57
493.72	31796.18
493.90	31875.76
494.08	32315.78
494.25	32325.14
494.43	32498.34
494.61	32622.39
494.79	33083.47
494.96	32879.85
495.14	33130.28
495.32	33638.18
495.49	33778.61
495.67	33457.96
495.85	34202.25
496.02	34122.67
496.20	34174.16
496.38	34630.57
496.55	34300.55
496.73	35468.48
496.91	34836.53
497.09	35016.75
497.26	35274.21
497.44	35299.96
497.62	35569.12
497.79	36250.22
497.97	35782.11
498.14	36407.03
498.32	36999.19
498.50	36580.23
498.67	37074.09
498.85	36987.49
499.03	37427.51
499.20	37546.87
499.38	37141.96
499.56	37668.58
499.73	37654.54
499.91	37532.83
500.08	38249.03
500.26	38148.39
500.44	38169.46
500.61	38436.28
500.79	38155.41
500.97	38462.02
501.14	39353.77
501.32	39100.99
501.49	39054.18
501.67	38969.92
501.84	39409.94
502.02	39234.40
502.20	39442.71
502.37	39910.82
502.55	39826.56
502.72	39833.58
502.90	40163.59
503.07	39793.79
503.25	40126.14
503.43	40158.91
503.60	40978.10
503.78	40779.15
503.95	40402.33
504.13	41256.62
504.30	40982.78
504.48	41003.85
504.65	40886.82
504.83	41944.74
505.01	41701.32
505.18	41525.78
505.36	42148.37
505.53	41535.15
505.71	42258.37
505.88	42511.15
506.06	41975.17
506.23	42387.10
506.41	42405.83
506.58	42604.77
506.76	42567.32
506.93	42361.36
507.11	42930.11
507.28	43007.34
507.46	43213.31
507.63	43295.23
507.81	43510.56
507.98	43075.22
508.16	43805.47
508.33	43896.75
508.50	43489.49
508.68	44243.15
508.85	44369.54
509.03	44318.04
509.20	44554.44
509.38	44643.38
509.55	45191.06
509.73	45326.81
509.90	45404.05
510.08	45102.12
510.25	45106.80
510.42	45151.27
510.60	45385.33
510.77	46014.93
510.95	46157.70
511.12	45801.94
511.30	45787.90
511.47	45834.71
511.64	45743.43
511.82	46115.58
511.99	46160.05
512.17	46653.90
512.34	46160.05
512.51	46672.62
512.69	47229.67
512.86	47063.49
513.04	47208.61
513.21	47274.14
513.38	47365.42
513.56	47379.46
513.73	47299.89
513.90	47306.91
514.08	47330.31
514.25	47751.61
514.43	47793.74
514.60	47821.83
514.77	47952.90
514.95	48219.72
515.12	48121.41
515.29	48039.50
515.47	48002.05
515.64	48573.14
515.81	48446.75
515.99	48580.16
516.16	48839.96
516.33	48460.79
516.51	49595.95
516.68	48760.38
516.85	48968.69
517.03	49169.97
517.20	49352.54
517.37	49399.35
517.54	49242.53
517.72	49670.85
517.89	49347.86
518.06	49991.50
518.24	49813.62
518.41	49689.57
518.58	49951.71
518.75	49612.34
518.93	50164.70
519.10	49720.00
519.27	50316.84
519.45	50356.63
519.62	50497.06
519.79	50443.23
519.96	50501.74
520.14	50705.37
520.31	50555.57
520.48	50775.58
520.65	51007.29
520.83	51044.74
521.00	51262.41
521.17	51002.61
521.34	50829.41
521.52	51227.31
521.69	51166.45
521.86	51297.52
522.03	51489.45
522.20	51632.22
522.38	51915.42
522.55	51625.20
522.72	51772.65
522.89	51873.29
523.07	51861.59
523.24	51892.02
523.41	52245.44
523.58	51739.88
523.75	52580.13
523.92	52215.01
524.10	52329.70
524.27	52484.17
524.44	52598.86
524.61	52428.00
524.78	52442.04
524.96	52456.09
525.13	52814.19
525.30	52996.75
525.47	52746.31
525.64	52907.81
525.81	53188.67
525.98	53088.03
526.16	53408.68
526.33	53099.73
526.50	53450.81
526.67	53104.41
526.84	53396.98
527.01	53029.52
527.18	53272.93
527.36	53228.46
527.53	53396.98
527.70	53741.04
527.87	53727.00
528.04	53612.31
528.21	53778.49
528.38	53766.79
528.55	53656.78
528.72	53797.21
528.89	53677.85
529.07	53549.12
529.24	53722.32
529.41	54108.50
529.58	54206.81
529.75	54064.03
529.92	54064.03
530.09	54092.12
530.26	54464.27
530.43	54501.71
530.60	54347.24
530.77	54344.90
530.94	54394.05
531.11	54391.71
531.28	54468.95
531.46	54466.61
531.63	54536.82
531.80	54646.83
531.97	55025.99
532.14	54733.43
532.31	55086.85
532.48	55070.46
532.65	55159.41
532.82	54710.02
532.99	55192.17
533.16	54646.83
533.33	55105.57
533.50	55505.80
533.67	54953.44
533.84	55021.31
534.01	55278.77
534.18	55386.44
534.35	55641.56
534.52	55657.94
534.69	55594.74
534.86	55648.58
535.03	55388.78
535.20	55620.49
535.37	55838.16
535.54	55807.73
535.71	55751.56
535.88	55723.47
536.05	55859.23
536.22	55702.41
536.38	55831.14
536.55	55861.57
536.72	56023.06
536.89	55824.12
537.06	56065.19
537.23	56151.79
537.40	55959.87
537.57	55997.32
537.74	56296.91
537.91	56247.75
538.08	56292.22
538.25	56172.86
538.42	56123.71
538.59	56416.27
538.75	56266.48
538.92	56451.38
539.09	56570.75
539.26	56509.89
539.43	56324.99
539.60	56467.76
539.77	56566.07
539.94	56839.91
540.11	56781.40
540.28	56872.68
540.44	56938.21
540.61	56584.79
540.78	56704.16
540.95	56652.67
541.12	56748.63
541.29	56704.16
541.46	56664.37
541.62	56917.15
541.79	56884.38
541.96	56573.09
542.13	56863.32
542.30	56992.04
542.47	57083.33
542.63	57282.27
542.80	57406.32
542.97	57258.87
543.14	57471.85
543.31	57581.86
543.48	57485.90
543.64	57673.14
543.81	57523.35
543.98	57495.26
544.15	57736.34
544.32	57462.49
544.48	58162.31
544.65	57513.98
544.82	57574.84
544.99	57432.07
545.16	57764.42
545.32	57972.73
545.49	58136.57
545.66	58103.80
545.83	57794.85
546.00	58124.86
546.16	58122.52
546.33	57914.22
546.50	57851.02
546.67	58007.84
546.83	57743.36
547.00	58145.93
547.17	58225.51
547.34	58223.17
547.50	58218.49
547.67	58176.36
547.84	58525.10
548.00	58415.09
548.17	58506.37
548.34	58487.65
548.51	58532.12
548.67	58642.12
548.84	58326.15
549.01	58497.01
549.18	58358.92
549.34	58597.65
549.51	58454.88
549.68	58698.30
549.84	58571.91
550.01	58557.86
550.18	58843.41
550.34	58487.65
550.51	58665.53
550.68	58866.81
550.84	58618.72
551.01	59112.57
551.18	58763.83
551.34	58997.88
551.51	58653.82
551.68	58841.07
551.84	58805.96
552.01	58717.02
552.18	58845.75
552.34	58815.32
552.51	59332.58
552.68	58981.50
552.84	59107.89
553.01	59306.83
553.18	59187.47
553.34	59072.78
553.51	59047.04
553.67	59030.65
553.84	59461.31
554.01	59295.13
554.17	59206.19
554.34	59442.59
554.51	59241.30
554.67	59384.07
554.84	59297.47
555.00	59133.63
555.17	59433.22
555.33	59185.13
555.50	59157.04
555.67	59463.65
555.83	59498.76
556.00	59421.52
556.16	59545.57
556.33	59568.97
556.50	59400.46
556.66	59798.35
556.83	59458.97
556.99	59653.23
557.16	59737.49
557.32	59824.09
557.49	59842.82
557.65	59671.96
557.82	59779.62
557.98	59840.48
558.15	59760.90
558.32	59877.93
558.48	59737.49
558.65	59913.03
558.81	59840.48
558.98	59728.13
559.14	59880.27
559.31	59959.84
559.47	60058.15
559.64	60116.66
559.80	60065.17
559.97	59927.08
560.13	59927.08
560.30	59742.17
560.46	60212.62
560.63	60186.88
560.79	60116.66
560.96	60137.72
561.12	60184.54
561.29	60313.26
561.45	60158.79
561.61	59994.95
561.78	59966.87
561.94	60013.68
562.11	60088.57
562.27	60130.70
562.44	60264.11
562.60	60308.58
562.77	60301.56
562.93	60212.62
563.10	60353.05
563.26	60172.83
563.42	60383.48
563.59	60451.36
563.75	60278.16
563.92	60221.98
564.08	60137.72
564.24	60577.75
564.41	60423.27
564.57	60390.50
564.74	60313.26
564.90	60547.32
565.07	60364.76
565.23	60243.05
565.39	60388.16
565.56	60371.78
565.72	60446.68
565.88	60654.98
566.05	60390.50
566.21	60544.98
566.38	60294.54
566.54	60449.02
566.70	60591.79
566.87	60676.05
567.03	60533.28
567.19	60853.93
567.36	60750.94
567.52	60491.15
567.68	60706.47
567.85	60762.65
568.01	60430.29
568.17	60568.38
568.34	60657.32
568.50	60727.54
568.66	60446.68
568.83	60891.38
568.99	60650.30
569.15	60734.56
569.32	60626.90
569.48	60622.22
569.64	60818.82
569.81	60748.60
569.97	60636.26
570.13	60685.41
570.30	60610.51
570.46	60776.69
570.62	60858.61
570.78	60739.24
570.95	60666.69
571.11	60928.83
571.27	60905.42
571.43	60903.08
571.60	60935.85
571.76	60790.73
571.92	60896.06
572.09	60786.05
572.25	60767.33
572.41	60961.59
572.57	60910.10
572.74	61010.74
572.90	60722.86
573.06	61022.45
573.22	60963.93
573.38	60825.84
573.55	60966.27
573.71	60851.59
573.87	60956.91
574.03	60783.71
574.20	60809.46
574.36	60790.73
574.52	60903.08
574.68	61219.05
574.84	61118.41
575.01	61221.39
575.17	61038.83
575.33	61050.53
575.49	60898.40
575.65	61095.00
575.82	60989.68
575.98	60963.93
576.14	61097.34
576.30	61057.56
576.46	60851.59
576.62	61059.90
576.79	61113.73
576.95	60968.61
577.11	61017.77
577.27	61080.96
577.43	61095.00
577.59	61024.79
577.75	60886.70
577.92	60968.61
578.08	60994.36
578.24	61015.43
578.40	61254.16
578.56	61352.46
578.72	61219.05
578.88	61263.52
579.04	61212.03
579.21	60982.66
579.37	61289.27
579.53	61333.74
579.69	61176.92
579.85	61179.26
580.01	61092.66
580.17	61134.79
580.33	61193.31
580.49	61197.99
580.65	61069.26
580.82	61167.56
580.98	60987.34
581.14	61188.63
581.30	61212.03
581.46	61216.71
581.62	61190.97
581.78	61240.12
581.94	61116.07
582.10	60994.36
582.26	61298.63
582.42	61148.84
582.58	61085.64
582.74	61207.35
582.90	61312.67
583.06	61282.25
583.22	61160.54
583.38	61303.31
583.54	61446.08
583.70	61279.91
583.86	61286.93
584.02	61261.18
584.18	61427.36
584.34	61254.16
584.50	61183.94
584.66	61097.34
584.82	60980.32
584.98	61209.69
585.14	61382.89
585.30	61153.52
585.46	61277.57
585.62	61439.06
585.78	61347.78
585.94	61015.43
586.10	61284.59
586.26	61401.61
586.42	61333.74
586.58	61235.44
586.74	61385.23
586.90	61380.55
587.06	61141.81
587.22	61506.94
587.38	61364.17
587.54	61483.53
587.70	61415.66
587.86	61434.38
588.02	61329.06
588.18	61504.60
588.34	61633.33
