SpectraSuite Data File
++++++++++++++++++++++++++++++++++++
Date: Fri Oct 25 10:44:35 EDT 2013
User: price-jones
Dark Spectrum Present: No
Reference Spectrum Present: No
Number of Sampled Component Spectra: 1
Spectrometers: USB2+H05261
Integration Time (usec): 100000 (USB2+H05261)
Spectra Averaged: 1 (USB2+H05261)
Boxcar Smoothing: 0 (USB2+H05261)
Correct for Electrical Dark: No (USB2+H05261)
Strobe/Lamp Enabled: No (USB2+H05261)
Correct for Detector Non-linearity: No (USB2+H05261)
Correct for Stray Light: No (USB2+H05261)
Number of Pixels in Processed Spectrum: 2048
>>>>>Begin Processed Spectral Data<<<<<
365.73	128.73
365.92	128.73
366.12	128.73
366.32	46.81
366.52	25.75
366.72	58.51
366.91	84.26
367.11	0.00
367.31	0.00
367.51	0.00
367.70	35.11
367.90	60.85
368.10	0.00
368.30	77.24
368.49	37.45
368.69	42.13
368.89	32.77
369.09	46.81
369.28	159.16
369.48	51.49
369.68	74.90
369.87	110.01
370.07	79.58
370.27	161.50
370.47	140.43
370.66	355.76
370.86	400.23
371.06	493.85
371.25	440.02
371.45	442.36
371.65	397.89
371.84	409.59
372.04	414.27
372.24	442.36
372.44	547.69
372.63	493.85
372.83	477.47
373.03	404.91
373.22	440.02
373.42	566.41
373.62	554.71
373.81	524.28
374.01	550.03
374.21	486.83
374.40	519.60
374.60	552.37
374.79	592.16
374.99	550.03
375.19	517.26
375.38	554.71
375.58	498.53
375.78	571.09
375.97	620.24
376.17	664.71
376.37	585.13
376.56	622.58
376.76	627.26
376.95	552.37
377.15	528.96
377.35	592.16
377.54	564.07
377.74	587.47
377.93	587.47
378.13	566.41
378.33	575.77
378.52	667.05
378.72	643.65
378.91	603.86
379.11	638.97
379.31	575.77
379.50	571.09
379.70	660.03
379.89	645.99
380.09	561.73
380.28	634.29
380.48	617.90
380.68	681.10
380.87	624.92
381.07	688.12
381.26	615.56
381.46	681.10
381.65	723.23
381.85	678.76
382.04	662.37
382.24	734.93
382.43	615.56
382.63	655.35
382.83	678.76
383.02	650.67
383.22	671.73
383.41	671.73
383.61	685.78
383.80	809.83
384.00	732.59
384.19	702.16
384.39	793.44
384.58	751.31
384.78	688.12
384.97	727.91
385.17	753.65
385.36	727.91
385.56	746.63
385.75	758.33
385.95	791.10
386.14	849.61
386.34	718.54
386.53	866.00
386.72	751.31
386.92	884.72
387.11	849.61
387.31	880.04
387.50	763.01
387.70	828.55
387.89	805.14
388.09	898.77
388.28	837.91
388.48	802.80
388.67	854.30
388.86	844.93
389.06	819.19
389.25	889.40
389.45	938.55
389.64	936.21
389.84	800.46
390.03	952.60
390.22	976.00
390.42	968.98
390.61	880.04
390.81	908.13
391.00	891.74
391.19	954.94
391.39	947.92
391.58	924.51
391.78	945.58
391.97	985.37
392.16	943.24
392.36	999.41
392.55	896.43
392.75	978.34
392.94	1018.13
393.13	947.92
393.33	1050.90
393.52	968.98
393.71	983.02
393.91	1088.35
394.10	1004.09
394.29	1100.05
394.49	1041.54
394.68	1111.75
394.88	1071.97
395.07	1203.04
395.26	1191.33
395.46	1107.07
395.65	1036.86
395.84	1135.16
396.04	1109.41
396.23	1158.57
396.42	1050.90
396.62	1095.37
396.81	1081.33
397.00	1107.07
397.19	1200.69
397.39	1200.69
397.58	1301.34
397.77	1242.82
397.97	1226.44
398.16	1196.01
398.35	1294.32
398.55	1214.74
398.74	1324.74
398.93	1320.06
399.12	1308.36
399.32	1364.53
399.51	1371.55
399.70	1425.39
399.90	1441.77
400.09	1394.96
400.28	1392.62
400.47	1441.77
400.67	1397.30
400.86	1481.56
401.05	1441.77
401.24	1430.07
401.44	1472.20
401.63	1404.32
401.82	1474.54
402.01	1441.77
402.21	1556.46
402.40	1420.71
402.59	1579.86
402.78	1610.29
402.97	1664.12
403.17	1519.01
403.36	1537.73
403.55	1572.84
403.74	1659.44
403.93	1717.95
404.13	1748.38
404.32	1659.44
404.51	1706.25
404.70	1729.66
404.89	1760.08
405.09	1767.10
405.28	1748.38
405.47	1706.25
405.66	1762.42
405.85	1804.55
406.05	1769.44
406.24	1783.49
406.43	1923.92
406.62	1792.85
406.81	1914.56
407.00	1785.83
407.20	1785.83
407.39	1849.02
407.58	1888.81
407.77	1916.90
407.96	2024.56
408.15	1930.94
408.34	1966.05
408.54	1952.01
408.73	2033.93
408.92	2113.50
409.11	2104.14
409.30	2078.40
409.49	2118.18
409.68	1956.69
409.87	1991.80
410.07	2136.91
410.26	2125.21
410.45	2097.12
410.64	2143.93
410.83	2338.20
411.02	2214.15
411.21	2282.02
411.40	2244.57
411.59	2260.96
411.78	2356.92
411.98	2326.49
412.17	2434.16
412.36	2436.50
412.55	2527.78
412.74	2462.24
412.93	2532.46
413.12	2487.99
413.31	2527.78
413.50	2452.88
413.69	2495.01
413.88	2572.25
414.07	2614.38
414.26	2565.23
414.45	2649.49
414.64	2586.29
414.83	2794.60
415.02	2773.53
415.22	2857.79
415.41	2909.29
415.60	2895.24
415.79	2789.92
415.98	2986.52
416.17	2855.45
416.36	2925.67
416.55	2951.42
416.74	2897.58
416.93	2911.63
417.12	2932.69
417.31	3033.33
417.50	3023.97
417.69	3131.64
417.88	3094.19
418.07	3023.97
418.26	3056.74
418.45	3101.21
418.64	3204.19
418.83	3253.34
419.02	3145.68
419.21	3169.09
419.39	3164.40
419.58	3183.13
419.77	3304.84
419.96	3311.86
420.15	3286.11
420.34	3412.50
420.53	3283.77
420.72	3492.08
420.91	3489.74
421.10	3325.90
421.29	3440.59
421.48	3452.29
421.67	3468.67
421.86	3428.88
422.05	3449.95
422.24	3419.52
422.43	3473.36
422.61	3468.67
422.80	3604.42
422.99	3606.77
423.18	3648.90
423.37	3632.51
423.56	3627.83
423.75	3494.42
423.94	3428.88
424.13	3475.70
424.32	3534.21
424.50	3543.57
424.69	3625.49
424.88	3630.17
425.07	3571.66
425.26	3471.01
425.45	3510.80
425.64	3473.36
425.83	3569.32
426.01	3665.28
426.20	3700.39
426.39	3733.15
426.58	3602.08
426.77	3620.81
426.96	3714.43
427.15	3803.37
427.33	3651.24
427.52	3805.71
427.71	3749.54
427.90	3634.85
428.09	3756.56
428.28	3733.15
428.46	3843.16
428.65	3791.67
428.84	3913.38
429.03	3857.20
429.22	3761.24
429.40	3943.80
429.59	3875.93
429.78	3623.15
429.97	3576.34
430.16	3700.39
430.34	3798.69
430.53	3918.06
430.72	3918.06
430.91	3782.31
431.10	4056.15
431.28	4051.47
431.47	4166.15
431.66	4264.46
431.85	4231.69
432.03	4161.47
432.22	4245.73
432.41	4301.90
432.60	4269.14
432.79	4140.41
432.97	4461.06
433.16	4407.23
433.35	4222.33
433.54	4306.59
433.72	4205.94
433.91	4404.89
434.10	4372.12
434.28	4374.46
434.47	4547.66
434.66	4451.70
434.85	4566.39
435.03	4524.26
435.22	4428.29
435.41	4667.03
435.59	4479.79
435.78	4699.80
435.97	4655.33
436.16	4550.00
436.34	4582.77
436.53	4755.97
436.72	4828.53
436.90	4671.71
437.09	4828.53
437.28	4805.12
437.46	4760.65
437.65	4746.61
437.84	4648.30
438.02	4688.09
438.21	4655.33
438.40	4559.36
438.58	4884.70
438.77	4950.23
438.96	5011.09
439.14	4933.85
439.33	5041.51
439.52	5149.18
439.70	5100.03
439.89	5221.74
440.08	5284.93
440.26	5195.99
440.45	5217.05
440.63	5336.42
440.82	5305.99
441.01	5310.68
441.19	5399.62
441.38	5413.66
441.57	5425.36
441.75	5537.71
441.94	5666.44
442.12	5713.25
442.31	5577.50
442.50	5703.89
442.68	5713.25
442.87	5659.42
443.05	5849.00
443.24	5970.71
443.43	5884.11
443.61	5881.77
443.80	5959.00
443.98	5844.32
444.17	5563.45
444.35	6073.69
444.54	6043.26
444.73	5888.79
444.91	5870.06
445.10	5982.41
445.28	5951.98
445.47	5846.66
445.65	5799.85
445.84	5898.15
446.02	6033.90
446.21	6054.97
446.39	6101.78
446.58	6076.03
446.77	6169.65
446.95	5874.74
447.14	6024.54
447.32	6120.50
447.51	5989.43
447.69	6038.58
447.88	6059.65
448.06	6183.70
448.25	6012.84
448.43	6024.54
448.62	5977.73
448.80	5968.37
448.99	6223.48
449.17	6274.98
449.36	6118.16
449.54	6389.66
449.73	6349.87
449.91	6581.59
450.10	6349.87
450.28	6595.63
450.46	6469.24
450.65	6483.28
450.83	6532.44
451.02	6520.73
451.20	6743.08
451.39	6548.82
451.57	6527.75
451.76	6469.24
451.94	6700.95
452.13	6513.71
452.31	6745.42
452.49	6457.54
452.68	6696.27
452.86	6595.63
453.05	6719.68
453.23	6885.86
453.42	6892.88
453.60	6684.57
453.78	6855.43
453.97	6738.40
454.15	6857.77
454.34	6731.38
454.52	6864.79
454.70	6988.84
454.89	6862.45
455.07	6860.11
455.26	6813.30
455.44	7133.95
455.62	7030.97
455.81	7124.59
455.99	7061.40
456.17	7225.23
456.36	7035.65
456.54	7377.37
456.73	7337.58
456.91	7485.03
457.09	7377.37
457.28	7499.08
457.46	7393.75
457.64	7267.36
457.83	7309.49
458.01	7194.81
458.19	7775.26
458.38	7456.95
458.56	7506.10
458.74	7557.59
458.93	7248.64
459.11	7620.78
459.29	7510.78
459.48	7616.10
459.66	7616.10
459.84	7604.40
460.03	7845.48
460.21	7901.65
460.39	7637.17
460.57	7775.26
460.76	7901.65
460.94	7728.45
461.12	7868.88
461.31	7936.76
461.49	7922.71
461.67	7894.63
461.85	7936.76
462.04	7829.09
462.22	8170.81
462.40	8210.60
462.59	8191.88
462.77	7990.59
462.95	8049.10
463.13	8180.17
463.32	7943.78
463.50	8231.66
463.68	8273.79
463.86	8269.11
464.05	8105.28
464.23	8259.75
464.41	8255.07
464.59	8212.94
464.78	8320.60
464.96	8397.84
465.14	8234.00
465.32	8397.84
465.50	8411.89
465.69	8402.52
465.87	8348.69
466.05	8549.98
466.23	8360.39
466.41	8484.44
466.60	8439.97
466.78	8346.35
466.96	8800.41
467.14	8554.66
467.32	8493.80
467.51	8486.78
467.69	8388.48
467.87	8659.98
468.05	8816.80
468.23	8351.03
468.41	8538.27
468.60	8758.28
468.78	8830.84
468.96	8798.07
469.14	9048.51
469.32	9006.38
469.50	8709.13
469.69	8985.32
469.87	8952.55
470.05	8999.36
470.23	9027.45
470.41	8957.23
470.59	9092.98
470.77	9015.74
470.95	9270.86
471.14	9291.93
471.32	9179.58
471.50	9200.65
471.68	9467.47
471.86	9434.70
472.04	9289.59
472.22	9769.40
472.40	9589.17
472.58	9434.70
472.77	9694.50
472.95	9792.80
473.13	9963.66
473.31	9727.27
473.49	9558.75
473.67	9745.99
473.85	9680.46
474.03	10106.43
474.21	10031.54
474.39	10258.57
474.57	10076.01
474.75	10162.61
474.93	10176.65
475.12	10321.76
475.30	10555.82
475.48	10497.30
475.66	10232.82
475.84	10424.75
476.02	10483.26
476.20	10492.62
476.38	10740.72
476.56	10867.11
476.74	10766.46
476.92	10822.64
477.10	10686.89
477.28	10934.98
477.46	10991.16
477.64	11314.15
477.82	11363.30
478.00	11356.28
478.18	11517.78
478.36	11468.62
478.54	11627.78
478.72	11950.78
478.90	11740.13
479.08	12004.61
479.26	11960.14
479.44	11948.43
479.62	12119.29
479.80	12166.10
479.98	12278.45
480.16	12648.26
480.34	12669.32
480.52	12788.69
480.70	12535.91
480.88	12514.84
481.06	12730.17
481.24	12706.77
481.41	12917.42
481.59	13298.92
481.77	13380.84
481.95	13233.39
482.13	13394.89
482.31	13394.89
482.49	13671.07
482.67	13554.04
482.85	13860.65
483.03	14043.21
483.21	14153.22
483.39	14083.00
483.57	14216.41
483.74	14277.27
483.92	14452.81
484.10	14354.51
484.28	14516.00
484.46	14799.21
484.64	14998.15
484.82	14822.61
485.00	14913.89
485.18	15250.93
485.35	15321.15
485.53	15169.01
485.71	15154.97
485.89	15080.07
486.07	15583.29
486.25	15466.26
486.43	15723.72
486.61	15941.39
486.78	16140.33
486.96	16023.31
487.14	16346.30
487.32	16580.36
487.50	16643.55
487.68	16608.44
487.85	16856.54
488.03	16989.95
488.21	17149.11
488.39	17158.47
488.57	17521.25
488.75	17490.82
488.92	17795.09
489.10	17788.07
489.28	17767.01
489.46	18052.55
489.64	18192.98
489.81	18794.50
489.99	18576.83
490.17	18656.41
490.35	18813.23
490.53	18485.55
490.70	18855.36
490.88	18810.89
491.06	19384.32
491.24	19356.23
491.41	19218.14
491.59	19197.07
491.77	19293.04
491.95	19758.80
492.13	19772.85
492.30	20032.65
492.48	20166.06
492.66	20067.75
492.84	20175.42
493.01	20477.35
493.19	20210.53
493.37	20767.57
493.54	20641.18
493.72	20624.80
493.90	20837.79
494.08	21214.62
494.25	21099.93
494.43	21439.31
494.61	21539.95
494.79	21525.91
494.96	21345.69
495.14	21675.70
495.32	22150.83
495.49	21818.47
495.67	21839.54
495.85	22286.58
496.02	22548.72
496.20	22544.04
496.38	22780.43
496.55	22548.72
496.73	23082.36
496.91	22822.56
497.09	23136.20
497.26	23356.21
497.44	22782.77
497.62	23440.47
497.79	23718.99
497.97	23426.42
498.14	23578.56
498.32	23566.85
498.50	23637.07
498.67	24428.17
498.85	23828.99
499.03	24236.25
499.20	24088.79
499.38	24641.16
499.56	24596.69
499.73	24587.33
499.91	24629.46
500.08	24856.49
500.26	24592.01
500.44	25099.90
500.61	24805.00
500.79	24774.57
500.97	25172.46
501.14	25476.73
501.32	25680.36
501.49	25420.56
501.67	25333.96
501.84	25565.67
502.02	25743.55
502.20	25898.03
502.37	26108.68
502.55	25886.32
502.72	26043.14
502.90	25755.26
503.07	26415.29
503.25	25905.05
503.43	26113.36
503.60	26419.97
503.78	26347.41
503.95	26492.52
504.13	26759.34
504.30	27016.80
504.48	26600.19
504.65	27002.76
504.83	27178.30
505.01	27513.00
505.18	27349.16
505.36	27601.94
505.53	27814.93
505.71	27302.35
505.88	27515.34
506.06	27154.90
506.23	27779.82
506.41	27632.36
506.58	27569.17
506.76	27784.50
506.93	28077.07
507.11	27744.71
507.28	27835.99
507.46	28147.28
507.63	28135.58
507.81	28290.06
507.98	28070.04
508.16	28704.33
508.33	28685.61
508.50	28617.73
508.68	28753.48
508.85	29024.98
509.03	29017.96
509.20	29146.69
509.38	29078.82
509.55	29535.22
509.73	29535.22
509.90	29228.61
510.08	29558.63
510.25	29474.37
510.42	29935.45
510.60	29483.73
510.77	29860.55
510.95	30080.56
511.12	29879.28
511.30	30391.86
511.47	30361.43
511.64	30450.37
511.82	30644.63
511.99	29982.26
512.17	30394.20
512.34	30419.94
512.51	30239.72
512.69	30998.06
512.86	30780.39
513.04	30937.20
513.21	30501.86
513.38	30719.53
513.56	30920.82
513.73	30974.65
513.90	30946.56
514.08	30897.41
514.25	30986.35
514.43	30972.31
514.60	31700.22
514.77	31290.62
514.95	31819.58
515.12	31632.34
515.29	31388.92
515.47	31807.88
515.64	32135.56
515.81	31655.75
515.99	31768.09
516.16	31894.48
516.33	31779.79
516.51	31896.82
516.68	31307.01
516.85	31901.50
517.03	31938.95
517.20	32095.77
517.37	32151.94
517.54	32425.78
517.72	32437.48
517.89	32423.44
518.06	31667.45
518.24	32011.51
518.41	32606.00
518.58	32837.72
518.75	33064.75
518.93	32919.63
519.10	32947.72
519.27	32893.89
519.45	33153.69
519.62	33120.92
519.79	33404.13
519.96	33392.42
520.14	33649.88
520.31	33401.79
520.48	33333.91
520.65	33940.11
520.83	33610.09
521.00	33993.94
521.17	33776.27
521.34	33762.23
521.52	33811.38
521.69	34003.30
521.86	34204.59
522.03	34113.31
522.20	34368.43
522.38	34518.22
522.55	34522.90
522.72	34611.84
522.89	34293.53
523.07	34609.50
523.24	34602.48
523.41	35002.71
523.58	34979.31
523.75	35452.09
523.92	35115.06
524.10	35187.61
524.27	35241.45
524.44	35360.81
524.61	35716.58
524.78	35618.27
524.96	35639.34
525.13	35641.68
525.30	35271.87
525.47	35810.20
525.64	35498.91
525.81	35903.82
525.98	35304.64
526.16	35386.56
526.33	35314.00
526.50	35557.42
526.67	35321.02
526.84	35601.89
527.01	35531.67
527.18	36161.28
527.36	36495.97
527.53	35927.22
527.70	36720.66
527.87	36708.96
528.04	35875.73
528.21	36350.86
528.38	36172.98
528.55	36458.52
528.72	36659.81
528.89	36966.42
529.07	37158.34
529.24	36573.21
529.41	36598.96
529.58	36465.55
529.75	36690.24
529.92	36680.88
530.09	36905.57
530.26	37237.92
530.43	37046.00
530.60	36856.42
530.77	36821.31
530.94	37764.54
531.11	37589.00
531.28	37399.42
531.46	37514.11
531.63	37057.70
531.80	37642.84
531.97	37443.89
532.14	37266.01
532.31	37310.48
532.48	37563.26
532.65	37624.11
532.82	37797.31
532.99	37656.88
533.16	37684.97
533.33	37963.49
533.50	38054.77
533.67	37865.19
533.84	37691.99
534.01	38398.83
534.18	37755.18
534.35	38272.44
534.52	37996.26
534.69	38218.61
534.86	37979.87
535.03	38204.56
535.20	38888.00
535.37	38511.17
535.54	38841.19
535.71	38602.46
535.88	38476.07
536.05	38190.52
536.22	38817.78
536.38	39157.16
536.55	38855.23
536.72	38967.58
536.89	38644.59
537.06	38696.08
537.23	38899.70
537.40	38752.25
537.57	39012.05
537.74	39267.17
537.91	38923.11
538.08	38944.17
538.25	38876.30
538.42	39386.54
538.59	38998.01
538.75	39079.92
538.92	38876.30
539.09	39040.14
539.26	39285.89
539.43	39306.96
539.60	39281.21
539.77	39143.12
539.94	39278.87
540.11	39459.09
540.28	39482.50
540.44	39082.27
540.61	39903.79
540.78	39503.56
540.95	39686.12
541.12	39374.83
541.29	39580.80
541.46	39426.32
541.62	39627.61
541.79	40615.32
541.96	39910.82
542.13	39945.92
542.30	40280.62
542.47	40222.11
542.63	40074.65
542.80	40025.50
542.97	40545.10
543.14	40980.44
543.31	40697.24
543.48	40856.39
543.64	40933.63
543.81	41167.68
543.98	40825.96
544.15	40540.42
544.32	41118.53
544.48	41237.90
544.65	41422.80
544.82	40905.54
544.99	40495.95
545.16	40891.50
545.32	41125.55
545.49	41415.78
545.66	41598.34
545.83	40982.78
546.00	41450.89
546.16	41361.95
546.33	40921.93
546.50	41167.68
546.67	41085.76
546.83	40739.36
547.00	41130.23
547.17	41270.67
547.34	41584.30
547.50	40807.24
547.67	42092.19
547.84	41731.75
548.00	41846.44
548.17	41645.15
548.34	41895.59
548.51	41734.09
548.67	41921.34
548.84	41806.65
549.01	41975.17
549.18	41638.13
549.34	42260.71
549.51	42185.82
549.68	42061.77
549.84	41935.38
550.01	42033.68
550.18	42064.11
550.34	42108.58
550.51	41804.31
550.68	42122.62
550.84	41647.49
551.01	42110.92
551.18	42010.28
551.34	41724.73
551.51	42356.67
551.68	42284.12
551.84	42005.59
552.01	42333.27
552.18	42403.49
552.34	42101.56
552.51	42440.93
552.68	42572.00
552.84	42403.49
553.01	42658.60
553.18	42656.26
553.34	42623.50
553.51	42190.50
553.67	42738.18
553.84	42665.63
554.01	42670.31
554.17	42995.64
554.34	43217.99
554.51	42768.61
554.67	42981.60
554.84	42899.68
555.00	42831.80
555.17	42822.44
555.33	42679.67
555.50	42665.63
555.67	42548.60
555.83	42637.54
556.00	42731.16
556.16	43475.45
556.33	42759.25
556.50	43070.54
556.66	43210.97
556.83	42518.17
556.99	43145.44
557.16	43452.05
557.32	43325.66
557.49	43412.26
557.65	42841.17
557.82	43002.66
557.98	43103.31
558.15	43503.54
558.32	43463.75
558.48	43077.56
558.65	43318.64
558.81	43419.28
558.98	43489.49
559.14	43222.67
559.31	42951.17
559.47	43629.93
559.64	43562.05
559.80	43501.20
559.97	43388.85
560.13	42932.45
560.30	43129.05
560.46	43601.84
560.63	43978.67
560.79	44257.19
560.96	43744.61
561.12	43573.75
561.29	43636.95
561.45	43753.97
561.61	43430.98
561.78	43859.30
561.94	43487.15
562.11	43658.01
562.27	43634.61
562.44	43377.15
562.60	44006.75
562.77	44383.58
562.93	44170.59
563.10	43819.51
563.26	43075.22
563.42	44072.29
563.59	43466.09
563.75	43955.26
563.92	44123.78
564.08	43765.68
564.24	43737.59
564.41	43838.23
564.57	44023.14
564.74	43978.67
564.90	43903.77
565.07	43854.62
565.23	44034.84
565.39	43899.09
565.56	44219.74
565.72	43552.69
565.88	44069.95
566.05	44194.00
566.21	43948.24
566.38	44341.45
566.54	43777.38
566.70	44154.21
566.87	44996.80
567.03	44020.80
567.19	44676.15
567.36	44004.41
567.52	43952.92
567.68	43803.13
567.85	44027.82
568.01	44287.62
568.17	43814.83
568.34	44535.71
568.50	44369.54
568.66	44055.90
568.83	44280.60
568.99	43779.72
569.15	44423.37
569.32	44098.03
569.48	43985.69
569.64	44540.39
569.81	44378.90
569.97	44339.11
570.13	44484.22
570.30	44119.10
570.46	44093.35
570.62	44432.73
570.78	43548.01
570.95	44016.11
571.11	44278.25
571.27	44299.32
571.43	44362.51
571.60	44247.83
571.76	44308.68
571.92	44327.41
572.09	44570.82
572.25	44610.61
572.41	43964.62
572.57	44786.15
572.74	44657.42
572.90	44231.44
573.06	44825.94
573.22	44203.36
573.38	44619.97
573.55	44528.69
573.71	44554.44
573.87	44629.34
574.03	44112.08
574.20	44741.68
574.36	44346.13
574.52	44474.86
574.68	44477.20
574.84	44605.93
575.01	44313.36
575.17	44271.23
575.33	44219.74
575.49	44194.00
575.65	44673.81
575.82	44704.23
575.98	44645.72
576.14	44617.63
576.30	45078.72
576.46	44524.01
576.62	44605.93
576.79	44423.37
576.95	44577.84
577.11	44769.77
577.27	44706.57
577.43	44949.99
577.59	44491.24
577.75	44596.57
577.92	44229.10
578.08	44367.20
578.24	44240.81
578.40	44664.44
578.56	44528.69
578.72	44605.93
578.88	44701.89
579.04	44638.70
579.21	44465.50
579.37	44336.77
579.53	44594.23
579.69	44004.41
579.85	44624.65
580.01	44704.23
580.17	44533.37
580.33	44650.40
580.49	44470.18
580.65	45170.00
580.82	45034.25
580.98	44399.96
581.14	44584.86
581.30	45041.27
581.46	44786.15
581.62	44690.19
581.78	44774.45
581.94	45052.97
582.10	44596.57
582.26	45052.97
582.42	44575.50
582.58	44811.90
582.74	44495.92
582.90	45001.48
583.06	45067.02
583.22	44699.55
583.38	44814.24
583.54	44907.86
583.70	44774.45
583.86	44481.88
584.02	44126.12
584.18	44634.02
584.34	44980.42
584.50	44751.04
584.66	44570.82
584.82	44577.84
584.98	44825.94
585.14	44687.85
585.30	45045.95
585.46	44954.67
585.62	44720.62
585.78	44638.70
585.94	44376.56
586.10	44664.44
586.26	44751.04
586.42	44718.28
586.58	45191.06
586.74	44568.48
586.90	44596.57
587.06	44788.49
587.22	45359.58
587.38	44711.25
587.54	44645.72
587.70	44851.69
587.86	44957.01
588.02	45034.25
588.18	44837.64
588.34	44690.19
588.49	44395.28
588.65	44254.85
588.81	44399.96
588.97	44844.66
589.13	44320.38
589.29	44327.41
589.45	44655.08
589.61	44531.03
589.77	44776.79
589.93	45055.31
590.08	45010.84
590.24	44854.03
