SpectraSuite Data File
++++++++++++++++++++++++++++++++++++
Date: Fri Oct 25 11:34:19 EDT 2013
User: price-jones
Dark Spectrum Present: No
Reference Spectrum Present: No
Number of Sampled Component Spectra: 1
Spectrometers: USB2+H05261
Integration Time (usec): 100000 (USB2+H05261)
Spectra Averaged: 1 (USB2+H05261)
Boxcar Smoothing: 0 (USB2+H05261)
Correct for Electrical Dark: No (USB2+H05261)
Strobe/Lamp Enabled: No (USB2+H05261)
Correct for Detector Non-linearity: No (USB2+H05261)
Correct for Stray Light: No (USB2+H05261)
Number of Pixels in Processed Spectrum: 2048
>>>>>Begin Processed Spectral Data<<<<<
365.73	280.86
365.92	280.86
366.12	280.86
366.32	173.20
366.52	177.88
366.72	189.58
366.91	184.90
367.11	161.50
367.31	208.31
367.51	234.05
367.70	196.60
367.90	215.33
368.10	170.86
368.30	198.95
368.49	241.08
368.69	154.48
368.89	180.22
369.09	203.63
369.28	201.29
369.48	196.60
369.68	224.69
369.87	212.99
370.07	315.97
370.27	266.82
370.47	264.48
370.66	465.77
370.86	545.34
371.06	550.03
371.25	613.22
371.45	531.30
371.65	601.52
371.84	484.49
372.04	503.22
372.24	587.47
372.44	510.24
372.63	610.88
372.83	559.39
373.03	631.94
373.22	550.03
373.42	620.24
373.62	627.26
373.81	601.52
374.01	627.26
374.21	608.54
374.40	566.41
374.60	617.90
374.79	662.37
374.99	674.07
375.19	669.39
375.38	662.37
375.58	671.73
375.78	667.05
375.97	678.76
376.17	690.46
376.37	641.31
376.56	690.46
376.76	643.65
376.95	662.37
377.15	645.99
377.35	730.25
377.54	627.26
377.74	699.82
377.93	709.18
378.13	702.16
378.33	692.80
378.52	744.29
378.72	772.38
378.91	800.46
379.11	655.35
379.31	697.48
379.50	685.78
379.70	732.59
379.89	697.48
380.09	681.10
380.28	723.23
380.48	648.33
380.68	737.27
380.87	704.50
381.07	760.67
381.26	727.91
381.46	840.25
381.65	814.51
381.85	734.93
382.04	800.46
382.24	737.27
382.43	704.50
382.63	734.93
382.83	763.01
383.02	828.55
383.22	861.32
383.41	849.61
383.61	816.85
383.80	823.87
384.00	816.85
384.19	795.78
384.39	795.78
384.58	816.85
384.78	826.21
384.97	807.48
385.17	830.89
385.36	821.53
385.56	823.87
385.75	868.34
385.95	730.25
386.14	924.51
386.34	828.55
386.53	826.21
386.72	842.59
386.92	917.49
387.11	819.19
387.31	901.11
387.50	875.36
387.70	875.36
387.89	931.53
388.09	856.64
388.28	868.34
388.48	917.49
388.67	919.83
388.86	889.40
389.06	868.34
389.25	894.08
389.45	973.66
389.64	908.13
389.84	980.68
390.03	1032.18
390.22	915.15
390.42	954.94
390.61	943.24
390.81	896.43
391.00	840.25
391.19	1020.47
391.39	973.66
391.58	880.04
391.78	936.21
391.97	1041.54
392.16	959.62
392.36	1046.22
392.55	1041.54
392.75	1032.18
392.94	1015.79
393.13	1064.94
393.33	1039.20
393.52	1135.16
393.71	1043.88
393.91	1104.73
394.10	1034.52
394.29	1153.88
394.49	1055.58
394.68	1100.05
394.88	1041.54
395.07	1170.27
395.26	1151.54
395.46	1125.80
395.65	1123.46
395.84	1170.27
396.04	1221.76
396.23	1107.07
396.42	1165.59
396.62	1249.85
396.81	1191.33
397.00	1114.10
397.19	1228.78
397.39	1137.50
397.58	1245.16
397.77	1273.25
397.97	1301.34
398.16	1196.01
398.35	1210.06
398.55	1196.01
398.74	1268.57
398.93	1329.42
399.12	1282.61
399.32	1226.44
399.51	1331.76
399.70	1331.76
399.90	1331.76
400.09	1247.51
400.28	1359.85
400.47	1256.87
400.67	1390.28
400.86	1338.79
401.05	1418.36
401.24	1411.34
401.44	1411.34
401.63	1432.41
401.82	1394.96
402.01	1404.32
402.21	1413.68
402.40	1404.32
402.59	1476.88
402.78	1458.15
402.97	1467.52
403.17	1476.88
403.36	1462.83
403.55	1451.13
403.74	1537.73
403.93	1549.43
404.13	1575.18
404.32	1596.25
404.51	1582.20
404.70	1535.39
404.89	1486.24
405.09	1694.55
405.28	1519.01
405.47	1629.01
405.66	1722.63
405.85	1689.87
406.05	1598.59
406.24	1673.48
406.43	1699.23
406.62	1664.12
406.81	1736.68
407.00	1750.72
407.20	1748.38
407.39	1722.63
407.58	1708.59
407.77	1785.83
407.96	1942.64
408.15	1944.99
408.34	1839.66
408.54	1895.83
408.73	1933.28
408.92	1907.54
409.11	1865.41
409.30	1973.07
409.49	2010.52
409.68	1982.43
409.87	1935.62
410.07	1900.52
410.26	1944.99
410.45	1987.11
410.64	2047.97
410.83	2202.44
411.02	2073.71
411.21	2094.78
411.40	2143.93
411.59	2139.25
411.78	2190.74
411.98	2143.93
412.17	2118.18
412.36	2223.51
412.55	2293.72
412.74	2235.21
412.93	2338.20
413.12	2129.89
413.31	2347.56
413.50	2183.72
413.69	2275.00
413.88	2452.88
414.07	2335.85
414.26	2429.48
414.45	2396.71
414.64	2499.69
414.83	2555.86
415.02	2520.76
415.22	2513.74
415.41	2555.86
415.60	2518.42
415.79	2558.21
415.98	2691.62
416.17	2593.31
416.36	2696.30
416.55	2628.42
416.74	2754.81
416.93	2853.11
417.12	2722.04
417.31	2712.68
417.50	2745.45
417.69	2813.32
417.88	2874.18
418.07	2904.60
418.26	2965.46
418.45	2822.69
418.64	2958.44
418.83	2855.45
419.02	2930.35
419.21	3131.64
419.39	2895.24
419.58	2963.12
419.77	2902.26
419.96	2979.50
420.15	3122.27
420.34	3059.08
420.53	3073.12
420.72	3122.27
420.91	3145.68
421.10	3122.27
421.29	3119.93
421.48	3070.78
421.67	3267.39
421.86	3304.84
422.05	3225.26
422.24	3267.39
422.43	3215.90
422.61	3342.28
422.80	3222.92
422.99	3234.62
423.18	3211.22
423.37	3318.88
423.56	3377.39
423.75	3241.64
423.94	3239.30
424.13	3082.49
424.32	3173.77
424.50	3300.16
424.69	3386.76
424.88	3384.41
425.07	3307.18
425.26	3241.64
425.45	3391.44
425.64	3368.03
425.83	3337.60
426.01	3332.92
426.20	3393.78
426.39	3368.03
426.58	3323.56
426.77	3412.50
426.96	3510.80
427.15	3428.88
427.33	3356.33
427.52	3255.69
427.71	3475.70
427.90	3466.33
428.09	3496.76
428.28	3531.87
428.46	3672.30
428.65	3417.18
428.84	3705.07
429.03	3723.79
429.22	3529.53
429.40	3679.32
429.59	3510.80
429.78	3463.99
429.97	3527.19
430.16	3637.19
430.34	3744.86
430.53	3756.56
430.72	3789.33
430.91	3721.45
431.10	3698.05
431.28	3737.84
431.47	3861.88
431.66	3885.29
431.85	3875.93
432.03	3901.67
432.22	4049.13
432.41	4053.81
432.60	3826.78
432.79	3899.33
432.97	3913.38
433.16	4028.06
433.35	4025.72
433.54	4063.17
433.72	4107.64
433.91	4032.74
434.10	4081.89
434.28	4203.60
434.47	4215.30
434.66	4065.51
434.85	4095.94
435.03	4203.60
435.22	4028.06
435.41	4266.80
435.59	4344.03
435.78	4386.16
435.97	4182.54
436.16	4175.52
436.34	4198.92
436.53	4294.88
436.72	4521.92
436.90	4290.20
437.09	4362.76
437.28	4259.78
437.46	4423.61
437.65	4461.06
437.84	4430.63
438.02	4526.60
438.21	4531.28
438.40	4374.46
438.58	4627.24
438.77	4634.26
438.96	4585.11
439.14	4564.04
439.33	4830.87
439.52	4720.86
439.70	4816.82
439.89	4807.46
440.08	4624.90
440.26	4922.15
440.45	4919.81
440.63	4875.34
440.82	5172.58
441.01	4978.32
441.19	4882.36
441.38	5203.01
441.57	5025.13
441.75	4978.32
441.94	5317.70
442.12	5205.35
442.31	5186.63
442.50	5282.59
442.68	5224.08
442.87	5195.99
443.05	5427.70
443.24	5221.74
443.43	5277.91
443.61	5453.45
443.80	5383.23
443.98	5338.76
444.17	5102.37
444.35	5345.78
444.54	5366.85
444.73	5451.11
444.91	5537.71
445.10	5430.04
445.28	5420.68
445.47	5416.00
445.65	5378.55
445.84	5476.85
446.02	5467.49
446.21	5523.66
446.39	5434.72
446.58	5514.30
446.77	5582.18
446.95	5301.31
447.14	5544.73
447.32	5610.26
447.51	5537.71
447.69	5430.04
447.88	5600.90
448.06	5603.24
448.25	5479.19
448.43	5369.19
448.62	5577.50
448.80	5692.18
448.99	5654.73
449.17	5720.27
449.36	5544.73
449.54	5746.02
449.73	5685.16
449.91	5914.53
450.10	5837.30
450.28	5949.64
450.46	5940.28
450.65	5966.03
450.83	6015.18
451.02	5713.25
451.20	5994.11
451.39	6167.31
451.57	6003.47
451.76	5809.21
451.94	6031.56
452.13	6139.23
452.31	6211.78
452.49	6129.86
452.68	6157.95
452.86	6113.48
453.05	6237.53
453.23	6092.41
453.42	6125.18
453.60	5982.41
453.78	6111.14
453.97	6120.50
454.15	6162.63
454.34	6242.21
454.52	6202.42
454.70	6352.21
454.89	6389.66
455.07	6424.77
455.26	6232.85
455.44	6431.79
455.62	6401.37
455.81	6553.50
455.99	6478.60
456.17	6541.80
456.36	6511.37
456.54	6665.85
456.73	6696.27
456.91	6902.24
457.09	6813.30
457.28	6864.79
457.46	6663.51
457.64	6953.73
457.83	6949.05
458.01	6911.60
458.19	7026.29
458.38	6874.15
458.56	7045.01
458.74	6888.20
458.93	6911.60
459.11	6841.39
459.29	7007.56
459.48	7026.29
459.66	7007.56
459.84	7178.42
460.03	7002.88
460.21	7297.79
460.39	7265.02
460.57	7140.97
460.76	7255.66
460.94	7393.75
461.12	7171.40
461.31	7248.64
461.49	7026.29
461.67	7220.55
461.85	7470.99
462.04	7276.73
462.22	7810.37
462.40	7517.80
462.59	7545.89
462.77	7623.12
462.95	7349.28
463.13	7424.18
463.32	7595.04
463.50	7754.19
463.68	7674.62
463.86	7698.02
464.05	7599.72
464.23	7623.12
464.41	7585.68
464.59	7482.69
464.78	8006.97
464.96	7747.17
465.14	7695.68
465.32	7602.06
465.50	7974.21
465.69	7913.35
465.87	7857.18
466.05	7763.56
466.23	7763.56
466.41	7786.96
466.60	8156.77
466.78	7929.74
466.96	7967.18
467.14	7915.69
467.32	8194.22
467.51	8109.96
467.69	7838.45
467.87	8112.30
468.05	8109.96
468.23	8028.04
468.41	8006.97
468.60	8226.98
468.78	8311.24
468.96	8170.81
469.14	8175.49
469.32	8351.03
469.50	8032.72
469.69	8374.44
469.87	8578.06
470.05	8477.42
470.23	8603.81
470.41	8592.11
470.59	8454.02
470.77	8620.19
470.95	8594.45
471.14	8767.65
471.32	8425.93
471.50	8732.54
471.68	8814.46
471.86	8809.78
472.04	8737.22
472.22	9142.13
472.40	8718.50
472.58	8863.61
472.77	8875.31
472.95	9137.45
473.13	9392.57
473.31	8851.91
473.49	9291.93
473.67	9039.15
473.85	9291.93
474.03	9357.46
474.21	9453.42
474.39	9343.42
474.57	9530.66
474.75	9577.47
474.93	9657.05
475.12	9727.27
475.30	9898.13
475.48	9582.15
475.66	9802.16
475.84	9444.06
476.02	9694.50
476.20	9834.93
476.38	10150.90
476.56	10190.69
476.74	10064.30
476.92	10148.56
477.10	10274.95
477.28	10335.81
477.46	10246.87
477.64	10466.88
477.82	10527.73
478.00	10841.36
478.18	10569.86
478.36	10761.78
478.54	10761.78
478.72	10972.43
478.90	11166.70
479.08	11288.40
479.26	11126.91
479.44	11208.83
479.62	11375.00
479.80	11410.11
479.98	11358.62
480.16	11939.07
480.34	11634.80
480.52	11777.58
480.70	11861.84
480.88	11454.58
481.06	11985.88
481.24	11974.18
481.41	11962.48
481.59	12486.76
481.77	12486.76
481.95	12334.62
482.13	12610.81
482.31	12650.60
482.49	12870.61
482.67	12685.70
482.85	12872.95
483.03	13053.17
483.21	13043.81
483.39	13439.36
483.57	13013.38
483.74	13336.37
483.92	13348.08
484.10	13331.69
484.28	13781.07
484.46	14211.73
484.64	14134.50
484.82	14122.79
485.00	14157.90
485.18	14293.65
485.35	14406.00
485.53	14473.87
485.71	14719.63
485.89	14981.77
486.07	14944.32
486.25	14878.79
486.43	14956.02
486.61	15061.35
486.78	15059.01
486.96	15138.58
487.14	15499.03
487.32	15386.68
487.50	15683.93
487.68	15709.68
487.85	16273.74
488.03	16006.92
488.21	16301.83
488.39	16262.04
488.57	16325.24
488.75	16533.54
488.92	16837.81
489.10	17097.61
489.28	16882.28
489.46	17050.80
489.64	17013.35
489.81	17486.14
489.99	17638.28
490.17	17291.88
490.35	17776.37
490.53	17816.16
490.70	18068.94
490.88	18200.01
491.06	18288.95
491.24	18127.45
491.41	18448.10
491.59	18438.74
491.77	18553.43
491.95	18555.77
492.13	18853.02
492.30	18864.72
492.48	18878.76
492.66	19042.60
492.84	19222.82
493.01	19180.69
493.19	19871.15
493.37	19459.21
493.54	19831.36
493.72	20060.73
493.90	19468.58
494.08	20058.39
494.25	20091.16
494.43	20346.28
494.61	20325.21
494.79	20407.13
494.96	20376.70
495.14	20769.91
495.32	20989.92
495.49	20926.73
495.67	21135.04
495.85	21228.66
496.02	21441.65
496.20	21659.32
496.38	21500.16
496.55	21979.97
496.73	21851.24
496.91	21799.75
497.09	21855.92
497.26	22066.57
497.44	21909.75
497.62	22431.69
497.79	22771.07
497.97	22176.58
498.14	22586.17
498.32	23035.55
498.50	22761.71
498.67	23140.88
498.85	22869.37
499.03	23122.15
499.20	23199.39
499.38	23183.01
499.56	23414.72
499.73	23751.76
499.91	23690.90
500.08	23590.26
500.26	23590.26
500.44	23707.29
500.61	23714.31
500.79	23515.36
500.97	24060.71
501.14	24414.13
501.32	24484.34
501.49	24395.40
501.67	24411.79
501.84	24734.78
502.02	24720.74
502.20	24474.98
502.37	24727.76
502.55	24833.08
502.72	24702.01
502.90	25085.86
503.07	24959.47
503.25	25266.08
503.43	25380.77
503.60	25074.16
503.78	25486.09
503.95	25500.14
504.13	25450.99
504.30	26155.49
504.48	25902.71
504.65	25612.48
504.83	25947.18
505.01	26239.75
505.18	26291.24
505.36	26352.09
505.53	26150.81
505.71	26363.79
505.88	26373.16
506.06	26515.93
506.23	26698.49
506.41	26441.03
506.58	26595.51
506.76	26630.62
506.93	27122.13
507.11	26817.86
507.28	27285.97
507.46	26733.60
507.63	27419.38
507.81	27494.27
507.98	27417.04
508.16	27042.55
508.33	27337.46
508.50	27679.18
508.68	27871.10
508.85	28233.88
509.03	27615.98
509.20	28161.33
509.38	28301.76
509.55	28374.31
509.73	28142.60
509.90	28491.34
510.08	28362.61
510.25	28444.53
510.42	28458.57
510.60	28914.98
510.77	28868.17
510.95	29071.79
511.12	28795.61
511.30	29043.71
511.47	28952.43
511.64	28884.55
511.82	29567.99
511.99	29228.61
512.17	28929.02
512.34	29259.04
512.51	29848.85
512.69	29909.71
512.86	29635.86
513.04	30066.52
513.21	29923.75
513.38	30174.19
513.56	30146.10
513.73	29724.80
513.90	30064.18
514.08	29949.50
514.25	30597.82
514.43	30520.59
514.60	30684.42
514.77	30359.09
514.95	30632.93
515.12	30532.29
515.29	30457.39
515.47	30967.63
515.64	31129.12
515.81	30558.03
515.99	31267.22
516.16	31077.63
516.33	31218.07
516.51	30754.64
516.68	31522.34
516.85	31171.25
517.03	32034.91
517.20	31498.93
517.37	31669.79
517.54	31594.89
517.72	31569.15
517.89	31655.75
518.06	32135.56
518.24	31700.22
518.41	31885.12
518.58	31587.87
518.75	31981.08
518.93	32261.94
519.10	31999.80
519.27	32423.44
519.45	32804.95
519.62	32449.19
519.79	32381.31
519.96	32650.47
520.14	32591.96
520.31	32404.72
520.48	32547.49
520.65	32673.88
520.83	33366.68
521.00	33317.53
521.17	33104.54
521.34	33214.54
521.52	33207.52
521.69	33329.23
521.86	33886.28
522.03	33514.13
522.20	33605.41
522.38	33689.67
522.55	34050.11
522.72	33839.47
522.89	33930.75
523.07	34405.88
523.24	33710.74
523.41	34440.98
523.58	34012.66
523.75	34286.51
523.92	34103.95
524.10	34136.71
524.27	34225.65
524.44	34569.71
524.61	34609.50
524.78	34380.13
524.96	34604.82
525.13	34752.27
525.30	34731.21
525.47	34808.45
525.64	34876.32
525.81	34981.65
525.98	35470.82
526.16	34663.33
526.33	35248.47
526.50	35089.31
526.67	34686.74
526.84	35199.32
527.01	35129.10
527.18	35306.98
527.36	35637.00
527.53	35522.31
527.70	36002.12
527.87	36011.48
528.04	35543.38
528.21	35573.80
528.38	36058.29
528.55	35751.68
528.72	35974.03
528.89	35971.69
529.07	35491.88
529.24	35765.73
529.41	36250.22
529.58	36140.21
529.75	35882.75
529.92	36388.31
530.09	36287.67
530.26	36503.00
530.43	36320.43
530.60	36528.74
530.77	36282.98
530.94	36678.54
531.11	36151.91
531.28	36638.75
531.46	36767.48
531.63	36767.48
531.80	36875.14
531.97	37090.47
532.14	37109.19
532.31	37240.26
532.48	36737.05
532.65	37340.91
532.82	36987.49
532.99	37186.43
533.16	36933.65
533.33	36971.10
533.50	37518.79
533.67	37415.80
533.84	36987.49
534.01	37132.60
534.18	37439.21
534.35	37865.19
534.52	37921.36
534.69	37706.03
534.86	38258.40
535.03	37809.01
535.20	38000.94
535.37	38047.75
535.54	38574.37
535.71	38068.81
535.88	38298.19
536.05	37823.06
536.22	38721.82
536.38	38298.19
536.55	38455.00
536.72	38232.65
536.89	37940.08
537.06	38593.09
537.23	38583.73
537.40	38321.59
537.57	38298.19
537.74	38560.33
537.91	39042.48
538.08	38808.42
538.25	38277.12
538.42	38675.01
538.59	39276.53
538.75	38895.02
538.92	39012.05
539.09	39147.80
539.26	38953.54
539.43	39189.93
539.60	39253.12
539.77	39339.72
539.94	39557.39
540.11	39510.58
540.28	39278.87
540.44	39622.93
540.61	39363.13
540.78	39360.79
540.95	39487.18
541.12	39463.77
541.29	39122.05
541.46	39763.36
541.62	39494.20
541.79	39358.45
541.96	39185.25
542.13	39789.11
542.30	39723.57
542.47	40039.54
542.63	39812.51
542.80	39920.18
542.97	40374.24
543.14	40243.17
543.31	40325.09
543.48	39966.99
543.64	40622.34
543.81	40509.99
543.98	40271.26
544.15	40563.82
544.32	40603.61
544.48	40858.73
544.65	40502.97
544.82	40531.06
544.99	40512.33
545.16	40879.80
545.32	40872.78
545.49	41242.58
545.66	41081.08
545.83	40673.83
546.00	41048.32
546.16	40802.56
546.33	40694.89
546.50	41242.58
546.67	41375.99
546.83	40769.79
547.00	41418.12
547.17	40699.58
547.34	41111.51
547.50	41385.35
547.67	41893.25
547.84	41289.39
548.00	41500.04
548.17	41771.54
548.34	41663.88
548.51	41970.49
548.67	41734.09
548.84	41801.97
549.01	41488.34
549.18	41375.99
549.34	41858.14
549.51	42150.71
549.68	41855.80
549.84	41970.49
550.01	41961.12
550.18	42178.79
550.34	41942.40
550.51	42267.73
550.68	42595.41
550.84	41930.70
551.01	42494.77
551.18	42040.70
551.34	42370.72
551.51	42337.95
551.68	42593.07
551.84	42188.16
552.01	42064.11
552.18	42667.97
552.34	42230.29
552.51	42787.33
552.68	42543.92
552.84	42387.10
553.01	42674.99
553.18	42597.75
553.34	42644.56
553.51	42412.85
553.67	42838.83
553.84	43288.21
554.01	42857.55
554.17	43208.63
554.34	43180.54
554.51	42869.25
554.67	43152.46
554.84	42691.37
555.00	43335.02
555.17	42864.57
555.33	43098.62
555.50	43054.15
555.67	43012.02
555.83	42394.12
556.00	42972.24
556.16	43775.04
556.33	43573.75
556.50	43253.10
556.66	43679.08
556.83	43145.44
556.99	43379.49
557.16	44100.37
557.32	43526.94
557.49	44058.24
557.65	43407.58
557.82	43824.19
557.98	43508.22
558.15	43636.95
558.32	43852.28
558.48	43608.86
558.65	43863.98
558.81	43948.24
558.98	43618.22
559.14	43805.47
559.31	43709.50
559.47	43716.53
559.64	44006.75
559.80	44102.71
559.97	44074.63
560.13	43973.98
560.30	43892.07
560.46	44275.91
560.63	43906.11
560.79	44329.75
560.96	43997.39
561.12	43821.85
561.29	43739.93
561.45	43948.24
561.61	43730.57
561.78	44023.14
561.94	44091.01
562.11	43927.17
562.27	44114.42
562.44	44233.78
562.60	44147.18
562.77	44381.24
562.93	44278.25
563.10	44603.59
563.26	44149.53
563.42	44477.20
563.59	44264.21
563.75	44189.31
563.92	44825.94
564.08	44704.23
564.24	44479.54
564.41	44561.46
564.57	44645.72
564.74	44765.09
564.90	44561.46
565.07	44556.78
565.23	44406.98
565.39	44531.03
565.56	44456.14
565.72	44676.15
565.88	44540.39
566.05	44580.18
566.21	44535.71
566.38	44538.05
566.54	44566.14
566.70	44409.32
566.87	44786.15
567.03	44477.20
567.19	45364.26
567.36	44931.26
567.52	44935.95
567.68	45024.89
567.85	45338.52
568.01	45106.80
568.17	44673.81
568.34	45174.68
568.50	44987.44
568.66	44626.99
568.83	44832.96
568.99	45071.70
569.15	45017.86
569.32	44711.25
569.48	45357.24
569.64	44912.54
569.81	45074.04
569.97	45546.82
570.13	45331.50
570.30	44882.11
570.46	45013.18
570.62	45078.72
570.78	45036.59
570.95	45240.21
571.11	45387.67
571.27	45317.45
571.43	45476.61
571.60	44947.65
571.76	44832.96
571.92	45272.98
572.09	45141.91
572.25	45521.08
572.41	45008.50
572.57	45483.63
572.74	45656.83
572.90	45553.85
573.06	45375.97
573.22	45298.73
573.38	45659.17
573.55	45544.48
573.71	45694.28
573.87	45289.37
574.03	45507.04
574.20	45624.06
574.36	45528.10
574.52	45399.37
574.68	45364.26
574.84	45670.87
575.01	45350.22
575.17	45167.66
575.33	45418.10
575.49	45310.43
575.65	45464.91
575.82	45251.92
575.98	45008.50
576.14	45682.58
576.30	45574.91
576.46	45537.46
576.62	45310.43
576.79	45705.98
576.95	45137.23
577.11	45413.41
577.27	45289.37
577.43	45656.83
577.59	45652.15
577.75	45230.85
577.92	45317.45
578.08	45645.13
578.24	45523.42
578.40	45598.32
578.56	45563.21
578.72	45453.20
578.88	45792.58
579.04	45869.82
579.21	45469.59
579.37	45652.15
579.53	46012.59
579.69	45626.40
579.85	45528.10
580.01	45483.63
580.17	45743.43
580.33	45635.77
580.49	45640.45
580.65	45563.21
580.82	45993.87
580.98	45797.26
581.14	45284.68
581.30	45645.13
581.46	45186.38
581.62	45593.64
581.78	45500.01
581.94	45631.08
582.10	45841.73
582.26	45741.09
582.42	45556.19
582.58	45371.28
582.74	45759.81
582.90	45581.93
583.06	46087.49
583.22	45633.42
583.38	45488.31
583.54	45815.99
583.70	45942.38
583.86	46078.13
584.02	45649.81
584.18	46028.98
584.34	46256.01
584.50	46050.04
584.66	46342.61
584.82	45860.46
584.98	46150.68
585.14	46066.42
585.30	46007.91
585.46	45925.99
585.62	45853.44
585.78	45996.21
585.94	45198.09
586.10	45425.12
586.26	45675.55
586.42	46113.23
586.58	45965.78
586.74	45649.81
586.90	45612.36
587.06	45549.17
587.22	45865.14
587.38	45598.32
587.54	45675.55
587.70	45879.18
587.86	45766.84
588.02	45652.15
588.18	45837.05
588.34	45598.32
588.49	46007.91
588.65	45851.09
588.81	46181.11
588.97	45876.84
589.13	46106.21
589.29	46094.51
589.45	46305.16
589.61	46043.02
589.77	46405.80
589.93	45806.62
590.08	46124.94
