SpectraSuite Data File
++++++++++++++++++++++++++++++++++++
Date: Fri Oct 25 10:47:53 EDT 2013
User: price-jones
Dark Spectrum Present: No
Reference Spectrum Present: No
Number of Sampled Component Spectra: 1
Spectrometers: USB2+H05261
Integration Time (usec): 100000 (USB2+H05261)
Spectra Averaged: 1 (USB2+H05261)
Boxcar Smoothing: 0 (USB2+H05261)
Correct for Electrical Dark: No (USB2+H05261)
Strobe/Lamp Enabled: No (USB2+H05261)
Correct for Detector Non-linearity: No (USB2+H05261)
Correct for Stray Light: No (USB2+H05261)
Number of Pixels in Processed Spectrum: 2048
>>>>>Begin Processed Spectral Data<<<<<
365.73	147.45
365.92	147.45
366.12	147.45
366.32	0.00
366.52	11.70
366.72	0.00
366.91	121.71
367.11	70.22
367.31	2.34
367.51	37.45
367.70	0.00
367.90	14.04
368.10	0.00
368.30	44.47
368.49	65.54
368.69	107.66
368.89	142.77
369.09	37.45
369.28	72.56
369.48	30.43
369.68	93.62
369.87	161.50
370.07	138.09
370.27	154.48
370.47	252.78
370.66	358.10
370.86	440.02
371.06	407.25
371.25	477.47
371.45	423.64
371.65	521.94
371.84	447.04
372.04	468.11
372.24	444.70
372.44	528.96
372.63	442.36
372.83	540.66
373.03	552.37
373.22	451.72
373.42	489.17
373.62	603.86
373.81	489.17
374.01	507.90
374.21	526.62
374.40	592.16
374.60	552.37
374.79	512.58
374.99	498.53
375.19	606.20
375.38	477.47
375.58	564.07
375.78	580.45
375.97	573.43
376.17	660.03
376.37	566.41
376.56	554.71
376.76	594.50
376.95	564.07
377.15	538.32
377.35	606.20
377.54	578.11
377.74	650.67
377.93	589.82
378.13	557.05
378.33	629.60
378.52	615.56
378.72	606.20
378.91	566.41
379.11	603.86
379.31	545.34
379.50	573.43
379.70	660.03
379.89	603.86
380.09	608.54
380.28	660.03
380.48	613.22
380.68	641.31
380.87	669.39
381.07	653.01
381.26	674.07
381.46	660.03
381.65	653.01
381.85	718.54
382.04	648.33
382.24	624.92
382.43	664.71
382.63	648.33
382.83	681.10
383.02	809.83
383.22	770.04
383.41	638.97
383.61	711.52
383.80	774.72
384.00	685.78
384.19	702.16
384.39	744.29
384.58	828.55
384.78	755.99
384.97	786.42
385.17	734.93
385.36	744.29
385.56	746.63
385.75	819.19
385.95	734.93
386.14	863.66
386.34	704.50
386.53	786.42
386.72	746.63
386.92	819.19
387.11	835.57
387.31	805.14
387.50	809.83
387.70	851.96
387.89	880.04
388.09	763.01
388.28	767.70
388.48	856.64
388.67	823.87
388.86	964.30
389.06	903.45
389.25	943.24
389.45	903.45
389.64	833.23
389.84	912.81
390.03	891.74
390.22	866.00
390.42	910.47
390.61	835.57
390.81	896.43
391.00	1004.09
391.19	997.07
391.39	1004.09
391.58	837.91
391.78	950.26
391.97	978.34
392.16	952.60
392.36	952.60
392.55	1008.77
392.75	987.71
392.94	994.73
393.13	917.49
393.33	1004.09
393.52	1006.43
393.71	1097.71
393.91	926.85
394.10	1011.11
394.29	1100.05
394.49	959.62
394.68	1062.60
394.88	1022.81
395.07	1118.78
395.26	1109.41
395.46	1093.03
395.65	1158.57
395.84	1088.35
396.04	1177.29
396.23	1137.50
396.42	1118.78
396.62	1111.75
396.81	1167.93
397.00	1104.73
397.19	1207.72
397.39	1203.04
397.58	1249.85
397.77	1193.67
397.97	1299.00
398.16	1301.34
398.35	1284.95
398.55	1242.82
398.74	1315.38
398.93	1383.26
399.12	1284.95
399.32	1273.25
399.51	1355.17
399.70	1341.13
399.90	1366.87
400.09	1387.94
400.28	1413.68
400.47	1448.79
400.67	1416.02
400.86	1451.13
401.05	1427.73
401.24	1439.43
401.44	1474.54
401.63	1511.99
401.82	1418.36
402.01	1509.65
402.21	1547.09
402.40	1509.65
402.59	1584.54
402.78	1476.88
402.97	1542.41
403.17	1483.90
403.36	1582.20
403.55	1631.35
403.74	1563.48
403.93	1647.74
404.13	1753.06
404.32	1636.03
404.51	1610.29
404.70	1708.59
404.89	1598.59
405.09	1661.78
405.28	1729.66
405.47	1713.27
405.66	1720.29
405.85	1769.44
406.05	1713.27
406.24	1724.97
406.43	1689.87
406.62	1839.66
406.81	1940.30
407.00	1809.23
407.20	1940.30
407.39	1750.72
407.58	1935.62
407.77	1909.88
407.96	1907.54
408.15	1954.35
408.34	1952.01
408.54	2031.58
408.73	2008.18
408.92	2003.50
409.11	2031.58
409.30	1996.48
409.49	1944.99
409.68	2054.99
409.87	2092.44
410.07	2001.16
410.26	2169.68
410.45	2153.29
410.64	2141.59
410.83	2218.83
411.02	2342.88
411.21	2202.44
411.40	2258.62
411.59	2277.34
411.78	2289.04
411.98	2326.49
412.17	2370.96
412.36	2282.02
412.55	2436.50
412.74	2429.48
412.93	2471.61
413.12	2443.52
413.31	2640.12
413.50	2471.61
413.69	2553.52
413.88	2583.95
414.07	2684.59
414.26	2520.76
414.45	2630.76
414.64	2628.42
414.83	2665.87
415.02	2691.62
415.22	2715.02
415.41	2841.41
415.60	2757.15
415.79	2857.79
415.98	2860.13
416.17	2958.44
416.36	2876.52
416.55	2860.13
416.74	2846.09
416.93	2782.90
417.12	2930.35
417.31	3007.59
417.50	2949.08
417.69	3089.51
417.88	3126.96
418.07	3049.72
418.26	3056.74
418.45	3023.97
418.64	3141.00
418.83	3133.98
419.02	3115.25
419.21	3311.86
419.39	3176.11
419.58	3187.81
419.77	3180.79
419.96	3255.69
420.15	3229.94
420.34	3335.26
420.53	3363.35
420.72	3353.99
420.91	3325.90
421.10	3353.99
421.29	3456.97
421.48	3524.85
421.67	3459.31
421.86	3382.07
422.05	3555.27
422.24	3461.65
422.43	3466.33
422.61	3496.76
422.80	3623.15
422.99	3545.91
423.18	3421.86
423.37	3566.98
423.56	3435.91
423.75	3569.32
423.94	3375.05
424.13	3297.81
424.32	3648.90
424.50	3524.85
424.69	3522.51
424.88	3562.30
425.07	3536.55
425.26	3300.16
425.45	3492.08
425.64	3459.31
425.83	3536.55
426.01	3653.58
426.20	3632.51
426.39	3669.96
426.58	3503.78
426.77	3648.90
426.96	3662.94
427.15	3702.73
427.33	3517.83
427.52	3719.11
427.71	3637.19
427.90	3826.78
428.09	3857.20
428.28	3756.56
428.46	3768.26
428.65	3747.20
428.84	3878.27
429.03	3822.09
429.22	3665.28
429.40	3819.75
429.59	3845.50
429.78	3653.58
429.97	3679.32
430.16	3775.28
430.34	3742.52
430.53	3852.52
430.72	4007.00
430.91	3861.88
431.10	3985.93
431.28	3943.80
431.47	4147.43
431.66	4060.83
431.85	4154.45
432.03	4114.66
432.22	4175.52
432.41	4290.20
432.60	4219.99
432.79	4320.63
432.97	4318.29
433.16	4278.50
433.35	4105.30
433.54	4231.69
433.72	4273.82
433.91	4255.09
434.10	4447.02
434.28	4182.54
434.47	4337.01
434.66	4477.44
434.85	4432.97
435.03	4432.97
435.22	4493.83
435.41	4578.09
435.59	4505.53
435.78	4571.07
435.97	4559.36
436.16	4568.73
436.34	4355.74
436.53	4697.46
436.72	4730.22
436.90	4540.64
437.09	4568.73
437.28	4585.11
437.46	4896.40
437.65	4678.73
437.84	4723.20
438.02	4718.52
438.21	4711.50
438.40	4479.79
438.58	5008.75
438.77	4863.63
438.96	4828.53
439.14	4868.31
439.33	5020.45
439.52	5242.80
439.70	5156.20
439.89	5006.41
440.08	5172.58
440.26	5146.84
440.45	5221.74
440.63	5207.69
440.82	5282.59
441.01	5385.57
441.19	5277.91
441.38	5401.96
441.57	5516.64
441.75	5530.69
441.94	5607.92
442.12	5643.03
442.31	5722.61
442.50	5760.06
442.68	5628.99
442.87	5736.65
443.05	5760.06
443.24	5781.12
443.43	5481.53
443.61	5841.98
443.80	5839.64
443.98	5720.27
444.17	5514.30
444.35	5877.09
444.54	5856.02
444.73	5846.66
444.91	5832.62
445.10	5846.66
445.28	5877.09
445.47	5790.49
445.65	5837.30
445.84	5783.46
446.02	5984.75
446.21	6038.58
446.39	5783.46
446.58	5933.26
446.77	6008.16
446.95	5853.68
447.14	6066.67
447.32	6010.50
447.51	5891.13
447.69	5909.85
447.88	6083.05
448.06	6076.03
448.25	5832.62
448.43	5994.11
448.62	5823.25
448.80	5951.98
448.99	6092.41
449.17	6108.80
449.36	5905.17
449.54	6090.07
449.73	6387.32
449.91	6373.28
450.10	6277.32
450.28	6319.45
450.46	6375.62
450.65	6436.47
450.83	6354.55
451.02	6443.49
451.20	6654.14
451.39	6455.20
451.57	6384.98
451.76	6420.09
451.94	6321.79
452.13	6363.92
452.31	6562.86
452.49	6392.00
452.68	6403.71
452.86	6579.25
453.05	6757.13
453.23	6499.67
453.42	6597.97
453.60	6511.37
453.78	6719.68
453.97	6588.61
454.15	6523.07
454.34	6609.67
454.52	6705.63
454.70	6846.07
454.89	6623.72
455.07	6614.35
455.26	6927.99
455.44	6967.77
455.62	6759.47
455.81	6848.41
455.99	7028.63
456.17	6991.18
456.36	6974.80
456.54	7112.89
456.73	7162.04
456.91	7171.40
457.09	7204.17
457.28	7253.32
457.46	7105.87
457.64	7454.61
457.83	7253.32
458.01	7176.08
458.19	7386.73
458.38	7211.19
458.56	7293.11
458.74	7300.13
458.93	7410.14
459.11	7501.42
459.29	7487.37
459.48	7527.16
459.66	7480.35
459.84	7644.19
460.03	7611.42
460.21	7756.54
460.39	7597.38
460.57	7618.44
460.76	7733.13
460.94	7676.96
461.12	7913.35
461.31	7686.32
461.49	7648.87
461.67	7468.65
461.85	7866.54
462.04	7939.10
462.22	8138.04
462.40	8067.83
462.59	7875.90
462.77	8049.10
462.95	8028.04
463.13	8051.44
463.32	7824.41
463.50	8030.38
463.68	8163.79
463.86	8065.49
464.05	7971.86
464.23	8086.55
464.41	8037.40
464.59	8049.10
464.78	8243.37
464.96	8168.47
465.14	8175.49
465.32	8241.03
465.50	8226.98
465.69	8210.60
465.87	8533.59
466.05	8283.16
466.23	8205.92
466.41	8311.24
466.60	8519.55
466.78	8400.18
466.96	8437.63
467.14	8276.13
467.32	8362.73
467.51	8542.96
467.69	8374.44
467.87	8355.71
468.05	8606.15
468.23	8526.57
468.41	8664.66
468.60	8608.49
468.78	8659.98
468.96	8622.53
469.14	8613.17
469.32	8842.54
469.50	8510.19
469.69	8772.33
469.87	8809.78
470.05	8840.20
470.23	8901.06
470.41	8870.63
470.59	8844.88
470.77	8868.29
470.95	9184.26
471.14	9160.86
471.32	9020.42
471.50	9270.86
471.68	9198.31
471.86	9266.18
472.04	9352.78
472.22	9551.73
472.40	9427.68
472.58	9298.95
472.77	9458.10
472.95	9624.28
473.13	9846.63
473.31	9631.30
473.49	9675.77
473.67	9884.08
473.85	9804.50
474.03	10050.26
474.21	9844.29
474.39	10104.09
474.57	9802.16
474.75	10120.48
474.93	10200.05
475.12	9905.15
475.30	10333.47
475.48	10071.33
475.66	10272.61
475.84	10050.26
476.02	10354.53
476.20	10338.15
476.38	10555.82
476.56	10616.67
476.74	10745.40
476.92	10616.67
477.10	10789.87
477.28	10986.47
477.46	10766.46
477.64	11070.73
477.82	11044.99
478.00	11213.51
478.18	11382.03
478.36	11494.37
478.54	11705.02
478.72	11477.99
478.90	11653.53
479.08	11611.40
479.26	11918.01
479.44	11838.43
479.62	12091.21
479.80	12037.38
479.98	12217.60
480.16	12379.09
480.34	12046.74
480.52	12585.06
480.70	12540.59
480.88	12233.98
481.06	12531.23
481.24	12678.68
481.41	12973.59
481.59	12732.51
481.77	13160.83
481.95	12886.99
482.13	13048.49
482.31	13256.79
482.49	13312.97
482.67	13472.12
482.85	13722.56
483.03	13844.27
483.21	14045.55
483.39	13816.18
483.57	13984.70
483.74	14083.00
483.92	14200.03
484.10	14176.62
484.28	14534.73
484.46	14677.50
484.64	14787.50
484.82	14817.93
485.00	14736.01
485.18	15066.03
485.35	15391.36
485.53	15126.88
485.71	15173.69
485.89	15138.58
486.07	15302.42
486.25	15274.34
486.43	16002.24
486.61	15564.56
486.78	16032.67
486.96	16084.16
487.14	16210.55
487.32	16308.85
487.50	16449.28
487.68	16168.42
487.85	16791.00
488.03	16833.13
488.21	16987.61
488.39	16753.55
488.57	17027.40
488.75	17317.62
488.92	17664.02
489.10	17612.53
489.28	17497.84
489.46	18195.32
489.64	17841.90
489.81	18239.79
489.99	18097.02
490.17	18597.90
490.35	18738.33
490.53	18775.78
490.70	18583.85
490.88	18876.42
491.06	19264.95
491.24	18562.79
491.41	19314.10
491.59	19080.05
491.77	19335.17
491.95	19412.40
492.13	19487.30
492.30	19995.20
492.48	19704.97
492.66	19775.19
492.84	19810.29
493.01	20294.79
493.19	20173.08
493.37	20428.20
493.54	20566.29
493.72	20659.91
493.90	20521.82
494.08	20882.26
494.25	21015.67
494.43	21104.61
494.61	21322.28
494.79	21392.50
494.96	21053.12
495.14	21284.83
495.32	21654.64
495.49	21743.58
495.67	21600.80
495.85	22033.80
496.02	22382.54
496.20	22281.90
496.38	22555.74
496.55	22429.35
496.73	23122.15
496.91	22635.32
497.09	22991.08
497.26	23098.75
497.44	22883.42
497.62	23145.56
497.79	23468.55
497.97	23190.03
498.14	23667.50
498.32	23716.65
498.50	23585.58
498.67	23950.70
498.85	23700.26
499.03	24140.29
499.20	24180.07
499.38	24107.52
499.56	24030.28
499.73	24662.22
499.91	24400.08
500.08	24737.12
500.26	24615.41
500.44	24687.97
500.61	25048.41
500.79	24634.14
500.97	24680.95
501.14	25111.61
501.32	24987.56
501.49	24790.95
501.67	24919.68
501.84	25296.51
502.02	25242.68
502.20	25378.43
502.37	25633.55
502.55	25795.04
502.72	25766.96
502.90	26148.46
503.07	25610.14
503.25	25895.69
503.43	26111.02
503.60	26382.52
503.78	26143.78
503.95	26621.25
504.13	26403.58
504.30	26665.72
504.48	26642.32
504.65	26836.58
504.83	26677.43
505.01	26721.90
505.18	26689.13
505.36	27136.17
505.53	27260.22
505.71	27386.61
505.88	27157.24
506.06	27253.20
506.23	27491.93
506.41	26965.31
506.58	27110.43
506.76	27646.41
506.93	27208.73
507.11	27632.36
507.28	27824.29
507.46	27744.71
507.63	28044.30
507.81	27782.16
507.98	27974.08
508.16	28692.63
508.33	28481.98
508.50	28421.13
508.68	28683.27
508.85	28613.05
509.03	28460.91
509.20	29139.67
509.38	28837.74
509.55	28858.81
509.73	29127.97
509.90	29378.40
510.08	29247.33
510.25	28929.02
510.42	29207.55
510.60	29811.40
510.77	29415.85
510.95	29640.54
511.12	29708.42
511.30	29858.21
511.47	29780.98
511.64	30155.46
511.82	30206.95
511.99	29846.51
512.17	30153.12
512.34	30164.82
512.51	30277.17
512.69	30426.96
512.86	30457.39
513.04	30878.69
513.21	30836.56
513.38	30806.13
513.56	31016.78
513.73	30136.74
513.90	30347.39
514.08	30986.35
514.25	30920.82
514.43	30747.62
514.60	30766.34
514.77	30824.86
514.95	31597.23
515.12	31440.42
515.29	30836.56
515.47	31693.19
515.64	31730.64
515.81	31409.99
515.99	31632.34
516.16	31552.76
516.33	31889.80
516.51	31782.13
516.68	31557.44
516.85	31564.46
517.03	31644.04
517.20	32060.66
517.37	32163.64
517.54	32243.22
517.72	32327.48
517.89	32402.38
518.06	32332.16
518.24	32009.17
518.41	31887.46
518.58	32378.97
518.75	32769.84
518.93	32727.71
519.10	32774.52
519.27	32900.91
519.45	32975.81
519.62	33195.82
519.79	33310.50
519.96	33242.63
520.14	32818.99
520.31	33223.90
520.48	33729.46
520.65	33326.89
520.83	33528.17
521.00	33362.00
521.17	33752.87
521.34	33706.05
521.52	33874.57
521.69	34183.52
521.86	33876.91
522.03	33495.41
522.20	34298.21
522.38	34227.99
522.55	34188.21
522.72	34223.31
522.89	34164.80
523.07	34679.72
523.24	34246.72
523.41	34082.88
523.58	34410.56
523.75	34960.58
523.92	34813.13
524.10	34808.45
524.27	34780.36
524.44	34995.69
524.61	34810.79
524.78	35108.04
524.96	35297.62
525.13	35728.28
525.30	35920.20
525.47	35714.23
525.64	35545.72
525.81	35936.59
525.98	35129.10
526.16	34979.31
526.33	35283.58
526.50	35529.33
526.67	35306.98
526.84	35613.59
527.01	35468.48
527.18	35796.15
527.36	35974.03
527.53	35576.14
527.70	36217.45
527.87	35941.27
528.04	35840.62
528.21	36123.83
528.38	35917.86
528.55	36430.44
528.72	36343.84
528.89	36381.29
529.07	36463.21
529.24	35875.73
529.41	35955.31
529.58	36533.42
529.75	36678.54
529.92	36556.83
530.09	36886.84
530.26	36844.71
530.43	36486.61
530.60	36706.62
530.77	36823.65
530.94	37277.71
531.11	37188.77
531.28	37008.55
531.46	37338.57
531.63	37338.57
531.80	36795.56
531.97	37067.06
532.14	37324.52
532.31	37085.79
532.48	37439.21
532.65	37509.43
532.82	37132.60
532.99	37825.40
533.16	37371.33
533.33	37727.10
533.50	37572.62
533.67	37865.19
533.84	37350.27
534.01	37670.92
534.18	37619.43
534.35	37956.47
534.52	38185.84
534.69	38169.46
534.86	38293.50
535.03	38031.36
535.20	38366.06
535.37	38455.00
535.54	38682.03
535.71	38492.45
535.88	38576.71
536.05	38253.72
536.22	38665.65
536.38	38108.60
536.55	38602.46
536.72	38735.87
536.89	38572.03
537.06	38714.80
537.23	38953.54
537.40	38990.98
537.57	38756.93
537.74	39208.65
537.91	39236.74
538.08	38768.63
538.25	38789.70
538.42	39108.01
538.59	39494.20
538.75	38756.93
538.92	39402.92
539.09	39260.15
539.26	39152.48
539.43	38693.74
539.60	39215.68
539.77	39096.31
539.94	39555.05
540.11	39377.17
540.28	39274.19
540.44	39311.64
540.61	39393.56
540.78	39819.53
540.95	39643.99
541.12	39655.70
541.29	39859.32
541.46	39484.84
541.62	39791.45
541.79	40306.37
541.96	39213.34
542.13	40275.94
542.30	39976.35
542.47	40114.44
542.63	39931.88
542.80	40421.05
542.97	40718.30
543.14	40650.42
543.31	40673.83
543.48	40308.71
543.64	40783.83
543.81	40657.45
543.98	40512.33
544.15	40507.65
544.32	40802.56
544.48	41284.71
544.65	40947.67
544.82	40856.39
544.99	40425.73
545.16	40514.67
545.32	40620.00
545.49	41160.66
545.66	41226.20
545.83	40821.28
546.00	41284.71
546.16	41043.63
546.33	40828.30
546.50	40591.91
546.67	40545.10
546.83	41092.79
547.00	40858.73
547.17	41013.21
547.34	41092.79
547.50	41310.46
547.67	41909.63
547.84	40935.97
548.00	41923.68
548.17	41537.49
548.34	41478.97
548.51	41741.11
548.67	41881.55
548.84	41703.67
549.01	41474.29
549.18	41420.46
549.34	41862.82
549.51	41785.58
549.68	42026.66
549.84	41670.90
550.01	42483.06
550.18	41682.60
550.34	41991.55
550.51	42014.96
550.68	42139.00
550.84	41687.28
551.01	42143.69
551.18	42174.11
551.34	42419.87
551.51	42232.63
551.68	41979.85
551.84	42183.48
552.01	41998.57
552.18	42590.73
552.34	42073.47
552.51	42178.79
552.68	42190.50
552.84	42873.93
553.01	43147.78
553.18	42684.35
553.34	42525.19
553.51	42391.78
553.67	42176.45
553.84	42848.19
554.01	42639.88
554.17	42906.70
554.34	42902.02
554.51	42923.08
554.67	43002.66
554.84	42726.48
555.00	42499.45
555.17	42948.83
555.33	43019.05
555.50	43147.78
555.67	43019.05
555.83	43035.43
556.00	43456.73
556.16	43391.19
556.33	43449.70
556.50	43009.68
556.66	43206.29
556.83	42749.88
556.99	43098.62
557.16	42897.34
557.32	43056.50
557.49	43604.18
557.65	42911.38
557.82	43028.41
557.98	42682.01
558.15	43229.69
558.32	43152.46
558.48	43119.69
558.65	43508.22
558.81	43512.90
558.98	43421.62
559.14	43842.92
559.31	43414.60
559.47	43615.88
559.64	43655.67
559.80	43587.80
559.97	43470.77
560.13	42951.17
560.30	43105.65
560.46	43655.67
560.63	43571.41
560.79	43777.38
560.96	43894.41
561.12	43927.17
561.29	43892.07
561.45	43601.84
561.61	43489.49
561.78	43566.73
561.94	43552.69
562.11	44231.44
562.27	43393.53
562.44	43723.55
562.60	44140.16
562.77	43959.94
562.93	43973.98
563.10	44023.14
563.26	43934.20
563.42	44030.16
563.59	43688.44
563.75	44058.24
563.92	44030.16
564.08	44161.23
564.24	44245.49
564.41	44133.14
564.57	44051.22
564.74	44130.80
564.90	44144.84
565.07	44048.88
565.23	43854.62
565.39	43981.01
565.56	44025.48
565.72	43978.67
565.88	44430.39
566.05	43761.00
566.21	44041.86
566.38	43634.61
566.54	43983.35
566.70	44531.03
566.87	44294.64
567.03	44046.54
567.19	44105.06
567.36	44458.48
567.52	43885.04
567.68	44226.76
567.85	44521.67
568.01	44247.83
568.17	44107.40
568.34	44123.78
568.50	43721.21
568.66	44058.24
568.83	44507.63
568.99	44437.41
569.15	44081.65
569.32	44161.23
569.48	43959.94
569.64	44467.84
569.81	44566.14
569.97	44304.00
570.13	44233.78
570.30	44575.50
570.46	44137.82
570.62	43957.60
570.78	44041.86
570.95	44208.04
571.11	44135.48
571.27	43711.84
571.43	44591.89
571.60	44495.92
571.76	44037.18
571.92	44254.85
572.09	44762.75
572.25	44514.65
572.41	44533.37
572.57	44196.34
572.74	45036.59
572.90	44524.01
573.06	44706.57
573.22	44406.98
573.38	44524.01
573.55	44381.24
573.71	44676.15
573.87	44364.85
574.03	44268.89
574.20	44488.90
574.36	44528.69
574.52	44428.05
574.68	44357.83
574.84	44416.35
575.01	44594.23
575.17	44601.25
575.33	44184.63
575.49	44109.74
575.65	44680.83
575.82	44720.62
575.98	44568.48
576.14	44467.84
576.30	44643.38
576.46	44395.28
576.62	44318.04
576.79	44446.77
576.95	43955.26
577.11	44416.35
577.27	44641.04
577.43	44957.01
577.59	44083.99
577.75	44444.43
577.92	44552.10
578.08	44348.47
578.24	44650.40
578.40	44601.25
578.56	44788.49
578.72	44257.19
578.88	44767.43
579.04	44718.28
579.21	44229.10
579.37	44416.35
579.53	44301.66
579.69	44275.91
579.85	44877.43
580.01	44729.98
580.17	44879.77
580.33	44575.50
580.49	44744.02
580.65	44769.77
580.82	44875.09
580.98	44844.66
581.14	44540.39
581.30	44903.18
581.46	44781.47
581.62	44954.67
581.78	44486.56
581.94	44811.90
582.10	44989.78
582.26	44634.02
582.42	44715.93
582.58	44432.73
582.74	44580.18
582.90	44516.99
583.06	44985.10
583.22	44910.20
583.38	44863.39
583.54	45104.46
583.70	44877.43
583.86	44584.86
584.02	44587.21
584.18	45052.97
584.34	44552.10
584.50	44772.11
584.66	44877.43
584.82	44767.43
584.98	44865.73
585.14	44514.65
585.30	44765.09
585.46	45041.27
585.62	44872.75
585.78	44701.89
585.94	44020.80
586.10	44526.35
586.26	44566.14
586.42	45378.31
586.58	44921.90
586.74	44928.92
586.90	44528.69
587.06	44886.79
587.22	45118.51
587.38	44676.15
587.54	44804.88
587.70	44809.56
587.86	45088.08
588.02	44598.91
588.18	44610.61
588.34	44795.51
588.49	44533.37
588.65	44144.84
588.81	44238.47
588.97	44350.81
589.13	44509.97
589.29	44636.36
589.45	44947.65
589.61	44809.56
589.77	45015.52
589.93	44708.91
590.08	45329.16
590.24	44884.45
