SpectraSuite Data File
++++++++++++++++++++++++++++++++++++
Date: Fri Oct 25 11:33:11 EDT 2013
User: price-jones
Dark Spectrum Present: No
Reference Spectrum Present: No
Number of Sampled Component Spectra: 1
Spectrometers: USB2+H05261
Integration Time (usec): 100000 (USB2+H05261)
Spectra Averaged: 1 (USB2+H05261)
Boxcar Smoothing: 0 (USB2+H05261)
Correct for Electrical Dark: No (USB2+H05261)
Strobe/Lamp Enabled: No (USB2+H05261)
Correct for Detector Non-linearity: No (USB2+H05261)
Correct for Stray Light: No (USB2+H05261)
Number of Pixels in Processed Spectrum: 2048
>>>>>Begin Processed Spectral Data<<<<<
365.73	292.57
365.92	292.57
366.12	292.57
366.32	191.92
366.52	166.18
366.72	119.37
366.91	177.88
367.11	152.13
367.31	189.58
367.51	140.43
367.70	105.32
367.90	205.97
368.10	138.09
368.30	201.29
368.49	208.31
368.69	220.01
368.89	128.73
369.09	149.79
369.28	184.90
369.48	208.31
369.68	220.01
369.87	278.52
370.07	271.50
370.27	266.82
370.47	266.82
370.66	423.64
370.86	507.90
371.06	561.73
371.25	601.52
371.45	552.37
371.65	552.37
371.84	543.00
372.04	594.50
372.24	622.58
372.44	557.05
372.63	615.56
372.83	622.58
373.03	606.20
373.22	620.24
373.42	566.41
373.62	606.20
373.81	545.34
374.01	683.44
374.21	603.86
374.40	653.01
374.60	681.10
374.79	655.35
374.99	554.71
375.19	664.71
375.38	676.41
375.58	688.12
375.78	638.97
375.97	634.29
376.17	692.80
376.37	617.90
376.56	678.76
376.76	669.39
376.95	664.71
377.15	725.57
377.35	751.31
377.54	723.23
377.74	645.99
377.93	741.95
378.13	634.29
378.33	711.52
378.52	739.61
378.72	814.51
378.91	767.70
379.11	718.54
379.31	671.73
379.50	627.26
379.70	828.55
379.89	802.80
380.09	702.16
380.28	709.18
380.48	779.40
380.68	753.65
380.87	657.69
381.07	690.46
381.26	779.40
381.46	763.01
381.65	765.36
381.85	770.04
382.04	770.04
382.24	758.33
382.43	809.83
382.63	849.61
382.83	704.50
383.02	828.55
383.22	779.40
383.41	737.27
383.61	793.44
383.80	858.98
384.00	788.76
384.19	795.78
384.39	842.59
384.58	784.08
384.78	840.25
384.97	842.59
385.17	784.08
385.36	870.68
385.56	882.38
385.75	835.57
385.95	807.48
386.14	842.59
386.34	884.72
386.53	915.15
386.72	866.00
386.92	873.02
387.11	875.36
387.31	894.08
387.50	858.98
387.70	919.83
387.89	1025.15
388.09	926.85
388.28	894.08
388.48	943.24
388.67	889.40
388.86	938.55
389.06	950.26
389.25	994.73
389.45	983.02
389.64	875.36
389.84	1013.45
390.03	999.41
390.22	957.28
390.42	1008.77
390.61	976.00
390.81	940.90
391.00	938.55
391.19	985.37
391.39	1071.97
391.58	1008.77
391.78	990.05
391.97	980.68
392.16	1018.13
392.36	1050.90
392.55	1032.18
392.75	1093.03
392.94	1071.97
393.13	1121.12
393.33	1090.69
393.52	1078.99
393.71	1046.22
393.91	1156.22
394.10	1104.73
394.29	1088.35
394.49	1104.73
394.68	1081.33
394.88	1128.14
395.07	1165.59
395.26	1128.14
395.46	1156.22
395.65	1188.99
395.84	1146.86
396.04	1238.14
396.23	1203.04
396.42	1254.53
396.62	1205.38
396.81	1242.82
397.00	1174.95
397.19	1226.44
397.39	1198.35
397.58	1329.42
397.77	1289.64
397.97	1284.95
398.16	1306.02
398.35	1357.51
398.55	1235.80
398.74	1380.92
398.93	1315.38
399.12	1303.68
399.32	1362.19
399.51	1343.47
399.70	1331.76
399.90	1310.70
400.09	1387.94
400.28	1308.36
400.47	1425.39
400.67	1448.79
400.86	1411.34
401.05	1284.95
401.24	1462.83
401.44	1563.48
401.63	1465.18
401.82	1476.88
402.01	1451.13
402.21	1425.39
402.40	1420.71
402.59	1537.73
402.78	1526.03
402.97	1502.62
403.17	1577.52
403.36	1575.18
403.55	1481.56
403.74	1582.20
403.93	1542.41
404.13	1582.20
404.32	1605.61
404.51	1710.93
404.70	1629.01
404.89	1589.22
405.09	1598.59
405.28	1636.03
405.47	1720.29
405.66	1708.59
405.85	1734.34
406.05	1804.55
406.24	1813.92
406.43	1832.64
406.62	1732.00
406.81	1774.13
407.00	1713.27
407.20	1776.47
407.39	1811.57
407.58	1877.11
407.77	1874.77
407.96	1858.39
408.15	1916.90
408.34	1867.75
408.54	1907.54
408.73	1912.22
408.92	1874.77
409.11	1970.73
409.30	1916.90
409.49	2001.16
409.68	2118.18
409.87	1994.14
410.07	2005.84
410.26	2008.18
410.45	2094.78
410.64	2115.84
410.83	2120.53
411.02	2090.10
411.21	2251.60
411.40	2169.68
411.59	2319.47
411.78	2310.11
411.98	2296.07
412.17	2176.70
412.36	2352.24
412.55	2284.36
412.74	2303.09
412.93	2345.22
413.12	2401.39
413.31	2338.20
413.50	2485.65
413.69	2478.63
413.88	2424.80
414.07	2480.97
414.26	2579.27
414.45	2506.71
414.64	2441.18
414.83	2588.63
415.02	2546.50
415.22	2642.46
415.41	2658.85
415.60	2703.32
415.79	2775.88
415.98	2612.04
416.17	2712.68
416.36	2747.79
416.55	2719.70
416.74	2869.50
416.93	2686.94
417.12	2860.13
417.31	2916.31
417.50	2928.01
417.69	3073.12
417.88	2958.44
418.07	2895.24
418.26	2970.14
418.45	2988.86
418.64	3122.27
418.83	3052.06
419.02	3094.19
419.21	3101.21
419.39	3148.02
419.58	3178.45
419.77	2998.23
419.96	3141.00
420.15	3351.65
420.34	3243.98
420.53	3321.22
420.72	3269.73
420.91	3274.41
421.10	3358.67
421.29	3382.07
421.48	3262.71
421.67	3403.14
421.86	3365.69
422.05	3283.77
422.24	3274.41
422.43	3428.88
422.61	3382.07
422.80	3442.93
422.99	3344.63
423.18	3389.10
423.37	3405.48
423.56	3471.01
423.75	3398.46
423.94	3384.41
424.13	3187.81
424.32	3232.28
424.50	3482.72
424.69	3538.89
424.88	3489.74
425.07	3375.05
425.26	3389.10
425.45	3527.19
425.64	3478.04
425.83	3459.31
426.01	3597.40
426.20	3410.16
426.39	3510.80
426.58	3471.01
426.77	3421.86
426.96	3550.59
427.15	3583.36
427.33	3480.38
427.52	3688.68
427.71	3655.92
427.90	3508.46
428.09	3616.13
428.28	3679.32
428.46	3726.13
428.65	3644.21
428.84	3723.79
429.03	3794.01
429.22	3749.54
429.40	3576.34
429.59	3761.24
429.78	3686.34
429.97	3733.15
430.16	3674.64
430.34	3875.93
430.53	3880.61
430.72	3754.22
430.91	3779.97
431.10	3927.42
431.28	4049.13
431.47	3932.10
431.66	3990.61
431.85	3896.99
432.03	4154.45
432.22	4194.24
432.41	4081.89
432.60	4140.41
432.79	4152.11
432.97	4236.37
433.16	4042.11
433.35	4175.52
433.54	4201.26
433.72	4297.22
433.91	4208.28
434.10	4299.56
434.28	4170.83
434.47	4269.14
434.66	4257.43
434.85	4205.94
435.03	4397.87
435.22	4292.54
435.41	4514.89
435.59	4550.00
435.78	4381.48
435.97	4423.61
436.16	4447.02
436.34	4449.36
436.53	4470.42
436.72	4608.51
436.90	4346.37
437.09	4610.86
437.28	4425.95
437.46	4545.32
437.65	4643.62
437.84	4760.65
438.02	4730.22
438.21	4739.58
438.40	4617.88
438.58	4826.18
438.77	4765.33
438.96	4800.44
439.14	5046.20
439.33	4786.40
439.52	5013.43
439.70	4807.46
439.89	5088.32
440.08	5015.77
440.26	5163.22
440.45	5137.48
440.63	5034.49
440.82	5247.48
441.01	5109.39
441.19	5128.11
441.38	5282.59
441.57	5270.89
441.75	5263.86
441.94	5371.53
442.12	5465.15
442.31	5469.83
442.50	5397.28
442.68	5507.28
442.87	5603.24
443.05	5626.65
443.24	5624.31
443.43	5504.94
443.61	5603.24
443.80	5659.42
443.98	5486.22
444.17	5263.86
444.35	5547.07
444.54	5694.52
444.73	5673.46
444.91	5640.69
445.10	5603.24
445.28	5561.11
445.47	5720.27
445.65	5778.78
445.84	5762.40
446.02	5809.21
446.21	5687.50
446.39	5781.12
446.58	5834.96
446.77	5895.81
446.95	5652.39
447.14	5762.40
447.32	5877.09
447.51	5788.14
447.69	5668.78
447.88	5884.11
448.06	5734.31
448.25	5701.54
448.43	5949.64
448.62	5895.81
448.80	5942.62
448.99	6026.88
449.17	6029.22
449.36	5879.43
449.54	6038.58
449.73	5968.37
449.91	6125.18
450.10	6195.40
450.28	6188.38
450.46	6092.41
450.65	6188.38
450.83	6134.54
451.02	6246.89
451.20	6160.29
451.39	6274.98
451.57	6228.17
451.76	6218.80
451.94	6101.78
452.13	6354.55
452.31	6375.62
452.49	6181.35
452.68	6436.47
452.86	6328.81
453.05	6480.94
453.23	6382.64
453.42	6373.28
453.60	6328.81
453.78	6537.12
453.97	6333.49
454.15	6506.69
454.34	6497.33
454.52	6607.33
454.70	6579.25
454.89	6602.65
455.07	6609.67
455.26	6654.14
455.44	6663.51
455.62	6658.82
455.81	6799.26
455.99	6682.23
456.17	6750.10
456.36	6902.24
456.54	6745.42
456.73	6911.60
456.91	7049.69
457.09	6848.41
457.28	7157.36
457.46	7049.69
457.64	7166.72
457.83	7192.47
458.01	7070.76
458.19	7386.73
458.38	7089.48
458.56	7370.35
458.74	7157.36
458.93	7171.40
459.11	7325.88
459.29	7246.30
459.48	7468.65
459.66	7260.34
459.84	7492.05
460.03	7428.86
460.21	7206.51
460.39	7379.71
460.57	7552.91
460.76	7637.17
460.94	7522.48
461.12	7625.47
461.31	7482.69
461.49	7396.09
461.67	7583.34
461.85	7723.77
462.04	7735.47
462.22	8013.99
462.40	7674.62
462.59	7733.13
462.77	7791.64
462.95	7840.79
463.13	7889.95
463.32	7889.95
463.50	8004.63
463.68	8124.00
463.86	8102.93
464.05	7812.71
464.23	7838.45
464.41	7871.22
464.59	7936.76
464.78	8184.85
464.96	8009.31
465.14	7943.78
465.32	8168.47
465.50	8184.85
465.69	8428.27
465.87	8259.75
466.05	8224.64
466.23	8119.32
466.41	8180.17
466.60	8437.63
466.78	8142.72
466.96	8077.19
467.14	8320.60
467.32	8390.82
467.51	8271.45
467.69	8358.05
467.87	8301.88
468.05	8538.27
468.23	8301.88
468.41	8454.02
468.60	8659.98
468.78	8425.93
468.96	8533.59
469.14	8568.70
469.32	8734.88
469.50	8599.13
469.69	8723.18
469.87	8786.37
470.05	8821.48
470.23	8847.22
470.41	8816.80
470.59	8950.21
470.77	9020.42
470.95	8879.99
471.14	9263.84
471.32	8926.80
471.50	9041.49
471.68	9142.13
471.86	9301.29
472.04	9312.99
472.22	9322.35
472.40	9242.78
472.58	9362.14
472.77	9329.38
472.95	9535.34
473.13	9825.57
473.31	9195.96
473.49	9558.75
473.67	9593.86
473.85	9575.13
474.03	9790.46
474.21	9771.74
474.39	9994.09
474.57	9846.63
474.75	9947.28
474.93	10068.98
475.12	9820.89
475.30	10059.62
475.48	10080.69
475.66	10221.12
475.84	10253.89
476.02	10471.56
476.20	10174.31
476.38	10525.39
476.56	10633.05
476.74	10700.93
476.92	10642.42
477.10	10611.99
477.28	10993.50
477.46	10539.43
477.64	10885.83
477.82	11070.73
478.00	11321.17
478.18	11229.89
478.36	11335.21
478.54	11520.12
478.72	11445.22
478.90	11754.17
479.08	11492.03
479.26	11840.77
479.44	11742.47
479.62	11749.49
479.80	11812.68
479.98	12154.40
480.16	12203.55
480.34	12243.34
480.52	12138.02
480.70	12369.73
480.88	12276.11
481.06	12606.13
481.24	12489.10
481.41	12865.92
481.59	12624.85
481.77	12957.21
481.95	12870.61
482.13	13228.71
482.31	13149.13
482.49	13535.32
482.67	13692.13
482.85	13699.16
483.03	13507.23
483.21	13724.90
483.39	13673.41
483.57	13975.34
483.74	13944.91
483.92	14047.90
484.10	14207.05
484.28	14368.55
484.46	14768.78
484.64	14885.81
484.82	14611.96
485.00	14806.23
485.18	15119.86
485.35	15297.74
485.53	15040.28
485.71	15220.50
485.89	15482.64
486.07	15667.55
486.25	15552.86
486.43	15847.77
486.61	15672.23
486.78	15829.04
486.96	16276.09
487.14	16358.00
487.32	16219.91
487.50	16343.96
487.68	16470.35
487.85	16688.02
488.03	16798.02
488.21	17200.60
488.39	16924.41
488.57	17200.60
488.75	17132.72
488.92	17390.18
489.10	17724.88
489.28	17738.92
489.46	17790.41
489.64	17839.56
489.81	18441.08
489.99	17956.59
490.17	18185.96
490.35	18623.64
490.53	18824.93
490.70	19164.31
490.88	18588.53
491.06	18965.36
491.24	19297.72
491.41	19344.53
491.59	19428.79
491.77	19248.57
491.95	19578.58
492.13	19700.29
492.30	19789.23
492.48	19779.87
492.66	19929.66
492.84	20259.68
493.01	20175.42
493.19	20280.74
493.37	20781.62
493.54	20325.21
493.72	20760.55
493.90	20898.64
494.08	21027.37
494.25	20968.86
494.43	21078.86
494.61	21186.53
494.79	21366.75
494.96	21397.18
495.14	21603.14
495.32	22045.51
495.49	21635.91
495.67	22171.89
495.85	22338.07
496.02	22359.14
496.20	22555.74
496.38	22735.96
496.55	22696.17
496.73	22963.00
496.91	22970.02
497.09	23187.69
497.26	23065.98
497.44	23103.43
497.62	23101.09
497.79	23307.05
497.97	23412.38
498.14	23620.69
498.32	23889.85
498.50	24109.86
498.67	24098.16
498.85	24079.43
499.03	24287.74
499.20	24603.71
499.38	24343.91
499.56	24905.64
499.73	24575.62
499.91	24580.31
500.08	25025.01
500.26	24795.64
500.44	25032.03
500.61	25008.62
500.79	24702.01
500.97	25546.95
501.14	25378.43
501.32	25315.23
501.49	25668.66
501.67	25488.43
501.84	25891.01
502.02	25802.07
502.20	25528.22
502.37	26249.11
502.55	25757.60
502.72	26003.35
502.90	26094.63
503.07	26363.79
503.25	26597.85
503.43	26146.12
503.60	26661.04
503.78	26527.63
503.95	26747.64
504.13	27056.59
504.30	27033.19
504.48	26984.04
504.65	27019.14
504.83	27248.52
505.01	27372.57
505.18	27182.98
505.36	27655.77
505.53	27529.38
505.71	27213.41
505.88	27917.91
506.06	27536.40
506.23	27878.12
506.41	28175.37
506.58	27861.74
506.76	28070.04
506.93	28044.30
507.11	28496.02
507.28	28343.89
507.46	28362.61
507.63	28353.25
507.81	28421.13
507.98	28449.21
508.16	28844.76
508.33	29041.37
508.50	29036.69
508.68	29032.00
508.85	29090.52
509.03	29125.63
509.20	29254.36
509.38	29151.37
509.55	29668.63
509.73	29607.78
509.90	29853.53
510.08	29748.21
510.25	30082.91
510.42	29916.73
510.60	30188.23
510.77	29998.65
510.95	30309.94
511.12	30155.46
511.30	29984.60
511.47	30349.73
511.64	30429.30
511.82	30487.82
511.99	30696.13
512.17	30705.49
512.34	30576.76
512.51	31143.17
512.69	30972.31
512.86	30646.97
513.04	30939.54
513.21	31271.90
513.38	31063.59
513.56	31505.95
513.73	31115.08
513.90	31597.23
514.08	31576.17
514.25	31740.00
514.43	32072.36
514.60	32100.45
514.77	31601.91
514.95	32334.50
515.12	31896.82
515.29	32102.79
515.47	32353.23
515.64	32594.30
515.81	32404.72
515.99	32748.78
516.16	32446.85
516.33	32409.40
516.51	32694.94
516.68	32601.32
516.85	32933.68
517.03	33287.10
517.20	33209.86
517.37	32840.06
517.54	33359.66
517.72	32896.23
517.89	33074.11
518.06	33383.06
518.24	32882.19
518.41	33233.27
518.58	33626.48
518.75	33102.20
518.93	33741.16
519.10	33591.37
519.27	33624.14
519.45	34213.95
519.62	34171.82
519.79	34302.89
519.96	33914.36
520.14	33790.31
520.31	34314.59
520.48	34492.47
520.65	34480.77
520.83	34754.61
521.00	34698.44
521.17	34646.95
521.34	34590.78
521.52	34623.54
521.69	34913.77
521.86	35154.85
522.03	35096.33
522.20	35344.43
522.38	35218.04
522.55	35880.41
522.72	35491.88
522.89	35517.63
523.07	35763.39
523.24	35367.84
523.41	35791.47
523.58	35917.86
523.75	35875.73
523.92	35983.40
524.10	35667.42
524.27	35981.06
524.44	36030.21
524.61	36053.61
524.78	36301.71
524.96	35875.73
525.13	36320.43
525.30	36470.23
525.47	36348.52
525.64	36531.08
525.81	36718.32
525.98	36999.19
526.16	36615.34
526.33	36416.40
526.50	36659.81
526.67	37043.66
526.84	36959.40
527.01	36856.42
527.18	36847.05
527.36	36732.37
527.53	37326.86
527.70	37408.78
527.87	37607.73
528.04	37523.47
528.21	37376.01
528.38	36877.48
528.55	37605.39
528.72	37577.30
528.89	37612.41
529.07	37521.13
529.24	37266.01
529.41	37607.73
529.58	37991.58
529.75	37783.27
529.92	38052.43
530.09	37715.39
530.26	37809.01
530.43	38363.72
530.60	37558.58
530.77	37949.45
530.94	38359.04
531.11	37996.26
531.28	38352.02
531.46	38216.27
531.63	38251.38
531.80	38543.94
531.97	38616.50
532.14	38976.94
532.31	38787.36
532.48	39016.73
532.65	39028.43
532.82	38656.29
532.99	38848.21
533.16	38969.92
533.33	38525.22
533.50	39168.87
533.67	38792.04
533.84	39143.12
534.01	39084.61
534.18	39487.18
534.35	39477.82
534.52	39306.96
534.69	39393.56
534.86	39871.03
535.03	39213.34
535.20	39419.30
535.37	39962.31
535.54	39517.60
535.71	39824.22
535.88	40095.72
536.05	39831.24
536.22	40381.26
536.38	39758.68
536.55	39768.04
536.72	39852.30
536.89	40257.21
537.06	39924.86
537.23	40612.98
537.40	40446.80
537.57	40095.72
537.74	40252.53
537.91	40575.53
538.08	40596.59
538.25	40343.81
538.42	40666.81
538.59	40643.40
538.75	40453.82
538.92	40753.41
539.09	40561.48
539.26	41336.20
539.43	40928.95
539.60	41163.00
539.77	40917.25
539.94	40889.16
540.11	41017.89
540.28	41385.35
540.44	41249.60
540.61	41254.28
540.78	41006.19
540.95	41352.58
541.12	40973.42
541.29	40919.59
541.46	41134.92
541.62	41509.40
541.79	41418.12
541.96	41177.04
542.13	41104.49
542.30	41291.73
542.47	41743.45
542.63	41846.44
542.80	42169.43
542.97	42176.45
543.14	42340.29
543.31	42206.88
543.48	42124.96
543.64	42892.66
543.81	42211.56
543.98	42433.91
544.15	42454.98
544.32	42567.32
544.48	43056.50
544.65	42782.65
544.82	42644.56
544.99	42621.16
545.16	42412.85
545.32	43112.67
545.49	42815.42
545.66	43126.71
545.83	43063.52
546.00	42990.96
546.16	42866.91
546.33	42609.45
546.50	43213.31
546.67	43299.91
546.83	42684.35
547.00	42689.03
547.17	43096.28
547.34	43033.09
547.50	43398.21
547.67	43522.26
547.84	43629.93
548.00	43686.10
548.17	43615.88
548.34	43526.94
548.51	43807.81
548.67	43356.08
548.84	43335.02
549.01	43540.99
549.18	43161.82
549.34	43725.89
549.51	43828.87
549.68	43981.01
549.84	43817.17
550.01	43924.83
550.18	43702.48
550.34	43732.91
550.51	43761.00
550.68	44107.40
550.84	43945.90
551.01	44278.25
551.18	43522.26
551.34	43711.84
551.51	44161.23
551.68	44093.35
551.84	44245.49
552.01	44278.25
552.18	44322.72
552.34	43856.96
552.51	44528.69
552.68	44224.42
552.84	43880.36
553.01	44765.09
553.18	44243.15
553.34	44549.76
553.51	44238.47
553.67	44814.24
553.84	44989.78
554.01	44954.67
554.17	44706.57
554.34	44889.13
554.51	44706.57
554.67	44945.31
554.84	44865.73
555.00	45013.18
555.17	44830.62
555.33	45188.72
555.50	45071.70
555.67	45186.38
555.83	44704.23
556.00	45261.28
556.16	45544.48
556.33	45099.78
556.50	45041.27
556.66	45254.26
556.83	45247.24
556.99	45394.69
557.16	44945.31
557.32	45701.30
557.49	45427.46
557.65	45666.19
557.82	45235.53
557.98	45500.01
558.15	45879.18
558.32	45591.30
558.48	45193.40
558.65	45511.72
558.81	45324.47
558.98	45696.62
559.14	46094.51
559.31	45338.52
559.47	45310.43
559.64	45846.41
559.80	46047.70
559.97	45837.05
560.13	45347.88
560.30	46099.19
560.46	46136.64
560.63	46131.96
560.79	46096.85
560.96	46087.49
561.12	46260.69
561.29	46181.11
561.45	46045.36
561.61	46312.18
561.78	45830.03
561.94	45900.25
562.11	46195.15
562.27	46080.47
562.44	45989.19
562.60	46012.59
562.77	46405.80
562.93	46183.45
563.10	46323.88
563.26	46452.61
563.42	46745.18
563.59	46071.10
563.75	46300.48
563.92	45933.01
564.08	46213.88
564.24	46373.03
564.41	46302.82
564.57	46440.91
564.74	46410.48
564.90	46174.09
565.07	46555.60
565.23	46405.80
565.39	46515.81
565.56	46550.91
565.72	46616.45
565.88	46768.58
566.05	46511.13
566.21	46534.53
566.38	46567.30
566.54	46824.76
566.70	46815.40
566.87	46394.10
567.03	46674.96
567.19	46946.47
567.36	46852.84
567.52	46614.11
567.68	47063.49
567.85	46775.61
568.01	46934.76
568.17	46768.58
568.34	46756.88
568.50	47028.38
568.66	46522.83
568.83	46822.42
568.99	46665.60
569.15	47192.22
569.32	46752.20
569.48	46836.46
569.64	46784.97
569.81	46588.36
569.97	47042.43
570.13	47386.49
570.30	47026.04
570.46	46948.81
570.62	46925.40
570.78	47264.78
570.95	46670.28
571.11	47082.22
571.27	47042.43
571.43	47096.26
571.60	46756.88
571.76	46784.97
571.92	46869.23
572.09	47110.30
572.25	47014.34
572.41	47185.20
572.57	47147.75
572.74	47648.63
572.90	46433.89
573.06	47253.08
573.22	47508.19
573.38	47297.55
573.55	47192.22
573.71	47751.61
573.87	47208.61
574.03	47213.29
574.20	47569.05
574.36	47454.36
574.52	47718.84
574.68	47299.89
574.84	47430.96
575.01	47430.96
575.17	47519.90
575.33	47421.59
575.49	47194.56
575.65	47299.89
575.82	47550.32
575.98	47547.98
576.14	47653.31
576.30	47484.79
576.46	47140.73
576.62	47667.35
576.79	47555.00
576.95	46906.68
577.11	47061.15
577.27	47681.39
577.43	47166.48
577.59	47445.00
577.75	47349.04
577.92	47030.72
578.08	47203.92
578.24	47206.26
578.40	47510.53
578.56	47423.93
578.72	47147.75
578.88	47690.76
579.04	47674.37
579.21	47365.42
579.37	47405.21
579.53	47374.78
579.69	47423.93
579.85	47683.73
580.01	47311.59
580.17	47679.05
580.33	47997.37
580.49	47227.33
580.65	47512.88
580.82	47948.21
580.98	47262.44
581.14	47569.05
581.30	47356.06
581.46	47531.60
581.62	47679.05
581.78	47494.15
581.94	47487.13
582.10	47232.01
582.26	47791.40
582.42	47510.53
582.58	47522.24
582.74	47665.01
582.90	47442.66
583.06	48074.60
583.22	47412.23
583.38	47203.92
583.54	47772.67
583.70	47847.57
583.86	47817.14
584.02	47538.62
584.18	47758.63
584.34	48257.17
584.50	48100.35
584.66	48137.80
584.82	47777.36
584.98	47980.98
585.14	47587.77
585.30	47704.80
585.46	47430.96
585.62	47639.26
585.78	47772.67
585.94	47072.85
586.10	47707.14
586.26	47297.55
586.42	47407.55
586.58	47730.54
586.74	47657.99
586.90	47297.55
587.06	47711.82
587.22	47910.77
587.38	47604.16
587.54	48170.57
587.70	48273.55
587.86	48076.94
588.02	47943.53
588.18	47784.38
588.34	47519.90
588.49	47775.02
588.65	48018.43
588.81	47714.16
588.97	47697.78
589.13	47959.92
589.29	47615.86
589.45	48090.99
589.61	48435.05
589.77	48442.07
589.93	47838.21
