SpectraSuite Data File
++++++++++++++++++++++++++++++++++++
Date: Fri Oct 25 10:43:56 EDT 2013
User: price-jones
Dark Spectrum Present: No
Reference Spectrum Present: No
Number of Sampled Component Spectra: 1
Spectrometers: USB2+H05261
Integration Time (usec): 100000 (USB2+H05261)
Spectra Averaged: 1 (USB2+H05261)
Boxcar Smoothing: 0 (USB2+H05261)
Correct for Electrical Dark: No (USB2+H05261)
Strobe/Lamp Enabled: No (USB2+H05261)
Correct for Detector Non-linearity: No (USB2+H05261)
Correct for Stray Light: No (USB2+H05261)
Number of Pixels in Processed Spectrum: 2048
>>>>>Begin Processed Spectral Data<<<<<
365.73	74.90
365.92	74.90
366.12	74.90
366.32	56.17
366.52	35.11
366.72	46.81
366.91	30.43
367.11	63.19
367.31	2.34
367.51	25.75
367.70	0.00
367.90	67.88
368.10	60.85
368.30	18.72
368.49	39.79
368.69	37.45
368.89	0.00
369.09	53.83
369.28	23.41
369.48	168.52
369.68	72.56
369.87	95.96
370.07	100.64
370.27	102.98
370.47	184.90
370.66	433.00
370.86	442.36
371.06	479.81
371.25	533.64
371.45	449.38
371.65	402.57
371.84	465.77
372.04	449.38
372.24	512.58
372.44	491.51
372.63	540.66
372.83	533.64
373.03	571.09
373.22	491.51
373.42	559.39
373.62	531.30
373.81	554.71
374.01	664.71
374.21	582.79
374.40	491.51
374.60	571.09
374.79	580.45
374.99	589.82
375.19	564.07
375.38	610.88
375.58	631.94
375.78	657.69
375.97	592.16
376.17	685.78
376.37	582.79
376.56	660.03
376.76	587.47
376.95	624.92
377.15	624.92
377.35	660.03
377.54	648.33
377.74	624.92
377.93	615.56
378.13	608.54
378.33	746.63
378.52	636.63
378.72	699.82
378.91	671.73
379.11	587.47
379.31	622.58
379.50	702.16
379.70	718.54
379.89	702.16
380.09	683.44
380.28	734.93
380.48	828.55
380.68	760.67
380.87	702.16
381.07	748.97
381.26	702.16
381.46	748.97
381.65	678.76
381.85	706.84
382.04	744.29
382.24	746.63
382.43	774.72
382.63	706.84
382.83	688.12
383.02	730.25
383.22	784.08
383.41	643.65
383.61	739.61
383.80	746.63
384.00	786.42
384.19	809.83
384.39	788.76
384.58	856.64
384.78	873.02
384.97	856.64
385.17	807.48
385.36	835.57
385.56	755.99
385.75	828.55
385.95	833.23
386.14	929.19
386.34	866.00
386.53	924.51
386.72	805.14
386.92	884.72
387.11	954.94
387.31	823.87
387.50	868.34
387.70	854.30
387.89	788.76
388.09	866.00
388.28	978.34
388.48	868.34
388.67	940.90
388.86	1027.50
389.06	1001.75
389.25	1036.86
389.45	1086.01
389.64	1025.15
389.84	1050.90
390.03	1004.09
390.22	1116.44
390.42	1029.84
390.61	1093.03
390.81	1163.25
391.00	1107.07
391.19	1097.71
391.39	1135.16
391.58	1036.86
391.78	1121.12
391.97	1114.10
392.16	994.73
392.36	1151.54
392.55	1020.47
392.75	1036.86
392.94	1046.22
393.13	1088.35
393.33	994.73
393.52	1020.47
393.71	1205.38
393.91	1111.75
394.10	1188.99
394.29	1172.61
394.49	1291.98
394.68	1287.29
394.88	1231.12
395.07	1296.66
395.26	1299.00
395.46	1275.59
395.65	1235.80
395.84	1200.69
396.04	1296.66
396.23	1231.12
396.42	1160.91
396.62	1275.59
396.81	1313.04
397.00	1315.38
397.19	1322.40
397.39	1313.04
397.58	1404.32
397.77	1430.07
397.97	1455.81
398.16	1537.73
398.35	1549.43
398.55	1509.65
398.74	1554.12
398.93	1643.06
399.12	1610.29
399.32	1549.43
399.51	1509.65
399.70	1528.37
399.90	1572.84
400.09	1699.23
400.28	1666.46
400.47	1621.99
400.67	1757.74
400.86	1689.87
401.05	1778.81
401.24	1799.87
401.44	1825.62
401.63	1909.88
401.82	1863.07
402.01	1729.66
402.21	1797.53
402.40	1816.26
402.59	1781.15
402.78	1820.94
402.97	1902.86
403.17	1820.94
403.36	1849.02
403.55	1975.41
403.74	1952.01
403.93	1963.71
404.13	1963.71
404.32	2052.65
404.51	1891.15
404.70	1949.67
404.89	2047.97
405.09	2050.31
405.28	1982.43
405.47	2057.33
405.66	1977.75
405.85	2076.06
406.05	2150.95
406.24	2211.81
406.43	2073.71
406.62	2139.25
406.81	2139.25
407.00	2195.42
407.20	2136.91
407.39	2214.15
407.58	2251.60
407.77	2275.00
407.96	2340.54
408.15	2354.58
408.34	2317.13
408.54	2389.69
408.73	2448.20
408.92	2431.82
409.11	2502.03
409.30	2459.90
409.49	2326.49
409.68	2396.71
409.87	2396.71
410.07	2555.86
410.26	2520.76
410.45	2422.45
410.64	2605.02
410.83	2544.16
411.02	2560.55
411.21	2614.38
411.40	2649.49
411.59	2729.06
411.78	2745.45
411.98	2698.64
412.17	2857.79
412.36	2813.32
412.55	2822.69
412.74	2846.09
412.93	2803.96
413.12	2810.98
413.31	3021.63
413.50	2897.58
413.69	2890.56
413.88	2953.76
414.07	2974.82
414.26	3077.80
414.45	2949.08
414.64	3042.70
414.83	3063.76
415.02	3119.93
415.22	3272.07
415.41	3283.77
415.60	3321.22
415.79	3466.33
415.98	3384.41
416.17	3382.07
416.36	3405.48
416.55	3386.76
416.74	3426.54
416.93	3288.45
417.12	3461.65
417.31	3405.48
417.50	3414.84
417.69	3520.17
417.88	3616.13
418.07	3641.87
418.26	3520.17
418.45	3707.41
418.64	3791.67
418.83	3684.00
419.02	3698.05
419.21	3730.81
419.39	3822.09
419.58	3686.34
419.77	3667.62
419.96	3700.39
420.15	3889.97
420.34	3878.27
420.53	3885.29
420.72	3929.76
420.91	3836.14
421.10	3943.80
421.29	4002.32
421.48	3901.67
421.67	4002.32
421.86	4044.45
422.05	3927.42
422.24	3868.91
422.43	4112.32
422.61	4093.60
422.80	4042.11
422.99	4147.43
423.18	4084.23
423.37	4065.51
423.56	4065.51
423.75	4058.49
423.94	4056.15
424.13	3796.35
424.32	3999.98
424.50	4147.43
424.69	4180.20
424.88	4107.64
425.07	4198.92
425.26	3978.91
425.45	4091.26
425.64	4053.81
425.83	4030.40
426.01	4182.54
426.20	4191.90
426.39	4163.81
426.58	4149.77
426.77	4161.47
426.96	4299.56
427.15	4166.15
427.33	4177.86
427.52	4285.52
427.71	4325.31
427.90	4327.65
428.09	4264.46
428.28	4322.97
428.46	4353.40
428.65	4379.14
428.84	4435.32
429.03	4425.95
429.22	4322.97
429.40	4257.43
429.59	4332.33
429.78	4056.15
429.97	4117.00
430.16	4114.66
430.34	4301.90
430.53	4482.13
430.72	4397.87
430.91	4374.46
431.10	4456.38
431.28	4704.48
431.47	4863.63
431.66	4833.21
431.85	4685.75
432.03	4652.98
432.22	4802.78
432.41	4880.02
432.60	4856.61
432.79	4889.38
432.97	5104.71
433.16	4903.42
433.35	4842.57
433.54	4744.27
433.72	4849.59
433.91	4863.63
434.10	4863.63
434.28	4971.30
434.47	5067.26
434.66	5273.23
434.85	5174.92
435.03	5160.88
435.22	5135.14
435.41	5373.87
435.59	5322.38
435.78	5343.44
435.97	5219.39
436.16	5472.17
436.34	5320.04
436.53	5376.21
436.72	5430.04
436.90	5355.15
437.09	5338.76
437.28	5320.04
437.46	5284.93
437.65	5579.84
437.84	5345.78
438.02	5385.57
438.21	5259.18
438.40	5268.55
438.58	5612.60
438.77	5420.68
438.96	5535.37
439.14	5724.95
439.33	5729.63
439.52	5940.28
439.70	5757.72
439.89	5926.24
440.08	5919.21
440.26	5816.23
440.45	5902.83
440.63	6047.94
440.82	6167.31
441.01	6207.10
441.19	6263.27
441.38	6394.34
441.57	6457.54
441.75	6420.09
441.94	6527.75
442.12	6438.81
442.31	6658.82
442.50	6565.20
442.68	6621.38
442.87	6658.82
443.05	6569.88
443.24	6778.19
443.43	6520.73
443.61	6600.31
443.80	6904.58
443.98	6686.91
444.17	6532.44
444.35	6726.70
444.54	6951.39
444.73	6752.45
444.91	6862.45
445.10	6773.51
445.28	6722.02
445.47	6637.76
445.65	6628.40
445.84	6815.64
446.02	6871.81
446.21	6850.75
446.39	6743.08
446.58	6995.86
446.77	6841.39
446.95	6752.45
447.14	6829.68
447.32	7180.76
447.51	6867.13
447.69	6862.45
447.88	7091.82
448.06	6974.80
448.25	7030.97
448.43	6927.99
448.62	6981.82
448.80	7059.06
448.99	7185.44
449.17	7335.24
449.36	7077.78
449.54	7293.11
449.73	7440.56
449.91	7393.75
450.10	7538.87
450.28	7609.08
450.46	7524.82
450.65	7428.86
450.83	7482.69
451.02	7426.52
451.20	7515.46
451.39	7515.46
451.57	7473.33
451.76	7398.43
451.94	7557.59
452.13	7550.57
452.31	7576.31
452.49	7403.11
452.68	7606.74
452.86	7337.58
453.05	7630.15
453.23	7630.15
453.42	7681.64
453.60	7630.15
453.78	7861.86
453.97	7660.57
454.15	7789.30
454.34	7595.04
454.52	7791.64
454.70	7669.94
454.89	7922.71
455.07	7896.97
455.26	7875.90
455.44	8018.68
455.62	7929.74
455.81	8138.04
455.99	7999.95
456.17	8166.13
456.36	8079.53
456.54	8404.86
456.73	8332.31
456.91	8273.79
457.09	8526.57
457.28	8631.90
457.46	8517.21
457.64	8505.51
457.83	8554.66
458.01	8404.86
458.19	8737.22
458.38	8514.87
458.56	8716.16
458.74	8547.64
458.93	8617.85
459.11	8828.50
459.29	8772.33
459.48	8512.53
459.66	8741.90
459.84	8856.59
460.03	8901.06
460.21	8730.20
460.39	9015.74
460.57	8980.64
460.76	8882.33
460.94	8968.93
461.12	8971.27
461.31	8978.30
461.49	8908.08
461.67	9018.08
461.85	9195.96
462.04	9149.15
462.22	9207.67
462.40	9266.18
462.59	9350.44
462.77	9135.11
462.95	9390.23
463.13	9312.99
463.32	9252.14
463.50	9437.04
463.68	9111.71
463.86	9268.52
464.05	9123.41
464.23	9282.56
464.41	9401.93
464.59	9308.31
464.78	9645.35
464.96	9404.27
465.14	9448.74
465.32	9635.99
465.50	9638.33
465.69	9523.64
465.87	9771.74
466.05	9577.47
466.23	9336.40
466.41	9563.43
466.60	9968.34
466.78	9563.43
466.96	9612.58
467.14	9858.34
467.32	9792.80
467.51	9717.90
467.69	9507.26
467.87	9696.84
468.05	9724.93
468.23	9806.84
468.41	9895.78
468.60	10057.28
468.78	9980.04
468.96	9949.62
469.14	10087.71
469.32	10193.03
469.50	9701.52
469.69	10415.38
469.87	10258.57
470.05	10413.04
470.23	10214.10
470.41	10155.58
470.59	10251.55
470.77	10305.38
470.95	10539.43
471.14	10719.65
471.32	10457.51
471.50	10766.46
471.68	10485.60
471.86	10939.66
472.04	10867.11
472.22	11243.93
472.40	10466.88
472.58	10789.87
472.77	10817.96
472.95	10888.17
473.13	11335.21
473.31	11009.88
473.49	11187.76
473.67	10986.47
473.85	11162.01
474.03	11445.22
474.21	11447.56
474.39	11304.79
474.57	11616.08
474.75	11669.91
474.93	11634.80
475.12	11590.33
475.30	11634.80
475.48	11597.35
475.66	11674.59
475.84	11805.66
476.02	11749.49
476.20	11679.27
476.38	12011.63
476.56	12219.94
476.74	12095.89
476.92	12264.41
477.10	12222.28
477.28	12376.75
477.46	12479.74
477.64	12709.11
477.82	12856.56
478.00	13240.41
478.18	13036.78
478.36	13076.57
478.54	13240.41
478.72	13195.94
478.90	13376.16
479.08	13734.26
479.26	13387.86
479.44	13722.56
479.62	13612.56
479.80	13804.48
479.98	13825.54
480.16	14391.95
480.34	14237.48
480.52	14181.31
480.70	14167.26
480.88	14361.53
481.06	14595.58
481.24	14504.30
481.41	14663.46
481.59	14869.42
481.77	15087.09
481.95	15084.75
482.13	15112.84
482.31	15138.58
482.49	15433.49
482.67	15550.52
482.85	15583.29
483.03	15733.08
483.21	15777.55
483.39	16027.99
483.57	15796.28
483.74	15859.47
483.92	16269.06
484.10	16147.36
484.28	16514.82
484.46	16854.20
484.64	16861.22
484.82	16692.70
485.00	16699.72
485.18	16931.44
485.35	17357.41
485.53	16730.15
485.71	16725.47
485.89	16816.75
486.07	16688.02
486.25	17076.55
486.43	17345.71
486.61	17422.95
486.78	17874.67
486.96	17893.40
487.14	18061.91
487.32	18452.78
487.50	18677.48
487.68	18841.31
487.85	19019.19
488.03	19403.04
488.21	19194.73
488.39	19309.42
488.57	19349.21
488.75	19536.45
488.92	19487.30
489.10	19866.47
489.28	20311.17
489.46	20439.90
489.64	20259.68
489.81	21003.97
489.99	21062.48
490.17	20931.41
490.35	20790.98
490.53	20954.82
490.70	21296.53
490.88	20985.24
491.06	21462.71
491.24	21607.83
491.41	21549.31
491.59	21652.30
491.77	21336.32
491.95	21914.44
492.13	22066.57
492.30	22242.11
492.48	22384.88
492.66	22546.38
492.84	22485.53
493.01	22958.31
493.19	22651.70
493.37	22911.50
493.54	23426.42
493.72	23367.91
493.90	23513.02
494.08	23608.98
494.25	23988.15
494.43	23903.89
494.61	24362.64
494.79	24180.07
494.96	24414.13
495.14	24547.54
495.32	24694.99
495.49	24210.50
495.67	24402.43
495.85	25046.07
496.02	24865.85
496.20	24915.00
496.38	25195.87
496.55	25230.98
496.73	25923.77
496.91	25338.64
497.09	25883.98
497.26	26211.66
497.44	25816.11
497.62	25944.84
497.79	26174.21
497.97	25937.82
498.14	26295.92
498.32	26368.48
498.50	26630.62
498.67	26602.53
498.85	26829.56
499.03	26979.36
499.20	26981.70
499.38	27070.64
499.56	27339.80
499.73	27309.37
499.91	27580.87
500.08	27634.71
500.26	27108.08
500.44	27267.24
500.61	27435.76
500.79	27573.85
500.97	27669.81
501.14	27768.12
501.32	28037.28
501.49	27885.14
501.67	27967.06
501.84	28158.99
502.02	28425.81
502.20	28570.92
502.37	28718.37
502.55	28767.52
502.72	28795.61
502.90	29055.41
503.07	28734.76
503.25	29277.76
503.43	29055.41
503.60	29062.43
503.78	29207.55
503.95	29116.26
504.13	29319.89
504.30	29474.37
504.48	29284.78
504.65	29970.56
504.83	29790.34
505.01	30075.88
505.18	30232.70
505.36	30225.68
505.53	30286.53
505.71	30602.50
505.88	30696.13
506.06	30382.49
506.23	30504.20
506.41	30209.29
506.58	30785.07
506.76	30927.84
506.93	30902.09
507.11	30600.16
507.28	31087.00
507.46	30670.38
507.63	30972.31
507.81	31082.31
507.98	31290.62
508.16	31007.42
508.33	31931.93
508.50	31634.68
508.68	31330.41
508.85	32168.32
509.03	32304.07
509.20	31763.41
509.38	32287.69
509.55	32201.09
509.73	32278.33
509.90	32266.63
510.08	32463.23
510.25	32620.05
510.42	32823.67
510.60	32769.84
510.77	32774.52
510.95	33118.58
511.12	33062.41
511.30	33303.48
511.47	33294.12
511.64	33846.49
511.82	33378.38
511.99	33469.66
512.17	33427.53
512.34	33516.47
512.51	33750.52
512.69	33919.04
512.86	33504.77
513.04	34113.31
513.21	33556.26
513.38	33846.49
513.56	33965.85
513.73	33776.27
513.90	34132.03
514.08	33998.62
514.25	34565.03
514.43	33900.32
514.60	34555.67
514.77	34279.49
514.95	34836.53
515.12	34705.46
515.29	34794.40
515.47	35105.70
515.64	35335.07
515.81	34595.46
515.99	34595.46
516.16	34382.47
516.33	34450.35
516.51	34576.73
516.68	34225.65
516.85	34005.64
517.03	34469.07
517.20	34911.43
517.37	35096.33
517.54	35576.14
517.72	35164.21
517.89	34642.27
518.06	34670.36
518.24	35140.80
518.41	35093.99
518.58	35473.16
518.75	35257.83
518.93	36161.28
519.10	35622.95
519.27	35782.11
519.45	36198.73
519.62	35859.35
519.79	36378.95
519.96	36669.17
520.14	36371.92
520.31	36137.87
520.48	36514.70
520.65	36474.91
520.83	36673.85
521.00	36811.95
521.17	37216.86
521.34	36982.80
521.52	37315.16
521.69	37221.54
521.86	37350.27
522.03	37511.77
522.20	37200.47
522.38	37422.83
522.55	37076.43
522.72	37013.23
522.89	37357.29
523.07	37727.10
523.24	37207.50
523.41	37909.66
523.58	37631.13
523.75	38380.10
523.92	38260.74
524.10	38040.73
524.27	38326.27
524.44	38288.82
524.61	38391.81
524.78	38244.35
524.96	38251.38
525.13	38321.59
525.30	38871.62
525.47	38838.85
525.64	38550.96
525.81	38656.29
525.98	38539.26
526.16	38391.81
526.33	38534.58
526.50	38621.18
526.67	37874.55
526.84	37860.51
527.01	38852.89
527.18	38834.17
527.36	39262.49
527.53	38983.96
527.70	39533.99
527.87	39140.78
528.04	39229.72
528.21	39491.86
528.38	39210.99
528.55	39936.56
528.72	40112.10
528.89	39826.56
529.07	40329.77
529.24	39903.79
529.41	39835.92
529.58	39583.14
529.75	39835.92
529.92	40236.15
530.09	40156.57
530.26	40182.32
530.43	40025.50
530.60	40451.48
530.77	40348.50
530.94	40219.77
531.11	40470.20
531.28	40196.36
531.46	40535.74
531.63	40692.55
531.80	40502.97
531.97	40629.36
532.14	40706.60
532.31	40203.38
532.48	40325.09
532.65	40748.73
532.82	40783.83
532.99	40971.08
533.16	40603.61
533.33	40828.30
533.50	40994.48
533.67	40680.85
533.84	40985.12
534.01	41294.07
534.18	41060.02
534.35	41397.06
534.52	41193.43
534.69	41745.80
534.86	41455.57
535.03	41212.15
535.20	41736.43
535.37	41834.74
535.54	42258.37
535.71	41588.98
535.88	41792.61
536.05	41764.52
536.22	41544.51
536.38	41968.15
536.55	41640.47
536.72	42059.43
536.89	41895.59
537.06	41975.17
537.23	42211.56
537.40	41675.58
537.57	41872.18
537.74	42333.27
537.91	42534.56
538.08	42169.43
538.25	42080.49
538.42	42232.63
538.59	43030.75
538.75	41930.70
538.92	42188.16
539.09	42387.10
539.26	42197.52
539.43	41963.46
539.60	42319.23
539.77	42078.15
539.94	42522.85
540.11	42160.07
540.28	42588.39
540.44	42359.02
540.61	42447.96
540.78	42637.54
540.95	42384.76
541.12	42314.55
541.29	42607.11
541.46	42663.28
541.62	42918.40
541.79	43374.81
541.96	42611.79
542.13	42965.21
542.30	42829.46
542.47	42969.90
542.63	43084.58
542.80	43199.27
542.97	43332.68
543.14	43714.19
543.31	43901.43
543.48	43732.91
543.64	43562.05
543.81	44116.76
543.98	43711.84
544.15	43805.47
544.32	43950.58
544.48	44395.28
544.65	44135.48
544.82	44369.54
544.99	43629.93
545.16	43999.73
545.32	43611.20
545.49	44514.65
545.66	44275.91
545.83	43728.23
546.00	44395.28
546.16	44364.85
546.33	44053.56
546.50	43992.71
546.67	44231.44
546.83	44074.63
547.00	44327.41
547.17	44067.61
547.34	44182.29
547.50	44409.32
547.67	44596.57
547.84	44341.45
548.00	44903.18
548.17	44236.12
548.34	44856.37
548.51	44893.82
548.67	44900.84
548.84	44584.86
549.01	44818.92
549.18	44847.00
549.34	44329.75
549.51	45059.99
549.68	44626.99
549.84	44933.60
550.01	45085.74
550.18	44573.16
550.34	44680.83
550.51	44854.03
550.68	45378.31
550.84	45034.25
551.01	45240.21
551.18	44676.15
551.34	44734.66
551.51	45099.78
551.68	45289.37
551.84	45270.64
552.01	44919.56
552.18	45092.76
552.34	44779.13
552.51	45013.18
552.68	45181.70
552.84	45181.70
553.01	45794.92
553.18	45696.62
553.34	45050.63
553.51	45516.40
553.67	45235.53
553.84	45731.73
554.01	45544.48
554.17	45748.11
554.34	45848.75
554.51	45911.95
554.67	46134.30
554.84	45640.45
555.00	45425.12
555.17	45558.53
555.33	45691.94
555.50	45752.79
555.67	45691.94
555.83	45874.50
556.00	45399.37
556.16	45881.52
556.33	45340.86
556.50	45661.51
556.66	45844.07
556.83	45518.74
556.99	45879.18
557.16	45968.12
557.32	46061.74
557.49	46241.96
557.65	45773.86
557.82	46522.83
557.98	46108.55
558.15	45687.26
558.32	46127.28
558.48	45317.45
558.65	45661.51
558.81	45815.99
558.98	45621.72
559.14	45951.74
559.31	46272.39
559.47	46513.47
559.64	46010.25
559.80	46347.29
559.97	46164.73
560.13	46040.68
560.30	46138.98
560.46	46403.46
560.63	46398.78
560.79	46438.57
560.96	46349.63
561.12	46394.10
561.29	46431.55
561.45	46068.76
561.61	45951.74
561.78	46148.34
561.94	46014.93
562.11	45918.97
562.27	45890.88
562.44	46733.48
562.60	46536.87
562.77	46820.08
562.93	46822.42
563.10	46759.22
563.26	46419.84
563.42	46330.90
563.59	46253.67
563.75	46241.96
563.92	46604.75
564.08	46429.21
564.24	46663.26
564.41	46466.66
564.57	46445.59
564.74	46349.63
564.90	46426.87
565.07	46639.86
565.23	46534.53
565.39	46588.36
565.56	46787.31
565.72	46157.70
565.88	46314.52
566.05	46485.38
566.21	46155.36
566.38	46614.11
566.54	46773.27
566.70	46740.50
566.87	47166.48
567.03	46770.93
567.19	47138.39
567.36	46567.30
567.52	46471.34
567.68	47154.77
567.85	46562.62
568.01	46747.52
568.17	46487.72
568.34	46698.37
568.50	46635.17
568.66	46876.25
568.83	46766.24
568.99	46253.67
569.15	46550.91
569.32	46920.72
569.48	46284.09
569.64	46794.33
569.81	46670.28
569.97	46234.94
570.13	46438.57
570.30	46663.26
570.46	45904.93
570.62	46387.08
570.78	46515.81
570.95	46237.28
571.11	46721.77
571.27	46754.54
571.43	46560.28
571.60	46960.51
571.76	46714.75
571.92	46909.02
572.09	46962.85
572.25	46719.43
572.41	47014.34
572.57	46920.72
572.74	47093.92
572.90	46784.97
573.06	47201.58
573.22	46684.33
573.38	46794.33
573.55	46845.82
573.71	47110.30
573.87	47295.21
574.03	46988.60
574.20	47063.49
574.36	46885.61
574.52	46829.44
574.68	46953.49
574.84	47058.81
575.01	46714.75
575.17	46550.91
575.33	46546.23
575.49	46705.39
575.65	47009.66
575.82	47040.09
575.98	46822.42
576.14	46803.69
576.30	47150.09
576.46	46387.08
576.62	46913.70
576.79	46841.14
576.95	46642.20
577.11	46890.29
577.27	46913.70
577.43	47070.51
577.59	46838.80
577.75	46689.01
577.92	46536.87
578.08	46469.00
578.24	46225.58
578.40	46738.16
578.56	46993.28
578.72	47040.09
578.88	47332.65
579.04	46876.25
579.21	46497.08
579.37	46866.89
579.53	47065.83
579.69	46457.29
579.85	46822.42
580.01	47082.22
580.17	46721.77
580.33	47295.21
580.49	46841.14
580.65	47056.47
580.82	46724.11
580.98	46850.50
581.14	46836.46
581.30	46986.25
581.46	46766.24
581.62	47082.22
581.78	46700.71
581.94	47161.79
582.10	47180.52
582.26	46990.94
582.42	47145.41
582.58	47234.35
582.74	47171.16
582.90	47035.41
583.06	46995.62
583.22	47407.55
583.38	46946.47
583.54	47271.80
583.70	47543.30
583.86	47288.18
584.02	46588.36
584.18	46946.47
584.34	47119.66
584.50	47000.30
584.66	47026.04
584.82	46834.12
584.98	46960.51
585.14	46752.20
585.30	46791.99
585.46	47082.22
585.62	46780.29
585.78	47157.11
585.94	46658.58
586.10	47016.68
586.26	46838.80
586.42	46997.96
586.58	47136.05
586.74	47152.43
586.90	47049.45
587.06	47014.34
587.22	47334.99
587.38	46983.91
587.54	46997.96
587.70	47096.26
587.86	47187.54
588.02	46857.52
588.18	47182.86
588.34	46623.47
588.49	46134.30
588.65	46195.15
588.81	46447.93
588.97	46380.06
589.13	46625.81
589.29	46405.80
589.45	46717.09
589.61	46522.83
589.77	46855.18
