SpectraSuite Data File
++++++++++++++++++++++++++++++++++++
Date: Fri Oct 25 11:25:39 EDT 2013
User: price-jones
Dark Spectrum Present: No
Reference Spectrum Present: No
Number of Sampled Component Spectra: 1
Spectrometers: USB2+H05261
Integration Time (usec): 100000 (USB2+H05261)
Spectra Averaged: 1 (USB2+H05261)
Boxcar Smoothing: 0 (USB2+H05261)
Correct for Electrical Dark: No (USB2+H05261)
Strobe/Lamp Enabled: No (USB2+H05261)
Correct for Detector Non-linearity: No (USB2+H05261)
Correct for Stray Light: No (USB2+H05261)
Number of Pixels in Processed Spectrum: 2048
>>>>>Begin Processed Spectral Data<<<<<
365.73	238.73
365.92	238.73
366.12	238.73
366.32	79.58
366.52	180.22
366.72	131.07
366.91	145.11
367.11	100.64
367.31	128.73
367.51	138.09
367.70	112.35
367.90	149.79
368.10	187.24
368.30	140.43
368.49	135.75
368.69	98.30
368.89	124.05
369.09	196.60
369.28	175.54
369.48	98.30
369.68	140.43
369.87	184.90
370.07	208.31
370.27	299.59
370.47	348.74
370.66	653.01
370.86	664.71
371.06	692.80
371.25	664.71
371.45	601.52
371.65	631.94
371.84	655.35
372.04	699.82
372.24	671.73
372.44	732.59
372.63	755.99
372.83	798.12
373.03	741.95
373.22	753.65
373.42	793.44
373.62	835.57
373.81	800.46
374.01	772.38
374.21	772.38
374.40	791.10
374.60	868.34
374.79	788.76
374.99	807.48
375.19	814.51
375.38	779.40
375.58	875.36
375.78	870.68
375.97	851.96
376.17	835.57
376.37	849.61
376.56	861.32
376.76	842.59
376.95	943.24
377.15	837.91
377.35	851.96
377.54	896.43
377.74	854.30
377.93	868.34
378.13	919.83
378.33	976.00
378.52	1011.11
378.72	922.17
378.91	880.04
379.11	980.68
379.31	919.83
379.50	887.06
379.70	917.49
379.89	987.71
380.09	929.19
380.28	954.94
380.48	1046.22
380.68	1006.43
380.87	987.71
381.07	992.39
381.26	1053.24
381.46	1060.26
381.65	1008.77
381.85	1001.75
382.04	1078.99
382.24	1041.54
382.43	1057.92
382.63	966.64
382.83	1118.78
383.02	1097.71
383.22	1167.93
383.41	1086.01
383.61	1121.12
383.80	1170.27
384.00	1172.61
384.19	1036.86
384.39	1130.48
384.58	1088.35
384.78	1116.44
384.97	1165.59
385.17	1151.54
385.36	1144.52
385.56	1247.51
385.75	1153.88
385.95	1196.01
386.14	1167.93
386.34	1196.01
386.53	1224.10
386.72	1139.84
386.92	1299.00
387.11	1324.74
387.31	1261.55
387.50	1221.76
387.70	1240.48
387.89	1163.25
388.09	1313.04
388.28	1310.70
388.48	1263.89
388.67	1324.74
388.86	1214.74
389.06	1306.02
389.25	1317.72
389.45	1350.49
389.64	1322.40
389.84	1364.53
390.03	1411.34
390.22	1411.34
390.42	1348.15
390.61	1373.89
390.81	1437.09
391.00	1364.53
391.19	1521.35
391.39	1544.75
391.58	1486.24
391.78	1542.41
391.97	1455.81
392.16	1448.79
392.36	1493.26
392.55	1500.28
392.75	1551.78
392.94	1479.22
393.13	1406.66
393.33	1561.14
393.52	1511.99
393.71	1483.90
393.91	1500.28
394.10	1643.06
394.29	1514.33
394.49	1589.22
394.68	1565.82
394.88	1713.27
395.07	1755.40
395.26	1516.67
395.46	1701.57
395.65	1811.57
395.84	1757.74
396.04	1767.10
396.23	1739.02
396.42	1732.00
396.62	1678.16
396.81	1799.87
397.00	1757.74
397.19	1804.55
397.39	1816.26
397.58	1902.86
397.77	1739.02
397.97	1851.36
398.16	1891.15
398.35	1799.87
398.55	1860.73
398.74	1905.20
398.93	1867.75
399.12	1830.30
399.32	1930.94
399.51	1898.17
399.70	1937.96
399.90	1956.69
400.09	2052.65
400.28	1982.43
400.47	2115.84
400.67	2092.44
400.86	2118.18
401.05	2026.90
401.24	2003.50
401.44	2122.87
401.63	2225.85
401.82	2160.31
402.01	2139.25
402.21	2176.70
402.40	2148.61
402.59	2153.29
402.78	2153.29
402.97	2214.15
403.17	2356.92
403.36	2200.10
403.55	2265.64
403.74	2225.85
403.93	2298.41
404.13	2211.81
404.32	2373.30
404.51	2354.58
404.70	2354.58
404.89	2389.69
405.09	2480.97
405.28	2490.33
405.47	2420.11
405.66	2490.33
405.85	2399.05
406.05	2555.86
406.24	2457.56
406.43	2518.42
406.62	2553.52
406.81	2537.14
407.00	2539.48
407.20	2665.87
407.39	2628.42
407.58	2731.41
407.77	2696.30
407.96	2633.10
408.15	2885.88
408.34	2764.17
408.54	2670.55
408.73	2729.06
408.92	2897.58
409.11	2892.90
409.30	2867.16
409.49	2899.92
409.68	2958.44
409.87	2881.20
410.07	2867.16
410.26	2904.60
410.45	2899.92
410.64	3040.36
410.83	3173.77
411.02	3141.00
411.21	3162.06
411.40	3028.65
411.59	3279.09
411.78	3199.51
411.98	3159.72
412.17	3302.50
412.36	3192.49
412.55	3435.91
412.74	3412.50
412.93	3325.90
413.12	3288.45
413.31	3688.68
413.50	3466.33
413.69	3370.37
413.88	3604.42
414.07	3588.04
414.26	3698.05
414.45	3531.87
414.64	3684.00
414.83	3688.68
415.02	3667.62
415.22	3840.82
415.41	3803.37
415.60	3887.63
415.79	3772.94
415.98	4107.64
416.17	4004.66
416.36	3988.27
416.55	4018.70
416.74	4124.02
416.93	4109.98
417.12	4060.83
417.31	4222.33
417.50	4173.18
417.69	4322.97
417.88	4168.49
418.07	4276.16
418.26	4341.69
418.45	4348.72
418.64	4507.87
418.83	4533.62
419.02	4440.00
419.21	4573.41
419.39	4503.19
419.58	4479.79
419.77	4475.10
419.96	4526.60
420.15	4517.23
420.34	4606.17
420.53	4589.79
420.72	4596.81
420.91	4706.82
421.10	4856.61
421.29	4793.42
421.48	4629.58
421.67	4711.50
421.86	4830.87
422.05	4748.95
422.24	4788.74
422.43	4875.34
422.61	4903.42
422.80	4959.60
422.99	4968.96
423.18	5071.94
423.37	4915.12
423.56	4863.63
423.75	4903.42
423.94	4865.97
424.13	4648.30
424.32	4777.03
424.50	4849.59
424.69	5062.58
424.88	4952.57
425.07	4997.04
425.26	4828.53
425.45	4908.10
425.64	4826.18
425.83	4875.34
426.01	5177.26
426.20	5011.09
426.39	5036.83
426.58	5046.20
426.77	4943.21
426.96	5022.79
427.15	5123.43
427.33	5132.79
427.52	5142.16
427.71	5228.76
427.90	5165.56
428.09	5240.46
428.28	5327.06
428.46	5259.18
428.65	5327.06
428.84	5284.93
429.03	5535.37
429.22	5357.49
429.40	5373.87
429.59	5490.90
429.78	5350.46
429.97	5261.52
430.16	5427.70
430.34	5584.52
430.53	5621.97
430.72	5598.56
430.91	5654.73
431.10	5605.58
431.28	5603.24
431.47	5874.74
431.66	5846.66
431.85	5790.49
432.03	5832.62
432.22	5980.07
432.41	5891.13
432.60	5839.64
432.79	5818.57
432.97	6134.54
433.16	5933.26
433.35	5769.42
433.54	5902.83
433.72	6296.04
433.91	6076.03
434.10	6214.12
434.28	5982.41
434.47	6314.77
434.66	6120.50
434.85	6253.91
435.03	6377.96
435.22	6296.04
435.41	6504.35
435.59	6272.64
435.78	6413.07
435.97	6429.45
436.16	6366.26
436.34	6335.83
436.53	6478.60
436.72	6553.50
436.90	6408.39
437.09	6469.24
437.28	6548.82
437.46	6621.38
437.65	6553.50
437.84	6869.47
438.02	6803.94
438.21	6787.55
438.40	6729.04
438.58	7110.55
438.77	6939.69
438.96	7021.61
439.14	6920.96
439.33	7272.04
439.52	7089.48
439.70	7150.34
439.89	7393.75
440.08	7339.92
440.26	7290.77
440.45	7379.71
440.63	7463.97
440.82	7562.27
441.01	7407.80
441.19	7585.68
441.38	7791.64
441.57	7751.85
441.75	7667.60
441.94	7941.44
442.12	8021.02
442.31	8049.10
442.50	8030.38
442.68	7845.48
442.87	7868.88
443.05	7983.57
443.24	8271.45
443.43	8149.75
443.61	8215.28
443.80	8449.33
443.98	8042.08
444.17	7801.01
444.35	8301.88
444.54	8418.91
444.73	8278.47
444.91	8074.85
445.10	8198.90
445.28	8344.01
445.47	8145.06
445.65	8224.64
445.84	8425.93
446.02	8339.33
446.21	8334.65
446.39	8404.86
446.58	8301.88
446.77	8407.20
446.95	8266.77
447.14	8491.46
447.32	8580.40
447.51	8554.66
447.69	8517.21
447.88	8404.86
448.06	8489.12
448.25	8493.80
448.43	8690.41
448.62	8622.53
448.80	8432.95
448.99	8580.40
449.17	8739.56
449.36	8671.68
449.54	8730.20
449.73	8901.06
449.91	9114.05
450.10	8830.84
450.28	9184.26
450.46	8926.80
450.65	9060.21
450.83	9092.98
451.02	9200.65
451.20	9191.28
451.39	9153.84
451.57	8964.25
451.76	9149.15
451.94	9277.88
452.13	9193.62
452.31	9228.73
452.49	9191.28
452.68	9266.18
452.86	9198.31
453.05	9343.42
453.23	9371.50
453.42	9378.53
453.60	9291.93
453.78	9514.28
453.97	9504.92
454.15	9612.58
454.34	9357.46
454.52	9727.27
454.70	9832.59
454.89	9673.43
455.07	10029.20
455.26	9785.78
455.44	9767.06
455.62	9722.59
455.81	9956.64
455.99	9863.02
456.17	10045.58
456.36	10064.30
456.54	10143.88
456.73	10218.78
456.91	10391.98
457.09	10391.98
457.28	10375.59
457.46	10232.82
457.64	10363.89
457.83	10431.77
458.01	10272.61
458.19	10656.46
458.38	10485.60
458.56	10869.45
458.74	10581.56
458.93	10593.26
459.11	10738.38
459.29	10920.94
459.48	10527.73
459.66	10607.31
459.84	10991.16
460.03	10803.91
460.21	10916.26
460.39	11040.31
460.57	11042.65
460.76	10895.19
460.94	10965.41
461.12	11059.03
461.31	11073.07
461.49	11164.36
461.67	11110.52
461.85	11459.26
462.04	11089.46
462.22	11613.74
462.40	11501.39
462.59	11503.73
462.77	11407.77
462.95	11580.97
463.13	11536.50
463.32	11520.12
463.50	11634.80
463.68	11719.06
463.86	11576.29
464.05	11763.53
464.23	11700.34
464.41	11756.51
464.59	11798.64
464.78	12004.61
464.96	12166.10
465.14	11672.25
465.32	11997.59
465.50	12121.63
465.69	11978.86
465.87	12175.47
466.05	12072.48
466.23	12177.81
466.41	12308.88
466.60	12561.66
466.78	12159.08
466.96	12149.72
467.14	11997.59
467.32	12407.18
467.51	12402.50
467.69	12180.15
467.87	12388.46
468.05	12423.56
468.23	12128.66
468.41	12304.20
468.60	12409.52
468.78	12533.57
468.96	12552.29
469.14	12718.47
469.32	12699.75
469.50	12671.66
469.69	12975.93
469.87	13158.49
470.05	13071.89
470.23	13081.25
470.41	13076.57
470.59	13399.57
470.77	13207.64
470.95	13125.72
471.14	13425.31
471.32	13334.03
471.50	13467.44
471.68	13561.06
471.86	13650.00
472.04	13671.07
472.22	13774.05
472.40	13743.63
472.58	13757.67
472.77	13874.70
472.95	14202.37
473.13	14455.15
473.31	14134.50
473.49	14080.66
473.67	14104.07
473.85	14291.31
474.03	14635.37
474.21	14525.36
474.39	14761.76
474.57	14553.45
474.75	14871.76
474.93	15009.86
475.12	14970.07
475.30	14984.11
475.48	15026.24
475.66	15302.42
475.84	15019.22
476.02	15403.07
476.20	15178.37
476.38	15545.84
476.56	15765.85
476.74	15583.29
476.92	15602.01
477.10	15721.38
477.28	16182.46
477.46	16278.43
477.64	16566.31
477.82	16456.31
478.00	16861.22
478.18	16854.20
478.36	16802.71
478.54	17191.23
478.72	16929.09
478.90	17289.54
479.08	17591.47
479.26	17706.15
479.44	17671.04
479.62	17710.83
479.80	17860.63
479.98	17947.23
480.16	18623.64
480.34	18373.21
480.52	18523.00
480.70	18637.69
480.88	18494.91
481.06	18647.05
481.24	18595.56
481.41	19150.26
481.59	18930.25
481.77	19157.28
481.95	19421.77
482.13	19454.53
482.31	19573.90
482.49	20161.37
482.67	20123.93
482.85	20800.34
483.03	20594.37
483.21	20631.82
483.39	20655.23
483.57	21013.33
483.74	21214.62
483.92	21198.23
484.10	21181.85
484.28	21598.46
484.46	21745.92
484.64	22118.06
484.82	21912.10
485.00	22118.06
485.18	22852.99
485.35	22778.09
485.53	22560.42
485.71	23129.17
485.89	23405.36
486.07	22998.10
486.25	23145.56
486.43	23817.29
486.61	23931.98
486.78	23812.61
486.96	24109.86
487.14	24629.46
487.32	24531.15
487.50	24753.51
487.68	24709.04
487.85	25060.12
488.03	25228.63
488.21	25553.97
488.39	25645.25
488.57	25949.52
488.75	25900.37
488.92	26532.31
489.10	26726.58
489.28	26665.72
489.46	27126.81
489.64	26920.84
489.81	27527.04
489.99	27206.39
490.17	27868.76
490.35	27887.48
490.53	28009.19
490.70	28163.67
490.88	28212.82
491.06	28446.87
491.24	28706.67
491.41	28453.89
491.59	28947.75
491.77	29259.04
491.95	29177.12
492.13	29493.09
492.30	30038.44
492.48	29699.06
492.66	30087.59
492.84	30380.15
493.01	30600.16
493.19	30644.63
493.37	30749.96
493.54	31077.63
493.72	31484.89
493.90	31496.59
494.08	31531.70
494.25	32151.94
494.43	31651.06
494.61	32137.90
494.79	32100.45
494.96	32334.50
495.14	32320.46
495.32	33083.47
495.49	32980.49
495.67	33015.60
495.85	33263.69
496.02	33371.36
496.20	33638.18
496.38	33926.07
496.55	33855.85
496.73	34319.28
496.91	34338.00
497.09	34429.28
497.26	34916.11
497.44	34939.52
497.62	35051.86
497.79	36051.27
497.97	35562.10
498.14	36128.51
498.32	36107.44
498.50	35786.79
498.67	36102.76
498.85	36357.88
499.03	36711.30
499.20	36282.98
499.38	36680.88
499.56	36575.55
499.73	36767.48
499.91	37064.72
500.08	37621.77
500.26	37490.70
500.44	37539.85
500.61	37481.34
500.79	37598.37
500.97	37914.34
501.14	38143.71
501.32	38293.50
501.49	37933.06
501.67	38501.81
501.84	38962.90
502.02	38473.73
502.20	39152.48
502.37	39077.58
502.55	38588.41
502.72	39260.15
502.90	39674.42
503.07	39070.56
503.25	39517.60
503.43	39466.11
503.60	40231.47
503.78	39959.97
503.95	40020.82
504.13	40074.65
504.30	40830.65
504.48	40128.48
504.65	40390.62
504.83	40800.22
505.01	40889.16
505.18	41361.95
505.36	41375.99
505.53	40957.03
505.71	41457.91
505.88	41818.35
506.06	41221.52
506.23	42103.90
506.41	41560.89
506.58	41551.53
506.76	41745.80
506.93	42546.26
507.11	42286.46
507.28	42347.31
507.46	42464.34
507.63	42499.45
507.81	43201.61
507.98	42188.16
508.16	42918.40
508.33	43531.62
508.50	43517.58
508.68	43564.39
508.85	43735.25
509.03	43739.93
509.20	43761.00
509.38	44144.84
509.55	44289.96
509.73	44409.32
509.90	44596.57
510.08	44100.37
510.25	44516.99
510.42	44378.90
510.60	45048.29
510.77	45006.16
510.95	45216.81
511.12	44802.53
511.30	44762.75
511.47	45200.43
511.64	45509.38
511.82	45670.87
511.99	45895.56
512.17	45820.67
512.34	45666.19
512.51	45958.76
512.69	46328.56
512.86	46286.43
513.04	46574.32
513.21	46490.06
513.38	46476.02
513.56	47056.47
513.73	46653.90
513.90	46707.73
514.08	46616.45
514.25	46815.40
514.43	46799.01
514.60	47002.64
514.77	47316.27
514.95	47522.24
515.12	47566.71
515.29	47519.90
515.47	47665.01
515.64	48121.41
515.81	47592.45
515.99	47562.03
516.16	48130.78
516.33	48224.40
516.51	48409.30
516.68	48093.33
516.85	48413.98
517.03	48392.92
517.20	48886.77
517.37	48442.07
517.54	48975.71
517.72	48701.87
517.89	49174.66
518.06	48961.67
518.24	48886.77
518.41	48844.64
518.58	49177.00
518.75	49123.16
518.93	49118.48
519.10	49481.27
519.27	49780.85
519.45	49392.33
519.62	49371.26
519.79	49846.39
519.96	49722.34
520.14	50162.36
520.31	49696.59
520.48	50569.61
520.65	50368.33
520.83	50405.78
521.00	50499.40
521.17	50335.56
521.34	50885.59
521.52	50749.84
521.69	50567.27
521.86	51124.32
522.03	51430.93
522.20	51091.55
522.38	51487.10
522.55	51026.02
522.72	50864.52
522.89	51138.36
523.07	51428.59
523.24	51323.27
523.41	51538.60
523.58	51454.34
523.75	52097.98
523.92	51540.94
524.10	51444.98
524.27	51643.92
524.44	51674.35
524.61	52147.14
524.78	51943.51
524.96	52051.17
525.13	52158.84
525.30	52193.95
525.47	52554.39
525.64	52411.62
525.81	52275.87
525.98	52446.72
526.16	52750.99
526.33	52629.29
526.50	53059.94
526.67	52226.71
526.84	52861.00
527.01	52715.89
527.18	52509.92
527.36	52975.69
527.53	52832.91
527.70	53160.59
527.87	53064.63
528.04	53399.32
528.21	53008.45
528.38	53265.91
528.55	53525.71
528.72	53371.24
528.89	53509.33
529.07	53141.86
529.24	52987.39
529.41	53563.16
529.58	53497.62
529.75	53586.57
529.92	53666.14
530.09	53731.68
530.26	53734.02
530.43	53801.89
530.60	53546.78
530.77	53684.87
530.94	53982.12
531.11	53937.65
531.28	53956.37
531.46	53869.77
531.63	54218.51
531.80	54209.15
531.97	54380.01
532.14	54152.97
532.31	54143.61
532.48	54398.73
532.65	54237.23
532.82	54248.94
532.99	54726.41
533.16	54672.57
533.33	54681.94
533.50	54712.36
533.67	54433.84
533.84	54578.95
534.01	54752.15
534.18	54539.16
534.35	55217.92
534.52	55189.83
534.69	55173.45
534.86	55047.06
535.03	54789.60
535.20	54955.78
535.37	55391.12
535.54	55311.54
535.71	55192.17
535.88	55285.79
536.05	55367.71
536.22	55358.35
536.38	55669.64
536.55	55571.34
536.72	55463.67
536.89	55496.44
537.06	55559.64
537.23	55711.77
537.40	55590.06
537.57	55594.74
537.74	55828.80
537.91	55632.19
538.08	55646.24
538.25	55763.26
538.42	55807.73
538.59	55997.32
538.75	55906.04
538.92	56158.81
539.09	56222.01
539.26	55838.16
539.43	56032.42
539.60	56039.45
539.77	56271.16
539.94	56245.41
540.11	56107.32
540.28	56011.36
540.44	56460.74
540.61	56065.19
540.78	56034.77
540.95	56383.51
541.12	56261.80
541.29	56435.00
541.46	56399.89
541.62	56336.69
541.79	56463.08
541.96	56317.97
542.13	56238.39
542.30	56659.69
542.47	56821.19
542.63	56676.07
542.80	56942.89
542.97	57022.47
543.14	56994.39
543.31	56886.72
543.48	56996.73
543.64	57242.48
543.81	57228.44
543.98	57183.97
544.15	57118.43
544.32	57174.61
544.48	57345.47
544.65	57137.16
544.82	57357.17
544.99	57174.61
545.16	57326.74
545.32	57434.41
545.49	57350.15
545.66	57490.58
545.83	57708.25
546.00	57668.46
546.16	57680.16
546.33	57591.22
546.50	57205.03
546.67	57623.99
546.83	57317.38
547.00	57588.88
547.17	57537.39
547.34	57867.40
547.50	57722.29
547.67	57764.42
547.84	57879.11
548.00	57993.79
548.17	58108.48
548.34	58099.12
548.51	58185.72
548.67	58241.89
548.84	58005.50
549.01	57949.32
549.18	57996.13
549.34	58211.46
549.51	58045.29
549.68	58361.26
549.84	58157.63
550.01	58269.98
550.18	58038.26
550.34	58192.74
550.51	58365.94
550.68	58492.33
550.84	58223.17
551.01	58457.22
551.18	58478.28
551.34	58443.18
551.51	58351.90
551.68	58628.08
551.84	58520.41
552.01	58480.63
552.18	58475.94
552.34	58473.60
552.51	58555.52
552.68	58571.91
552.84	58576.59
553.01	58749.79
553.18	58644.46
553.34	58721.70
553.51	58595.31
553.67	58712.34
553.84	58780.21
554.01	58684.25
554.17	58845.75
554.34	58845.75
554.51	58934.69
554.67	58883.20
554.84	58782.55
555.00	58791.92
555.17	58922.99
555.33	59098.53
555.50	58930.01
555.67	58920.65
555.83	58981.50
556.00	59011.93
556.16	59391.09
556.33	59365.35
556.50	59227.26
556.66	59114.91
556.83	59133.63
556.99	59473.01
557.16	59346.62
557.32	59407.48
557.49	59571.32
557.65	59150.02
557.82	59456.63
557.98	59423.86
558.15	59220.23
558.32	59353.65
558.48	59215.55
558.65	59267.05
558.81	59512.80
558.98	59447.27
559.14	59311.52
559.31	59388.75
559.47	59437.90
559.64	59576.00
559.80	59615.79
559.97	59627.49
560.13	59522.16
560.30	59508.12
560.46	59522.16
560.63	59571.32
560.79	59676.64
560.96	59639.19
561.12	59681.32
561.29	59817.07
561.45	59601.74
561.61	59601.74
561.78	59700.04
561.94	59683.66
562.11	59697.70
562.27	59721.11
562.44	59955.16
562.60	59929.42
562.77	59887.29
562.93	59487.06
563.10	59910.69
563.26	59896.65
563.42	59983.25
563.59	59826.43
563.75	59826.43
563.92	59978.57
564.08	59952.82
564.24	60119.00
564.41	60025.38
564.57	60175.17
564.74	59950.48
564.90	60046.44
565.07	60090.91
565.23	59976.23
565.39	59920.05
565.56	60294.54
565.72	60058.15
565.88	60060.49
566.05	60001.97
566.21	60034.74
566.38	60065.17
566.54	60170.49
566.70	60030.06
566.87	60231.35
567.03	59966.87
567.19	60186.88
567.36	60158.79
567.52	60339.01
567.68	60250.07
567.85	60135.38
568.01	60261.77
568.17	60266.45
568.34	60364.76
568.50	60177.51
568.66	60261.77
568.83	60395.18
568.99	60378.80
569.15	60299.22
569.32	60491.15
569.48	60449.02
569.64	60369.44
569.81	60161.13
569.97	60203.26
570.13	60285.18
570.30	60254.75
570.46	60411.57
570.62	60573.06
570.78	60449.02
570.95	60390.50
571.11	60299.22
571.27	60334.33
571.43	60294.54
571.60	60439.65
571.76	60364.76
571.92	60596.47
572.09	60652.64
572.25	60626.90
572.41	60378.80
572.57	60310.92
572.74	60743.92
572.90	60470.08
573.06	60388.16
573.22	60575.40
573.38	60664.35
573.55	60357.74
573.71	60795.42
573.87	60537.96
574.03	60598.81
574.20	60591.79
574.36	60552.00
574.52	60615.19
574.68	60584.77
574.84	60654.98
575.01	60528.59
575.17	60498.17
575.33	60481.78
575.49	60587.11
575.65	60692.43
575.82	60652.64
575.98	60755.63
576.14	60720.52
576.30	60776.69
576.46	60664.35
576.62	60601.15
576.79	60734.56
576.95	60343.69
577.11	60685.41
577.27	60872.65
577.43	60769.67
577.59	60839.89
577.75	60779.03
577.92	60610.51
578.08	60598.81
578.24	60757.97
578.40	60767.33
578.56	61062.24
578.72	60769.67
578.88	61090.32
579.04	61048.19
579.21	60893.72
579.37	60828.18
579.53	60783.71
579.69	60580.09
579.85	60603.49
580.01	60708.82
580.17	60591.79
580.33	60994.36
580.49	60809.46
580.65	60715.84
580.82	60570.72
580.98	60804.78
581.14	60764.99
581.30	60910.10
581.46	60774.35
581.62	60802.44
581.78	60626.90
581.94	60743.92
582.10	60863.29
582.26	60680.73
582.42	60720.52
582.58	60699.45
582.74	60893.72
582.90	60734.56
583.06	60781.37
583.22	60750.94
583.38	60949.89
583.54	60837.54
583.70	60905.42
583.86	60982.66
584.02	60708.82
584.18	61113.73
584.34	60671.37
584.50	60921.80
584.66	60767.33
584.82	60767.33
584.98	61036.49
585.14	61029.47
585.30	60954.57
585.46	60858.61
585.62	60713.50
585.78	60970.96
585.94	60858.61
586.10	60846.91
586.26	61006.06
586.42	60924.14
586.58	61013.08
586.74	60767.33
586.90	60935.85
587.06	60760.31
587.22	61059.90
587.38	60874.99
587.54	61120.75
587.70	61127.77
587.86	60926.49
588.02	60921.80
588.18	60947.55
588.34	60992.02
588.49	61123.09
