SpectraSuite Data File
++++++++++++++++++++++++++++++++++++
Date: Fri Oct 25 11:23:05 EDT 2013
User: price-jones
Dark Spectrum Present: No
Reference Spectrum Present: No
Number of Sampled Component Spectra: 1
Spectrometers: USB2+H05261
Integration Time (usec): 100000 (USB2+H05261)
Spectra Averaged: 1 (USB2+H05261)
Boxcar Smoothing: 0 (USB2+H05261)
Correct for Electrical Dark: No (USB2+H05261)
Strobe/Lamp Enabled: No (USB2+H05261)
Correct for Detector Non-linearity: No (USB2+H05261)
Correct for Stray Light: No (USB2+H05261)
Number of Pixels in Processed Spectrum: 2048
>>>>>Begin Processed Spectral Data<<<<<
365.73	159.16
365.92	159.16
366.12	159.16
366.32	152.13
366.52	91.28
366.72	161.50
366.91	128.73
367.11	84.26
367.31	138.09
367.51	135.75
367.70	138.09
367.90	208.31
368.10	98.30
368.30	182.56
368.49	121.71
368.69	119.37
368.89	131.07
369.09	131.07
369.28	196.60
369.48	114.69
369.68	241.08
369.87	229.37
370.07	156.82
370.27	194.26
370.47	325.33
370.66	571.09
370.86	587.47
371.06	671.73
371.25	727.91
371.45	671.73
371.65	688.12
371.84	734.93
372.04	648.33
372.24	716.20
372.44	636.63
372.63	755.99
372.83	695.14
373.03	746.63
373.22	744.29
373.42	657.69
373.62	716.20
373.81	779.40
374.01	758.33
374.21	791.10
374.40	737.27
374.60	826.21
374.79	842.59
374.99	954.94
375.19	814.51
375.38	931.53
375.58	849.61
375.78	828.55
375.97	870.68
376.17	950.26
376.37	833.23
376.56	877.70
376.76	823.87
376.95	826.21
377.15	889.40
377.35	826.21
377.54	985.37
377.74	926.85
377.93	919.83
378.13	912.81
378.33	877.70
378.52	901.11
378.72	1053.24
378.91	950.26
379.11	910.47
379.31	903.45
379.50	994.73
379.70	947.92
379.89	990.05
380.09	978.34
380.28	952.60
380.48	903.45
380.68	999.41
380.87	964.30
381.07	1041.54
381.26	1039.20
381.46	1057.92
381.65	1069.62
381.85	1011.11
382.04	1006.43
382.24	1090.69
382.43	1074.31
382.63	966.64
382.83	1011.11
383.02	1111.75
383.22	1174.95
383.41	1139.84
383.61	1167.93
383.80	1128.14
384.00	1156.22
384.19	1074.31
384.39	1137.50
384.58	1179.63
384.78	1174.95
384.97	1165.59
385.17	1156.22
385.36	1200.69
385.56	1179.63
385.75	1198.35
385.95	1139.84
386.14	1212.40
386.34	1130.48
386.53	1221.76
386.72	1160.91
386.92	1177.29
387.11	1268.57
387.31	1284.95
387.50	1294.32
387.70	1252.19
387.89	1231.12
388.09	1240.48
388.28	1247.51
388.48	1273.25
388.67	1263.89
388.86	1291.98
389.06	1245.16
389.25	1378.58
389.45	1303.68
389.64	1306.02
389.84	1385.60
390.03	1404.32
390.22	1420.71
390.42	1343.47
390.61	1373.89
390.81	1378.58
391.00	1458.15
391.19	1469.86
391.39	1530.71
391.58	1394.96
391.78	1472.20
391.97	1530.71
392.16	1479.22
392.36	1495.60
392.55	1544.75
392.75	1593.90
392.94	1614.97
393.13	1516.67
393.33	1558.80
393.52	1633.69
393.71	1675.82
393.91	1617.31
394.10	1659.44
394.29	1624.33
394.49	1661.78
394.68	1570.50
394.88	1575.18
395.07	1722.63
395.26	1638.38
395.46	1671.14
395.65	1603.27
395.84	1636.03
396.04	1736.68
396.23	1717.95
396.42	1722.63
396.62	1776.47
396.81	1818.60
397.00	1830.30
397.19	1753.06
397.39	1823.28
397.58	1891.15
397.77	1891.15
397.97	1834.98
398.16	1879.45
398.35	1851.36
398.55	1909.88
398.74	1900.52
398.93	2012.86
399.12	1856.04
399.32	1919.24
399.51	1912.22
399.70	1996.48
399.90	1942.64
400.09	2069.03
400.28	2108.82
400.47	2054.99
400.67	2106.48
400.86	2031.58
401.05	2146.27
401.24	2108.82
401.44	2148.61
401.63	2127.55
401.82	2214.15
402.01	2230.53
402.21	2218.83
402.40	2172.02
402.59	2221.17
402.78	2277.34
402.97	2195.42
403.17	2324.15
403.36	2359.26
403.55	2385.01
403.74	2403.73
403.93	2448.20
404.13	2396.71
404.32	2464.58
404.51	2352.24
404.70	2429.48
404.89	2401.39
405.09	2532.46
405.28	2349.90
405.47	2478.63
405.66	2485.65
405.85	2511.39
406.05	2548.84
406.24	2633.10
406.43	2574.59
406.62	2600.34
406.81	2700.98
407.00	2574.59
407.20	2656.51
407.39	2658.85
407.58	2808.64
407.77	2738.43
407.96	2726.72
408.15	2789.92
408.34	2829.71
408.54	2928.01
408.73	2745.45
408.92	2787.58
409.11	2789.92
409.30	3000.57
409.49	2911.63
409.68	2864.82
409.87	2972.48
410.07	2991.20
410.26	3045.04
410.45	2946.73
410.64	3126.96
410.83	3033.33
411.02	3157.38
411.21	3185.47
411.40	3133.98
411.59	3138.66
411.78	3159.72
411.98	3138.66
412.17	3342.28
412.36	3176.11
412.55	3318.88
412.74	3520.17
412.93	3351.65
413.12	3405.48
413.31	3625.49
413.50	3471.01
413.69	3581.02
413.88	3646.55
414.07	3719.11
414.26	3634.85
414.45	3700.39
414.64	3754.22
414.83	3796.35
415.02	3749.54
415.22	3857.20
415.41	3840.82
415.60	3894.65
415.79	4025.72
415.98	4025.72
416.17	3960.19
416.36	3904.01
416.55	4065.51
416.74	4016.36
416.93	4117.00
417.12	4021.04
417.31	4161.47
417.50	4301.90
417.69	4322.97
417.88	4264.46
418.07	4201.26
418.26	4386.16
418.45	4407.23
418.64	4538.30
418.83	4458.72
419.02	4475.10
419.21	4671.71
419.39	4652.98
419.58	4561.70
419.77	4346.37
419.96	4638.94
420.15	4585.11
420.34	4540.64
420.53	4594.47
420.72	4709.16
420.91	4718.52
421.10	4643.62
421.29	4685.75
421.48	4601.49
421.67	4760.65
421.86	4903.42
422.05	4868.31
422.24	4840.23
422.43	4847.25
422.61	4840.23
422.80	5015.77
422.99	4957.25
423.18	5081.30
423.37	5149.18
423.56	4898.74
423.75	4987.68
423.94	4943.21
424.13	4638.94
424.32	4830.87
424.50	5041.51
424.69	5135.14
424.88	5107.05
425.07	4959.60
425.26	4842.57
425.45	4877.68
425.64	5004.07
425.83	5022.79
426.01	5095.35
426.20	5151.52
426.39	5076.62
426.58	5039.17
426.77	4968.96
426.96	5160.88
427.15	5263.86
427.33	5235.78
427.52	5207.69
427.71	5369.19
427.90	5408.98
428.09	5331.74
428.28	5331.74
428.46	5343.44
428.65	5380.89
428.84	5507.28
429.03	5703.89
429.22	5298.97
429.40	5451.11
429.59	5535.37
429.78	5547.07
429.97	5310.68
430.16	5523.66
430.34	5636.01
430.53	5668.78
430.72	5947.30
430.91	5720.27
431.10	5668.78
431.28	5818.57
431.47	5762.40
431.66	5888.79
431.85	5856.02
432.03	6017.52
432.22	6059.65
432.41	6069.01
432.60	5937.94
432.79	6115.82
432.97	6073.69
433.16	6169.65
433.35	6024.54
433.54	6146.25
433.72	6263.27
433.91	6066.67
434.10	6188.38
434.28	6162.63
434.47	6209.44
434.66	6403.71
434.85	6326.47
435.03	6354.55
435.22	6307.74
435.41	6607.33
435.59	6558.18
435.78	6471.58
435.97	6345.19
436.16	6471.58
436.34	6619.04
436.53	6562.86
436.72	6738.40
436.90	6595.63
437.09	6523.07
437.28	6588.61
437.46	6614.35
437.65	6759.47
437.84	6810.96
438.02	6825.00
438.21	6932.67
438.40	6867.13
438.58	7171.40
438.77	7119.91
438.96	7056.72
439.14	7098.84
439.33	7234.60
439.52	7302.47
439.70	7267.36
439.89	7363.33
440.08	7428.86
440.26	7300.13
440.45	7335.24
440.63	7536.52
440.82	7662.91
441.01	7499.08
441.19	7595.04
441.38	7623.12
441.57	7892.29
441.75	7859.52
441.94	8166.13
442.12	8079.53
442.31	8056.12
442.50	8255.07
442.68	8135.70
442.87	8182.51
443.05	8318.26
443.24	8224.64
443.43	8252.73
443.61	8334.65
443.80	8599.13
443.98	8081.87
444.17	8006.97
444.35	8327.63
444.54	8674.03
444.73	8290.18
444.91	8301.88
445.10	8493.80
445.28	8477.42
445.47	8287.84
445.65	8456.36
445.84	8514.87
446.02	8608.49
446.21	8589.77
446.39	8332.31
446.58	8571.04
446.77	8716.16
446.95	8278.47
447.14	8411.89
447.32	8538.27
447.51	8402.52
447.69	8561.68
447.88	8479.76
448.06	8718.50
448.25	8746.58
448.43	8601.47
448.62	8802.75
448.80	8500.83
448.99	8746.58
449.17	8823.82
449.36	8716.16
449.54	9004.04
449.73	8973.61
449.91	8919.78
450.10	8940.85
450.28	9191.28
450.46	9217.03
450.65	9193.62
450.83	9076.60
451.02	9064.89
451.20	9298.95
451.39	9320.01
451.57	9324.69
451.76	9076.60
451.94	9380.87
452.13	9352.78
452.31	9509.60
452.49	9165.54
452.68	9528.32
452.86	9598.54
453.05	9671.09
453.23	9451.08
453.42	9453.42
453.60	9324.69
453.78	9692.16
453.97	9481.51
454.15	9750.67
454.34	9596.20
454.52	9827.91
454.70	9834.93
454.89	9645.35
455.07	9893.44
455.26	9942.60
455.44	10031.54
455.62	9966.00
455.81	10162.61
455.99	10132.18
456.17	10120.48
456.36	10097.07
456.54	10546.45
456.73	10473.90
456.91	10443.47
457.09	10368.57
457.28	10757.10
457.46	10647.10
457.64	10714.97
457.83	10710.29
458.01	10459.85
458.19	10839.02
458.38	10513.69
458.56	10972.43
458.74	10843.70
458.93	10939.66
459.11	10963.07
459.29	10951.37
459.48	10740.72
459.66	10946.69
459.84	11169.04
460.03	11183.08
460.21	11047.33
460.39	10949.03
460.57	10988.82
460.76	11295.43
460.94	11442.88
461.12	11276.70
461.31	11286.06
461.49	11234.57
461.67	11112.86
461.85	11808.00
462.04	11426.50
462.22	11829.07
462.40	11613.74
462.59	11627.78
462.77	11665.23
462.95	11808.00
463.13	11812.68
463.32	11737.79
463.50	11873.54
463.68	11882.90
463.86	12102.91
464.05	11698.00
464.23	11768.21
464.41	12147.38
464.59	11796.30
464.78	12217.60
464.96	12023.33
465.14	11873.54
465.32	11770.55
465.50	12203.55
465.69	12219.94
465.87	12067.80
466.05	12257.39
466.23	12514.84
466.41	12238.66
466.60	12650.60
466.78	12248.02
466.96	12128.66
467.14	12479.74
467.32	12203.55
467.51	12716.13
467.69	12580.38
467.87	12418.88
468.05	12816.77
468.23	12664.64
468.41	12582.72
468.60	12854.22
468.78	13006.36
468.96	12615.49
469.14	12746.56
469.32	12985.29
469.50	12636.55
469.69	12807.41
469.87	13259.13
470.05	13247.43
470.23	13540.00
470.41	13603.19
470.59	13476.80
470.77	13245.09
470.95	13458.08
471.14	13825.54
471.32	13362.12
471.50	13792.78
471.68	13862.99
471.86	13528.30
472.04	13954.27
472.22	14211.73
472.40	13965.98
472.58	13886.40
472.77	14066.62
472.95	14464.51
473.13	14714.95
473.31	14310.04
473.49	14312.38
473.67	14382.59
473.85	14391.95
474.03	14967.73
474.21	14700.90
474.39	14843.68
474.57	14918.57
474.75	15316.47
474.93	15257.95
475.12	14963.04
475.30	15194.76
475.48	15105.82
475.66	15379.66
475.84	15229.87
476.02	15707.34
476.20	15576.27
476.38	16072.46
476.56	16248.00
476.74	16362.69
476.92	16093.52
477.10	15779.89
477.28	16154.38
477.46	16475.03
477.64	16437.58
477.82	16699.72
478.00	17048.46
478.18	16929.09
478.36	17338.69
478.54	17364.43
478.72	17411.25
478.90	17500.19
479.08	18001.06
479.26	17710.83
479.44	17862.97
479.62	18026.81
479.80	18384.91
479.98	18078.30
480.16	18808.54
480.34	18583.85
480.52	18864.72
480.70	18780.46
480.88	18654.07
481.06	18909.19
481.24	18888.12
481.41	19709.65
481.59	19515.39
481.77	19740.08
481.95	19601.99
482.13	19875.83
482.31	19667.52
482.49	20460.96
482.67	20414.15
482.85	20706.72
483.03	20585.01
483.21	20748.85
483.39	21362.07
483.57	21069.50
483.74	21214.62
483.92	21708.47
484.10	21303.56
484.28	22211.68
484.46	22221.05
484.64	22525.32
484.82	22155.51
485.00	22745.33
485.18	23281.31
485.35	23075.34
485.53	23068.32
485.71	23372.59
485.89	23990.49
486.07	23379.61
486.25	23314.08
486.43	23772.82
486.61	24182.42
486.78	24613.07
486.96	24350.93
487.14	24931.39
487.32	25146.72
487.50	25352.68
487.68	25598.44
487.85	25624.18
488.03	25942.50
488.21	25603.12
488.39	25909.73
488.57	26590.83
488.75	26265.49
488.92	26789.77
489.10	26972.33
489.28	26668.06
489.46	27377.25
489.64	27412.35
489.81	27723.65
489.99	28126.22
490.17	27992.81
490.35	28631.77
490.53	28519.43
490.70	29071.79
490.88	28465.60
491.06	28849.44
491.24	29170.10
491.41	29472.03
491.59	29788.00
491.77	29699.06
491.95	29874.60
492.13	30251.42
492.30	30284.19
492.48	30242.06
492.66	30415.26
492.84	30536.97
493.01	30813.15
493.19	31068.27
493.37	31182.96
493.54	31681.49
493.72	32175.34
493.90	31622.98
494.08	32247.90
494.25	32723.03
494.43	32589.62
494.61	32622.39
494.79	32598.98
494.96	32980.49
495.14	33165.39
495.32	33305.82
495.49	33472.00
495.67	34031.39
495.85	33490.73
496.02	34012.66
496.20	34529.92
496.38	34288.85
496.55	34483.11
496.73	35199.32
496.91	34941.86
497.09	35398.26
497.26	35143.14
497.44	35491.88
497.62	35669.76
497.79	36325.11
497.97	35868.71
498.14	36383.63
498.32	36346.18
498.50	36802.58
498.67	37287.07
498.85	36556.83
499.03	37270.69
499.20	36790.88
499.38	37378.36
499.56	37352.61
499.73	37385.38
499.91	37830.08
500.08	37982.21
500.26	37237.92
500.44	37794.97
500.61	38153.07
500.79	38319.25
500.97	38438.62
501.14	38932.47
501.32	38799.06
501.49	38880.98
501.67	38913.75
501.84	39821.87
502.02	39452.07
502.20	39344.41
502.37	39571.44
502.55	39866.34
502.72	39906.13
502.90	39742.30
503.07	40432.75
503.25	40444.46
503.43	39896.77
503.60	40711.28
503.78	40884.48
503.95	40767.45
504.13	40811.92
504.30	41354.93
504.48	41053.00
504.65	41237.90
504.83	41205.13
505.01	41598.34
505.18	41954.10
505.36	41921.34
505.53	41731.75
505.71	41769.20
505.88	42445.62
506.06	42197.52
506.23	42342.63
506.41	42293.48
506.58	42742.86
506.76	43157.14
506.93	42848.19
507.11	42976.92
507.28	43075.22
507.46	43379.49
507.63	43302.25
507.81	43945.90
507.98	43416.94
508.16	44088.67
508.33	44039.52
508.50	43882.70
508.68	44170.59
508.85	44170.59
509.03	44617.63
509.20	44641.04
509.38	44814.24
509.55	44877.43
509.73	44879.77
509.90	45130.21
510.08	45008.50
510.25	45258.94
510.42	45202.77
510.60	45436.82
510.77	45535.12
510.95	46260.69
511.12	45837.05
511.30	45556.19
511.47	45720.02
511.64	46064.08
511.82	46473.68
511.99	46218.56
512.17	46693.69
512.34	45900.25
512.51	46775.61
512.69	47143.07
512.86	47150.09
513.04	47175.84
513.21	46927.74
513.38	47185.20
513.56	47185.20
513.73	46948.81
513.90	47372.44
514.08	47173.50
514.25	47632.24
514.43	47782.04
514.60	48191.63
514.77	47728.20
514.95	48413.98
515.12	47660.33
515.29	48498.24
515.47	48018.43
515.64	48472.49
515.81	48205.67
515.99	49078.69
516.16	49048.27
516.33	48891.45
516.51	49090.40
516.68	49038.90
516.85	48769.74
517.03	49464.88
517.20	49549.14
517.37	49282.32
517.54	48996.77
517.72	49514.03
517.89	49631.06
518.06	49539.78
518.24	49528.08
518.41	49710.64
518.58	49815.96
518.75	49827.66
518.93	49977.46
519.10	49684.89
519.27	50508.76
519.45	50305.13
519.62	50349.60
519.79	50251.30
519.96	50487.70
520.14	50527.48
520.31	50560.25
520.48	50951.12
520.65	50595.36
520.83	50969.85
521.00	51143.05
521.17	51026.02
521.34	51107.94
521.52	51124.32
521.69	51526.89
521.86	51709.46
522.03	51697.75
522.20	51973.94
522.38	51877.97
522.55	52025.43
522.72	51723.50
522.89	51639.24
523.07	51885.00
523.24	51838.18
523.41	52037.13
523.58	51980.96
523.75	52083.94
523.92	51920.10
524.10	52275.87
524.27	52423.32
524.44	52275.87
524.61	52603.54
524.78	52442.04
524.96	52549.71
525.13	52706.52
525.30	52891.43
525.47	52725.25
525.64	52776.74
525.81	53183.99
525.98	53069.31
526.16	53010.79
526.33	52914.83
526.50	53315.06
526.67	53296.34
526.84	53191.01
527.01	53198.04
527.18	53228.46
527.36	53364.21
527.53	53389.96
527.70	53443.79
527.87	53680.19
528.04	53453.15
528.21	53804.24
528.38	53614.65
528.55	53860.41
528.72	53813.60
528.89	53605.29
529.07	53860.41
529.24	53727.00
529.41	53991.48
529.58	54284.04
529.75	54171.70
529.92	54059.35
530.09	54171.70
530.26	54377.67
530.43	54457.24
530.60	54115.53
530.77	54007.86
530.94	54438.52
531.11	54382.35
531.28	54684.28
531.46	54511.08
531.63	54782.58
531.80	54752.15
531.97	54705.34
532.14	54852.80
532.31	54887.90
532.48	54761.51
532.65	55077.49
532.82	55054.08
532.99	54857.48
533.16	54951.10
533.33	55276.43
533.50	55224.94
533.67	55072.81
533.84	55105.57
534.01	55339.63
534.18	55285.79
534.35	55674.32
534.52	55463.67
534.69	55426.23
534.86	55667.30
535.03	55377.08
535.20	55482.40
535.37	55721.13
535.54	55758.58
535.71	55487.08
535.88	55641.56
536.05	55683.69
536.22	56004.34
536.38	56009.02
536.55	55987.95
536.72	56034.77
536.89	55868.59
537.06	56016.04
537.23	56025.40
537.40	56067.53
537.57	55938.80
537.74	55990.30
537.91	56374.14
538.08	56086.26
538.25	56032.42
538.42	56275.84
538.59	56498.19
538.75	56207.97
538.92	56332.01
539.09	56559.05
539.26	56486.49
539.43	56411.59
539.60	56371.80
539.77	56362.44
539.94	56877.36
540.11	56694.80
540.28	56500.53
540.44	56559.05
540.61	56655.01
540.78	56776.72
540.95	56669.05
541.12	56542.66
541.29	56779.06
541.46	56926.51
541.62	57062.26
541.79	56863.32
541.96	56549.68
542.13	56671.39
542.30	57088.01
542.47	57361.85
542.63	57141.84
542.80	57261.21
542.97	57151.20
543.14	57546.75
543.31	57275.25
543.48	57649.74
543.64	57790.17
543.81	57832.30
543.98	57628.67
544.15	57696.55
544.32	57869.75
544.48	57848.68
544.65	57579.52
544.82	57708.25
544.99	57293.97
545.16	57645.05
545.32	57972.73
545.49	57876.77
545.66	58019.54
545.83	57822.93
546.00	57862.72
546.16	58073.37
546.33	57991.45
546.50	57797.19
546.67	57881.45
546.83	57764.42
547.00	58145.93
547.17	58122.52
547.34	57986.77
547.50	58162.31
547.67	58248.91
547.84	58106.14
548.00	58379.98
548.17	58365.94
548.34	58368.28
548.51	58424.45
548.67	58511.05
548.84	58560.20
549.01	58511.05
549.18	58363.60
549.34	58553.18
549.51	58592.97
549.68	58670.21
549.84	58522.76
550.01	58609.35
550.18	58506.37
550.34	58817.66
550.51	58820.00
550.68	58672.55
550.84	58487.65
551.01	58738.08
551.18	58791.92
551.34	58913.62
551.51	58908.94
551.68	58775.53
551.84	58925.33
552.01	58688.93
552.18	58897.24
552.34	59002.56
552.51	59093.85
552.68	58880.86
552.84	58838.73
553.01	59276.41
553.18	59316.20
553.34	59241.30
553.51	58920.65
553.67	59000.22
553.84	59391.09
554.01	58988.52
554.17	59482.37
554.34	59119.59
554.51	59386.41
554.67	59248.32
554.84	59302.15
555.00	59341.94
555.17	59327.90
555.33	59316.20
555.50	59114.91
555.67	59227.26
555.83	59334.92
556.00	59435.56
556.16	59622.81
556.33	59559.61
556.50	59407.48
556.66	59840.48
556.83	59339.60
556.99	59655.57
557.16	59646.21
557.32	59803.03
557.49	59955.16
557.65	59629.83
557.82	59667.28
557.98	59629.83
558.15	59681.32
558.32	59693.02
558.48	59604.08
558.65	59800.69
558.81	59655.57
558.98	59646.21
559.14	59777.28
559.31	59765.58
559.47	60025.38
559.64	59973.89
559.80	59978.57
559.97	59861.54
560.13	59693.02
560.30	59882.61
560.46	59906.01
560.63	59962.18
560.79	59887.29
560.96	60168.15
561.12	60055.81
561.29	60051.12
561.45	60172.83
561.61	60161.13
561.78	60046.44
561.94	60095.60
562.11	59973.89
562.27	60229.01
562.44	60221.98
562.60	60193.90
562.77	60224.32
562.93	60018.36
563.10	60376.46
563.26	60226.66
563.42	60381.14
563.59	60221.98
563.75	60158.79
563.92	60362.42
564.08	60165.81
564.24	60336.67
564.41	60315.61
564.57	60266.45
564.74	60306.24
564.90	60294.54
565.07	60334.33
565.23	60582.43
565.39	60322.63
565.56	60418.59
565.72	60378.80
565.88	60502.85
566.05	60360.08
566.21	60364.76
566.38	60388.16
566.54	60547.32
566.70	60694.77
566.87	60626.90
567.03	60544.98
567.19	60638.60
567.36	60603.49
567.52	60601.15
567.68	60542.64
567.85	60566.04
568.01	60886.70
568.17	60502.85
568.34	60764.99
568.50	60334.33
568.66	60430.29
568.83	60706.47
568.99	60563.70
569.15	60685.41
569.32	60615.19
569.48	60748.60
569.64	60882.02
569.81	60516.89
569.97	60839.89
570.13	60706.47
570.30	60800.10
570.46	60739.24
570.62	60992.02
570.78	60811.80
570.95	60559.02
571.11	60935.85
571.27	60678.39
571.43	60816.48
571.60	60919.46
571.76	60734.56
571.92	60821.16
572.09	60980.32
572.25	60879.67
572.41	60982.66
572.57	60912.44
572.74	61099.68
572.90	60774.35
573.06	60851.59
573.22	60910.10
573.38	60940.53
573.55	60989.68
573.71	61020.11
573.87	61059.90
574.03	60683.07
574.20	60896.06
574.36	60970.96
574.52	60736.90
574.68	60877.33
574.84	61104.37
575.01	61090.32
575.17	60928.83
575.33	60985.00
575.49	60947.55
575.65	61069.26
575.82	61137.13
575.98	60884.36
576.14	61249.48
576.30	61099.68
576.46	60931.17
576.62	61045.85
576.79	60954.57
576.95	60952.23
577.11	60898.40
577.27	61092.66
577.43	60956.91
577.59	60996.70
577.75	61008.40
577.92	61123.09
578.08	61055.21
578.24	61144.16
578.40	61249.48
578.56	61183.94
578.72	61272.88
578.88	61272.88
579.04	61336.08
579.21	61230.75
579.37	61080.96
579.53	61385.23
579.69	61041.17
579.85	60999.04
580.01	61134.79
580.17	60968.61
580.33	61104.37
580.49	61277.57
580.65	61326.72
580.82	61104.37
580.98	61172.24
581.14	61160.54
581.30	61394.59
581.46	60903.08
581.62	61263.52
581.78	61038.83
581.94	61249.48
582.10	61214.37
582.26	61251.82
582.42	61144.16
582.58	61214.37
582.74	61059.90
582.90	61087.98
583.06	61095.00
583.22	60884.36
583.38	61254.16
583.54	61249.48
583.70	61254.16
583.86	61069.26
584.02	61059.90
584.18	61305.65
584.34	61209.69
584.50	61160.54
584.66	60891.38
584.82	60912.44
584.98	61453.11
585.14	61350.12
585.30	61071.60
585.46	61207.35
585.62	61303.31
585.78	61476.51
585.94	61031.81
586.10	61279.91
586.26	61364.17
586.42	61490.55
586.58	61471.83
586.74	61439.06
586.90	61113.73
587.06	61190.97
587.22	61315.01
587.38	61303.31
587.54	61408.64
587.70	61357.14
587.86	61410.98
588.02	61322.04
588.18	61532.68
588.34	61223.73
588.49	61235.44
