SpectraSuite Data File
++++++++++++++++++++++++++++++++++++
Date: Fri Oct 25 11:33:42 EDT 2013
User: price-jones
Dark Spectrum Present: No
Reference Spectrum Present: No
Number of Sampled Component Spectra: 1
Spectrometers: USB2+H05261
Integration Time (usec): 100000 (USB2+H05261)
Spectra Averaged: 1 (USB2+H05261)
Boxcar Smoothing: 0 (USB2+H05261)
Correct for Electrical Dark: No (USB2+H05261)
Strobe/Lamp Enabled: No (USB2+H05261)
Correct for Detector Non-linearity: No (USB2+H05261)
Correct for Stray Light: No (USB2+H05261)
Number of Pixels in Processed Spectrum: 2048
>>>>>Begin Processed Spectral Data<<<<<
365.73	248.10
365.92	248.10
366.12	248.10
366.32	170.86
366.52	173.20
366.72	236.39
366.91	201.29
367.11	163.84
367.31	126.39
367.51	187.24
367.70	227.03
367.90	110.01
368.10	133.41
368.30	238.73
368.49	152.13
368.69	189.58
368.89	231.71
369.09	142.77
369.28	205.97
369.48	208.31
369.68	250.44
369.87	210.65
370.07	194.26
370.27	262.14
370.47	276.18
370.66	461.09
370.86	543.00
371.06	528.96
371.25	557.05
371.45	524.28
371.65	557.05
371.84	550.03
372.04	538.32
372.24	624.92
372.44	528.96
372.63	580.45
372.83	657.69
373.03	627.26
373.22	627.26
373.42	606.20
373.62	573.43
373.81	662.37
374.01	582.79
374.21	678.76
374.40	589.82
374.60	660.03
374.79	657.69
374.99	589.82
375.19	629.60
375.38	620.24
375.58	692.80
375.78	664.71
375.97	688.12
376.17	653.01
376.37	709.18
376.56	671.73
376.76	685.78
376.95	641.31
377.15	660.03
377.35	685.78
377.54	678.76
377.74	650.67
377.93	650.67
378.13	732.59
378.33	737.27
378.52	681.10
378.72	723.23
378.91	765.36
379.11	725.57
379.31	681.10
379.50	655.35
379.70	634.29
379.89	770.04
380.09	784.08
380.28	744.29
380.48	770.04
380.68	681.10
380.87	692.80
381.07	739.61
381.26	727.91
381.46	826.21
381.65	760.67
381.85	770.04
382.04	795.78
382.24	819.19
382.43	741.95
382.63	760.67
382.83	779.40
383.02	798.12
383.22	786.42
383.41	777.06
383.61	830.89
383.80	863.66
384.00	821.53
384.19	812.17
384.39	770.04
384.58	784.08
384.78	826.21
384.97	814.51
385.17	819.19
385.36	842.59
385.56	884.72
385.75	807.48
385.95	964.30
386.14	875.36
386.34	858.98
386.53	880.04
386.72	875.36
386.92	990.05
387.11	887.06
387.31	880.04
387.50	844.93
387.70	870.68
387.89	926.85
388.09	945.58
388.28	800.46
388.48	894.08
388.67	866.00
388.86	908.13
389.06	863.66
389.25	882.38
389.45	959.62
389.64	943.24
389.84	943.24
390.03	924.51
390.22	933.87
390.42	947.92
390.61	889.40
390.81	889.40
391.00	978.34
391.19	1018.13
391.39	990.05
391.58	1015.79
391.78	966.64
391.97	985.37
392.16	1102.39
392.36	1086.01
392.55	1046.22
392.75	1097.71
392.94	1078.99
393.13	1116.44
393.33	1043.88
393.52	1090.69
393.71	1067.28
393.91	1158.57
394.10	1125.80
394.29	1146.86
394.49	1163.25
394.68	1116.44
394.88	1160.91
395.07	1151.54
395.26	1149.20
395.46	1132.82
395.65	1226.44
395.84	1151.54
396.04	1282.61
396.23	1287.29
396.42	1268.57
396.62	1203.04
396.81	1165.59
397.00	1151.54
397.19	1231.12
397.39	1210.06
397.58	1191.33
397.77	1149.20
397.97	1294.32
398.16	1217.08
398.35	1245.16
398.55	1198.35
398.74	1303.68
398.93	1308.36
399.12	1277.93
399.32	1275.59
399.51	1385.60
399.70	1336.45
399.90	1366.87
400.09	1434.75
400.28	1455.81
400.47	1334.11
400.67	1345.81
400.86	1479.22
401.05	1467.52
401.24	1404.32
401.44	1373.89
401.63	1528.37
401.82	1448.79
402.01	1451.13
402.21	1476.88
402.40	1483.90
402.59	1551.78
402.78	1528.37
402.97	1462.83
403.17	1556.46
403.36	1540.07
403.55	1558.80
403.74	1612.63
403.93	1593.90
404.13	1701.57
404.32	1584.54
404.51	1687.53
404.70	1671.14
404.89	1619.65
405.09	1776.47
405.28	1739.02
405.47	1692.21
405.66	1614.97
405.85	1727.32
406.05	1727.32
406.24	1720.29
406.43	1713.27
406.62	1865.41
406.81	1877.11
407.00	1865.41
407.20	1785.83
407.39	1778.81
407.58	1888.81
407.77	1944.99
407.96	1989.46
408.15	1888.81
408.34	1806.89
408.54	1952.01
408.73	2047.97
408.92	1895.83
409.11	2003.50
409.30	1930.94
409.49	1935.62
409.68	2019.88
409.87	2122.87
410.07	2024.56
410.26	2122.87
410.45	2090.10
410.64	2008.18
410.83	1998.82
411.02	2118.18
411.21	2200.10
411.40	2127.55
411.59	2223.51
411.78	2101.80
411.98	2225.85
412.17	2218.83
412.36	2221.17
412.55	2310.11
412.74	2394.37
412.93	2298.41
413.12	2232.87
413.31	2525.44
413.50	2310.11
413.69	2373.30
413.88	2546.50
414.07	2450.54
414.26	2410.75
414.45	2595.65
414.64	2619.06
414.83	2462.24
415.02	2715.02
415.22	2635.44
415.41	2569.91
415.60	2558.21
415.79	2665.87
415.98	2836.73
416.17	2661.19
416.36	2677.57
416.55	2724.38
416.74	2841.41
416.93	2792.26
417.12	2759.49
417.31	2853.11
417.50	2902.26
417.69	2906.95
417.88	2965.46
418.07	2822.69
418.26	2864.82
418.45	3021.63
418.64	3047.38
418.83	2981.84
419.02	3068.44
419.21	3019.29
419.39	3080.14
419.58	3026.31
419.77	3038.02
419.96	3110.57
420.15	3185.47
420.34	3183.13
420.53	3152.70
420.72	3255.69
420.91	3283.77
421.10	3199.51
421.29	3412.50
421.48	3243.98
421.67	3307.18
421.86	3330.58
422.05	3211.22
422.24	3400.80
422.43	3260.37
422.61	3421.86
422.80	3321.22
422.99	3492.08
423.18	3428.88
423.37	3478.04
423.56	3438.25
423.75	3428.88
423.94	3424.20
424.13	3325.90
424.32	3361.01
424.50	3321.22
424.69	3590.38
424.88	3543.57
425.07	3492.08
425.26	3471.01
425.45	3356.33
425.64	3461.65
425.83	3440.59
426.01	3555.27
426.20	3398.46
426.39	3426.54
426.58	3412.50
426.77	3571.66
426.96	3606.77
427.15	3473.36
427.33	3592.72
427.52	3524.85
427.71	3613.79
427.90	3541.23
428.09	3543.57
428.28	3527.19
428.46	3822.09
428.65	3627.83
428.84	3861.88
429.03	3887.63
429.22	3606.77
429.40	3772.94
429.59	3691.02
429.78	3660.60
429.97	3559.95
430.16	3756.56
430.34	3740.18
430.53	3831.46
430.72	3939.12
430.91	3929.76
431.10	3887.63
431.28	3960.19
431.47	3969.55
431.66	3913.38
431.85	4025.72
432.03	4004.66
432.22	4114.66
432.41	3971.89
432.60	3922.74
432.79	4035.08
432.97	4182.54
433.16	4030.40
433.35	4105.30
433.54	4114.66
433.72	4379.14
433.91	4173.18
434.10	4088.92
434.28	4294.88
434.47	4266.80
434.66	4372.12
434.85	4271.48
435.03	4287.86
435.22	4299.56
435.41	4397.87
435.59	4519.57
435.78	4346.37
435.97	4475.10
436.16	4402.55
436.34	4458.72
436.53	4594.47
436.72	4461.06
436.90	4358.08
437.09	4484.47
437.28	4325.31
437.46	4386.16
437.65	4524.26
437.84	4613.20
438.02	4762.99
438.21	4669.37
438.40	4589.79
438.58	4772.35
438.77	4716.18
438.96	4788.74
439.14	4910.44
439.33	4896.40
439.52	4858.95
439.70	4898.74
439.89	4990.02
440.08	4997.04
440.26	5132.79
440.45	4868.31
440.63	5132.79
440.82	5135.14
441.01	5074.28
441.19	5102.37
441.38	5280.25
441.57	5228.76
441.75	5247.48
441.94	5394.93
442.12	5256.84
442.31	5357.49
442.50	5535.37
442.68	5378.55
442.87	5610.26
443.05	5514.30
443.24	5561.11
443.43	5614.95
443.61	5586.86
443.80	5760.06
443.98	5533.03
444.17	5357.49
444.35	5493.24
444.54	5701.54
444.73	5568.13
444.91	5598.56
445.10	5654.73
445.28	5657.07
445.47	5638.35
445.65	5734.31
445.84	5783.46
446.02	5731.97
446.21	5643.03
446.39	5710.91
446.58	5867.72
446.77	5713.25
446.95	5598.56
447.14	5633.67
447.32	5804.53
447.51	5783.46
447.69	5727.29
447.88	5774.10
448.06	5771.76
448.25	5701.54
448.43	5701.54
448.62	5816.23
448.80	5844.32
448.99	5849.00
449.17	5902.83
449.36	5750.70
449.54	6029.22
449.73	6085.39
449.91	6015.18
450.10	5891.13
450.28	6040.92
450.46	6090.07
450.65	6080.71
450.83	6197.74
451.02	6047.94
451.20	6305.40
451.39	6190.72
451.57	6141.57
451.76	6085.39
451.94	6272.64
452.13	6349.87
452.31	6284.34
452.49	6171.99
452.68	6188.38
452.86	6289.02
453.05	6389.66
453.23	6384.98
453.42	6450.52
453.60	6317.11
453.78	6480.94
453.97	6314.77
454.15	6155.61
454.34	6310.08
454.52	6588.61
454.70	6539.46
454.89	6614.35
455.07	6494.99
455.26	6597.97
455.44	6546.48
455.62	6813.30
455.81	6733.72
455.99	6619.04
456.17	6829.68
456.36	6810.96
456.54	6904.58
456.73	6874.15
456.91	7187.79
457.09	7101.19
457.28	7150.34
457.46	6906.92
457.64	7178.42
457.83	7014.59
458.01	6932.67
458.19	7157.36
458.38	7227.57
458.56	7197.15
458.74	7208.85
458.93	7129.27
459.11	7307.15
459.29	7314.17
459.48	7314.17
459.66	7225.23
459.84	7344.60
460.03	7510.78
460.21	7468.65
460.39	7463.97
460.57	7377.37
460.76	7454.61
460.94	7557.59
461.12	7440.56
461.31	7529.50
461.49	7538.87
461.67	7461.63
461.85	7695.68
462.04	7583.34
462.22	7927.39
462.40	7896.97
462.59	7660.57
462.77	7880.58
462.95	7857.18
463.13	7803.35
463.32	7894.63
463.50	8002.29
463.68	8070.17
463.86	7957.82
464.05	7808.03
464.23	7911.01
464.41	8004.63
464.59	7962.50
464.78	8116.98
464.96	7988.25
465.14	7995.27
465.32	8018.68
465.50	8184.85
465.69	8196.56
465.87	8222.30
466.05	8241.03
466.23	8163.79
466.41	8119.32
466.60	8407.20
466.78	8283.16
466.96	8142.72
467.14	8189.53
467.32	8332.31
467.51	8451.67
467.69	7999.95
467.87	8308.90
468.05	8510.19
468.23	8388.48
468.41	8292.52
468.60	8524.23
468.78	8634.24
468.96	8418.91
469.14	8582.74
469.32	8638.92
469.50	8573.38
469.69	8568.70
469.87	8709.13
470.05	8636.58
470.23	8798.07
470.41	8791.05
470.59	8798.07
470.77	8819.14
470.95	8798.07
471.14	8961.91
471.32	8887.01
471.50	9114.05
471.68	8929.14
471.86	9092.98
472.04	9109.36
472.22	9427.68
472.40	9186.60
472.58	9366.82
472.77	9186.60
472.95	9284.91
473.13	9680.46
473.31	9434.70
473.49	9137.45
473.67	9441.72
473.85	9584.49
474.03	9607.90
474.21	9551.73
474.39	9865.36
474.57	9853.66
474.75	9860.68
474.93	9856.00
475.12	10033.88
475.30	10040.90
475.48	10099.41
475.66	9980.04
475.84	10136.86
476.02	10214.10
476.20	10232.82
476.38	10265.59
476.56	10443.47
476.74	10473.90
476.92	10628.37
477.10	10462.19
477.28	10810.93
477.46	10647.10
477.64	10864.77
477.82	10974.77
478.00	11456.92
478.18	11042.65
478.36	11178.40
478.54	11325.85
478.72	11367.98
478.90	11552.88
479.08	11515.44
479.26	11576.29
479.44	11777.58
479.62	11812.68
479.80	12032.69
479.98	11943.75
480.16	12294.83
480.34	12072.48
480.52	12231.64
480.70	12402.50
480.88	12140.36
481.06	12400.16
481.24	12409.52
481.41	12753.58
481.59	12713.79
481.77	12950.18
481.95	12940.82
482.13	13184.24
482.31	12901.03
482.49	13172.54
482.67	13137.43
482.85	13383.18
483.03	13633.62
483.21	13593.83
483.39	13680.43
483.57	13905.12
483.74	14115.77
483.92	14085.34
484.10	13752.99
484.28	14174.28
484.46	14628.35
484.64	14939.64
484.82	14331.10
485.00	14382.59
485.18	15037.94
485.35	15007.52
485.53	14799.21
485.71	14820.27
485.89	15438.17
486.07	15192.42
486.25	15461.58
486.43	15566.90
486.61	15648.82
486.78	15899.26
486.96	15988.20
487.14	16107.57
487.32	16137.99
487.50	16479.71
487.68	16318.22
487.85	16439.92
488.03	16631.85
488.21	16861.22
488.39	16933.78
488.57	17088.25
488.75	17069.53
488.92	17469.76
489.10	17664.02
489.28	17434.65
489.46	17752.96
489.64	17706.15
489.81	18101.70
489.99	18225.75
490.17	17853.61
490.35	18494.91
490.53	18515.98
490.70	18546.40
490.88	18551.09
491.06	19005.15
491.24	19183.03
491.41	19037.92
491.59	18958.34
491.77	19295.38
491.95	19269.63
492.13	19630.07
492.30	20025.62
492.48	19601.99
492.66	19871.15
492.84	19777.53
493.01	20152.01
493.19	20180.10
493.37	20648.21
493.54	20404.79
493.72	20622.46
493.90	20725.44
494.08	20802.68
494.25	20706.72
494.43	21336.32
494.61	21259.09
494.79	21392.50
494.96	21207.59
495.14	21603.14
495.32	21497.82
495.49	21694.43
495.67	21853.58
495.85	21783.37
496.02	22057.21
496.20	22134.45
496.38	22574.47
496.55	22071.25
496.73	22883.42
496.91	22651.70
497.09	22799.16
497.26	22874.06
497.44	22789.80
497.62	22899.80
497.79	23283.65
497.97	23218.11
498.14	23468.55
498.32	23601.96
498.50	23552.81
498.67	23770.48
498.85	24053.69
499.03	24041.98
499.20	24175.39
499.38	24208.16
499.56	24486.68
499.73	24533.50
499.91	24374.34
500.08	24575.62
500.26	24786.27
500.44	24781.59
500.61	24840.11
500.79	24589.67
500.97	24922.02
501.14	25188.85
501.32	25348.00
501.49	24964.15
501.67	25132.67
501.84	25837.17
502.02	25738.87
502.20	25640.57
502.37	26141.44
502.55	25689.72
502.72	26111.02
502.90	26398.90
503.07	25968.24
503.25	26368.48
503.43	26171.87
503.60	26455.08
503.78	26684.45
503.95	26478.48
504.13	26618.91
504.30	26548.70
504.48	26710.19
504.65	26930.20
504.83	27077.66
505.01	27215.75
505.18	27342.14
505.36	27531.72
505.53	27000.42
505.71	27777.48
505.88	27285.97
506.06	27292.99
506.23	27950.68
506.41	27718.96
506.58	27571.51
506.76	27789.18
506.93	27817.27
507.11	28226.86
507.28	27992.81
507.46	28144.94
507.63	28346.23
507.81	28247.93
507.98	28306.44
508.16	28727.74
508.33	28379.00
508.50	28570.92
508.68	28952.43
508.85	28755.82
509.03	28847.10
509.20	29221.59
509.38	29249.67
509.55	28957.11
509.73	29355.00
509.90	29378.40
510.08	29364.36
510.25	29298.83
510.42	29677.99
510.60	29610.12
510.77	30239.72
510.95	30338.02
511.12	29778.64
511.30	29989.28
511.47	30146.10
511.64	30298.23
511.82	30272.49
511.99	30448.03
512.17	30441.01
512.34	30352.07
512.51	30782.73
512.69	30614.21
512.86	30810.81
513.04	30525.27
513.21	30534.63
513.38	30862.30
513.56	31307.01
513.73	31131.47
513.90	31295.30
514.08	31129.12
514.25	31126.78
514.43	31772.77
514.60	31688.51
514.77	31936.61
514.95	31751.71
515.12	31962.36
515.29	31634.68
515.47	31948.31
515.64	32060.66
515.81	31835.97
515.99	32140.24
516.16	32444.51
516.33	32737.07
516.51	32622.39
516.68	32341.52
516.85	32606.00
517.03	32666.86
517.20	32575.58
517.37	32613.02
517.54	32685.58
517.72	33146.67
517.89	33193.48
518.06	33022.62
518.24	33083.47
518.41	33256.67
518.58	33013.26
518.75	33163.05
518.93	33280.08
519.10	33174.75
519.27	33598.39
519.45	33750.52
519.62	33500.09
519.79	33731.80
519.96	33897.98
520.14	34017.35
520.31	33656.90
520.48	34146.08
520.65	34424.60
520.83	34506.52
521.00	34529.92
521.17	34469.07
521.34	34155.44
521.52	34850.58
521.69	34312.25
521.86	34710.14
522.03	34672.70
522.20	34979.31
522.38	35157.19
522.55	34951.22
522.72	34808.45
522.89	34932.50
523.07	35487.20
523.24	35243.79
523.41	35517.63
523.58	35391.24
523.75	35302.30
523.92	35608.91
524.10	35152.51
524.27	35522.31
524.44	35885.09
524.61	35875.73
524.78	35849.99
524.96	35784.45
525.13	36348.52
525.30	36498.31
525.47	36149.57
525.64	36002.12
525.81	36659.81
525.98	36229.15
526.16	36428.10
526.33	36264.26
526.50	36685.56
526.67	36318.09
526.84	36465.55
527.01	36133.19
527.18	36556.83
527.36	37071.75
527.53	36971.10
527.70	37195.79
527.87	37397.08
528.04	37102.17
528.21	36781.52
528.38	36870.46
528.55	37048.34
528.72	37134.94
528.89	37593.68
529.07	37137.28
529.24	36699.60
529.41	37481.34
529.58	37825.40
529.75	37462.61
529.92	37809.01
530.09	37542.19
530.26	37287.07
530.43	37797.31
530.60	37266.01
530.77	38052.43
530.94	37902.64
531.11	37837.10
531.28	37900.29
531.46	38316.91
531.63	38150.73
531.80	38375.42
531.97	38513.52
532.14	38639.90
532.31	38274.78
532.48	38630.54
532.65	38789.70
532.82	38347.34
532.99	38565.01
533.16	38682.03
533.33	38658.63
533.50	38738.21
533.67	38412.87
533.84	38665.65
534.01	38581.39
534.18	38974.60
534.35	39416.96
534.52	38490.11
534.69	39299.94
534.86	39386.54
535.03	38920.77
535.20	39246.10
535.37	39328.02
535.54	39730.59
535.71	39091.63
535.88	39861.66
536.05	39632.29
536.22	39779.74
536.38	39393.56
536.55	39746.98
536.72	40109.76
536.89	39779.74
537.06	39550.37
537.23	39894.43
537.40	39709.53
537.57	39887.41
537.74	39796.13
537.91	40130.83
538.08	39945.92
538.25	39983.37
538.42	39754.00
538.59	40376.58
538.75	40334.45
538.92	40362.54
539.09	40463.18
539.26	40449.14
539.43	40722.98
539.60	40205.72
539.77	40311.05
539.94	40964.06
540.11	41013.21
540.28	40898.52
540.44	40605.95
540.61	40961.72
540.78	40809.58
540.95	40573.19
541.12	40779.15
541.29	40978.10
541.46	41076.40
541.62	41188.75
541.79	41350.24
541.96	40924.27
542.13	40697.24
542.30	41048.32
542.47	41064.70
542.63	41347.90
542.80	41291.73
542.97	41921.34
543.14	41612.38
543.31	41876.86
543.48	41549.19
543.64	42272.42
543.81	42024.32
543.98	42071.13
544.15	42073.47
544.32	42017.30
544.48	42321.57
544.65	42171.77
544.82	42033.68
544.99	41942.40
545.16	42103.90
545.32	41918.99
545.49	42738.18
545.66	42518.17
545.83	42789.67
546.00	42403.49
546.16	42146.03
546.33	42761.59
546.50	42579.03
546.67	42405.83
546.83	42274.76
547.00	42621.16
547.17	42476.04
547.34	42841.17
547.50	42459.66
547.67	43412.26
547.84	42759.25
548.00	42789.67
548.17	43653.33
548.34	43136.07
548.51	43328.00
548.67	43243.74
548.84	43201.61
549.01	42784.99
549.18	42829.46
549.34	43386.51
549.51	43306.93
549.68	43552.69
549.84	43625.25
550.01	43271.82
550.18	43629.93
550.34	43753.97
550.51	43859.30
550.68	43906.11
550.84	43681.42
551.01	43899.09
551.18	43115.01
551.34	43435.66
551.51	43924.83
551.68	43498.86
551.84	43732.91
552.01	43496.52
552.18	44062.93
552.34	43945.90
552.51	43941.22
552.68	43622.90
552.84	43992.71
553.01	44376.56
553.18	44112.08
553.34	44357.83
553.51	43763.34
553.67	44421.03
553.84	44418.69
554.01	44582.52
554.17	43800.79
554.34	44802.53
554.51	44261.87
554.67	44619.97
554.84	44561.46
555.00	44437.41
555.17	44474.86
555.33	44928.92
555.50	44526.35
555.67	44289.96
555.83	44617.63
556.00	44673.81
556.16	44910.20
556.33	45067.02
556.50	45123.19
556.66	44779.13
556.83	44734.66
556.99	45177.02
557.16	45055.31
557.32	45226.17
557.49	45172.34
557.65	45312.77
557.82	45401.71
557.98	45233.19
558.15	45085.74
558.32	44905.52
558.48	45109.14
558.65	44994.46
558.81	45027.23
558.98	44924.24
559.14	45134.89
559.31	44996.80
559.47	45368.94
559.64	45132.55
559.80	45415.76
559.97	45476.61
560.13	45024.89
560.30	45684.92
560.46	45820.67
560.63	45839.39
560.79	45825.35
560.96	45881.52
561.12	45612.36
561.29	45907.27
561.45	45862.80
561.61	45794.92
561.78	45214.47
561.94	45366.60
562.11	45893.22
562.27	45848.75
562.44	45670.87
562.60	45560.87
562.77	46061.74
562.93	45392.35
563.10	46176.43
563.26	45471.93
563.42	46115.58
563.59	45790.24
563.75	45982.16
563.92	45769.18
564.08	45581.93
564.24	46164.73
564.41	46099.19
564.57	45853.44
564.74	45972.80
564.90	45715.34
565.07	46155.36
565.23	45617.04
565.39	46087.49
565.56	46246.65
565.72	46171.75
565.88	46117.92
566.05	45975.14
566.21	46167.07
566.38	46333.24
566.54	46555.60
566.70	46497.08
566.87	46436.23
567.03	46157.70
567.19	46719.43
567.36	45984.51
567.52	46232.60
567.68	46562.62
567.85	46698.37
568.01	46270.05
568.17	46485.38
568.34	46490.06
568.50	46518.15
568.66	46529.85
568.83	46218.56
568.99	46155.36
569.15	46380.06
569.32	46904.34
569.48	46326.22
569.64	46611.77
569.81	46293.46
569.97	46375.37
570.13	46639.86
570.30	46389.42
570.46	46195.15
570.62	46548.57
570.78	46309.84
570.95	46731.14
571.11	46625.81
571.27	46483.04
571.43	46302.82
571.60	46286.43
571.76	46541.55
571.92	46841.14
572.09	46342.61
572.25	46557.94
572.41	46574.32
572.57	46770.93
572.74	46649.22
572.90	46384.74
573.06	46728.80
573.22	46967.53
573.38	47012.00
573.55	46770.93
573.71	47122.01
573.87	47159.45
574.03	46539.21
574.20	47185.20
574.36	47276.48
574.52	47047.11
574.68	46841.14
574.84	47334.99
575.01	47173.50
575.17	47164.14
575.33	47129.03
575.49	46843.48
575.65	46990.94
575.82	46974.55
575.98	46611.77
576.14	46852.84
576.30	47243.71
576.46	46869.23
576.62	46527.51
576.79	47309.25
576.95	46380.06
577.11	46469.00
577.27	47105.62
577.43	46862.21
577.59	46887.95
577.75	46710.07
577.92	47012.00
578.08	47236.69
578.24	46852.84
578.40	47215.63
578.56	47241.37
578.72	46983.91
578.88	47475.43
579.04	46731.14
579.21	46899.65
579.37	47093.92
579.53	47281.16
579.69	46791.99
579.85	47154.77
580.01	47056.47
580.17	46803.69
580.33	47566.71
580.49	47409.89
580.65	46965.19
580.82	47110.30
580.98	46965.19
581.14	46981.57
581.30	47187.54
581.46	46721.77
581.62	47049.45
581.78	46852.84
581.94	47391.17
582.10	47334.99
582.26	47295.21
582.42	47189.88
582.58	47318.61
582.74	47187.54
582.90	47129.03
583.06	47407.55
583.22	47222.65
583.38	47079.88
583.54	47531.60
583.70	47517.56
583.86	47136.05
584.02	47007.32
584.18	47374.78
584.34	47194.56
584.50	47648.63
584.66	47756.29
584.82	47318.61
584.98	48048.86
585.14	47545.64
585.30	47508.19
585.46	47217.97
585.62	46937.10
585.78	47318.61
585.94	46909.02
586.10	47646.29
586.26	47026.04
586.42	47021.36
586.58	47522.24
586.74	47629.90
586.90	47140.73
587.06	47423.93
587.22	47236.69
587.38	47405.21
587.54	47466.06
587.70	47847.57
587.86	47580.75
588.02	47166.48
588.18	47283.50
588.34	47334.99
588.49	47192.22
588.65	47398.19
588.81	47524.58
588.97	47564.37
589.13	47477.77
589.29	47407.55
589.45	47461.38
589.61	47618.20
589.77	47592.45
589.93	47627.56
590.08	47683.73
