SpectraSuite Data File
++++++++++++++++++++++++++++++++++++
Date: Fri Oct 25 10:44:34 EDT 2013
User: price-jones
Dark Spectrum Present: No
Reference Spectrum Present: No
Number of Sampled Component Spectra: 1
Spectrometers: USB2+H05261
Integration Time (usec): 100000 (USB2+H05261)
Spectra Averaged: 1 (USB2+H05261)
Boxcar Smoothing: 0 (USB2+H05261)
Correct for Electrical Dark: No (USB2+H05261)
Strobe/Lamp Enabled: No (USB2+H05261)
Correct for Detector Non-linearity: No (USB2+H05261)
Correct for Stray Light: No (USB2+H05261)
Number of Pixels in Processed Spectrum: 2048
>>>>>Begin Processed Spectral Data<<<<<
365.73	142.77
365.92	142.77
366.12	142.77
366.32	11.70
366.52	0.00
366.72	0.00
366.91	16.38
367.11	46.81
367.31	0.00
367.51	0.00
367.70	11.70
367.90	32.77
368.10	0.00
368.30	39.79
368.49	14.04
368.69	53.83
368.89	25.75
369.09	0.00
369.28	67.88
369.48	9.36
369.68	56.17
369.87	67.88
370.07	67.88
370.27	145.11
370.47	175.54
370.66	416.62
370.86	341.72
371.06	442.36
371.25	379.17
371.45	425.98
371.65	430.66
371.84	423.64
372.04	416.62
372.24	566.41
372.44	451.72
372.63	430.66
372.83	482.15
373.03	531.30
373.22	517.26
373.42	437.68
373.62	465.77
373.81	517.26
374.01	428.32
374.21	564.07
374.40	547.69
374.60	528.96
374.79	535.98
374.99	489.17
375.19	582.79
375.38	547.69
375.58	484.49
375.78	566.41
375.97	615.56
376.17	566.41
376.37	620.24
376.56	573.43
376.76	550.03
376.95	566.41
377.15	573.43
377.35	613.22
377.54	653.01
377.74	643.65
377.93	578.11
378.13	603.86
378.33	664.71
378.52	573.43
378.72	713.86
378.91	641.31
379.11	568.75
379.31	638.97
379.50	704.50
379.70	653.01
379.89	613.22
380.09	627.26
380.28	702.16
380.48	650.67
380.68	667.05
380.87	669.39
381.07	664.71
381.26	711.52
381.46	634.29
381.65	737.27
381.85	716.20
382.04	589.82
382.24	653.01
382.43	678.76
382.63	636.63
382.83	655.35
383.02	702.16
383.22	730.25
383.41	695.14
383.61	713.86
383.80	744.29
384.00	760.67
384.19	697.48
384.39	744.29
384.58	716.20
384.78	739.61
384.97	725.57
385.17	711.52
385.36	763.01
385.56	720.88
385.75	706.84
385.95	763.01
386.14	802.80
386.34	844.93
386.53	882.38
386.72	774.72
386.92	816.85
387.11	770.04
387.31	777.06
387.50	858.98
387.70	774.72
387.89	849.61
388.09	870.68
388.28	858.98
388.48	791.10
388.67	861.32
388.86	861.32
389.06	933.87
389.25	880.04
389.45	926.85
389.64	868.34
389.84	901.11
390.03	952.60
390.22	901.11
390.42	917.49
390.61	905.79
390.81	950.26
391.00	884.72
391.19	968.98
391.39	1025.15
391.58	973.66
391.78	964.30
391.97	945.58
392.16	961.96
392.36	1008.77
392.55	1018.13
392.75	905.79
392.94	912.81
393.13	954.94
393.33	891.74
393.52	961.96
393.71	1050.90
393.91	1078.99
394.10	1090.69
394.29	1118.78
394.49	1095.37
394.68	1121.12
394.88	1018.13
395.07	1053.24
395.26	1125.80
395.46	1039.20
395.65	1205.38
395.84	1107.07
396.04	1071.97
396.23	1064.94
396.42	1086.01
396.62	1107.07
396.81	1174.95
397.00	1184.31
397.19	1235.80
397.39	1268.57
397.58	1128.14
397.77	1270.91
397.97	1165.59
398.16	1259.21
398.35	1266.23
398.55	1345.81
398.74	1341.13
398.93	1394.96
399.12	1341.13
399.32	1320.06
399.51	1399.64
399.70	1341.13
399.90	1355.17
400.09	1486.24
400.28	1439.43
400.47	1565.82
400.67	1558.80
400.86	1479.22
401.05	1430.07
401.24	1572.84
401.44	1465.18
401.63	1500.28
401.82	1540.07
402.01	1523.69
402.21	1483.90
402.40	1451.13
402.59	1575.18
402.78	1589.22
402.97	1603.27
403.17	1600.93
403.36	1610.29
403.55	1600.93
403.74	1713.27
403.93	1715.61
404.13	1614.97
404.32	1713.27
404.51	1736.68
404.70	1783.49
404.89	1771.79
405.09	1804.55
405.28	1715.61
405.47	1816.26
405.66	1764.76
405.85	1851.36
406.05	1823.28
406.24	1806.89
406.43	1832.64
406.62	1839.66
406.81	1987.11
407.00	1898.17
407.20	1863.07
407.39	1891.15
407.58	2003.50
407.77	1926.26
407.96	2008.18
408.15	1973.07
408.34	2010.52
408.54	1991.80
408.73	2022.22
408.92	2150.95
409.11	2064.35
409.30	2101.80
409.49	2099.46
409.68	2193.08
409.87	1989.46
410.07	2094.78
410.26	2190.74
410.45	2256.28
410.64	2277.34
410.83	2244.57
411.02	2296.07
411.21	2277.34
411.40	2279.68
411.59	2359.26
411.78	2349.90
411.98	2200.10
412.17	2385.01
412.36	2480.97
412.55	2396.71
412.74	2476.29
412.93	2485.65
413.12	2492.67
413.31	2595.65
413.50	2534.80
413.69	2614.38
413.88	2619.06
414.07	2605.02
414.26	2670.55
414.45	2541.82
414.64	2635.44
414.83	2677.57
415.02	2708.00
415.22	2712.68
415.41	2820.35
415.60	2839.07
415.79	2904.60
415.98	2902.26
416.17	2862.48
416.36	2846.09
416.55	2967.80
416.74	3035.67
416.93	2913.97
417.12	2970.14
417.31	2909.29
417.50	2981.84
417.69	3251.00
417.88	3124.62
418.07	3103.55
418.26	3180.79
418.45	3110.57
418.64	3220.58
418.83	3251.00
419.02	3183.13
419.21	3241.64
419.39	3176.11
419.58	3229.94
419.77	3234.62
419.96	3314.20
420.15	3407.82
420.34	3339.94
420.53	3372.71
420.72	3482.72
420.91	3466.33
421.10	3414.84
421.29	3520.17
421.48	3499.10
421.67	3524.85
421.86	3325.90
422.05	3480.38
422.24	3501.44
422.43	3604.42
422.61	3431.23
422.80	3529.53
422.99	3513.14
423.18	3501.44
423.37	3613.79
423.56	3676.98
423.75	3566.98
423.94	3585.70
424.13	3300.16
424.32	3412.50
424.50	3625.49
424.69	3660.60
424.88	3695.71
425.07	3681.66
425.26	3574.00
425.45	3559.95
425.64	3510.80
425.83	3543.57
426.01	3585.70
426.20	3702.73
426.39	3730.81
426.58	3524.85
426.77	3613.79
426.96	3627.83
427.15	3644.21
427.33	3819.75
427.52	3730.81
427.71	3700.39
427.90	3735.50
428.09	3698.05
428.28	3794.01
428.46	3791.67
428.65	3913.38
428.84	3962.53
429.03	4070.19
429.22	3875.93
429.40	3873.59
429.59	3941.46
429.78	3693.37
429.97	3768.26
430.16	3719.11
430.34	3957.85
430.53	3836.14
430.72	4007.00
430.91	3943.80
431.10	4030.40
431.28	4262.12
431.47	4187.22
431.66	4189.56
431.85	4219.99
432.03	4234.03
432.22	4194.24
432.41	4276.16
432.60	4306.59
432.79	4154.45
432.97	4383.82
433.16	4322.97
433.35	4325.31
433.54	4435.32
433.72	4393.19
433.91	4327.65
434.10	4428.29
434.28	4358.08
434.47	4477.44
434.66	4491.49
434.85	4559.36
435.03	4608.51
435.22	4463.40
435.41	4664.69
435.59	4592.13
435.78	4648.30
435.97	4767.67
436.16	4638.94
436.34	4622.56
436.53	4758.31
436.72	4779.37
436.90	4622.56
437.09	4753.63
437.28	4559.36
437.46	4716.18
437.65	4713.84
437.84	4674.05
438.02	4697.46
438.21	4809.80
438.40	4774.69
438.58	4865.97
438.77	4919.81
438.96	4978.32
439.14	4990.02
439.33	5093.01
439.52	5151.52
439.70	5118.75
439.89	5231.10
440.08	5210.03
440.26	5170.24
440.45	5275.57
440.63	5387.91
440.82	5500.26
441.01	5268.55
441.19	5591.54
441.38	5631.33
441.57	5577.50
441.75	5678.14
441.94	5703.89
442.12	5444.09
442.31	5846.66
442.50	5860.70
442.68	5785.80
442.87	5837.30
443.05	5764.74
443.24	5982.41
443.43	5966.03
443.61	5734.31
443.80	5877.09
443.98	5738.99
444.17	5694.52
444.35	5820.91
444.54	6104.12
444.73	6052.63
444.91	5961.34
445.10	6106.46
445.28	5900.49
445.47	5891.13
445.65	5944.96
445.84	5984.75
446.02	6237.53
446.21	5982.41
446.39	5790.49
446.58	5954.32
446.77	6094.76
446.95	6073.69
447.14	6005.81
447.32	6181.35
447.51	6029.22
447.69	6094.76
447.88	6136.88
448.06	6038.58
448.25	6064.33
448.43	6211.78
448.62	6162.63
448.80	6146.25
448.99	6354.55
449.17	6228.17
449.36	6228.17
449.54	6420.09
449.73	6445.84
449.91	6544.14
450.10	6443.49
450.28	6628.40
450.46	6612.01
450.65	6609.67
450.83	6567.54
451.02	6560.52
451.20	6572.22
451.39	6679.89
451.57	6537.12
451.76	6604.99
451.94	6492.65
452.13	6733.72
452.31	6574.56
452.49	6487.96
452.68	6597.97
452.86	6633.08
453.05	6740.74
453.23	6740.74
453.42	6747.76
453.60	6806.28
453.78	6808.62
453.97	6766.49
454.15	6691.59
454.34	6717.34
454.52	6839.05
454.70	6932.67
454.89	6942.03
455.07	6979.48
455.26	7054.37
455.44	6967.77
455.62	6942.03
455.81	7243.96
455.99	7176.08
456.17	7173.74
456.36	7082.46
456.54	7262.68
456.73	7199.49
456.91	7536.52
457.09	7564.61
457.28	7515.46
457.46	7419.50
457.64	7557.59
457.83	7463.97
458.01	7197.15
458.19	7501.42
458.38	7396.09
458.56	7679.30
458.74	7449.93
458.93	7655.89
459.11	7742.49
459.29	7548.23
459.48	7665.25
459.66	7740.15
459.84	7644.19
460.03	7866.54
460.21	7775.26
460.39	7936.76
460.57	7866.54
460.76	7833.77
460.94	8016.33
461.12	8032.72
461.31	8056.12
461.49	7918.03
461.67	7843.14
461.85	8093.57
462.04	8023.36
462.22	8416.57
462.40	8266.77
462.59	7934.42
462.77	8372.10
462.95	8339.33
463.13	8079.53
463.32	8189.53
463.50	8210.60
463.68	8264.43
463.86	8322.94
464.05	8112.30
464.23	8114.64
464.41	8463.38
464.59	8175.49
464.78	8477.42
464.96	8409.54
465.14	8365.07
465.32	8528.91
465.50	8542.96
465.69	8542.96
465.87	8423.59
466.05	8535.93
466.23	8477.42
466.41	8430.61
466.60	8812.12
466.78	8620.19
466.96	8479.76
467.14	8631.90
467.32	8571.04
467.51	8760.63
467.69	8538.27
467.87	8709.13
468.05	8922.12
468.23	8863.61
468.41	8716.16
468.60	8894.04
468.78	8912.76
468.96	8844.88
469.14	8943.19
469.32	8849.57
469.50	8564.02
469.69	8823.82
469.87	9242.78
470.05	9130.43
470.23	9198.31
470.41	9163.20
470.59	9048.51
470.77	9048.51
470.95	9210.01
471.14	9474.49
471.32	9266.18
471.50	9582.15
471.68	9343.42
471.86	9643.01
472.04	9563.43
472.22	9696.84
472.40	9621.94
472.58	9687.48
472.77	9764.72
472.95	9823.23
473.13	10038.56
473.31	9708.54
473.49	9628.96
473.67	9827.91
473.85	9914.51
474.03	10181.33
474.21	10099.41
474.39	10214.10
474.57	10235.16
474.75	10274.95
474.93	10263.25
475.12	10200.05
475.30	10174.31
475.48	10286.65
475.66	10518.37
475.84	10242.18
476.02	10544.11
476.20	10445.81
476.38	10740.72
476.56	10981.79
476.74	11005.20
476.92	10855.40
477.10	10925.62
477.28	11344.58
477.46	11152.65
477.64	11229.89
477.82	11517.78
478.00	11611.40
478.18	11534.16
478.36	11606.72
478.54	11850.13
478.72	11744.81
478.90	11786.94
479.08	12109.93
479.26	12100.57
479.44	12446.97
479.62	12290.15
479.80	12159.08
479.98	12301.86
480.16	12615.49
480.34	12732.51
480.52	12737.20
480.70	12727.83
480.88	12739.54
481.06	12748.90
481.24	12924.44
481.41	13226.37
481.59	13273.18
481.77	13275.52
481.95	13310.63
482.13	13247.43
482.31	13270.84
482.49	13797.46
482.67	13862.99
482.85	13792.78
483.03	13867.67
483.21	14127.47
483.39	14136.84
483.57	14099.39
483.74	14338.12
483.92	14565.15
484.10	14312.38
484.28	14572.18
484.46	15101.14
484.64	14937.30
484.82	14714.95
485.00	15105.82
485.18	15126.88
485.35	15419.45
485.53	15218.16
485.71	15171.35
485.89	15531.80
486.07	15480.30
486.25	15562.22
486.43	15775.21
486.61	16145.02
486.78	16182.46
486.96	16229.27
487.14	16453.97
487.32	16547.59
487.50	16493.76
487.68	16882.28
487.85	16910.37
488.03	17376.14
488.21	17303.58
488.39	17334.01
488.57	17301.24
488.75	17490.82
488.92	17664.02
489.10	18171.92
489.28	18148.51
489.46	18052.55
489.64	18160.22
489.81	18686.84
489.99	18342.78
490.17	18728.97
490.35	18771.10
490.53	18778.12
490.70	19241.54
490.88	19115.16
491.06	19510.71
491.24	19260.27
491.41	19379.64
491.59	19758.80
491.77	19281.33
491.95	19737.74
492.13	19976.47
492.30	19735.40
492.48	20243.29
492.66	20453.94
492.84	20409.47
493.01	20596.71
493.19	20545.22
493.37	20957.16
493.54	20809.70
493.72	21062.48
493.90	20987.58
494.08	21254.40
494.25	21696.77
494.43	21652.30
494.61	21750.60
494.79	21640.59
494.96	21717.83
495.14	21853.58
495.32	22162.53
495.49	22244.45
495.67	22209.34
495.85	22331.05
496.02	22544.04
496.20	23005.13
496.38	22703.20
496.55	22867.03
496.73	23571.54
496.91	23190.03
497.09	23295.35
497.26	23590.26
497.44	23293.01
497.62	23323.44
497.79	23896.87
497.97	23283.65
498.14	23744.73
498.32	24004.53
498.50	23929.64
498.67	24610.73
498.85	24304.12
499.03	24451.58
499.20	24620.10
499.38	24561.58
499.56	24762.87
499.73	24678.61
499.91	24926.71
500.08	24943.09
500.26	24662.22
500.44	24849.47
500.61	25174.80
500.79	24849.47
500.97	25247.36
501.14	25263.74
501.32	25153.74
501.49	25462.69
501.67	25481.41
501.84	25385.45
502.02	25577.37
502.20	25986.97
502.37	26218.68
502.55	25799.73
502.72	26260.81
502.90	26249.11
503.07	26230.38
503.25	26445.71
503.43	26216.34
503.60	26335.71
503.78	26286.56
503.95	26565.08
504.13	26686.79
504.30	26927.86
504.48	27098.72
504.65	26965.31
504.83	27119.79
505.01	27367.88
505.18	27206.39
505.36	27503.64
505.53	27112.77
505.71	27995.15
505.88	27646.41
506.06	27960.04
506.23	27494.27
506.41	27793.86
506.58	27894.50
506.76	27920.25
506.93	28435.17
507.11	28334.53
507.28	28053.66
507.46	28446.87
507.63	28329.84
507.81	28489.00
507.98	28437.51
508.16	28793.27
508.33	28741.78
508.50	29027.32
508.68	28503.04
508.85	29048.39
509.03	29207.55
509.20	29184.14
509.38	29259.04
509.55	29490.75
509.73	29111.58
509.90	29507.13
510.08	30085.25
510.25	29378.40
510.42	29780.98
510.60	29722.46
510.77	30066.52
510.95	29858.21
511.12	29848.85
511.30	30286.53
511.47	30272.49
511.64	30590.80
511.82	30309.94
511.99	30141.42
512.17	30637.61
512.34	30391.86
512.51	30665.70
512.69	30930.18
512.86	30888.05
513.04	30906.77
513.21	30780.39
513.38	30934.86
513.56	31332.75
513.73	30735.92
513.90	31360.84
514.08	31168.91
514.25	31288.28
514.43	31255.51
514.60	31534.04
514.77	31304.67
514.95	31683.83
515.12	31810.22
515.29	31644.04
515.47	31859.37
515.64	32135.56
515.81	31824.26
515.99	31777.45
516.16	32027.89
516.33	31962.36
516.51	32327.48
516.68	32130.87
516.85	31606.59
517.03	31948.31
517.20	32133.21
517.37	32463.23
517.54	32598.98
517.72	32266.63
517.89	32343.86
518.06	32165.98
518.24	32451.53
518.41	32339.18
518.58	33027.30
518.75	32886.87
518.93	33137.30
519.10	32947.72
519.27	33031.98
519.45	33001.55
519.62	33031.98
519.79	33745.84
519.96	33654.56
520.14	33780.95
520.31	33577.33
520.48	33703.71
520.65	33638.18
520.83	33682.65
521.00	33699.03
521.17	34225.65
521.34	34101.61
521.52	34288.85
521.69	34136.71
521.86	34492.47
522.03	34396.51
522.20	34841.21
522.38	34356.72
522.55	34763.98
522.72	34195.23
522.89	34611.84
523.07	34483.11
523.24	34754.61
523.41	35445.07
523.58	34946.54
523.75	35583.16
523.92	35049.52
524.10	35295.28
524.27	35459.12
524.44	35367.84
524.61	35332.73
524.78	35564.44
524.96	35758.70
525.13	35545.72
525.30	35931.90
525.47	35849.99
525.64	35648.70
525.81	36196.38
525.98	35868.71
526.16	35718.92
526.33	35599.55
526.50	35899.14
526.67	35679.13
526.84	35803.17
527.01	35931.90
527.18	36252.56
527.36	36210.43
527.53	36254.90
527.70	37050.68
527.87	36746.41
528.04	36538.10
528.21	36659.81
528.38	36760.45
528.55	36900.89
528.72	36875.14
528.89	36947.70
529.07	36943.02
529.24	36540.44
529.41	37273.03
529.58	36879.82
529.75	36790.88
529.92	37273.03
530.09	36971.10
530.26	37408.78
530.43	37336.23
530.60	37223.88
530.77	37329.20
530.94	37699.01
531.11	37429.85
531.28	37481.34
531.46	37390.06
531.63	37940.08
531.80	37668.58
531.97	37420.48
532.14	38019.66
532.31	37715.39
532.48	37418.14
532.65	38017.32
532.82	38136.69
532.99	37811.35
533.16	38052.43
533.33	37720.07
533.50	37919.02
533.67	37879.23
533.84	38642.24
534.01	37998.60
534.18	38096.90
534.35	38426.92
534.52	38394.15
534.69	38714.80
534.86	38663.31
535.03	38525.22
535.20	38796.72
535.37	38948.85
535.54	38831.83
535.71	38600.12
535.88	38803.74
536.05	38803.74
536.22	39026.09
536.38	38770.97
536.55	38644.59
536.72	38527.56
536.89	38773.31
537.06	38621.18
537.23	39194.61
537.40	38675.01
537.57	39051.84
537.74	39154.82
537.91	39344.41
538.08	39407.60
538.25	38899.70
538.42	39400.58
538.59	39332.70
538.75	39583.14
538.92	39229.72
539.09	39765.70
539.26	39805.49
539.43	39470.79
539.60	39571.44
539.77	39594.84
539.94	39695.49
540.11	39826.56
540.28	39587.82
540.44	39536.33
540.61	39484.84
540.78	39562.08
540.95	39697.83
541.12	39108.01
541.29	39924.86
541.46	40002.10
541.62	39594.84
541.79	40348.50
541.96	39913.16
542.13	40084.01
542.30	40179.98
542.47	40587.23
542.63	40559.14
542.80	40313.39
542.97	41116.19
543.14	41137.26
543.31	40933.63
543.48	40954.69
543.64	41310.46
543.81	41177.04
543.98	40657.45
544.15	40519.35
544.32	41469.61
544.48	41483.66
544.65	41123.21
544.82	41097.47
544.99	40713.62
545.16	41160.66
545.32	41343.22
545.49	41357.27
545.66	41670.90
545.83	41586.64
546.00	41773.88
546.16	41317.48
546.33	41116.19
546.50	41045.97
546.67	41043.63
546.83	41078.74
547.00	41200.45
547.17	41469.61
547.34	41249.60
547.50	41816.01
547.67	41993.89
547.84	41893.25
548.00	41881.55
548.17	41860.48
548.34	42085.17
548.51	42115.60
548.67	42155.39
548.84	42466.68
549.01	41820.69
549.18	41567.91
549.34	41811.33
549.51	42014.96
549.68	42143.69
549.84	42316.89
550.01	41958.78
550.18	41837.08
550.34	42731.16
550.51	42036.02
550.68	42157.73
550.84	41867.50
551.01	42258.37
551.18	42206.88
551.34	42550.94
551.51	42054.75
551.68	42869.25
551.84	42604.77
552.01	42550.94
552.18	42494.77
552.34	42181.13
552.51	42710.10
552.68	42394.12
552.84	42707.76
553.01	42871.59
553.18	42658.60
553.34	42244.33
553.51	42359.02
553.67	42703.07
553.84	43299.91
554.01	43316.29
554.17	43459.07
554.34	43145.44
554.51	43117.35
554.67	42745.20
554.84	43400.55
555.00	42754.57
555.17	43124.37
555.33	42974.58
555.50	42883.30
555.67	43047.13
555.83	42841.17
556.00	43285.87
556.16	43526.94
556.33	43351.40
556.50	42759.25
556.66	43124.37
556.83	43267.14
556.99	43122.03
557.16	43606.52
557.32	43428.64
557.49	43615.88
557.65	43438.00
557.82	43253.10
557.98	43564.39
558.15	43358.42
558.32	43650.99
558.48	43529.28
558.65	43225.01
558.81	43363.11
558.98	43412.26
559.14	43093.94
559.31	43330.34
559.47	43695.46
559.64	43913.13
559.80	44072.29
559.97	43983.35
560.13	43395.87
560.30	43395.87
560.46	43398.21
560.63	43723.55
560.79	43915.47
560.96	44484.22
561.12	43494.18
561.29	43938.88
561.45	43906.11
561.61	43952.92
561.78	43650.99
561.94	43704.82
562.11	44002.07
562.27	43821.85
562.44	43604.18
562.60	44254.85
562.77	44067.61
562.93	43929.51
563.10	43845.26
563.26	43732.91
563.42	44479.54
563.59	43232.04
563.75	43758.66
563.92	44486.56
564.08	44095.69
564.24	44456.14
564.41	44126.12
564.57	43714.19
564.74	43927.17
564.90	44355.49
565.07	43856.96
565.23	44053.56
565.39	44144.84
565.56	44233.78
565.72	43941.22
565.88	44245.49
566.05	43908.45
566.21	44250.17
566.38	43948.24
566.54	44341.45
566.70	44196.34
566.87	44559.12
567.03	44196.34
567.19	44566.14
567.36	44350.81
567.52	43929.51
567.68	44605.93
567.85	44383.58
568.01	44458.48
568.17	44376.56
568.34	44161.23
568.50	44252.51
568.66	44034.84
568.83	44844.66
568.99	44011.43
569.15	43976.33
569.32	44458.48
569.48	44067.61
569.64	44392.94
569.81	44479.54
569.97	44376.56
570.13	44451.45
570.30	44399.96
570.46	44327.41
570.62	44130.80
570.78	43810.15
570.95	44191.65
571.11	44758.06
571.27	44189.31
571.43	44715.93
571.60	43983.35
571.76	44474.86
571.92	44430.39
572.09	44615.29
572.25	44598.91
572.41	44418.69
572.57	44545.08
572.74	44868.07
572.90	44282.94
573.06	44385.92
573.22	44783.81
573.38	44280.60
573.55	44294.64
573.71	44643.38
573.87	44385.92
574.03	44634.02
574.20	44444.43
574.36	44367.20
574.52	44584.86
574.68	44598.91
574.84	44715.93
575.01	44444.43
575.17	44713.59
575.33	44343.79
575.49	44339.11
575.65	44479.54
575.82	45020.20
575.98	44694.87
576.14	45167.66
576.30	44680.83
576.46	44985.10
576.62	44360.17
576.79	44573.16
576.95	44292.30
577.11	44610.61
577.27	45064.67
577.43	44629.34
577.59	44818.92
577.75	44327.41
577.92	44287.62
578.08	44299.32
578.24	44182.29
578.40	44554.44
578.56	44690.19
578.72	44601.25
578.88	44959.35
579.04	44617.63
579.21	44563.80
579.37	44811.90
579.53	44729.98
579.69	44397.62
579.85	44332.09
580.01	44737.00
580.17	44783.81
580.33	45113.83
580.49	44797.85
580.65	44837.64
580.82	44811.90
580.98	44870.41
581.14	44163.57
581.30	44802.53
581.46	44790.83
581.62	44912.54
581.78	45092.76
581.94	44847.00
582.10	44900.84
582.26	44760.40
582.42	44421.03
582.58	44594.23
582.74	44678.49
582.90	44755.72
583.06	45015.52
583.22	44968.71
583.38	44973.39
583.54	44896.16
583.70	44847.00
583.86	44753.38
584.02	44311.02
584.18	44952.33
584.34	44919.56
584.50	45397.03
584.66	44547.42
584.82	44437.41
584.98	45148.93
585.14	45090.42
585.30	44739.34
585.46	45001.48
585.62	45085.74
585.78	44847.00
585.94	44411.67
586.10	44732.32
586.26	44692.53
586.42	45289.37
586.58	44957.01
586.74	45177.02
586.90	44741.68
587.06	44296.98
587.22	44891.48
587.38	44835.30
587.54	44814.24
587.70	44865.73
587.86	44985.10
588.02	44793.17
588.18	45113.83
588.34	44591.89
588.49	44765.09
588.65	44198.68
588.81	44531.03
588.97	44715.93
589.13	44334.43
589.29	44737.00
589.45	44753.38
589.61	44896.16
589.77	44732.32
589.93	45272.98
590.08	44919.56
590.24	44924.24
