SpectraSuite Data File
++++++++++++++++++++++++++++++++++++
Date: Fri Oct 25 11:34:31 EDT 2013
User: price-jones
Dark Spectrum Present: No
Reference Spectrum Present: No
Number of Sampled Component Spectra: 1
Spectrometers: USB2+H05261
Integration Time (usec): 100000 (USB2+H05261)
Spectra Averaged: 1 (USB2+H05261)
Boxcar Smoothing: 0 (USB2+H05261)
Correct for Electrical Dark: No (USB2+H05261)
Strobe/Lamp Enabled: No (USB2+H05261)
Correct for Detector Non-linearity: No (USB2+H05261)
Correct for Stray Light: No (USB2+H05261)
Number of Pixels in Processed Spectrum: 2048
>>>>>Begin Processed Spectral Data<<<<<
365.73	208.31
365.92	208.31
366.12	208.31
366.32	208.31
366.52	210.65
366.72	278.52
366.91	140.43
367.11	241.08
367.31	177.88
367.51	145.11
367.70	215.33
367.90	210.65
368.10	147.45
368.30	208.31
368.49	187.24
368.69	187.24
368.89	131.07
369.09	201.29
369.28	187.24
369.48	238.73
369.68	215.33
369.87	201.29
370.07	360.44
370.27	334.70
370.47	322.99
370.66	425.98
370.86	571.09
371.06	552.37
371.25	585.13
371.45	535.98
371.65	505.56
371.84	503.22
372.04	547.69
372.24	613.22
372.44	575.77
372.63	585.13
372.83	603.86
373.03	545.34
373.22	636.63
373.42	599.18
373.62	564.07
373.81	592.16
374.01	622.58
374.21	664.71
374.40	667.05
374.60	718.54
374.79	657.69
374.99	650.67
375.19	592.16
375.38	601.52
375.58	594.50
375.78	683.44
375.97	671.73
376.17	681.10
376.37	685.78
376.56	674.07
376.76	744.29
376.95	676.41
377.15	678.76
377.35	683.44
377.54	613.22
377.74	667.05
377.93	697.48
378.13	720.88
378.33	697.48
378.52	643.65
378.72	695.14
378.91	671.73
379.11	716.20
379.31	716.20
379.50	720.88
379.70	716.20
379.89	650.67
380.09	777.06
380.28	641.31
380.48	622.58
380.68	739.61
380.87	716.20
381.07	716.20
381.26	784.08
381.46	758.33
381.65	711.52
381.85	732.59
382.04	748.97
382.24	786.42
382.43	814.51
382.63	753.65
382.83	821.53
383.02	833.23
383.22	767.70
383.41	765.36
383.61	791.10
383.80	800.46
384.00	774.72
384.19	763.01
384.39	809.83
384.58	812.17
384.78	774.72
384.97	826.21
385.17	840.25
385.36	884.72
385.56	901.11
385.75	833.23
385.95	765.36
386.14	840.25
386.34	837.91
386.53	802.80
386.72	755.99
386.92	830.89
387.11	805.14
387.31	889.40
387.50	861.32
387.70	854.30
387.89	938.55
388.09	964.30
388.28	866.00
388.48	849.61
388.67	844.93
388.86	938.55
389.06	882.38
389.25	922.17
389.45	887.06
389.64	938.55
389.84	922.17
390.03	968.98
390.22	950.26
390.42	910.47
390.61	947.92
390.81	936.21
391.00	973.66
391.19	999.41
391.39	997.07
391.58	1004.09
391.78	1057.92
391.97	997.07
392.16	992.39
392.36	1093.03
392.55	1032.18
392.75	1015.79
392.94	954.94
393.13	1036.86
393.33	1109.41
393.52	1053.24
393.71	1053.24
393.91	1020.47
394.10	1107.07
394.29	1071.97
394.49	1046.22
394.68	1109.41
394.88	1095.37
395.07	1121.12
395.26	1074.31
395.46	1064.94
395.65	1203.04
395.84	1181.97
396.04	1263.89
396.23	1102.39
396.42	1081.33
396.62	1247.51
396.81	1146.86
397.00	1160.91
397.19	1149.20
397.39	1128.14
397.58	1193.67
397.77	1191.33
397.97	1217.08
398.16	1179.63
398.35	1235.80
398.55	1196.01
398.74	1163.25
398.93	1313.04
399.12	1231.12
399.32	1245.16
399.51	1282.61
399.70	1315.38
399.90	1247.51
400.09	1390.28
400.28	1310.70
400.47	1397.30
400.67	1355.17
400.86	1418.36
401.05	1378.58
401.24	1469.86
401.44	1350.49
401.63	1497.94
401.82	1430.07
402.01	1465.18
402.21	1362.19
402.40	1446.45
402.59	1460.49
402.78	1591.56
402.97	1497.94
403.17	1537.73
403.36	1544.75
403.55	1486.24
403.74	1439.43
403.93	1502.62
404.13	1561.14
404.32	1668.80
404.51	1530.71
404.70	1542.41
404.89	1577.52
405.09	1734.34
405.28	1640.72
405.47	1530.71
405.66	1579.86
405.85	1579.86
406.05	1750.72
406.24	1652.42
406.43	1652.42
406.62	1708.59
406.81	1753.06
407.00	1708.59
407.20	1657.10
407.39	1710.93
407.58	1703.91
407.77	1755.40
407.96	1823.28
408.15	1839.66
408.34	1748.38
408.54	1823.28
408.73	1788.17
408.92	1795.19
409.11	2001.16
409.30	1935.62
409.49	1959.03
409.68	1928.60
409.87	1879.45
410.07	1858.39
410.26	1930.94
410.45	1909.88
410.64	1914.56
410.83	2010.52
411.02	2001.16
411.21	2043.29
411.40	2059.67
411.59	2113.50
411.78	2069.03
411.98	2097.12
412.17	2209.47
412.36	2228.19
412.55	2244.57
412.74	2202.44
412.93	2237.55
413.12	2183.72
413.31	2377.98
413.50	2401.39
413.69	2389.69
413.88	2366.28
414.07	2284.36
414.26	2431.82
414.45	2399.05
414.64	2394.37
414.83	2588.63
415.02	2483.31
415.22	2572.25
415.41	2583.95
415.60	2605.02
415.79	2572.25
415.98	2607.36
416.17	2593.31
416.36	2644.81
416.55	2679.91
416.74	2705.66
416.93	2605.02
417.12	2759.49
417.31	2778.22
417.50	2698.64
417.69	2892.90
417.88	2759.49
418.07	2794.60
418.26	2850.77
418.45	2888.22
418.64	2986.52
418.83	2899.92
419.02	2965.46
419.21	2913.97
419.39	3059.08
419.58	3084.83
419.77	2902.26
419.96	2951.42
420.15	3030.99
420.34	3005.25
420.53	3016.95
420.72	3084.83
420.91	3169.09
421.10	3251.00
421.29	3248.66
421.48	3208.87
421.67	3185.47
421.86	3148.02
422.05	3087.17
422.24	3255.69
422.43	3288.45
422.61	3204.19
422.80	3276.75
422.99	3138.66
423.18	3211.22
423.37	3328.24
423.56	3267.39
423.75	3162.06
423.94	3286.11
424.13	3049.72
424.32	3187.81
424.50	3300.16
424.69	3417.18
424.88	3389.10
425.07	3255.69
425.26	3290.79
425.45	3211.22
425.64	3283.77
425.83	3337.60
426.01	3536.55
426.20	3311.86
426.39	3351.65
426.58	3288.45
426.77	3344.63
426.96	3353.99
427.15	3384.41
427.33	3459.31
427.52	3351.65
427.71	3407.82
427.90	3330.58
428.09	3466.33
428.28	3461.65
428.46	3583.36
428.65	3478.04
428.84	3632.51
429.03	3630.17
429.22	3414.84
429.40	3686.34
429.59	3653.58
429.78	3602.08
429.97	3527.19
430.16	3623.15
430.34	3693.37
430.53	3630.17
430.72	3761.24
430.91	3557.61
431.10	3599.74
431.28	3894.65
431.47	3749.54
431.66	3868.91
431.85	3716.77
432.03	3960.19
432.22	3859.54
432.41	3866.56
432.60	3999.98
432.79	3936.78
432.97	3936.78
433.16	4016.36
433.35	3918.06
433.54	4056.15
433.72	4042.11
433.91	4018.70
434.10	4063.17
434.28	3889.97
434.47	4016.36
434.66	4191.90
434.85	4119.34
435.03	4205.94
435.22	4098.28
435.41	4145.09
435.59	4191.90
435.78	4133.39
435.97	4278.50
436.16	4229.35
436.34	4208.28
436.53	4201.26
436.72	4304.25
436.90	4212.96
437.09	4479.79
437.28	4243.39
437.46	4255.09
437.65	4372.12
437.84	4552.34
438.02	4297.22
438.21	4294.88
438.40	4390.84
438.58	4596.81
438.77	4739.58
438.96	4631.92
439.14	4554.68
439.33	4634.26
439.52	4741.93
439.70	4641.28
439.89	4961.94
440.08	4931.51
440.26	4945.55
440.45	4795.76
440.63	4912.78
440.82	4877.68
441.01	4770.01
441.19	4915.12
441.38	5146.84
441.57	5093.01
441.75	5207.69
441.94	5303.65
442.12	5153.86
442.31	5313.02
442.50	5195.99
442.68	5345.78
442.87	5296.63
443.05	5224.08
443.24	5479.19
443.43	5334.08
443.61	5320.04
443.80	5528.35
443.98	5200.67
444.17	5004.07
444.35	5317.70
444.54	5359.83
444.73	5394.93
444.91	5488.56
445.10	5298.97
445.28	5455.79
445.47	5277.91
445.65	5451.11
445.84	5483.88
446.02	5528.35
446.21	5516.64
446.39	5373.87
446.58	5568.13
446.77	5549.41
446.95	5408.98
447.14	5408.98
447.32	5540.05
447.51	5467.49
447.69	5647.71
447.88	5701.54
448.06	5509.62
448.25	5504.94
448.43	5689.84
448.62	5570.48
448.80	5549.41
448.99	5565.79
449.17	5565.79
449.36	5694.52
449.54	5776.44
449.73	5790.49
449.91	5980.07
450.10	5673.46
450.28	5980.07
450.46	5991.77
450.65	5959.00
450.83	5802.19
451.02	5750.70
451.20	5827.93
451.39	5809.21
451.57	5851.34
451.76	5830.27
451.94	5860.70
452.13	5916.87
452.31	5996.45
452.49	6024.54
452.68	5968.37
452.86	6155.61
453.05	5942.62
453.23	6148.59
453.42	5895.81
453.60	6061.99
453.78	6204.76
453.97	6054.97
454.15	6085.39
454.34	6073.69
454.52	6232.85
454.70	6183.70
454.89	6239.87
455.07	6382.64
455.26	6324.13
455.44	6370.94
455.62	6396.68
455.81	6373.28
455.99	6518.39
456.17	6406.05
456.36	6422.43
456.54	6450.52
456.73	6494.99
456.91	6773.51
457.09	6663.51
457.28	6782.87
457.46	6682.23
457.64	6904.58
457.83	6862.45
458.01	6764.15
458.19	6951.39
458.38	6581.59
458.56	6902.24
458.74	6862.45
458.93	6853.09
459.11	6876.49
459.29	6796.92
459.48	6911.60
459.66	6960.75
459.84	6958.41
460.03	7136.29
460.21	7105.87
460.39	7112.89
460.57	7117.57
460.76	7105.87
460.94	7005.22
461.12	7150.34
461.31	7164.38
461.49	7119.91
461.67	7190.13
461.85	7454.61
462.04	7176.08
462.22	7623.12
462.40	7424.18
462.59	7325.88
462.77	7323.54
462.95	7691.00
463.13	7339.92
463.32	7417.16
463.50	7407.80
463.68	7522.48
463.86	7524.82
464.05	7452.27
464.23	7564.61
464.41	7658.23
464.59	7358.64
464.78	7630.15
464.96	7700.36
465.14	7562.27
465.32	7632.49
465.50	7779.94
465.69	7714.41
465.87	7791.64
466.05	7808.03
466.23	7744.83
466.41	7772.92
466.60	7882.92
466.78	7747.17
466.96	7789.30
467.14	7833.77
467.32	7925.05
467.51	7882.92
467.69	7791.64
467.87	7885.26
468.05	7892.29
468.23	7943.78
468.41	7964.84
468.60	8013.99
468.78	8072.51
468.96	8091.23
469.14	8177.83
469.32	8278.47
469.50	8056.12
469.69	8212.94
469.87	8191.88
470.05	8358.05
470.23	8264.43
470.41	8512.53
470.59	8561.68
470.77	8510.19
470.95	8418.91
471.14	8758.28
471.32	8376.78
471.50	8606.15
471.68	8622.53
471.86	8580.40
472.04	8791.05
472.22	8805.10
472.40	8564.02
472.58	8788.71
472.77	8943.19
472.95	9036.81
473.13	9055.53
473.31	8926.80
473.49	9001.70
473.67	8943.19
473.85	9205.33
474.03	9327.03
474.21	9364.48
474.39	9277.88
474.57	9362.14
474.75	9558.75
474.93	9357.46
475.12	9378.53
475.30	9605.56
475.48	9617.26
475.66	9673.43
475.84	9591.52
476.02	9727.27
476.20	9774.08
476.38	9956.64
476.56	10085.37
476.74	9841.95
476.92	9907.49
477.10	10052.60
477.28	10260.91
477.46	10298.36
477.64	10340.49
477.82	10363.89
478.00	10698.59
478.18	10553.48
478.36	10576.88
478.54	10841.36
478.72	10951.37
478.90	11119.89
479.08	11002.86
479.26	11272.02
479.44	11105.84
479.62	11019.24
479.80	11302.45
479.98	11482.67
480.16	11763.53
480.34	11412.45
480.52	11824.39
480.70	11580.97
480.88	11524.80
481.06	11772.89
481.24	11845.45
481.41	12091.21
481.59	12060.78
481.77	12329.94
481.95	12482.08
482.13	12521.87
482.31	12540.59
482.49	12713.79
482.67	12954.87
482.85	12739.54
483.03	12922.10
483.21	13209.98
483.39	12938.48
483.57	13280.20
483.74	13439.36
483.92	13399.57
484.10	13427.65
484.28	13481.49
484.46	13724.90
484.64	14015.13
484.82	13781.07
485.00	14029.17
485.18	14064.28
485.35	14097.05
485.53	14218.75
485.71	14611.96
485.89	14602.60
486.07	14607.28
486.25	14663.46
486.43	14815.59
486.61	15159.65
486.78	15332.85
486.96	15147.95
487.14	15190.08
487.32	15220.50
487.50	15302.42
487.68	15475.62
487.85	15662.86
488.03	15988.20
488.21	16053.73
488.39	15990.54
488.57	16231.62
488.75	16177.78
488.92	16765.26
489.10	16711.42
489.28	16498.44
489.46	16837.81
489.64	16718.45
489.81	17167.83
489.99	17135.06
490.17	17584.44
490.35	17577.42
490.53	17561.04
490.70	17846.58
490.88	17605.51
491.06	18118.09
491.24	18125.11
491.41	18104.04
491.59	18333.42
491.77	18108.72
491.95	18640.03
492.13	18548.75
492.30	18740.67
492.48	18766.42
492.66	18923.23
492.84	18799.18
493.01	19323.46
493.19	19328.14
493.37	19461.55
493.54	19449.85
493.72	19934.34
493.90	19552.84
494.08	19695.61
494.25	20034.99
494.43	19758.80
494.61	19988.18
494.79	20184.78
494.96	20219.89
495.14	20236.27
495.32	20587.35
495.49	20706.72
495.67	20769.91
495.85	21043.76
496.02	21345.69
496.20	21287.17
496.38	21263.77
496.55	20898.64
496.73	21888.69
496.91	21593.78
497.09	21715.49
497.26	21811.45
497.44	21921.46
497.62	21891.03
497.79	22501.91
497.97	22335.73
498.14	22300.62
498.32	22810.86
498.50	22574.47
498.67	23115.13
498.85	22899.80
499.03	22937.25
499.20	22890.44
499.38	23393.65
499.56	23234.50
499.73	23145.56
499.91	23391.31
500.08	23672.18
500.26	23166.62
500.44	23665.16
500.61	23442.81
500.79	23672.18
500.97	23653.45
501.14	24053.69
501.32	24283.06
501.49	24142.63
501.67	24554.56
501.84	24187.10
502.02	24589.67
502.20	24184.76
502.37	24372.00
502.55	24582.65
502.72	24650.52
502.90	24704.35
503.07	24606.05
503.25	25048.41
503.43	24479.66
503.60	25057.78
503.78	24971.18
503.95	25172.46
504.13	25111.61
504.30	25441.62
504.48	25111.61
504.65	25603.12
504.83	25617.16
505.01	26026.76
505.18	25816.11
505.36	26045.48
505.53	25790.36
505.71	26366.13
505.88	25986.97
506.06	26005.69
506.23	26370.82
506.41	26167.19
506.58	26647.00
506.76	26188.25
506.93	27007.44
507.11	26504.23
507.28	26569.76
507.46	27065.96
507.63	27126.81
507.81	26785.09
507.98	26876.37
508.16	27344.48
508.33	27122.13
508.50	27192.34
508.68	27204.05
508.85	27482.57
509.03	27566.83
509.20	27880.46
509.38	27866.42
509.55	27686.20
509.73	27850.03
509.90	28039.62
510.08	28367.29
510.25	28002.17
510.42	28201.11
510.60	28456.23
510.77	28203.46
510.95	28477.30
511.12	28746.46
511.30	28563.90
511.47	29097.54
511.64	28945.41
511.82	28727.74
511.99	28966.47
512.17	29050.73
512.34	29205.20
512.51	29289.46
512.69	29186.48
512.86	29509.47
513.04	29123.29
513.21	29605.44
513.38	29715.44
513.56	29677.99
513.73	29539.90
513.90	29788.00
514.08	29696.72
514.25	30047.80
514.43	29956.52
514.60	30101.63
514.77	30253.76
514.95	30520.59
515.12	30089.93
515.29	30132.06
515.47	30396.54
515.64	30780.39
515.81	30141.42
515.99	30773.36
516.16	31061.25
516.33	30476.12
516.51	31218.07
516.68	30881.03
516.85	30808.47
517.03	31412.33
517.20	31096.36
517.37	30897.41
517.54	31194.66
517.72	31356.16
517.89	31552.76
518.06	31615.96
518.24	31587.87
518.41	31358.50
518.58	31304.67
518.75	31222.75
518.93	31969.38
519.10	32032.57
519.27	31924.91
519.45	31611.28
519.62	32114.49
519.79	32332.16
519.96	32201.09
520.14	32378.97
520.31	32266.63
520.48	32346.20
520.65	32385.99
520.83	32950.06
521.00	32910.27
521.17	32577.92
521.34	32627.07
521.52	32734.73
521.69	33050.70
521.86	32905.59
522.03	33280.08
522.20	33022.62
522.38	33404.13
522.55	33216.88
522.72	33113.90
522.89	33296.46
523.07	33638.18
523.24	33460.30
523.41	33083.47
523.58	33546.90
523.75	33490.73
523.92	33827.76
524.10	33912.02
524.27	34529.92
524.44	34281.83
524.61	34071.18
524.78	33844.15
524.96	34302.89
525.13	34089.90
525.30	34148.42
525.47	34127.35
525.64	34199.91
525.81	34501.84
525.98	34600.14
526.16	34501.84
526.33	34476.09
526.50	35175.91
526.67	34543.97
526.84	34803.77
527.01	34672.70
527.18	34391.83
527.36	35143.14
527.53	34742.91
527.70	35431.03
527.87	35391.24
528.04	35178.25
528.21	34983.99
528.38	35028.46
528.55	35496.56
528.72	35330.39
528.89	35426.35
529.07	35562.10
529.24	35409.96
529.41	35580.82
529.58	35681.47
529.75	35672.10
529.92	35810.20
530.09	35725.94
530.26	35908.50
530.43	36194.04
530.60	35840.62
530.77	35655.72
530.94	35952.97
531.11	36114.47
531.28	35716.58
531.46	35910.84
531.63	36322.77
531.80	36390.65
531.97	36273.62
532.14	36158.94
532.31	36325.11
532.48	36341.50
532.65	36814.29
532.82	36514.70
532.99	36503.00
533.16	36491.29
533.33	36484.27
533.50	37029.62
533.67	37177.07
533.84	37280.05
534.01	37153.66
534.18	37179.41
534.35	37383.04
534.52	36809.61
534.69	37570.28
534.86	37586.66
535.03	37373.67
535.20	37600.71
535.37	37589.00
535.54	37645.18
535.71	37551.56
535.88	37457.93
536.05	38085.20
536.22	38120.31
536.38	37818.38
536.55	38312.23
536.72	37425.17
536.89	38036.05
537.06	37773.91
537.23	38249.03
537.40	38330.95
537.57	38045.41
537.74	37993.92
537.91	38487.77
538.08	37722.41
538.25	37937.74
538.42	38146.05
538.59	38665.65
538.75	38515.86
538.92	38782.68
539.09	38574.37
539.26	38185.84
539.43	38611.82
539.60	38897.36
539.77	38768.63
539.94	38986.30
540.11	38864.60
540.28	38932.47
540.44	38780.34
540.61	38955.88
540.78	38728.84
540.95	38761.61
541.12	38658.63
541.29	38813.10
541.46	39117.37
541.62	39227.38
541.79	39264.83
541.96	38820.13
542.13	39049.50
542.30	39292.91
542.47	39557.39
542.63	39880.39
542.80	39831.24
542.97	40102.74
543.14	39735.27
543.31	39723.57
543.48	40201.04
543.64	40215.08
543.81	40149.55
543.98	40016.14
544.15	40126.14
544.32	39842.94
544.48	40308.71
544.65	40449.14
544.82	40458.50
544.99	39952.94
545.16	40191.68
545.32	40587.23
545.49	40605.95
545.66	40275.94
545.83	40327.43
546.00	40297.00
546.16	40568.51
546.33	40399.99
546.50	40009.12
546.67	40488.93
546.83	40512.33
547.00	40591.91
547.17	40484.25
547.34	40655.11
547.50	41137.26
547.67	41172.36
547.84	40879.80
548.00	41221.52
548.17	41808.99
548.34	41528.13
548.51	41411.10
548.67	41221.52
548.84	41275.35
549.01	40945.33
549.18	41041.29
549.34	41174.70
549.51	41511.74
549.68	41429.82
549.84	41523.44
550.01	41757.50
550.18	41345.56
550.34	41525.78
550.51	41794.95
550.68	41818.35
550.84	41249.60
551.01	41827.71
551.18	41450.89
551.34	41687.28
551.51	42064.11
551.68	41806.65
551.84	42209.22
552.01	41586.64
552.18	41942.40
552.34	42209.22
552.51	42209.22
552.68	42071.13
552.84	42071.13
553.01	42113.26
553.18	42148.37
553.34	42462.00
553.51	42141.35
553.67	42415.19
553.84	42244.33
554.01	42169.43
554.17	42878.61
554.34	42204.54
554.51	42532.22
554.67	42878.61
554.84	42401.14
555.00	42658.60
555.17	42305.18
555.33	42904.36
555.50	42153.05
555.67	42930.11
555.83	42983.94
556.00	42288.80
556.16	43459.07
556.33	42452.64
556.50	42583.71
556.66	43168.84
556.83	42691.37
556.99	43213.31
557.16	43147.78
557.32	42813.08
557.49	43115.01
557.65	42639.88
557.82	43131.39
557.98	43421.62
558.15	42979.26
558.32	42909.04
558.48	42997.98
558.65	43157.14
558.81	43124.37
558.98	43002.66
559.14	43178.20
559.31	43086.92
559.47	43072.88
559.64	43065.86
559.80	43332.68
559.97	43304.59
560.13	42670.31
560.30	43037.77
560.46	44053.56
560.63	43627.59
560.79	43257.78
560.96	43655.67
561.12	43840.57
561.29	43833.55
561.45	43522.26
561.61	43660.35
561.78	43449.70
561.94	43578.43
562.11	43950.58
562.27	43171.18
562.44	43571.41
562.60	43758.66
562.77	43899.09
562.93	43599.50
563.10	43847.60
563.26	43906.11
563.42	44126.12
563.59	43882.70
563.75	43718.87
563.92	44210.38
564.08	43903.77
564.24	43672.06
564.41	44098.03
564.57	43662.69
564.74	44353.15
564.90	43665.03
565.07	43910.79
565.23	44058.24
565.39	44163.57
565.56	44414.01
565.72	43737.59
565.88	43959.94
566.05	44275.91
566.21	43845.26
566.38	44102.71
566.54	44062.93
566.70	43915.47
566.87	44229.10
567.03	44329.75
567.19	44280.60
567.36	44252.51
567.52	44418.69
567.68	44259.53
567.85	44343.79
568.01	44692.53
568.17	44289.96
568.34	44582.52
568.50	44142.50
568.66	43896.75
568.83	44514.65
568.99	44254.85
569.15	44322.72
569.32	44093.35
569.48	44194.00
569.64	44949.99
569.81	44884.45
569.97	44339.11
570.13	44793.17
570.30	44177.61
570.46	44851.69
570.62	44996.80
570.78	44477.20
570.95	44554.44
571.11	44500.61
571.27	44692.53
571.43	44573.16
571.60	44697.21
571.76	44304.00
571.92	44500.61
572.09	44619.97
572.25	44369.54
572.41	44708.91
572.57	44641.04
572.74	45017.86
572.90	44612.95
573.06	44992.12
573.22	44631.68
573.38	45048.29
573.55	45118.51
573.71	45242.56
573.87	44725.30
574.03	44804.88
574.20	45003.82
574.36	44737.00
574.52	44715.93
574.68	44516.99
574.84	44919.56
575.01	45256.60
575.17	44762.75
575.33	45221.49
575.49	44673.81
575.65	44818.92
575.82	44753.38
575.98	44636.36
576.14	45240.21
576.30	44872.75
576.46	44748.70
576.62	44861.05
576.79	44657.42
576.95	44247.83
577.11	44521.67
577.27	45097.44
577.43	44818.92
577.59	44839.98
577.75	44879.77
577.92	44435.07
578.08	44954.67
578.24	45031.91
578.40	45102.12
578.56	45216.81
578.72	45104.46
578.88	45113.83
579.04	45029.57
579.21	45195.74
579.37	45097.44
579.53	45350.22
579.69	44498.26
579.85	45062.33
580.01	44971.05
580.17	44987.44
580.33	45387.67
580.49	44896.16
580.65	44863.39
580.82	45270.64
580.98	44870.41
581.14	44673.81
581.30	44828.28
581.46	45069.36
581.62	44973.39
581.78	44865.73
581.94	45294.05
582.10	45305.75
582.26	44809.56
582.42	45476.61
582.58	45059.99
582.74	44837.64
582.90	45226.17
583.06	45336.18
583.22	45109.14
583.38	45064.67
583.54	45024.89
583.70	45310.43
583.86	45464.91
584.02	44896.16
584.18	45654.49
584.34	45322.13
584.50	45155.96
584.66	45275.32
584.82	45078.72
584.98	45631.08
585.14	45261.28
585.30	45076.38
585.46	45240.21
585.62	45261.28
585.78	45118.51
585.94	44921.90
586.10	45167.66
586.26	44949.99
586.42	45272.98
586.58	45635.77
586.74	45298.73
586.90	44919.56
587.06	45144.25
587.22	45174.68
587.38	45160.64
587.54	45441.50
587.70	45471.93
587.86	45483.63
588.02	45504.70
588.18	45380.65
588.34	45151.27
588.49	45429.80
588.65	45083.40
588.81	45743.43
588.97	45212.13
589.13	45317.45
589.29	45432.14
589.45	45626.40
589.61	45696.62
589.77	46014.93
589.93	45530.44
590.08	46061.74
