SpectraSuite Data File
++++++++++++++++++++++++++++++++++++
Date: Fri Oct 25 11:23:52 EDT 2013
User: price-jones
Dark Spectrum Present: No
Reference Spectrum Present: No
Number of Sampled Component Spectra: 1
Spectrometers: USB2+H05261
Integration Time (usec): 100000 (USB2+H05261)
Spectra Averaged: 1 (USB2+H05261)
Boxcar Smoothing: 0 (USB2+H05261)
Correct for Electrical Dark: No (USB2+H05261)
Strobe/Lamp Enabled: No (USB2+H05261)
Correct for Detector Non-linearity: No (USB2+H05261)
Correct for Stray Light: No (USB2+H05261)
Number of Pixels in Processed Spectrum: 2048
>>>>>Begin Processed Spectral Data<<<<<
365.73	203.63
365.92	203.63
366.12	203.63
366.32	166.18
366.52	102.98
366.72	131.07
366.91	154.48
367.11	79.58
367.31	173.20
367.51	163.84
367.70	140.43
367.90	126.39
368.10	126.39
368.30	70.22
368.49	112.35
368.69	159.16
368.89	105.32
369.09	161.50
369.28	215.33
369.48	159.16
369.68	159.16
369.87	210.65
370.07	203.63
370.27	208.31
370.47	301.93
370.66	559.39
370.86	657.69
371.06	744.29
371.25	723.23
371.45	613.22
371.65	692.80
371.84	681.10
372.04	671.73
372.24	748.97
372.44	667.05
372.63	699.82
372.83	730.25
373.03	734.93
373.22	737.27
373.42	706.84
373.62	685.78
373.81	786.42
374.01	795.78
374.21	793.44
374.40	835.57
374.60	835.57
374.79	840.25
374.99	763.01
375.19	770.04
375.38	828.55
375.58	891.74
375.78	891.74
375.97	877.70
376.17	880.04
376.37	828.55
376.56	833.23
376.76	828.55
376.95	851.96
377.15	842.59
377.35	849.61
377.54	858.98
377.74	767.70
377.93	903.45
378.13	903.45
378.33	966.64
378.52	957.28
378.72	1006.43
378.91	985.37
379.11	945.58
379.31	971.32
379.50	1008.77
379.70	990.05
379.89	987.71
380.09	950.26
380.28	987.71
380.48	990.05
380.68	954.94
380.87	985.37
381.07	1020.47
381.26	1071.97
381.46	1104.73
381.65	997.07
381.85	1025.15
382.04	1067.28
382.24	1053.24
382.43	1029.84
382.63	1074.31
382.83	980.68
383.02	1083.67
383.22	1156.22
383.41	1004.09
383.61	1083.67
383.80	1144.52
384.00	1097.71
384.19	1116.44
384.39	1097.71
384.58	1125.80
384.78	1172.61
384.97	1179.63
385.17	1053.24
385.36	1158.57
385.56	1165.59
385.75	1193.67
385.95	1181.97
386.14	1172.61
386.34	1149.20
386.53	1142.18
386.72	1177.29
386.92	1193.67
387.11	1165.59
387.31	1231.12
387.50	1156.22
387.70	1200.69
387.89	1238.14
388.09	1280.27
388.28	1221.76
388.48	1310.70
388.67	1275.59
388.86	1273.25
389.06	1345.81
389.25	1343.47
389.45	1334.11
389.64	1287.29
389.84	1355.17
390.03	1392.62
390.22	1350.49
390.42	1334.11
390.61	1378.58
390.81	1392.62
391.00	1479.22
391.19	1451.13
391.39	1409.00
391.58	1451.13
391.78	1474.54
391.97	1462.83
392.16	1469.86
392.36	1488.58
392.55	1528.37
392.75	1467.52
392.94	1547.09
393.13	1528.37
393.33	1453.47
393.52	1643.06
393.71	1507.30
393.91	1514.33
394.10	1460.49
394.29	1621.99
394.49	1547.09
394.68	1593.90
394.88	1596.25
395.07	1629.01
395.26	1717.95
395.46	1598.59
395.65	1636.03
395.84	1736.68
396.04	1778.81
396.23	1732.00
396.42	1755.40
396.62	1708.59
396.81	1802.21
397.00	1806.89
397.19	1837.32
397.39	1802.21
397.58	1806.89
397.77	1820.94
397.97	1781.15
398.16	1886.47
398.35	1921.58
398.55	1781.15
398.74	1902.86
398.93	1980.09
399.12	1947.33
399.32	1872.43
399.51	1940.30
399.70	1996.48
399.90	1813.92
400.09	2026.90
400.28	1989.46
400.47	1966.05
400.67	1977.75
400.86	2108.82
401.05	2019.88
401.24	2125.21
401.44	2179.04
401.63	2155.63
401.82	2275.00
402.01	2181.38
402.21	2129.89
402.40	2160.31
402.59	2118.18
402.78	2190.74
402.97	2251.60
403.17	2157.97
403.36	2317.13
403.55	2284.36
403.74	2338.20
403.93	2314.79
404.13	2366.28
404.32	2275.00
404.51	2349.90
404.70	2387.35
404.89	2417.77
405.09	2413.09
405.28	2443.52
405.47	2436.50
405.66	2574.59
405.85	2492.67
406.05	2553.52
406.24	2600.34
406.43	2504.37
406.62	2640.12
406.81	2644.81
407.00	2607.36
407.20	2567.57
407.39	2534.80
407.58	2656.51
407.77	2731.41
407.96	2754.81
408.15	2764.17
408.34	2696.30
408.54	2771.19
408.73	2724.38
408.92	2827.37
409.11	2785.24
409.30	2895.24
409.49	2862.48
409.68	2839.07
409.87	3038.02
410.07	2998.23
410.26	2995.89
410.45	3035.67
410.64	3012.27
410.83	3108.23
411.02	3030.99
411.21	3222.92
411.40	3126.96
411.59	3246.32
411.78	3157.38
411.98	3267.39
412.17	3353.99
412.36	3297.81
412.55	3243.98
412.74	3255.69
412.93	3342.28
413.12	3433.57
413.31	3529.53
413.50	3536.55
413.69	3456.97
413.88	3620.81
414.07	3632.51
414.26	3618.47
414.45	3705.07
414.64	3681.66
414.83	3639.53
415.02	3911.04
415.22	3854.86
415.41	3847.84
415.60	3763.58
415.79	3859.54
415.98	3850.18
416.17	4032.74
416.36	3920.40
416.55	3957.85
416.74	4025.72
416.93	3946.14
417.12	4088.92
417.31	4170.83
417.50	4278.50
417.69	4367.44
417.88	4217.65
418.07	4173.18
418.26	4318.29
418.45	4360.42
418.64	4514.89
418.83	4496.17
419.02	4472.76
419.21	4505.53
419.39	4458.72
419.58	4400.21
419.77	4315.95
419.96	4540.64
420.15	4545.32
420.34	4493.83
420.53	4629.58
420.72	4648.30
420.91	4627.24
421.10	4690.43
421.29	4830.87
421.48	4770.01
421.67	4683.41
421.86	4702.14
422.05	4833.21
422.24	4793.42
422.43	4821.50
422.61	4938.53
422.80	4945.55
422.99	4999.38
423.18	5006.41
423.37	5069.60
423.56	4896.40
423.75	4777.03
423.94	4856.61
424.13	4531.28
424.32	4795.76
424.50	5074.28
424.69	5093.01
424.88	5078.96
425.07	4856.61
425.26	4816.82
425.45	5071.94
425.64	5050.88
425.83	4954.91
426.01	5046.20
426.20	5064.92
426.39	5090.67
426.58	5107.05
426.77	5050.88
426.96	5107.05
427.15	5085.98
427.33	5118.75
427.52	5167.90
427.71	5373.87
427.90	5242.80
428.09	5331.74
428.28	5359.83
428.46	5376.21
428.65	5296.63
428.84	5425.36
429.03	5528.35
429.22	5287.27
429.40	5392.59
429.59	5423.02
429.78	5268.55
429.97	5247.48
430.16	5514.30
430.34	5664.10
430.53	5624.31
430.72	5659.42
430.91	5636.01
431.10	5528.35
431.28	5898.15
431.47	5713.25
431.66	5774.10
431.85	5682.82
432.03	5942.62
432.22	6003.47
432.41	6036.24
432.60	5853.68
432.79	5947.30
432.97	6108.80
433.16	5959.00
433.35	6047.94
433.54	6286.68
433.72	6162.63
433.91	6113.48
434.10	6221.14
434.28	6019.86
434.47	6207.10
434.66	6202.42
434.85	6347.53
435.03	6272.64
435.22	6286.68
435.41	6530.09
435.59	6345.19
435.78	6450.52
435.97	6506.69
436.16	6448.18
436.34	6462.22
436.53	6581.59
436.72	6736.06
436.90	6403.71
437.09	6689.25
437.28	6520.73
437.46	6581.59
437.65	6558.18
437.84	6817.98
438.02	6815.64
438.21	6782.87
438.40	6628.40
438.58	7035.65
438.77	6970.12
438.96	7173.74
439.14	7080.12
439.33	7105.87
439.52	7232.26
439.70	7281.41
439.89	7173.74
440.08	7269.70
440.26	7337.58
440.45	7583.34
440.63	7398.43
440.82	7543.55
441.01	7620.78
441.19	7672.28
441.38	7700.36
441.57	7845.48
441.75	7763.56
441.94	8053.78
442.12	7899.31
442.31	8035.06
442.50	7976.55
442.68	8021.02
442.87	8142.72
443.05	8177.83
443.24	8248.05
443.43	8201.24
443.61	8112.30
443.80	8526.57
443.98	8023.36
444.17	7896.97
444.35	8269.11
444.54	8250.39
444.73	8311.24
444.91	8297.20
445.10	8147.40
445.28	8344.01
445.47	8065.49
445.65	8362.73
445.84	8526.57
446.02	8318.26
446.21	8423.59
446.39	8568.70
446.58	8535.93
446.77	8482.10
446.95	8322.94
447.14	8414.23
447.32	8681.05
447.51	8514.87
447.69	8428.27
447.88	8526.57
448.06	8613.17
448.25	8631.90
448.43	8648.28
448.62	8575.72
448.80	8652.96
448.99	8791.05
449.17	8622.53
449.36	8561.68
449.54	8791.05
449.73	8954.89
449.91	8929.14
450.10	8842.54
450.28	9053.19
450.46	9184.26
450.65	9085.96
450.83	9179.58
451.02	9097.66
451.20	9163.20
451.39	9378.53
451.57	9055.53
451.76	9132.77
451.94	9369.16
452.13	9193.62
452.31	9268.52
452.49	9263.84
452.68	9406.61
452.86	9240.44
453.05	9481.51
453.23	9525.98
453.42	9282.56
453.60	9523.64
453.78	9537.68
453.97	9479.17
454.15	9481.51
454.34	9380.87
454.52	9579.81
454.70	9671.09
454.89	9877.06
455.07	9823.23
455.26	9792.80
455.44	10029.20
455.62	9834.93
455.81	9853.66
455.99	9919.19
456.17	10008.13
456.36	10029.20
456.54	9930.89
456.73	10366.23
456.91	10249.21
457.09	10494.96
457.28	10590.92
457.46	10450.49
457.64	10490.28
457.83	10616.67
458.01	10595.61
458.19	10731.36
458.38	10649.44
458.56	10743.06
458.74	10693.91
458.93	10696.25
459.11	10822.64
459.29	10717.31
459.48	10780.51
459.66	10792.21
459.84	10876.47
460.03	11262.66
460.21	11279.04
460.39	10930.30
460.57	10759.44
460.76	11192.44
460.94	11279.04
461.12	11255.64
461.31	11190.10
461.49	11115.20
461.67	11049.67
461.85	11557.57
462.04	11276.70
462.22	11227.55
462.40	11779.92
462.59	11461.60
462.77	11686.29
462.95	11639.48
463.13	11705.02
463.32	11772.89
463.50	11730.76
463.68	11857.15
463.86	11714.38
464.05	11756.51
464.23	11632.46
464.41	11716.72
464.59	11740.13
464.78	12264.41
464.96	12145.04
465.14	11929.71
465.32	12018.65
465.50	12203.55
465.69	12138.02
465.87	12098.23
466.05	12219.94
466.23	12023.33
466.41	12219.94
466.60	12477.40
466.78	12149.72
466.96	12056.10
467.14	12407.18
467.32	12409.52
467.51	12641.23
467.69	12491.44
467.87	12233.98
468.05	12531.23
468.23	12517.18
468.41	12486.76
468.60	12655.28
468.78	12762.94
468.96	12512.50
469.14	12704.43
469.32	13067.21
469.50	12709.11
469.69	12915.08
469.87	13291.90
470.05	13132.75
470.23	13282.54
470.41	13146.79
470.59	13289.56
470.77	13378.50
470.95	13078.91
471.14	13472.12
471.32	12957.21
471.50	13441.70
471.68	13530.64
471.86	13682.77
472.04	13940.23
472.22	13973.00
472.40	13568.09
472.58	13729.58
472.77	13994.06
472.95	14176.62
473.13	14420.04
473.31	14031.51
473.49	14064.28
473.67	13914.48
473.85	14270.25
474.03	14569.83
474.21	14562.81
474.39	14609.62
474.57	14597.92
474.75	15337.53
474.93	15133.90
475.12	15061.35
475.30	15159.65
475.48	15318.81
475.66	15159.65
475.84	15260.29
476.02	15311.78
476.20	15049.64
476.38	15871.17
476.56	16203.53
476.74	15852.45
476.92	16093.52
477.10	16035.01
477.28	16145.02
477.46	16201.19
477.64	16578.01
477.82	16622.48
478.00	16772.28
478.18	16730.15
478.36	16781.64
478.54	17074.21
478.72	17149.11
478.90	17378.48
479.08	17848.93
479.26	17942.55
479.44	17570.40
479.62	17987.02
479.80	17832.54
479.98	17837.22
480.16	18492.57
480.34	18387.25
480.52	18892.80
480.70	18469.17
480.88	18410.65
481.06	18752.37
481.24	18768.76
481.41	19000.47
481.59	19412.40
481.77	19342.19
481.95	19747.10
482.13	19885.19
482.31	19946.05
482.49	20350.96
482.67	20109.88
482.85	20886.94
483.03	20767.57
483.21	21151.42
483.39	21013.33
483.57	21135.04
483.74	21418.24
483.92	21460.37
484.10	21273.13
484.28	21720.17
484.46	22195.30
484.64	22359.14
484.82	22050.19
485.00	22452.76
485.18	22640.00
485.35	23311.74
485.53	22871.72
485.71	23105.77
485.89	23599.62
486.07	23311.74
486.25	23159.60
486.43	23838.36
486.61	24070.07
486.78	24109.86
486.96	24367.32
487.14	24421.15
487.32	24582.65
487.50	24964.15
487.68	25020.33
487.85	25017.99
488.03	25380.77
488.21	25996.33
488.39	25900.37
488.57	26108.68
488.75	26052.50
488.92	26415.29
489.10	26742.96
489.28	26490.18
489.46	27206.39
489.64	26962.97
489.81	27452.14
489.99	27819.61
490.17	27922.59
490.35	28240.90
490.53	28137.92
490.70	28390.70
490.88	28299.42
491.06	28751.14
491.24	28982.85
491.41	28924.34
491.59	29029.66
491.77	29589.05
491.95	29647.57
492.13	29757.57
492.30	29968.22
492.48	29947.15
492.66	30132.06
492.84	30562.72
493.01	30586.12
493.19	30939.54
493.37	31318.71
493.54	31246.15
493.72	31655.75
493.90	31489.57
494.08	31952.99
494.25	31711.92
494.43	31850.01
494.61	32215.13
494.79	32666.86
494.96	32814.31
495.14	32751.12
495.32	33031.98
495.49	33448.60
495.67	33509.45
495.85	33797.34
496.02	33551.58
496.20	34401.19
496.38	34110.97
496.55	33893.30
496.73	34946.54
496.91	34452.69
497.09	35037.82
497.26	35161.87
497.44	35379.54
497.62	35590.19
497.79	36135.53
497.97	35728.28
498.14	35992.76
498.32	36517.04
498.50	36123.83
498.67	36655.13
498.85	36549.81
499.03	36910.25
499.20	36781.52
499.38	36765.14
499.56	36865.78
499.73	37429.85
499.91	37385.38
500.08	38000.94
500.26	37453.25
500.44	37741.14
500.61	37879.23
500.79	37834.76
500.97	38183.50
501.14	38607.14
501.32	38946.51
501.49	38604.80
501.67	38567.35
501.84	39157.16
502.02	38529.90
502.20	38995.67
502.37	39463.77
502.55	39470.79
502.72	39562.08
502.90	39957.63
503.07	39700.17
503.25	39697.83
503.43	39943.58
503.60	40102.74
503.78	40095.72
503.95	39978.69
504.13	40465.52
504.30	40662.13
504.48	40203.38
504.65	40917.25
504.83	40966.40
505.01	41158.32
505.18	41233.22
505.36	41701.32
505.53	41542.17
505.71	41694.30
505.88	41429.82
506.06	41305.77
506.23	42131.98
506.41	41787.92
506.58	42431.57
506.76	42398.80
506.93	42253.69
507.11	42258.37
507.28	42256.03
507.46	42707.76
507.63	43159.48
507.81	43653.33
507.98	42958.19
508.16	43255.44
508.33	43374.81
508.50	43702.48
508.68	43629.93
508.85	43943.56
509.03	44004.41
509.20	43931.86
509.38	44404.64
509.55	44521.67
509.73	44666.78
509.90	44804.88
510.08	44854.03
510.25	44882.11
510.42	44928.92
510.60	44809.56
510.77	45006.16
510.95	45310.43
511.12	45144.25
511.30	45476.61
511.47	45806.62
511.64	45921.31
511.82	46160.05
511.99	45535.12
512.17	45865.14
512.34	46033.66
512.51	46312.18
512.69	46174.09
512.86	46679.64
513.04	46763.90
513.21	46880.93
513.38	46803.69
513.56	46946.47
513.73	46955.83
513.90	46962.85
514.08	46894.97
514.25	47178.18
514.43	47227.33
514.60	47473.09
514.77	47433.30
514.95	47866.30
515.12	47264.78
515.29	47915.45
515.47	47896.72
515.64	48224.40
515.81	48264.19
515.99	48226.74
516.16	48512.28
516.33	48666.76
516.51	48692.50
516.68	48336.74
516.85	48498.24
517.03	49031.88
517.20	49013.16
517.37	49003.80
517.54	49188.70
517.72	49216.78
517.89	48849.32
518.06	49017.84
518.24	49483.61
518.41	49256.57
518.58	49446.16
518.75	49497.65
518.93	49748.09
519.10	49329.13
519.27	49942.35
519.45	49460.20
519.62	49844.05
519.79	50059.38
519.96	49940.01
520.14	50515.78
520.31	50440.89
520.48	50305.13
520.65	50291.09
520.83	50789.62
521.00	51054.11
521.17	50646.85
521.34	50756.86
521.52	51070.49
521.69	51185.18
521.86	51091.55
522.03	51456.68
522.20	51269.43
522.38	51524.55
522.55	51222.62
522.72	51554.98
522.89	51215.60
523.07	51920.10
523.24	51503.49
523.41	51608.81
523.58	51643.92
523.75	51667.33
523.92	51716.48
524.10	52016.07
524.27	52133.09
524.44	52076.92
524.61	52102.67
524.78	52009.04
524.96	52652.69
525.13	52418.64
525.30	52589.50
525.47	52582.48
525.64	52449.06
525.81	52591.84
525.98	52872.70
526.16	52743.97
526.33	52849.30
526.50	52736.95
526.67	52760.36
526.84	52743.97
527.01	53095.05
527.18	52963.98
527.36	52975.69
527.53	53104.41
527.70	53506.99
527.87	53387.62
528.04	53083.35
528.21	53448.47
528.38	53710.61
528.55	53382.94
528.72	53396.98
528.89	53544.44
529.07	53448.47
529.24	53485.92
529.41	53743.38
529.58	53724.66
529.75	53635.72
529.92	53595.93
530.09	54045.31
530.26	54082.76
530.43	54064.03
530.60	53837.00
530.77	53780.83
530.94	54064.03
531.11	54068.72
531.28	54141.27
531.46	54576.61
531.63	54555.55
531.80	53977.43
531.97	54508.74
532.14	54681.94
532.31	54447.88
532.48	54602.36
532.65	54731.09
532.82	54564.91
532.99	54695.98
533.16	54700.66
533.33	54796.62
533.50	54885.56
533.67	55033.02
533.84	54827.05
534.01	54817.69
534.18	54855.14
534.35	55257.71
534.52	55231.96
534.69	55241.32
534.86	55480.06
535.03	55133.66
535.20	55512.83
535.37	55419.20
535.54	55550.27
535.71	55196.85
535.88	55313.88
536.05	55489.42
536.22	55772.63
536.38	55550.27
536.55	55866.25
536.72	55625.17
536.89	55772.63
537.06	55896.67
537.23	55697.73
537.40	55636.87
537.57	55861.57
537.74	55650.92
537.91	56083.92
538.08	56236.05
538.25	55641.56
538.42	56034.77
538.59	56442.02
538.75	56067.53
538.92	56301.59
539.09	56247.75
539.26	56126.05
539.43	56217.33
539.60	56254.78
539.77	56168.18
539.94	56432.66
540.11	56507.55
540.28	56505.21
540.44	56488.83
540.61	56556.70
540.78	56694.80
540.95	56432.66
541.12	56376.48
541.29	56477.13
541.46	56420.95
541.62	56701.82
541.79	56678.41
541.96	56516.92
542.13	56488.83
542.30	56982.68
542.47	56846.93
542.63	56746.29
542.80	56994.39
542.97	57165.24
543.14	57354.83
543.31	57050.56
543.48	57331.42
543.64	57420.36
543.81	57375.89
543.98	57286.95
544.15	57230.78
544.32	57518.67
544.48	57504.62
544.65	57413.34
544.82	57490.58
544.99	57364.19
545.16	57528.03
545.32	57502.28
545.49	57659.10
545.66	57855.70
545.83	57502.28
546.00	57923.58
546.16	57780.81
546.33	57876.77
546.50	57776.12
546.67	57813.57
546.83	57326.74
547.00	57890.81
547.17	57991.45
547.34	57956.35
547.50	57925.92
547.67	57989.11
547.84	58059.33
548.00	58145.93
548.17	58255.93
548.34	58234.87
548.51	58398.71
548.67	58260.62
548.84	58033.58
549.01	58082.73
549.18	58298.06
549.34	58113.16
549.51	58244.23
549.68	58405.73
549.84	58536.80
550.01	58529.78
550.18	58159.97
550.34	58569.57
550.51	58403.39
550.68	58382.32
550.84	58398.71
551.01	58354.24
551.18	58597.65
551.34	58567.23
551.51	58688.93
551.68	58705.32
551.84	58548.50
552.01	58429.13
552.18	58518.07
552.34	58576.59
552.51	58710.00
552.68	58599.99
552.84	58693.61
553.01	59164.06
553.18	58705.32
553.34	58995.54
553.51	58951.07
553.67	58644.46
553.84	58922.99
554.01	58920.65
554.17	58983.84
554.34	58979.16
554.51	58932.35
554.67	59192.15
554.84	59117.25
555.00	59068.10
555.17	59028.31
555.33	59030.65
555.50	58761.49
555.67	59011.93
555.83	59126.61
556.00	59117.25
556.16	59402.80
556.33	59365.35
556.50	59416.84
556.66	59416.84
556.83	59138.32
556.99	59379.39
557.16	59484.72
557.32	59622.81
557.49	59667.28
557.65	59187.47
557.82	59339.60
557.98	59430.88
558.15	59405.14
558.32	59554.93
558.48	59480.03
558.65	59426.20
558.81	59540.89
558.98	59791.33
559.14	59840.48
559.31	59800.69
559.47	59697.70
559.64	59714.09
559.80	59784.30
559.97	59669.62
560.13	59648.55
560.30	59781.96
560.46	59758.56
560.63	59973.89
560.79	59863.88
560.96	59807.71
561.12	59821.75
561.29	59636.85
561.45	59774.94
561.61	59788.98
561.78	59868.56
561.94	59931.76
562.11	59805.37
562.27	59887.29
562.44	59903.67
562.60	60009.00
562.77	59936.44
562.93	59791.33
563.10	59957.50
563.26	60041.76
563.42	60331.99
563.59	59913.03
563.75	60041.76
563.92	60004.31
564.08	60336.67
564.24	60331.99
564.41	60009.00
564.57	60341.35
564.74	60109.64
564.90	60037.08
565.07	60095.60
565.23	60315.61
565.39	60231.35
565.56	60236.03
565.72	60441.99
565.88	60294.54
566.05	60348.37
566.21	60257.09
566.38	60355.39
566.54	60236.03
566.70	60329.65
566.87	60622.22
567.03	60343.69
567.19	60376.46
567.36	60331.99
567.52	60341.35
567.68	60673.71
567.85	60460.72
568.01	60460.72
568.17	60360.08
568.34	60198.58
568.50	60289.86
568.66	60374.12
568.83	60566.04
568.99	60348.37
569.15	60353.05
569.32	60500.51
569.48	60217.30
569.64	60463.06
569.81	60495.83
569.97	60402.21
570.13	60549.66
570.30	60528.59
570.46	60451.36
570.62	60479.44
570.78	60720.52
570.95	60479.44
571.11	60769.67
571.27	60580.09
571.43	60657.32
571.60	60687.75
571.76	60753.29
571.92	60748.60
572.09	60662.00
572.25	60563.70
572.41	60540.30
572.57	60566.04
572.74	60809.46
572.90	60582.43
573.06	60767.33
573.22	60711.16
573.38	60669.03
573.55	60643.28
573.71	60893.72
573.87	60884.36
574.03	60842.23
574.20	60914.78
574.36	60853.93
574.52	60694.77
574.68	60774.35
574.84	60891.38
575.01	60739.24
575.17	60783.71
575.33	60596.47
575.49	60746.26
575.65	60842.23
575.82	60889.04
575.98	60802.44
576.14	61034.15
576.30	60954.57
576.46	60608.17
576.62	60743.92
576.79	60629.24
576.95	60666.69
577.11	60903.08
577.27	60828.18
577.43	60800.10
577.59	60706.47
577.75	60970.96
577.92	60786.05
578.08	60825.84
578.24	60741.58
578.40	60977.98
578.56	61195.65
578.72	60764.99
578.88	61034.15
579.04	60949.89
579.21	60821.16
579.37	60989.68
579.53	61010.74
579.69	60884.36
579.85	60856.27
580.01	60863.29
580.17	60772.01
580.33	61020.11
580.49	61092.66
580.65	61127.77
580.82	61020.11
580.98	60786.05
581.14	60956.91
581.30	61050.53
581.46	60963.93
581.62	61006.06
581.78	61071.60
581.94	61050.53
582.10	60926.49
582.26	61048.19
582.42	61045.85
582.58	61057.56
582.74	60987.34
582.90	61031.81
583.06	60900.74
583.22	60830.52
583.38	60992.02
583.54	60996.70
583.70	61038.83
583.86	61071.60
584.02	60748.60
584.18	61043.51
584.34	60994.36
584.50	60982.66
584.66	60917.12
584.82	60931.17
584.98	61378.21
585.14	61092.66
585.30	61069.26
585.46	61078.62
585.62	60966.27
585.78	61162.88
585.94	60776.69
586.10	61062.24
586.26	61024.79
586.42	61073.94
586.58	61134.79
586.74	61329.06
586.90	61102.03
587.06	60999.04
587.22	61041.17
587.38	61036.49
587.54	61125.43
587.70	61240.12
587.86	61055.21
588.02	61111.39
588.18	61350.12
588.34	61120.75
588.49	61242.46
