SpectraSuite Data File
++++++++++++++++++++++++++++++++++++
Date: Fri Oct 25 11:22:31 EDT 2013
User: price-jones
Dark Spectrum Present: No
Reference Spectrum Present: No
Number of Sampled Component Spectra: 1
Spectrometers: USB2+H05261
Integration Time (usec): 100000 (USB2+H05261)
Spectra Averaged: 1 (USB2+H05261)
Boxcar Smoothing: 0 (USB2+H05261)
Correct for Electrical Dark: No (USB2+H05261)
Strobe/Lamp Enabled: No (USB2+H05261)
Correct for Detector Non-linearity: No (USB2+H05261)
Correct for Stray Light: No (USB2+H05261)
Number of Pixels in Processed Spectrum: 2048
>>>>>Begin Processed Spectral Data<<<<<
365.73	245.76
365.92	245.76
366.12	245.76
366.32	191.92
366.52	88.94
366.72	112.35
366.91	117.03
367.11	16.38
367.31	107.66
367.51	102.98
367.70	124.05
367.90	133.41
368.10	105.32
368.30	88.94
368.49	4.68
368.69	142.77
368.89	194.26
369.09	175.54
369.28	131.07
369.48	135.75
369.68	163.84
369.87	180.22
370.07	168.52
370.27	217.67
370.47	304.27
370.66	631.94
370.86	669.39
371.06	648.33
371.25	645.99
371.45	704.50
371.65	648.33
371.84	643.65
372.04	755.99
372.24	795.78
372.44	702.16
372.63	730.25
372.83	788.76
373.03	716.20
373.22	795.78
373.42	823.87
373.62	814.51
373.81	833.23
374.01	774.72
374.21	786.42
374.40	828.55
374.60	786.42
374.79	732.59
374.99	861.32
375.19	826.21
375.38	847.27
375.58	774.72
375.78	840.25
375.97	856.64
376.17	842.59
376.37	840.25
376.56	863.66
376.76	828.55
376.95	856.64
377.15	908.13
377.35	823.87
377.54	938.55
377.74	828.55
377.93	835.57
378.13	901.11
378.33	940.90
378.52	957.28
378.72	905.79
378.91	983.02
379.11	987.71
379.31	966.64
379.50	926.85
379.70	943.24
379.89	959.62
380.09	978.34
380.28	954.94
380.48	954.94
380.68	952.60
380.87	978.34
381.07	1097.71
381.26	1006.43
381.46	1083.67
381.65	1020.47
381.85	1032.18
382.04	1013.45
382.24	1137.50
382.43	1055.58
382.63	1088.35
382.83	1109.41
383.02	1076.65
383.22	1015.79
383.41	1156.22
383.61	1032.18
383.80	1179.63
384.00	1163.25
384.19	1193.67
384.39	1193.67
384.58	1130.48
384.78	1170.27
384.97	1170.27
385.17	1114.10
385.36	1163.25
385.56	1121.12
385.75	1203.04
385.95	1174.95
386.14	1188.99
386.34	1207.72
386.53	1125.80
386.72	1270.91
386.92	1282.61
387.11	1266.23
387.31	1198.35
387.50	1261.55
387.70	1306.02
387.89	1238.14
388.09	1217.08
388.28	1315.38
388.48	1324.74
388.67	1287.29
388.86	1334.11
389.06	1306.02
389.25	1343.47
389.45	1352.83
389.64	1296.66
389.84	1416.02
390.03	1411.34
390.22	1432.41
390.42	1420.71
390.61	1345.81
390.81	1430.07
391.00	1362.19
391.19	1453.47
391.39	1432.41
391.58	1446.45
391.78	1411.34
391.97	1392.62
392.16	1519.01
392.36	1586.88
392.55	1497.94
392.75	1460.49
392.94	1434.75
393.13	1582.20
393.33	1554.12
393.52	1577.52
393.71	1600.93
393.91	1640.72
394.10	1619.65
394.29	1619.65
394.49	1605.61
394.68	1680.50
394.88	1675.82
395.07	1659.44
395.26	1591.56
395.46	1565.82
395.65	1675.82
395.84	1703.91
396.04	1767.10
396.23	1795.19
396.42	1715.61
396.62	1785.83
396.81	1732.00
397.00	1806.89
397.19	1856.04
397.39	1851.36
397.58	1830.30
397.77	1797.53
397.97	1877.11
398.16	1935.62
398.35	1914.56
398.55	1881.79
398.74	1919.24
398.93	2015.20
399.12	1961.37
399.32	1792.85
399.51	2033.93
399.70	1998.82
399.90	2043.29
400.09	2097.12
400.28	2008.18
400.47	2050.31
400.67	2099.46
400.86	2097.12
401.05	2019.88
401.24	2167.34
401.44	2277.34
401.63	2242.23
401.82	2232.87
402.01	2200.10
402.21	2132.23
402.40	2221.17
402.59	2235.21
402.78	2202.44
402.97	2228.19
403.17	2312.45
403.36	2349.90
403.55	2399.05
403.74	2422.45
403.93	2307.77
404.13	2525.44
404.32	2415.43
404.51	2359.26
404.70	2473.95
404.89	2363.94
405.09	2448.20
405.28	2445.86
405.47	2462.24
405.66	2487.99
405.85	2513.74
406.05	2530.12
406.24	2602.68
406.43	2700.98
406.62	2628.42
406.81	2722.04
407.00	2616.72
407.20	2640.12
407.39	2586.29
407.58	2693.96
407.77	2708.00
407.96	2869.50
408.15	2761.83
408.34	2850.77
408.54	2754.81
408.73	2864.82
408.92	2892.90
409.11	2939.71
409.30	2920.99
409.49	2895.24
409.68	2923.33
409.87	2974.82
410.07	2965.46
410.26	3073.12
410.45	3035.67
410.64	3028.65
410.83	3087.17
411.02	3197.17
411.21	3255.69
411.40	3239.30
411.59	3155.04
411.78	3243.98
411.98	3274.41
412.17	3346.97
412.36	3335.26
412.55	3440.59
412.74	3447.61
412.93	3440.59
413.12	3187.81
413.31	3527.19
413.50	3426.54
413.69	3634.85
413.88	3522.51
414.07	3644.21
414.26	3606.77
414.45	3707.41
414.64	3749.54
414.83	3763.58
415.02	3857.20
415.22	3943.80
415.41	3995.29
415.60	3988.27
415.79	3875.93
415.98	3964.87
416.17	3918.06
416.36	4039.76
416.55	4021.04
416.74	4280.84
416.93	4114.66
417.12	4177.86
417.31	4142.75
417.50	4315.95
417.69	4313.61
417.88	4255.09
418.07	4386.16
418.26	4325.31
418.45	4348.72
418.64	4503.19
418.83	4514.89
419.02	4360.42
419.21	4599.15
419.39	4559.36
419.58	4533.62
419.77	4559.36
419.96	4587.45
420.15	4805.12
420.34	4664.69
420.53	4727.88
420.72	4657.67
420.91	4788.74
421.10	4842.57
421.29	4779.37
421.48	4840.23
421.67	4727.88
421.86	5022.79
422.05	4894.06
422.24	4966.62
422.43	5013.43
422.61	4978.32
422.80	4964.28
422.99	5114.07
423.18	5097.69
423.37	5039.17
423.56	4971.30
423.75	5071.94
423.94	4833.21
424.13	4681.07
424.32	4805.12
424.50	5078.96
424.69	5088.32
424.88	5153.86
425.07	5069.60
425.26	4954.91
425.45	5205.35
425.64	4952.57
425.83	4978.32
426.01	5074.28
426.20	5163.22
426.39	5210.03
426.58	5149.18
426.77	5228.76
426.96	5142.16
427.15	5240.46
427.33	5383.23
427.52	5095.35
427.71	5373.87
427.90	5191.31
428.09	5392.59
428.28	5563.45
428.46	5355.15
428.65	5352.81
428.84	5533.03
429.03	5526.00
429.22	5427.70
429.40	5544.73
429.59	5584.52
429.78	5270.89
429.97	5303.65
430.16	5533.03
430.34	5643.03
430.53	5558.77
430.72	5687.50
430.91	5820.91
431.10	5692.18
431.28	5891.13
431.47	5888.79
431.66	5982.41
431.85	5984.75
432.03	6052.63
432.22	5975.39
432.41	6239.87
432.60	6005.81
432.79	6071.35
432.97	6057.31
433.16	6033.90
433.35	6197.74
433.54	6097.10
433.72	6286.68
433.91	6289.02
434.10	6277.32
434.28	6216.46
434.47	6373.28
434.66	6300.72
434.85	6509.03
435.03	6417.75
435.22	6256.25
435.41	6604.99
435.59	6473.92
435.78	6436.47
435.97	6485.62
436.16	6532.44
436.34	6588.61
436.53	6604.99
436.72	6712.66
436.90	6359.24
437.09	6736.06
437.28	6616.69
437.46	6682.23
437.65	6829.68
437.84	6897.56
438.02	6740.74
438.21	6834.36
438.40	6778.19
438.58	7002.88
438.77	7021.61
438.96	6981.82
439.14	7136.29
439.33	7274.38
439.52	7152.68
439.70	7389.07
439.89	7290.77
440.08	7351.62
440.26	7349.28
440.45	7618.44
440.63	7634.83
440.82	7712.07
441.01	7695.68
441.19	7702.70
441.38	7723.77
441.57	7864.20
441.75	7946.12
441.94	7964.84
442.12	7878.24
442.31	8016.33
442.50	8138.04
442.68	8049.10
442.87	8102.93
443.05	8241.03
443.24	8425.93
443.43	8290.18
443.61	8372.10
443.80	8437.63
443.98	8138.04
444.17	7957.82
444.35	8297.20
444.54	8468.06
444.73	8360.39
444.91	8255.07
445.10	8446.99
445.28	8655.30
445.47	8589.77
445.65	8428.27
445.84	8535.93
446.02	8585.08
446.21	8416.57
446.39	8379.12
446.58	8547.64
446.77	8411.89
446.95	8454.02
447.14	8503.17
447.32	8753.60
447.51	8652.96
447.69	8540.61
447.88	8573.38
448.06	8561.68
448.25	8664.66
448.43	8638.92
448.62	8847.22
448.80	8779.35
448.99	8769.99
449.17	8959.57
449.36	8809.78
449.54	8739.56
449.73	9142.13
449.91	9118.73
450.10	8959.57
450.28	9235.75
450.46	9294.27
450.65	9097.66
450.83	9242.78
451.02	9432.36
451.20	9200.65
451.39	9170.22
451.57	9308.31
451.76	9135.11
451.94	9254.48
452.13	9568.11
452.31	9446.40
452.49	9273.20
452.68	9509.60
452.86	9591.52
453.05	9561.09
453.23	9694.50
453.42	9565.77
453.60	9593.86
453.78	9650.03
453.97	9603.22
454.15	9600.88
454.34	9633.64
454.52	10052.60
454.70	9806.84
454.89	9703.86
455.07	10052.60
455.26	9982.38
455.44	10005.79
455.62	9944.94
455.81	9947.28
455.99	10017.49
456.17	10167.29
456.36	10026.86
456.54	10258.57
456.73	10242.18
456.91	10675.18
457.09	10473.90
457.28	10677.52
457.46	10370.91
457.64	10855.40
457.83	10635.39
458.01	10562.84
458.19	10710.29
458.38	10803.91
458.56	10846.04
458.74	10967.75
458.93	10942.00
459.11	10801.57
459.29	10883.49
459.48	11037.97
459.66	11016.90
459.84	11044.99
460.03	11463.94
460.21	11115.20
460.39	11143.29
460.57	11166.70
460.76	11311.81
460.94	11566.93
461.12	11318.83
461.31	11042.65
461.49	11529.48
461.67	11414.79
461.85	11630.12
462.04	11393.73
462.22	12098.23
462.40	11627.78
462.59	11613.74
462.77	11466.28
462.95	11822.05
463.13	11943.75
463.32	11843.11
463.50	11740.13
463.68	11983.54
463.86	11962.48
464.05	11880.56
464.23	11632.46
464.41	12212.92
464.59	11941.41
464.78	12404.84
464.96	11964.82
465.14	11988.22
465.32	12578.04
465.50	12149.72
465.69	12077.16
465.87	12397.82
466.05	12414.20
466.23	12549.95
466.41	12301.86
466.60	12531.23
466.78	12304.20
466.96	12500.80
467.14	12599.10
467.32	12702.09
467.51	12723.15
467.69	12210.57
467.87	12500.80
468.05	12622.51
468.23	12573.36
468.41	12643.57
468.60	12936.14
468.78	12964.23
468.96	12554.63
469.14	12999.34
469.32	13109.34
469.50	12781.67
469.69	13319.99
469.87	13291.90
470.05	13245.09
470.23	13528.30
470.41	13221.69
470.59	13624.26
470.77	13123.38
470.95	13345.73
471.14	13727.24
471.32	13160.83
471.50	13692.13
471.68	13870.01
471.86	14050.24
472.04	14040.87
472.22	14155.56
472.40	13907.46
472.58	13867.67
472.77	14242.16
472.95	14122.79
473.13	14862.40
473.31	14258.54
473.49	14345.14
473.67	14204.71
473.85	14567.49
474.03	14679.84
474.21	14843.68
474.39	14981.77
474.57	15063.69
474.75	14970.07
474.93	15152.63
475.12	15157.31
475.30	15173.69
475.48	15208.80
475.66	15438.17
475.84	15445.20
476.02	15522.43
476.20	15796.28
476.38	15822.02
476.56	16346.30
476.74	16112.25
476.92	15990.54
477.10	16196.51
477.28	16535.88
477.46	16343.96
477.64	16685.68
477.82	16702.06
478.00	17067.19
478.18	16950.16
478.36	17366.78
478.54	17319.96
478.72	17266.13
478.90	17614.87
479.08	17767.01
479.26	17898.08
479.44	17851.27
479.62	17975.31
479.80	18171.92
479.98	18768.76
480.16	18733.65
480.34	18574.49
480.52	18920.89
480.70	19129.20
480.88	18663.43
481.06	19014.51
481.24	18939.62
481.41	19440.49
481.59	19847.74
481.77	20009.24
481.95	19875.83
482.13	19796.25
482.31	20011.58
482.49	20395.43
482.67	20627.14
482.85	20748.85
483.03	20924.39
483.21	21104.61
483.39	21008.65
483.57	21001.63
483.74	21263.77
483.92	21561.02
484.10	21666.34
484.28	22242.11
484.46	22384.88
484.64	22600.21
484.82	22075.93
485.00	22604.89
485.18	23337.48
485.35	23454.51
485.53	23065.98
485.71	23091.73
485.89	24182.42
486.07	23278.97
486.25	23847.72
486.43	23866.44
486.61	24280.72
486.78	24243.27
486.96	24655.20
487.14	24912.66
487.32	24594.35
487.50	25172.46
487.68	25673.34
487.85	25411.20
488.03	25811.43
488.21	26300.60
488.39	26012.71
488.57	26485.50
488.75	26188.25
488.92	26876.37
489.10	26920.84
489.28	27342.14
489.46	27424.06
489.64	27412.35
489.81	28254.95
489.99	28041.96
490.17	28320.48
490.35	28465.60
490.53	28301.76
490.70	29057.75
490.88	28615.39
491.06	29069.45
491.24	29254.36
491.41	29490.75
491.59	29450.96
491.77	29729.48
491.95	29956.52
492.13	30176.53
492.30	30359.09
492.48	30541.65
492.66	30806.13
492.84	30597.82
493.01	30658.68
493.19	31309.35
493.37	31185.30
493.54	31625.32
493.72	32121.51
493.90	32175.34
494.08	32245.56
494.25	32428.12
494.43	32460.89
494.61	32601.32
494.79	32917.29
494.96	32741.75
495.14	33329.23
495.32	33539.88
495.49	33165.39
495.67	34157.78
495.85	33736.48
496.02	34139.05
496.20	34291.19
496.38	34466.73
496.55	34579.07
496.73	35234.42
496.91	34911.43
497.09	35304.64
497.26	35639.34
497.44	35526.99
497.62	35686.15
497.79	36320.43
497.97	36385.97
498.14	36364.90
498.32	36690.24
498.50	36439.80
498.67	36926.63
498.85	36786.20
499.03	37340.91
499.20	37266.01
499.38	37319.84
499.56	37364.31
499.73	37937.74
499.91	37837.10
500.08	38249.03
500.26	37916.68
500.44	37876.89
500.61	37993.92
500.79	38373.08
500.97	38492.45
501.14	38925.45
501.32	38852.89
501.49	38859.91
501.67	39182.91
501.84	39395.90
502.02	39723.57
502.20	39412.28
502.37	39526.97
502.55	40280.62
502.72	40240.83
502.90	40109.76
503.07	40009.12
503.25	40278.28
503.43	40121.46
503.60	40371.90
503.78	40718.30
503.95	40561.48
504.13	41127.89
504.30	41125.55
504.48	41060.02
504.65	41731.75
504.83	42043.04
505.01	41652.17
505.18	42204.54
505.36	42567.32
505.53	41675.58
505.71	42234.97
505.88	42405.83
506.06	42038.36
506.23	42520.51
506.41	42447.96
506.58	42862.23
506.76	42841.17
506.93	42887.98
507.11	43262.46
507.28	42628.18
507.46	43428.64
507.63	43639.29
507.81	43749.29
507.98	43508.22
508.16	43648.65
508.33	44273.57
508.50	44140.16
508.68	44495.92
508.85	44638.70
509.03	44465.50
509.20	44215.06
509.38	44858.71
509.55	44861.05
509.73	45095.10
509.90	45392.35
510.08	45092.76
510.25	45425.12
510.42	45102.12
510.60	45371.28
510.77	45556.19
510.95	45698.96
511.12	45970.46
511.30	45860.46
511.47	45815.99
511.64	45991.53
511.82	46384.74
511.99	46176.43
512.17	46527.51
512.34	46494.74
512.51	46759.22
512.69	46876.25
512.86	46691.35
513.04	47248.39
513.21	47143.07
513.38	47442.66
513.56	47306.91
513.73	47086.90
513.90	47217.97
514.08	47695.44
514.25	47934.17
514.43	48238.44
514.60	47955.24
514.77	47931.83
514.95	47868.64
515.12	48067.58
515.29	48423.34
515.47	48554.41
515.64	48556.75
515.81	48877.41
515.99	48999.12
516.16	48746.34
516.33	49165.29
516.51	49202.74
516.68	48959.33
516.85	49251.89
517.03	49434.45
517.20	49397.01
517.37	49638.08
517.54	49542.12
517.72	49881.50
517.89	49607.65
518.06	49661.49
518.24	49677.87
518.41	49481.27
518.58	49727.02
518.75	49645.10
518.93	49677.87
519.10	49792.56
519.27	50110.87
519.45	50251.30
519.62	50525.14
519.79	50529.83
519.96	50581.32
520.14	50382.37
520.31	50749.84
520.48	51126.66
520.65	50848.14
520.83	51019.00
521.00	51442.63
521.17	50993.25
521.34	51016.66
521.52	51320.93
521.69	50885.59
521.86	51601.79
522.03	51531.57
522.20	51934.15
522.38	51868.61
522.55	51866.27
522.72	51908.40
522.89	51854.57
523.07	52102.67
523.24	52081.60
523.41	52182.24
523.58	51807.76
523.75	52528.64
523.92	52339.06
524.10	52310.97
524.27	52502.90
524.44	52587.16
524.61	52458.43
524.78	52357.78
524.96	52690.14
525.13	52690.14
525.30	52921.85
525.47	53036.54
525.64	52853.98
525.81	52921.85
525.98	53041.22
526.16	52837.59
526.33	52973.34
526.50	53621.67
526.67	53162.93
526.84	53254.21
527.01	53034.20
527.18	53198.04
527.36	53471.88
527.53	53265.91
527.70	53963.39
527.87	53439.11
528.04	53511.67
528.21	53614.65
528.38	53705.93
528.55	54094.46
528.72	53727.00
528.89	53638.06
529.07	53993.82
529.24	54003.18
529.41	54358.94
529.58	54183.40
529.75	53977.43
529.92	54113.19
530.09	54295.75
530.26	54281.70
530.43	54532.14
530.60	54171.70
530.77	54246.60
530.94	54461.93
531.11	54504.06
531.28	54621.08
531.46	54705.34
531.63	54724.07
531.80	54707.68
531.97	55018.97
532.14	54976.84
532.31	54808.32
532.48	54913.65
532.65	55201.53
532.82	54714.70
532.99	55096.21
533.16	55077.49
533.33	55192.17
533.50	55112.59
533.67	55320.90
533.84	55360.69
534.01	55381.76
534.18	55456.65
534.35	55842.84
534.52	55512.83
534.69	55660.28
534.86	55531.55
535.03	55576.02
535.20	55550.27
535.37	55566.66
535.54	55547.93
535.71	55627.51
535.88	55721.13
536.05	55723.47
536.22	55863.91
536.38	55824.12
536.55	56186.90
536.72	55950.51
536.89	55943.48
537.06	56076.90
537.23	56179.88
537.40	56046.47
537.57	56144.77
537.74	56261.80
537.91	56264.14
538.08	56395.21
538.25	55882.63
538.42	56133.07
538.59	56587.13
538.75	56287.54
538.92	56507.55
539.09	56678.41
539.26	56442.02
539.43	56427.98
539.60	56783.74
539.77	56694.80
539.94	56868.00
540.11	56533.30
540.28	56507.55
540.44	56821.19
540.61	56722.88
540.78	56711.18
540.95	56846.93
541.12	56821.19
541.29	56809.48
541.46	57022.47
541.62	57050.56
541.79	57020.13
541.96	56774.37
542.13	57003.75
542.30	56886.72
542.47	56994.39
542.63	57441.43
542.80	57284.61
542.97	57378.23
543.14	57460.15
543.31	57516.32
543.48	57293.97
543.64	57710.59
543.81	57776.12
543.98	57570.16
544.15	57923.58
544.32	57785.49
544.48	57708.25
544.65	57783.15
544.82	57778.46
544.99	57607.61
545.16	57750.38
545.32	57801.87
545.49	57961.03
545.66	58024.22
545.83	57865.06
546.00	58099.12
546.16	58101.46
546.33	58169.33
546.50	57914.22
546.67	58138.91
546.83	57694.21
547.00	57869.75
547.17	58040.60
547.34	58277.00
547.50	58291.04
547.67	58532.12
547.84	58344.87
548.00	58658.51
548.17	58695.95
548.34	58431.47
548.51	58628.08
548.67	58410.41
548.84	58478.28
549.01	58564.88
549.18	58717.02
549.34	58489.99
549.51	58717.02
549.68	58665.53
549.84	58824.68
550.01	58850.43
550.18	58499.35
550.34	58681.91
550.51	58911.28
550.68	58630.42
550.84	58649.14
551.01	58878.52
551.18	58894.90
551.34	58773.19
551.51	59061.08
551.68	58901.92
551.84	58770.85
552.01	58897.24
552.18	59173.42
552.34	58955.75
552.51	59135.98
552.68	58892.56
552.84	59051.72
553.01	59325.56
553.18	59182.79
553.34	59344.28
553.51	59037.67
553.67	59192.15
553.84	59271.73
554.01	59063.42
554.17	59304.49
554.34	59367.69
554.51	59348.96
554.67	59299.81
554.84	59276.41
555.00	59484.72
555.17	59494.08
555.33	59255.34
555.50	59182.79
555.67	59391.09
555.83	59405.14
556.00	59625.15
556.16	59615.79
556.33	59767.92
556.50	59487.06
556.66	59840.48
556.83	59302.15
556.99	59650.89
557.16	59828.77
557.32	59842.82
557.49	59842.82
557.65	59463.65
557.82	59580.68
557.98	59583.02
558.15	59725.79
558.32	59686.00
558.48	59737.49
558.65	59634.51
558.81	60055.81
558.98	59618.13
559.14	59852.18
559.31	60081.55
559.47	60018.36
559.64	60058.15
559.80	60100.28
559.97	60086.23
560.13	59758.56
560.30	60097.94
560.46	60051.12
560.63	60051.12
560.79	59983.25
560.96	60383.48
561.12	60154.11
561.29	60207.94
561.45	60355.39
561.61	60172.83
561.78	60149.43
561.94	60163.47
562.11	60257.09
562.27	60144.75
562.44	60280.50
562.60	60308.58
562.77	60334.33
562.93	60048.78
563.10	60409.23
563.26	60226.66
563.42	60561.36
563.59	60427.95
563.75	60306.24
563.92	60339.01
564.08	60346.03
564.24	60458.38
564.41	60322.63
564.57	60371.78
564.74	60343.69
564.90	60563.70
565.07	60282.84
565.23	60381.14
565.39	60317.95
565.56	60652.64
565.72	60467.74
565.88	60547.32
566.05	60603.49
566.21	60217.30
566.38	60608.17
566.54	60659.66
566.70	60535.62
566.87	60603.49
567.03	60472.42
567.19	60640.94
567.36	60622.22
567.52	60477.10
567.68	60673.71
567.85	60781.37
568.01	60619.88
568.17	60575.40
568.34	60743.92
568.50	60493.49
568.66	60470.08
568.83	60619.88
568.99	60561.36
569.15	60699.45
569.32	60886.70
569.48	60741.58
569.64	60926.49
569.81	60720.52
569.97	60633.92
570.13	60804.78
570.30	60708.82
570.46	60919.46
570.62	60891.38
570.78	60849.25
570.95	60872.65
571.11	60856.27
571.27	60882.02
571.43	60776.69
571.60	60954.57
571.76	60940.53
571.92	60856.27
572.09	60982.66
572.25	61106.71
572.41	60720.52
572.57	60647.96
572.74	60891.38
572.90	60793.07
573.06	60963.93
573.22	60893.72
573.38	60867.97
573.55	60926.49
573.71	61092.66
573.87	60949.89
574.03	60802.44
574.20	60985.00
574.36	61008.40
574.52	61106.71
574.68	61118.41
574.84	61359.48
575.01	61134.79
575.17	61137.13
575.33	61090.32
575.49	60949.89
575.65	61080.96
575.82	61183.94
575.98	61176.92
576.14	61127.77
576.30	61130.11
576.46	60886.70
576.62	61038.83
576.79	61050.53
576.95	60842.23
577.11	61076.28
577.27	61071.60
577.43	61197.99
577.59	61078.62
577.75	61123.09
577.92	61099.68
578.08	60954.57
578.24	61020.11
578.40	61188.63
578.56	61399.27
578.72	61165.22
578.88	61240.12
579.04	61275.22
579.21	61197.99
579.37	61340.76
579.53	61366.51
579.69	61226.07
579.85	61415.66
580.01	61013.08
580.17	60952.23
580.33	61347.78
580.49	61048.19
580.65	61233.10
580.82	61202.67
580.98	61087.98
581.14	61041.17
581.30	61137.13
581.46	61179.26
581.62	61415.66
581.78	61109.05
581.94	61422.68
582.10	60912.44
582.26	61399.27
582.42	61202.67
582.58	61256.50
582.74	61085.64
582.90	61179.26
583.06	61162.88
583.22	61055.21
583.38	61188.63
583.54	61408.64
583.70	61382.89
583.86	61228.41
584.02	61071.60
584.18	61310.33
584.34	61448.42
584.50	61137.13
584.66	61130.11
584.82	61109.05
584.98	61354.80
585.14	61394.59
585.30	61329.06
585.46	61230.75
585.62	61298.63
585.78	61441.40
585.94	61345.44
586.10	61300.97
586.26	61394.59
586.42	61556.09
586.58	61183.94
586.74	61307.99
586.90	61315.01
587.06	61256.50
587.22	61497.58
587.38	61478.85
587.54	61581.84
587.70	61368.85
587.86	61396.93
588.02	61523.32
588.18	61619.28
588.34	61357.14
588.49	61305.65
