SpectraSuite Data File
++++++++++++++++++++++++++++++++++++
Date: Fri Oct 25 10:47:09 EDT 2013
User: price-jones
Dark Spectrum Present: No
Reference Spectrum Present: No
Number of Sampled Component Spectra: 1
Spectrometers: USB2+H05261
Integration Time (usec): 100000 (USB2+H05261)
Spectra Averaged: 1 (USB2+H05261)
Boxcar Smoothing: 0 (USB2+H05261)
Correct for Electrical Dark: No (USB2+H05261)
Strobe/Lamp Enabled: No (USB2+H05261)
Correct for Detector Non-linearity: No (USB2+H05261)
Correct for Stray Light: No (USB2+H05261)
Number of Pixels in Processed Spectrum: 2048
>>>>>Begin Processed Spectral Data<<<<<
365.73	88.94
365.92	88.94
366.12	88.94
366.32	112.35
366.52	37.45
366.72	77.24
366.91	67.88
367.11	81.92
367.31	2.34
367.51	0.00
367.70	56.17
367.90	44.47
368.10	51.49
368.30	70.22
368.49	0.00
368.69	95.96
368.89	95.96
369.09	110.01
369.28	11.70
369.48	0.00
369.68	53.83
369.87	105.32
370.07	58.51
370.27	177.88
370.47	161.50
370.66	334.70
370.86	425.98
371.06	418.96
371.25	468.11
371.45	425.98
371.65	505.56
371.84	409.59
372.04	414.27
372.24	433.00
372.44	505.56
372.63	486.83
372.83	535.98
373.03	517.26
373.22	482.15
373.42	411.93
373.62	482.15
373.81	493.85
374.01	571.09
374.21	575.77
374.40	550.03
374.60	578.11
374.79	531.30
374.99	564.07
375.19	564.07
375.38	519.60
375.58	575.77
375.78	561.73
375.97	531.30
376.17	582.79
376.37	631.94
376.56	610.88
376.76	512.58
376.95	592.16
377.15	620.24
377.35	688.12
377.54	596.84
377.74	613.22
377.93	538.32
378.13	596.84
378.33	608.54
378.52	608.54
378.72	594.50
378.91	648.33
379.11	671.73
379.31	596.84
379.50	566.41
379.70	650.67
379.89	629.60
380.09	685.78
380.28	627.26
380.48	667.05
380.68	638.97
380.87	629.60
381.07	631.94
381.26	601.52
381.46	585.13
381.65	674.07
381.85	692.80
382.04	657.69
382.24	613.22
382.43	678.76
382.63	596.84
382.83	706.84
383.02	711.52
383.22	660.03
383.41	657.69
383.61	606.20
383.80	777.06
384.00	645.99
384.19	713.86
384.39	774.72
384.58	791.10
384.78	695.14
384.97	727.91
385.17	699.82
385.36	702.16
385.56	805.14
385.75	781.74
385.95	772.38
386.14	788.76
386.34	748.97
386.53	751.31
386.72	765.36
386.92	781.74
387.11	819.19
387.31	833.23
387.50	748.97
387.70	767.70
387.89	795.78
388.09	837.91
388.28	854.30
388.48	744.29
388.67	847.27
388.86	884.72
389.06	844.93
389.25	840.25
389.45	835.57
389.64	807.48
389.84	896.43
390.03	870.68
390.22	887.06
390.42	840.25
390.61	791.10
390.81	931.53
391.00	959.62
391.19	915.15
391.39	950.26
391.58	1001.75
391.78	896.43
391.97	903.45
392.16	889.40
392.36	947.92
392.55	985.37
392.75	987.71
392.94	985.37
393.13	856.64
393.33	959.62
393.52	947.92
393.71	997.07
393.91	1046.22
394.10	1020.47
394.29	964.30
394.49	1001.75
394.68	1088.35
394.88	1025.15
395.07	1060.26
395.26	1090.69
395.46	1116.44
395.65	1090.69
395.84	1081.33
396.04	1109.41
396.23	1053.24
396.42	1142.18
396.62	1046.22
396.81	1146.86
397.00	1121.12
397.19	1210.06
397.39	1137.50
397.58	1207.72
397.77	1100.05
397.97	1238.14
398.16	1252.19
398.35	1277.93
398.55	1181.97
398.74	1338.79
398.93	1373.89
399.12	1259.21
399.32	1273.25
399.51	1270.91
399.70	1366.87
399.90	1334.11
400.09	1336.45
400.28	1329.42
400.47	1275.59
400.67	1357.51
400.86	1444.11
401.05	1387.94
401.24	1448.79
401.44	1444.11
401.63	1434.75
401.82	1441.77
402.01	1460.49
402.21	1434.75
402.40	1476.88
402.59	1495.60
402.78	1490.92
402.97	1556.46
403.17	1565.82
403.36	1444.11
403.55	1589.22
403.74	1652.42
403.93	1629.01
404.13	1689.87
404.32	1612.63
404.51	1668.80
404.70	1713.27
404.89	1643.06
405.09	1657.10
405.28	1605.61
405.47	1664.12
405.66	1682.85
405.85	1764.76
406.05	1802.21
406.24	1813.92
406.43	1802.21
406.62	1825.62
406.81	1776.47
407.00	1839.66
407.20	1804.55
407.39	1760.08
407.58	1790.51
407.77	1937.96
407.96	1827.96
408.15	1947.33
408.34	1813.92
408.54	1991.80
408.73	1921.58
408.92	1975.41
409.11	2040.95
409.30	2022.22
409.49	1973.07
409.68	2024.56
409.87	2031.58
410.07	2047.97
410.26	2078.40
410.45	2127.55
410.64	2083.08
410.83	2169.68
411.02	2246.91
411.21	2153.29
411.40	2218.83
411.59	2258.62
411.78	2200.10
411.98	2319.47
412.17	2382.67
412.36	2270.32
412.55	2284.36
412.74	2340.54
412.93	2450.54
413.12	2265.64
413.31	2457.56
413.50	2363.94
413.69	2483.31
413.88	2457.56
414.07	2605.02
414.26	2588.63
414.45	2637.78
414.64	2541.82
414.83	2551.18
415.02	2623.74
415.22	2658.85
415.41	2562.89
415.60	2700.98
415.79	2745.45
415.98	2747.79
416.17	2743.11
416.36	2801.62
416.55	2738.43
416.74	2789.92
416.93	2857.79
417.12	2932.69
417.31	2951.42
417.50	2960.78
417.69	2881.20
417.88	2904.60
418.07	2981.84
418.26	2974.82
418.45	3063.76
418.64	3234.62
418.83	3173.77
419.02	3180.79
419.21	3211.22
419.39	3173.77
419.58	3122.27
419.77	3105.89
419.96	3332.92
420.15	3176.11
420.34	3159.72
420.53	3304.84
420.72	3391.44
420.91	3246.32
421.10	3300.16
421.29	3499.10
421.48	3192.49
421.67	3316.54
421.86	3361.01
422.05	3396.12
422.24	3311.86
422.43	3283.77
422.61	3407.82
422.80	3471.01
422.99	3616.13
423.18	3459.31
423.37	3400.80
423.56	3632.51
423.75	3602.08
423.94	3421.86
424.13	3325.90
424.32	3372.71
424.50	3417.18
424.69	3564.64
424.88	3475.70
425.07	3459.31
425.26	3400.80
425.45	3515.48
425.64	3431.23
425.83	3503.78
426.01	3559.95
426.20	3644.21
426.39	3513.14
426.58	3550.59
426.77	3463.99
426.96	3637.19
427.15	3562.30
427.33	3529.53
427.52	3531.87
427.71	3548.25
427.90	3693.37
428.09	3772.94
428.28	3705.07
428.46	3702.73
428.65	3756.56
428.84	3749.54
429.03	3744.86
429.22	3789.33
429.40	3735.50
429.59	3733.15
429.78	3681.66
429.97	3538.89
430.16	3845.50
430.34	3754.22
430.53	3857.20
430.72	3749.54
430.91	3854.86
431.10	3960.19
431.28	3927.42
431.47	4091.26
431.66	4011.68
431.85	4021.04
432.03	4161.47
432.22	4126.36
432.41	4126.36
432.60	4292.54
432.79	4191.90
432.97	4227.01
433.16	4177.86
433.35	4049.13
433.54	4182.54
433.72	4215.30
433.91	4014.02
434.10	4128.70
434.28	4222.33
434.47	4390.84
434.66	4325.31
434.85	4264.46
435.03	4341.69
435.22	4393.19
435.41	4622.56
435.59	4304.25
435.78	4355.74
435.97	4486.81
436.16	4681.07
436.34	4606.17
436.53	4538.30
436.72	4521.92
436.90	4482.13
437.09	4552.34
437.28	4519.57
437.46	4512.55
437.65	4428.29
437.84	4709.16
438.02	4636.60
438.21	4676.39
438.40	4648.30
438.58	4770.01
438.77	4854.27
438.96	4823.84
439.14	4997.04
439.33	4917.47
439.52	5022.79
439.70	4898.74
439.89	4961.94
440.08	5135.14
440.26	5090.67
440.45	5121.09
440.63	5247.48
440.82	5294.29
441.01	5266.21
441.19	5324.72
441.38	5455.79
441.57	5298.97
441.75	5458.13
441.94	5324.72
442.12	5472.17
442.31	5540.05
442.50	5549.41
442.68	5591.54
442.87	5549.41
443.05	5570.48
443.24	5469.83
443.43	5617.29
443.61	5781.12
443.80	5839.64
443.98	5483.88
444.17	5493.24
444.35	5664.10
444.54	5652.39
444.73	5743.67
444.91	5877.09
445.10	5542.39
445.28	5764.74
445.47	5753.04
445.65	5614.95
445.84	5858.36
446.02	5750.70
446.21	5818.57
446.39	5621.97
446.58	5916.87
446.77	5802.19
446.95	5783.46
447.14	5849.00
447.32	6083.05
447.51	5863.04
447.69	5937.94
447.88	5902.83
448.06	5909.85
448.25	5923.90
448.43	5933.26
448.62	5898.15
448.80	5912.19
448.99	5837.30
449.17	5959.00
449.36	6146.25
449.54	6181.35
449.73	6195.40
449.91	6022.20
450.10	6286.68
450.28	6321.79
450.46	6401.37
450.65	6291.36
450.83	6389.66
451.02	6242.21
451.20	6204.76
451.39	6523.07
451.57	6399.02
451.76	6228.17
451.94	6527.75
452.13	6612.01
452.31	6539.46
452.49	6298.38
452.68	6361.58
452.86	6345.19
453.05	6307.74
453.23	6593.29
453.42	6553.50
453.60	6534.78
453.78	6663.51
453.97	6555.84
454.15	6590.95
454.34	6431.79
454.52	6630.74
454.70	6806.28
454.89	6740.74
455.07	6722.02
455.26	6810.96
455.44	6803.94
455.62	6637.76
455.81	6740.74
455.99	6902.24
456.17	6876.49
456.36	6977.14
456.54	6974.80
456.73	7030.97
456.91	7054.37
457.09	7087.14
457.28	7187.79
457.46	7021.61
457.64	7253.32
457.83	7101.19
458.01	7131.61
458.19	7353.96
458.38	7098.84
458.56	7197.15
458.74	7332.90
458.93	7227.57
459.11	7330.56
459.29	7349.28
459.48	7576.31
459.66	7265.02
459.84	7655.89
460.03	7550.57
460.21	7433.54
460.39	7468.65
460.57	7639.51
460.76	7520.14
460.94	7604.40
461.12	7627.81
461.31	7562.27
461.49	7473.33
461.67	7679.30
461.85	7730.79
462.04	7866.54
462.22	8226.98
462.40	7772.92
462.59	7964.84
462.77	7798.66
462.95	7850.16
463.13	7702.70
463.32	7875.90
463.50	7974.21
463.68	8203.58
463.86	7812.71
464.05	7812.71
464.23	7796.32
464.41	8051.44
464.59	7946.12
464.78	8245.71
464.96	8152.09
465.14	7999.95
465.32	8301.88
465.50	8222.30
465.69	8234.00
465.87	8348.69
466.05	8196.56
466.23	8229.32
466.41	8166.13
466.60	8320.60
466.78	8320.60
466.96	8135.70
467.14	8266.77
467.32	8334.65
467.51	8446.99
467.69	8243.37
467.87	8468.06
468.05	8470.40
468.23	8285.50
468.41	8379.12
468.60	8587.43
468.78	8636.58
468.96	8582.74
469.14	8416.57
469.32	8765.31
469.50	8547.64
469.69	8931.48
469.87	8889.35
470.05	8762.97
470.23	8894.04
470.41	8971.27
470.59	9036.81
470.77	8769.99
470.95	8910.42
471.14	9104.68
471.32	8933.82
471.50	9214.69
471.68	9226.39
471.86	8877.65
472.04	9132.77
472.22	9390.23
472.40	9327.03
472.58	9235.75
472.77	9399.59
472.95	9394.91
473.13	9481.51
473.31	9329.38
473.49	9336.40
473.67	9516.62
473.85	9474.49
474.03	9811.53
474.21	9764.72
474.39	9870.04
474.57	9900.47
474.75	9998.77
474.93	9879.40
475.12	9874.72
475.30	10087.71
475.48	10085.37
475.66	10029.20
475.84	10083.03
476.02	10193.03
476.20	10120.48
476.38	10516.03
476.56	10464.54
476.74	10593.26
476.92	10539.43
477.10	10452.83
477.28	10546.45
477.46	10920.94
477.64	10881.15
477.82	10977.11
478.00	11192.44
478.18	11110.52
478.36	11117.54
478.54	11098.82
478.72	11283.72
478.90	11384.37
479.08	11583.31
479.26	12011.63
479.44	11901.62
479.62	11700.34
479.80	11999.93
479.98	11969.50
480.16	12177.81
480.34	12074.82
480.52	12423.56
480.70	12250.36
480.88	12208.23
481.06	12503.14
481.24	12461.01
481.41	12659.96
481.59	12606.13
481.77	12748.90
481.95	13036.78
482.13	12844.86
482.31	13156.15
482.49	13380.84
482.67	13394.89
482.85	13432.33
483.03	13507.23
483.21	13654.69
483.39	13774.05
483.57	13762.35
483.74	13837.25
483.92	14195.35
484.10	13832.57
484.28	14225.78
484.46	14204.71
484.64	14710.27
484.82	14394.29
485.00	14455.15
485.18	14853.04
485.35	15288.38
485.53	14656.43
485.71	14867.08
485.89	15199.44
486.07	14949.00
486.25	15304.76
486.43	15356.25
486.61	15648.82
486.78	15737.76
486.96	15976.50
487.14	15927.35
487.32	15758.83
487.50	16109.91
487.68	16496.10
487.85	16521.84
488.03	16762.92
488.21	16842.50
488.39	16739.51
488.57	16601.42
488.75	17027.40
488.92	17226.34
489.10	17371.46
489.28	17731.90
489.46	17919.14
489.64	17998.72
489.81	18029.15
489.99	17994.04
490.17	18253.84
490.35	18253.84
490.53	18314.69
490.70	18696.20
490.88	18597.90
491.06	18988.77
491.24	18878.76
491.41	18696.20
491.59	18883.44
491.77	18874.08
491.95	19410.06
492.13	19314.10
492.30	19342.19
492.48	19950.73
492.66	19683.91
492.84	19782.21
493.01	20142.65
493.19	19957.75
493.37	20013.92
493.54	20276.06
493.72	20648.21
493.90	20395.43
494.08	20432.88
494.25	21186.53
494.43	20968.86
494.61	20870.56
494.79	20968.86
494.96	21179.51
495.14	21191.21
495.32	21673.36
495.49	21507.18
495.67	21509.52
495.85	21617.19
496.02	21876.99
496.20	21963.59
496.38	21958.91
496.55	22389.56
496.73	22525.32
496.91	22089.98
497.09	22661.07
497.26	22829.59
497.44	22513.61
497.62	22878.74
497.79	22967.68
497.97	22747.67
498.14	23367.91
498.32	23660.48
498.50	23311.74
498.67	23880.49
498.85	23545.79
499.03	23824.31
499.20	23784.52
499.38	24018.58
499.56	23920.28
499.73	24056.03
499.91	24159.01
500.08	24126.24
500.26	24170.71
500.44	24215.18
500.61	24299.44
500.79	24528.81
500.97	24336.89
501.14	24800.32
501.32	24884.58
501.49	24767.55
501.67	25017.99
501.84	25085.86
502.02	25167.78
502.20	25062.46
502.37	25429.92
502.55	25504.82
502.72	25689.72
502.90	25514.18
503.07	25598.44
503.25	25731.85
503.43	25528.22
503.60	25706.10
503.78	25961.22
503.95	25752.91
504.13	26036.12
504.30	26176.55
504.48	26253.79
504.65	26558.06
504.83	26623.59
505.01	26707.85
505.18	26518.27
505.36	26639.98
505.53	26934.88
505.71	27122.13
505.88	26993.40
506.06	26527.63
506.23	27143.19
506.41	27110.43
506.58	27344.48
506.76	27302.35
506.93	27496.61
507.11	27524.70
507.28	27470.87
507.46	27515.34
507.63	27733.01
507.81	28018.55
507.98	27503.64
508.16	27857.06
508.33	28357.93
508.50	28133.24
508.68	28360.27
508.85	28641.14
509.03	28208.14
509.20	28432.83
509.38	28807.31
509.55	28627.09
509.73	28545.17
509.90	29027.32
510.08	28725.39
510.25	29003.92
510.42	29027.32
510.60	28968.81
510.77	28980.51
510.95	29525.86
511.12	29530.54
511.30	29252.02
511.47	29715.44
511.64	29579.69
511.82	29673.31
511.99	29736.51
512.17	29898.00
512.34	30031.41
512.51	29954.18
512.69	30499.52
512.86	30071.20
513.04	30279.51
513.21	30567.40
513.38	29968.22
513.56	30221.00
513.73	29848.85
513.90	30405.90
514.08	30527.61
514.25	30909.11
514.43	30508.88
514.60	30998.06
514.77	30635.27
514.95	30991.03
515.12	30728.89
515.29	31281.26
515.47	31330.41
515.64	31585.53
515.81	31269.56
515.99	31033.16
516.16	31199.34
516.33	31307.01
516.51	31763.41
516.68	31302.32
516.85	31438.08
517.03	31391.26
517.20	31751.71
517.37	31861.71
517.54	31674.47
517.72	32044.27
517.89	31821.92
518.06	32020.87
518.24	31920.23
518.41	31903.84
518.58	32084.06
518.75	32226.84
518.93	32219.81
519.10	32561.53
519.27	32350.88
519.45	32552.17
519.62	32861.12
519.79	33097.52
519.96	32753.46
520.14	33027.30
520.31	33020.28
520.48	33053.05
520.65	33289.44
520.83	33717.76
521.00	33656.90
521.17	33170.07
521.34	33230.93
521.52	33537.54
521.69	33516.47
521.86	33684.99
522.03	33851.17
522.20	33897.98
522.38	34061.82
522.55	34022.03
522.72	34052.45
522.89	33331.57
523.07	34092.24
523.24	34033.73
523.41	33694.35
523.58	34199.91
523.75	34387.15
523.92	34071.18
524.10	34586.10
524.27	34740.57
524.44	34330.98
524.61	34632.91
524.78	35035.48
524.96	35189.95
525.13	34480.77
525.30	35030.80
525.47	34946.54
525.64	35035.48
525.81	35269.53
525.98	34733.55
526.16	34995.69
526.33	35276.55
526.50	35538.69
526.67	35133.78
526.84	35433.37
527.01	35126.76
527.18	35243.79
527.36	35583.16
527.53	35367.84
527.70	35990.42
527.87	36037.23
528.04	35679.13
528.21	36151.91
528.38	35779.77
528.55	36133.19
528.72	35857.01
528.89	36233.83
529.07	35826.58
529.24	35997.44
529.41	35988.08
529.58	35922.54
529.75	36105.10
529.92	36362.56
530.09	36566.19
530.26	36704.28
530.43	36357.88
530.60	36297.03
530.77	36648.11
530.94	36694.92
531.11	36692.58
531.28	36765.14
531.46	36938.33
531.63	37060.04
531.80	36961.74
531.97	36690.24
532.14	36870.46
532.31	36781.52
532.48	37326.86
532.65	37198.13
532.82	37057.70
532.99	37113.87
533.16	37228.56
533.33	37251.97
533.50	37488.36
533.67	37521.13
533.84	37591.34
534.01	37556.24
534.18	37455.59
534.35	37855.82
534.52	37537.51
534.69	38029.02
534.86	37851.14
535.03	37518.79
535.20	37888.59
535.37	38258.40
535.54	38068.81
535.71	38258.40
535.88	37982.21
536.05	37762.20
536.22	38352.02
536.38	38195.20
536.55	38433.94
536.72	38061.79
536.89	37706.03
537.06	38529.90
537.23	38218.61
537.40	38256.06
537.57	38602.46
537.74	38686.71
537.91	38534.58
538.08	38925.45
538.25	38646.93
538.42	38361.38
538.59	39009.71
538.75	38588.41
538.92	38672.67
539.09	39129.08
539.26	38679.69
539.43	38974.60
539.60	38696.08
539.77	38665.65
539.94	39012.05
540.11	38958.22
540.28	39147.80
540.44	39232.06
540.61	39030.77
540.78	38986.30
540.95	39346.75
541.12	38880.98
541.29	38962.90
541.46	39339.72
541.62	39810.17
541.79	39517.60
541.96	39084.61
542.13	39761.02
542.30	39943.58
542.47	39157.16
542.63	39510.58
542.80	39838.26
542.97	40250.19
543.14	39845.28
543.31	40376.58
543.48	40069.97
543.64	40474.88
543.81	40484.25
543.98	40301.68
544.15	39995.07
544.32	40357.86
544.48	40980.44
544.65	40467.86
544.82	40407.01
544.99	40238.49
545.16	40322.75
545.32	40299.34
545.49	40708.94
545.66	40701.92
545.83	40561.48
546.00	41097.47
546.16	40985.12
546.33	40416.37
546.50	40271.26
546.67	40854.05
546.83	40046.57
547.00	40893.84
547.17	40706.60
547.34	40893.84
547.50	40987.46
547.67	40830.65
547.84	41001.50
548.00	41139.60
548.17	41221.52
548.34	41235.56
548.51	41469.61
548.67	41453.23
548.84	41619.41
549.01	41186.41
549.18	41017.89
549.34	41605.36
549.51	41380.67
549.68	41542.17
549.84	41673.24
550.01	41816.01
550.18	41593.66
550.34	42120.28
550.51	41727.07
550.68	41703.67
550.84	41312.80
551.01	42085.17
551.18	41619.41
551.34	41834.74
551.51	41935.38
551.68	42230.29
551.84	41837.08
552.01	42160.07
552.18	41853.46
552.34	41911.97
552.51	42450.30
552.68	42286.46
552.84	42234.97
553.01	42263.05
553.18	42202.20
553.34	42302.84
553.51	41876.86
553.67	41993.89
553.84	42602.43
554.01	42562.64
554.17	42553.28
554.34	42403.49
554.51	42595.41
554.67	42705.41
554.84	42548.60
555.00	42831.80
555.17	42110.92
555.33	42651.58
555.50	42286.46
555.67	42710.10
555.83	42696.05
556.00	42749.88
556.16	42745.20
556.33	43030.75
556.50	42749.88
556.66	42780.31
556.83	42497.11
556.99	43026.07
557.16	43164.16
557.32	42923.08
557.49	43009.68
557.65	42981.60
557.82	42808.40
557.98	42880.95
558.15	42920.74
558.32	43079.90
558.48	43063.52
558.65	42960.53
558.81	42590.73
558.98	43484.81
559.14	42780.31
559.31	42756.91
559.47	43119.69
559.64	43033.09
559.80	42822.44
559.97	43079.90
560.13	43124.37
560.30	42918.40
560.46	43189.91
560.63	43597.16
560.79	42937.13
560.96	43210.97
561.12	42752.23
561.29	43412.26
561.45	43328.00
561.61	42948.83
561.78	43306.93
561.94	43470.77
562.11	43505.88
562.27	43569.07
562.44	43398.21
562.60	43826.53
562.77	43555.03
562.93	43667.37
563.10	43557.37
563.26	43297.57
563.42	43550.35
563.59	43426.30
563.75	43665.03
563.92	43737.59
564.08	43328.00
564.24	43768.02
564.41	43718.87
564.57	43817.17
564.74	43697.80
564.90	43777.38
565.07	43622.90
565.23	43337.36
565.39	43646.31
565.56	43454.39
565.72	43379.49
565.88	43569.07
566.05	43501.20
566.21	43093.94
566.38	43618.22
566.54	43927.17
566.70	43835.89
566.87	43807.81
567.03	43496.52
567.19	44128.46
567.36	44016.11
567.52	43627.59
567.68	43856.96
567.85	43484.81
568.01	43875.68
568.17	43976.33
568.34	44046.54
568.50	43718.87
568.66	43922.49
568.83	43964.62
568.99	44083.99
569.15	43812.49
569.32	43969.30
569.48	44074.63
569.64	44161.23
569.81	44098.03
569.97	44095.69
570.13	43934.20
570.30	44041.86
570.46	43658.01
570.62	43929.51
570.78	44102.71
570.95	43569.07
571.11	43952.92
571.27	44294.64
571.43	44184.63
571.60	44467.84
571.76	44226.76
571.92	44067.61
572.09	44229.10
572.25	44177.61
572.41	43777.38
572.57	44109.74
572.74	44851.69
572.90	43995.05
573.06	44076.97
573.22	43985.69
573.38	43845.26
573.55	44020.80
573.71	44561.46
573.87	44634.02
574.03	43636.95
574.20	44018.46
574.36	43742.27
574.52	44605.93
574.68	44123.78
574.84	44238.47
575.01	44619.97
575.17	44039.52
575.33	44116.76
575.49	43957.60
575.65	44559.12
575.82	44673.81
575.98	44086.33
576.14	44222.08
576.30	44385.92
576.46	44198.68
576.62	44140.16
576.79	43992.71
576.95	44261.87
577.11	44306.34
577.27	44278.25
577.43	44802.53
577.59	44652.74
577.75	44266.55
577.92	43723.55
578.08	44086.33
578.24	44149.53
578.40	44156.55
578.56	44769.77
578.72	44781.47
578.88	44554.44
579.04	44650.40
579.21	44404.64
579.37	44116.76
579.53	44231.44
579.69	43800.79
579.85	44500.61
580.01	44456.14
580.17	44821.26
580.33	44399.96
580.49	44842.32
580.65	44631.68
580.82	44554.44
580.98	44748.70
581.14	44039.52
581.30	44594.23
581.46	44406.98
581.62	44575.50
581.78	44254.85
581.94	44711.25
582.10	43927.17
582.26	44495.92
582.42	44219.74
582.58	44451.45
582.74	44568.48
582.90	44175.27
583.06	44744.02
583.22	44605.93
583.38	44978.07
583.54	44301.66
583.70	44416.35
583.86	44268.89
584.02	43950.58
584.18	44547.42
584.34	44313.36
584.50	44287.62
584.66	44409.32
584.82	44212.72
584.98	44589.55
585.14	44549.76
585.30	44509.97
585.46	44498.26
585.62	44491.24
585.78	44392.94
585.94	44381.24
586.10	43875.68
586.26	43723.55
586.42	44062.93
586.58	44634.02
586.74	44453.79
586.90	44484.22
587.06	44395.28
587.22	44484.22
587.38	44472.52
587.54	44463.16
587.70	44720.62
587.86	44952.33
588.02	44367.20
588.18	44762.75
588.34	44839.98
588.49	44376.56
588.65	44418.69
588.81	43796.10
588.97	44444.43
589.13	44451.45
589.29	44533.37
589.45	44411.67
589.61	44622.31
589.77	44940.63
589.93	45031.91
590.08	44898.50
590.24	44917.22
590.40	44994.46
