SpectraSuite Data File
++++++++++++++++++++++++++++++++++++
Date: Fri Oct 25 10:48:10 EDT 2013
User: price-jones
Dark Spectrum Present: No
Reference Spectrum Present: No
Number of Sampled Component Spectra: 1
Spectrometers: USB2+H05261
Integration Time (usec): 100000 (USB2+H05261)
Spectra Averaged: 1 (USB2+H05261)
Boxcar Smoothing: 0 (USB2+H05261)
Correct for Electrical Dark: No (USB2+H05261)
Strobe/Lamp Enabled: No (USB2+H05261)
Correct for Detector Non-linearity: No (USB2+H05261)
Correct for Stray Light: No (USB2+H05261)
Number of Pixels in Processed Spectrum: 2048
>>>>>Begin Processed Spectral Data<<<<<
365.73	194.26
365.92	194.26
366.12	194.26
366.32	93.62
366.52	0.00
366.72	81.92
366.91	0.00
367.11	58.51
367.31	77.24
367.51	51.49
367.70	0.00
367.90	84.26
368.10	58.51
368.30	128.73
368.49	7.02
368.69	51.49
368.89	102.98
369.09	114.69
369.28	86.60
369.48	53.83
369.68	117.03
369.87	142.77
370.07	133.41
370.27	128.73
370.47	168.52
370.66	397.89
370.86	433.00
371.06	407.25
371.25	472.79
371.45	493.85
371.65	486.83
371.84	416.62
372.04	444.70
372.24	465.77
372.44	425.98
372.63	521.94
372.83	547.69
373.03	486.83
373.22	531.30
373.42	503.22
373.62	543.00
373.81	521.94
374.01	517.26
374.21	468.11
374.40	512.58
374.60	512.58
374.79	554.71
374.99	543.00
375.19	645.99
375.38	557.05
375.58	566.41
375.78	678.76
375.97	603.86
376.17	608.54
376.37	613.22
376.56	608.54
376.76	674.07
376.95	603.86
377.15	601.52
377.35	540.66
377.54	610.88
377.74	613.22
377.93	634.29
378.13	624.92
378.33	603.86
378.52	603.86
378.72	655.35
378.91	727.91
379.11	678.76
379.31	573.43
379.50	575.77
379.70	610.88
379.89	638.97
380.09	568.75
380.28	610.88
380.48	681.10
380.68	676.41
380.87	629.60
381.07	669.39
381.26	685.78
381.46	596.84
381.65	690.46
381.85	664.71
382.04	734.93
382.24	690.46
382.43	669.39
382.63	699.82
382.83	685.78
383.02	777.06
383.22	784.08
383.41	727.91
383.61	653.01
383.80	798.12
384.00	704.50
384.19	683.44
384.39	751.31
384.58	718.54
384.78	816.85
384.97	786.42
385.17	741.95
385.36	716.20
385.56	692.80
385.75	702.16
385.95	748.97
386.14	741.95
386.34	734.93
386.53	748.97
386.72	755.99
386.92	821.53
387.11	758.33
387.31	741.95
387.50	837.91
387.70	812.17
387.89	847.27
388.09	807.48
388.28	870.68
388.48	842.59
388.67	889.40
388.86	903.45
389.06	938.55
389.25	835.57
389.45	833.23
389.64	933.87
389.84	966.64
390.03	877.70
390.22	884.72
390.42	828.55
390.61	943.24
390.81	945.58
391.00	968.98
391.19	1041.54
391.39	919.83
391.58	964.30
391.78	1013.45
391.97	999.41
392.16	997.07
392.36	1027.50
392.55	1020.47
392.75	1053.24
392.94	968.98
393.13	1008.77
393.33	1008.77
393.52	990.05
393.71	870.68
393.91	1069.62
394.10	1015.79
394.29	1086.01
394.49	1050.90
394.68	1107.07
394.88	1132.82
395.07	1149.20
395.26	1060.26
395.46	1146.86
395.65	1174.95
395.84	1139.84
396.04	1081.33
396.23	1088.35
396.42	1041.54
396.62	1139.84
396.81	1142.18
397.00	1181.97
397.19	1170.27
397.39	1128.14
397.58	1165.59
397.77	1249.85
397.97	1280.27
398.16	1289.64
398.35	1284.95
398.55	1277.93
398.74	1380.92
398.93	1329.42
399.12	1322.40
399.32	1277.93
399.51	1287.29
399.70	1355.17
399.90	1392.62
400.09	1359.85
400.28	1439.43
400.47	1423.05
400.67	1406.66
400.86	1430.07
401.05	1423.05
401.24	1324.74
401.44	1362.19
401.63	1547.09
401.82	1418.36
402.01	1418.36
402.21	1453.47
402.40	1519.01
402.59	1570.50
402.78	1444.11
402.97	1568.16
403.17	1563.48
403.36	1607.95
403.55	1621.99
403.74	1603.27
403.93	1600.93
404.13	1645.40
404.32	1717.95
404.51	1640.72
404.70	1741.36
404.89	1621.99
405.09	1755.40
405.28	1799.87
405.47	1668.80
405.66	1753.06
405.85	1689.87
406.05	1713.27
406.24	1736.68
406.43	1785.83
406.62	1825.62
406.81	1776.47
407.00	1825.62
407.20	1769.44
407.39	1867.75
407.58	1823.28
407.77	1893.49
407.96	1867.75
408.15	1944.99
408.34	1954.35
408.54	2017.54
408.73	2001.16
408.92	1952.01
409.11	2069.03
409.30	1954.35
409.49	1998.82
409.68	2087.76
409.87	1987.11
410.07	2174.36
410.26	2059.67
410.45	2092.44
410.64	2076.06
410.83	2057.33
411.02	2242.23
411.21	2148.61
411.40	2303.09
411.59	2310.11
411.78	2368.62
411.98	2338.20
412.17	2249.25
412.36	2408.41
412.55	2361.60
412.74	2445.86
412.93	2415.43
413.12	2387.35
413.31	2532.46
413.50	2377.98
413.69	2518.42
413.88	2630.76
414.07	2537.14
414.26	2541.82
414.45	2534.80
414.64	2626.08
414.83	2595.65
415.02	2670.55
415.22	2689.28
415.41	2708.00
415.60	2780.56
415.79	2813.32
415.98	2874.18
416.17	2843.75
416.36	2794.60
416.55	2806.30
416.74	2904.60
416.93	2897.58
417.12	3016.95
417.31	3014.61
417.50	2888.22
417.69	3112.91
417.88	3098.87
418.07	3159.72
418.26	2984.18
418.45	3068.44
418.64	3169.09
418.83	3103.55
419.02	3157.38
419.21	3236.96
419.39	3192.49
419.58	3133.98
419.77	3110.57
419.96	3143.34
420.15	3239.30
420.34	3166.74
420.53	3342.28
420.72	3377.39
420.91	3316.54
421.10	3363.35
421.29	3478.04
421.48	3452.29
421.67	3442.93
421.86	3290.79
422.05	3431.23
422.24	3288.45
422.43	3459.31
422.61	3503.78
422.80	3384.41
422.99	3442.93
423.18	3466.33
423.37	3562.30
423.56	3503.78
423.75	3569.32
423.94	3478.04
424.13	3192.49
424.32	3358.67
424.50	3466.33
424.69	3571.66
424.88	3480.38
425.07	3344.63
425.26	3229.94
425.45	3583.36
425.64	3421.86
425.83	3522.51
426.01	3555.27
426.20	3534.21
426.39	3613.79
426.58	3557.61
426.77	3435.91
426.96	3644.21
427.15	3616.13
427.33	3691.02
427.52	3499.10
427.71	3637.19
427.90	3599.74
428.09	3618.47
428.28	3772.94
428.46	3852.52
428.65	3721.45
428.84	3803.37
429.03	3831.46
429.22	3613.79
429.40	3782.31
429.59	3700.39
429.78	3590.38
429.97	3541.23
430.16	3693.37
430.34	3859.54
430.53	3857.20
430.72	3845.50
430.91	3789.33
431.10	3847.84
431.28	3992.95
431.47	4025.72
431.66	4114.66
431.85	4021.04
432.03	4088.92
432.22	4215.30
432.41	4039.76
432.60	4168.49
432.79	4219.99
432.97	4217.65
433.16	4266.80
433.35	4219.99
433.54	4180.20
433.72	4299.56
433.91	4011.68
434.10	4285.52
434.28	4142.75
434.47	4208.28
434.66	4348.72
434.85	4313.61
435.03	4255.09
435.22	4585.11
435.41	4592.13
435.59	4535.96
435.78	4538.30
435.97	4660.01
436.16	4554.68
436.34	4479.79
436.53	4498.51
436.72	4744.27
436.90	4617.88
437.09	4678.73
437.28	4578.09
437.46	4641.28
437.65	4669.37
437.84	4627.24
438.02	4662.35
438.21	4622.56
438.40	4638.94
438.58	4847.25
438.77	4753.63
438.96	4851.93
439.14	5111.73
439.33	5093.01
439.52	4926.83
439.70	5062.58
439.89	4952.57
440.08	5132.79
440.26	5186.63
440.45	5128.11
440.63	5214.71
440.82	5359.83
441.01	5261.52
441.19	5277.91
441.38	5308.34
441.57	5327.06
441.75	5298.97
441.94	5689.84
442.12	5582.18
442.31	5694.52
442.50	5533.03
442.68	5425.36
442.87	5579.84
443.05	5575.16
443.24	5830.27
443.43	5589.20
443.61	5940.28
443.80	5839.64
443.98	5565.79
444.17	5504.94
444.35	5757.72
444.54	5886.45
444.73	5846.66
444.91	5643.03
445.10	5743.67
445.28	5731.97
445.47	5767.08
445.65	5696.86
445.84	5769.42
446.02	5961.34
446.21	5797.51
446.39	5680.48
446.58	5919.21
446.77	5914.53
446.95	5867.72
447.14	5921.56
447.32	6061.99
447.51	5750.70
447.69	5858.36
447.88	5947.30
448.06	5959.00
448.25	5895.81
448.43	6050.28
448.62	6036.24
448.80	5905.17
448.99	6090.07
449.17	6094.76
449.36	6076.03
449.54	6284.34
449.73	6167.31
449.91	6183.70
450.10	6368.60
450.28	6333.49
450.46	6279.66
450.65	6417.75
450.83	6441.15
451.02	6263.27
451.20	6441.15
451.39	6293.70
451.57	6293.70
451.76	6289.02
451.94	6516.05
452.13	6717.34
452.31	6403.71
452.49	6399.02
452.68	6298.38
452.86	6399.02
453.05	6518.39
453.23	6569.88
453.42	6406.05
453.60	6516.05
453.78	6658.82
453.97	6548.82
454.15	6539.46
454.34	6532.44
454.52	6579.25
454.70	6527.75
454.89	6558.18
455.07	6768.83
455.26	6747.76
455.44	7059.06
455.62	6745.42
455.81	6867.13
455.99	7037.99
456.17	6871.81
456.36	7000.54
456.54	7169.06
456.73	7152.68
456.91	7269.70
457.09	7110.55
457.28	7220.55
457.46	7019.27
457.64	7211.19
457.83	7171.40
458.01	7049.69
458.19	7157.36
458.38	7267.36
458.56	7309.49
458.74	7302.47
458.93	7283.75
459.11	7478.01
459.29	7372.69
459.48	7461.63
459.66	7396.09
459.84	7435.88
460.03	7508.44
460.21	7482.69
460.39	7419.50
460.57	7510.78
460.76	7536.52
460.94	7543.55
461.12	7665.25
461.31	7779.94
461.49	7763.56
461.67	7672.28
461.85	7967.18
462.04	7606.74
462.22	8255.07
462.40	8009.31
462.59	7892.29
462.77	7838.45
462.95	8053.78
463.13	7969.52
463.32	8053.78
463.50	8067.83
463.68	7896.97
463.86	8294.86
464.05	7948.46
464.23	8116.98
464.41	8189.53
464.59	8009.31
464.78	8168.47
464.96	8156.77
465.14	8053.78
465.32	8315.92
465.50	8269.11
465.69	8404.86
465.87	8210.60
466.05	8234.00
466.23	8126.34
466.41	8266.77
466.60	8451.67
466.78	8088.89
466.96	8201.24
467.14	8175.49
467.32	8369.76
467.51	8802.75
467.69	8065.49
467.87	8554.66
468.05	8542.96
468.23	8444.65
468.41	8528.91
468.60	8582.74
468.78	8566.36
468.96	8400.18
469.14	8617.85
469.32	8814.46
469.50	8465.72
469.69	8758.28
469.87	8585.08
470.05	8730.20
470.23	8774.67
470.41	8861.27
470.59	9046.17
470.77	8961.91
470.95	8863.61
471.14	9282.56
471.32	9076.60
471.50	9062.55
471.68	9008.72
471.86	9195.96
472.04	9144.47
472.22	9221.71
472.40	9142.13
472.58	9343.42
472.77	9479.17
472.95	9430.02
473.13	9745.99
473.31	9327.03
473.49	9556.41
473.67	9455.76
473.85	9647.69
474.03	9895.78
474.21	9867.70
474.39	9884.08
474.57	9958.98
474.75	10129.84
474.93	9954.30
475.12	10169.63
475.30	10251.55
475.48	10099.41
475.66	10230.48
475.84	10134.52
476.02	10363.89
476.20	10298.36
476.38	10258.57
476.56	10494.96
476.74	10635.39
476.92	10555.82
477.10	10712.63
477.28	10665.82
477.46	10860.09
477.64	10942.00
477.82	11009.88
478.00	11112.86
478.18	10974.77
478.36	11302.45
478.54	11433.52
478.72	11702.68
478.90	11524.80
479.08	11728.42
479.26	11709.70
479.44	11903.96
479.62	11740.13
479.80	12049.08
479.98	12166.10
480.16	12374.41
480.34	12091.21
480.52	12404.84
480.70	12477.40
480.88	12365.05
481.06	12475.06
481.24	12341.64
481.41	12676.34
481.59	12943.16
481.77	12978.27
481.95	12872.95
482.13	13193.60
482.31	13130.41
482.49	13490.85
482.67	13385.52
482.85	13399.57
483.03	13542.34
483.21	13750.65
483.39	13975.34
483.57	13633.62
483.74	14141.52
483.92	14017.47
484.10	14134.50
484.28	14345.14
484.46	14590.90
484.64	14537.07
484.82	14574.52
485.00	14548.77
485.18	14796.87
485.35	14902.19
485.53	14796.87
485.71	14761.76
485.89	15309.44
486.07	15241.57
486.25	15290.72
486.43	15367.96
486.61	15747.12
486.78	15674.57
486.96	15686.27
487.14	16341.62
487.32	16114.59
487.50	16191.83
487.68	16547.59
487.85	16573.33
488.03	16863.56
488.21	16915.05
488.39	16889.31
488.57	17242.73
488.75	17233.36
488.92	17270.81
489.10	17635.94
489.28	17717.86
489.46	17860.63
489.64	17776.37
489.81	18171.92
489.99	18277.24
490.17	18132.13
490.35	18654.07
490.53	18469.17
490.70	18663.43
490.88	18614.28
491.06	18923.23
491.24	18946.64
491.41	18902.17
491.59	19178.35
491.77	18878.76
491.95	19356.23
492.13	19463.90
492.30	19857.10
492.48	19800.93
492.66	19510.71
492.84	19953.07
493.01	20107.54
493.19	20077.12
493.37	20161.37
493.54	20318.19
493.72	20669.27
493.90	20643.52
494.08	20769.91
494.25	21022.69
494.43	21188.87
494.61	21266.11
494.79	21139.72
494.96	21158.44
495.14	21432.29
495.32	21551.65
495.49	21687.40
495.67	21937.84
495.85	21802.09
496.02	21862.94
496.20	22345.09
496.38	22471.48
496.55	22202.32
496.73	22555.74
496.91	22555.74
497.09	22661.07
497.26	22785.12
497.44	22738.30
497.62	23145.56
497.79	23417.06
497.97	23021.51
498.14	23379.61
498.32	23447.49
498.50	23351.52
498.67	23765.80
498.85	23859.42
499.03	24016.24
499.20	24100.50
499.38	24189.44
499.56	24170.71
499.73	23880.49
499.91	24315.83
500.08	24533.50
500.26	24301.78
500.44	24545.20
500.61	24367.32
500.79	24285.40
500.97	24774.57
501.14	25397.15
501.32	25113.95
501.49	25003.94
501.67	25252.04
501.84	25249.70
502.02	25245.02
502.20	25397.15
502.37	25488.43
502.55	25532.90
502.72	25577.37
502.90	25528.22
503.07	25242.68
503.25	25886.32
503.43	25837.17
503.60	25968.24
503.78	26211.66
503.95	26087.61
504.13	26017.40
504.30	26384.86
504.48	26080.59
504.65	26703.17
504.83	26668.06
505.01	26906.80
505.18	26749.98
505.36	27007.44
505.53	26654.02
505.71	27129.15
505.88	27194.68
506.06	27243.84
506.23	26941.91
506.41	27260.22
506.58	27360.86
506.76	27393.63
506.93	27639.39
507.11	27267.24
507.28	27730.67
507.46	27536.40
507.63	27971.74
507.81	27978.76
507.98	27960.04
508.16	27800.88
508.33	28247.93
508.50	28397.72
508.68	28173.03
508.85	28697.31
509.03	28343.89
509.20	28552.20
509.38	28678.58
509.55	29165.42
509.73	28772.21
509.90	28851.78
510.08	29001.58
510.25	28945.41
510.42	29184.14
510.60	29156.05
510.77	29347.98
510.95	29528.20
511.12	29223.93
511.30	29720.12
511.47	29795.02
511.64	29490.75
511.82	29919.07
511.99	29804.38
512.17	29993.97
512.34	29535.22
512.51	29998.65
512.69	30333.34
512.86	30394.20
513.04	30204.61
513.21	30672.72
513.38	30597.82
513.56	30529.95
513.73	30422.28
513.90	30923.16
514.08	30511.22
514.25	30522.93
514.43	30759.32
514.60	30691.44
514.77	31058.91
514.95	31622.98
515.12	31037.84
515.29	31173.60
515.47	31522.34
515.64	31431.05
515.81	31393.61
515.99	31428.71
516.16	31452.12
516.33	31475.52
516.51	31374.88
516.68	31545.74
516.85	31538.72
517.03	31604.25
517.20	31800.86
517.37	32030.23
517.54	32034.91
517.72	32135.56
517.89	32100.45
518.06	31960.02
518.24	31728.30
518.41	32329.82
518.58	31826.60
518.75	32044.27
518.93	32772.18
519.10	32730.05
519.27	32671.54
519.45	32673.88
519.62	32549.83
519.79	32694.94
519.96	33083.47
520.14	32865.80
520.31	32989.85
520.48	33118.58
520.65	32982.83
520.83	33422.85
521.00	33603.07
521.17	33081.13
521.34	33387.74
521.52	33701.37
521.69	33553.92
521.86	33776.27
522.03	33930.75
522.20	33745.84
522.38	34136.71
522.55	34213.95
522.72	34242.04
522.89	33893.30
523.07	34321.62
523.24	33722.44
523.41	33890.96
523.58	34204.59
523.75	34768.66
523.92	34235.02
524.10	34850.58
524.27	35026.12
524.44	34740.57
524.61	34408.22
524.78	34656.31
524.96	34885.68
525.13	34904.41
525.30	35370.18
525.47	35391.24
525.64	35337.41
525.81	35470.82
525.98	35412.31
526.16	34857.60
526.33	35009.73
526.50	35323.36
526.67	35164.21
526.84	35051.86
527.01	35241.45
527.18	35494.22
527.36	35519.97
527.53	35620.61
527.70	36154.26
527.87	35784.45
528.04	35632.32
528.21	36044.25
528.38	35704.87
528.55	36278.30
528.72	35992.76
528.89	36446.82
529.07	36311.07
529.24	36205.75
529.41	36409.37
529.58	36517.04
529.75	35913.18
529.92	36503.00
530.09	36547.47
530.26	37163.03
530.43	36451.50
530.60	36222.13
530.77	36907.91
530.94	36634.06
531.11	36549.81
531.28	36486.61
531.46	37357.29
531.63	37060.04
531.80	37060.04
531.97	36816.63
532.14	36957.06
532.31	37148.98
532.48	37266.01
532.65	37401.76
532.82	37247.29
532.99	37642.84
533.16	37102.17
533.33	37270.69
533.50	37855.82
533.67	37338.57
533.84	37336.23
534.01	37675.60
534.18	37675.60
534.35	38363.72
534.52	37720.07
534.69	37703.69
534.86	37954.13
535.03	37968.17
535.20	38040.73
535.37	38319.25
535.54	38075.84
535.71	38199.88
535.88	37972.85
536.05	37940.08
536.22	38178.82
536.38	38110.94
536.55	38120.31
536.72	38333.29
536.89	38110.94
537.06	38007.96
537.23	38330.95
537.40	38426.92
537.57	38476.07
537.74	38455.00
537.91	39222.70
538.08	39037.80
538.25	38572.03
538.42	38754.59
538.59	38731.18
538.75	39100.99
538.92	39157.16
539.09	38948.85
539.26	39276.53
539.43	39295.25
539.60	38990.98
539.77	39023.75
539.94	39358.45
540.11	39049.50
540.28	38880.98
540.44	38986.30
540.61	38810.76
540.78	39365.47
540.95	39468.45
541.12	39222.70
541.29	39035.45
541.46	38983.96
541.62	39473.13
541.79	39906.13
541.96	38983.96
542.13	39505.90
542.30	39655.70
542.47	40039.54
542.63	39351.43
542.80	40144.87
542.97	40247.85
543.14	40442.12
543.31	40432.75
543.48	40161.25
543.64	40835.33
543.81	40439.78
543.98	40285.30
544.15	40603.61
544.32	40329.77
544.48	40842.35
544.65	40203.38
544.82	40142.53
544.99	40114.44
545.16	40858.73
545.32	40835.33
545.49	41390.03
545.66	41062.36
545.83	40533.40
546.00	41249.60
546.16	41141.94
546.33	40758.09
546.50	40318.07
546.67	41001.50
546.83	40528.72
547.00	41071.72
547.17	40980.44
547.34	40811.92
547.50	41099.81
547.67	41017.89
547.84	41088.10
548.00	41581.96
548.17	41521.10
548.34	41553.87
548.51	42106.24
548.67	41516.42
548.84	41771.54
549.01	41593.66
549.18	41471.95
549.34	41867.50
549.51	41724.73
549.68	41600.68
549.84	41811.33
550.01	42106.24
550.18	41507.06
550.34	41680.26
550.51	41715.37
550.68	41581.96
550.84	41560.89
551.01	42045.38
551.18	41911.97
551.34	42092.19
551.51	41745.80
551.68	41872.18
551.84	42281.78
552.01	41752.82
552.18	41928.36
552.34	41766.86
552.51	42064.11
552.68	42183.48
552.84	42581.37
553.01	42316.89
553.18	42120.28
553.34	41846.44
553.51	42029.00
553.67	42328.59
553.84	42380.08
554.01	42319.23
554.17	42604.77
554.34	42857.55
554.51	42464.34
554.67	43005.00
554.84	42693.71
555.00	42691.37
555.17	42616.47
555.33	42693.71
555.50	42256.03
555.67	42780.31
555.83	43026.07
556.00	42763.93
556.16	43164.16
556.33	42974.58
556.50	42951.17
556.66	42866.91
556.83	42190.50
556.99	42792.01
557.16	42902.02
557.32	43243.74
557.49	43054.15
557.65	42906.70
557.82	42614.13
557.98	42988.62
558.15	43107.99
558.32	42857.55
558.48	43021.39
558.65	43187.56
558.81	43035.43
558.98	42887.98
559.14	42880.95
559.31	43051.81
559.47	43304.59
559.64	43672.06
559.80	43669.72
559.97	43320.98
560.13	43147.78
560.30	42951.17
560.46	43646.31
560.63	43276.51
560.79	43487.15
560.96	43241.40
561.12	43208.63
561.29	43536.30
561.45	43496.52
561.61	43510.56
561.78	43393.53
561.94	43260.12
562.11	43150.12
562.27	43784.40
562.44	43232.04
562.60	43501.20
562.77	43746.95
562.93	43606.52
563.10	43391.19
563.26	43475.45
563.42	43922.49
563.59	43515.24
563.75	43711.84
563.92	43674.40
564.08	43943.56
564.24	44114.42
564.41	43943.56
564.57	43573.75
564.74	43751.63
564.90	43924.83
565.07	44072.29
565.23	43681.42
565.39	44016.11
565.56	43669.72
565.72	43660.35
565.88	44002.07
566.05	43810.15
566.21	43842.92
566.38	43430.98
566.54	43597.16
566.70	44037.18
566.87	44481.88
567.03	43538.65
567.19	44451.45
567.36	44072.29
567.52	43674.40
567.68	43882.70
567.85	44091.01
568.01	43861.64
568.17	44088.67
568.34	44055.90
568.50	43826.53
568.66	43922.49
568.83	43849.94
568.99	43489.49
569.15	43622.90
569.32	43878.02
569.48	43789.08
569.64	44397.62
569.81	44191.65
569.97	43931.86
570.13	44397.62
570.30	44023.14
570.46	43763.34
570.62	43709.50
570.78	43753.97
570.95	44034.84
571.11	44112.08
571.27	44002.07
571.43	44217.40
571.60	44119.10
571.76	43751.63
571.92	44032.50
572.09	44425.71
572.25	43882.70
572.41	44257.19
572.57	44037.18
572.74	44545.08
572.90	44266.55
573.06	44194.00
573.22	43887.39
573.38	44009.09
573.55	43924.83
573.71	44397.62
573.87	44296.98
574.03	43908.45
574.20	44540.39
574.36	44390.60
574.52	44559.12
574.68	44610.61
574.84	44158.89
575.01	44250.17
575.17	44727.64
575.33	44018.46
575.49	44135.48
575.65	44444.43
575.82	44776.79
575.98	44280.60
576.14	44280.60
576.30	44699.55
576.46	43997.39
576.62	44622.31
576.79	44371.88
576.95	43753.97
577.11	44301.66
577.27	44734.66
577.43	44100.37
577.59	44385.92
577.75	43962.28
577.92	43906.11
578.08	44048.88
578.24	43964.62
578.40	44027.82
578.56	44168.25
578.72	44849.35
578.88	44779.13
579.04	44238.47
579.21	44488.90
579.37	44418.69
579.53	44402.30
579.69	44133.14
579.85	44512.31
580.01	44861.05
580.17	44456.14
580.33	44397.62
580.49	44648.06
580.65	44453.79
580.82	44250.17
580.98	44582.52
581.14	44210.38
581.30	44809.56
581.46	44673.81
581.62	44722.96
581.78	44636.36
581.94	44858.71
582.10	44568.48
582.26	44296.98
582.42	44575.50
582.58	44346.13
582.74	44385.92
582.90	44261.87
583.06	44905.52
583.22	44488.90
583.38	45029.57
583.54	44437.41
583.70	44481.88
583.86	44437.41
584.02	44011.43
584.18	44254.85
584.34	44552.10
584.50	44486.56
584.66	44231.44
584.82	44308.68
584.98	44711.25
585.14	44638.70
585.30	44098.03
585.46	44406.98
585.62	44044.20
585.78	44271.23
585.94	44376.56
586.10	44385.92
586.26	44353.15
586.42	44519.33
586.58	44729.98
586.74	44474.86
586.90	44563.80
587.06	44657.42
587.22	44680.83
587.38	44680.83
587.54	44949.99
587.70	44821.26
587.86	44479.54
588.02	44648.06
588.18	44727.64
588.34	44495.92
588.49	44839.98
588.65	44205.70
588.81	44264.21
588.97	44165.91
589.13	44507.63
589.29	44201.02
589.45	44353.15
589.61	44697.21
589.77	45067.02
589.93	44854.03
590.08	44980.42
590.24	45034.25
