SpectraSuite Data File
++++++++++++++++++++++++++++++++++++
Date: Fri Oct 25 10:43:47 EDT 2013
User: price-jones
Dark Spectrum Present: No
Reference Spectrum Present: No
Number of Sampled Component Spectra: 1
Spectrometers: USB2+H05261
Integration Time (usec): 100000 (USB2+H05261)
Spectra Averaged: 1 (USB2+H05261)
Boxcar Smoothing: 0 (USB2+H05261)
Correct for Electrical Dark: No (USB2+H05261)
Strobe/Lamp Enabled: No (USB2+H05261)
Correct for Detector Non-linearity: No (USB2+H05261)
Correct for Stray Light: No (USB2+H05261)
Number of Pixels in Processed Spectrum: 2048
>>>>>Begin Processed Spectral Data<<<<<
365.73	138.09
365.92	138.09
366.12	138.09
366.32	81.92
366.52	9.36
366.72	74.90
366.91	23.41
367.11	30.43
367.31	28.09
367.51	56.17
367.70	0.00
367.90	39.79
368.10	28.09
368.30	9.36
368.49	91.28
368.69	42.13
368.89	42.13
369.09	46.81
369.28	37.45
369.48	65.54
369.68	25.75
369.87	67.88
370.07	88.94
370.27	170.86
370.47	208.31
370.66	292.57
370.86	470.45
371.06	451.72
371.25	489.17
371.45	425.98
371.65	482.15
371.84	479.81
372.04	468.11
372.24	491.51
372.44	489.17
372.63	482.15
372.83	404.91
373.03	545.34
373.22	395.55
373.42	505.56
373.62	519.60
373.81	484.49
374.01	571.09
374.21	547.69
374.40	552.37
374.60	571.09
374.79	512.58
374.99	566.41
375.19	582.79
375.38	587.47
375.58	603.86
375.78	613.22
375.97	610.88
376.17	638.97
376.37	524.28
376.56	650.67
376.76	552.37
376.95	634.29
377.15	538.32
377.35	671.73
377.54	606.20
377.74	610.88
377.93	629.60
378.13	601.52
378.33	664.71
378.52	575.77
378.72	599.18
378.91	706.84
379.11	634.29
379.31	650.67
379.50	695.14
379.70	613.22
379.89	723.23
380.09	688.12
380.28	681.10
380.48	702.16
380.68	727.91
380.87	699.82
381.07	765.36
381.26	697.48
381.46	727.91
381.65	662.37
381.85	688.12
382.04	634.29
382.24	683.44
382.43	702.16
382.63	688.12
382.83	709.18
383.02	681.10
383.22	720.88
383.41	662.37
383.61	716.20
383.80	828.55
384.00	793.44
384.19	828.55
384.39	866.00
384.58	835.57
384.78	823.87
384.97	842.59
385.17	784.08
385.36	786.42
385.56	753.65
385.75	709.18
385.95	772.38
386.14	870.68
386.34	837.91
386.53	835.57
386.72	809.83
386.92	910.47
387.11	833.23
387.31	849.61
387.50	774.72
387.70	866.00
387.89	856.64
388.09	915.15
388.28	840.25
388.48	858.98
388.67	788.76
388.86	940.90
389.06	947.92
389.25	978.34
389.45	961.96
389.64	947.92
389.84	980.68
390.03	980.68
390.22	1046.22
390.42	894.08
390.61	1062.60
390.81	997.07
391.00	978.34
391.19	1116.44
391.39	1160.91
391.58	1071.97
391.78	1069.62
391.97	1057.92
392.16	1107.07
392.36	1081.33
392.55	1029.84
392.75	1055.58
392.94	1062.60
393.13	1011.11
393.33	971.32
393.52	992.39
393.71	1097.71
393.91	1125.80
394.10	1086.01
394.29	1083.67
394.49	1083.67
394.68	1252.19
394.88	1327.08
395.07	1275.59
395.26	1156.22
395.46	1163.25
395.65	1284.95
395.84	1181.97
396.04	1277.93
396.23	1191.33
396.42	1179.63
396.62	1116.44
396.81	1254.53
397.00	1259.21
397.19	1273.25
397.39	1296.66
397.58	1336.45
397.77	1362.19
397.97	1439.43
398.16	1364.53
398.35	1467.52
398.55	1446.45
398.74	1486.24
398.93	1458.15
399.12	1511.99
399.32	1507.30
399.51	1462.83
399.70	1345.81
399.90	1399.64
400.09	1535.39
400.28	1577.52
400.47	1486.24
400.67	1636.03
400.86	1650.08
401.05	1577.52
401.24	1561.14
401.44	1638.38
401.63	1631.35
401.82	1685.19
402.01	1746.04
402.21	1774.13
402.40	1778.81
402.59	1743.70
402.78	1694.55
402.97	1741.36
403.17	1774.13
403.36	1825.62
403.55	1839.66
403.74	1813.92
403.93	1734.34
404.13	1844.34
404.32	1816.26
404.51	1823.28
404.70	1881.79
404.89	1802.21
405.09	1989.46
405.28	1980.09
405.47	1954.35
405.66	1968.39
405.85	1907.54
406.05	1919.24
406.24	1898.17
406.43	1930.94
406.62	2033.93
406.81	2090.10
407.00	2059.67
407.20	1989.46
407.39	2066.69
407.58	2228.19
407.77	2036.27
407.96	2139.25
408.15	2186.06
408.34	2218.83
408.54	2228.19
408.73	2073.71
408.92	2202.44
409.11	2361.60
409.30	2228.19
409.49	2223.51
409.68	2331.17
409.87	2394.37
410.07	2270.32
410.26	2237.55
410.45	2399.05
410.64	2314.79
410.83	2380.32
411.02	2495.01
411.21	2527.78
411.40	2530.12
411.59	2637.78
411.78	2492.67
411.98	2445.86
412.17	2551.18
412.36	2630.76
412.55	2677.57
412.74	2647.15
412.93	2668.21
413.12	2649.49
413.31	2864.82
413.50	2686.94
413.69	2810.98
413.88	2789.92
414.07	2799.28
414.26	3028.65
414.45	2939.71
414.64	2988.86
414.83	3091.85
415.02	2979.50
415.22	3133.98
415.41	2937.37
415.60	3063.76
415.79	3110.57
415.98	3143.34
416.17	3307.18
416.36	3304.84
416.55	3201.85
416.74	3309.52
416.93	3220.58
417.12	3283.77
417.31	3368.03
417.50	3236.96
417.69	3330.58
417.88	3396.12
418.07	3400.80
418.26	3398.46
418.45	3449.95
418.64	3522.51
418.83	3377.39
419.02	3489.74
419.21	3405.48
419.39	3473.36
419.58	3318.88
419.77	3293.13
419.96	3655.92
420.15	3688.68
420.34	3627.83
420.53	3597.40
420.72	3822.09
420.91	3730.81
421.10	3686.34
421.29	3730.81
421.48	3894.65
421.67	3719.11
421.86	3775.28
422.05	3758.90
422.24	3618.47
422.43	3672.30
422.61	3733.15
422.80	3812.73
422.99	3765.92
423.18	3911.04
423.37	3875.93
423.56	3847.84
423.75	3861.88
423.94	3878.27
424.13	3592.72
424.32	3742.52
424.50	3896.99
424.69	3971.89
424.88	4046.79
425.07	3941.46
425.26	3831.46
425.45	3749.54
425.64	3918.06
425.83	3936.78
426.01	4154.45
426.20	3999.98
426.39	3943.80
426.58	3866.56
426.77	3936.78
426.96	3915.72
427.15	3999.98
427.33	4086.58
427.52	3932.10
427.71	3999.98
427.90	4131.05
428.09	3983.59
428.28	3981.25
428.46	4138.07
428.65	4074.87
428.84	4163.81
429.03	4250.41
429.22	4117.00
429.40	4086.58
429.59	4166.15
429.78	3906.35
429.97	3859.54
430.16	3967.21
430.34	4044.45
430.53	4210.62
430.72	4243.39
430.91	4154.45
431.10	4205.94
431.28	4411.91
431.47	4610.86
431.66	4547.66
431.85	4468.08
432.03	4477.44
432.22	4608.51
432.41	4620.22
432.60	4765.33
432.79	4517.23
432.97	4615.54
433.16	4655.33
433.35	4596.81
433.54	4676.39
433.72	4608.51
433.91	4587.45
434.10	4627.24
434.28	4660.01
434.47	4844.91
434.66	4865.97
434.85	4849.59
435.03	4908.10
435.22	5001.72
435.41	5076.62
435.59	5097.69
435.78	5184.29
435.97	5109.39
436.16	5109.39
436.34	4987.68
436.53	5107.05
436.72	5231.10
436.90	4959.60
437.09	5050.88
437.28	4990.02
437.46	5025.13
437.65	5074.28
437.84	5069.60
438.02	4992.36
438.21	5029.81
438.40	4940.87
438.58	5427.70
438.77	5254.50
438.96	5315.36
439.14	5341.10
439.33	5654.73
439.52	5556.43
439.70	5596.22
439.89	5643.03
440.08	5582.18
440.26	5680.48
440.45	5720.27
440.63	5811.55
440.82	5940.28
441.01	5764.74
441.19	5884.11
441.38	5820.91
441.57	6132.20
441.75	6036.24
441.94	6305.40
442.12	6237.53
442.31	6242.21
442.50	6139.23
442.68	6291.36
442.87	6181.35
443.05	6291.36
443.24	6305.40
443.43	6370.94
443.61	6291.36
443.80	6518.39
443.98	6141.57
444.17	6237.53
444.35	6420.09
444.54	6602.65
444.73	6469.24
444.91	6431.79
445.10	6221.14
445.28	6300.72
445.47	6204.76
445.65	6331.15
445.84	6394.34
446.02	6408.39
446.21	6541.80
446.39	6469.24
446.58	6752.45
446.77	6609.67
446.95	6480.94
447.14	6427.11
447.32	6691.59
447.51	6548.82
447.69	6595.63
447.88	6544.14
448.06	6588.61
448.25	6647.12
448.43	6672.87
448.62	6637.76
448.80	6595.63
448.99	6693.93
449.17	6813.30
449.36	6750.10
449.54	6857.77
449.73	7056.72
449.91	6998.20
450.10	7112.89
450.28	7105.87
450.46	7314.17
450.65	7112.89
450.83	7035.65
451.02	7157.36
451.20	7194.81
451.39	7138.63
451.57	7143.32
451.76	7110.55
451.94	7220.55
452.13	7258.00
452.31	7194.81
452.49	7075.44
452.68	7126.93
452.86	7192.47
453.05	7169.06
453.23	7192.47
453.42	7080.12
453.60	7155.02
453.78	7393.75
453.97	7300.13
454.15	7258.00
454.34	7433.54
454.52	7412.48
454.70	7534.18
454.89	7358.64
455.07	7648.87
455.26	7648.87
455.44	7648.87
455.62	7698.02
455.81	7449.93
455.99	7756.54
456.17	7733.13
456.36	7779.94
456.54	7887.61
456.73	7990.59
456.91	7845.48
457.09	7831.43
457.28	8114.64
457.46	7925.05
457.64	7976.55
457.83	8138.04
458.01	8004.63
458.19	8210.60
458.38	7880.58
458.56	8231.66
458.74	8098.25
458.93	8147.40
459.11	8182.51
459.29	8222.30
459.48	8173.15
459.66	8058.46
459.84	8109.96
460.03	8201.24
460.21	8299.54
460.39	8496.14
460.57	8381.46
460.76	8606.15
460.94	8659.98
461.12	8531.25
461.31	8381.46
461.49	8477.42
461.67	8552.32
461.85	8519.55
462.04	8578.06
462.22	8861.27
462.40	8889.35
462.59	8725.52
462.77	8699.77
462.95	8699.77
463.13	8526.57
463.32	8807.44
463.50	9018.08
463.68	8777.01
463.86	8865.95
464.05	8781.69
464.23	8697.43
464.41	8901.06
464.59	8788.71
464.78	8964.25
464.96	8943.19
465.14	8718.50
465.32	9315.33
465.50	9205.33
465.69	9076.60
465.87	9135.11
466.05	9013.40
466.23	9067.24
466.41	9226.39
466.60	9235.75
466.78	9167.88
466.96	9090.64
467.14	9198.31
467.32	9254.48
467.51	9273.20
467.69	9034.47
467.87	9228.73
468.05	9439.38
468.23	9200.65
468.41	9245.12
468.60	9397.25
468.78	9483.85
468.96	9504.92
469.14	9542.36
469.32	9699.18
469.50	9439.38
469.69	9600.88
469.87	9741.31
470.05	9722.59
470.23	9755.35
470.41	9619.60
470.59	9729.61
470.77	9612.58
470.95	9830.25
471.14	10066.64
471.32	9790.46
471.50	10281.97
471.68	10225.80
471.86	10143.88
472.04	10190.69
472.22	10436.45
472.40	10197.71
472.58	10108.77
472.77	10349.85
472.95	10406.02
473.13	10670.50
473.31	10408.36
473.49	10420.06
473.67	10485.60
473.85	10712.63
474.03	10778.17
474.21	10808.59
474.39	10913.92
474.57	10970.09
474.75	10846.04
474.93	10942.00
475.12	11030.94
475.30	11117.54
475.48	11030.94
475.66	10967.75
475.84	11164.36
476.02	11138.61
476.20	11353.94
476.38	11658.21
476.56	12063.12
476.74	11538.84
476.92	11627.78
477.10	11768.21
477.28	11875.88
477.46	11784.60
477.64	11999.93
477.82	12191.85
478.00	12594.42
478.18	12301.86
478.36	12432.93
478.54	12699.75
478.72	12711.45
478.90	12683.36
479.08	12774.64
479.26	13029.76
479.44	12861.24
479.62	13121.04
479.80	12954.87
479.98	13357.44
480.16	13626.60
480.34	13324.67
480.52	13577.45
480.70	13558.72
480.88	13467.44
481.06	13654.69
481.24	13757.67
481.41	14005.77
481.59	14267.91
481.77	14352.16
481.95	14101.73
482.13	14640.05
482.31	14310.04
482.49	14775.80
482.67	14618.99
482.85	14672.82
483.03	14939.64
483.21	15019.22
483.39	15403.07
483.57	15019.22
483.74	15314.13
483.92	15555.20
484.10	15447.54
484.28	15578.61
484.46	15908.62
484.64	16409.50
484.82	15934.37
485.00	16175.44
485.18	16020.97
485.35	16393.11
485.53	15873.51
485.71	16126.29
485.89	16184.80
486.07	16439.92
486.25	16610.78
486.43	16758.24
486.61	16898.67
486.78	17027.40
486.96	17179.53
487.14	17722.54
487.32	17404.22
487.50	17755.30
487.68	18108.72
487.85	18216.39
488.03	18436.40
488.21	18373.21
488.39	18534.70
488.57	18305.33
488.75	18647.05
488.92	19122.18
489.10	19386.66
489.28	19187.71
489.46	19330.48
489.64	19417.08
489.81	19964.77
489.99	19719.01
490.17	19864.13
490.35	20236.27
490.53	20130.95
490.70	20009.24
490.88	20135.63
491.06	20659.91
491.24	20463.30
491.41	20365.00
491.59	20449.26
491.77	20531.18
491.95	20849.49
492.13	20996.95
492.30	21287.17
492.48	21544.63
492.66	21561.02
492.84	21469.73
493.01	22064.23
493.19	21935.50
493.37	21848.90
493.54	22260.84
493.72	22242.11
493.90	22235.09
494.08	22785.12
494.25	22644.68
494.43	23096.41
494.61	22862.35
494.79	23442.81
494.96	22705.54
495.14	23215.77
495.32	23749.42
495.49	23250.88
495.67	23552.81
495.85	23707.29
496.02	23967.09
496.20	23702.61
496.38	24259.65
496.55	24458.60
496.73	24786.27
496.91	24449.24
497.09	24900.96
497.26	24964.15
497.44	24842.45
497.62	24828.40
497.79	25076.50
497.97	24819.04
498.14	25408.86
498.32	25230.98
498.50	25350.34
498.67	25741.21
498.85	25509.50
499.03	25937.82
499.20	26162.51
499.38	26040.80
499.56	25858.24
499.73	26235.06
499.91	26136.76
500.08	26822.54
500.26	25916.75
500.44	26534.65
500.61	26740.62
500.79	26125.06
500.97	26581.46
501.14	26677.43
501.32	26909.14
501.49	26637.64
501.67	26913.82
501.84	27047.23
502.02	27080.00
502.20	27311.71
502.37	27358.52
502.55	27185.32
502.72	27634.71
502.90	27555.13
503.07	27669.81
503.25	27723.65
503.43	27824.29
503.60	27627.68
503.78	28168.35
503.95	27882.80
504.13	28423.47
504.30	28252.61
504.48	28404.74
504.65	28680.92
504.83	28886.89
505.01	28851.78
505.18	28793.27
505.36	29177.12
505.53	29006.26
505.71	29223.93
505.88	29553.94
506.06	29090.52
506.23	29336.27
506.41	29060.09
506.58	29462.66
506.76	29778.64
506.93	29951.84
507.11	29617.14
507.28	29741.19
507.46	29617.14
507.63	29923.75
507.81	29898.00
507.98	29827.79
508.16	30258.45
508.33	30415.26
508.50	30583.78
508.68	30202.27
508.85	30630.59
509.03	30663.36
509.20	30904.43
509.38	30801.45
509.55	30581.44
509.73	30906.77
509.90	30803.79
510.08	30927.84
510.25	31152.53
510.42	31527.02
510.60	31241.47
510.77	31044.87
510.95	31915.54
511.12	31578.51
511.30	31821.92
511.47	32142.58
511.64	32208.11
511.82	31798.52
511.99	31835.97
512.17	32065.34
512.34	31857.03
512.51	32503.02
512.69	32102.79
512.86	32563.87
513.04	32790.91
513.21	32685.58
513.38	32470.25
513.56	32301.73
513.73	32439.82
513.90	32542.81
514.08	32177.68
514.25	32701.96
514.43	32882.19
514.60	32856.44
514.77	33448.60
514.95	32936.02
515.12	32896.23
515.29	33151.35
515.47	33488.38
515.64	33516.47
515.81	33518.81
515.99	33212.20
516.16	33687.33
516.33	33425.19
516.51	33132.62
516.68	32910.27
516.85	33085.81
517.03	33160.71
517.20	33743.50
517.37	34129.69
517.54	34134.37
517.72	33958.83
517.89	33900.32
518.06	33806.70
518.24	33834.78
518.41	33787.97
518.58	34150.76
518.75	34424.60
518.93	34808.45
519.10	34581.42
519.27	34792.06
519.45	34974.63
519.62	34857.60
519.79	35304.64
519.96	35344.43
520.14	35250.81
520.31	34773.34
520.48	35101.01
520.65	35257.83
520.83	35480.18
521.00	35754.02
521.17	35620.61
521.34	35796.15
521.52	35908.50
521.69	35995.10
521.86	35538.69
522.03	35952.97
522.20	36254.90
522.38	36498.31
522.55	35868.71
522.72	36484.27
522.89	35758.70
523.07	36275.96
523.24	36254.90
523.41	36542.78
523.58	36334.48
523.75	36711.30
523.92	36727.69
524.10	37017.91
524.27	37268.35
524.44	37090.47
524.61	36884.50
524.78	37163.03
524.96	36952.38
525.13	37273.03
525.30	37226.22
525.47	37654.54
525.64	37205.16
525.81	37361.97
525.98	37137.28
526.16	37046.00
526.33	37064.72
526.50	37244.94
526.67	36627.04
526.84	37095.15
527.01	37326.86
527.18	37509.43
527.36	37614.75
527.53	37638.15
527.70	38471.39
527.87	38019.66
528.04	38513.52
528.21	38190.52
528.38	38403.51
528.55	38834.17
528.72	38447.98
528.89	38541.60
529.07	38389.47
529.24	38447.98
529.41	38438.62
529.58	38422.23
529.75	38160.09
529.92	38714.80
530.09	38492.45
530.26	38911.41
530.43	38789.70
530.60	38682.03
530.77	38646.93
530.94	39351.43
531.11	39105.67
531.28	39058.86
531.46	39227.38
531.63	39243.76
531.80	38944.17
531.97	39274.19
532.14	38850.55
532.31	38986.30
532.48	39131.42
532.65	39344.41
532.82	39363.13
532.99	39346.75
533.16	39393.56
533.33	39566.76
533.50	39613.57
533.67	39754.00
533.84	39145.46
534.01	39775.06
534.18	39943.58
534.35	39826.56
534.52	39852.30
534.69	39763.36
534.86	40023.16
535.03	39765.70
535.20	40713.62
535.37	40275.94
535.54	40545.10
535.71	40254.87
535.88	40556.80
536.05	40135.51
536.22	40226.79
536.38	40203.38
536.55	40528.72
536.72	40629.36
536.89	40259.55
537.06	40620.00
537.23	40566.16
537.40	40135.51
537.57	40725.32
537.74	40952.35
537.91	40837.67
538.08	40535.74
538.25	40950.01
538.42	40847.03
538.59	41448.55
538.75	40460.84
538.92	40835.33
539.09	41404.08
539.26	40711.28
539.43	41228.54
539.60	40926.61
539.77	40807.24
539.94	41174.70
540.11	40931.29
540.28	41256.62
540.44	41462.59
540.61	40715.96
540.78	40921.93
540.95	41106.83
541.12	41497.70
541.29	41638.13
541.46	42092.19
541.62	41904.95
541.79	41467.27
541.96	41273.01
542.13	41853.46
542.30	41844.10
542.47	41619.41
542.63	41696.64
542.80	42190.50
542.97	41947.08
543.14	42431.57
543.31	42609.45
543.48	42588.39
543.64	42820.10
543.81	42642.22
543.98	42635.20
544.15	42391.78
544.32	42686.69
544.48	42944.15
544.65	42635.20
544.82	43009.68
544.99	42387.10
545.16	42579.03
545.32	42447.96
545.49	43026.07
545.66	42820.10
545.83	43026.07
546.00	42829.46
546.16	43021.39
546.33	42684.35
546.50	42450.30
546.67	42923.08
546.83	42972.24
547.00	42679.67
547.17	43491.83
547.34	42677.33
547.50	43058.84
547.67	43206.29
547.84	43498.86
548.00	43681.42
548.17	43009.68
548.34	43615.88
548.51	43824.19
548.67	43332.68
548.84	43316.29
549.01	43393.53
549.18	43325.66
549.34	43372.47
549.51	43613.54
549.68	43578.43
549.84	43566.73
550.01	44126.12
550.18	43620.56
550.34	44058.24
550.51	43421.62
550.68	43693.12
550.84	43164.16
551.01	43838.23
551.18	43868.66
551.34	43971.64
551.51	43679.08
551.68	44105.06
551.84	44275.91
552.01	43629.93
552.18	44046.54
552.34	43758.66
552.51	44088.67
552.68	43992.71
552.84	43936.54
553.01	44322.72
553.18	44301.66
553.34	44210.38
553.51	43892.07
553.67	44568.48
553.84	44552.10
554.01	44371.88
554.17	44493.58
554.34	44374.22
554.51	44444.43
554.67	44842.32
554.84	44231.44
555.00	44416.35
555.17	44350.81
555.33	44809.56
555.50	44673.81
555.67	44802.53
555.83	44596.57
556.00	44549.76
556.16	44645.72
556.33	44617.63
556.50	44509.97
556.66	44491.24
556.83	44112.08
556.99	44619.97
557.16	44744.02
557.32	44507.63
557.49	45055.31
557.65	44645.72
557.82	44690.19
557.98	44673.81
558.15	44734.66
558.32	45345.54
558.48	45001.48
558.65	44325.07
558.81	44655.08
558.98	44631.68
559.14	44521.67
559.31	44767.43
559.47	44776.79
559.64	44886.79
559.80	45062.33
559.97	44985.10
560.13	44678.49
560.30	44999.14
560.46	45095.10
560.63	45588.95
560.79	45481.29
560.96	45654.49
561.12	44980.42
561.29	45207.45
561.45	45237.87
561.61	44797.85
561.78	45184.04
561.94	44872.75
562.11	44758.06
562.27	45207.45
562.44	44912.54
562.60	45076.38
562.77	45359.58
562.93	45118.51
563.10	45532.78
563.26	45069.36
563.42	45284.68
563.59	45385.33
563.75	45237.87
563.92	45020.20
564.08	45254.26
564.24	45542.14
564.41	45097.44
564.57	45673.21
564.74	45130.21
564.90	45741.09
565.07	45516.40
565.23	45375.97
565.39	45617.04
565.56	45378.31
565.72	45289.37
565.88	45181.70
566.05	45336.18
566.21	45357.24
566.38	45387.67
566.54	45158.30
566.70	45879.18
566.87	46033.66
567.03	45797.26
567.19	45942.38
567.36	45804.28
567.52	45387.67
567.68	45720.02
567.85	45509.38
568.01	45874.50
568.17	45546.82
568.34	46003.23
568.50	45771.52
568.66	45757.47
568.83	45811.31
568.99	45556.19
569.15	45591.30
569.32	45516.40
569.48	45270.64
569.64	45862.80
569.81	45308.09
569.97	45593.64
570.13	45832.37
570.30	45127.87
570.46	45439.16
570.62	45198.09
570.78	45219.15
570.95	45347.88
571.11	45815.99
571.27	45303.41
571.43	45780.88
571.60	45666.19
571.76	45478.95
571.92	45574.91
572.09	45745.77
572.25	45972.80
572.41	46178.77
572.57	45998.55
572.74	45982.16
572.90	45635.77
573.06	45785.56
573.22	45542.14
573.38	45776.20
573.55	45270.64
573.71	45755.13
573.87	45930.67
574.03	46085.15
574.20	45991.53
574.36	45886.20
574.52	45705.98
574.68	45764.49
574.84	45631.08
575.01	45923.65
575.17	45565.55
575.33	45607.68
575.49	45441.50
575.65	45666.19
575.82	45799.60
575.98	45897.91
576.14	45848.75
576.30	46026.63
576.46	46101.53
576.62	45537.46
576.79	45876.84
576.95	45680.24
577.11	45642.79
577.27	45457.88
577.43	45965.78
577.59	45792.58
577.75	45516.40
577.92	45326.81
578.08	45776.20
578.24	45352.56
578.40	45933.01
578.56	45485.97
578.72	46017.27
578.88	45984.51
579.04	46167.07
579.21	45542.14
579.37	45703.64
579.53	46213.88
579.69	45736.41
579.85	46162.39
580.01	45668.53
580.17	45876.84
580.33	46050.04
580.49	45968.12
580.65	45764.49
580.82	45916.63
580.98	45801.94
581.14	45734.07
581.30	46185.79
581.46	45537.46
581.62	46052.38
581.78	45698.96
581.94	46106.21
582.10	45904.93
582.26	45911.95
582.42	45750.45
582.58	46218.56
582.74	46038.34
582.90	45502.35
583.06	46253.67
583.22	46248.99
583.38	46005.57
583.54	46117.92
583.70	46092.17
583.86	45593.64
584.02	45785.56
584.18	46040.68
584.34	45808.96
584.50	45624.06
584.66	45961.10
584.82	45600.66
584.98	46361.33
585.14	46026.63
585.30	46218.56
585.46	45972.80
585.62	45521.08
585.78	45638.11
585.94	45853.44
586.10	45776.20
586.26	45453.20
586.42	46195.15
586.58	46183.45
586.74	46036.00
586.90	46267.71
587.06	45766.84
587.22	46164.73
587.38	46232.60
587.54	45492.99
587.70	46185.79
587.86	46031.32
588.02	46225.58
588.18	46122.60
588.34	45780.88
588.49	45502.35
588.65	45446.18
588.81	45282.34
588.97	45869.82
589.13	45488.31
589.29	45603.00
589.45	45645.13
589.61	46223.24
589.77	46005.57
589.93	46007.91
590.08	46050.04
