SpectraSuite Data File
++++++++++++++++++++++++++++++++++++
Date: Fri Oct 25 10:43:40 EDT 2013
User: price-jones
Dark Spectrum Present: No
Reference Spectrum Present: No
Number of Sampled Component Spectra: 1
Spectrometers: USB2+H05261
Integration Time (usec): 100000 (USB2+H05261)
Spectra Averaged: 1 (USB2+H05261)
Boxcar Smoothing: 0 (USB2+H05261)
Correct for Electrical Dark: No (USB2+H05261)
Strobe/Lamp Enabled: No (USB2+H05261)
Correct for Detector Non-linearity: No (USB2+H05261)
Correct for Stray Light: No (USB2+H05261)
Number of Pixels in Processed Spectrum: 2048
>>>>>Begin Processed Spectral Data<<<<<
365.73	133.41
365.92	133.41
366.12	133.41
366.32	0.00
366.52	30.43
366.72	16.38
366.91	4.68
367.11	65.54
367.31	37.45
367.51	35.11
367.70	14.04
367.90	65.54
368.10	9.36
368.30	28.09
368.49	0.00
368.69	0.00
368.89	7.02
369.09	60.85
369.28	70.22
369.48	28.09
369.68	35.11
369.87	128.73
370.07	70.22
370.27	105.32
370.47	154.48
370.66	379.17
370.86	486.83
371.06	400.23
371.25	489.17
371.45	463.43
371.65	484.49
371.84	482.15
372.04	503.22
372.24	517.26
372.44	498.53
372.63	475.13
372.83	444.70
373.03	477.47
373.22	552.37
373.42	580.45
373.62	519.60
373.81	538.32
374.01	566.41
374.21	662.37
374.40	561.73
374.60	608.54
374.79	627.26
374.99	528.96
375.19	589.82
375.38	599.18
375.58	578.11
375.78	662.37
375.97	561.73
376.17	617.90
376.37	655.35
376.56	528.96
376.76	566.41
376.95	601.52
377.15	596.84
377.35	587.47
377.54	617.90
377.74	608.54
377.93	706.84
378.13	685.78
378.33	753.65
378.52	578.11
378.72	559.39
378.91	676.41
379.11	613.22
379.31	683.44
379.50	592.16
379.70	734.93
379.89	641.31
380.09	727.91
380.28	692.80
380.48	650.67
380.68	746.63
380.87	746.63
381.07	683.44
381.26	615.56
381.46	695.14
381.65	641.31
381.85	800.46
382.04	709.18
382.24	727.91
382.43	739.61
382.63	748.97
382.83	657.69
383.02	741.95
383.22	779.40
383.41	657.69
383.61	840.25
383.80	851.96
384.00	739.61
384.19	777.06
384.39	683.44
384.58	835.57
384.78	805.14
384.97	840.25
385.17	788.76
385.36	809.83
385.56	802.80
385.75	812.17
385.95	873.02
386.14	844.93
386.34	823.87
386.53	758.33
386.72	858.98
386.92	868.34
387.11	912.81
387.31	889.40
387.50	891.74
387.70	802.80
387.89	866.00
388.09	863.66
388.28	933.87
388.48	837.91
388.67	915.15
388.86	884.72
389.06	968.98
389.25	912.81
389.45	976.00
389.64	978.34
389.84	1015.79
390.03	917.49
390.22	1008.77
390.42	1025.15
390.61	917.49
390.81	1027.50
391.00	1090.69
391.19	1132.82
391.39	1121.12
391.58	985.37
391.78	1107.07
391.97	1071.97
392.16	997.07
392.36	1121.12
392.55	1064.94
392.75	1020.47
392.94	952.60
393.13	1036.86
393.33	1039.20
393.52	1069.62
393.71	1064.94
393.91	1088.35
394.10	1156.22
394.29	1167.93
394.49	1132.82
394.68	1252.19
394.88	1280.27
395.07	1299.00
395.26	1179.63
395.46	1212.40
395.65	1188.99
395.84	1144.52
396.04	1301.34
396.23	1226.44
396.42	1139.84
396.62	1137.50
396.81	1348.15
397.00	1174.95
397.19	1181.97
397.39	1217.08
397.58	1364.53
397.77	1416.02
397.97	1418.36
398.16	1378.58
398.35	1474.54
398.55	1380.92
398.74	1483.90
398.93	1493.26
399.12	1519.01
399.32	1593.90
399.51	1575.18
399.70	1624.33
399.90	1528.37
400.09	1652.42
400.28	1640.72
400.47	1685.19
400.67	1607.95
400.86	1727.32
401.05	1732.00
401.24	1715.61
401.44	1729.66
401.63	1755.40
401.82	1760.08
402.01	1830.30
402.21	1724.97
402.40	1788.17
402.59	1746.04
402.78	1827.96
402.97	1671.14
403.17	1860.73
403.36	1802.21
403.55	1797.53
403.74	1902.86
403.93	1881.79
404.13	1813.92
404.32	1818.60
404.51	1914.56
404.70	2008.18
404.89	1776.47
405.09	2022.22
405.28	1907.54
405.47	2064.35
405.66	2047.97
405.85	1989.46
406.05	1963.71
406.24	2069.03
406.43	2057.33
406.62	2085.42
406.81	2150.95
407.00	2136.91
407.20	2083.08
407.39	2129.89
407.58	2284.36
407.77	2160.31
407.96	2141.59
408.15	2183.72
408.34	2186.06
408.54	2303.09
408.73	2345.22
408.92	2277.34
409.11	2387.35
409.30	2394.37
409.49	2296.07
409.68	2368.62
409.87	2321.81
410.07	2345.22
410.26	2389.69
410.45	2455.22
410.64	2473.95
410.83	2527.78
411.02	2527.78
411.21	2544.16
411.40	2691.62
411.59	2565.23
411.78	2703.32
411.98	2663.53
412.17	2668.21
412.36	2686.94
412.55	2717.36
412.74	2834.39
412.93	2766.51
413.12	2731.41
413.31	2771.19
413.50	2862.48
413.69	2836.73
413.88	2920.99
414.07	2928.01
414.26	2848.43
414.45	2932.69
414.64	3059.08
414.83	3131.64
415.02	3047.38
415.22	3042.70
415.41	3115.25
415.60	3222.92
415.79	3122.27
415.98	3386.76
416.17	3283.77
416.36	3194.83
416.55	3260.37
416.74	3379.73
416.93	3286.11
417.12	3279.09
417.31	3426.54
417.50	3480.38
417.69	3456.97
417.88	3562.30
418.07	3543.57
418.26	3515.48
418.45	3487.40
418.64	3674.64
418.83	3599.74
419.02	3513.14
419.21	3655.92
419.39	3702.73
419.58	3543.57
419.77	3578.68
419.96	3646.55
420.15	3747.20
420.34	3740.18
420.53	3915.72
420.72	3808.05
420.91	3866.56
421.10	3918.06
421.29	4095.94
421.48	3845.50
421.67	4011.68
421.86	3847.84
422.05	3854.86
422.24	3836.14
422.43	3733.15
422.61	3866.56
422.80	3866.56
422.99	4018.70
423.18	3964.87
423.37	4011.68
423.56	4007.00
423.75	3953.16
423.94	3882.95
424.13	3686.34
424.32	3866.56
424.50	4044.45
424.69	3899.33
424.88	4028.06
425.07	3985.93
425.26	3906.35
425.45	3999.98
425.64	4067.85
425.83	3997.64
426.01	4121.68
426.20	4088.92
426.39	4100.62
426.58	4086.58
426.77	3880.61
426.96	3974.23
427.15	4224.67
427.33	4259.78
427.52	4248.07
427.71	4304.25
427.90	4217.65
428.09	4245.73
428.28	4227.01
428.46	4194.24
428.65	4241.05
428.84	4264.46
429.03	4297.22
429.22	4142.75
429.40	4205.94
429.59	4294.88
429.78	4004.66
429.97	3955.51
430.16	4051.47
430.34	4147.43
430.53	4105.30
430.72	4276.16
430.91	4381.48
431.10	4440.00
431.28	4575.75
431.47	4720.86
431.66	4695.11
431.85	4587.45
432.03	4575.75
432.22	4767.67
432.41	4662.35
432.60	4662.35
432.79	4753.63
432.97	4994.70
433.16	4765.33
433.35	4823.84
433.54	4704.48
433.72	4692.77
433.91	4751.29
434.10	4755.97
434.28	4809.80
434.47	4908.10
434.66	4943.21
434.85	4908.10
435.03	5146.84
435.22	4901.08
435.41	5366.85
435.59	5011.09
435.78	5128.11
435.97	5268.55
436.16	5191.31
436.34	5100.03
436.53	5294.29
436.72	5308.34
436.90	5240.46
437.09	5350.46
437.28	5121.09
437.46	5373.87
437.65	5228.76
437.84	5205.35
438.02	5193.65
438.21	5263.86
438.40	5224.08
438.58	5315.36
438.77	5441.75
438.96	5437.06
439.14	5652.39
439.33	5582.18
439.52	5767.08
439.70	5720.27
439.89	5715.59
440.08	5547.07
440.26	5701.54
440.45	5916.87
440.63	5907.51
440.82	6090.07
441.01	6052.63
441.19	6101.78
441.38	6321.79
441.57	6160.29
441.75	6312.42
441.94	6263.27
442.12	6291.36
442.31	6420.09
442.50	6499.67
442.68	6403.71
442.87	6518.39
443.05	6392.00
443.24	6637.76
443.43	6375.62
443.61	6497.33
443.80	6707.98
443.98	6548.82
444.17	6267.95
444.35	6665.85
444.54	6686.91
444.73	6663.51
444.91	6607.33
445.10	6583.93
445.28	6523.07
445.47	6588.61
445.65	6506.69
445.84	6635.42
446.02	6635.42
446.21	6649.46
446.39	6747.76
446.58	6724.36
446.77	6729.04
446.95	6473.92
447.14	6689.25
447.32	6881.18
447.51	6857.77
447.69	6677.55
447.88	6792.23
448.06	6750.10
448.25	6754.79
448.43	6871.81
448.62	6810.96
448.80	6881.18
448.99	6951.39
449.17	6949.05
449.36	6792.23
449.54	6977.14
449.73	7056.72
449.91	7169.06
450.10	7293.11
450.28	7295.45
450.46	7255.66
450.65	7379.71
450.83	7262.68
451.02	7150.34
451.20	7356.30
451.39	7449.93
451.57	7323.54
451.76	7173.74
451.94	7358.64
452.13	7375.03
452.31	7077.78
452.49	7152.68
452.68	7229.91
452.86	7454.61
453.05	7487.37
453.23	7304.81
453.42	7372.69
453.60	7389.07
453.78	7634.83
453.97	7522.48
454.15	7414.82
454.34	7452.27
454.52	7566.95
454.70	7688.66
454.89	7723.77
455.07	7541.21
455.26	7700.36
455.44	7871.22
455.62	7765.90
455.81	7669.94
455.99	7857.18
456.17	8156.77
456.36	7850.16
456.54	7974.21
456.73	8116.98
456.91	8219.96
457.09	8163.79
457.28	8234.00
457.46	8222.30
457.64	8124.00
457.83	8201.24
458.01	8168.47
458.19	8313.58
458.38	8159.11
458.56	8318.26
458.74	8311.24
458.93	8465.72
459.11	8388.48
459.29	8224.64
459.48	8493.80
459.66	8505.51
459.84	8493.80
460.03	8697.43
460.21	8444.65
460.39	8573.38
460.57	8769.99
460.76	8648.28
460.94	8617.85
461.12	8840.20
461.31	8978.30
461.49	8762.97
461.67	8706.79
461.85	8966.59
462.04	8954.89
462.22	9217.03
462.40	9057.87
462.59	8978.30
462.77	8929.14
462.95	8919.78
463.13	8980.64
463.32	9069.58
463.50	9015.74
463.68	9118.73
463.86	9142.13
464.05	8760.63
464.23	8908.08
464.41	9057.87
464.59	8879.99
464.78	9198.31
464.96	9217.03
465.14	8971.27
465.32	9380.87
465.50	9294.27
465.69	9397.25
465.87	9277.88
466.05	9296.61
466.23	9179.58
466.41	9226.39
466.60	9385.55
466.78	9224.05
466.96	9366.82
467.14	9568.11
467.32	9418.32
467.51	9437.04
467.69	9439.38
467.87	9397.25
468.05	9451.08
468.23	9591.52
468.41	9521.30
468.60	9621.94
468.78	9558.75
468.96	9741.31
469.14	9834.93
469.32	9928.55
469.50	9493.21
469.69	9944.94
469.87	9853.66
470.05	9919.19
470.23	9572.79
470.41	9984.73
470.59	10136.86
470.77	10099.41
470.95	10169.63
471.14	10333.47
471.32	10188.35
471.50	10377.94
471.68	10134.52
471.86	10422.41
472.04	10406.02
472.22	10471.56
472.40	10139.20
472.58	10452.83
472.77	10457.51
472.95	10747.74
473.13	10855.40
473.31	10644.76
473.49	10785.19
473.67	10729.02
473.85	10644.76
474.03	11164.36
474.21	11042.65
474.39	11260.32
474.57	11082.44
474.75	11253.30
474.93	11346.92
475.12	11248.61
475.30	11365.64
475.48	11389.05
475.66	11262.66
475.84	11311.81
476.02	11536.50
476.20	11751.83
476.38	11861.84
476.56	11901.62
476.74	11922.69
476.92	12072.48
477.10	11925.03
477.28	12294.83
477.46	12170.79
477.64	12215.26
477.82	12666.98
478.00	12919.76
478.18	12578.04
478.36	12734.85
478.54	12835.50
478.72	12884.65
478.90	13095.30
479.08	13362.12
479.26	13256.79
479.44	13240.41
479.62	13425.31
479.80	13160.83
479.98	13383.18
480.16	13874.70
480.34	13799.80
480.52	13633.62
480.70	14022.15
480.88	13877.04
481.06	14141.52
481.24	14174.28
481.41	14539.41
481.59	14579.20
481.77	14665.80
481.95	14654.09
482.13	14785.16
482.31	14721.97
482.49	14775.80
482.67	14857.72
482.85	15246.25
483.03	15211.14
483.21	15604.35
483.39	15419.45
483.57	15686.27
483.74	15812.66
483.92	15803.30
484.10	15730.74
484.28	15925.00
484.46	16372.05
484.64	16346.30
484.82	16336.94
485.00	16287.79
485.18	16358.00
485.35	16690.36
485.53	16196.51
485.71	16224.59
485.89	16575.67
486.07	16374.39
486.25	17069.53
486.43	16879.94
486.61	17261.45
486.78	17334.01
486.96	17584.44
487.14	17745.94
487.32	17752.96
487.50	18164.90
487.68	18157.88
487.85	18525.34
488.03	18860.04
488.21	18855.36
488.39	18431.72
488.57	19000.47
488.75	18822.59
488.92	19227.50
489.10	19381.98
489.28	19316.44
489.46	20018.60
489.64	19962.43
489.81	20617.78
489.99	20491.39
490.17	20453.94
490.35	20751.19
490.53	19955.41
490.70	20737.15
490.88	20393.09
491.06	21135.04
491.24	20798.00
491.41	20872.90
491.59	21207.59
491.77	20833.11
491.95	21383.13
492.13	21565.70
492.30	21680.38
492.48	21734.21
492.66	22125.08
492.84	22022.10
493.01	22265.52
493.19	22302.96
493.37	22415.31
493.54	22522.98
493.72	22750.01
493.90	22981.72
494.08	23096.41
494.25	23501.32
494.43	23283.65
494.61	23510.68
494.79	23660.48
494.96	23520.04
495.14	23344.50
495.32	23934.32
495.49	23632.39
495.67	23761.12
495.85	24430.51
496.02	24489.03
496.20	24617.75
496.38	24805.00
496.55	24744.14
496.73	25216.93
496.91	24882.24
497.09	25064.80
497.26	25179.48
497.44	25153.74
497.62	25357.36
497.79	25671.00
497.97	25469.71
498.14	25820.79
498.32	25766.96
498.50	25755.26
498.67	26370.82
498.85	25928.45
499.03	26319.32
499.20	26403.58
499.38	26476.14
499.56	26707.85
499.73	26513.59
499.91	27002.76
500.08	26883.39
500.26	26663.38
500.44	26958.29
500.61	26611.89
500.79	26546.36
500.97	27182.98
501.14	27264.90
501.32	27105.74
501.49	27393.63
501.67	27124.47
501.84	27793.86
502.02	27639.39
502.20	28009.19
502.37	28400.06
502.55	28390.70
502.72	28254.95
502.90	28217.50
503.07	28212.82
503.25	28444.53
503.43	28252.61
503.60	28276.01
503.78	28297.08
503.95	28222.18
504.13	28943.06
504.30	29041.37
504.48	28631.77
504.65	29099.88
504.83	28952.43
505.01	29549.26
505.18	29284.78
505.36	29603.10
505.53	29479.05
505.71	29998.65
505.88	30078.22
506.06	29797.36
506.23	30033.75
506.41	29905.02
506.58	30061.84
506.76	29876.94
506.93	30501.86
507.11	30312.28
507.28	30118.01
507.46	30057.16
507.63	30328.66
507.81	30394.20
507.98	30326.32
508.16	30579.10
508.33	30822.51
508.50	30820.17
508.68	30899.75
508.85	31323.39
509.03	31054.23
509.20	31372.54
509.38	31337.43
509.55	31157.21
509.73	31470.84
509.90	31433.39
510.08	31484.89
510.25	31510.63
510.42	31732.98
510.60	32215.13
510.77	32161.30
510.95	32439.82
511.12	31997.46
511.30	32266.63
511.47	32456.21
511.64	32828.35
511.82	32751.12
511.99	32481.95
512.17	32833.04
512.34	32189.39
512.51	32903.25
512.69	32809.63
512.86	32851.76
513.04	32929.00
513.21	33158.37
513.38	32987.51
513.56	33039.00
513.73	33352.63
513.90	32720.69
514.08	33240.29
514.25	33284.76
514.43	33680.31
514.60	33301.14
514.77	33888.62
514.95	34274.80
515.12	33811.38
515.29	33570.30
515.47	34382.47
515.64	34377.79
515.81	34183.52
515.99	34033.73
516.16	33905.00
516.33	33752.87
516.51	33745.84
516.68	33369.02
516.85	33247.31
517.03	33696.69
517.20	33886.28
517.37	34333.32
517.54	34518.22
517.72	34354.38
517.89	34237.36
518.06	34415.24
518.24	34202.25
518.41	34307.57
518.58	34597.80
518.75	35232.08
518.93	35058.88
519.10	34988.67
519.27	34815.47
519.45	35330.39
519.62	35789.13
519.79	35835.94
519.96	35325.71
520.14	35627.63
520.31	35234.42
520.48	35908.50
520.65	35641.68
520.83	35878.07
521.00	35833.60
521.17	36591.94
521.34	36575.55
521.52	36538.10
521.69	36533.42
521.86	36627.04
522.03	36605.98
522.20	36631.72
522.38	36231.49
522.55	36879.82
522.72	36856.42
522.89	36428.10
523.07	36856.42
523.24	36598.96
523.41	37064.72
523.58	36889.18
523.75	37312.82
523.92	37226.22
524.10	37359.63
524.27	37364.31
524.44	37317.50
524.61	37127.92
524.78	37684.97
524.96	37558.58
525.13	37879.23
525.30	38045.41
525.47	37766.88
525.64	37811.35
525.81	37778.59
525.98	37628.79
526.16	37521.13
526.33	37392.40
526.50	37427.51
526.67	37280.05
526.84	37294.10
527.01	37565.60
527.18	37816.04
527.36	39079.92
527.53	38778.00
527.70	38625.86
527.87	38740.55
528.04	38139.03
528.21	38712.46
528.38	39105.67
528.55	39030.77
528.72	39145.46
528.89	39423.98
529.07	39438.03
529.24	38988.64
529.41	39089.29
529.58	38990.98
529.75	39147.80
529.92	39379.51
530.09	39412.28
530.26	39393.56
530.43	39519.95
530.60	39363.13
530.77	39468.45
530.94	39955.29
531.11	39833.58
531.28	39964.65
531.46	39754.00
531.63	39805.49
531.80	39342.06
531.97	39576.12
532.14	39325.68
532.31	39241.42
532.48	39761.02
532.65	40018.48
532.82	39620.59
532.99	40179.98
533.16	40081.67
533.33	39866.34
533.50	40357.86
533.67	40446.80
533.84	39819.53
534.01	40325.09
534.18	40224.45
534.35	40655.11
534.52	40116.78
534.69	40346.15
534.86	40800.22
535.03	40797.88
535.20	41237.90
535.37	41172.36
535.54	41017.89
535.71	41223.86
535.88	41174.70
536.05	40624.68
536.22	40648.08
536.38	40917.25
536.55	41137.26
536.72	40891.50
536.89	41029.59
537.06	40914.90
537.23	41006.19
537.40	41563.23
537.57	41549.19
537.74	41216.83
537.91	41748.14
538.08	41448.55
538.25	41237.90
538.42	41551.53
538.59	41287.05
538.75	41338.54
538.92	41090.44
539.09	41546.85
539.26	41471.95
539.43	41607.70
539.60	41607.70
539.77	41504.72
539.94	41907.29
540.11	41411.10
540.28	41537.49
540.44	41645.15
540.61	42005.59
540.78	41483.66
540.95	41972.83
541.12	41633.45
541.29	41914.31
541.46	41858.14
541.62	42356.67
541.79	42663.28
541.96	42302.84
542.13	41734.09
542.30	42356.67
542.47	42391.78
542.63	42155.39
542.80	42462.00
542.97	42756.91
543.14	42663.28
543.31	42167.09
543.48	42572.00
543.64	43105.65
543.81	43213.31
543.98	42965.21
544.15	42988.62
544.32	43112.67
544.48	43171.18
544.65	43005.00
544.82	43325.66
544.99	42792.01
545.16	43217.99
545.32	43002.66
545.49	43365.45
545.66	43625.25
545.83	43789.08
546.00	43709.50
546.16	43126.71
546.33	43772.70
546.50	43140.75
546.67	43601.84
546.83	43063.52
547.00	43690.78
547.17	43615.88
547.34	43407.58
547.50	43636.95
547.67	43873.34
547.84	43709.50
548.00	43580.78
548.17	43819.51
548.34	44151.87
548.51	44336.77
548.67	44170.59
548.84	44304.00
549.01	44006.75
549.18	43931.86
549.34	44243.15
549.51	44247.83
549.68	44322.72
549.84	44121.44
550.01	44165.91
550.18	44112.08
550.34	43807.81
550.51	44186.97
550.68	43849.94
550.84	43517.58
551.01	44629.34
551.18	44378.90
551.34	44147.18
551.51	44720.62
551.68	44624.65
551.84	44549.76
552.01	44460.82
552.18	44341.45
552.34	43924.83
552.51	44584.86
552.68	44472.52
552.84	44669.12
553.01	44645.72
553.18	44261.87
553.34	44524.01
553.51	44687.85
553.67	44603.59
553.84	45441.50
554.01	45422.78
554.17	45174.68
554.34	44814.24
554.51	44498.26
554.67	45256.60
554.84	44591.89
555.00	44919.56
555.17	44816.58
555.33	45162.98
555.50	45275.32
555.67	44739.34
555.83	45347.88
556.00	45177.02
556.16	45242.56
556.33	44612.95
556.50	44863.39
556.66	45364.26
556.83	44804.88
556.99	45305.75
557.16	45329.16
557.32	45099.78
557.49	45375.97
557.65	45324.47
557.82	45057.65
557.98	45263.62
558.15	45670.87
558.32	45565.55
558.48	44704.23
558.65	45130.21
558.81	45401.71
558.98	45090.42
559.14	45448.52
559.31	45184.04
559.47	45553.85
559.64	45408.73
559.80	45289.37
559.97	45422.78
560.13	44961.69
560.30	45574.91
560.46	45715.34
560.63	45628.74
560.79	45818.33
560.96	45970.46
561.12	45312.77
561.29	45584.27
561.45	45645.13
561.61	45825.35
561.78	45862.80
561.94	45055.31
562.11	45525.76
562.27	45282.34
562.44	45673.21
562.60	45626.40
562.77	45933.01
562.93	46050.04
563.10	46066.42
563.26	45324.47
563.42	45764.49
563.59	45478.95
563.75	46260.69
563.92	46188.13
564.08	46195.15
564.24	46251.33
564.41	45846.41
564.57	45570.23
564.74	45570.23
564.90	45626.40
565.07	45729.39
565.23	45724.71
565.39	45801.94
565.56	46075.79
565.72	45497.67
565.88	45797.26
566.05	45752.79
566.21	45720.02
566.38	45713.00
566.54	45902.59
566.70	45928.33
566.87	45907.27
567.03	45933.01
567.19	46368.35
567.36	46110.89
567.52	46199.83
567.68	45727.05
567.85	45748.11
568.01	46075.79
568.17	46054.72
568.34	46117.92
568.50	46124.94
568.66	45722.37
568.83	46127.28
568.99	46050.04
569.15	45972.80
569.32	46321.54
569.48	45935.35
569.64	46312.18
569.81	46103.87
569.97	45965.78
570.13	46209.20
570.30	45972.80
570.46	46059.40
570.62	45656.83
570.78	45371.28
570.95	45694.28
571.11	46071.10
571.27	45738.75
571.43	45972.80
571.60	46553.26
571.76	46143.66
571.92	45844.07
572.09	46267.71
572.25	45949.40
572.41	46014.93
572.57	46548.57
572.74	46557.94
572.90	46005.57
573.06	46274.73
573.22	45916.63
573.38	46181.11
573.55	45865.14
573.71	46213.88
573.87	46370.69
574.03	46054.72
574.20	46651.56
574.36	46106.21
574.52	46342.61
574.68	46129.62
574.84	46160.05
575.01	46024.29
575.17	46265.37
575.33	45916.63
575.49	45766.84
575.65	46424.53
575.82	46508.79
575.98	45603.00
576.14	46038.34
576.30	46298.14
576.46	46382.40
576.62	45769.18
576.79	45930.67
576.95	45862.80
577.11	46651.56
577.27	46202.18
577.43	46192.81
577.59	46050.04
577.75	46138.98
577.92	45380.65
578.08	46082.81
578.24	46183.45
578.40	45820.67
578.56	45989.19
578.72	46059.40
578.88	46330.90
579.04	46323.88
579.21	45977.48
579.37	45736.41
579.53	46174.09
579.69	45790.24
579.85	46113.23
580.01	46190.47
580.17	45921.31
580.33	46202.18
580.49	46358.99
580.65	45902.59
580.82	46202.18
580.98	46258.35
581.14	45923.65
581.30	46216.22
581.46	46253.67
581.62	46447.93
581.78	46333.24
581.94	46712.41
582.10	46401.12
582.26	46415.16
582.42	46529.85
582.58	46508.79
582.74	46593.04
582.90	46483.04
583.06	46644.54
583.22	46141.32
583.38	46590.70
583.54	46555.60
583.70	46305.16
583.86	46665.60
584.02	46429.21
584.18	46272.39
584.34	46162.39
584.50	46394.10
584.66	46469.00
584.82	46038.34
584.98	46117.92
585.14	46752.20
585.30	46089.83
585.46	46354.31
585.62	45907.27
585.78	46033.66
585.94	45998.55
586.10	45961.10
586.26	46000.89
586.42	46595.38
586.58	46564.96
586.74	45975.14
586.90	46461.97
587.06	46349.63
587.22	46656.24
587.38	45963.44
587.54	46241.96
587.70	46340.27
587.86	46237.28
588.02	46148.34
588.18	46515.81
588.34	45933.01
588.49	45914.29
588.65	45560.87
588.81	45839.39
588.97	45804.28
589.13	45820.67
589.29	46241.96
589.45	45834.71
589.61	46129.62
589.77	46328.56
589.93	46419.84
