SpectraSuite Data File
++++++++++++++++++++++++++++++++++++
Date: Fri Oct 25 10:47:32 EDT 2013
User: price-jones
Dark Spectrum Present: No
Reference Spectrum Present: No
Number of Sampled Component Spectra: 1
Spectrometers: USB2+H05261
Integration Time (usec): 100000 (USB2+H05261)
Spectra Averaged: 1 (USB2+H05261)
Boxcar Smoothing: 0 (USB2+H05261)
Correct for Electrical Dark: No (USB2+H05261)
Strobe/Lamp Enabled: No (USB2+H05261)
Correct for Detector Non-linearity: No (USB2+H05261)
Correct for Stray Light: No (USB2+H05261)
Number of Pixels in Processed Spectrum: 2048
>>>>>Begin Processed Spectral Data<<<<<
365.73	119.37
365.92	119.37
366.12	119.37
366.32	91.28
366.52	35.11
366.72	37.45
366.91	56.17
367.11	39.79
367.31	0.00
367.51	4.68
367.70	124.05
367.90	58.51
368.10	7.02
368.30	51.49
368.49	4.68
368.69	28.09
368.89	14.04
369.09	7.02
369.28	65.54
369.48	77.24
369.68	79.58
369.87	53.83
370.07	110.01
370.27	147.45
370.47	124.05
370.66	334.70
370.86	411.93
371.06	428.32
371.25	402.57
371.45	447.04
371.65	456.40
371.84	397.89
372.04	456.40
372.24	484.49
372.44	418.96
372.63	470.45
372.83	468.11
373.03	381.51
373.22	514.92
373.42	496.19
373.62	470.45
373.81	498.53
374.01	552.37
374.21	510.24
374.40	566.41
374.60	571.09
374.79	580.45
374.99	505.56
375.19	519.60
375.38	543.00
375.58	575.77
375.78	589.82
375.97	645.99
376.17	638.97
376.37	573.43
376.56	627.26
376.76	477.47
376.95	571.09
377.15	594.50
377.35	594.50
377.54	575.77
377.74	603.86
377.93	594.50
378.13	645.99
378.33	648.33
378.52	653.01
378.72	634.29
378.91	667.05
379.11	535.98
379.31	568.75
379.50	655.35
379.70	641.31
379.89	709.18
380.09	648.33
380.28	641.31
380.48	594.50
380.68	603.86
380.87	587.47
381.07	650.67
381.26	667.05
381.46	645.99
381.65	608.54
381.85	674.07
382.04	709.18
382.24	692.80
382.43	617.90
382.63	660.03
382.83	540.66
383.02	667.05
383.22	706.84
383.41	709.18
383.61	676.41
383.80	812.17
384.00	671.73
384.19	692.80
384.39	744.29
384.58	678.76
384.78	727.91
384.97	657.69
385.17	704.50
385.36	711.52
385.56	737.27
385.75	744.29
385.95	711.52
386.14	795.78
386.34	767.70
386.53	779.40
386.72	781.74
386.92	809.83
387.11	863.66
387.31	711.52
387.50	788.76
387.70	781.74
387.89	833.23
388.09	805.14
388.28	791.10
388.48	868.34
388.67	786.42
388.86	858.98
389.06	786.42
389.25	905.79
389.45	889.40
389.64	912.81
389.84	931.53
390.03	971.32
390.22	873.02
390.42	954.94
390.61	894.08
390.81	837.91
391.00	873.02
391.19	983.02
391.39	992.39
391.58	903.45
391.78	940.90
391.97	931.53
392.16	976.00
392.36	924.51
392.55	957.28
392.75	945.58
392.94	943.24
393.13	957.28
393.33	856.64
393.52	952.60
393.71	999.41
393.91	1015.79
394.10	959.62
394.29	1043.88
394.49	1032.18
394.68	992.39
394.88	1093.03
395.07	1090.69
395.26	1125.80
395.46	1020.47
395.65	1032.18
395.84	1057.92
396.04	1179.63
396.23	1074.31
396.42	1029.84
396.62	1086.01
396.81	1132.82
397.00	1149.20
397.19	1086.01
397.39	1228.78
397.58	1123.46
397.77	1203.04
397.97	1259.21
398.16	1203.04
398.35	1247.51
398.55	1282.61
398.74	1191.33
398.93	1252.19
399.12	1200.69
399.32	1235.80
399.51	1329.42
399.70	1291.98
399.90	1313.04
400.09	1299.00
400.28	1350.49
400.47	1359.85
400.67	1481.56
400.86	1310.70
401.05	1369.21
401.24	1399.64
401.44	1446.45
401.63	1483.90
401.82	1469.86
402.01	1427.73
402.21	1521.35
402.40	1481.56
402.59	1467.52
402.78	1577.52
402.97	1577.52
403.17	1483.90
403.36	1507.30
403.55	1516.67
403.74	1535.39
403.93	1558.80
404.13	1647.74
404.32	1645.40
404.51	1483.90
404.70	1650.08
404.89	1659.44
405.09	1736.68
405.28	1734.34
405.47	1687.53
405.66	1696.89
405.85	1661.78
406.05	1694.55
406.24	1600.93
406.43	1781.15
406.62	1776.47
406.81	1870.09
407.00	1715.61
407.20	1739.02
407.39	1830.30
407.58	1764.76
407.77	1877.11
407.96	1949.67
408.15	1905.20
408.34	1919.24
408.54	1912.22
408.73	1886.47
408.92	1963.71
409.11	1921.58
409.30	2015.20
409.49	1982.43
409.68	2003.50
409.87	1921.58
410.07	2054.99
410.26	1968.39
410.45	2047.97
410.64	2038.61
410.83	2132.23
411.02	2113.50
411.21	2174.36
411.40	2169.68
411.59	2267.98
411.78	2244.57
411.98	2380.32
412.17	2326.49
412.36	2349.90
412.55	2331.17
412.74	2282.02
412.93	2263.30
413.12	2392.03
413.31	2504.37
413.50	2427.14
413.69	2427.14
413.88	2452.88
414.07	2567.57
414.26	2487.99
414.45	2513.74
414.64	2506.71
414.83	2693.96
415.02	2670.55
415.22	2651.83
415.41	2785.24
415.60	2703.32
415.79	2764.17
415.98	2731.41
416.17	2818.00
416.36	2754.81
416.55	2782.90
416.74	2974.82
416.93	2647.15
417.12	2857.79
417.31	2846.09
417.50	2918.65
417.69	2960.78
417.88	2970.14
418.07	2984.18
418.26	2949.08
418.45	3054.40
418.64	3108.23
418.83	3096.53
419.02	3068.44
419.21	3096.53
419.39	3028.65
419.58	3239.30
419.77	3019.29
419.96	3236.96
420.15	3148.02
420.34	3307.18
420.53	3122.27
420.72	3286.11
420.91	3178.45
421.10	3145.68
421.29	3405.48
421.48	3363.35
421.67	3318.88
421.86	3346.97
422.05	3307.18
422.24	3279.09
422.43	3386.76
422.61	3281.43
422.80	3379.73
422.99	3524.85
423.18	3412.50
423.37	3501.44
423.56	3337.60
423.75	3494.42
423.94	3403.14
424.13	3236.96
424.32	3239.30
424.50	3351.65
424.69	3576.34
424.88	3510.80
425.07	3454.63
425.26	3517.83
425.45	3475.70
425.64	3335.26
425.83	3419.52
426.01	3590.38
426.20	3463.99
426.39	3506.12
426.58	3426.54
426.77	3510.80
426.96	3475.70
427.15	3541.23
427.33	3655.92
427.52	3702.73
427.71	3616.13
427.90	3562.30
428.09	3478.04
428.28	3499.10
428.46	3740.18
428.65	3709.75
428.84	3822.09
429.03	3805.71
429.22	3735.50
429.40	3761.24
429.59	3653.58
429.78	3543.57
429.97	3487.40
430.16	3735.50
430.34	3765.92
430.53	3714.43
430.72	3829.12
430.91	3751.88
431.10	3892.31
431.28	3999.98
431.47	4070.19
431.66	4203.60
431.85	3978.91
432.03	4184.88
432.22	4119.34
432.41	3964.87
432.60	4091.26
432.79	4002.32
432.97	4294.88
433.16	4149.77
433.35	3995.29
433.54	4198.92
433.72	4133.39
433.91	4219.99
434.10	4219.99
434.28	4203.60
434.47	4271.48
434.66	4217.65
434.85	4250.41
435.03	4329.99
435.22	4409.57
435.41	4346.37
435.59	4524.26
435.78	4512.55
435.97	4311.27
436.16	4545.32
436.34	4491.49
436.53	4404.89
436.72	4547.66
436.90	4454.04
437.09	4585.11
437.28	4404.89
437.46	4606.17
437.65	4519.57
437.84	4685.75
438.02	4559.36
438.21	4690.43
438.40	4514.89
438.58	4688.09
438.77	4774.69
438.96	4830.87
439.14	4971.30
439.33	4896.40
439.52	4858.95
439.70	4919.81
439.89	4898.74
440.08	5069.60
440.26	5074.28
440.45	4957.25
440.63	5181.95
440.82	5132.79
441.01	5118.75
441.19	5231.10
441.38	5301.31
441.57	5322.38
441.75	5214.71
441.94	5434.72
442.12	5322.38
442.31	5458.13
442.50	5413.66
442.68	5537.71
442.87	5518.98
443.05	5462.81
443.24	5554.09
443.43	5514.30
443.61	5572.82
443.80	5820.91
443.98	5659.42
444.17	5390.25
444.35	5621.97
444.54	5886.45
444.73	5593.88
444.91	5731.97
445.10	5607.92
445.28	5717.93
445.47	5708.57
445.65	5694.52
445.84	5692.18
446.02	5731.97
446.21	5771.76
446.39	5921.56
446.58	5741.33
446.77	5767.08
446.95	5514.30
447.14	5743.67
447.32	5846.66
447.51	5734.31
447.69	5841.98
447.88	5778.78
448.06	5757.72
448.25	5930.92
448.43	5877.09
448.62	5832.62
448.80	5790.49
448.99	5778.78
449.17	5930.92
449.36	6036.24
449.54	6141.57
449.73	6076.03
449.91	6157.95
450.10	6186.04
450.28	6279.66
450.46	6324.13
450.65	6242.21
450.83	6272.64
451.02	6293.70
451.20	6291.36
451.39	6176.67
451.57	6406.05
451.76	6225.82
451.94	6298.38
452.13	6415.41
452.31	6455.20
452.49	6263.27
452.68	6420.09
452.86	6595.63
453.05	6502.01
453.23	6537.12
453.42	6312.42
453.60	6431.79
453.78	6637.76
453.97	6305.40
454.15	6354.55
454.34	6579.25
454.52	6614.35
454.70	6705.63
454.89	6513.71
455.07	6590.95
455.26	6590.95
455.44	6799.26
455.62	6839.05
455.81	6736.06
455.99	6827.34
456.17	6703.29
456.36	6675.21
456.54	6883.52
456.73	6951.39
456.91	7234.60
457.09	7070.76
457.28	7066.08
457.46	7012.24
457.64	7194.81
457.83	7234.60
458.01	6993.52
458.19	7384.39
458.38	7047.35
458.56	7368.01
458.74	7335.24
458.93	7070.76
459.11	7265.02
459.29	7119.91
459.48	7386.73
459.66	7274.38
459.84	7162.04
460.03	7386.73
460.21	7356.30
460.39	7314.17
460.57	7293.11
460.76	7461.63
460.94	7424.18
461.12	7522.48
461.31	7520.14
461.49	7602.06
461.67	7428.86
461.85	7840.79
462.04	7536.52
462.22	8203.58
462.40	7885.26
462.59	7740.15
462.77	7845.48
462.95	7826.75
463.13	7845.48
463.32	7786.96
463.50	7920.37
463.68	7894.63
463.86	8011.65
464.05	7838.45
464.23	7843.14
464.41	7833.77
464.59	7932.08
464.78	8086.55
464.96	8112.30
465.14	7801.01
465.32	8077.19
465.50	8013.99
465.69	8229.32
465.87	7922.71
466.05	8131.02
466.23	8241.03
466.41	8187.19
466.60	8280.82
466.78	8290.18
466.96	8180.17
467.14	8187.19
467.32	8109.96
467.51	8437.63
467.69	8056.12
467.87	8140.38
468.05	8376.78
468.23	8313.58
468.41	8301.88
468.60	8465.72
468.78	8564.02
468.96	8400.18
469.14	8571.04
469.32	8528.91
469.50	8173.15
469.69	8617.85
469.87	8688.07
470.05	8802.75
470.23	8793.39
470.41	8791.05
470.59	8781.69
470.77	8851.91
470.95	8863.61
471.14	9011.06
471.32	8753.60
471.50	9043.83
471.68	9142.13
471.86	9048.51
472.04	9128.09
472.22	9383.21
472.40	9064.89
472.58	8999.36
472.77	9046.17
472.95	9415.98
473.13	9593.86
473.31	9123.41
473.49	9504.92
473.67	9366.82
473.85	9544.70
474.03	9593.86
474.21	9610.24
474.39	9734.29
474.57	9767.06
474.75	9741.31
474.93	9893.44
475.12	9729.61
475.30	10038.56
475.48	9809.19
475.66	10019.83
475.84	10057.28
476.02	10050.26
476.20	10345.17
476.38	10146.22
476.56	10640.08
476.74	10490.28
476.92	10637.73
477.10	10359.21
477.28	10457.51
477.46	10619.01
477.64	10810.93
477.82	11077.76
478.00	11234.57
478.18	11096.48
478.36	11267.34
478.54	11201.80
478.72	11370.32
478.90	11438.20
479.08	11529.48
479.26	11789.28
479.44	11667.57
479.62	11906.31
479.80	11985.88
479.98	12086.53
480.16	12079.50
480.34	11875.88
480.52	12182.49
480.70	12131.00
480.88	12020.99
481.06	12266.75
481.24	12241.00
481.41	12674.00
481.59	12636.55
481.77	12582.72
481.95	12678.68
482.13	12952.52
482.31	13032.10
482.49	13114.02
482.67	13055.51
482.85	13305.95
483.03	13296.58
483.21	13537.66
483.39	13706.18
483.57	13518.93
483.74	13806.82
483.92	13937.89
484.10	13996.40
484.28	14340.46
484.46	14508.98
484.64	14513.66
484.82	14476.21
485.00	14429.40
485.18	14607.28
485.35	14937.30
485.53	14876.44
485.71	14831.97
485.89	15255.61
486.07	15002.83
486.25	15026.24
486.43	15445.20
486.61	15683.93
486.78	15740.10
486.96	15800.96
487.14	15920.32
487.32	15894.58
487.50	16088.84
487.68	16093.52
487.85	16463.33
488.03	16746.53
488.21	16704.40
488.39	16683.34
488.57	16929.09
488.75	16755.90
488.92	17221.66
489.10	17294.22
489.28	17263.79
489.46	17565.72
489.64	17439.33
489.81	18059.57
489.99	18012.76
490.17	18274.90
490.35	18403.63
490.53	18223.41
490.70	18251.50
490.88	18249.16
491.06	18719.60
491.24	18890.46
491.41	18881.10
491.59	18855.36
491.77	19143.24
491.95	19337.51
492.13	19346.87
492.30	19447.51
492.48	19386.66
492.66	19337.51
492.84	19534.11
493.01	20081.80
493.19	19814.98
493.37	19953.07
493.54	19969.45
493.72	20346.28
493.90	20182.44
494.08	20489.05
494.25	20760.55
494.43	20828.43
494.61	20896.30
494.79	20886.94
494.96	21015.67
495.14	20931.41
495.32	21298.88
495.49	21582.08
495.67	21507.18
495.85	21542.29
496.02	21902.73
496.20	21769.32
496.38	22057.21
496.55	21989.33
496.73	22448.08
496.91	22146.15
497.09	22609.58
497.26	22618.94
497.44	22455.10
497.62	22806.18
497.79	22707.88
497.97	22852.99
498.14	23056.62
498.32	22927.89
498.50	22988.74
498.67	22939.59
498.85	23393.65
499.03	23330.46
499.20	23723.67
499.38	23637.07
499.56	23969.43
499.73	24002.19
499.91	23843.04
500.08	24156.67
500.26	23735.37
500.44	24386.04
500.61	24189.44
500.79	24423.49
500.97	24514.77
501.14	24758.19
501.32	24849.47
501.49	24603.71
501.67	24479.66
501.84	24975.86
502.02	24870.53
502.20	25228.63
502.37	25116.29
502.55	25352.68
502.72	25228.63
502.90	25348.00
503.07	25261.40
503.25	25268.42
503.43	25773.98
503.60	25624.18
503.78	25441.62
503.95	25778.66
504.13	25944.84
504.30	25867.60
504.48	25731.85
504.65	26504.23
504.83	26281.88
505.01	26679.77
505.18	26457.42
505.36	26698.49
505.53	26532.31
505.71	26927.86
505.88	27274.26
506.06	26522.95
506.23	26796.79
506.41	26845.94
506.58	27431.08
506.76	27190.00
506.93	27143.19
507.11	27182.98
507.28	27356.18
507.46	27351.50
507.63	27290.65
507.81	27459.16
507.98	28077.07
508.16	27756.41
508.33	28039.62
508.50	27789.18
508.68	28074.73
508.85	28477.30
509.03	28130.90
509.20	28215.16
509.38	28458.57
509.55	28819.02
509.73	28535.81
509.90	28505.38
510.08	28697.31
510.25	28669.22
510.42	29010.94
510.60	28971.15
510.77	29223.93
510.95	29043.71
511.12	28966.47
511.30	28957.11
511.47	29401.81
511.64	29612.46
511.82	29617.14
511.99	29479.05
512.17	29734.17
512.34	29621.82
512.51	29872.26
512.69	30213.98
512.86	30146.10
513.04	29750.55
513.21	30246.74
513.38	30199.93
513.56	30068.86
513.73	30066.52
513.90	30288.87
514.08	30459.73
514.25	30848.26
514.43	30412.92
514.60	30480.80
514.77	30611.87
514.95	31068.27
515.12	30682.08
515.29	30820.17
515.47	31321.05
515.64	31374.88
515.81	30998.06
515.99	31145.51
516.16	31349.14
516.33	31213.38
516.51	31103.38
516.68	31204.02
516.85	31108.06
517.03	31089.34
517.20	31681.49
517.37	31328.07
517.54	31709.58
517.72	32112.15
517.89	31426.37
518.06	31871.07
518.24	31992.78
518.41	31662.77
518.58	32034.91
518.75	31585.53
518.93	32275.99
519.10	32280.67
519.27	32779.20
519.45	32119.17
519.62	32418.76
519.79	32673.88
519.96	32308.76
520.14	32786.22
520.31	32767.50
520.48	33270.72
520.65	32900.91
520.83	33069.43
521.00	33247.31
521.17	33324.55
521.34	33139.65
521.52	33259.01
521.69	33039.00
521.86	33198.16
522.03	33661.58
522.20	33577.33
522.38	33647.54
522.55	33902.66
522.72	33750.52
522.89	33699.03
523.07	33745.84
523.24	33940.11
523.41	33881.60
523.58	33598.39
523.75	34281.83
523.92	34349.70
524.10	34330.98
524.27	34522.90
524.44	34134.37
524.61	34445.66
524.78	34342.68
524.96	34813.13
525.13	34565.03
525.30	35077.61
525.47	34700.78
525.64	35049.52
525.81	35133.78
525.98	35047.18
526.16	34815.47
526.33	35103.35
526.50	35047.18
526.67	34450.35
526.84	34967.60
527.01	34731.21
527.18	35112.72
527.36	35363.15
527.53	35491.88
527.70	35526.99
527.87	35768.07
528.04	35452.09
528.21	35702.53
528.38	35735.30
528.55	35728.28
528.72	36072.34
528.89	35821.90
529.07	35711.89
529.24	35449.75
529.41	35908.50
529.58	35728.28
529.75	35599.55
529.92	36046.59
530.09	36517.04
530.26	36009.14
530.43	36725.35
530.60	36191.70
530.77	36432.78
530.94	36828.33
531.11	36507.68
531.28	36842.37
531.46	36933.65
531.63	36786.20
531.80	36620.02
531.97	36547.47
532.14	36622.36
532.31	36533.42
532.48	36730.03
532.65	37230.90
532.82	36723.01
532.99	37333.89
533.16	36840.03
533.33	37174.73
533.50	37567.94
533.67	37270.69
533.84	37148.98
534.01	37399.42
534.18	37205.16
534.35	37963.49
534.52	37567.94
534.69	37570.28
534.86	37270.69
535.03	36987.49
535.20	37439.21
535.37	37741.14
535.54	37951.79
535.71	38038.39
535.88	37610.07
536.05	37586.66
536.22	38185.84
536.38	38132.01
536.55	37937.74
536.72	38139.03
536.89	38068.81
537.06	38305.21
537.23	38480.75
537.40	38232.65
537.57	38438.62
537.74	38438.62
537.91	38539.26
538.08	38644.59
538.25	38492.45
538.42	38745.23
538.59	38649.27
538.75	38143.71
538.92	38380.10
539.09	38602.46
539.26	38960.56
539.43	38960.56
539.60	38749.91
539.77	38682.03
539.94	38829.49
540.11	38796.72
540.28	38462.02
540.44	39005.03
540.61	39030.77
540.78	38810.76
540.95	38782.68
541.12	38766.29
541.29	38946.51
541.46	39091.63
541.62	39285.89
541.79	39431.01
541.96	38983.96
542.13	39239.08
542.30	39573.78
542.47	39072.90
542.63	39260.15
542.80	39508.24
542.97	40039.54
543.14	39772.72
543.31	40058.27
543.48	39749.32
543.64	40423.39
543.81	40161.25
543.98	39840.60
544.15	39875.71
544.32	40105.08
544.48	40498.29
544.65	40088.70
544.82	40432.75
544.99	40245.51
545.16	40318.07
545.32	40336.79
545.49	40598.93
545.66	40671.49
545.83	40210.40
546.00	40884.48
546.16	40383.60
546.33	40245.51
546.50	40390.62
546.67	40650.42
546.83	40098.06
547.00	40421.05
547.17	40603.61
547.34	40924.27
547.50	40673.83
547.67	40690.21
547.84	40289.98
548.00	41010.87
548.17	41422.80
548.34	40783.83
548.51	41109.17
548.67	41092.79
548.84	41165.34
549.01	41104.49
549.18	41209.81
549.34	41099.81
549.51	41596.00
549.68	41404.08
549.84	41488.34
550.01	41607.70
550.18	41312.80
550.34	40954.69
550.51	41673.24
550.68	41198.11
550.84	40877.46
551.01	41055.34
551.18	41296.41
551.34	41359.61
551.51	41535.15
551.68	41886.23
551.84	42012.62
552.01	41310.46
552.18	41626.43
552.34	41385.35
552.51	41612.38
552.68	41890.91
552.84	42237.31
553.01	42176.45
553.18	41647.49
553.34	42043.04
553.51	41502.38
553.67	41851.12
553.84	41986.87
554.01	42249.01
554.17	42263.05
554.34	41909.63
554.51	42108.58
554.67	42312.20
554.84	42366.04
555.00	41825.37
555.17	42155.39
555.33	42302.84
555.50	42073.47
555.67	42682.01
555.83	42649.24
556.00	42209.22
556.16	42892.66
556.33	42682.01
556.50	42508.81
556.66	43269.48
556.83	42181.13
556.99	42660.94
557.16	43007.34
557.32	42911.38
557.49	42705.41
557.65	42321.57
557.82	42625.84
557.98	42354.33
558.15	42689.03
558.32	42820.10
558.48	43012.02
558.65	42534.56
558.81	43182.88
558.98	42644.56
559.14	43154.80
559.31	42581.37
559.47	42761.59
559.64	43192.25
559.80	43236.72
559.97	42616.47
560.13	42895.00
560.30	42569.66
560.46	42967.55
560.63	42761.59
560.79	43168.84
560.96	43856.96
561.12	43358.42
561.29	42988.62
561.45	43363.11
561.61	43058.84
561.78	42911.38
561.94	43072.88
562.11	42707.76
562.27	42878.61
562.44	42787.33
562.60	43423.96
562.77	44119.10
562.93	43084.58
563.10	43487.15
563.26	43115.01
563.42	43583.12
563.59	43470.77
563.75	43503.54
563.92	43702.48
564.08	43679.08
564.24	43793.76
564.41	43239.06
564.57	43454.39
564.74	43405.23
564.90	43299.91
565.07	43374.81
565.23	43386.51
565.39	43875.68
565.56	43367.79
565.72	43484.81
565.88	43679.08
566.05	43213.31
566.21	43519.92
566.38	43721.21
566.54	43725.89
566.70	44165.91
566.87	43856.96
567.03	43777.38
567.19	43636.95
567.36	43768.02
567.52	43548.01
567.68	44023.14
567.85	43445.02
568.01	43407.58
568.17	43910.79
568.34	43578.43
568.50	43550.35
568.66	43566.73
568.83	43732.91
568.99	44203.36
569.15	43632.27
569.32	43578.43
569.48	43217.99
569.64	43922.49
569.81	44046.54
569.97	43648.65
570.13	44095.69
570.30	43442.68
570.46	43730.57
570.62	43571.41
570.78	43716.53
570.95	43978.67
571.11	44004.41
571.27	43775.04
571.43	43789.08
571.60	44130.80
571.76	43702.48
571.92	44009.09
572.09	44142.50
572.25	43777.38
572.41	43840.57
572.57	43800.79
572.74	44442.09
572.90	43889.73
573.06	44292.30
573.22	43786.74
573.38	43871.00
573.55	43761.00
573.71	44072.29
573.87	43856.96
574.03	44083.99
574.20	44013.77
574.36	43854.62
574.52	43908.45
574.68	43995.05
574.84	43793.76
575.01	44079.31
575.17	44055.90
575.33	43826.53
575.49	43908.45
575.65	44168.25
575.82	44545.08
575.98	44154.21
576.14	44624.65
576.30	44147.18
576.46	43409.92
576.62	43758.66
576.79	43934.20
576.95	43889.73
577.11	43903.77
577.27	43985.69
577.43	44158.89
577.59	43578.43
577.75	44182.29
577.92	43585.46
578.08	43962.28
578.24	43817.17
578.40	44257.19
578.56	44088.67
578.72	44058.24
578.88	43924.83
579.04	44282.94
579.21	44264.21
579.37	44091.01
579.53	44051.22
579.69	43910.79
579.85	43992.71
580.01	44416.35
580.17	43943.56
580.33	44713.59
580.49	44217.40
580.65	44189.31
580.82	44226.76
580.98	44355.49
581.14	44114.42
581.30	44671.46
581.46	44194.00
581.62	44182.29
581.78	44079.31
581.94	44453.79
582.10	43838.23
582.26	44268.89
582.42	43856.96
582.58	44081.65
582.74	44016.11
582.90	44360.17
583.06	43964.62
583.22	44882.11
583.38	44275.91
583.54	44170.59
583.70	44226.76
583.86	44280.60
584.02	43875.68
584.18	44587.21
584.34	44219.74
584.50	44477.20
584.66	44329.75
584.82	44107.40
584.98	44320.38
585.14	44348.47
585.30	43952.92
585.46	43838.23
585.62	43892.07
585.78	44144.84
585.94	43641.63
586.10	44481.88
586.26	44465.50
586.42	44409.32
586.58	44680.83
586.74	44252.51
586.90	44069.95
587.06	44285.28
587.22	44701.89
587.38	43927.17
587.54	44444.43
587.70	44729.98
587.86	44519.33
588.02	44271.23
588.18	44327.41
588.34	44388.26
588.49	44140.16
588.65	43845.26
588.81	43976.33
588.97	44130.80
589.13	43847.60
589.29	43943.56
589.45	44619.97
589.61	44388.26
589.77	44790.83
589.93	44900.84
590.08	44701.89
590.24	44722.96
590.40	45174.68
