SpectraSuite Data File
++++++++++++++++++++++++++++++++++++
Date: Fri Oct 25 11:26:22 EDT 2013
User: price-jones
Dark Spectrum Present: No
Reference Spectrum Present: No
Number of Sampled Component Spectra: 1
Spectrometers: USB2+H05261
Integration Time (usec): 100000 (USB2+H05261)
Spectra Averaged: 1 (USB2+H05261)
Boxcar Smoothing: 0 (USB2+H05261)
Correct for Electrical Dark: No (USB2+H05261)
Strobe/Lamp Enabled: No (USB2+H05261)
Correct for Detector Non-linearity: No (USB2+H05261)
Correct for Stray Light: No (USB2+H05261)
Number of Pixels in Processed Spectrum: 2048
>>>>>Begin Processed Spectral Data<<<<<
365.73	229.37
365.92	229.37
366.12	229.37
366.32	196.60
366.52	149.79
366.72	220.01
366.91	173.20
367.11	110.01
367.31	86.60
367.51	98.30
367.70	163.84
367.90	168.52
368.10	191.92
368.30	147.45
368.49	95.96
368.69	175.54
368.89	175.54
369.09	135.75
369.28	234.05
369.48	163.84
369.68	191.92
369.87	156.82
370.07	250.44
370.27	243.42
370.47	320.65
370.66	566.41
370.86	643.65
371.06	695.14
371.25	755.99
371.45	674.07
371.65	737.27
371.84	660.03
372.04	706.84
372.24	758.33
372.44	753.65
372.63	770.04
372.83	727.91
373.03	688.12
373.22	688.12
373.42	779.40
373.62	851.96
373.81	861.32
374.01	842.59
374.21	826.21
374.40	877.70
374.60	786.42
374.79	866.00
374.99	809.83
375.19	870.68
375.38	840.25
375.58	861.32
375.78	830.89
375.97	830.89
376.17	880.04
376.37	884.72
376.56	844.93
376.76	908.13
376.95	835.57
377.15	931.53
377.35	894.08
377.54	929.19
377.74	861.32
377.93	919.83
378.13	910.47
378.33	896.43
378.52	997.07
378.72	961.96
378.91	851.96
379.11	924.51
379.31	912.81
379.50	978.34
379.70	957.28
379.89	933.87
380.09	999.41
380.28	1004.09
380.48	1001.75
380.68	973.66
380.87	976.00
381.07	1018.13
381.26	957.28
381.46	1036.86
381.65	961.96
381.85	1018.13
382.04	1069.62
382.24	1036.86
382.43	1100.05
382.63	1107.07
382.83	1128.14
383.02	1046.22
383.22	1027.50
383.41	1041.54
383.61	1020.47
383.80	1022.81
384.00	1137.50
384.19	1163.25
384.39	1163.25
384.58	1174.95
384.78	1135.16
384.97	1118.78
385.17	1102.39
385.36	1203.04
385.56	1179.63
385.75	1181.97
385.95	1165.59
386.14	1221.76
386.34	1245.16
386.53	1184.31
386.72	1233.46
386.92	1284.95
387.11	1249.85
387.31	1179.63
387.50	1224.10
387.70	1284.95
387.89	1263.89
388.09	1294.32
388.28	1249.85
388.48	1252.19
388.67	1186.65
388.86	1306.02
389.06	1277.93
389.25	1425.39
389.45	1350.49
389.64	1348.15
389.84	1378.58
390.03	1455.81
390.22	1418.36
390.42	1432.41
390.61	1376.24
390.81	1296.66
391.00	1469.86
391.19	1451.13
391.39	1441.77
391.58	1465.18
391.78	1479.22
391.97	1511.99
392.16	1579.86
392.36	1593.90
392.55	1547.09
392.75	1523.69
392.94	1593.90
393.13	1603.27
393.33	1390.28
393.52	1542.41
393.71	1500.28
393.91	1511.99
394.10	1500.28
394.29	1497.94
394.49	1647.74
394.68	1652.42
394.88	1589.22
395.07	1645.40
395.26	1624.33
395.46	1671.14
395.65	1647.74
395.84	1678.16
396.04	1820.94
396.23	1762.42
396.42	1664.12
396.62	1783.49
396.81	1795.19
397.00	1755.40
397.19	1741.36
397.39	1816.26
397.58	1851.36
397.77	1760.08
397.97	1865.41
398.16	1769.44
398.35	1839.66
398.55	1858.39
398.74	1877.11
398.93	1914.56
399.12	1928.60
399.32	1987.11
399.51	1926.26
399.70	1923.92
399.90	1881.79
400.09	2054.99
400.28	2078.40
400.47	2057.33
400.67	2008.18
400.86	1923.92
401.05	2024.56
401.24	2043.29
401.44	2033.93
401.63	2069.03
401.82	2094.78
402.01	2146.27
402.21	2120.53
402.40	2113.50
402.59	2228.19
402.78	2277.34
402.97	2134.57
403.17	2235.21
403.36	2303.09
403.55	2389.69
403.74	2359.26
403.93	2270.32
404.13	2361.60
404.32	2375.64
404.51	2377.98
404.70	2417.77
404.89	2342.88
405.09	2403.73
405.28	2459.90
405.47	2455.22
405.66	2530.12
405.85	2483.31
406.05	2443.52
406.24	2553.52
406.43	2579.27
406.62	2562.89
406.81	2670.55
407.00	2553.52
407.20	2462.24
407.39	2651.83
407.58	2670.55
407.77	2574.59
407.96	2733.75
408.15	2682.25
408.34	2703.32
408.54	2771.19
408.73	2808.64
408.92	2750.13
409.11	2881.20
409.30	2857.79
409.49	2855.45
409.68	2958.44
409.87	2909.29
410.07	3070.78
410.26	3009.93
410.45	3070.78
410.64	2967.80
410.83	3075.46
411.02	3119.93
411.21	3243.98
411.40	3152.70
411.59	3105.89
411.78	3155.04
411.98	3232.28
412.17	3236.96
412.36	3246.32
412.55	3337.60
412.74	3478.04
412.93	3361.01
413.12	3377.39
413.31	3550.59
413.50	3407.82
413.69	3515.48
413.88	3513.14
414.07	3473.36
414.26	3623.15
414.45	3637.19
414.64	3669.96
414.83	3707.41
415.02	3669.96
415.22	3826.78
415.41	3829.12
415.60	3971.89
415.79	3826.78
415.98	3904.01
416.17	3889.97
416.36	3985.93
416.55	3934.44
416.74	3990.61
416.93	3880.61
417.12	4004.66
417.31	4196.58
417.50	4145.09
417.69	4297.22
417.88	4299.56
418.07	4292.54
418.26	4304.25
418.45	4322.97
418.64	4444.68
418.83	4386.16
419.02	4414.25
419.21	4313.61
419.39	4575.75
419.58	4257.43
419.77	4283.18
419.96	4674.05
420.15	4589.79
420.34	4540.64
420.53	4643.62
420.72	4645.96
420.91	4535.96
421.10	4624.90
421.29	4767.67
421.48	4702.14
421.67	4765.33
421.86	4713.84
422.05	4772.35
422.24	4716.18
422.43	4816.82
422.61	4880.02
422.80	5050.88
422.99	5008.75
423.18	4954.91
423.37	5088.32
423.56	4868.31
423.75	4840.23
423.94	4805.12
424.13	4507.87
424.32	4734.90
424.50	5022.79
424.69	5125.77
424.88	5165.56
425.07	4812.14
425.26	4919.81
425.45	4887.04
425.64	4875.34
425.83	4861.29
426.01	4882.36
426.20	4938.53
426.39	5036.83
426.58	4978.32
426.77	5060.24
426.96	5074.28
427.15	5050.88
427.33	5118.75
427.52	5116.41
427.71	5163.22
427.90	5085.98
428.09	5111.73
428.28	5228.76
428.46	5394.93
428.65	5221.74
428.84	5369.19
429.03	5582.18
429.22	5430.04
429.40	5341.10
429.59	5523.66
429.78	5301.31
429.97	5235.78
430.16	5497.92
430.34	5551.75
430.53	5760.06
430.72	5373.87
430.91	5650.05
431.10	5701.54
431.28	5778.78
431.47	5743.67
431.66	5839.64
431.85	5624.31
432.03	5856.02
432.22	6040.92
432.41	5860.70
432.60	5792.83
432.79	5816.23
432.97	5959.00
433.16	5966.03
433.35	6008.16
433.54	5926.24
433.72	6190.72
433.91	5966.03
434.10	6122.84
434.28	6181.35
434.47	6218.80
434.66	6141.57
434.85	6260.93
435.03	6113.48
435.22	6300.72
435.41	6525.41
435.59	6319.45
435.78	6361.58
435.97	6523.07
436.16	6445.84
436.34	6417.75
436.53	6326.47
436.72	6574.56
436.90	6576.91
437.09	6537.12
437.28	6382.64
437.46	6562.86
437.65	6754.79
437.84	6604.99
438.02	6621.38
438.21	6560.52
438.40	6675.21
438.58	6867.13
438.77	6986.50
438.96	6808.62
439.14	7056.72
439.33	7126.93
439.52	7187.79
439.70	7108.21
439.89	7321.20
440.08	7372.69
440.26	7157.36
440.45	7162.04
440.63	7445.24
440.82	7414.82
441.01	7515.46
441.19	7475.67
441.38	7569.29
441.57	7740.15
441.75	7747.17
441.94	7775.26
442.12	7749.51
442.31	7936.76
442.50	8133.36
442.68	8013.99
442.87	7871.22
443.05	7948.46
443.24	8175.49
443.43	7953.14
443.61	7997.61
443.80	8212.94
443.98	8086.55
444.17	7756.54
444.35	7985.91
444.54	8262.09
444.73	8133.36
444.91	7957.82
445.10	8390.82
445.28	8301.88
445.47	8224.64
445.65	8290.18
445.84	8404.86
446.02	8528.91
446.21	8341.67
446.39	8107.62
446.58	8446.99
446.77	8348.69
446.95	8332.31
447.14	8336.99
447.32	8489.12
447.51	8528.91
447.69	8458.70
447.88	8362.73
448.06	8451.67
448.25	8437.63
448.43	8341.67
448.62	8439.97
448.80	8411.89
448.99	8695.09
449.17	8636.58
449.36	8655.30
449.54	8819.14
449.73	8924.46
449.91	8908.08
450.10	8926.80
450.28	9043.83
450.46	8840.20
450.65	9067.24
450.83	9050.85
451.02	8938.51
451.20	9022.77
451.39	8961.91
451.57	9205.33
451.76	8978.30
451.94	9130.43
452.13	9357.46
452.31	9277.88
452.49	9022.77
452.68	9280.22
452.86	9275.54
453.05	9401.93
453.23	9423.00
453.42	9284.91
453.60	9401.93
453.78	9399.59
453.97	9334.06
454.15	9511.94
454.34	9540.02
454.52	9530.66
454.70	9734.29
454.89	9460.45
455.07	9696.84
455.26	9692.16
455.44	9837.27
455.62	9912.17
455.81	9848.97
455.99	9973.02
456.17	9989.41
456.36	10094.73
456.54	10155.58
456.73	10188.35
456.91	10434.11
457.09	10249.21
457.28	10609.65
457.46	10317.08
457.64	10597.95
457.83	10356.87
458.01	10588.58
458.19	10567.52
458.38	10434.11
458.56	10682.20
458.74	10714.97
458.93	10483.26
459.11	10602.63
459.29	10656.46
459.48	10934.98
459.66	10782.85
459.84	10787.53
460.03	11056.69
460.21	10925.62
460.39	10874.13
460.57	10967.75
460.76	11028.60
460.94	11077.76
461.12	11201.80
461.31	11119.89
461.49	11154.99
461.67	10913.92
461.85	11367.98
462.04	11349.26
462.22	11716.72
462.40	11632.46
462.59	11349.26
462.77	11318.83
462.95	11503.73
463.13	11234.57
463.32	11353.94
463.50	11758.85
463.68	11800.98
463.86	11672.25
464.05	11620.76
464.23	11850.13
464.41	11576.29
464.59	11700.34
464.78	11665.23
464.96	11655.87
465.14	11688.64
465.32	11786.94
465.50	11885.24
465.69	11899.28
465.87	12004.61
466.05	12063.12
466.23	11810.34
466.41	12098.23
466.60	12198.87
466.78	11948.43
466.96	12037.38
467.14	12339.30
467.32	12449.31
467.51	12365.05
467.69	12166.10
467.87	12365.05
468.05	12666.98
468.23	12430.59
468.41	12245.68
468.60	12606.13
468.78	12486.76
468.96	12365.05
469.14	12470.37
469.32	12659.96
469.50	12809.75
469.69	12973.59
469.87	13060.19
470.05	12999.34
470.23	13317.65
470.41	13067.21
470.59	13071.89
470.77	13074.23
470.95	13259.13
471.14	13296.58
471.32	13156.15
471.50	13507.23
471.68	13570.43
471.86	13500.21
472.04	13504.89
472.22	13818.52
472.40	13565.74
472.58	13650.00
472.77	14122.79
472.95	13799.80
473.13	14242.16
473.31	13839.59
473.49	14024.49
473.67	13862.99
473.85	14218.75
474.03	14260.88
474.21	14181.31
474.39	14677.50
474.57	14506.64
474.75	14710.27
474.93	14831.97
475.12	14796.87
475.30	14885.81
475.48	14831.97
475.66	15007.52
475.84	15119.86
476.02	15201.78
476.20	15363.28
476.38	15403.07
476.56	15840.75
476.74	15564.56
476.92	15653.50
477.10	15489.67
477.28	16187.14
477.46	16009.26
477.64	16187.14
477.82	16425.88
478.00	16599.08
478.18	16400.13
478.36	16737.17
478.54	17081.23
478.72	16917.39
478.90	17167.83
479.08	17427.63
479.26	17593.81
479.44	17425.29
479.62	17853.61
479.80	17680.41
479.98	17877.01
480.16	18572.15
480.34	18059.57
480.52	18146.17
480.70	18515.98
480.88	18391.93
481.06	18637.69
481.24	18361.50
481.41	18787.48
481.59	19204.10
481.77	19243.88
481.95	19222.82
482.13	19690.93
482.31	19503.68
482.49	19981.15
482.67	20065.41
482.85	20137.97
483.03	20109.88
483.21	20517.14
483.39	20781.62
483.57	20559.27
483.74	21123.33
483.92	20982.90
484.10	21184.19
484.28	21612.51
484.46	21546.97
484.64	22169.55
484.82	21631.23
485.00	22267.86
485.18	22647.02
485.35	22593.19
485.53	22642.34
485.71	22752.35
485.89	23222.80
486.07	23073.00
486.25	22958.31
486.43	23365.57
486.61	23477.91
486.78	23798.57
486.96	23639.41
487.14	24388.38
487.32	24191.78
487.50	24467.96
487.68	24594.35
487.85	24989.90
488.03	25202.89
488.21	25568.01
488.39	25474.39
488.57	25340.98
488.75	25766.96
488.92	25923.77
489.10	26551.04
489.28	26621.25
489.46	27040.21
489.64	26291.24
489.81	27325.75
489.99	27206.39
490.17	27662.79
490.35	27880.46
490.53	27681.52
490.70	28168.35
490.88	28027.92
491.06	28732.42
491.24	28629.43
491.41	28910.30
491.59	28769.86
491.77	29151.37
491.95	29556.28
492.13	29474.37
492.30	30064.18
492.48	29907.37
492.66	30192.91
492.84	29839.49
493.01	30714.85
493.19	30361.43
493.37	30518.25
493.54	30941.88
493.72	31470.84
493.90	30494.84
494.08	31337.43
494.25	31512.97
494.43	31545.74
494.61	32163.64
494.79	32364.93
494.96	32416.42
495.14	32098.11
495.32	33046.02
495.49	33029.64
495.67	32996.87
495.85	33600.73
496.02	33546.90
496.20	33853.51
496.38	34134.37
496.55	34005.64
496.73	34354.38
496.91	34277.15
497.09	34249.06
497.26	34686.74
497.44	35122.08
497.62	34937.18
497.79	35709.55
497.97	35225.06
498.14	35826.58
498.32	35789.13
498.50	35487.20
498.67	36430.44
498.85	36154.26
499.03	36247.88
499.20	36449.16
499.38	36517.04
499.56	36753.43
499.73	36566.19
499.91	36921.95
500.08	37247.29
500.26	36961.74
500.44	37261.33
500.61	37474.32
500.79	37511.77
500.97	37778.59
501.14	37881.57
501.32	38190.52
501.49	38391.81
501.67	38043.07
501.84	38677.35
502.02	39016.73
502.20	38150.73
502.37	38988.64
502.55	39215.68
502.72	39409.94
502.90	39030.77
503.07	39335.04
503.25	39555.05
503.43	39569.10
503.60	39768.04
503.78	39938.90
503.95	40172.96
504.13	40250.19
504.30	40156.57
504.48	40371.90
504.65	40390.62
504.83	40751.07
505.01	40725.32
505.18	40978.10
505.36	41624.09
505.53	40488.93
505.71	41282.37
505.88	41324.50
506.06	41237.90
506.23	41584.30
506.41	41560.89
506.58	42003.25
506.76	42122.62
506.93	41881.55
507.11	41979.85
507.28	42281.78
507.46	42223.26
507.63	42010.28
507.81	42946.49
507.98	42087.51
508.16	42742.86
508.33	43374.81
508.50	43154.80
508.68	43281.19
508.85	43868.66
509.03	43309.27
509.20	43452.05
509.38	43835.89
509.55	43988.03
509.73	44123.78
509.90	44023.14
510.08	44172.93
510.25	44240.81
510.42	44226.76
510.60	44430.39
510.77	44949.99
510.95	45230.85
511.12	44772.11
511.30	44758.06
511.47	45317.45
511.64	45153.62
511.82	45556.19
511.99	45507.04
512.17	45315.11
512.34	45408.73
512.51	45617.04
512.69	46234.94
512.86	46237.28
513.04	46244.30
513.21	46061.74
513.38	46370.69
513.56	46686.67
513.73	46286.43
513.90	46461.97
514.08	46597.73
514.25	46841.14
514.43	47089.24
514.60	47154.77
514.77	46717.09
514.95	47196.90
515.12	47068.17
515.29	46946.47
515.47	47538.62
515.64	47988.00
515.81	47852.25
515.99	47512.88
516.16	48076.94
516.33	47917.79
516.51	48243.12
516.68	47641.60
516.85	47999.71
517.03	48568.46
517.20	48884.43
517.37	48619.95
517.54	48535.69
517.72	48390.58
517.89	48758.04
518.06	48926.56
518.24	48933.58
518.41	48882.09
518.58	49303.38
518.75	49045.93
518.93	48849.32
519.10	48781.45
519.27	49298.70
519.45	49289.34
519.62	49635.74
519.79	49565.52
519.96	49628.72
520.14	49600.63
520.31	49830.01
520.48	49785.54
520.65	50202.15
520.83	50539.19
521.00	50351.94
521.17	50246.62
521.34	50389.39
521.52	50817.71
521.69	50410.46
521.86	50389.39
522.03	50784.94
522.20	50906.65
522.38	50965.17
522.55	51061.13
522.72	50937.08
522.89	51168.79
523.07	51292.84
523.24	51180.49
523.41	51721.16
523.58	51119.64
523.75	51332.63
523.92	51796.06
524.10	51606.47
524.27	51756.27
524.44	51833.50
524.61	51938.83
524.78	52079.26
524.96	51973.94
525.13	51831.16
525.30	51882.66
525.47	52114.37
525.64	52090.96
525.81	52247.78
525.98	52140.11
526.16	52020.75
526.33	52411.62
526.50	52868.02
526.67	52275.87
526.84	52617.58
527.01	52779.08
527.18	52652.69
527.36	52683.12
527.53	52713.55
527.70	53191.01
527.87	53198.04
528.04	53083.35
528.21	52741.63
528.38	53024.84
528.55	53373.58
528.72	53041.22
528.89	53095.05
529.07	52949.94
529.24	53237.83
529.41	53429.75
529.58	53415.71
529.75	53317.40
529.92	53471.88
530.09	53368.90
530.26	53818.28
530.43	53577.20
530.60	53811.26
530.77	53670.82
530.94	53907.22
531.11	53574.86
531.28	53694.23
531.46	53851.05
531.63	53977.43
531.80	53820.62
531.97	54239.57
532.14	53921.26
532.31	54127.23
532.48	54197.44
532.65	54422.14
532.82	54145.95
532.99	54356.60
533.16	54071.06
533.33	54571.93
533.50	54590.66
533.67	54672.57
533.84	54384.69
534.01	54585.97
534.18	54745.13
534.35	54841.09
534.52	54866.84
534.69	54672.57
534.86	55051.74
535.03	54843.43
535.20	54869.18
535.37	55018.97
535.54	55131.32
535.71	55061.10
535.88	55044.72
536.05	55096.21
536.22	55290.48
536.38	55400.48
536.55	55372.39
536.72	55264.73
536.89	55217.92
537.06	55255.37
537.23	55793.69
537.40	55447.29
537.57	55674.32
537.74	55398.14
537.91	55594.74
538.08	55676.66
538.25	55316.22
538.42	55531.55
538.59	55702.41
538.75	55629.85
538.92	55356.01
539.09	55969.23
539.26	55763.26
539.43	55896.67
539.60	56023.06
539.77	55962.21
539.94	56575.43
540.11	56327.33
540.28	56257.12
540.44	55927.10
540.61	56203.28
540.78	55978.59
540.95	56130.73
541.12	56060.51
541.29	56214.99
541.46	56353.08
541.62	56301.59
541.79	56390.53
541.96	56287.54
542.13	56369.46
542.30	56530.96
542.47	56570.75
542.63	56718.20
542.80	56598.83
542.97	56907.79
543.14	56959.28
543.31	56970.98
543.48	57073.96
543.64	57148.86
543.81	57336.10
543.98	57036.51
544.15	57242.48
544.32	57132.48
544.48	57277.59
544.65	57186.31
544.82	57106.73
544.99	57106.73
545.16	57024.81
545.32	57343.12
545.49	57392.28
545.66	57478.88
545.83	57312.70
546.00	57708.25
546.16	57303.34
546.33	57528.03
546.50	57286.95
546.67	57310.36
546.83	57172.27
547.00	57689.52
547.17	57380.57
547.34	57865.06
547.50	57762.08
547.67	57705.91
547.84	57719.95
548.00	57794.85
548.17	57874.43
548.34	57996.13
548.51	57813.57
548.67	57956.35
548.84	58108.48
549.01	57930.60
549.18	57914.22
549.34	58010.18
549.51	57977.41
549.68	57808.89
549.84	58281.68
550.01	57979.75
550.18	58087.42
550.34	58319.13
550.51	58148.27
550.68	58174.02
550.84	58113.16
551.01	58305.09
551.18	58206.78
551.34	58396.37
551.51	58344.87
551.68	58347.21
551.84	58321.47
552.01	58335.51
552.18	58536.80
552.34	58564.88
552.51	58363.60
552.68	58284.02
552.84	58541.48
553.01	58759.15
553.18	58550.84
553.34	58695.95
553.51	58660.85
553.67	58639.78
553.84	58529.78
554.01	58897.24
554.17	58763.83
554.34	58532.12
554.51	58740.42
554.67	58974.48
554.84	58710.00
555.00	58834.05
555.17	58735.74
555.33	58876.18
555.50	58639.78
555.67	58763.83
555.83	58864.47
556.00	58841.07
556.16	59213.21
556.33	59021.29
556.50	59023.63
556.66	59058.74
556.83	59023.63
556.99	58995.54
557.16	59262.36
557.32	59400.46
557.49	59405.14
557.65	59049.38
557.82	58946.39
557.98	59112.57
558.15	59295.13
558.32	59306.83
558.48	59260.02
558.65	59367.69
558.81	59334.92
558.98	59278.75
559.14	59231.94
559.31	59517.48
559.47	59339.60
559.64	59437.90
559.80	59491.74
559.97	59627.49
560.13	59480.03
560.30	59482.37
560.46	59561.95
560.63	59505.78
560.79	59543.23
560.96	59725.79
561.12	59552.59
561.29	59576.00
561.45	59704.73
561.61	59461.31
561.78	59571.32
561.94	59573.66
562.11	59482.37
562.27	59629.83
562.44	59732.81
562.60	59728.13
562.77	59849.84
562.93	59550.25
563.10	59896.65
563.26	59758.56
563.42	59931.76
563.59	59950.48
563.75	59920.05
563.92	59686.00
564.08	59735.15
564.24	59983.25
564.41	59980.91
564.57	60039.42
564.74	59950.48
564.90	59917.71
565.07	59941.12
565.23	59688.34
565.39	59880.27
565.56	59992.61
565.72	60009.00
565.88	60081.55
566.05	59870.90
566.21	60011.34
566.38	59943.46
566.54	60198.58
566.70	60013.68
566.87	60207.94
567.03	59765.58
567.19	60259.43
567.36	60175.17
567.52	59732.81
567.68	60376.46
567.85	60034.74
568.01	60266.45
568.17	59805.37
568.34	60430.29
568.50	60104.96
568.66	60130.70
568.83	60329.65
568.99	60039.42
569.15	60247.73
569.32	60327.31
569.48	60048.78
569.64	60486.46
569.81	60383.48
569.97	60303.90
570.13	60079.21
570.30	60226.66
570.46	60163.47
570.62	60369.44
570.78	60184.54
570.95	60093.25
571.11	60355.39
571.27	60182.19
571.43	60275.82
571.60	60563.70
571.76	60353.05
571.92	60516.89
572.09	60327.31
572.25	60231.35
572.41	60331.99
572.57	60348.37
572.74	60739.24
572.90	60285.18
573.06	60388.16
573.22	60479.44
573.38	60456.04
573.55	60437.31
573.71	60409.23
573.87	60509.87
574.03	60334.33
574.20	60357.74
574.36	60285.18
574.52	60573.06
574.68	60320.29
574.84	60587.11
575.01	60521.57
575.17	60423.27
575.33	60266.45
575.49	60519.23
575.65	60432.63
575.82	60446.68
575.98	60563.70
576.14	60584.77
576.30	60395.18
576.46	60371.78
576.62	60552.00
576.79	60582.43
576.95	60453.70
577.11	60552.00
577.27	60603.49
577.43	60713.50
577.59	60472.42
577.75	60449.02
577.92	60481.78
578.08	60493.49
578.24	60521.57
578.40	60676.05
578.56	60896.06
578.72	60676.05
578.88	60900.74
579.04	60811.80
579.21	60552.00
579.37	60591.79
579.53	60767.33
579.69	60481.78
579.85	60587.11
580.01	60488.80
580.17	60418.59
580.33	60676.05
580.49	60629.24
580.65	60701.79
580.82	60669.03
580.98	60720.52
581.14	60734.56
581.30	60959.25
581.46	60736.90
581.62	60823.50
581.78	60432.63
581.94	60772.01
582.10	60729.88
582.26	60577.75
582.42	60713.50
582.58	60760.31
582.74	60673.71
582.90	60940.53
583.06	60626.90
583.22	60629.24
583.38	60807.12
583.54	60626.90
583.70	60669.03
583.86	60844.57
584.02	60828.18
584.18	60931.17
584.34	60835.20
584.50	60807.12
584.66	60640.94
584.82	60491.15
584.98	60830.52
585.14	60889.04
585.30	60699.45
585.46	60741.58
585.62	60811.80
585.78	60860.95
585.94	60537.96
586.10	60783.71
586.26	60760.31
586.42	61031.81
586.58	60795.42
586.74	60769.67
586.90	61006.06
587.06	60807.12
587.22	60987.34
587.38	60898.40
587.54	60928.83
587.70	61038.83
587.86	60912.44
588.02	60842.23
588.18	61080.96
588.34	60896.06
588.49	60933.51
