SpectraSuite Data File
++++++++++++++++++++++++++++++++++++
Date: Fri Oct 25 11:25:18 EDT 2013
User: price-jones
Dark Spectrum Present: No
Reference Spectrum Present: No
Number of Sampled Component Spectra: 1
Spectrometers: USB2+H05261
Integration Time (usec): 100000 (USB2+H05261)
Spectra Averaged: 1 (USB2+H05261)
Boxcar Smoothing: 0 (USB2+H05261)
Correct for Electrical Dark: No (USB2+H05261)
Strobe/Lamp Enabled: No (USB2+H05261)
Correct for Detector Non-linearity: No (USB2+H05261)
Correct for Stray Light: No (USB2+H05261)
Number of Pixels in Processed Spectrum: 2048
>>>>>Begin Processed Spectral Data<<<<<
365.73	201.29
365.92	201.29
366.12	201.29
366.32	142.77
366.52	86.60
366.72	189.58
366.91	102.98
367.11	198.95
367.31	117.03
367.51	138.09
367.70	95.96
367.90	131.07
368.10	88.94
368.30	187.24
368.49	133.41
368.69	156.82
368.89	205.97
369.09	166.18
369.28	198.95
369.48	210.65
369.68	184.90
369.87	198.95
370.07	212.99
370.27	243.42
370.47	346.40
370.66	587.47
370.86	606.20
371.06	671.73
371.25	622.58
371.45	648.33
371.65	685.78
371.84	674.07
372.04	699.82
372.24	690.46
372.44	737.27
372.63	709.18
372.83	699.82
373.03	774.72
373.22	732.59
373.42	755.99
373.62	793.44
373.81	788.76
374.01	809.83
374.21	788.76
374.40	861.32
374.60	835.57
374.79	856.64
374.99	889.40
375.19	840.25
375.38	924.51
375.58	767.70
375.78	807.48
375.97	868.34
376.17	936.21
376.37	898.77
376.56	875.36
376.76	889.40
376.95	896.43
377.15	821.53
377.35	908.13
377.54	931.53
377.74	880.04
377.93	954.94
378.13	901.11
378.33	929.19
378.52	880.04
378.72	1004.09
378.91	957.28
379.11	954.94
379.31	926.85
379.50	861.32
379.70	1032.18
379.89	1041.54
380.09	950.26
380.28	994.73
380.48	1011.11
380.68	950.26
380.87	954.94
381.07	973.66
381.26	1043.88
381.46	938.55
381.65	1015.79
381.85	1004.09
382.04	1053.24
382.24	1034.52
382.43	1001.75
382.63	1006.43
382.83	1015.79
383.02	1144.52
383.22	1193.67
383.41	1081.33
383.61	1097.71
383.80	1132.82
384.00	1093.03
384.19	1174.95
384.39	1062.60
384.58	1132.82
384.78	1174.95
384.97	1200.69
385.17	1181.97
385.36	1198.35
385.56	1181.97
385.75	1203.04
385.95	1203.04
386.14	1247.51
386.34	1160.91
386.53	1132.82
386.72	1203.04
386.92	1196.01
387.11	1242.82
387.31	1186.65
387.50	1259.21
387.70	1299.00
387.89	1142.18
388.09	1200.69
388.28	1228.78
388.48	1334.11
388.67	1336.45
388.86	1266.23
389.06	1282.61
389.25	1261.55
389.45	1296.66
389.64	1359.85
389.84	1373.89
390.03	1387.94
390.22	1303.68
390.42	1404.32
390.61	1343.47
390.81	1364.53
391.00	1350.49
391.19	1446.45
391.39	1451.13
391.58	1502.62
391.78	1516.67
391.97	1474.54
392.16	1453.47
392.36	1528.37
392.55	1535.39
392.75	1500.28
392.94	1423.05
393.13	1474.54
393.33	1535.39
393.52	1614.97
393.71	1551.78
393.91	1603.27
394.10	1633.69
394.29	1540.07
394.49	1626.67
394.68	1565.82
394.88	1521.35
395.07	1596.25
395.26	1600.93
395.46	1678.16
395.65	1638.38
395.84	1799.87
396.04	1802.21
396.23	1774.13
396.42	1764.76
396.62	1771.79
396.81	1717.95
397.00	1727.32
397.19	1811.57
397.39	1781.15
397.58	1797.53
397.77	1860.73
397.97	1832.64
398.16	1849.02
398.35	1963.71
398.55	1926.26
398.74	1771.79
398.93	1947.33
399.12	1966.05
399.32	1956.69
399.51	1881.79
399.70	1914.56
399.90	1959.03
400.09	1930.94
400.28	2064.35
400.47	2057.33
400.67	2167.34
400.86	2071.37
401.05	2047.97
401.24	2136.91
401.44	2094.78
401.63	2186.06
401.82	2155.63
402.01	2186.06
402.21	2083.08
402.40	2200.10
402.59	2146.27
402.78	2216.49
402.97	2303.09
403.17	2160.31
403.36	2249.25
403.55	2256.28
403.74	2305.43
403.93	2277.34
404.13	2403.73
404.32	2331.17
404.51	2307.77
404.70	2340.54
404.89	2333.51
405.09	2602.68
405.28	2473.95
405.47	2438.84
405.66	2452.88
405.85	2532.46
406.05	2520.76
406.24	2492.67
406.43	2572.25
406.62	2579.27
406.81	2654.17
407.00	2602.68
407.20	2532.46
407.39	2626.08
407.58	2661.19
407.77	2672.89
407.96	2640.12
408.15	2628.42
408.34	2738.43
408.54	2789.92
408.73	2740.77
408.92	2778.22
409.11	2862.48
409.30	2899.92
409.49	2970.14
409.68	2829.71
409.87	2904.60
410.07	3047.38
410.26	2981.84
410.45	2745.45
410.64	3042.70
410.83	3082.49
411.02	3000.57
411.21	3169.09
411.40	3066.10
411.59	3159.72
411.78	3236.96
411.98	3162.06
412.17	3330.58
412.36	3283.77
412.55	3295.47
412.74	3337.60
412.93	3232.28
413.12	3328.24
413.31	3478.04
413.50	3412.50
413.69	3377.39
413.88	3508.46
414.07	3536.55
414.26	3667.62
414.45	3676.98
414.64	3637.19
414.83	3705.07
415.02	3705.07
415.22	3728.47
415.41	3763.58
415.60	3899.33
415.79	3920.40
415.98	3960.19
416.17	3997.64
416.36	3969.55
416.55	3983.59
416.74	4025.72
416.93	3955.51
417.12	3922.74
417.31	4212.96
417.50	4126.36
417.69	4341.69
417.88	4184.88
418.07	4285.52
418.26	4189.56
418.45	4315.95
418.64	4456.38
418.83	4414.25
419.02	4423.61
419.21	4355.74
419.39	4400.21
419.58	4496.17
419.77	4278.50
419.96	4559.36
420.15	4629.58
420.34	4554.68
420.53	4589.79
420.72	4524.26
420.91	4472.76
421.10	4561.70
421.29	4746.61
421.48	4606.17
421.67	4739.58
421.86	4676.39
422.05	4788.74
422.24	4856.61
422.43	4725.54
422.61	4826.18
422.80	4865.97
422.99	4891.72
423.18	5060.24
423.37	4910.44
423.56	4910.44
423.75	4915.12
423.94	4858.95
424.13	4610.86
424.32	4802.78
424.50	4938.53
424.69	5078.96
424.88	5043.85
425.07	4959.60
425.26	4835.55
425.45	4985.34
425.64	4905.76
425.83	4971.30
426.01	5011.09
426.20	4945.55
426.39	4975.98
426.58	5022.79
426.77	4990.02
426.96	5025.13
427.15	4980.66
427.33	5275.57
427.52	5167.90
427.71	5256.84
427.90	5139.82
428.09	5289.61
428.28	5345.78
428.46	5294.29
428.65	5394.93
428.84	5387.91
429.03	5462.81
429.22	5263.86
429.40	5383.23
429.59	5408.98
429.78	5165.56
429.97	5177.26
430.16	5430.04
430.34	5614.95
430.53	5753.04
430.72	5682.82
430.91	5603.24
431.10	5598.56
431.28	5701.54
431.47	5783.46
431.66	5703.89
431.85	5565.79
432.03	5696.86
432.22	5788.14
432.41	5977.73
432.60	5832.62
432.79	5860.70
432.97	5851.34
433.16	5947.30
433.35	5905.17
433.54	6160.29
433.72	5973.05
433.91	5916.87
434.10	6195.40
434.28	5956.66
434.47	6132.20
434.66	6251.57
434.85	6303.06
435.03	6143.91
435.22	6218.80
435.41	6352.21
435.59	6239.87
435.78	6354.55
435.97	6443.49
436.16	6246.89
436.34	6410.73
436.53	6466.90
436.72	6504.35
436.90	6429.45
437.09	6691.59
437.28	6347.53
437.46	6588.61
437.65	6649.46
437.84	6684.57
438.02	6623.72
438.21	6731.38
438.40	6565.20
438.58	7005.22
438.77	6911.60
438.96	6806.28
439.14	6960.75
439.33	7129.27
439.52	7019.27
439.70	7075.44
439.89	7164.38
440.08	7227.57
440.26	7157.36
440.45	7258.00
440.63	7419.50
440.82	7449.93
441.01	7667.60
441.19	7555.25
441.38	7564.61
441.57	7588.02
441.75	7667.60
441.94	8084.21
442.12	7744.83
442.31	8140.38
442.50	7801.01
442.68	7861.86
442.87	7978.89
443.05	7936.76
443.24	8018.68
443.43	8093.57
443.61	8088.89
443.80	8372.10
443.98	7978.89
444.17	7871.22
444.35	8222.30
444.54	8241.03
444.73	8262.09
444.91	8367.42
445.10	8166.13
445.28	8386.14
445.47	8318.26
445.65	8329.97
445.84	8336.99
446.02	8355.71
446.21	8259.75
446.39	8252.73
446.58	8315.92
446.77	8557.00
446.95	8238.69
447.14	8315.92
447.32	8428.27
447.51	8379.12
447.69	8365.07
447.88	8545.30
448.06	8587.43
448.25	8425.93
448.43	8528.91
448.62	8617.85
448.80	8505.51
448.99	8629.56
449.17	8699.77
449.36	8603.81
449.54	8760.63
449.73	8688.07
449.91	8908.08
450.10	8992.34
450.28	8903.40
450.46	9004.04
450.65	9069.58
450.83	9081.28
451.02	8854.25
451.20	9193.62
451.39	9097.66
451.57	8961.91
451.76	9074.26
451.94	9177.24
452.13	9146.81
452.31	9144.47
452.49	9102.34
452.68	9270.86
452.86	9179.58
453.05	9186.60
453.23	9415.98
453.42	9364.48
453.60	9282.56
453.78	9441.72
453.97	9411.29
454.15	9408.95
454.34	9324.69
454.52	9598.54
454.70	9624.28
454.89	9614.92
455.07	9771.74
455.26	9762.37
455.44	9902.81
455.62	9795.14
455.81	9816.21
455.99	9891.10
456.17	9689.82
456.36	10132.18
456.54	10036.22
456.73	10200.05
456.91	10207.08
457.09	10251.55
457.28	10382.62
457.46	10012.81
457.64	10317.08
457.83	10244.52
458.01	10478.58
458.19	10513.69
458.38	10399.00
458.56	10820.30
458.74	10846.04
458.93	10736.04
459.11	10785.19
459.29	10513.69
459.48	10766.46
459.66	10824.98
459.84	10853.06
460.03	11012.22
460.21	11059.03
460.39	10927.96
460.57	10862.43
460.76	10743.06
460.94	11044.99
461.12	11248.61
461.31	10965.41
461.49	10909.24
461.67	10857.75
461.85	11435.86
462.04	11208.83
462.22	11583.31
462.40	11391.39
462.59	11225.21
462.77	11335.21
462.95	11492.03
463.13	11555.22
463.32	11473.31
463.50	11527.14
463.68	11667.57
463.86	11646.51
464.05	11517.78
464.23	11620.76
464.41	11789.28
464.59	11489.69
464.78	12018.65
464.96	11770.55
465.14	11810.34
465.32	12116.95
465.50	12023.33
465.69	12013.97
465.87	12142.70
466.05	12025.67
466.23	12187.17
466.41	12180.15
466.60	12233.98
466.78	12142.70
466.96	12217.60
467.14	12292.49
467.32	12304.20
467.51	12395.48
467.69	11922.69
467.87	12285.47
468.05	12589.74
468.23	12285.47
468.41	12341.64
468.60	12379.09
468.78	12549.95
468.96	12498.46
469.14	12772.30
469.32	12819.11
469.50	12381.43
469.69	12791.03
469.87	13118.70
470.05	13064.87
470.23	13057.85
470.41	13027.42
470.59	13188.92
470.77	13099.98
470.95	13092.96
471.14	13603.19
471.32	13029.76
471.50	13219.35
471.68	13453.40
471.86	13493.19
472.04	13530.64
472.22	13837.25
472.40	13490.85
472.58	13586.81
472.77	13860.65
472.95	13867.67
473.13	14523.02
473.31	13933.21
473.49	14054.92
473.67	13898.10
473.85	14127.47
474.03	14398.98
474.21	14572.18
474.39	14654.09
474.57	14684.52
474.75	14630.69
474.93	15033.26
475.12	14946.66
475.30	14848.36
475.48	15169.01
475.66	15066.03
475.84	15145.61
476.02	15157.31
476.20	15091.77
476.38	15360.94
476.56	15906.28
476.74	15751.81
476.92	15669.89
477.10	15569.24
477.28	15929.69
477.46	16140.33
477.64	15999.90
477.82	16346.30
478.00	16826.11
478.18	16507.80
478.36	16702.06
478.54	16814.41
478.72	16861.22
478.90	17092.93
479.08	17376.14
479.26	17479.12
479.44	17605.51
479.62	17429.97
479.80	17783.39
479.98	18265.54
480.16	18024.47
480.34	18073.62
480.52	18490.23
480.70	18452.78
480.88	18267.88
481.06	18537.04
481.24	18384.91
481.41	18946.64
481.59	18934.93
481.77	19260.27
481.95	19316.44
482.13	19417.08
482.31	19592.62
482.49	20025.62
482.67	20037.33
482.85	20409.47
483.03	20493.73
483.21	20379.04
483.39	20769.91
483.57	20741.83
483.74	20809.70
483.92	21186.53
484.10	21270.79
484.28	21362.07
484.46	21647.61
484.64	22244.45
484.82	21717.83
485.00	22429.35
485.18	22417.65
485.35	22948.95
485.53	22714.90
485.71	22665.75
485.89	23159.60
486.07	23098.75
486.25	23342.16
486.43	23484.94
486.61	23604.30
486.78	24123.90
486.96	24334.55
487.14	24489.03
487.32	24203.48
487.50	25008.62
487.68	25118.63
487.85	24882.24
488.03	25193.53
488.21	25656.95
488.39	25537.59
488.57	26071.23
488.75	25741.21
488.92	26375.50
489.10	26363.79
489.28	26520.61
489.46	26969.99
489.64	27330.44
489.81	27337.46
489.99	27702.58
490.17	27651.09
490.35	27775.14
490.53	27770.46
490.70	27985.79
490.88	28020.89
491.06	28313.46
491.24	28589.64
491.41	29008.60
491.59	29092.86
491.77	28975.83
491.95	29392.45
492.13	29277.76
492.30	29450.96
492.48	29844.17
492.66	29935.45
492.84	29968.22
493.01	30417.60
493.19	30455.05
493.37	30733.57
493.54	30672.72
493.72	31299.98
493.90	31304.67
494.08	31468.50
494.25	31714.26
494.43	31332.75
494.61	32175.34
494.79	32004.49
494.96	32350.88
495.14	32510.04
495.32	32397.70
495.49	32802.61
495.67	32940.70
495.85	33390.08
496.02	33275.40
496.20	33757.55
496.38	33429.87
496.55	33680.31
496.73	34955.90
496.91	34438.64
497.09	34630.57
497.26	34843.56
497.44	34431.62
497.62	34972.28
497.79	35234.42
497.97	35014.41
498.14	35950.63
498.32	36016.16
498.50	35920.20
498.67	35992.76
498.85	35646.36
499.03	36388.31
499.20	36243.20
499.38	36528.74
499.56	36634.06
499.73	36847.05
499.91	36608.32
500.08	36957.06
500.26	37067.06
500.44	37490.70
500.61	37441.55
500.79	37200.47
500.97	37820.72
501.14	38298.19
501.32	38127.33
501.49	38363.72
501.67	38239.67
501.84	38497.13
502.02	38581.39
502.20	38895.02
502.37	38831.83
502.55	39058.86
502.72	39353.77
502.90	39271.85
503.07	38953.54
503.25	39267.17
503.43	39501.22
503.60	39400.58
503.78	39629.95
503.95	39445.05
504.13	40072.31
504.30	40086.36
504.48	40266.58
504.65	40280.62
504.83	41053.00
505.01	40935.97
505.18	40942.99
505.36	40942.99
505.53	41071.72
505.71	40917.25
505.88	41244.92
506.06	41584.30
506.23	42024.32
506.41	41317.48
506.58	41715.37
506.76	41326.84
506.93	41914.31
507.11	41881.55
507.28	42148.37
507.46	42199.86
507.63	42897.34
507.81	42951.17
507.98	42909.04
508.16	42892.66
508.33	43395.87
508.50	42604.77
508.68	43175.86
508.85	43665.03
509.03	43622.90
509.20	43770.36
509.38	43634.61
509.55	43997.39
509.73	44610.61
509.90	44470.18
510.08	44091.01
510.25	44112.08
510.42	44842.32
510.60	44807.22
510.77	44823.60
510.95	44828.28
511.12	44467.84
511.30	44741.68
511.47	45191.06
511.64	44729.98
511.82	45876.84
511.99	45233.19
512.17	45570.23
512.34	45198.09
512.51	46017.27
512.69	46169.41
512.86	45933.01
513.04	46274.73
513.21	46370.69
513.38	46017.27
513.56	46230.26
513.73	46195.15
513.90	46660.92
514.08	46639.86
514.25	46951.15
514.43	46909.02
514.60	47372.44
514.77	46962.85
514.95	47255.42
515.12	47292.86
515.29	47107.96
515.47	47552.66
515.64	47739.91
515.81	47496.49
515.99	47896.72
516.16	47894.38
516.33	48058.22
516.51	48437.39
516.68	47964.60
516.85	47964.60
517.03	48516.96
517.20	48435.05
517.37	48570.80
517.54	48217.38
517.72	48449.09
517.89	48495.90
518.06	48811.87
518.24	49066.99
518.41	49125.50
518.58	48584.84
518.75	48961.67
518.93	49467.22
519.10	49095.08
519.27	49560.84
519.45	49240.19
519.62	49567.87
519.79	49649.78
519.96	49638.08
520.14	49680.21
520.31	49509.35
520.48	50012.57
520.65	50260.66
520.83	50185.77
521.00	50106.19
521.17	50244.28
521.34	50344.92
521.52	50616.43
521.69	50408.12
521.86	50686.64
522.03	50855.16
522.20	51051.76
522.38	51246.03
522.55	50899.63
522.72	51105.60
522.89	50738.13
523.07	51133.68
523.24	51227.31
523.41	51353.69
523.58	51110.28
523.75	51459.02
523.92	51262.41
524.10	51690.73
524.27	51824.14
524.44	51978.62
524.61	52203.31
524.78	51742.22
524.96	52006.70
525.13	51957.55
525.30	52243.10
525.47	52207.99
525.64	52172.88
525.81	52137.77
525.98	52275.87
526.16	52072.24
526.33	52566.09
526.50	52704.18
526.67	52741.63
526.84	52786.10
527.01	52397.57
527.18	52753.33
527.36	52734.61
527.53	52872.70
527.70	53022.50
527.87	53172.29
528.04	52678.44
528.21	53013.13
528.38	53169.95
528.55	53319.74
528.72	52758.02
528.89	53188.67
529.07	53144.20
529.24	53251.87
529.41	53427.41
529.58	53151.23
529.75	53542.10
529.92	53464.86
530.09	53525.71
530.26	53698.91
530.43	53570.18
530.60	53574.86
530.77	53598.27
530.94	53874.45
531.11	53532.73
531.28	53865.09
531.46	53867.43
531.63	53925.94
531.80	54038.29
531.97	54113.19
532.14	54321.49
532.31	54047.65
532.48	54361.28
532.65	54571.93
532.82	54396.39
532.99	54560.23
533.16	54380.01
533.33	54562.57
533.50	54953.44
533.67	54717.04
533.84	54424.48
534.01	54548.53
534.18	54813.01
534.35	54979.18
534.52	55040.04
534.69	54777.90
534.86	54918.33
535.03	54878.54
535.20	54742.79
535.37	54934.71
535.54	55124.30
535.71	54878.54
535.88	55145.36
536.05	55068.12
536.22	55416.86
536.38	55358.35
536.55	55283.45
536.72	55253.03
536.89	55164.09
537.06	55173.45
537.23	55353.67
537.40	55229.62
537.57	55288.13
537.74	55728.16
537.91	55608.79
538.08	55543.25
538.25	55536.23
538.42	55625.17
538.59	55777.31
538.75	55487.08
538.92	55875.61
539.09	56184.56
539.26	55662.62
539.43	55870.93
539.60	55950.51
539.77	55964.55
539.94	56339.04
540.11	55866.25
540.28	56229.03
540.44	56313.29
540.61	56446.70
540.78	55910.72
540.95	56217.33
541.12	56009.02
541.29	55976.25
541.46	56416.27
541.62	56273.50
541.79	56605.86
541.96	56147.11
542.13	56205.62
542.30	56446.70
542.47	56706.50
542.63	56671.39
542.80	56643.30
542.97	56935.87
543.14	56919.49
543.31	57059.92
543.48	57036.51
543.64	57183.97
543.81	57165.24
543.98	57048.22
544.15	57106.73
544.32	57228.44
544.48	57186.31
544.65	57078.64
544.82	57155.88
544.99	57151.20
545.16	57303.34
545.32	57090.35
545.49	57656.76
545.66	57439.09
545.83	57331.42
546.00	57570.16
546.16	57631.01
546.33	57558.45
546.50	57097.37
546.67	57738.68
546.83	57120.77
547.00	57572.50
547.17	57408.66
547.34	57829.96
547.50	57783.15
547.67	57691.86
547.84	57598.24
548.00	58042.95
548.17	58005.50
548.34	57755.06
548.51	58071.03
548.67	57764.42
548.84	57963.37
549.01	57668.46
549.18	57914.22
549.34	57979.75
549.51	58110.82
549.68	58113.16
549.84	57968.05
550.01	58110.82
550.18	58085.07
550.34	58333.17
550.51	58382.32
550.68	58129.54
550.84	57904.85
551.01	58185.72
551.18	58094.44
551.34	58337.85
551.51	58323.81
551.68	58234.87
551.84	58309.77
552.01	58309.77
552.18	58501.69
552.34	58321.47
552.51	58525.10
552.68	58291.04
552.84	58417.43
553.01	58595.31
553.18	58487.65
553.34	58794.26
553.51	58539.14
553.67	58567.23
553.84	58770.85
554.01	58681.91
554.17	58782.55
554.34	58904.26
554.51	58768.51
554.67	59035.33
554.84	58930.01
555.00	58738.08
555.17	58707.66
555.33	58775.53
555.50	58707.66
555.67	58763.83
555.83	58946.39
556.00	58960.44
556.16	58901.92
556.33	59009.59
556.50	58993.20
556.66	59196.83
556.83	58843.41
556.99	58908.94
557.16	59281.09
557.32	59288.11
557.49	59325.56
557.65	59114.91
557.82	59260.02
557.98	59173.42
558.15	59128.95
558.32	59353.65
558.48	59234.28
558.65	59138.32
558.81	59189.81
558.98	59241.30
559.14	59592.38
559.31	59330.24
559.47	59456.63
559.64	59428.54
559.80	59508.12
559.97	59625.15
560.13	59489.40
560.30	59412.16
560.46	59660.26
560.63	59522.16
560.79	59690.68
560.96	59702.38
561.12	59664.94
561.29	59688.34
561.45	59363.01
561.61	59496.42
561.78	59568.97
561.94	59674.30
562.11	59561.95
562.27	59517.48
562.44	59730.47
562.60	59772.60
562.77	59615.79
562.93	59498.76
563.10	60032.40
563.26	59629.83
563.42	59973.89
563.59	59814.73
563.75	59676.64
563.92	59655.57
564.08	59805.37
564.24	60009.00
564.41	59763.24
564.57	60032.40
564.74	60020.70
564.90	59980.91
565.07	59898.99
565.23	59852.18
565.39	59763.24
565.56	59821.75
565.72	59948.14
565.88	60037.08
566.05	59952.82
566.21	59952.82
566.38	60119.00
566.54	60149.43
566.70	60177.51
566.87	60203.26
567.03	59877.93
567.19	60090.91
567.36	60067.51
567.52	60114.32
567.68	60313.26
567.85	59999.63
568.01	60292.20
568.17	60254.75
568.34	60341.35
568.50	60156.45
568.66	60233.69
568.83	60320.29
568.99	60095.60
569.15	60147.09
569.32	60224.32
569.48	60060.49
569.64	60156.45
569.81	60229.01
569.97	59948.14
570.13	60114.32
570.30	60037.08
570.46	60294.54
570.62	60097.94
570.78	60177.51
570.95	60271.14
571.11	60509.87
571.27	60200.92
571.43	60409.23
571.60	60254.75
571.76	60418.59
571.92	60334.33
572.09	60254.75
572.25	60231.35
572.41	60404.55
572.57	60390.50
572.74	60474.76
572.90	60451.36
573.06	60271.14
573.22	60348.37
573.38	60397.52
573.55	60566.04
573.71	60556.68
573.87	60563.70
574.03	60306.24
574.20	60540.30
574.36	60514.55
574.52	60392.84
574.68	60683.07
574.84	60582.43
575.01	60622.22
575.17	60341.35
575.33	60374.12
575.49	60341.35
575.65	60456.04
575.82	60498.17
575.98	60385.82
576.14	60652.64
576.30	60720.52
576.46	60296.88
576.62	60554.34
576.79	60505.19
576.95	60514.55
577.11	60507.53
577.27	60692.43
577.43	60694.77
577.59	60465.40
577.75	60355.39
577.92	60479.44
578.08	60540.30
578.24	60507.53
578.40	60764.99
578.56	60673.71
578.72	60624.56
578.88	60832.86
579.04	60863.29
579.21	60739.24
579.37	60851.59
579.53	60753.29
579.69	60446.68
579.85	60554.34
580.01	60575.40
580.17	60666.69
580.33	60729.88
580.49	60659.66
580.65	60753.29
580.82	60481.78
580.98	60474.76
581.14	60554.34
581.30	60629.24
581.46	60673.71
581.62	60779.03
581.78	60547.32
581.94	60732.22
582.10	60608.17
582.26	60629.24
582.42	60683.07
582.58	60896.06
582.74	60762.65
582.90	60678.39
583.06	60601.15
583.22	60800.10
583.38	60666.69
583.54	60828.18
583.70	60856.27
583.86	60865.63
584.02	60760.31
584.18	60886.70
584.34	60795.42
584.50	60851.59
584.66	60851.59
584.82	60629.24
584.98	61043.51
585.14	60706.47
585.30	60732.22
585.46	60924.14
585.62	60907.76
585.78	61022.45
585.94	60736.90
586.10	60856.27
586.26	60912.44
586.42	60926.49
586.58	60889.04
586.74	60942.87
586.90	60680.73
587.06	60917.12
587.22	60872.65
587.38	60750.94
587.54	61034.15
587.70	61045.85
587.86	61066.92
588.02	60917.12
588.18	61181.60
588.34	60736.90
588.49	60853.93
