SpectraSuite Data File
++++++++++++++++++++++++++++++++++++
Date: Fri Oct 25 11:22:36 EDT 2013
User: price-jones
Dark Spectrum Present: No
Reference Spectrum Present: No
Number of Sampled Component Spectra: 1
Spectrometers: USB2+H05261
Integration Time (usec): 100000 (USB2+H05261)
Spectra Averaged: 1 (USB2+H05261)
Boxcar Smoothing: 0 (USB2+H05261)
Correct for Electrical Dark: No (USB2+H05261)
Strobe/Lamp Enabled: No (USB2+H05261)
Correct for Detector Non-linearity: No (USB2+H05261)
Correct for Stray Light: No (USB2+H05261)
Number of Pixels in Processed Spectrum: 2048
>>>>>Begin Processed Spectral Data<<<<<
365.73	212.99
365.92	212.99
366.12	212.99
366.32	177.88
366.52	131.07
366.72	128.73
366.91	35.11
367.11	95.96
367.31	95.96
367.51	110.01
367.70	133.41
367.90	100.64
368.10	56.17
368.30	119.37
368.49	145.11
368.69	100.64
368.89	98.30
369.09	133.41
369.28	138.09
369.48	191.92
369.68	149.79
369.87	222.35
370.07	175.54
370.27	236.39
370.47	313.63
370.66	526.62
370.86	557.05
371.06	681.10
371.25	688.12
371.45	657.69
371.65	676.41
371.84	723.23
372.04	657.69
372.24	709.18
372.44	741.95
372.63	767.70
372.83	727.91
373.03	741.95
373.22	711.52
373.42	791.10
373.62	779.40
373.81	777.06
374.01	851.96
374.21	802.80
374.40	772.38
374.60	807.48
374.79	858.98
374.99	816.85
375.19	828.55
375.38	807.48
375.58	791.10
375.78	910.47
375.97	798.12
376.17	847.27
376.37	854.30
376.56	798.12
376.76	851.96
376.95	884.72
377.15	844.93
377.35	940.90
377.54	947.92
377.74	978.34
377.93	805.14
378.13	835.57
378.33	931.53
378.52	952.60
378.72	1011.11
378.91	1043.88
379.11	915.15
379.31	985.37
379.50	926.85
379.70	952.60
379.89	1015.79
380.09	938.55
380.28	971.32
380.48	1006.43
380.68	1027.50
380.87	952.60
381.07	1100.05
381.26	1050.90
381.46	973.66
381.65	964.30
381.85	1015.79
382.04	1025.15
382.24	1050.90
382.43	1076.65
382.63	1053.24
382.83	1029.84
383.02	1076.65
383.22	1109.41
383.41	1015.79
383.61	1036.86
383.80	1170.27
384.00	1151.54
384.19	1048.56
384.39	1163.25
384.58	1160.91
384.78	1177.29
384.97	1153.88
385.17	1153.88
385.36	1097.71
385.56	1174.95
385.75	1116.44
385.95	1203.04
386.14	1252.19
386.34	1231.12
386.53	1097.71
386.72	1167.93
386.92	1224.10
387.11	1214.74
387.31	1280.27
387.50	1226.44
387.70	1336.45
387.89	1221.76
388.09	1231.12
388.28	1352.83
388.48	1343.47
388.67	1315.38
388.86	1317.72
389.06	1420.71
389.25	1355.17
389.45	1416.02
389.64	1378.58
389.84	1446.45
390.03	1420.71
390.22	1427.73
390.42	1446.45
390.61	1364.53
390.81	1430.07
391.00	1444.11
391.19	1434.75
391.39	1488.58
391.58	1535.39
391.78	1404.32
391.97	1448.79
392.16	1472.20
392.36	1551.78
392.55	1528.37
392.75	1547.09
392.94	1528.37
393.13	1486.24
393.33	1600.93
393.52	1610.29
393.71	1598.59
393.91	1607.95
394.10	1577.52
394.29	1643.06
394.49	1624.33
394.68	1631.35
394.88	1619.65
395.07	1666.46
395.26	1598.59
395.46	1708.59
395.65	1643.06
395.84	1624.33
396.04	1795.19
396.23	1750.72
396.42	1713.27
396.62	1739.02
396.81	1860.73
397.00	1809.23
397.19	1851.36
397.39	1830.30
397.58	1788.17
397.77	1842.00
397.97	1860.73
398.16	1944.99
398.35	1916.90
398.55	1809.23
398.74	1954.35
398.93	1935.62
399.12	1923.92
399.32	1984.77
399.51	1872.43
399.70	1956.69
399.90	1898.17
400.09	1982.43
400.28	2071.37
400.47	2092.44
400.67	2026.90
400.86	2022.22
401.05	2127.55
401.24	2146.27
401.44	2113.50
401.63	2235.21
401.82	2148.61
402.01	2162.66
402.21	2228.19
402.40	2176.70
402.59	2162.66
402.78	2071.37
402.97	2293.72
403.17	2293.72
403.36	2347.56
403.55	2389.69
403.74	2392.03
403.93	2499.69
404.13	2387.35
404.32	2471.61
404.51	2284.36
404.70	2457.56
404.89	2504.37
405.09	2485.65
405.28	2492.67
405.47	2450.54
405.66	2495.01
405.85	2640.12
406.05	2621.40
406.24	2438.84
406.43	2553.52
406.62	2670.55
406.81	2605.02
407.00	2548.84
407.20	2675.23
407.39	2684.59
407.58	2733.75
407.77	2787.58
407.96	2684.59
408.15	2724.38
408.34	2747.79
408.54	2759.49
408.73	2860.13
408.92	2806.30
409.11	3038.02
409.30	2923.33
409.49	2930.35
409.68	2970.14
409.87	2942.05
410.07	2979.50
410.26	3054.40
410.45	3070.78
410.64	3023.97
410.83	3220.58
411.02	3136.32
411.21	3241.64
411.40	3166.74
411.59	3332.92
411.78	3211.22
411.98	3199.51
412.17	3323.56
412.36	3243.98
412.55	3372.71
412.74	3475.70
412.93	3295.47
413.12	3428.88
413.31	3543.57
413.50	3531.87
413.69	3492.08
413.88	3604.42
414.07	3559.95
414.26	3627.83
414.45	3796.35
414.64	3733.15
414.83	3660.60
415.02	3756.56
415.22	3864.22
415.41	3880.61
415.60	3723.79
415.79	3915.72
415.98	3976.57
416.17	4009.34
416.36	3936.78
416.55	3969.55
416.74	4007.00
416.93	4098.28
417.12	4203.60
417.31	4002.32
417.50	4117.00
417.69	4414.25
417.88	4299.56
418.07	4212.96
418.26	4414.25
418.45	4320.63
418.64	4493.83
418.83	4397.87
419.02	4353.40
419.21	4634.26
419.39	4622.56
419.58	4339.35
419.77	4425.95
419.96	4575.75
420.15	4667.03
420.34	4442.34
420.53	4657.67
420.72	4774.69
420.91	4660.01
421.10	4791.08
421.29	4975.98
421.48	4741.93
421.67	4912.78
421.86	4819.16
422.05	4887.04
422.24	4870.65
422.43	4950.23
422.61	4983.00
422.80	5109.39
422.99	5123.43
423.18	4882.36
423.37	5062.58
423.56	4994.70
423.75	5011.09
423.94	4842.57
424.13	4751.29
424.32	4638.94
424.50	5048.54
424.69	5179.61
424.88	5156.20
425.07	4966.62
425.26	5006.41
425.45	4926.83
425.64	5055.56
425.83	5090.67
426.01	5104.71
426.20	5060.24
426.39	5149.18
426.58	5139.82
426.77	5184.29
426.96	5186.63
427.15	5048.54
427.33	5093.01
427.52	5254.50
427.71	5090.67
427.90	5284.93
428.09	5383.23
428.28	5469.83
428.46	5458.13
428.65	5561.11
428.84	5467.49
429.03	5626.65
429.22	5315.36
429.40	5593.88
429.59	5610.26
429.78	5247.48
429.97	5324.72
430.16	5399.62
430.34	5589.20
430.53	5652.39
430.72	5865.38
430.91	5668.78
431.10	5603.24
431.28	5905.17
431.47	6057.31
431.66	5914.53
431.85	5790.49
432.03	6097.10
432.22	6129.86
432.41	5933.26
432.60	5865.38
432.79	5940.28
432.97	6076.03
433.16	6204.76
433.35	5984.75
433.54	6090.07
433.72	5968.37
433.91	6298.38
434.10	6204.76
434.28	6054.97
434.47	6223.48
434.66	6300.72
434.85	6408.39
435.03	6260.93
435.22	6387.32
435.41	6513.71
435.59	6492.65
435.78	6565.20
435.97	6525.41
436.16	6335.83
436.34	6431.79
436.53	6600.31
436.72	6560.52
436.90	6434.13
437.09	6670.53
437.28	6525.41
437.46	6670.53
437.65	6633.08
437.84	6799.26
438.02	6712.66
438.21	6892.88
438.40	6771.17
438.58	7045.01
438.77	7026.29
438.96	6965.43
439.14	7166.72
439.33	7314.17
439.52	7241.62
439.70	7302.47
439.89	7454.61
440.08	7428.86
440.26	7445.24
440.45	7581.00
440.63	7705.04
440.82	7470.99
441.01	7698.02
441.19	7588.02
441.38	7763.56
441.57	7695.68
441.75	7857.18
441.94	8124.00
442.12	7974.21
442.31	8194.22
442.50	8131.02
442.68	8079.53
442.87	8065.49
443.05	8374.44
443.24	8311.24
443.43	8140.38
443.61	8332.31
443.80	8510.19
443.98	7971.86
444.17	7850.16
444.35	8423.59
444.54	8388.48
444.73	8498.49
444.91	8276.13
445.10	8315.92
445.28	8463.38
445.47	8322.94
445.65	8468.06
445.84	8624.87
446.02	8690.41
446.21	8444.65
446.39	8287.84
446.58	8456.36
446.77	8561.68
446.95	8486.78
447.14	8578.06
447.32	8547.64
447.51	8631.90
447.69	8557.00
447.88	8381.46
448.06	8418.91
448.25	8554.66
448.43	8702.11
448.62	8767.65
448.80	8535.93
448.99	8919.78
449.17	8868.29
449.36	8830.84
449.54	8905.74
449.73	8968.93
449.91	9151.49
450.10	9088.30
450.28	9088.30
450.46	9144.47
450.65	9083.62
450.83	9245.12
451.02	9249.80
451.20	9315.33
451.39	9118.73
451.57	9252.14
451.76	9303.63
451.94	9397.25
452.13	9476.83
452.31	9493.21
452.49	9174.90
452.68	9434.70
452.86	9572.79
453.05	9685.14
453.23	9226.39
453.42	9378.53
453.60	9425.34
453.78	9561.09
453.97	9504.92
454.15	9617.26
454.34	9657.05
454.52	9834.93
454.70	9958.98
454.89	9973.02
455.07	9961.32
455.26	9926.21
455.44	10050.26
455.62	9961.32
455.81	10155.58
455.99	10160.27
456.17	10146.22
456.36	10347.51
456.54	10239.84
456.73	10305.38
456.91	10494.96
457.09	10553.48
457.28	10387.30
457.46	10382.62
457.64	10630.71
457.83	10527.73
458.01	10457.51
458.19	10918.60
458.38	10611.99
458.56	10633.05
458.74	10850.72
458.93	10885.83
459.11	10878.81
459.29	10764.12
459.48	10686.89
459.66	10972.43
459.84	10827.32
460.03	11021.58
460.21	11265.00
460.39	10846.04
460.57	11037.97
460.76	11162.01
460.94	11470.97
461.12	11255.64
461.31	11335.21
461.49	11162.01
461.67	11332.87
461.85	11482.67
462.04	11253.30
462.22	11948.43
462.40	11695.66
462.59	11936.73
462.77	11845.45
462.95	11868.86
463.13	11693.32
463.32	11557.57
463.50	11784.60
463.68	11786.94
463.86	12004.61
464.05	11953.12
464.23	11627.78
464.41	11920.35
464.59	11735.45
464.78	12304.20
464.96	12156.74
465.14	12028.01
465.32	12226.96
465.50	12320.58
465.69	12304.20
465.87	12037.38
466.05	12159.08
466.23	12299.52
466.41	12292.49
466.60	12507.82
466.78	12549.95
466.96	12245.68
467.14	12297.17
467.32	12531.23
467.51	12526.55
467.69	12264.41
467.87	12528.89
468.05	12769.96
468.23	12678.68
468.41	12688.04
468.60	12924.44
468.78	13006.36
468.96	12580.38
469.14	12931.46
469.32	12950.18
469.50	12748.90
469.69	13055.51
469.87	13343.39
470.05	13184.24
470.23	13242.75
470.41	13324.67
470.59	13624.26
470.77	13048.49
470.95	13511.91
471.14	13727.24
471.32	13256.79
471.50	13521.27
471.68	13542.34
471.86	13666.39
472.04	13727.24
472.22	14164.92
472.40	13888.74
472.58	14057.26
472.77	14307.69
472.95	14427.06
473.13	14562.81
473.31	14083.00
473.49	14277.27
473.67	14277.27
473.85	14537.07
474.03	14759.42
474.21	14696.22
474.39	14918.57
474.57	15084.75
474.75	15124.54
474.93	15206.46
475.12	15276.68
475.30	15194.76
475.48	15274.34
475.66	15152.63
475.84	15297.74
476.02	15473.28
476.20	15426.47
476.38	15871.17
476.56	16137.99
476.74	16159.06
476.92	16175.44
477.10	15843.09
477.28	16479.71
477.46	16276.09
477.64	16348.64
477.82	16835.47
478.00	17198.26
478.18	17022.72
478.36	17050.80
478.54	17135.06
478.72	17212.30
478.90	17771.69
479.08	17614.87
479.26	17844.24
479.44	17928.50
479.62	18031.49
479.80	18518.32
479.98	18565.13
480.16	18745.35
480.34	18532.36
480.52	18670.45
480.70	18780.46
480.88	18691.52
481.06	18834.29
481.24	19091.75
481.41	19089.41
481.59	19803.27
481.77	19311.76
481.95	19747.10
482.13	19910.94
482.31	19946.05
482.49	20542.88
482.67	20552.24
482.85	20552.24
483.03	21062.48
483.21	20912.69
483.39	21099.93
483.57	21090.57
483.74	21254.40
483.92	21553.99
484.10	21553.99
484.28	21989.33
484.46	22218.71
484.64	22380.20
484.82	22319.35
485.00	22525.32
485.18	22895.12
485.35	23283.65
485.53	23026.19
485.71	23276.63
485.89	23828.99
486.07	23623.03
486.25	23625.37
486.43	23887.51
486.61	24173.05
486.78	24594.35
486.96	24367.32
487.14	24903.30
487.32	24837.76
487.50	25425.24
487.68	25242.68
487.85	25575.03
488.03	25916.75
488.21	25923.77
488.39	26115.70
488.57	26340.39
488.75	26504.23
488.92	26710.19
489.10	27171.28
489.28	26876.37
489.46	27229.79
489.64	27271.92
489.81	28170.69
489.99	28016.21
490.17	27838.33
490.35	28535.81
490.53	28112.17
490.70	28613.05
490.88	28526.45
491.06	29188.82
491.24	29125.63
491.41	29387.77
491.59	29876.94
491.77	29362.02
491.95	29954.18
492.13	30089.93
492.30	30426.96
492.48	30520.59
492.66	30396.54
492.84	30728.89
493.01	30878.69
493.19	30733.57
493.37	31241.47
493.54	31452.12
493.72	32016.19
493.90	31328.07
494.08	32065.34
494.25	32194.07
494.43	32491.32
494.61	32753.46
494.79	32823.67
494.96	32603.66
495.14	33408.81
495.32	33628.82
495.49	33738.82
495.67	33441.57
495.85	34061.82
496.02	33823.08
496.20	34541.63
496.38	34321.62
496.55	34459.71
496.73	35105.70
496.91	34881.00
497.09	34841.21
497.26	35255.49
497.44	35150.17
497.62	35667.42
497.79	35976.37
497.97	36084.04
498.14	36676.19
498.32	36802.58
498.50	36369.58
498.67	36844.71
498.85	36884.50
499.03	36723.01
499.20	37191.11
499.38	37544.53
499.56	37312.82
499.73	37556.24
499.91	37764.54
500.08	38092.22
500.26	37624.11
500.44	38038.39
500.61	38183.50
500.79	38274.78
500.97	38422.23
501.14	39278.87
501.32	39086.95
501.49	38609.48
501.67	39262.49
501.84	39384.19
502.02	39051.84
502.20	39456.75
502.37	39473.13
502.55	39168.87
502.72	39754.00
502.90	40053.59
503.07	39906.13
503.25	40538.08
503.43	39974.01
503.60	40559.14
503.78	40631.70
503.95	40641.06
504.13	41209.81
504.30	41235.56
504.48	40594.25
504.65	41394.71
504.83	41324.50
505.01	41429.82
505.18	41144.28
505.36	42546.26
505.53	41706.01
505.71	41586.64
505.88	42014.96
506.06	41942.40
506.23	42298.16
506.41	41963.46
506.58	42202.20
506.76	43014.37
506.93	42911.38
507.11	42579.03
507.28	42904.36
507.46	43250.76
507.63	43260.12
507.81	43201.61
507.98	43342.04
508.16	43775.04
508.33	43791.42
508.50	44016.11
508.68	44154.21
508.85	44240.81
509.03	44463.16
509.20	44446.77
509.38	44648.06
509.55	44673.81
509.73	44788.49
509.90	44526.35
510.08	45181.70
510.25	45263.62
510.42	45263.62
510.60	45368.94
510.77	45404.05
510.95	45984.51
511.12	45682.58
511.30	45635.77
511.47	45668.53
511.64	45617.04
511.82	46534.53
511.99	45902.59
512.17	45972.80
512.34	46330.90
512.51	46850.50
512.69	46733.48
512.86	46834.12
513.04	47042.43
513.21	46803.69
513.38	47229.67
513.56	47552.66
513.73	47278.82
513.90	47295.21
514.08	47194.56
514.25	47990.34
514.43	48299.30
514.60	48006.73
514.77	47538.62
514.95	47803.10
515.12	47796.08
515.29	47950.56
515.47	48123.75
515.64	48273.55
515.81	48430.36
515.99	49116.14
516.16	48488.88
516.33	48907.83
516.51	48961.67
516.68	49022.52
516.85	48678.46
517.03	49226.15
517.20	49312.75
517.37	49294.02
517.54	49139.55
517.72	49315.09
517.89	49289.34
518.06	49368.92
518.24	49708.30
518.41	49595.95
518.58	49801.92
518.75	49708.30
518.93	50237.26
519.10	49989.16
519.27	50010.23
519.45	50223.22
519.62	50433.86
519.79	50424.50
519.96	50323.86
520.14	50649.19
520.31	50131.93
520.48	51007.29
520.65	50670.26
520.83	51030.70
521.00	50930.06
521.17	50651.53
521.34	50834.10
521.52	50829.41
521.69	51290.50
521.86	50990.91
522.03	51625.20
522.20	51679.03
522.38	52006.70
522.55	51669.67
522.72	51489.45
522.89	51826.48
523.07	51976.28
523.24	51814.78
523.41	52184.58
523.58	51875.63
523.75	52168.20
523.92	52102.67
524.10	52413.96
524.27	52292.25
524.44	52399.91
524.61	52465.45
524.78	52388.21
524.96	52570.77
525.13	52619.92
525.30	53146.54
525.47	52755.68
525.64	52615.24
525.81	52961.64
525.98	53230.80
526.16	52729.93
526.33	53240.17
526.50	53319.74
526.67	53476.56
526.84	53385.28
527.01	52802.49
527.18	52975.69
527.36	53420.39
527.53	53052.92
527.70	53642.74
527.87	53595.93
528.04	53488.26
528.21	53642.74
528.38	53710.61
528.55	53869.77
528.72	53834.66
528.89	53581.88
529.07	53602.95
529.24	53483.58
529.41	54045.31
529.58	53771.47
529.75	53741.04
529.92	54230.21
530.09	53965.73
530.26	54485.33
530.43	54274.68
530.60	54101.48
530.77	54300.43
530.94	54436.18
531.11	54218.51
531.28	54349.58
531.46	54452.56
531.63	54494.69
531.80	54787.26
531.97	54787.26
532.14	55091.53
532.31	54604.70
532.48	54733.43
532.65	54901.95
532.82	54801.30
532.99	54866.84
533.16	54740.45
533.33	55344.31
533.50	55126.64
533.67	55000.25
533.84	54873.86
534.01	55154.72
534.18	55234.30
534.35	55576.02
534.52	55363.03
534.69	55454.31
534.86	55498.78
535.03	55426.23
535.20	55407.50
535.37	55407.50
535.54	55451.97
535.71	55657.94
535.88	55894.33
536.05	55791.35
536.22	56030.08
536.38	55784.33
536.55	55711.77
536.72	56133.07
536.89	55990.30
537.06	55868.59
537.23	55920.08
537.40	56060.51
537.57	56058.17
537.74	56207.97
537.91	56294.56
538.08	55999.66
538.25	56081.58
538.42	56032.42
538.59	56633.94
538.75	56310.95
538.92	56427.98
539.09	56390.53
539.26	56500.53
539.43	56214.99
539.60	56446.70
539.77	56418.61
539.94	56493.51
540.11	56650.33
540.28	56762.67
540.44	56692.46
540.61	56804.80
540.78	56516.92
540.95	56666.71
541.12	56568.41
541.29	56844.59
541.46	56662.03
541.62	56655.01
541.79	57106.73
541.96	56652.67
542.13	56732.25
542.30	57113.75
542.47	57083.33
542.63	57151.20
542.80	57151.20
542.97	57221.42
543.14	57490.58
543.31	57247.16
543.48	57296.31
543.64	57757.40
543.81	57593.56
543.98	57539.73
544.15	57427.38
544.32	57874.43
544.48	57726.97
544.65	57441.43
544.82	57577.18
544.99	57434.41
545.16	57478.88
545.32	57766.76
545.49	57923.58
545.66	57944.64
545.83	57869.75
546.00	57993.79
546.16	58092.10
546.33	57712.93
546.50	57806.55
546.67	57970.39
546.83	57682.50
547.00	58042.95
547.17	57694.21
547.34	58012.52
547.50	58042.95
547.67	58478.28
547.84	58099.12
548.00	58368.28
548.17	58478.28
548.34	58372.96
548.51	58461.90
548.67	58450.20
548.84	58520.41
549.01	58382.32
549.18	58220.83
549.34	58433.81
549.51	58487.65
549.68	58621.06
549.84	58562.54
550.01	58618.72
550.18	58616.38
550.34	58796.60
550.51	58717.02
550.68	58862.13
550.84	58461.90
551.01	58651.48
551.18	58885.54
551.34	58695.95
551.51	58972.14
551.68	58798.94
551.84	58639.78
552.01	58766.17
552.18	59189.81
552.34	58815.32
552.51	58908.94
552.68	58880.86
552.84	58883.20
553.01	59215.55
553.18	59178.10
553.34	59117.25
553.51	58962.78
553.67	59107.89
553.84	59313.86
554.01	59267.05
554.17	59159.38
554.34	59393.43
554.51	59114.91
554.67	59250.66
554.84	59292.79
555.00	59250.66
555.17	59028.31
555.33	59248.32
555.50	59131.29
555.67	59327.90
555.83	59285.77
556.00	59234.28
556.16	59594.72
556.33	59405.14
556.50	59253.00
556.66	59667.28
556.83	59461.31
556.99	59508.12
557.16	59653.23
557.32	59732.81
557.49	60011.34
557.65	59526.84
557.82	59465.99
557.98	59704.73
558.15	59749.20
558.32	59707.07
558.48	59447.27
558.65	59686.00
558.81	59840.48
558.98	59873.24
559.14	60020.70
559.31	59966.87
559.47	60023.04
559.64	59891.97
559.80	59845.16
559.97	60023.04
560.13	59669.62
560.30	59863.88
560.46	59969.21
560.63	59831.11
560.79	59875.58
560.96	60278.16
561.12	60079.21
561.29	60060.49
561.45	60121.34
561.61	59906.01
561.78	60104.96
561.94	59992.61
562.11	60161.13
562.27	60020.70
562.44	60236.03
562.60	60303.90
562.77	60233.69
562.93	59898.99
563.10	60196.24
563.26	60039.42
563.42	60544.98
563.59	60411.57
563.75	60257.09
563.92	60331.99
564.08	60161.13
564.24	60341.35
564.41	60217.30
564.57	60479.44
564.74	60280.50
564.90	60243.05
565.07	60453.70
565.23	60397.52
565.39	60261.77
565.56	60547.32
565.72	60411.57
565.88	60575.40
566.05	60477.10
566.21	60261.77
566.38	60570.72
566.54	60640.94
566.70	60505.19
566.87	60666.69
567.03	60193.90
567.19	60500.51
567.36	60664.35
567.52	60594.13
567.68	60697.11
567.85	60500.51
568.01	60622.22
568.17	60390.50
568.34	60748.60
568.50	60687.75
568.66	60528.59
568.83	60615.19
568.99	60315.61
569.15	60727.54
569.32	60680.73
569.48	60582.43
569.64	60720.52
569.81	60612.85
569.97	60580.09
570.13	60636.26
570.30	60701.79
570.46	60638.60
570.62	60956.91
570.78	60786.05
570.95	60654.98
571.11	60795.42
571.27	60764.99
571.43	60809.46
571.60	61022.45
571.76	60874.99
571.92	60994.36
572.09	60963.93
572.25	60835.20
572.41	60825.84
572.57	60886.70
572.74	61050.53
572.90	61038.83
573.06	60818.82
573.22	61013.08
573.38	60863.29
573.55	60912.44
573.71	60989.68
573.87	60889.04
574.03	60706.47
574.20	60996.70
574.36	60879.67
574.52	60994.36
574.68	61085.64
574.84	60970.96
575.01	61179.26
575.17	60985.00
575.33	61006.06
575.49	61043.51
575.65	60924.14
575.82	61087.98
575.98	60898.40
576.14	61062.24
576.30	61066.92
576.46	60811.80
576.62	60844.57
576.79	61020.11
576.95	60837.54
577.11	61134.79
577.27	61167.56
577.43	61001.38
577.59	61010.74
577.75	60970.96
577.92	60713.50
578.08	61087.98
578.24	61137.13
578.40	61247.14
578.56	61296.29
578.72	60980.32
578.88	61071.60
579.04	61109.05
579.21	61139.47
579.37	61202.67
579.53	61382.89
579.69	60961.59
579.85	60945.21
580.01	61155.86
580.17	60945.21
580.33	61130.11
580.49	61174.58
580.65	61106.71
580.82	60966.27
580.98	61247.14
581.14	60968.61
581.30	61254.16
581.46	61235.44
581.62	61055.21
581.78	61127.77
581.94	61256.50
582.10	61197.99
582.26	61069.26
582.42	60938.19
582.58	60980.32
582.74	60938.19
582.90	61195.65
583.06	61045.85
583.22	60900.74
583.38	61258.84
583.54	61226.07
583.70	61202.67
583.86	61352.46
584.02	61272.88
584.18	61240.12
584.34	61197.99
584.50	61066.92
584.66	60992.02
584.82	61010.74
584.98	61233.10
585.14	61392.25
585.30	60989.68
585.46	61167.56
585.62	61200.33
585.78	61403.95
585.94	61113.73
586.10	61284.59
586.26	61181.60
586.42	61474.17
586.58	61364.17
586.74	61329.06
586.90	61247.14
587.06	61144.16
587.22	61169.90
587.38	61385.23
587.54	61275.22
587.70	61399.27
587.86	61518.64
588.02	61497.58
588.18	61432.04
588.34	61240.12
588.49	61375.87
