SpectraSuite Data File
++++++++++++++++++++++++++++++++++++
Date: Fri Oct 25 11:26:25 EDT 2013
User: price-jones
Dark Spectrum Present: No
Reference Spectrum Present: No
Number of Sampled Component Spectra: 1
Spectrometers: USB2+H05261
Integration Time (usec): 100000 (USB2+H05261)
Spectra Averaged: 1 (USB2+H05261)
Boxcar Smoothing: 0 (USB2+H05261)
Correct for Electrical Dark: No (USB2+H05261)
Strobe/Lamp Enabled: No (USB2+H05261)
Correct for Detector Non-linearity: No (USB2+H05261)
Correct for Stray Light: No (USB2+H05261)
Number of Pixels in Processed Spectrum: 2048
>>>>>Begin Processed Spectral Data<<<<<
365.73	257.46
365.92	257.46
366.12	257.46
366.32	191.92
366.52	159.16
366.72	182.56
366.91	187.24
367.11	163.84
367.31	102.98
367.51	126.39
367.70	182.56
367.90	194.26
368.10	163.84
368.30	180.22
368.49	117.03
368.69	252.78
368.89	182.56
369.09	184.90
369.28	203.63
369.48	142.77
369.68	210.65
369.87	147.45
370.07	201.29
370.27	163.84
370.47	322.99
370.66	655.35
370.86	571.09
371.06	699.82
371.25	732.59
371.45	564.07
371.65	610.88
371.84	650.67
372.04	636.63
372.24	683.44
372.44	779.40
372.63	755.99
372.83	690.46
373.03	732.59
373.22	800.46
373.42	791.10
373.62	706.84
373.81	854.30
374.01	723.23
374.21	844.93
374.40	842.59
374.60	901.11
374.79	809.83
374.99	828.55
375.19	851.96
375.38	851.96
375.58	802.80
375.78	858.98
375.97	936.21
376.17	889.40
376.37	821.53
376.56	940.90
376.76	905.79
376.95	875.36
377.15	866.00
377.35	905.79
377.54	840.25
377.74	905.79
377.93	983.02
378.13	1036.86
378.33	1011.11
378.52	910.47
378.72	931.53
378.91	866.00
379.11	978.34
379.31	961.96
379.50	896.43
379.70	912.81
379.89	999.41
380.09	985.37
380.28	1013.45
380.48	1043.88
380.68	1018.13
380.87	933.87
381.07	990.05
381.26	1090.69
381.46	1100.05
381.65	973.66
381.85	1034.52
382.04	1135.16
382.24	1088.35
382.43	1081.33
382.63	994.73
382.83	1071.97
383.02	1104.73
383.22	1137.50
383.41	1036.86
383.61	1181.97
383.80	1132.82
384.00	1088.35
384.19	1203.04
384.39	1076.65
384.58	1118.78
384.78	1139.84
384.97	1177.29
385.17	1179.63
385.36	1132.82
385.56	1174.95
385.75	1231.12
385.95	1212.40
386.14	1226.44
386.34	1217.08
386.53	1242.82
386.72	1142.18
386.92	1235.80
387.11	1252.19
387.31	1231.12
387.50	1289.64
387.70	1132.82
387.89	1294.32
388.09	1280.27
388.28	1359.85
388.48	1263.89
388.67	1306.02
388.86	1378.58
389.06	1331.76
389.25	1392.62
389.45	1418.36
389.64	1306.02
389.84	1345.81
390.03	1387.94
390.22	1404.32
390.42	1479.22
390.61	1416.02
390.81	1352.83
391.00	1406.66
391.19	1348.15
391.39	1420.71
391.58	1427.73
391.78	1441.77
391.97	1472.20
392.16	1425.39
392.36	1589.22
392.55	1380.92
392.75	1533.05
392.94	1523.69
393.13	1502.62
393.33	1526.03
393.52	1586.88
393.71	1526.03
393.91	1565.82
394.10	1617.31
394.29	1554.12
394.49	1521.35
394.68	1586.88
394.88	1617.31
395.07	1605.61
395.26	1568.16
395.46	1614.97
395.65	1797.53
395.84	1727.32
396.04	1689.87
396.23	1792.85
396.42	1739.02
396.62	1710.93
396.81	1732.00
397.00	1706.25
397.19	1844.34
397.39	1755.40
397.58	1816.26
397.77	1778.81
397.97	1902.86
398.16	1916.90
398.35	1959.03
398.55	1874.77
398.74	1853.70
398.93	1954.35
399.12	1907.54
399.32	1898.17
399.51	1933.28
399.70	2059.67
399.90	1856.04
400.09	1933.28
400.28	2022.22
400.47	1982.43
400.67	2246.91
400.86	2033.93
401.05	2141.59
401.24	2197.76
401.44	2003.50
401.63	2200.10
401.82	2146.27
402.01	2223.51
402.21	2167.34
402.40	2150.95
402.59	2195.42
402.78	2307.77
402.97	2209.47
403.17	2296.07
403.36	2267.98
403.55	2225.85
403.74	2338.20
403.93	2385.01
404.13	2359.26
404.32	2431.82
404.51	2356.92
404.70	2401.39
404.89	2485.65
405.09	2359.26
405.28	2504.37
405.47	2417.77
405.66	2438.84
405.85	2490.33
406.05	2548.84
406.24	2427.14
406.43	2621.40
406.62	2715.02
406.81	2619.06
407.00	2691.62
407.20	2502.03
407.39	2602.68
407.58	2644.81
407.77	2747.79
407.96	2778.22
408.15	2724.38
408.34	2679.91
408.54	2684.59
408.73	2871.84
408.92	2871.84
409.11	2773.53
409.30	2867.16
409.49	2864.82
409.68	2949.08
409.87	3045.04
410.07	2930.35
410.26	2977.16
410.45	2965.46
410.64	3016.95
410.83	3145.68
411.02	3066.10
411.21	3194.83
411.40	3190.15
411.59	3225.26
411.78	3197.17
411.98	3164.40
412.17	3304.84
412.36	3267.39
412.55	3487.40
412.74	3283.77
412.93	3412.50
413.12	3370.37
413.31	3538.89
413.50	3442.93
413.69	3485.06
413.88	3520.17
414.07	3513.14
414.26	3581.02
414.45	3705.07
414.64	3534.21
414.83	3648.90
415.02	3758.90
415.22	3808.05
415.41	3913.38
415.60	3936.78
415.79	3880.61
415.98	3927.42
416.17	4049.13
416.36	3840.82
416.55	3873.59
416.74	4046.79
416.93	4009.34
417.12	4142.75
417.31	4021.04
417.50	4177.86
417.69	4259.78
417.88	4304.25
418.07	4269.14
418.26	4205.94
418.45	4524.26
418.64	4479.79
418.83	4372.12
419.02	4318.29
419.21	4587.45
419.39	4491.49
419.58	4533.62
419.77	4386.16
419.96	4533.62
420.15	4386.16
420.34	4617.88
420.53	4444.68
420.72	4671.71
420.91	4741.93
421.10	4732.56
421.29	4798.10
421.48	4627.24
421.67	4777.03
421.86	4655.33
422.05	4751.29
422.24	4699.80
422.43	4774.69
422.61	4856.61
422.80	4889.38
422.99	4746.61
423.18	4919.81
423.37	4870.65
423.56	4858.95
423.75	4882.36
423.94	4954.91
424.13	4652.98
424.32	4842.57
424.50	5032.15
424.69	5109.39
424.88	5078.96
425.07	4945.55
425.26	4917.47
425.45	4858.95
425.64	4880.02
425.83	4926.83
426.01	4978.32
426.20	5104.71
426.39	5074.28
426.58	4924.49
426.77	5093.01
426.96	5170.24
427.15	5085.98
427.33	4999.38
427.52	5146.84
427.71	5212.37
427.90	5195.99
428.09	5252.16
428.28	5191.31
428.46	5298.97
428.65	5282.59
428.84	5502.60
429.03	5561.11
429.22	5301.31
429.40	5441.75
429.59	5371.53
429.78	5219.39
429.97	5256.84
430.16	5423.02
430.34	5526.00
430.53	5605.58
430.72	5518.98
430.91	5448.77
431.10	5509.62
431.28	5771.76
431.47	5774.10
431.66	5778.78
431.85	5694.52
432.03	5959.00
432.22	5959.00
432.41	5905.17
432.60	5858.36
432.79	5776.44
432.97	5996.45
433.16	6008.16
433.35	5774.10
433.54	6139.23
433.72	6167.31
433.91	6207.10
434.10	5902.83
434.28	6017.52
434.47	6125.18
434.66	6094.76
434.85	6223.48
435.03	6340.51
435.22	6141.57
435.41	6551.16
435.59	6455.20
435.78	6483.28
435.97	6410.73
436.16	6420.09
436.34	6492.65
436.53	6494.99
436.72	6642.44
436.90	6256.25
437.09	6502.01
437.28	6415.41
437.46	6483.28
437.65	6579.25
437.84	6836.70
438.02	6684.57
438.21	6700.95
438.40	6607.33
438.58	6871.81
438.77	6895.22
438.96	6825.00
439.14	6923.30
439.33	7002.88
439.52	7225.23
439.70	7110.55
439.89	7351.62
440.08	7403.11
440.26	7290.77
440.45	7222.89
440.63	7281.41
440.82	7604.40
441.01	7454.61
441.19	7566.95
441.38	7641.85
441.57	7796.32
441.75	7573.97
441.94	7782.28
442.12	7920.37
442.31	7892.29
442.50	8081.87
442.68	7796.32
442.87	8058.46
443.05	8131.02
443.24	8226.98
443.43	8025.70
443.61	8264.43
443.80	8322.94
443.98	8018.68
444.17	7653.55
444.35	8138.04
444.54	8152.09
444.73	8269.11
444.91	8325.29
445.10	8351.03
445.28	8241.03
445.47	8252.73
445.65	8351.03
445.84	8503.17
446.02	8545.30
446.21	8365.07
446.39	8461.04
446.58	8446.99
446.77	8430.61
446.95	8250.39
447.14	8400.18
447.32	8631.90
447.51	8603.81
447.69	8439.97
447.88	8596.79
448.06	8404.86
448.25	8196.56
448.43	8594.45
448.62	8386.14
448.80	8521.89
448.99	8596.79
449.17	8737.22
449.36	8561.68
449.54	8854.25
449.73	8844.88
449.91	9057.87
450.10	8872.97
450.28	9071.92
450.46	9057.87
450.65	8889.35
450.83	8980.64
451.02	9104.68
451.20	9273.20
451.39	9266.18
451.57	9125.75
451.76	9095.32
451.94	9123.41
452.13	9130.43
452.31	9420.66
452.49	9343.42
452.68	9259.16
452.86	9338.74
453.05	9359.80
453.23	9715.56
453.42	9434.70
453.60	9371.50
453.78	9551.73
453.97	9352.78
454.15	9584.49
454.34	9329.38
454.52	9619.60
454.70	9720.24
454.89	9647.69
455.07	9881.74
455.26	9734.29
455.44	9888.76
455.62	9858.34
455.81	9916.85
455.99	9848.97
456.17	9951.96
456.36	9961.32
456.54	9998.77
456.73	10155.58
456.91	10359.21
457.09	10284.31
457.28	10567.52
457.46	10214.10
457.64	10487.94
457.83	10326.44
458.01	10366.23
458.19	10658.80
458.38	10354.53
458.56	10729.02
458.74	10448.15
458.93	10700.93
459.11	10647.10
459.29	10654.12
459.48	10778.17
459.66	10759.44
459.84	10752.42
460.03	10965.41
460.21	10654.12
460.39	10853.06
460.57	10787.53
460.76	10942.00
460.94	10906.90
461.12	11061.37
461.31	11274.36
461.49	10981.79
461.67	11211.17
461.85	11421.81
462.04	11321.17
462.22	11714.38
462.40	11501.39
462.59	11433.52
462.77	11543.52
462.95	11618.42
463.13	11480.33
463.32	11580.97
463.50	11749.49
463.68	11810.34
463.86	11651.19
464.05	11641.82
464.23	11452.24
464.41	11885.24
464.59	11447.56
464.78	12030.35
464.96	11829.07
465.14	11763.53
465.32	11962.48
465.50	12098.23
465.69	12264.41
465.87	11896.94
466.05	12051.42
466.23	12044.40
466.41	12287.81
466.60	12388.46
466.78	11887.58
466.96	12297.17
467.14	12116.95
467.32	12252.70
467.51	12409.52
467.69	12123.98
467.87	12381.43
468.05	12449.31
468.23	12463.35
468.41	12430.59
468.60	12336.96
468.78	12622.51
468.96	12430.59
469.14	12725.49
469.32	12982.95
469.50	12741.88
469.69	13011.04
469.87	12973.59
470.05	12800.39
470.23	12798.05
470.41	12776.98
470.59	13214.66
470.77	13125.72
470.95	13247.43
471.14	13617.24
471.32	12905.71
471.50	13633.62
471.68	13310.63
471.86	13614.90
472.04	13504.89
472.22	13916.83
472.40	13334.03
472.58	13884.06
472.77	14005.77
472.95	14129.81
473.13	14207.05
473.31	14075.98
473.49	14125.13
473.67	14274.93
473.85	14047.90
474.03	14443.45
474.21	14391.95
474.39	14443.45
474.57	14530.05
474.75	14946.66
474.93	14829.63
475.12	15051.99
475.30	14934.96
475.48	14984.11
475.66	15213.48
475.84	14927.94
476.02	15222.84
476.20	15199.44
476.38	15604.35
476.56	16177.78
476.74	15861.81
476.92	15625.42
477.10	15690.95
477.28	16046.71
477.46	15983.52
477.64	16381.41
477.82	16142.67
478.00	16933.78
478.18	16535.88
478.36	16877.60
478.54	17268.47
478.72	17202.94
478.90	17193.58
479.08	17460.40
479.26	17652.32
479.44	17657.00
479.62	17481.46
479.80	17792.75
479.98	17935.53
480.16	18567.47
480.34	18143.83
480.52	18637.69
480.70	18607.26
480.88	18326.39
481.06	18735.99
481.24	18515.98
481.41	18738.33
481.59	19005.15
481.77	19267.29
481.95	19438.15
482.13	19440.49
482.31	19405.38
482.49	20259.68
482.67	20173.08
482.85	20470.33
483.03	20634.16
483.21	20807.36
483.39	20753.53
483.57	21074.18
483.74	21137.38
483.92	21008.65
484.10	21046.10
484.28	21507.18
484.46	22045.51
484.64	22555.74
484.82	21841.88
485.00	22106.36
485.18	22773.41
485.35	22951.29
485.53	22953.63
485.71	22630.64
485.89	23124.49
486.07	23122.15
486.25	23112.79
486.43	23484.94
486.61	23765.80
486.78	23981.13
486.96	24023.26
487.14	24496.05
487.32	24613.07
487.50	24657.54
487.68	24680.95
487.85	25195.87
488.03	25230.98
488.21	25666.31
488.39	26001.01
488.57	25860.58
488.75	25757.60
488.92	26483.16
489.10	26569.76
489.28	26260.81
489.46	26799.13
489.64	26792.11
489.81	27391.29
489.99	27220.43
490.17	27342.14
490.35	27971.74
490.53	28107.49
490.70	28151.96
490.88	27866.42
491.06	28547.51
491.24	28992.22
491.41	28933.70
491.59	28938.38
491.77	29362.02
491.95	29490.75
492.13	29694.38
492.30	29799.70
492.48	29879.28
492.66	29802.04
492.84	30134.40
493.01	30696.13
493.19	30127.38
493.37	30682.08
493.54	31285.94
493.72	31000.40
493.90	31391.26
494.08	31290.62
494.25	31805.54
494.43	31613.62
494.61	32603.66
494.79	32088.74
494.96	32231.52
495.14	32683.24
495.32	32910.27
495.49	33125.60
495.67	33312.84
495.85	33949.47
496.02	33289.44
496.20	33432.21
496.38	33415.83
496.55	33626.48
496.73	34679.72
496.91	34361.40
497.09	34485.45
497.26	34885.68
497.44	34520.56
497.62	34866.96
497.79	35433.37
497.97	34890.37
498.14	35655.72
498.32	35604.23
498.50	36100.42
498.67	36154.26
498.85	36175.32
499.03	36769.82
499.20	37003.87
499.38	36287.67
499.56	36627.04
499.73	36720.66
499.91	37455.59
500.08	37364.31
500.26	37282.39
500.44	37607.73
500.61	37277.71
500.79	37818.38
500.97	37989.24
501.14	38256.06
501.32	38176.48
501.49	38511.17
501.67	38075.84
501.84	38698.42
502.02	38401.17
502.20	38801.40
502.37	39255.46
502.55	39056.52
502.72	39690.80
502.90	38979.28
503.07	39494.20
503.25	39660.38
503.43	39562.08
503.60	39758.68
503.78	40006.78
503.95	39995.07
504.13	40425.73
504.30	40109.76
504.48	40662.13
504.65	40243.17
504.83	40980.44
505.01	41202.79
505.18	40601.27
505.36	40938.31
505.53	40844.69
505.71	41368.97
505.88	41055.34
506.06	41001.50
506.23	41708.35
506.41	41792.61
506.58	41720.05
506.76	42366.04
506.93	42190.50
507.11	42024.32
507.28	42288.80
507.46	42260.71
507.63	42588.39
507.81	42951.17
507.98	42862.23
508.16	42719.46
508.33	43105.65
508.50	43243.74
508.68	42756.91
508.85	43552.69
509.03	43702.48
509.20	43590.14
509.38	44409.32
509.55	43861.64
509.73	44165.91
509.90	44580.18
510.08	43978.67
510.25	44334.43
510.42	44048.88
510.60	44842.32
510.77	44825.94
510.95	44811.90
511.12	44713.59
511.30	45322.13
511.47	45446.18
511.64	45031.91
511.82	45467.25
511.99	45350.22
512.17	45483.63
512.34	45972.80
512.51	46401.12
512.69	46239.62
512.86	46256.01
513.04	46560.28
513.21	46045.36
513.38	46693.69
513.56	46761.56
513.73	46314.52
513.90	46710.07
514.08	46438.57
514.25	46724.11
514.43	47150.09
514.60	47133.71
514.77	47100.94
514.95	47632.24
515.12	47426.28
515.29	46918.38
515.47	47576.07
515.64	47723.52
515.81	47770.33
515.99	47927.15
516.16	48006.73
516.33	47908.43
516.51	48392.92
516.68	48259.51
516.85	48390.58
517.03	48793.15
517.20	48374.19
517.37	48748.68
517.54	48533.35
517.72	48542.71
517.89	48739.32
518.06	48711.23
518.24	49181.68
518.41	49235.51
518.58	49151.25
518.75	48912.52
518.93	49322.11
519.10	49378.28
519.27	49720.00
519.45	49771.49
519.62	49748.09
519.79	50005.55
519.96	49968.10
520.14	49914.26
520.31	49900.22
520.48	50113.21
520.65	50136.62
520.83	50103.85
521.00	50614.08
521.17	50141.30
521.34	50602.38
521.52	50497.06
521.69	50745.15
521.86	50923.04
522.03	51019.00
522.20	50918.35
522.38	51536.26
522.55	51234.33
522.72	50941.76
522.89	51107.94
523.07	51716.48
523.24	51227.31
523.41	51426.25
523.58	50834.10
523.75	51751.59
523.92	51714.14
524.10	51655.62
524.27	51966.91
524.44	51805.42
524.61	51992.66
524.78	51810.10
524.96	51810.10
525.13	52128.41
525.30	52182.24
525.47	52402.25
525.64	52243.10
525.81	52526.30
525.98	52236.08
526.16	52182.24
526.33	52474.81
526.50	52617.58
526.67	52743.97
526.84	52584.82
527.01	52664.39
527.18	52575.45
527.36	52907.81
527.53	52650.35
527.70	53013.13
527.87	53193.36
528.04	52924.19
528.21	53258.89
528.38	53099.73
528.55	53125.48
528.72	53181.65
528.89	53272.93
529.07	53085.69
529.24	53345.49
529.41	53549.12
529.58	53088.03
529.75	53616.99
529.92	53492.94
530.09	53521.03
530.26	53888.49
530.43	53719.98
530.60	53696.57
530.77	53712.95
530.94	53986.80
531.11	54057.01
531.28	53965.73
531.46	53932.96
531.63	53890.83
531.80	53932.96
531.97	54255.96
532.14	54181.06
532.31	54328.52
532.48	54642.15
532.65	54220.85
532.82	54394.05
532.99	54471.29
533.16	54382.35
533.33	54714.70
533.50	54555.55
533.67	54862.16
533.84	54475.97
534.01	54726.41
534.18	54726.41
534.35	55145.36
534.52	54932.37
534.69	54899.61
534.86	55320.90
535.03	54817.69
535.20	55030.68
535.37	55082.17
535.54	55089.19
535.71	55117.28
535.88	55136.00
536.05	55292.82
536.22	55290.48
536.38	55491.76
536.55	55173.45
536.72	55370.05
536.89	55442.61
537.06	55128.98
537.23	55639.22
537.40	55613.47
537.57	55494.10
537.74	55470.70
537.91	55557.30
538.08	55681.34
538.25	55473.04
538.42	55580.70
538.59	56025.40
538.75	55718.79
538.92	56055.83
539.09	55859.23
539.26	55945.83
539.43	55927.10
539.60	56055.83
539.77	56114.34
539.94	56449.04
540.11	56170.52
540.28	56095.62
540.44	56432.66
540.61	56596.49
540.78	56140.09
540.95	56259.46
541.12	56217.33
541.29	56243.07
541.46	56245.41
541.62	56580.11
541.79	56500.53
541.96	56336.69
542.13	56472.45
542.30	56814.16
542.47	56575.43
542.63	56755.65
542.80	56762.67
542.97	56938.21
543.14	56825.87
543.31	57153.54
543.48	56989.70
543.64	57394.62
543.81	57193.33
543.98	57251.84
544.15	57059.92
544.32	57209.71
544.48	57343.12
544.65	57085.67
544.82	57146.52
544.99	57127.80
545.16	57354.83
545.32	56985.02
545.49	57361.85
545.66	57453.13
545.83	57317.38
546.00	57495.26
546.16	57340.78
546.33	57394.62
546.50	57427.38
546.67	57471.85
546.83	57251.84
547.00	57638.03
547.17	57574.84
547.34	57647.39
547.50	57745.70
547.67	57839.32
547.84	57963.37
548.00	58073.37
548.17	58024.22
548.34	58017.20
548.51	58183.38
548.67	57975.07
548.84	57900.17
549.01	57946.98
549.18	58265.30
549.34	58047.63
549.51	58312.11
549.68	58157.63
549.84	58169.33
550.01	58192.74
550.18	58129.54
550.34	58213.80
550.51	58305.09
550.68	58344.87
550.84	58099.12
551.01	58209.12
551.18	58464.24
551.34	58330.83
551.51	58464.24
551.68	58344.87
551.84	58656.17
552.01	58436.16
552.18	58354.24
552.34	58262.96
552.51	58705.32
552.68	58279.34
552.84	58372.96
553.01	58848.09
553.18	58674.89
553.34	58665.53
553.51	58759.15
553.67	58525.10
553.84	58894.90
554.01	58958.09
554.17	58773.19
554.34	59044.69
554.51	58754.47
554.67	58815.32
554.84	58850.43
555.00	58756.81
555.17	58810.64
555.33	59100.87
555.50	58700.64
555.67	58707.66
555.83	58698.30
556.00	58908.94
556.16	59306.83
556.33	59119.59
556.50	58967.46
556.66	59248.32
556.83	58972.14
556.99	59269.39
557.16	59332.58
557.32	59419.18
557.49	59377.05
557.65	59229.60
557.82	59260.02
557.98	59355.99
558.15	59458.97
558.32	59316.20
558.48	59199.17
558.65	59377.05
558.81	59501.10
558.98	59414.50
559.14	59503.44
559.31	59531.53
559.47	59618.13
559.64	59566.63
559.80	59536.21
559.97	59512.80
560.13	59353.65
560.30	59458.97
560.46	59695.36
560.63	59758.56
560.79	59657.91
560.96	59793.67
561.12	59716.43
561.29	59723.45
561.45	59735.15
561.61	59510.46
561.78	59608.76
561.94	59697.70
562.11	59423.86
562.27	59849.84
562.44	59859.20
562.60	59941.12
562.77	59840.48
562.93	59674.30
563.10	59941.12
563.26	59601.74
563.42	60119.00
563.59	59913.03
563.75	59774.94
563.92	59859.20
564.08	59746.86
564.24	60065.17
564.41	60076.87
564.57	59894.31
564.74	59889.63
564.90	59929.42
565.07	59906.01
565.23	59966.87
565.39	60111.98
565.56	60170.49
565.72	60116.66
565.88	59999.63
566.05	60004.31
566.21	60013.68
566.38	60175.17
566.54	60168.15
566.70	60334.33
566.87	60137.72
567.03	59887.29
567.19	60397.52
567.36	60095.60
567.52	60023.04
567.68	60444.33
567.85	60083.89
568.01	60322.63
568.17	60231.35
568.34	60229.01
568.50	60198.58
568.66	60069.85
568.83	60301.56
568.99	60214.96
569.15	60306.24
569.32	60041.76
569.48	60186.88
569.64	60299.22
569.81	60402.21
569.97	60137.72
570.13	60313.26
570.30	60046.44
570.46	60364.76
570.62	60301.56
570.78	60285.18
570.95	60413.91
571.11	60243.05
571.27	60451.36
571.43	60357.74
571.60	60404.55
571.76	60554.34
571.92	60353.05
572.09	60406.89
572.25	60287.52
572.41	60453.70
572.57	60348.37
572.74	60559.02
572.90	60240.71
573.06	60554.34
573.22	60411.57
573.38	60383.48
573.55	60566.04
573.71	60633.92
573.87	60552.00
574.03	60451.36
574.20	60711.16
574.36	60463.06
574.52	60659.66
574.68	60554.34
574.84	60561.36
575.01	60591.79
575.17	60563.70
575.33	60399.86
575.49	60528.59
575.65	60685.41
575.82	60718.18
575.98	60725.20
576.14	60680.73
576.30	60715.84
576.46	60690.09
576.62	60535.62
576.79	60427.95
576.95	60544.98
577.11	60495.83
577.27	60584.77
577.43	60673.71
577.59	60764.99
577.75	60561.36
577.92	60582.43
578.08	60706.47
578.24	60622.22
578.40	60764.99
578.56	60816.48
578.72	60753.29
578.88	60725.20
579.04	60900.74
579.21	60781.37
579.37	60800.10
579.53	60882.02
579.69	60465.40
579.85	60743.92
580.01	60573.06
580.17	60725.20
580.33	60814.14
580.49	60872.65
580.65	60828.18
580.82	60711.16
580.98	60643.28
581.14	60746.26
581.30	60893.72
581.46	60793.07
581.62	60821.16
581.78	60779.03
581.94	60750.94
582.10	60666.69
582.26	60617.53
582.42	60671.37
582.58	60816.48
582.74	60802.44
582.90	60863.29
583.06	60837.54
583.22	60563.70
583.38	60720.52
583.54	60865.63
583.70	60818.82
583.86	60961.59
584.02	60896.06
584.18	61008.40
584.34	60942.87
584.50	60952.23
584.66	60802.44
584.82	60617.53
584.98	60952.23
585.14	60963.93
585.30	60811.80
585.46	60886.70
585.62	60853.93
585.78	60947.55
585.94	60685.41
586.10	60781.37
586.26	60865.63
586.42	61076.28
586.58	61116.07
586.74	60910.10
586.90	60959.25
587.06	60795.42
587.22	60949.89
587.38	60928.83
587.54	60992.02
587.70	61010.74
587.86	60989.68
588.02	60917.12
588.18	61174.58
588.34	60788.39
588.49	60982.66
