SpectraSuite Data File
++++++++++++++++++++++++++++++++++++
Date: Fri Oct 25 10:47:49 EDT 2013
User: price-jones
Dark Spectrum Present: No
Reference Spectrum Present: No
Number of Sampled Component Spectra: 1
Spectrometers: USB2+H05261
Integration Time (usec): 100000 (USB2+H05261)
Spectra Averaged: 1 (USB2+H05261)
Boxcar Smoothing: 0 (USB2+H05261)
Correct for Electrical Dark: No (USB2+H05261)
Strobe/Lamp Enabled: No (USB2+H05261)
Correct for Detector Non-linearity: No (USB2+H05261)
Correct for Stray Light: No (USB2+H05261)
Number of Pixels in Processed Spectrum: 2048
>>>>>Begin Processed Spectral Data<<<<<
365.73	170.86
365.92	170.86
366.12	170.86
366.32	86.60
366.52	67.88
366.72	65.54
366.91	60.85
367.11	84.26
367.31	79.58
367.51	0.00
367.70	63.19
367.90	39.79
368.10	0.00
368.30	49.15
368.49	86.60
368.69	91.28
368.89	53.83
369.09	86.60
369.28	135.75
369.48	32.77
369.68	102.98
369.87	161.50
370.07	95.96
370.27	110.01
370.47	238.73
370.66	402.57
370.86	362.78
371.06	447.04
371.25	484.49
371.45	493.85
371.65	461.09
371.84	407.25
372.04	409.59
372.24	470.45
372.44	561.73
372.63	491.51
372.83	547.69
373.03	552.37
373.22	491.51
373.42	526.62
373.62	489.17
373.81	521.94
374.01	561.73
374.21	489.17
374.40	493.85
374.60	566.41
374.79	615.56
374.99	585.13
375.19	463.43
375.38	568.75
375.58	543.00
375.78	594.50
375.97	585.13
376.17	587.47
376.37	559.39
376.56	608.54
376.76	550.03
376.95	559.39
377.15	641.31
377.35	573.43
377.54	585.13
377.74	601.52
377.93	634.29
378.13	615.56
378.33	559.39
378.52	603.86
378.72	688.12
378.91	678.76
379.11	592.16
379.31	669.39
379.50	638.97
379.70	697.48
379.89	624.92
380.09	634.29
380.28	678.76
380.48	667.05
380.68	690.46
380.87	690.46
381.07	678.76
381.26	685.78
381.46	610.88
381.65	608.54
381.85	601.52
382.04	706.84
382.24	599.18
382.43	657.69
382.63	657.69
382.83	688.12
383.02	758.33
383.22	758.33
383.41	683.44
383.61	709.18
383.80	730.25
384.00	723.23
384.19	702.16
384.39	823.87
384.58	779.40
384.78	767.70
384.97	706.84
385.17	697.48
385.36	732.59
385.56	765.36
385.75	692.80
385.95	800.46
386.14	800.46
386.34	828.55
386.53	767.70
386.72	746.63
386.92	816.85
387.11	744.29
387.31	816.85
387.50	683.44
387.70	751.31
387.89	800.46
388.09	837.91
388.28	837.91
388.48	788.76
388.67	884.72
388.86	882.38
389.06	861.32
389.25	957.28
389.45	976.00
389.64	891.74
389.84	957.28
390.03	994.73
390.22	933.87
390.42	976.00
390.61	873.02
390.81	922.17
391.00	961.96
391.19	985.37
391.39	1064.94
391.58	1074.31
391.78	947.92
391.97	994.73
392.16	961.96
392.36	917.49
392.55	1050.90
392.75	950.26
392.94	1039.20
393.13	1039.20
393.33	912.81
393.52	987.71
393.71	1025.15
393.91	1053.24
394.10	1097.71
394.29	1032.18
394.49	983.02
394.68	1064.94
394.88	1137.50
395.07	1086.01
395.26	1146.86
395.46	1160.91
395.65	1097.71
395.84	1053.24
396.04	1156.22
396.23	1181.97
396.42	1074.31
396.62	1144.52
396.81	1156.22
397.00	1097.71
397.19	1242.82
397.39	1198.35
397.58	1280.27
397.77	1270.91
397.97	1277.93
398.16	1240.48
398.35	1263.89
398.55	1193.67
398.74	1385.60
398.93	1418.36
399.12	1315.38
399.32	1310.70
399.51	1334.11
399.70	1434.75
399.90	1416.02
400.09	1301.34
400.28	1383.26
400.47	1394.96
400.67	1511.99
400.86	1530.71
401.05	1483.90
401.24	1554.12
401.44	1418.36
401.63	1619.65
401.82	1584.54
402.01	1519.01
402.21	1441.77
402.40	1493.26
402.59	1437.09
402.78	1598.59
402.97	1565.82
403.17	1593.90
403.36	1629.01
403.55	1661.78
403.74	1647.74
403.93	1593.90
404.13	1673.48
404.32	1633.69
404.51	1629.01
404.70	1739.02
404.89	1732.00
405.09	1771.79
405.28	1710.93
405.47	1652.42
405.66	1734.34
405.85	1795.19
406.05	1668.80
406.24	1856.04
406.43	1797.53
406.62	1827.96
406.81	1846.68
407.00	1856.04
407.20	1654.76
407.39	1900.52
407.58	1977.75
407.77	1865.41
407.96	1909.88
408.15	1930.94
408.34	1956.69
408.54	1996.48
408.73	2038.61
408.92	2057.33
409.11	2031.58
409.30	2066.69
409.49	1919.24
409.68	2005.84
409.87	2064.35
410.07	2125.21
410.26	2120.53
410.45	2148.61
410.64	2122.87
410.83	2122.87
411.02	2249.25
411.21	2181.38
411.40	2207.13
411.59	2242.23
411.78	2258.62
411.98	2303.09
412.17	2319.47
412.36	2279.68
412.55	2394.37
412.74	2373.30
412.93	2434.16
413.12	2427.14
413.31	2602.68
413.50	2420.11
413.69	2485.65
413.88	2532.46
414.07	2661.19
414.26	2619.06
414.45	2579.27
414.64	2590.97
414.83	2661.19
415.02	2743.11
415.22	2686.94
415.41	2796.94
415.60	2808.64
415.79	2731.41
415.98	2871.84
416.17	2803.96
416.36	2785.24
416.55	2892.90
416.74	2960.78
416.93	3117.59
417.12	2923.33
417.31	2970.14
417.50	2925.67
417.69	3126.96
417.88	3136.32
418.07	3038.02
418.26	3087.17
418.45	3082.49
418.64	3222.92
418.83	3260.37
419.02	3159.72
419.21	3162.06
419.39	3183.13
419.58	3190.15
419.77	3211.22
419.96	3248.66
420.15	3248.66
420.34	3309.52
420.53	3272.07
420.72	3386.76
420.91	3279.09
421.10	3339.94
421.29	3478.04
421.48	3293.13
421.67	3536.55
421.86	3419.52
422.05	3459.31
422.24	3412.50
422.43	3459.31
422.61	3368.03
422.80	3517.83
422.99	3330.58
423.18	3541.23
423.37	3604.42
423.56	3555.27
423.75	3531.87
423.94	3487.40
424.13	3342.28
424.32	3489.74
424.50	3499.10
424.69	3681.66
424.88	3688.68
425.07	3496.76
425.26	3435.91
425.45	3501.44
425.64	3557.61
425.83	3616.13
426.01	3552.93
426.20	3524.85
426.39	3574.00
426.58	3737.84
426.77	3627.83
426.96	3672.30
427.15	3833.80
427.33	3730.81
427.52	3742.52
427.71	3660.60
427.90	3658.26
428.09	3691.02
428.28	3819.75
428.46	3761.24
428.65	3669.96
428.84	3901.67
429.03	3815.07
429.22	3721.45
429.40	3894.65
429.59	3733.15
429.78	3632.51
429.97	3742.52
430.16	3803.37
430.34	3712.09
430.53	3925.08
430.72	3843.16
430.91	3819.75
431.10	3974.23
431.28	3878.27
431.47	4135.73
431.66	4135.73
431.85	4138.07
432.03	4053.81
432.22	4126.36
432.41	4140.41
432.60	4374.46
432.79	4215.30
432.97	4311.27
433.16	4269.14
433.35	4219.99
433.54	4198.92
433.72	4168.49
433.91	4294.88
434.10	4290.20
434.28	4360.42
434.47	4311.27
434.66	4489.15
434.85	4425.95
435.03	4493.83
435.22	4535.96
435.41	4585.11
435.59	4568.73
435.78	4404.89
435.97	4531.28
436.16	4706.82
436.34	4634.26
436.53	4564.04
436.72	4660.01
436.90	4571.07
437.09	4753.63
437.28	4652.98
437.46	4737.24
437.65	4706.82
437.84	4699.80
438.02	4669.37
438.21	4669.37
438.40	4589.79
438.58	4741.93
438.77	4910.44
438.96	4933.85
439.14	4901.08
439.33	4994.70
439.52	5158.54
439.70	4990.02
439.89	4957.25
440.08	5193.65
440.26	5184.29
440.45	5217.05
440.63	5172.58
440.82	5387.91
441.01	5423.02
441.19	5343.44
441.38	5568.13
441.57	5383.23
441.75	5638.35
441.94	5624.31
442.12	5643.03
442.31	5659.42
442.50	5717.93
442.68	5757.72
442.87	5619.63
443.05	5678.14
443.24	5757.72
443.43	5771.76
443.61	5970.71
443.80	6001.13
443.98	5767.08
444.17	5668.78
444.35	5919.21
444.54	5959.00
444.73	6045.60
444.91	5907.51
445.10	5823.25
445.28	5764.74
445.47	5867.72
445.65	5785.80
445.84	5930.92
446.02	5947.30
446.21	5809.21
446.39	5734.31
446.58	6207.10
446.77	6001.13
446.95	5792.83
447.14	5963.68
447.32	6061.99
447.51	5933.26
447.69	5947.30
447.88	6097.10
448.06	5966.03
448.25	6146.25
448.43	5994.11
448.62	5926.24
448.80	5895.81
448.99	6146.25
449.17	6164.97
449.36	6132.20
449.54	6244.55
449.73	6291.36
449.91	6258.59
450.10	6347.53
450.28	6427.11
450.46	6796.92
450.65	6356.90
450.83	6494.99
451.02	6338.17
451.20	6438.81
451.39	6553.50
451.57	6600.31
451.76	6277.32
451.94	6523.07
452.13	6527.75
452.31	6413.07
452.49	6487.96
452.68	6579.25
452.86	6457.54
453.05	6569.88
453.23	6406.05
453.42	6815.64
453.60	6656.48
453.78	6682.23
453.97	6705.63
454.15	6558.18
454.34	6597.97
454.52	6696.27
454.70	6761.81
454.89	6944.37
455.07	6567.54
455.26	6937.35
455.44	6927.99
455.62	7047.35
455.81	6977.14
455.99	7131.61
456.17	7080.12
456.36	7124.59
456.54	7225.23
456.73	7370.35
456.91	7325.88
457.09	7316.51
457.28	7398.43
457.46	7276.73
457.64	7393.75
457.83	7346.94
458.01	7382.05
458.19	7613.76
458.38	7466.31
458.56	7440.56
458.74	7531.84
458.93	7559.93
459.11	7389.07
459.29	7604.40
459.48	7566.95
459.66	7515.46
459.84	7440.56
460.03	7761.22
460.21	7714.41
460.39	7831.43
460.57	7585.68
460.76	7824.41
460.94	7595.04
461.12	7719.09
461.31	7918.03
461.49	7833.77
461.67	7637.17
461.85	7894.63
462.04	7894.63
462.22	8458.70
462.40	8128.68
462.59	8203.58
462.77	7885.26
462.95	8072.51
463.13	8135.70
463.32	7976.55
463.50	8203.58
463.68	8163.79
463.86	8287.84
464.05	8081.87
464.23	8028.04
464.41	8257.41
464.59	7831.43
464.78	8358.05
464.96	8180.17
465.14	7990.59
465.32	8278.47
465.50	8484.44
465.69	8465.72
465.87	8402.52
466.05	8376.78
466.23	8229.32
466.41	8404.86
466.60	8468.06
466.78	8404.86
466.96	8400.18
467.14	8365.07
467.32	8561.68
467.51	8648.28
467.69	8355.71
467.87	8540.61
468.05	8603.81
468.23	8709.13
468.41	8465.72
468.60	8580.40
468.78	8835.52
468.96	8622.53
469.14	8655.30
469.32	8858.93
469.50	8596.79
469.69	8571.04
469.87	8896.38
470.05	9048.51
470.23	8959.57
470.41	9092.98
470.59	9240.44
470.77	8992.34
470.95	9121.07
471.14	9228.73
471.32	8959.57
471.50	9217.03
471.68	9263.84
471.86	9387.89
472.04	9500.23
472.22	9652.37
472.40	9320.01
472.58	9495.55
472.77	9556.41
472.95	9561.09
473.13	9975.36
473.31	9685.14
473.49	9610.24
473.67	9764.72
473.85	9816.21
474.03	9848.97
474.21	9994.09
474.39	9879.40
474.57	9975.36
474.75	10099.41
474.93	10389.64
475.12	10118.14
475.30	10193.03
475.48	10209.42
475.66	10370.91
475.84	10312.40
476.02	10359.21
476.20	10520.71
476.38	10801.57
476.56	10902.22
476.74	10771.15
476.92	10546.45
477.10	10815.62
477.28	10902.22
477.46	10794.55
477.64	11136.27
477.82	11145.63
478.00	11559.91
478.18	11391.39
478.36	11375.00
478.54	11669.91
478.72	11520.12
478.90	11995.25
479.08	11737.79
479.26	11936.73
479.44	11948.43
479.62	11974.18
479.80	12278.45
479.98	12194.19
480.16	12552.29
480.34	12205.89
480.52	12507.82
480.70	12465.69
480.88	12580.38
481.06	12676.34
481.24	12781.67
481.41	12982.95
481.59	13025.08
481.77	13015.72
481.95	12964.23
482.13	13401.91
482.31	13095.30
482.49	13605.53
482.67	13596.17
482.85	13706.18
483.03	13933.21
483.21	14085.34
483.39	14054.92
483.57	13991.72
483.74	14113.43
483.92	14171.94
484.10	14216.41
484.28	14286.63
484.46	14689.20
484.64	15152.63
484.82	14434.08
485.00	14794.53
485.18	14829.63
485.35	15063.69
485.53	14916.23
485.71	15150.29
485.89	15288.38
486.07	15044.96
486.25	15529.45
486.43	15599.67
486.61	16070.12
486.78	16189.49
486.96	16187.14
487.14	16678.66
487.32	16322.90
487.50	16613.12
487.68	16336.94
487.85	17074.21
488.03	16901.01
488.21	17326.99
488.39	17097.61
488.57	17369.12
488.75	17488.48
488.92	17507.21
489.10	17949.57
489.28	17778.71
489.46	18106.38
489.64	17841.90
489.81	18253.84
489.99	18668.11
490.17	18429.38
490.35	18717.26
490.53	18658.75
490.70	18710.24
490.88	18747.69
491.06	19042.60
491.24	19164.31
491.41	18857.70
491.59	19087.07
491.77	18986.43
491.95	19274.31
492.13	19831.36
492.30	19803.27
492.48	19733.06
492.66	19868.81
492.84	20077.12
493.01	20353.30
493.19	20273.72
493.37	20636.50
493.54	20713.74
493.72	20727.78
493.90	20720.76
494.08	20933.75
494.25	21399.52
494.43	21275.47
494.61	21614.85
494.79	21336.32
494.96	21436.97
495.14	21575.06
495.32	21844.22
495.49	21752.94
495.67	22080.61
495.85	22424.67
496.02	22469.14
496.20	22487.87
496.38	22773.41
496.55	22843.63
496.73	23164.28
496.91	22630.64
497.09	23269.61
497.26	23281.31
497.44	23133.86
497.62	23171.30
497.79	23295.35
497.97	23403.02
498.14	23396.00
498.32	23779.84
498.50	23634.73
498.67	23955.38
498.85	24027.94
499.03	24254.97
499.20	24271.36
499.38	24334.55
499.56	24472.64
499.73	24704.35
499.91	24678.61
500.08	24645.84
500.26	24320.51
500.44	24645.84
500.61	24678.61
500.79	24704.35
500.97	24924.36
501.14	25223.95
501.32	25413.54
501.49	24840.11
501.67	24959.47
501.84	25626.53
502.02	25413.54
502.20	25462.69
502.37	25797.38
502.55	25872.28
502.72	25790.36
502.90	26214.00
503.07	25830.15
503.25	26061.87
503.43	26089.95
503.60	26347.41
503.78	26300.60
503.95	26398.90
504.13	26583.80
504.30	26675.09
504.48	26649.34
504.65	26962.97
504.83	26588.49
505.01	26869.35
505.18	27051.91
505.36	27391.29
505.53	26974.67
505.71	27473.21
505.88	27711.94
506.06	27283.62
506.23	27564.49
506.41	27463.85
506.58	27569.17
506.76	27901.53
506.93	28264.31
507.11	27845.35
507.28	27695.56
507.46	27981.10
507.63	27908.55
507.81	28315.80
507.98	28067.70
508.16	28301.76
508.33	28528.79
508.50	28098.13
508.68	28315.80
508.85	29050.73
509.03	28861.15
509.20	28929.02
509.38	29172.44
509.55	28961.79
509.73	29153.71
509.90	29024.98
510.08	29270.74
510.25	28783.91
510.42	29654.59
510.60	29572.67
510.77	29649.91
510.95	29893.32
511.12	29855.87
511.30	30012.69
511.47	29940.13
511.64	30195.25
511.82	30588.46
511.99	30162.48
512.17	30305.26
512.34	30174.19
512.51	30345.05
512.69	30642.29
512.86	30026.73
513.04	30862.30
513.21	30789.75
513.38	30902.09
513.56	30700.81
513.73	30820.17
513.90	30902.09
514.08	30764.00
514.25	31084.65
514.43	31613.62
514.60	31519.99
514.77	31126.78
514.95	31236.79
515.12	31346.79
515.29	31421.69
515.47	31381.90
515.64	31508.29
515.81	31388.92
515.99	31819.58
516.16	31798.52
516.33	31878.10
516.51	32184.71
516.68	31967.04
516.85	31667.45
517.03	31592.55
517.20	32470.25
517.37	31896.82
517.54	32510.04
517.72	32598.98
517.89	32212.79
518.06	32252.58
518.24	32393.01
518.41	32264.28
518.58	32634.09
518.75	32402.38
518.93	33039.00
519.10	32526.42
519.27	32882.19
519.45	32697.28
519.62	32938.36
519.79	32849.42
519.96	33493.07
520.14	33434.55
520.31	33174.75
520.48	33219.22
520.65	33357.32
520.83	33752.87
521.00	33652.22
521.17	33228.59
521.34	33766.91
521.52	33572.64
521.69	34043.09
521.86	34251.40
522.03	34110.97
522.20	33900.32
522.38	33982.24
522.55	34352.04
522.72	34167.14
522.89	34012.66
523.07	34462.05
523.24	34389.49
523.41	34572.05
523.58	34749.93
523.75	35061.22
523.92	35143.14
524.10	34759.30
524.27	35079.95
524.44	35101.01
524.61	35166.55
524.78	35299.96
524.96	35536.35
525.13	35283.58
525.30	35372.52
525.47	35608.91
525.64	35377.20
525.81	35601.89
525.98	35569.12
526.16	35421.67
526.33	35498.91
526.50	35531.67
526.67	34948.88
526.84	35428.69
527.01	35487.20
527.18	35957.65
527.36	36308.73
527.53	35587.85
527.70	36182.34
527.87	36353.20
528.04	36231.49
528.21	36114.47
528.38	36290.01
528.55	36659.81
528.72	36517.04
528.89	37214.52
529.07	36411.71
529.24	36589.59
529.41	36657.47
529.58	36533.42
529.75	36765.14
529.92	36774.50
530.09	36797.90
530.26	37294.10
530.43	37247.29
530.60	36762.79
530.77	36889.18
530.94	37617.09
531.11	37081.11
531.28	37043.66
531.46	37188.77
531.63	37596.03
531.80	37397.08
531.97	36975.78
532.14	37921.36
532.31	36973.44
532.48	37411.12
532.65	37773.91
532.82	37633.47
532.99	37556.24
533.16	37642.84
533.33	37764.54
533.50	38349.68
533.67	37741.14
533.84	37439.21
534.01	38139.03
534.18	38014.98
534.35	38595.43
534.52	38068.81
534.69	38380.10
534.86	38522.88
535.03	38202.22
535.20	38616.50
535.37	38834.17
535.54	38689.06
535.71	38567.35
535.88	38249.03
536.05	38017.32
536.22	38597.77
536.38	39026.09
536.55	38986.30
536.72	38345.00
536.89	38546.28
537.06	38553.30
537.23	38986.30
537.40	38543.94
537.57	39084.61
537.74	38719.48
537.91	39000.35
538.08	38857.57
538.25	38625.86
538.42	39260.15
538.59	39686.12
538.75	38705.44
538.92	39201.63
539.09	39391.22
539.26	39091.63
539.43	39166.52
539.60	39522.29
539.77	39416.96
539.94	39849.96
540.11	39531.65
540.28	39131.42
540.44	39625.27
540.61	39323.34
540.78	39798.47
540.95	39723.57
541.12	39695.49
541.29	39489.52
541.46	39248.44
541.62	39611.23
541.79	40004.44
541.96	39594.84
542.13	39824.22
542.30	39985.71
542.47	39859.32
542.63	40009.12
542.80	40137.85
542.97	40676.17
543.14	40479.57
543.31	40388.28
543.48	40608.29
543.64	40950.01
543.81	40767.45
543.98	40556.80
544.15	40704.26
544.32	40814.26
544.48	41057.68
544.65	40645.74
544.82	40870.43
544.99	40807.24
545.16	40840.01
545.32	40622.34
545.49	41123.21
545.66	41336.20
545.83	40989.80
546.00	41392.37
546.16	41455.57
546.33	40898.52
546.50	41085.76
546.67	41167.68
546.83	40797.88
547.00	41151.30
547.17	41350.24
547.34	41497.70
547.50	41563.23
547.67	41588.98
547.84	41418.12
548.00	41603.02
548.17	41727.07
548.34	41670.90
548.51	41867.50
548.67	41989.21
548.84	41816.01
549.01	41661.54
549.18	41249.60
549.34	41872.18
549.51	41970.49
549.68	42267.73
549.84	42302.84
550.01	42288.80
550.18	42115.60
550.34	42040.70
550.51	41968.15
550.68	41464.93
550.84	41596.00
551.01	41841.76
551.18	41977.51
551.34	42103.90
551.51	42398.80
551.68	42256.03
551.84	42536.90
552.01	42059.43
552.18	42651.58
552.34	41954.10
552.51	42141.35
552.68	42572.00
552.84	42817.76
553.01	42789.67
553.18	42398.80
553.34	42815.42
553.51	42632.86
553.67	42719.46
553.84	42976.92
554.01	42855.21
554.17	42969.90
554.34	42693.71
554.51	43047.13
554.67	43143.09
554.84	42997.98
555.00	42721.80
555.17	42403.49
555.33	42904.36
555.50	42948.83
555.67	42754.57
555.83	42848.19
556.00	43220.33
556.16	44016.11
556.33	43225.01
556.50	42813.08
556.66	43285.87
556.83	42756.91
556.99	42843.51
557.16	43482.47
557.32	42941.81
557.49	43519.92
557.65	42763.93
557.82	42937.13
557.98	43236.72
558.15	42918.40
558.32	42951.17
558.48	43241.40
558.65	43608.86
558.81	42829.46
558.98	43718.87
559.14	43435.66
559.31	43768.02
559.47	43697.80
559.64	43875.68
559.80	43959.94
559.97	43873.34
560.13	43210.97
560.30	43302.25
560.46	43496.52
560.63	43489.49
560.79	44095.69
560.96	44170.59
561.12	43821.85
561.29	43533.96
561.45	43770.36
561.61	44046.54
561.78	43292.89
561.94	43349.06
562.11	43379.49
562.27	43416.94
562.44	43498.86
562.60	43711.84
562.77	43924.83
562.93	44107.40
563.10	44250.17
563.26	43629.93
563.42	43910.79
563.59	43828.87
563.75	43973.98
563.92	43892.07
564.08	44151.87
564.24	44156.55
564.41	44257.19
564.57	43934.20
564.74	43938.88
564.90	44329.75
565.07	44615.29
565.23	44006.75
565.39	43704.82
565.56	43835.89
565.72	44048.88
565.88	43990.37
566.05	44081.65
566.21	43973.98
566.38	43875.68
566.54	44240.81
566.70	44397.62
566.87	44484.22
567.03	44177.61
567.19	44243.15
567.36	44280.60
567.52	44449.11
567.68	44528.69
567.85	44238.47
568.01	44430.39
568.17	44140.16
568.34	44509.97
568.50	44662.10
568.66	44339.11
568.83	44638.70
568.99	44158.89
569.15	44439.75
569.32	44399.96
569.48	43952.92
569.64	44362.51
569.81	44582.52
569.97	44189.31
570.13	44095.69
570.30	44442.09
570.46	43871.00
570.62	44062.93
570.78	44542.74
570.95	44194.00
571.11	44418.69
571.27	44346.13
571.43	44374.22
571.60	44903.18
571.76	44315.70
571.92	44226.76
572.09	44542.74
572.25	43880.36
572.41	44308.68
572.57	44554.44
572.74	45226.17
572.90	44467.84
573.06	44212.72
573.22	44538.05
573.38	44100.37
573.55	44156.55
573.71	44533.37
573.87	44481.88
574.03	44208.04
574.20	44540.39
574.36	44687.85
574.52	44683.17
574.68	44341.45
574.84	44531.03
575.01	44559.12
575.17	44119.10
575.33	44711.25
575.49	44311.02
575.65	44502.95
575.82	45029.57
575.98	44739.34
576.14	44767.43
576.30	44772.11
576.46	44411.67
576.62	44348.47
576.79	44397.62
576.95	44273.57
577.11	44493.58
577.27	44713.59
577.43	44294.64
577.59	44294.64
577.75	44657.42
577.92	44348.47
578.08	44463.16
578.24	44418.69
578.40	44760.40
578.56	44282.94
578.72	44664.44
578.88	44690.19
579.04	44699.55
579.21	44699.55
579.37	44158.89
579.53	44610.61
579.69	44760.40
579.85	44680.83
580.01	44542.74
580.17	44570.82
580.33	45043.61
580.49	44755.72
580.65	44814.24
580.82	44851.69
580.98	44776.79
581.14	44095.69
581.30	44989.78
581.46	44837.64
581.62	44769.77
581.78	44472.52
581.94	45050.63
582.10	44772.11
582.26	44690.19
582.42	44208.04
582.58	44451.45
582.74	44435.07
582.90	44748.70
583.06	44980.42
583.22	45013.18
583.38	44900.84
583.54	44416.35
583.70	44533.37
583.86	44816.58
584.02	44549.76
584.18	44814.24
584.34	44896.16
584.50	44711.25
584.66	44914.88
584.82	44828.28
584.98	44832.96
585.14	44854.03
585.30	44961.69
585.46	45001.48
585.62	44704.23
585.78	44680.83
585.94	44273.57
586.10	44556.78
586.26	44226.76
586.42	44577.84
586.58	44638.70
586.74	44694.87
586.90	44430.39
587.06	44519.33
587.22	44676.15
587.38	45003.82
587.54	44966.37
587.70	45198.09
587.86	45104.46
588.02	44982.76
588.18	45207.45
588.34	44350.81
588.49	44552.10
588.65	44608.27
588.81	44568.48
588.97	44425.71
589.13	44678.49
589.29	44488.90
589.45	45043.61
589.61	44832.96
589.77	44879.77
589.93	45181.70
590.08	45067.02
590.24	45024.89
