SpectraSuite Data File
++++++++++++++++++++++++++++++++++++
Date: Fri Oct 25 11:34:08 EDT 2013
User: price-jones
Dark Spectrum Present: No
Reference Spectrum Present: No
Number of Sampled Component Spectra: 1
Spectrometers: USB2+H05261
Integration Time (usec): 100000 (USB2+H05261)
Spectra Averaged: 1 (USB2+H05261)
Boxcar Smoothing: 0 (USB2+H05261)
Correct for Electrical Dark: No (USB2+H05261)
Strobe/Lamp Enabled: No (USB2+H05261)
Correct for Detector Non-linearity: No (USB2+H05261)
Correct for Stray Light: No (USB2+H05261)
Number of Pixels in Processed Spectrum: 2048
>>>>>Begin Processed Spectral Data<<<<<
365.73	252.78
365.92	252.78
366.12	252.78
366.32	203.63
366.52	210.65
366.72	149.79
366.91	208.31
367.11	234.05
367.31	170.86
367.51	147.45
367.70	198.95
367.90	189.58
368.10	238.73
368.30	135.75
368.49	163.84
368.69	124.05
368.89	180.22
369.09	222.35
369.28	238.73
369.48	280.86
369.68	241.08
369.87	182.56
370.07	264.48
370.27	245.76
370.47	330.02
370.66	430.66
370.86	512.58
371.06	564.07
371.25	573.43
371.45	498.53
371.65	479.81
371.84	528.96
372.04	500.87
372.24	575.77
372.44	578.11
372.63	510.24
372.83	571.09
373.03	615.56
373.22	678.76
373.42	526.62
373.62	571.09
373.81	578.11
374.01	645.99
374.21	660.03
374.40	615.56
374.60	657.69
374.79	655.35
374.99	660.03
375.19	650.67
375.38	645.99
375.58	643.65
375.78	676.41
375.97	697.48
376.17	674.07
376.37	690.46
376.56	674.07
376.76	648.33
376.95	737.27
377.15	690.46
377.35	662.37
377.54	638.97
377.74	610.88
377.93	631.94
378.13	648.33
378.33	678.76
378.52	660.03
378.72	730.25
378.91	718.54
379.11	683.44
379.31	737.27
379.50	669.39
379.70	713.86
379.89	748.97
380.09	638.97
380.28	706.84
380.48	741.95
380.68	674.07
380.87	711.52
381.07	704.50
381.26	800.46
381.46	812.17
381.65	840.25
381.85	772.38
382.04	765.36
382.24	692.80
382.43	847.27
382.63	856.64
382.83	786.42
383.02	772.38
383.22	798.12
383.41	774.72
383.61	837.91
383.80	814.51
384.00	748.97
384.19	805.14
384.39	821.53
384.58	858.98
384.78	767.70
384.97	774.72
385.17	795.78
385.36	774.72
385.56	828.55
385.75	863.66
385.95	875.36
386.14	873.02
386.34	807.48
386.53	901.11
386.72	805.14
386.92	903.45
387.11	863.66
387.31	936.21
387.50	856.64
387.70	823.87
387.89	898.77
388.09	924.51
388.28	891.74
388.48	917.49
388.67	929.19
388.86	880.04
389.06	940.90
389.25	875.36
389.45	926.85
389.64	931.53
389.84	866.00
390.03	917.49
390.22	1015.79
390.42	945.58
390.61	910.47
390.81	898.77
391.00	901.11
391.19	919.83
391.39	983.02
391.58	968.98
391.78	968.98
391.97	1022.81
392.16	1022.81
392.36	1071.97
392.55	971.32
392.75	1095.37
392.94	1015.79
393.13	1057.92
393.33	1104.73
393.52	1093.03
393.71	1034.52
393.91	1081.33
394.10	1069.62
394.29	1057.92
394.49	999.41
394.68	1217.08
394.88	1067.28
395.07	1102.39
395.26	1118.78
395.46	1125.80
395.65	1252.19
395.84	1167.93
396.04	1306.02
396.23	1137.50
396.42	1198.35
396.62	1210.06
396.81	1235.80
397.00	1205.38
397.19	1163.25
397.39	1219.42
397.58	1167.93
397.77	1207.72
397.97	1163.25
398.16	1196.01
398.35	1256.87
398.55	1357.51
398.74	1387.94
398.93	1280.27
399.12	1259.21
399.32	1217.08
399.51	1359.85
399.70	1270.91
399.90	1329.42
400.09	1425.39
400.28	1369.21
400.47	1289.64
400.67	1357.51
400.86	1423.05
401.05	1390.28
401.24	1310.70
401.44	1406.66
401.63	1465.18
401.82	1380.92
402.01	1474.54
402.21	1446.45
402.40	1483.90
402.59	1535.39
402.78	1528.37
402.97	1413.68
403.17	1500.28
403.36	1427.73
403.55	1509.65
403.74	1551.78
403.93	1554.12
404.13	1551.78
404.32	1549.43
404.51	1533.05
404.70	1593.90
404.89	1619.65
405.09	1680.50
405.28	1678.16
405.47	1673.48
405.66	1668.80
405.85	1664.12
406.05	1629.01
406.24	1713.27
406.43	1746.04
406.62	1703.91
406.81	1809.23
407.00	1671.14
407.20	1750.72
407.39	1825.62
407.58	1884.13
407.77	1804.55
407.96	1881.79
408.15	1823.28
408.34	1764.76
408.54	1844.34
408.73	1856.04
408.92	1973.07
409.11	1898.17
409.30	1996.48
409.49	1998.82
409.68	1870.09
409.87	1944.99
410.07	2019.88
410.26	2090.10
410.45	2047.97
410.64	1989.46
410.83	2120.53
411.02	2106.48
411.21	2132.23
411.40	2031.58
411.59	2197.76
411.78	2122.87
411.98	2153.29
412.17	2106.48
412.36	2174.36
412.55	2345.22
412.74	2291.38
412.93	2445.86
413.12	2242.23
413.31	2436.50
413.50	2314.79
413.69	2319.47
413.88	2457.56
414.07	2415.43
414.26	2422.45
414.45	2394.37
414.64	2424.80
414.83	2562.89
415.02	2558.21
415.22	2576.93
415.41	2656.51
415.60	2686.94
415.79	2642.46
415.98	2712.68
416.17	2647.15
416.36	2764.17
416.55	2693.96
416.74	2719.70
416.93	2789.92
417.12	2799.28
417.31	2787.58
417.50	2911.63
417.69	2862.48
417.88	2841.41
418.07	2986.52
418.26	2958.44
418.45	2974.82
418.64	2981.84
418.83	2998.23
419.02	3035.67
419.21	3089.51
419.39	3206.53
419.58	3016.95
419.77	2958.44
419.96	3145.68
420.15	2972.48
420.34	3080.14
420.53	3007.59
420.72	3136.32
420.91	3218.24
421.10	3141.00
421.29	3171.43
421.48	3190.15
421.67	3148.02
421.86	3145.68
422.05	3234.62
422.24	3290.79
422.43	3328.24
422.61	3211.22
422.80	3398.46
422.99	3361.01
423.18	3300.16
423.37	3346.97
423.56	3272.07
423.75	3363.35
423.94	3236.96
424.13	3211.22
424.32	3321.22
424.50	3421.86
424.69	3400.80
424.88	3435.91
425.07	3372.71
425.26	3335.26
425.45	3440.59
425.64	3351.65
425.83	3290.79
426.01	3417.18
426.20	3482.72
426.39	3391.44
426.58	3335.26
426.77	3471.01
426.96	3393.78
427.15	3417.18
427.33	3424.20
427.52	3646.55
427.71	3597.40
427.90	3531.87
428.09	3473.36
428.28	3489.74
428.46	3716.77
428.65	3550.59
428.84	3700.39
429.03	3698.05
429.22	3550.59
429.40	3679.32
429.59	3735.50
429.78	3698.05
429.97	3595.06
430.16	3630.17
430.34	3698.05
430.53	3861.88
430.72	3723.79
430.91	3803.37
431.10	3782.31
431.28	3791.67
431.47	3932.10
431.66	3847.84
431.85	3873.59
432.03	3995.29
432.22	4025.72
432.41	3990.61
432.60	3988.27
432.79	4091.26
432.97	4065.51
433.16	4184.88
433.35	4163.81
433.54	4081.89
433.72	4269.14
433.91	4227.01
434.10	4095.94
434.28	4114.66
434.47	4280.84
434.66	4021.04
434.85	4194.24
435.03	4280.84
435.22	4229.35
435.41	4294.88
435.59	4306.59
435.78	4128.70
435.97	4255.09
436.16	4259.78
436.34	4390.84
436.53	4301.90
436.72	4468.08
436.90	4341.69
437.09	4393.19
437.28	4294.88
437.46	4524.26
437.65	4601.49
437.84	4664.69
438.02	4573.41
438.21	4454.04
438.40	4496.17
438.58	4732.56
438.77	4741.93
438.96	4587.45
439.14	4777.03
439.33	4660.01
439.52	4727.88
439.70	4929.17
439.89	4950.23
440.08	4840.23
440.26	5013.43
440.45	4947.89
440.63	4933.85
440.82	5114.07
441.01	4898.74
441.19	5083.64
441.38	5036.83
441.57	5352.81
441.75	5181.95
441.94	5158.54
442.12	5259.18
442.31	5280.25
442.50	5245.14
442.68	5392.59
442.87	5221.74
443.05	5413.66
443.24	5462.81
443.43	5544.73
443.61	5462.81
443.80	5579.84
443.98	5268.55
444.17	5310.68
444.35	5434.72
444.54	5399.62
444.73	5420.68
444.91	5617.29
445.10	5865.38
445.28	5551.75
445.47	5565.79
445.65	5533.03
445.84	5607.92
446.02	5542.39
446.21	5827.93
446.39	5659.42
446.58	5540.05
446.77	5650.05
446.95	5472.17
447.14	5556.43
447.32	5804.53
447.51	5626.65
447.69	5582.18
447.88	5619.63
448.06	5748.36
448.25	5533.03
448.43	5748.36
448.62	5657.07
448.80	5853.68
448.99	5806.87
449.17	5738.99
449.36	5701.54
449.54	5811.55
449.73	5975.39
449.91	6005.81
450.10	6078.37
450.28	6059.65
450.46	5968.37
450.65	5886.45
450.83	6047.94
451.02	5996.45
451.20	6036.24
451.39	6045.60
451.57	6054.97
451.76	5940.28
451.94	6059.65
452.13	6111.14
452.31	6040.92
452.49	6132.20
452.68	6162.63
452.86	6160.29
453.05	6373.28
453.23	6324.13
453.42	6162.63
453.60	6270.30
453.78	6352.21
453.97	6354.55
454.15	6300.72
454.34	6401.37
454.52	6399.02
454.70	6347.53
454.89	6497.33
455.07	6480.94
455.26	6441.15
455.44	6612.01
455.62	6532.44
455.81	6338.17
455.99	6712.66
456.17	6677.55
456.36	6665.85
456.54	6689.25
456.73	6920.96
456.91	7033.31
457.09	7061.40
457.28	6909.26
457.46	6813.30
457.64	6993.52
457.83	6925.65
458.01	6923.30
458.19	6960.75
458.38	7023.95
458.56	7124.59
458.74	7087.14
458.93	6993.52
459.11	7035.65
459.29	7110.55
459.48	7105.87
459.66	6988.84
459.84	7136.29
460.03	7370.35
460.21	7091.82
460.39	7339.92
460.57	7255.66
460.76	7480.35
460.94	7346.94
461.12	7396.09
461.31	7309.49
461.49	7344.60
461.67	7403.11
461.85	7452.27
462.04	7337.58
462.22	7812.71
462.40	7581.00
462.59	7501.42
462.77	7550.57
462.95	7634.83
463.13	7695.68
463.32	7786.96
463.50	7698.02
463.68	7742.49
463.86	7747.17
464.05	7599.72
464.23	7433.54
464.41	7885.26
464.59	7672.28
464.78	7906.33
464.96	7744.83
465.14	7793.98
465.32	7906.33
465.50	7805.69
465.69	8159.11
465.87	7948.46
466.05	8044.42
466.23	7969.52
466.41	7978.89
466.60	8114.64
466.78	7908.67
466.96	8074.85
467.14	8170.81
467.32	7988.25
467.51	8088.89
467.69	8112.30
467.87	8154.43
468.05	8229.32
468.23	8112.30
468.41	8226.98
468.60	8278.47
468.78	8191.88
468.96	8088.89
469.14	8388.48
469.32	8463.38
469.50	8201.24
469.69	8549.98
469.87	8589.77
470.05	8622.53
470.23	8657.64
470.41	8458.70
470.59	8837.86
470.77	8685.73
470.95	8849.57
471.14	8863.61
471.32	8496.14
471.50	8727.86
471.68	8835.52
471.86	9015.74
472.04	9032.13
472.22	9247.46
472.40	8847.22
472.58	8943.19
472.77	9095.32
472.95	9125.75
473.13	9633.64
473.31	9078.94
473.49	9305.97
473.67	9050.85
473.85	9394.91
474.03	9619.60
474.21	9497.89
474.39	9584.49
474.57	9488.53
474.75	9710.88
474.93	9867.70
475.12	9710.88
475.30	9963.66
475.48	9792.80
475.66	9994.09
475.84	9898.13
476.02	10083.03
476.20	10040.90
476.38	10298.36
476.56	10408.36
476.74	10382.62
476.92	10340.49
477.10	10064.30
477.28	10499.64
477.46	10539.43
477.64	10567.52
477.82	10677.52
478.00	11066.05
478.18	10775.83
478.36	10974.77
478.54	11183.08
478.72	10925.62
478.90	11372.66
479.08	11213.51
479.26	11431.18
479.44	11314.15
479.62	11580.97
479.80	11693.32
479.98	11756.51
480.16	12006.95
480.34	11817.36
480.52	12035.03
480.70	11995.25
480.88	12020.99
481.06	12233.98
481.24	12259.73
481.41	12545.27
481.59	12313.56
481.77	12425.90
481.95	12746.56
482.13	12624.85
482.31	12688.04
482.49	13235.73
482.67	13008.70
482.85	13198.28
483.03	13341.05
483.21	13343.39
483.39	13451.06
483.57	13418.29
483.74	13603.19
483.92	13743.63
484.10	13579.79
484.28	13795.12
484.46	14050.24
484.64	13998.74
484.82	14097.05
485.00	14415.36
485.18	14707.93
485.35	14707.93
485.53	14841.34
485.71	14569.83
485.89	15126.88
486.07	14853.04
486.25	15147.95
486.43	15131.56
486.61	15243.91
486.78	15538.82
486.96	15236.89
487.14	15573.92
487.32	15800.96
487.50	16013.95
487.68	16224.59
487.85	16109.91
488.03	16547.59
488.21	16475.03
488.39	16453.97
488.57	16563.97
488.75	16641.21
488.92	17188.89
489.10	17245.07
489.28	17397.20
489.46	17465.08
489.64	17373.80
489.81	18003.40
489.99	17401.88
490.17	17689.77
490.35	17867.65
490.53	18024.47
490.70	18211.71
490.88	17933.18
491.06	18237.45
491.24	18317.03
491.41	18305.33
491.59	18604.92
491.77	18696.20
491.95	18895.14
492.13	19070.68
492.30	19421.77
492.48	19330.48
492.66	19264.95
492.84	19278.99
493.01	19620.71
493.19	19522.41
493.37	19590.28
493.54	19960.09
493.72	20159.03
493.90	19967.11
494.08	20393.09
494.25	20264.36
494.43	20423.51
494.61	20575.65
494.79	20786.30
494.96	21048.44
495.14	21025.03
495.32	21401.86
495.49	21177.17
495.67	21214.62
495.85	21703.79
496.02	21509.52
496.20	21635.91
496.38	21769.32
496.55	21628.89
496.73	22546.38
496.91	22183.60
497.09	22614.26
497.26	22537.02
497.44	22293.60
497.62	22740.64
497.79	23103.43
497.97	22991.08
498.14	22930.23
498.32	23241.52
498.50	23101.09
498.67	23527.06
498.85	23309.40
499.03	23761.12
499.20	23398.34
499.38	23262.58
499.56	23538.77
499.73	23793.89
499.91	24238.59
500.08	23920.28
500.26	24144.97
500.44	24231.57
500.61	24414.13
500.79	24130.92
500.97	24765.21
501.14	24819.04
501.32	24664.57
501.49	24737.12
501.67	25015.65
501.84	25013.31
502.02	24973.52
502.20	25223.95
502.37	25263.74
502.55	25062.46
502.72	25298.85
502.90	25359.70
503.07	25303.53
503.25	25535.24
503.43	25233.32
503.60	25329.28
503.78	25947.18
503.95	25776.32
504.13	25986.97
504.30	26225.70
504.48	25734.19
504.65	26342.73
504.83	26583.80
505.01	26609.55
505.18	26345.07
505.36	26838.92
505.53	26876.37
505.71	26778.07
505.88	26796.79
506.06	26813.18
506.23	26969.99
506.41	27103.40
506.58	27175.96
506.76	27215.75
506.93	27527.04
507.11	26993.40
507.28	27452.14
507.46	27931.95
507.63	27772.80
507.81	28102.81
507.98	27281.28
508.16	27559.81
508.33	27648.75
508.50	28180.05
508.68	28034.94
508.85	28421.13
509.03	27957.70
509.20	28308.78
509.38	28685.61
509.55	28828.38
509.73	28561.56
509.90	28374.31
510.08	28833.06
510.25	28678.58
510.42	29130.31
510.60	29027.32
510.77	29462.66
510.95	29598.41
511.12	29153.71
511.30	28975.83
511.47	29546.92
511.64	29553.94
511.82	29830.13
511.99	29738.85
512.17	29696.72
512.34	29970.56
512.51	30265.47
512.69	30356.75
512.86	30171.85
513.04	30242.06
513.21	30129.72
513.38	30775.70
513.56	30518.25
513.73	30150.78
513.90	30551.01
514.08	30375.47
514.25	30513.56
514.43	30845.92
514.60	31049.55
514.77	30998.06
514.95	31108.06
515.12	30761.66
515.29	31299.98
515.47	31096.36
515.64	31166.57
515.81	31566.81
515.99	31557.44
516.16	31332.75
516.33	31601.91
516.51	31807.88
516.68	31658.09
516.85	31414.67
517.03	31887.46
517.20	32404.72
517.37	32046.62
517.54	32163.64
517.72	31969.38
517.89	32245.56
518.06	32620.05
518.24	32374.29
518.41	31931.93
518.58	32360.25
518.75	32215.13
518.93	32634.09
519.10	33144.33
519.27	32339.18
519.45	32692.60
519.62	33074.11
519.79	33200.50
519.96	33254.33
520.14	32912.61
520.31	33127.94
520.48	33469.66
520.65	33118.58
520.83	33750.52
521.00	33867.55
521.17	33450.94
521.34	33617.11
521.52	33809.04
521.69	34293.53
521.86	34143.74
522.03	34218.63
522.20	33827.76
522.38	34286.51
522.55	34305.23
522.72	34197.57
522.89	34511.20
523.07	34651.63
523.24	34216.29
523.41	34309.91
523.58	34164.80
523.75	34749.93
523.92	34747.59
524.10	34635.25
524.27	34560.35
524.44	34293.53
524.61	34972.28
524.78	35077.61
524.96	35288.26
525.13	35358.47
525.30	35419.33
525.47	35601.89
525.64	35250.81
525.81	35625.29
525.98	35491.88
526.16	35526.99
526.33	35309.32
526.50	35775.09
526.67	35356.13
526.84	35545.72
527.01	35632.32
527.18	35995.10
527.36	35917.86
527.53	36194.04
527.70	36177.66
527.87	36601.30
528.04	36486.61
528.21	36158.94
528.38	36332.14
528.55	36622.36
528.72	36194.04
528.89	36559.17
529.07	36655.13
529.24	36407.03
529.41	37003.87
529.58	36388.31
529.75	36535.76
529.92	36882.16
530.09	36425.76
530.26	36884.50
530.43	37179.41
530.60	36914.93
530.77	36898.55
530.94	36879.82
531.11	36816.63
531.28	37146.64
531.46	37146.64
531.63	37067.06
531.80	37148.98
531.97	37228.56
532.14	37141.96
532.31	37455.59
532.48	38040.73
532.65	38071.15
532.82	37727.10
532.99	37830.08
533.16	37469.64
533.33	38171.80
533.50	37926.04
533.67	37689.65
533.84	37338.57
534.01	37916.68
534.18	38129.67
534.35	38141.37
534.52	38089.88
534.69	38377.76
534.86	38438.62
535.03	38309.89
535.20	38539.26
535.37	38754.59
535.54	39091.63
535.71	38047.75
535.88	38717.14
536.05	38433.94
536.22	38920.77
536.38	38778.00
536.55	38796.72
536.72	38553.30
536.89	38387.13
537.06	39089.29
537.23	39405.26
537.40	38871.62
537.57	38909.07
537.74	38902.04
537.91	39503.56
538.08	39014.39
538.25	38693.74
538.42	39122.05
538.59	39215.68
538.75	39377.17
538.92	39763.36
539.09	39751.66
539.26	39758.68
539.43	39482.50
539.60	39718.89
539.77	39519.95
539.94	39966.99
540.11	39660.38
540.28	39819.53
540.44	39999.76
540.61	39697.83
540.78	39791.45
540.95	39545.69
541.12	40154.23
541.29	39765.70
541.46	40023.16
541.62	40147.21
541.79	40531.06
541.96	39826.56
542.13	40114.44
542.30	39910.82
542.47	40493.61
542.63	40561.48
542.80	40528.72
542.97	40994.48
543.14	40975.76
543.31	40907.88
543.48	41153.64
543.64	40947.67
543.81	41158.32
543.98	41001.50
544.15	41053.00
544.32	41064.70
544.48	41565.57
544.65	41287.05
544.82	41071.72
544.99	41031.93
545.16	41495.36
545.32	41205.13
545.49	41404.08
545.66	42054.75
545.83	41935.38
546.00	41900.27
546.16	41310.46
546.33	41656.85
546.50	41186.41
546.67	41982.19
546.83	41287.05
547.00	41642.81
547.17	41401.74
547.34	41998.57
547.50	42232.63
547.67	41755.16
547.84	41626.43
548.00	42007.94
548.17	42712.44
548.34	41928.36
548.51	42705.41
548.67	42380.08
548.84	42286.46
549.01	42459.66
549.18	42223.26
549.34	42295.82
549.51	42775.63
549.68	42665.63
549.84	42660.94
550.01	42756.91
550.18	42476.04
550.34	42876.27
550.51	42850.53
550.68	42586.05
550.84	42604.77
551.01	43180.54
551.18	42843.51
551.34	42604.77
551.51	42572.00
551.68	42728.82
551.84	42752.23
552.01	42543.92
552.18	42494.77
552.34	42822.44
552.51	43105.65
552.68	43295.23
552.84	43019.05
553.01	43049.47
553.18	43241.40
553.34	43594.82
553.51	43091.60
553.67	42955.85
553.84	43697.80
554.01	43402.89
554.17	43409.92
554.34	44168.25
554.51	43442.68
554.67	43641.63
554.84	43482.47
555.00	43889.73
555.17	43784.40
555.33	43863.98
555.50	43840.57
555.67	43232.04
555.83	43445.02
556.00	44282.94
556.16	44142.50
556.33	43950.58
556.50	44105.06
556.66	43950.58
556.83	43442.68
556.99	44472.52
557.16	44495.92
557.32	44481.88
557.49	44044.20
557.65	43894.41
557.82	43948.24
557.98	44018.46
558.15	43899.09
558.32	44107.40
558.48	43826.53
558.65	44306.34
558.81	44245.49
558.98	44030.16
559.14	44151.87
559.31	44194.00
559.47	44268.89
559.64	44568.48
559.80	43929.51
559.97	44540.39
560.13	44385.92
560.30	44011.43
560.46	44559.12
560.63	44460.82
560.79	44577.84
560.96	44486.56
561.12	44811.90
561.29	44556.78
561.45	44821.26
561.61	44638.70
561.78	44821.26
561.94	44486.56
562.11	44790.83
562.27	44701.89
562.44	44940.63
562.60	44868.07
562.77	44556.78
562.93	44713.59
563.10	45038.93
563.26	44858.71
563.42	45284.68
563.59	44964.03
563.75	44645.72
563.92	44729.98
564.08	44722.96
564.24	45020.20
564.41	44823.60
564.57	45153.62
564.74	45113.83
564.90	45172.34
565.07	44891.48
565.23	45228.51
565.39	45270.64
565.56	45476.61
565.72	44954.67
565.88	45586.61
566.05	45284.68
566.21	45483.63
566.38	44772.11
566.54	45261.28
566.70	45280.00
566.87	45488.31
567.03	45240.21
567.19	45301.07
567.36	45357.24
567.52	45603.00
567.68	45752.79
567.85	45588.95
568.01	45741.09
568.17	45326.81
568.34	45333.84
568.50	45827.69
568.66	45368.94
568.83	45715.34
568.99	45485.97
569.15	45907.27
569.32	45785.56
569.48	45308.09
569.64	45729.39
569.81	45933.01
569.97	45649.81
570.13	45656.83
570.30	45390.01
570.46	45769.18
570.62	45705.98
570.78	45558.53
570.95	45605.34
571.11	46078.13
571.27	45343.20
571.43	45551.51
571.60	45713.00
571.76	45771.52
571.92	45605.34
572.09	45881.52
572.25	45581.93
572.41	45698.96
572.57	45794.92
572.74	46185.79
572.90	45832.37
573.06	46089.83
573.22	46040.68
573.38	45766.84
573.55	46120.26
573.71	46108.55
573.87	46101.53
574.03	45979.82
574.20	46141.32
574.36	46309.84
574.52	45874.50
574.68	46094.51
574.84	46569.64
575.01	46412.82
575.17	46457.29
575.33	46211.54
575.49	45923.65
575.65	46286.43
575.82	45977.48
575.98	45710.66
576.14	46625.81
576.30	46272.39
576.46	45961.10
576.62	45825.35
576.79	46253.67
576.95	45567.89
577.11	45956.42
577.27	45860.46
577.43	46026.63
577.59	46103.87
577.75	46057.06
577.92	45626.40
578.08	45640.45
578.24	46120.26
578.40	46553.26
578.56	46094.51
578.72	46141.32
578.88	46153.02
579.04	46061.74
579.21	45759.81
579.37	46113.23
579.53	45940.04
579.69	46213.88
579.85	46033.66
580.01	46040.68
580.17	46150.68
580.33	46028.98
580.49	46410.48
580.65	46099.19
580.82	45811.31
580.98	46162.39
581.14	45944.72
581.30	46064.08
581.46	46452.61
581.62	46115.58
581.78	45790.24
581.94	46377.72
582.10	45921.31
582.26	46050.04
582.42	46815.40
582.58	46263.03
582.74	46010.25
582.90	46469.00
583.06	46396.44
583.22	46487.72
583.38	46440.91
583.54	46876.25
583.70	46220.90
583.86	46658.58
584.02	46291.12
584.18	46754.54
584.34	46305.16
584.50	46691.35
584.66	46417.50
584.82	46401.12
584.98	46878.59
585.14	46300.48
585.30	46248.99
585.46	46571.98
585.62	46377.72
585.78	46316.86
585.94	46557.94
586.10	46525.17
586.26	46148.34
586.42	46239.62
586.58	46274.73
586.74	46426.87
586.90	46319.20
587.06	46436.23
587.22	46667.94
587.38	46415.16
587.54	46490.06
587.70	46485.38
587.86	46396.44
588.02	46164.73
588.18	46670.28
588.34	46836.46
588.49	46595.38
588.65	46738.16
588.81	46579.00
588.97	46824.76
589.13	46597.73
589.29	46267.71
589.45	46773.27
589.61	46747.52
589.77	47112.64
589.93	46803.69
590.08	47276.48
