SpectraSuite Data File
++++++++++++++++++++++++++++++++++++
Date: Fri Oct 25 10:44:23 EDT 2013
User: price-jones
Dark Spectrum Present: No
Reference Spectrum Present: No
Number of Sampled Component Spectra: 1
Spectrometers: USB2+H05261
Integration Time (usec): 100000 (USB2+H05261)
Spectra Averaged: 1 (USB2+H05261)
Boxcar Smoothing: 0 (USB2+H05261)
Correct for Electrical Dark: No (USB2+H05261)
Strobe/Lamp Enabled: No (USB2+H05261)
Correct for Detector Non-linearity: No (USB2+H05261)
Correct for Stray Light: No (USB2+H05261)
Number of Pixels in Processed Spectrum: 2048
>>>>>Begin Processed Spectral Data<<<<<
365.73	112.35
365.92	112.35
366.12	112.35
366.32	110.01
366.52	25.75
366.72	70.22
366.91	56.17
367.11	7.02
367.31	72.56
367.51	53.83
367.70	0.00
367.90	9.36
368.10	37.45
368.30	44.47
368.49	0.00
368.69	74.90
368.89	14.04
369.09	0.00
369.28	28.09
369.48	37.45
369.68	95.96
369.87	77.24
370.07	46.81
370.27	131.07
370.47	208.31
370.66	367.46
370.86	416.62
371.06	407.25
371.25	463.43
371.45	379.17
371.65	449.38
371.84	489.17
372.04	475.13
372.24	461.09
372.44	514.92
372.63	538.32
372.83	503.22
373.03	566.41
373.22	540.66
373.42	554.71
373.62	507.90
373.81	524.28
374.01	610.88
374.21	564.07
374.40	585.13
374.60	601.52
374.79	566.41
374.99	655.35
375.19	599.18
375.38	645.99
375.58	545.34
375.78	596.84
375.97	566.41
376.17	573.43
376.37	592.16
376.56	568.75
376.76	526.62
376.95	547.69
377.15	671.73
377.35	629.60
377.54	620.24
377.74	594.50
377.93	716.20
378.13	594.50
378.33	697.48
378.52	662.37
378.72	755.99
378.91	697.48
379.11	606.20
379.31	645.99
379.50	620.24
379.70	662.37
379.89	648.33
380.09	734.93
380.28	624.92
380.48	730.25
380.68	655.35
380.87	760.67
381.07	711.52
381.26	734.93
381.46	704.50
381.65	744.29
381.85	706.84
382.04	734.93
382.24	725.57
382.43	718.54
382.63	678.76
382.83	737.27
383.02	821.53
383.22	805.14
383.41	819.19
383.61	737.27
383.80	908.13
384.00	786.42
384.19	730.25
384.39	819.19
384.58	807.48
384.78	866.00
384.97	791.10
385.17	774.72
385.36	837.91
385.56	847.27
385.75	828.55
385.95	812.17
386.14	854.30
386.34	870.68
386.53	887.06
386.72	772.38
386.92	903.45
387.11	863.66
387.31	922.17
387.50	983.02
387.70	950.26
387.89	851.96
388.09	882.38
388.28	933.87
388.48	938.55
388.67	896.43
388.86	943.24
389.06	985.37
389.25	910.47
389.45	994.73
389.64	1015.79
389.84	994.73
390.03	1018.13
390.22	945.58
390.42	1048.56
390.61	966.64
390.81	1074.31
391.00	1013.45
391.19	1097.71
391.39	1048.56
391.58	1149.20
391.78	1046.22
391.97	1069.62
392.16	1081.33
392.36	1146.86
392.55	1139.84
392.75	1116.44
392.94	980.68
393.13	1088.35
393.33	985.37
393.52	1053.24
393.71	1153.88
393.91	1156.22
394.10	1179.63
394.29	1212.40
394.49	1188.99
394.68	1301.34
394.88	1193.67
395.07	1268.57
395.26	1306.02
395.46	1277.93
395.65	1291.98
395.84	1226.44
396.04	1254.53
396.23	1210.06
396.42	1184.31
396.62	1306.02
396.81	1256.87
397.00	1221.76
397.19	1432.41
397.39	1341.13
397.58	1385.60
397.77	1460.49
397.97	1416.02
398.16	1488.58
398.35	1509.65
398.55	1430.07
398.74	1479.22
398.93	1472.20
399.12	1572.84
399.32	1540.07
399.51	1554.12
399.70	1788.17
399.90	1535.39
400.09	1603.27
400.28	1603.27
400.47	1696.89
400.67	1636.03
400.86	1760.08
401.05	1732.00
401.24	1820.94
401.44	1783.49
401.63	1739.02
401.82	1884.13
402.01	1790.51
402.21	1811.57
402.40	1849.02
402.59	1839.66
402.78	1914.56
402.97	1844.34
403.17	1898.17
403.36	1921.58
403.55	1898.17
403.74	1832.64
403.93	2010.52
404.13	1956.69
404.32	1919.24
404.51	1928.60
404.70	1977.75
404.89	1879.45
405.09	2064.35
405.28	1959.03
405.47	1839.66
405.66	2040.95
405.85	2005.84
406.05	2005.84
406.24	2054.99
406.43	2108.82
406.62	2176.70
406.81	2188.40
407.00	2148.61
407.20	2045.63
407.39	2052.65
407.58	2150.95
407.77	2202.44
407.96	2387.35
408.15	2303.09
408.34	2277.34
408.54	2363.94
408.73	2361.60
408.92	2387.35
409.11	2469.27
409.30	2420.11
409.49	2335.85
409.68	2342.88
409.87	2356.92
410.07	2427.14
410.26	2406.07
410.45	2471.61
410.64	2495.01
410.83	2539.48
411.02	2583.95
411.21	2586.29
411.40	2642.46
411.59	2705.66
411.78	2661.19
411.98	2579.27
412.17	2595.65
412.36	2801.62
412.55	2810.98
412.74	2764.17
412.93	2768.85
413.12	2771.19
413.31	2806.30
413.50	2841.41
413.69	2998.23
413.88	2967.80
414.07	2883.54
414.26	2977.16
414.45	3143.34
414.64	3068.44
414.83	3035.67
415.02	3112.91
415.22	3077.80
415.41	3201.85
415.60	3229.94
415.79	3155.04
415.98	3269.73
416.17	3412.50
416.36	3222.92
416.55	3339.94
416.74	3501.44
416.93	3295.47
417.12	3447.61
417.31	3372.71
417.50	3356.33
417.69	3485.06
417.88	3574.00
418.07	3524.85
418.26	3564.64
418.45	3543.57
418.64	3634.85
418.83	3669.96
419.02	3714.43
419.21	3789.33
419.39	3599.74
419.58	3627.83
419.77	3705.07
419.96	3733.15
420.15	3894.65
420.34	3810.39
420.53	3810.39
420.72	3925.08
420.91	3985.93
421.10	3803.37
421.29	3978.91
421.48	3960.19
421.67	3985.93
421.86	3927.42
422.05	3889.97
422.24	3875.93
422.43	4016.36
422.61	3988.27
422.80	4053.81
422.99	4086.58
423.18	4065.51
423.37	3955.51
423.56	4028.06
423.75	3929.76
423.94	4065.51
424.13	3829.12
424.32	3950.82
424.50	4077.21
424.69	3978.91
424.88	4236.37
425.07	3981.25
425.26	4009.34
425.45	4091.26
425.64	4056.15
425.83	4056.15
426.01	4063.17
426.20	4133.39
426.39	4276.16
426.58	4051.47
426.77	4147.43
426.96	4072.53
427.15	4117.00
427.33	4138.07
427.52	4194.24
427.71	4166.15
427.90	4404.89
428.09	4353.40
428.28	4285.52
428.46	4238.71
428.65	4276.16
428.84	4585.11
429.03	4318.29
429.22	4135.73
429.40	4245.73
429.59	4264.46
429.78	4058.49
429.97	4133.39
430.16	4145.09
430.34	4208.28
430.53	4215.30
430.72	4262.12
430.91	4219.99
431.10	4390.84
431.28	4681.07
431.47	4910.44
431.66	4711.50
431.85	4521.92
432.03	4732.56
432.22	4903.42
432.41	4739.58
432.60	4795.76
432.79	4919.81
432.97	4821.50
433.16	5029.81
433.35	4842.57
433.54	4730.22
433.72	4828.53
433.91	4599.15
434.10	4938.53
434.28	4807.46
434.47	4894.06
434.66	4936.19
434.85	5118.75
435.03	5060.24
435.22	5046.20
435.41	5188.97
435.59	5207.69
435.78	5261.52
435.97	5366.85
436.16	5291.95
436.34	5331.74
436.53	5233.44
436.72	5369.19
436.90	5085.98
437.09	5430.04
437.28	5146.84
437.46	5350.46
437.65	5481.53
437.84	5186.63
438.02	5352.81
438.21	5383.23
438.40	5322.38
438.58	5535.37
438.77	5612.60
438.96	5603.24
439.14	5790.49
439.33	5867.72
439.52	5825.59
439.70	5874.74
439.89	5963.68
440.08	5720.27
440.26	5846.66
440.45	5991.77
440.63	6038.58
440.82	6059.65
441.01	6036.24
441.19	6246.89
441.38	6258.59
441.57	6167.31
441.75	6382.64
441.94	6539.46
442.12	6387.32
442.31	6525.41
442.50	6363.92
442.68	6370.94
442.87	6532.44
443.05	6600.31
443.24	6649.46
443.43	6623.72
443.61	6640.10
443.80	6705.63
443.98	6520.73
444.17	6569.88
444.35	6647.12
444.54	6932.67
444.73	6626.06
444.91	6626.06
445.10	6736.06
445.28	6677.55
445.47	6497.33
445.65	6513.71
445.84	6640.10
446.02	6958.41
446.21	6794.58
446.39	6684.57
446.58	6773.51
446.77	6878.83
446.95	6672.87
447.14	6766.49
447.32	7096.50
447.51	6974.80
447.69	6789.89
447.88	6696.27
448.06	6949.05
448.25	6897.56
448.43	6974.80
448.62	6768.83
448.80	6906.92
448.99	7045.01
449.17	7066.08
449.36	6897.56
449.54	7194.81
449.73	7307.15
449.91	7456.95
450.10	7438.22
450.28	7351.62
450.46	7379.71
450.65	7485.03
450.83	7473.33
451.02	7398.43
451.20	7543.55
451.39	7620.78
451.57	7384.39
451.76	7522.48
451.94	7517.80
452.13	7541.21
452.31	7358.64
452.49	7300.13
452.68	7449.93
452.86	7562.27
453.05	7534.18
453.23	7639.51
453.42	7506.10
453.60	7517.80
453.78	7693.34
453.97	7756.54
454.15	7632.49
454.34	7576.31
454.52	7683.98
454.70	7702.70
454.89	7838.45
455.07	7775.26
455.26	7833.77
455.44	8070.17
455.62	7878.24
455.81	7918.03
455.99	7873.56
456.17	8313.58
456.36	8107.62
456.54	8283.16
456.73	8219.96
456.91	8454.02
457.09	8297.20
457.28	8454.02
457.46	8264.43
457.64	8336.99
457.83	8259.75
458.01	8322.94
458.19	8332.31
458.38	8519.55
458.56	8503.17
458.74	8669.34
458.93	8568.70
459.11	8720.84
459.29	8395.50
459.48	8468.06
459.66	8498.49
459.84	8636.58
460.03	8765.31
460.21	8545.30
460.39	8662.32
460.57	8837.86
460.76	8781.69
460.94	8791.05
461.12	8891.70
461.31	8875.31
461.49	8936.17
461.67	8879.99
461.85	9100.00
462.04	9104.68
462.22	9233.41
462.40	9142.13
462.59	9231.07
462.77	9092.98
462.95	9207.67
463.13	9210.01
463.32	9212.35
463.50	9212.35
463.68	9301.29
463.86	9249.80
464.05	9181.92
464.23	9446.40
464.41	9273.20
464.59	9212.35
464.78	9308.31
464.96	9413.63
465.14	9523.64
465.32	9682.80
465.50	9476.83
465.69	9614.92
465.87	9598.54
466.05	9336.40
466.23	9420.66
466.41	9483.85
466.60	9554.07
466.78	9390.23
466.96	9554.07
467.14	9666.41
467.32	9715.56
467.51	9708.54
467.69	9439.38
467.87	9638.33
468.05	9694.50
468.23	9605.56
468.41	9654.71
468.60	9785.78
468.78	9907.49
468.96	9860.68
469.14	10092.39
469.32	10190.69
469.50	9643.01
469.69	9832.59
469.87	9984.73
470.05	10106.43
470.23	10153.24
470.41	10066.64
470.59	10197.71
470.77	10162.61
470.95	10071.33
471.14	10207.08
471.32	10399.00
471.50	10441.13
471.68	10619.01
471.86	10675.18
472.04	10611.99
472.22	10729.02
472.40	10478.58
472.58	10747.74
472.77	10656.46
472.95	10967.75
473.13	11133.93
473.31	10743.06
473.49	10836.68
473.67	10951.37
473.85	11040.31
474.03	11325.85
474.21	11267.34
474.39	11173.72
474.57	11201.80
474.75	11485.01
474.93	11452.24
475.12	11255.64
475.30	11431.18
475.48	11702.68
475.66	11784.60
475.84	11255.64
476.02	11637.14
476.20	11854.81
476.38	11805.66
476.56	12308.88
476.74	12035.03
476.92	11957.80
477.10	12252.70
477.28	12524.21
477.46	12549.95
477.64	12519.53
477.82	12767.62
478.00	12727.83
478.18	12683.36
478.36	12985.29
478.54	13022.74
478.72	13090.62
478.90	13205.30
479.08	13458.08
479.26	13490.85
479.44	13586.81
479.62	13607.87
479.80	13605.53
479.98	13757.67
480.16	14132.15
480.34	13994.06
480.52	14005.77
480.70	14061.94
480.88	14078.32
481.06	14434.08
481.24	14190.67
481.41	14714.95
481.59	14700.90
481.77	14827.29
481.95	14885.81
482.13	14979.43
482.31	14974.75
482.49	15173.69
482.67	15300.08
482.85	15318.81
483.03	15419.45
483.21	15602.01
483.39	15782.23
483.57	15777.55
483.74	15953.09
483.92	16170.76
484.10	15964.79
484.28	16201.19
484.46	16681.00
484.64	16730.15
484.82	16250.34
485.00	16603.76
485.18	16891.65
485.35	16898.67
485.53	16547.59
485.71	16458.65
485.89	16692.70
486.07	16631.85
486.25	17104.64
486.43	17324.65
486.61	17062.51
486.78	17680.41
486.96	17987.02
487.14	18059.57
487.32	18080.64
487.50	18501.93
487.68	18588.53
487.85	18558.11
488.03	18871.74
488.21	19082.39
488.39	18771.10
488.57	18998.13
488.75	19187.71
488.92	19655.82
489.10	19859.45
489.28	19941.36
489.46	20299.47
489.64	20018.60
489.81	20603.74
489.99	20678.63
490.17	20800.34
490.35	21083.55
490.53	21130.36
490.70	20982.90
490.88	21413.56
491.06	21238.02
491.24	21523.57
491.41	21404.20
491.59	21661.66
491.77	21319.94
491.95	21582.08
492.13	21872.31
492.30	22265.52
492.48	22335.73
492.66	22195.30
492.84	22263.18
493.01	22719.58
493.19	22771.07
493.37	22728.94
493.54	22960.66
493.72	23051.94
493.90	23288.33
494.08	23494.30
494.25	23662.82
494.43	23728.35
494.61	24004.53
494.79	24137.94
494.96	24093.47
495.14	24212.84
495.32	24435.19
495.49	24187.10
495.67	24287.74
495.85	24795.64
496.02	24702.01
496.20	24936.07
496.38	25003.94
496.55	25106.93
496.73	25610.14
496.91	25537.59
497.09	25357.36
497.26	25919.09
497.44	25642.91
497.62	25858.24
497.79	26181.23
497.97	25462.69
498.14	26022.08
498.32	26080.59
498.50	26052.50
498.67	26712.53
498.85	26764.03
499.03	27051.91
499.20	26609.55
499.38	26558.06
499.56	26845.94
499.73	27047.23
499.91	27129.15
500.08	27292.99
500.26	26902.12
500.44	27456.82
500.61	27391.29
500.79	27072.98
500.97	27564.49
501.14	28102.81
501.32	27466.19
501.49	27807.90
501.67	27618.32
501.84	28189.41
502.02	28116.86
502.20	28472.62
502.37	28741.78
502.55	28268.99
502.72	28713.69
502.90	28737.10
503.07	28535.81
503.25	28753.48
503.43	28627.09
503.60	29067.11
503.78	29228.61
503.95	28884.55
504.13	29174.78
504.30	29312.87
504.48	29256.70
504.65	29383.09
504.83	29617.14
505.01	30274.83
505.18	29446.28
505.36	29930.77
505.53	29944.81
505.71	30300.58
505.88	30295.89
506.06	30504.20
506.23	30649.32
506.41	30700.81
506.58	30806.13
506.76	30536.97
506.93	30768.68
507.11	30803.79
507.28	30618.89
507.46	30855.28
507.63	30897.41
507.81	30895.07
507.98	30546.33
508.16	31063.59
508.33	31515.31
508.50	31924.91
508.68	31725.96
508.85	31709.58
509.03	31819.58
509.20	31798.52
509.38	32030.23
509.55	31861.71
509.73	31735.32
509.90	31828.95
510.08	31814.90
510.25	31990.44
510.42	32299.39
510.60	32107.47
510.77	32376.63
510.95	33031.98
511.12	32739.41
511.30	32910.27
511.47	33071.77
511.64	33172.41
511.82	33329.23
511.99	32517.06
512.17	32973.47
512.34	32821.33
512.51	33570.30
512.69	33446.26
512.86	33659.24
513.04	33572.64
513.21	33893.30
513.38	33549.24
513.56	33385.40
513.73	33116.24
513.90	33731.80
514.08	33907.34
514.25	33968.19
514.43	34160.12
514.60	33694.35
514.77	34440.98
514.95	34478.43
515.12	34026.71
515.29	33996.28
515.47	35035.48
515.64	34712.49
515.81	34525.24
515.99	34490.13
516.16	34244.38
516.33	34515.88
516.51	34567.37
516.68	33961.17
516.85	34033.73
517.03	34543.97
517.20	34836.53
517.37	34993.35
517.54	35079.95
517.72	35089.31
517.89	34913.77
518.06	34628.23
518.24	34951.22
518.41	35302.30
518.58	35407.62
518.75	35328.05
518.93	35534.01
519.10	35735.30
519.27	35831.26
519.45	35519.97
519.62	35800.83
519.79	35962.33
519.96	36142.55
520.14	36304.05
520.31	36156.60
520.48	36357.88
520.65	36077.02
520.83	36503.00
521.00	36528.74
521.17	36886.84
521.34	36851.73
521.52	36783.86
521.69	37036.64
521.86	37188.77
522.03	37097.49
522.20	37366.65
522.38	37200.47
522.55	37263.67
522.72	37432.19
522.89	37212.18
523.07	36900.89
523.24	37453.25
523.41	37406.44
523.58	37638.15
523.75	37720.07
523.92	37951.79
524.10	38513.52
524.27	38291.16
524.44	37792.63
524.61	38424.57
524.78	38436.28
524.96	38408.19
525.13	38251.38
525.30	38300.53
525.47	38445.64
525.64	38658.63
525.81	38405.85
525.98	38251.38
526.16	38148.39
526.33	37947.11
526.50	38284.14
526.67	38213.93
526.84	37860.51
527.01	38092.22
527.18	38499.47
527.36	38780.34
527.53	38974.60
527.70	39447.39
527.87	39302.28
528.04	39152.48
528.21	39512.92
528.38	39358.45
528.55	39927.20
528.72	39922.52
528.89	40027.84
529.07	39463.77
529.24	39459.09
529.41	39592.50
529.58	39489.52
529.75	39592.50
529.92	40039.54
530.09	39737.62
530.26	39786.77
530.43	39871.03
530.60	40053.59
530.77	39988.05
530.94	40158.91
531.11	40051.25
531.28	40231.47
531.46	40570.85
531.63	40470.20
531.80	40147.21
531.97	40357.86
532.14	40044.23
532.31	39810.17
532.48	40524.04
532.65	40119.12
532.82	40587.23
532.99	40657.45
533.16	40505.31
533.33	40680.85
533.50	41008.53
533.67	40788.52
533.84	40533.40
534.01	41303.43
534.18	40882.14
534.35	40994.48
534.52	41177.04
534.69	41207.47
534.86	40933.63
535.03	41301.09
535.20	41319.82
535.37	41818.35
535.54	41617.07
535.71	41310.46
535.88	41476.63
536.05	41607.70
536.22	41876.86
536.38	41443.87
536.55	41642.81
536.72	41036.61
536.89	41659.20
537.06	41340.88
537.23	41542.17
537.40	41998.57
537.57	41886.23
537.74	41909.63
537.91	41837.08
538.08	42085.17
538.25	42199.86
538.42	41984.53
538.59	42480.72
538.75	41500.04
538.92	42185.82
539.09	42192.84
539.26	42382.42
539.43	42454.98
539.60	42246.67
539.77	42003.25
539.94	42579.03
540.11	42085.17
540.28	42527.53
540.44	42068.79
540.61	42373.06
540.78	42211.56
540.95	42721.80
541.12	42572.00
541.29	42639.88
541.46	42829.46
541.62	42494.77
541.79	42782.65
541.96	42422.21
542.13	42665.63
542.30	42799.04
542.47	42838.83
542.63	42848.19
542.80	42979.26
542.97	43459.07
543.14	43395.87
543.31	43597.16
543.48	43592.48
543.64	44055.90
543.81	43597.16
543.98	43653.33
544.15	43789.08
544.32	44004.41
544.48	43990.37
544.65	43576.09
544.82	44198.68
544.99	43777.38
545.16	43660.35
545.32	43922.49
545.49	43812.49
545.66	43997.39
545.83	44149.53
546.00	44552.10
546.16	44175.27
546.33	43854.62
546.50	43597.16
546.67	44149.53
546.83	43540.99
547.00	44257.19
547.17	44083.99
547.34	44168.25
547.50	44137.82
547.67	44486.56
547.84	44332.09
548.00	44524.01
548.17	44790.83
548.34	44556.78
548.51	44669.12
548.67	44535.71
548.84	44828.28
549.01	44741.68
549.18	44381.24
549.34	44528.69
549.51	44746.36
549.68	44594.23
549.84	44612.95
550.01	44893.82
550.18	44725.30
550.34	44823.60
550.51	44435.07
550.68	44837.64
550.84	44435.07
551.01	44875.09
551.18	44863.39
551.34	45212.13
551.51	44996.80
551.68	45186.38
551.84	45123.19
552.01	44879.77
552.18	44725.30
552.34	45118.51
552.51	44994.46
552.68	45106.80
552.84	45008.50
553.01	44938.29
553.18	45324.47
553.34	45041.27
553.51	44861.05
553.67	45418.10
553.84	45785.56
554.01	45689.60
554.17	45532.78
554.34	45862.80
554.51	45397.03
554.67	45888.54
554.84	45745.77
555.00	45684.92
555.17	45530.44
555.33	45549.17
555.50	45338.52
555.67	45610.02
555.83	45453.20
556.00	45394.69
556.16	45888.54
556.33	45771.52
556.50	45368.94
556.66	45574.91
556.83	45570.23
556.99	45799.60
557.16	45839.39
557.32	45925.99
557.49	46021.95
557.65	45851.09
557.82	45825.35
557.98	45698.96
558.15	45509.38
558.32	46134.30
558.48	45977.48
558.65	45649.81
558.81	45586.61
558.98	45787.90
559.14	45804.28
559.31	45883.86
559.47	46286.43
559.64	46038.34
559.80	46328.56
559.97	46396.44
560.13	45993.87
560.30	45703.64
560.46	46176.43
560.63	46216.22
560.79	46106.21
560.96	46281.75
561.12	46419.84
561.29	46017.27
561.45	45949.40
561.61	46412.82
561.78	45846.41
561.94	45855.78
562.11	45797.26
562.27	46284.09
562.44	46085.15
562.60	46579.00
562.77	46492.40
562.93	46340.27
563.10	46679.64
563.26	46344.95
563.42	46433.89
563.59	45965.78
563.75	46307.50
563.92	46550.91
564.08	46281.75
564.24	46473.68
564.41	46464.32
564.57	46342.61
564.74	46457.29
564.90	46213.88
565.07	46923.06
565.23	46642.20
565.39	46131.96
565.56	46576.66
565.72	46316.86
565.88	45951.74
566.05	46038.34
566.21	46251.33
566.38	46010.25
566.54	46391.76
566.70	46894.97
566.87	47023.70
567.03	46686.67
567.19	46939.44
567.36	46471.34
567.52	46443.25
567.68	46595.38
567.85	46361.33
568.01	46033.66
568.17	46604.75
568.34	46841.14
568.50	46452.61
568.66	46635.17
568.83	46707.73
568.99	46403.46
569.15	46440.91
569.32	46078.13
569.48	46361.33
569.64	46443.25
569.81	46691.35
569.97	46628.15
570.13	46438.57
570.30	46237.28
570.46	46469.00
570.62	46031.32
570.78	46665.60
570.95	46756.88
571.11	46979.23
571.27	46244.30
571.43	46351.97
571.60	46536.87
571.76	46564.96
571.92	46728.80
572.09	46813.05
572.25	46759.22
572.41	46916.04
572.57	46672.62
572.74	47199.24
572.90	46859.87
573.06	46728.80
573.22	46375.37
573.38	46742.84
573.55	46316.86
573.71	46906.68
573.87	46384.74
574.03	46710.07
574.20	46906.68
574.36	46382.40
574.52	46724.11
574.68	46784.97
574.84	47007.32
575.01	46791.99
575.17	46492.40
575.33	46394.10
575.49	46602.41
575.65	46799.01
575.82	46630.49
575.98	46492.40
576.14	46944.12
576.30	46827.10
576.46	47096.26
576.62	46614.11
576.79	46967.53
576.95	46270.05
577.11	46967.53
577.27	46909.02
577.43	46752.20
577.59	46801.35
577.75	46749.86
577.92	46426.87
578.08	46581.34
578.24	46340.27
578.40	46457.29
578.56	46721.77
578.72	46918.38
578.88	47114.98
579.04	47061.15
579.21	46925.40
579.37	46597.73
579.53	46674.96
579.69	46586.02
579.85	46822.42
580.01	47058.81
580.17	46618.79
580.33	46829.44
580.49	47096.26
580.65	47084.56
580.82	46770.93
580.98	46745.18
581.14	46997.96
581.30	47058.81
581.46	46731.14
581.62	47063.49
581.78	46937.10
581.94	47000.30
582.10	46604.75
582.26	46677.30
582.42	46609.43
582.58	46817.74
582.74	46927.74
582.90	46883.27
583.06	46927.74
583.22	46822.42
583.38	47143.07
583.54	46939.44
583.70	47136.05
583.86	47093.92
584.02	46712.41
584.18	47026.04
584.34	47014.34
584.50	46944.12
584.66	46637.51
584.82	46656.24
584.98	47250.74
585.14	47009.66
585.30	46852.84
585.46	46691.35
585.62	46618.79
585.78	46813.05
585.94	46738.16
586.10	46960.51
586.26	46677.30
586.42	46941.78
586.58	46717.09
586.74	46520.49
586.90	46396.44
587.06	46820.08
587.22	46749.86
587.38	47019.02
587.54	47147.75
587.70	46808.37
587.86	47288.18
588.02	47157.11
588.18	47014.34
588.34	46859.87
588.49	46457.29
588.65	46340.27
588.81	46375.37
588.97	46539.21
589.13	46195.15
589.29	46080.47
589.45	46593.04
589.61	46677.30
589.77	46972.21
589.93	46660.92
