SpectraSuite Data File
++++++++++++++++++++++++++++++++++++
Date: Fri Oct 25 11:34:22 EDT 2013
User: price-jones
Dark Spectrum Present: No
Reference Spectrum Present: No
Number of Sampled Component Spectra: 1
Spectrometers: USB2+H05261
Integration Time (usec): 100000 (USB2+H05261)
Spectra Averaged: 1 (USB2+H05261)
Boxcar Smoothing: 0 (USB2+H05261)
Correct for Electrical Dark: No (USB2+H05261)
Strobe/Lamp Enabled: No (USB2+H05261)
Correct for Detector Non-linearity: No (USB2+H05261)
Correct for Stray Light: No (USB2+H05261)
Number of Pixels in Processed Spectrum: 2048
>>>>>Begin Processed Spectral Data<<<<<
365.73	264.48
365.92	264.48
366.12	264.48
366.32	177.88
366.52	156.82
366.72	215.33
366.91	184.90
367.11	191.92
367.31	203.63
367.51	95.96
367.70	182.56
367.90	159.16
368.10	196.60
368.30	131.07
368.49	159.16
368.69	191.92
368.89	243.42
369.09	189.58
369.28	175.54
369.48	203.63
369.68	276.18
369.87	255.12
370.07	262.14
370.27	238.73
370.47	355.76
370.66	386.19
370.86	512.58
371.06	528.96
371.25	519.60
371.45	550.03
371.65	592.16
371.84	505.56
372.04	547.69
372.24	550.03
372.44	589.82
372.63	608.54
372.83	615.56
373.03	550.03
373.22	465.77
373.42	624.92
373.62	620.24
373.81	685.78
374.01	592.16
374.21	629.60
374.40	713.86
374.60	716.20
374.79	643.65
374.99	650.67
375.19	610.88
375.38	636.63
375.58	596.84
375.78	725.57
375.97	699.82
376.17	624.92
376.37	699.82
376.56	706.84
376.76	685.78
376.95	631.94
377.15	758.33
377.35	720.88
377.54	711.52
377.74	718.54
377.93	699.82
378.13	657.69
378.33	669.39
378.52	711.52
378.72	716.20
378.91	692.80
379.11	613.22
379.31	655.35
379.50	620.24
379.70	713.86
379.89	725.57
380.09	713.86
380.28	704.50
380.48	748.97
380.68	774.72
380.87	669.39
381.07	739.61
381.26	676.41
381.46	737.27
381.65	760.67
381.85	732.59
382.04	711.52
382.24	772.38
382.43	849.61
382.63	751.31
382.83	727.91
383.02	763.01
383.22	814.51
383.41	767.70
383.61	812.17
383.80	819.19
384.00	802.80
384.19	730.25
384.39	833.23
384.58	816.85
384.78	847.27
384.97	833.23
385.17	781.74
385.36	744.29
385.56	770.04
385.75	812.17
385.95	830.89
386.14	809.83
386.34	814.51
386.53	816.85
386.72	791.10
386.92	877.70
387.11	870.68
387.31	835.57
387.50	877.70
387.70	828.55
387.89	880.04
388.09	835.57
388.28	929.19
388.48	863.66
388.67	887.06
388.86	933.87
389.06	889.40
389.25	910.47
389.45	896.43
389.64	936.21
389.84	1001.75
390.03	940.90
390.22	943.24
390.42	959.62
390.61	964.30
390.81	894.08
391.00	983.02
391.19	1041.54
391.39	933.87
391.58	957.28
391.78	1001.75
391.97	858.98
392.16	990.05
392.36	992.39
392.55	1008.77
392.75	990.05
392.94	1029.84
393.13	971.32
393.33	1029.84
393.52	1064.94
393.71	1053.24
393.91	1142.18
394.10	1060.26
394.29	1114.10
394.49	1046.22
394.68	1102.39
394.88	1149.20
395.07	1086.01
395.26	1146.86
395.46	1128.14
395.65	1083.67
395.84	1181.97
396.04	1160.91
396.23	1139.84
396.42	1149.20
396.62	1132.82
396.81	1170.27
397.00	1207.72
397.19	1177.29
397.39	1181.97
397.58	1233.46
397.77	1128.14
397.97	1291.98
398.16	1196.01
398.35	1242.82
398.55	1277.93
398.74	1219.42
398.93	1320.06
399.12	1228.78
399.32	1324.74
399.51	1226.44
399.70	1308.36
399.90	1352.83
400.09	1324.74
400.28	1331.76
400.47	1315.38
400.67	1413.68
400.86	1418.36
401.05	1327.08
401.24	1453.47
401.44	1334.11
401.63	1474.54
401.82	1434.75
402.01	1376.24
402.21	1401.98
402.40	1437.09
402.59	1437.09
402.78	1404.32
402.97	1366.87
403.17	1476.88
403.36	1441.77
403.55	1453.47
403.74	1526.03
403.93	1490.92
404.13	1479.22
404.32	1504.96
404.51	1619.65
404.70	1558.80
404.89	1558.80
405.09	1682.85
405.28	1596.25
405.47	1603.27
405.66	1706.25
405.85	1664.12
406.05	1591.56
406.24	1614.97
406.43	1624.33
406.62	1703.91
406.81	1722.63
407.00	1696.89
407.20	1713.27
407.39	1722.63
407.58	1827.96
407.77	1769.44
407.96	1827.96
408.15	1771.79
408.34	1851.36
408.54	1870.09
408.73	1856.04
408.92	1963.71
409.11	1921.58
409.30	1851.36
409.49	1900.52
409.68	1977.75
409.87	1921.58
410.07	2036.27
410.26	1916.90
410.45	1968.39
410.64	2122.87
410.83	2062.01
411.02	2083.08
411.21	2015.20
411.40	2118.18
411.59	2115.84
411.78	2111.16
411.98	2115.84
412.17	2097.12
412.36	2188.40
412.55	2179.04
412.74	2272.66
412.93	2211.81
413.12	2265.64
413.31	2279.68
413.50	2293.72
413.69	2242.23
413.88	2352.24
414.07	2244.57
414.26	2443.52
414.45	2434.16
414.64	2408.41
414.83	2466.92
415.02	2422.45
415.22	2469.27
415.41	2459.90
415.60	2492.67
415.79	2628.42
415.98	2581.61
416.17	2628.42
416.36	2651.83
416.55	2738.43
416.74	2722.04
416.93	2715.02
417.12	2752.47
417.31	2782.90
417.50	2731.41
417.69	2942.05
417.88	2862.48
418.07	2869.50
418.26	2939.71
418.45	2808.64
418.64	3045.04
418.83	2913.97
419.02	3016.95
419.21	2932.69
419.39	3019.29
419.58	2988.86
419.77	2974.82
419.96	3098.87
420.15	2960.78
420.34	3164.40
420.53	3115.25
420.72	3126.96
420.91	3122.27
421.10	3152.70
421.29	3145.68
421.48	3012.27
421.67	3101.21
421.86	3176.11
422.05	3110.57
422.24	3162.06
422.43	3126.96
422.61	3309.52
422.80	3126.96
422.99	3339.94
423.18	3290.79
423.37	3274.41
423.56	3419.52
423.75	3260.37
423.94	3178.45
424.13	3073.12
424.32	3204.19
424.50	3389.10
424.69	3346.97
424.88	3396.12
425.07	3279.09
425.26	3126.96
425.45	3321.22
425.64	3290.79
425.83	3370.37
426.01	3286.11
426.20	3262.71
426.39	3192.49
426.58	3344.63
426.77	3297.81
426.96	3342.28
427.15	3318.88
427.33	3501.44
427.52	3482.72
427.71	3510.80
427.90	3398.46
428.09	3534.21
428.28	3510.80
428.46	3492.08
428.65	3583.36
428.84	3765.92
429.03	3585.70
429.22	3585.70
429.40	3721.45
429.59	3686.34
429.78	3616.13
429.97	3513.14
430.16	3721.45
430.34	3744.86
430.53	3733.15
430.72	3679.32
430.91	3700.39
431.10	3735.50
431.28	3927.42
431.47	3941.46
431.66	3873.59
431.85	3789.33
432.03	3880.61
432.22	4037.42
432.41	3918.06
432.60	3988.27
432.79	3971.89
432.97	3911.04
433.16	3936.78
433.35	4065.51
433.54	4002.32
433.72	4009.34
433.91	4030.40
434.10	4081.89
434.28	3983.59
434.47	4140.41
434.66	4205.94
434.85	4201.26
435.03	4227.01
435.22	4168.49
435.41	4266.80
435.59	4266.80
435.78	4147.43
435.97	4327.65
436.16	4262.12
436.34	4168.49
436.53	4159.13
436.72	4418.93
436.90	4313.61
437.09	4318.29
437.28	4304.25
437.46	4528.94
437.65	4395.53
437.84	4337.01
438.02	4437.66
438.21	4634.26
438.40	4421.27
438.58	4535.96
438.77	4606.17
438.96	4550.00
439.14	4472.76
439.33	4961.94
439.52	4819.16
439.70	4641.28
439.89	4821.50
440.08	4873.00
440.26	4938.53
440.45	4732.56
440.63	4765.33
440.82	5032.15
441.01	4917.47
441.19	5153.86
441.38	5081.30
441.57	4992.36
441.75	5179.61
441.94	5135.14
442.12	5165.56
442.31	5284.93
442.50	5418.34
442.68	5172.58
442.87	5142.16
443.05	5259.18
443.24	5331.74
443.43	5280.25
443.61	5144.50
443.80	5378.55
443.98	5280.25
444.17	5083.64
444.35	5294.29
444.54	5390.25
444.73	5380.89
444.91	5406.64
445.10	5352.81
445.28	5572.82
445.47	5303.65
445.65	5408.98
445.84	5434.72
446.02	5600.90
446.21	5563.45
446.39	5369.19
446.58	5507.28
446.77	5582.18
446.95	5371.53
447.14	5355.15
447.32	5502.60
447.51	5701.54
447.69	5441.75
447.88	5444.09
448.06	5509.62
448.25	5596.22
448.43	5516.64
448.62	5387.91
448.80	5699.20
448.99	5558.77
449.17	5736.65
449.36	5556.43
449.54	5687.50
449.73	5937.94
449.91	5771.76
450.10	5865.38
450.28	5961.34
450.46	6066.67
450.65	5849.00
450.83	5806.87
451.02	6019.86
451.20	6040.92
451.39	5973.05
451.57	5895.81
451.76	5888.79
451.94	5891.13
452.13	6080.71
452.31	6132.20
452.49	5863.04
452.68	6038.58
452.86	5898.15
453.05	6101.78
453.23	6211.78
453.42	6085.39
453.60	6052.63
453.78	6129.86
453.97	6113.48
454.15	6235.19
454.34	6136.88
454.52	6340.51
454.70	6270.30
454.89	6176.67
455.07	6232.85
455.26	6214.12
455.44	6607.33
455.62	6347.53
455.81	6403.71
455.99	6518.39
456.17	6539.46
456.36	6649.46
456.54	6640.10
456.73	6757.13
456.91	6768.83
457.09	6773.51
457.28	6787.55
457.46	6717.34
457.64	6775.85
457.83	6820.32
458.01	6782.87
458.19	6754.79
458.38	6829.68
458.56	6888.20
458.74	6815.64
458.93	6890.54
459.11	6888.20
459.29	7110.55
459.48	7042.67
459.66	7021.61
459.84	7164.38
460.03	7262.68
460.21	7150.34
460.39	7030.97
460.57	7145.66
460.76	7133.95
460.94	7204.17
461.12	7262.68
461.31	7311.83
461.49	7204.17
461.67	7138.63
461.85	7302.47
462.04	7414.82
462.22	7737.81
462.40	7419.50
462.59	7403.11
462.77	7185.44
462.95	7473.33
463.13	7712.07
463.32	7550.57
463.50	7538.87
463.68	7630.15
463.86	7719.09
464.05	7499.08
464.23	7662.91
464.41	7772.92
464.59	7623.12
464.78	7796.32
464.96	7695.68
465.14	7616.10
465.32	7826.75
465.50	7623.12
465.69	7712.07
465.87	7861.86
466.05	7808.03
466.23	7847.82
466.41	7887.61
466.60	8018.68
466.78	7866.54
466.96	7768.24
467.14	7817.39
467.32	8021.02
467.51	7985.91
467.69	7847.82
467.87	7822.07
468.05	8058.46
468.23	8021.02
468.41	8067.83
468.60	8018.68
468.78	8271.45
468.96	8011.65
469.14	8159.11
469.32	8311.24
469.50	8196.56
469.69	8236.35
469.87	8472.74
470.05	8510.19
470.23	8360.39
470.41	8299.54
470.59	8538.27
470.77	8255.07
470.95	8496.14
471.14	8762.97
471.32	8624.87
471.50	8730.20
471.68	8685.73
471.86	8805.10
472.04	8610.83
472.22	8833.18
472.40	8751.26
472.58	8737.22
472.77	8868.29
472.95	9057.87
473.13	9228.73
473.31	9064.89
473.49	9125.75
473.67	9067.24
473.85	9228.73
474.03	9394.91
474.21	9289.59
474.39	9385.55
474.57	9312.99
474.75	9530.66
474.93	9451.08
475.12	9514.28
475.30	9638.33
475.48	9579.81
475.66	9774.08
475.84	9771.74
476.02	9841.95
476.20	9671.09
476.38	9856.00
476.56	10078.35
476.74	10068.98
476.92	9928.55
477.10	10003.45
477.28	10019.83
477.46	10396.66
477.64	10406.02
477.82	10551.14
478.00	10993.50
478.18	10661.14
478.36	10869.45
478.54	11131.59
478.72	10778.17
478.90	10951.37
479.08	11126.91
479.26	11323.51
479.44	11204.14
479.62	11330.53
479.80	11419.47
479.98	11396.07
480.16	11836.09
480.34	11655.87
480.52	11838.43
480.70	11934.39
480.88	11812.68
481.06	12079.50
481.24	12058.44
481.41	12077.16
481.59	12070.14
481.77	12339.30
481.95	12306.54
482.13	12393.14
482.31	12329.94
482.49	12549.95
482.67	12540.59
482.85	12940.82
483.03	13137.43
483.21	13238.07
483.39	13369.14
483.57	13362.12
483.74	13373.82
483.92	13481.49
484.10	13359.78
484.28	13865.33
484.46	13893.42
484.64	14209.39
484.82	14019.81
485.00	14136.84
485.18	14239.82
485.35	14469.19
485.53	14310.04
485.71	14602.60
485.89	14925.60
486.07	14548.77
486.25	14906.87
486.43	14750.06
486.61	15105.82
486.78	15328.17
486.96	15272.00
487.14	15257.95
487.32	15391.36
487.50	15543.50
487.68	15974.16
487.85	15817.34
488.03	15953.09
488.21	16463.33
488.39	16119.27
488.57	16334.60
488.75	16477.37
488.92	16791.00
489.10	16580.36
489.28	16840.15
489.46	17270.81
489.64	17184.21
489.81	17542.32
489.99	17268.47
490.17	17415.93
490.35	17788.07
490.53	17827.86
490.70	17687.43
490.88	17834.88
491.06	18185.96
491.24	18377.89
491.41	18443.42
491.59	18295.97
491.77	18207.03
491.95	18747.69
492.13	18633.00
492.30	18965.36
492.48	18757.05
492.66	19323.46
492.84	19211.12
493.01	19288.35
493.19	19372.61
493.37	19491.98
493.54	19789.23
493.72	19683.91
493.90	19859.45
494.08	20070.09
494.25	19969.45
494.43	19852.42
494.61	20194.14
494.79	20294.79
494.96	20283.08
495.14	20662.25
495.32	20849.49
495.49	20776.94
495.67	20917.37
495.85	21177.17
496.02	21092.91
496.20	21467.39
496.38	21289.51
496.55	21666.34
496.73	21818.47
496.91	21715.49
497.09	21731.87
497.26	22071.25
497.44	21750.60
497.62	22424.67
497.79	22345.09
497.97	22246.79
498.14	22277.22
498.32	22450.42
498.50	22806.18
498.67	22635.32
498.85	22794.48
499.03	22827.24
499.20	23295.35
499.38	23152.58
499.56	23552.81
499.73	23688.56
499.91	23627.71
500.08	23426.42
500.26	23564.51
500.44	23845.38
500.61	23728.35
500.79	23826.65
500.97	24016.24
501.14	24039.64
501.32	23997.51
501.49	24531.15
501.67	24140.29
501.84	24486.68
502.02	24671.59
502.20	24903.30
502.37	24854.15
502.55	24114.54
502.72	25083.52
502.90	25156.08
503.07	24837.76
503.25	24870.53
503.43	24835.42
503.60	25336.30
503.78	25500.14
503.95	25069.48
504.13	25235.66
504.30	25710.78
504.48	25834.83
504.65	25944.84
504.83	25729.51
505.01	26256.13
505.18	26096.97
505.36	26279.54
505.53	26167.19
505.71	26120.38
505.88	26469.12
506.06	26448.05
506.23	26192.94
506.41	26127.40
506.58	26302.94
506.76	26628.27
506.93	26618.91
507.11	26508.91
507.28	27040.21
507.46	26958.29
507.63	26757.00
507.81	27288.31
507.98	27168.94
508.16	27136.17
508.33	27316.39
508.50	27632.36
508.68	27660.45
508.85	28180.05
509.03	27733.01
509.20	27882.80
509.38	28006.85
509.55	28002.17
509.73	28187.07
509.90	27831.31
510.08	28126.22
510.25	28458.57
510.42	28442.19
510.60	28655.18
510.77	28636.45
510.95	28809.65
511.12	28680.92
511.30	28807.31
511.47	28943.06
511.64	28954.77
511.82	29067.11
511.99	28823.70
512.17	29387.77
512.34	29198.18
512.51	29336.27
512.69	29364.36
512.86	29769.27
513.04	29928.43
513.21	29607.78
513.38	29692.04
513.56	29736.51
513.73	30061.84
513.90	29956.52
514.08	29905.02
514.25	30213.98
514.43	30195.25
514.60	30284.19
514.77	30314.62
514.95	30281.85
515.12	30052.48
515.29	30057.16
515.47	30588.46
515.64	30686.76
515.81	30429.30
515.99	30679.74
516.16	31550.42
516.33	30958.27
516.51	31435.74
516.68	31089.34
516.85	30862.30
517.03	31496.59
517.20	31131.47
517.37	31501.27
517.54	31077.63
517.72	31557.44
517.89	31534.04
518.06	31447.44
518.24	31681.49
518.41	31679.15
518.58	31744.69
518.75	31758.73
518.93	32390.67
519.10	31716.60
519.27	31674.47
519.45	32285.35
519.62	32519.40
519.79	32826.01
519.96	32290.03
520.14	32596.64
520.31	32318.12
520.48	32397.70
520.65	33015.60
520.83	32938.36
521.00	33024.96
521.17	32645.79
521.34	32926.66
521.52	32950.06
521.69	33195.82
521.86	33050.70
522.03	33481.36
522.20	32893.89
522.38	33944.79
522.55	33752.87
522.72	33291.78
522.89	33350.29
523.07	33638.18
523.24	34066.50
523.41	33839.47
523.58	33743.50
523.75	33879.25
523.92	33809.04
524.10	33883.94
524.27	34319.28
524.44	34040.75
524.61	34574.39
524.78	34632.91
524.96	34251.40
525.13	34902.07
525.30	34560.35
525.47	35044.84
525.64	34614.18
525.81	34829.51
525.98	34471.41
526.16	34972.28
526.33	34763.98
526.50	35260.17
526.67	34663.33
526.84	35344.43
527.01	34796.74
527.18	35227.40
527.36	35154.85
527.53	35501.25
527.70	35585.50
527.87	35793.81
528.04	35463.80
528.21	35342.09
528.38	35711.89
528.55	36217.45
528.72	35681.47
528.89	35658.06
529.07	35344.43
529.24	35768.07
529.41	35857.01
529.58	36034.89
529.75	35896.80
529.92	36526.40
530.09	36191.70
530.26	36460.87
530.43	36339.16
530.60	36252.56
530.77	36062.97
530.94	36753.43
531.11	36479.59
531.28	36215.11
531.46	36638.75
531.63	36383.63
531.80	36818.97
531.97	36975.78
532.14	36884.50
532.31	36704.28
532.48	36783.86
532.65	37195.79
532.82	36931.31
532.99	37125.58
533.16	37057.70
533.33	37411.12
533.50	37160.69
533.67	36891.52
533.84	36931.31
534.01	37464.96
534.18	36982.80
534.35	37460.27
534.52	37727.10
534.69	37881.57
534.86	38162.43
535.03	37895.61
535.20	37677.94
535.37	37972.85
535.54	37869.87
535.71	37958.81
535.88	38227.97
536.05	37755.18
536.22	38436.28
536.38	38422.23
536.55	37881.57
536.72	38389.47
536.89	37923.70
537.06	38029.02
537.23	38342.66
537.40	38230.31
537.57	38103.92
537.74	38197.54
537.91	38321.59
538.08	38483.09
538.25	38129.67
538.42	38469.04
538.59	39035.45
538.75	38614.16
538.92	39218.02
539.09	38799.06
539.26	38604.80
539.43	38998.01
539.60	39185.25
539.77	38969.92
539.94	38876.30
540.11	38967.58
540.28	38981.62
540.44	39096.31
540.61	38993.32
540.78	39466.11
540.95	39461.43
541.12	39171.21
541.29	39580.80
541.46	39278.87
541.62	39576.12
541.79	39674.42
541.96	39168.87
542.13	39519.95
542.30	39555.05
542.47	39739.96
542.63	39749.32
542.80	39943.58
542.97	40222.11
543.14	40313.39
543.31	40285.30
543.48	39852.30
543.64	40622.34
543.81	40362.54
543.98	40165.93
544.15	40509.99
544.32	40744.05
544.48	40816.60
544.65	40486.59
544.82	40409.35
544.99	40479.57
545.16	40793.20
545.32	40615.32
545.49	40896.18
545.66	40694.89
545.83	40612.98
546.00	40854.05
546.16	41022.57
546.33	40411.69
546.50	40879.80
546.67	40935.97
546.83	40343.81
547.00	40744.05
547.17	41034.27
547.34	41043.63
547.50	41064.70
547.67	41193.43
547.84	40964.06
548.00	41509.40
548.17	41610.04
548.34	41134.92
548.51	41518.76
548.67	41375.99
548.84	41378.33
549.01	41577.28
549.18	41493.02
549.34	41495.36
549.51	41982.19
549.68	41588.98
549.84	41647.49
550.01	41837.08
550.18	41818.35
550.34	41771.54
550.51	42120.28
550.68	42003.25
550.84	42043.04
551.01	42099.22
551.18	41780.90
551.34	41706.01
551.51	42148.37
551.68	42213.90
551.84	42239.65
552.01	41996.23
552.18	41984.53
552.34	42485.40
552.51	42148.37
552.68	41727.07
552.84	42068.79
553.01	42576.69
553.18	42536.90
553.34	42349.65
553.51	42274.76
553.67	42560.30
553.84	43058.84
554.01	42784.99
554.17	42581.37
554.34	42653.92
554.51	42850.53
554.67	42918.40
554.84	43227.35
555.00	42707.76
555.17	42611.79
555.33	42651.58
555.50	42777.97
555.67	42890.32
555.83	42614.13
556.00	43056.50
556.16	43344.38
556.33	42958.19
556.50	43269.48
556.66	43051.81
556.83	42953.51
556.99	43615.88
557.16	43367.79
557.32	43650.99
557.49	43346.72
557.65	43407.58
557.82	43192.25
557.98	43449.70
558.15	43217.99
558.32	43835.89
558.48	43335.02
558.65	43344.38
558.81	43538.65
558.98	43138.41
559.14	43686.10
559.31	43281.19
559.47	43627.59
559.64	43761.00
559.80	43480.13
559.97	43768.02
560.13	43667.37
560.30	43571.41
560.46	44133.14
560.63	43704.82
560.79	44102.71
560.96	43899.09
561.12	44243.15
561.29	44240.81
561.45	44128.46
561.61	43765.68
561.78	43866.32
561.94	43938.88
562.11	43938.88
562.27	43768.02
562.44	44088.67
562.60	44208.04
562.77	44175.27
562.93	44032.50
563.10	44163.57
563.26	44406.98
563.42	44786.15
563.59	43885.04
563.75	44205.70
563.92	44114.42
564.08	44222.08
564.24	43908.45
564.41	44470.18
564.57	44346.13
564.74	44385.92
564.90	44198.68
565.07	44194.00
565.23	44498.26
565.39	44346.13
565.56	44524.01
565.72	43924.83
565.88	44341.45
566.05	44692.53
566.21	44156.55
566.38	44411.67
566.54	44430.39
566.70	44884.45
566.87	44451.45
567.03	44222.08
567.19	44444.43
567.36	44580.18
567.52	44968.71
567.68	44598.91
567.85	44446.77
568.01	45067.02
568.17	44545.08
568.34	44624.65
568.50	44748.70
568.66	44641.04
568.83	44636.36
568.99	44589.55
569.15	44549.76
569.32	44547.42
569.48	44304.00
569.64	45008.50
569.81	44828.28
569.97	44807.22
570.13	45132.55
570.30	44835.30
570.46	44814.24
570.62	44861.05
570.78	44615.29
570.95	44655.08
571.11	45375.97
571.27	44985.10
571.43	44472.52
571.60	44854.03
571.76	44465.50
571.92	44650.40
572.09	45123.19
572.25	44519.33
572.41	44926.58
572.57	45469.59
572.74	45258.94
572.90	44933.60
573.06	45713.00
573.22	44809.56
573.38	45467.25
573.55	45214.47
573.71	45502.35
573.87	45352.56
574.03	45282.34
574.20	45221.49
574.36	45083.40
574.52	45106.80
574.68	45399.37
574.84	45172.34
575.01	45443.84
575.17	45338.52
575.33	45275.32
575.49	45153.62
575.65	45291.71
575.82	45319.79
575.98	45127.87
576.14	46010.25
576.30	45610.02
576.46	45572.57
576.62	45148.93
576.79	45113.83
576.95	44634.02
577.11	45165.32
577.27	45081.06
577.43	45436.82
577.59	45340.86
577.75	45155.96
577.92	45244.90
578.08	45488.31
578.24	45387.67
578.40	45462.57
578.56	45345.54
578.72	45326.81
578.88	45427.46
579.04	45649.81
579.21	45544.48
579.37	45588.95
579.53	45598.32
579.69	45188.72
579.85	45397.03
580.01	45132.55
580.17	45546.82
580.33	45069.36
580.49	45429.80
580.65	45696.62
580.82	44767.43
580.98	45284.68
581.14	44837.64
581.30	45308.09
581.46	45104.46
581.62	44982.76
581.78	45067.02
581.94	45535.12
582.10	44987.44
582.26	45635.77
582.42	45588.95
582.58	45743.43
582.74	45673.21
582.90	45350.22
583.06	45708.32
583.22	45237.87
583.38	45804.28
583.54	45963.44
583.70	45584.27
583.86	45223.83
584.02	45291.71
584.18	45865.14
584.34	45563.21
584.50	46043.02
584.66	45815.99
584.82	45560.87
584.98	45727.05
585.14	45603.00
585.30	45310.43
585.46	45361.92
585.62	45310.43
585.78	45347.88
585.94	45467.25
586.10	45504.70
586.26	45546.82
586.42	45343.20
586.58	45310.43
586.74	45570.23
586.90	45301.07
587.06	45148.93
587.22	45696.62
587.38	45560.87
587.54	46101.53
587.70	46019.61
587.86	46115.58
588.02	45687.26
588.18	45359.58
588.34	45937.69
588.49	45713.00
588.65	45584.27
588.81	45773.86
588.97	45834.71
589.13	45588.95
589.29	45729.39
589.45	45865.14
589.61	45680.24
589.77	45696.62
589.93	45701.30
590.08	46188.13
