SpectraSuite Data File
++++++++++++++++++++++++++++++++++++
Date: Fri Oct 25 10:47:12 EDT 2013
User: price-jones
Dark Spectrum Present: No
Reference Spectrum Present: No
Number of Sampled Component Spectra: 1
Spectrometers: USB2+H05261
Integration Time (usec): 100000 (USB2+H05261)
Spectra Averaged: 1 (USB2+H05261)
Boxcar Smoothing: 0 (USB2+H05261)
Correct for Electrical Dark: No (USB2+H05261)
Strobe/Lamp Enabled: No (USB2+H05261)
Correct for Detector Non-linearity: No (USB2+H05261)
Correct for Stray Light: No (USB2+H05261)
Number of Pixels in Processed Spectrum: 2048
>>>>>Begin Processed Spectral Data<<<<<
365.73	46.81
365.92	46.81
366.12	46.81
366.32	39.79
366.52	46.81
366.72	35.11
366.91	2.34
367.11	32.77
367.31	58.51
367.51	2.34
367.70	42.13
367.90	53.83
368.10	46.81
368.30	58.51
368.49	14.04
368.69	110.01
368.89	21.06
369.09	16.38
369.28	60.85
369.48	72.56
369.68	131.07
369.87	74.90
370.07	67.88
370.27	114.69
370.47	208.31
370.66	320.65
370.86	360.44
371.06	393.21
371.25	458.74
371.45	463.43
371.65	430.66
371.84	400.23
372.04	376.83
372.24	500.87
372.44	444.70
372.63	423.64
372.83	535.98
373.03	503.22
373.22	535.98
373.42	505.56
373.62	475.13
373.81	531.30
374.01	559.39
374.21	594.50
374.40	510.24
374.60	599.18
374.79	557.05
374.99	573.43
375.19	608.54
375.38	538.32
375.58	550.03
375.78	568.75
375.97	582.79
376.17	648.33
376.37	613.22
376.56	535.98
376.76	538.32
376.95	559.39
377.15	582.79
377.35	657.69
377.54	580.45
377.74	524.28
377.93	564.07
378.13	610.88
378.33	655.35
378.52	505.56
378.72	580.45
378.91	578.11
379.11	599.18
379.31	533.64
379.50	627.26
379.70	643.65
379.89	624.92
380.09	620.24
380.28	535.98
380.48	631.94
380.68	660.03
380.87	568.75
381.07	575.77
381.26	617.90
381.46	606.20
381.65	617.90
381.85	667.05
382.04	676.41
382.24	723.23
382.43	699.82
382.63	645.99
382.83	645.99
383.02	709.18
383.22	695.14
383.41	723.23
383.61	713.86
383.80	697.48
384.00	739.61
384.19	786.42
384.39	732.59
384.58	781.74
384.78	617.90
384.97	805.14
385.17	725.57
385.36	746.63
385.56	812.17
385.75	723.23
385.95	739.61
386.14	851.96
386.34	816.85
386.53	781.74
386.72	798.12
386.92	826.21
387.11	807.48
387.31	802.80
387.50	791.10
387.70	795.78
387.89	758.33
388.09	809.83
388.28	800.46
388.48	901.11
388.67	847.27
388.86	929.19
389.06	751.31
389.25	882.38
389.45	880.04
389.64	861.32
389.84	882.38
390.03	875.36
390.22	863.66
390.42	891.74
390.61	819.19
390.81	938.55
391.00	973.66
391.19	1041.54
391.39	992.39
391.58	861.32
391.78	1034.52
391.97	966.64
392.16	980.68
392.36	997.07
392.55	1018.13
392.75	1008.77
392.94	945.58
393.13	959.62
393.33	933.87
393.52	994.73
393.71	1100.05
393.91	1027.50
394.10	959.62
394.29	1011.11
394.49	954.94
394.68	1146.86
394.88	1078.99
395.07	1149.20
395.26	1004.09
395.46	1074.31
395.65	1128.14
395.84	1067.28
396.04	1146.86
396.23	1078.99
396.42	1104.73
396.62	1071.97
396.81	1111.75
397.00	1193.67
397.19	1193.67
397.39	1086.01
397.58	1214.74
397.77	1186.65
397.97	1249.85
398.16	1217.08
398.35	1320.06
398.55	1308.36
398.74	1348.15
398.93	1289.64
399.12	1261.55
399.32	1247.51
399.51	1238.14
399.70	1336.45
399.90	1296.66
400.09	1317.72
400.28	1394.96
400.47	1369.21
400.67	1376.24
400.86	1409.00
401.05	1418.36
401.24	1540.07
401.44	1369.21
401.63	1547.09
401.82	1526.03
402.01	1448.79
402.21	1568.16
402.40	1493.26
402.59	1483.90
402.78	1479.22
402.97	1502.62
403.17	1554.12
403.36	1533.05
403.55	1668.80
403.74	1685.19
403.93	1568.16
404.13	1617.31
404.32	1638.38
404.51	1528.37
404.70	1610.29
404.89	1600.93
405.09	1696.89
405.28	1715.61
405.47	1771.79
405.66	1657.10
405.85	1699.23
406.05	1643.06
406.24	1701.57
406.43	1760.08
406.62	1830.30
406.81	1820.94
407.00	1701.57
407.20	1675.82
407.39	1771.79
407.58	1809.23
407.77	1867.75
407.96	1956.69
408.15	1961.37
408.34	1870.09
408.54	1893.49
408.73	2036.27
408.92	1994.14
409.11	2019.88
409.30	2036.27
409.49	2026.90
409.68	2015.20
409.87	2078.40
410.07	1944.99
410.26	2099.46
410.45	2012.86
410.64	2083.08
410.83	2153.29
411.02	2202.44
411.21	2197.76
411.40	2218.83
411.59	2204.78
411.78	2338.20
411.98	2239.89
412.17	2333.51
412.36	2263.30
412.55	2476.29
412.74	2354.58
412.93	2314.79
413.12	2445.86
413.31	2548.84
413.50	2490.33
413.69	2422.45
413.88	2544.16
414.07	2485.65
414.26	2593.31
414.45	2586.29
414.64	2637.78
414.83	2684.59
415.02	2651.83
415.22	2677.57
415.41	2731.41
415.60	2761.83
415.79	2719.70
415.98	2754.81
416.17	2792.26
416.36	2796.94
416.55	2864.82
416.74	2745.45
416.93	2916.31
417.12	2960.78
417.31	2913.97
417.50	2862.48
417.69	3005.25
417.88	2981.84
418.07	2977.16
418.26	2998.23
418.45	3019.29
418.64	3222.92
418.83	3108.23
419.02	3148.02
419.21	3091.85
419.39	3185.47
419.58	2984.18
419.77	3162.06
419.96	3096.53
420.15	3330.58
420.34	3232.28
420.53	3197.17
420.72	3304.84
420.91	3349.31
421.10	3339.94
421.29	3239.30
421.48	3300.16
421.67	3358.67
421.86	3265.05
422.05	3370.37
422.24	3389.10
422.43	3428.88
422.61	3363.35
422.80	3403.14
422.99	3438.25
423.18	3471.01
423.37	3424.20
423.56	3494.42
423.75	3386.76
423.94	3410.16
424.13	3166.74
424.32	3356.33
424.50	3541.23
424.69	3421.86
424.88	3531.87
425.07	3426.54
425.26	3396.12
425.45	3407.82
425.64	3400.80
425.83	3527.19
426.01	3627.83
426.20	3571.66
426.39	3524.85
426.58	3623.15
426.77	3557.61
426.96	3550.59
427.15	3508.46
427.33	3602.08
427.52	3534.21
427.71	3702.73
427.90	3566.98
428.09	3775.28
428.28	3761.24
428.46	3527.19
428.65	3707.41
428.84	3763.58
429.03	3810.39
429.22	3655.92
429.40	3660.60
429.59	3833.80
429.78	3651.24
429.97	3618.47
430.16	3660.60
430.34	3810.39
430.53	3810.39
430.72	3868.91
430.91	3749.54
431.10	3740.18
431.28	4161.47
431.47	3992.95
431.66	4173.18
431.85	4002.32
432.03	4166.15
432.22	4074.87
432.41	4126.36
432.60	4159.13
432.79	4009.34
432.97	4095.94
433.16	4255.09
433.35	4109.98
433.54	4124.02
433.72	4224.67
433.91	4166.15
434.10	4198.92
434.28	4222.33
434.47	4107.64
434.66	4297.22
434.85	4308.93
435.03	4435.32
435.22	4339.35
435.41	4425.95
435.59	4416.59
435.78	4287.86
435.97	4566.39
436.16	4545.32
436.34	4514.89
436.53	4617.88
436.72	4589.79
436.90	4629.58
437.09	4779.37
437.28	4489.15
437.46	4699.80
437.65	4531.28
437.84	4498.51
438.02	4498.51
438.21	4592.13
438.40	4575.75
438.58	4802.78
438.77	4730.22
438.96	4774.69
439.14	4919.81
439.33	5032.15
439.52	4973.64
439.70	4877.68
439.89	5015.77
440.08	5102.37
440.26	5088.32
440.45	5025.13
440.63	5174.92
440.82	5198.33
441.01	5177.26
441.19	5404.30
441.38	5359.83
441.57	5413.66
441.75	5268.55
441.94	5434.72
442.12	5486.22
442.31	5617.29
442.50	5558.77
442.68	5537.71
442.87	5603.24
443.05	5706.23
443.24	5687.50
443.43	5654.73
443.61	5717.93
443.80	5795.17
443.98	5509.62
444.17	5542.39
444.35	5596.22
444.54	5907.51
444.73	5647.71
444.91	5636.01
445.10	5734.31
445.28	5708.57
445.47	5561.11
445.65	5685.16
445.84	5673.46
446.02	5830.27
446.21	5818.57
446.39	5886.45
446.58	5776.44
446.77	5944.96
446.95	5877.09
447.14	5902.83
447.32	5865.38
447.51	5811.55
447.69	5659.42
447.88	5715.59
448.06	5839.64
448.25	5813.89
448.43	6003.47
448.62	6012.84
448.80	5781.12
448.99	5895.81
449.17	6001.13
449.36	5947.30
449.54	5973.05
449.73	6277.32
449.91	6216.46
450.10	6157.95
450.28	6282.00
450.46	6310.08
450.65	6265.61
450.83	6263.27
451.02	6211.78
451.20	6499.67
451.39	6164.97
451.57	6286.68
451.76	6422.43
451.94	6525.41
452.13	6293.70
452.31	6459.88
452.49	6169.65
452.68	6544.14
452.86	6373.28
453.05	6347.53
453.23	6483.28
453.42	6373.28
453.60	6424.77
453.78	6635.42
453.97	6340.51
454.15	6406.05
454.34	6487.96
454.52	6628.40
454.70	6644.78
454.89	6614.35
455.07	6595.63
455.26	6520.73
455.44	6752.45
455.62	6846.07
455.81	6785.21
455.99	6637.76
456.17	6986.50
456.36	6897.56
456.54	6970.12
456.73	7019.27
456.91	7236.94
457.09	7122.25
457.28	7169.06
457.46	7040.33
457.64	7105.87
457.83	7171.40
458.01	7335.24
458.19	7239.28
458.38	7283.75
458.56	7070.76
458.74	7328.22
458.93	7267.36
459.11	7365.67
459.29	7396.09
459.48	7396.09
459.66	7438.22
459.84	7557.59
460.03	7389.07
460.21	7747.17
460.39	7475.67
460.57	7492.05
460.76	7576.31
460.94	7625.47
461.12	7588.02
461.31	7611.42
461.49	7733.13
461.67	7637.17
461.85	7808.03
462.04	7749.51
462.22	8175.49
462.40	7770.58
462.59	7789.30
462.77	7941.44
462.95	7946.12
463.13	7864.20
463.32	7899.31
463.50	8025.70
463.68	8067.83
463.86	7971.86
464.05	7737.81
464.23	7810.37
464.41	8065.49
464.59	7927.39
464.78	8095.91
464.96	8138.04
465.14	8107.62
465.32	8191.88
465.50	8084.21
465.69	8222.30
465.87	8236.35
466.05	8311.24
466.23	8212.94
466.41	8252.73
466.60	8360.39
466.78	8222.30
466.96	8320.60
467.14	8255.07
467.32	8226.98
467.51	8507.85
467.69	8238.69
467.87	8290.18
468.05	8521.89
468.23	8552.32
468.41	8175.49
468.60	8395.50
468.78	8571.04
468.96	8482.10
469.14	8472.74
469.32	8624.87
469.50	8491.46
469.69	8720.84
469.87	8655.30
470.05	8606.15
470.23	8781.69
470.41	8814.46
470.59	8971.27
470.77	8931.48
470.95	9193.62
471.14	8990.00
471.32	9004.04
471.50	9039.15
471.68	9186.60
471.86	9301.29
472.04	9221.71
472.22	9434.70
472.40	9092.98
472.58	9329.38
472.77	9329.38
472.95	9289.59
473.13	9736.63
473.31	9418.32
473.49	9540.02
473.67	9593.86
473.85	9579.81
474.03	9827.91
474.21	9706.20
474.39	9839.61
474.57	9827.91
474.75	9891.10
474.93	9872.38
475.12	9949.62
475.30	10068.98
475.48	9919.19
475.66	10202.40
475.84	9933.23
476.02	10366.23
476.20	10188.35
476.38	10420.06
476.56	10417.72
476.74	10513.69
476.92	10356.87
477.10	10490.28
477.28	10677.52
477.46	10843.70
477.64	11030.94
477.82	11063.71
478.00	11325.85
478.18	11073.07
478.36	10963.07
478.54	11260.32
478.72	11477.99
478.90	11606.72
479.08	11639.48
479.26	11637.14
479.44	11662.89
479.62	11976.52
479.80	11705.02
479.98	11826.73
480.16	12369.73
480.34	12173.13
480.52	12044.40
480.70	11995.25
480.88	12138.02
481.06	12453.99
481.24	12374.41
481.41	12678.68
481.59	12959.55
481.77	12999.34
481.95	13064.87
482.13	13029.76
482.31	13212.32
482.49	13305.95
482.67	13359.78
482.85	13289.56
483.03	13537.66
483.21	13432.33
483.39	13884.06
483.57	13870.01
483.74	13963.64
483.92	13902.78
484.10	13865.33
484.28	14586.22
484.46	14295.99
484.64	14555.79
484.82	14541.75
485.00	14817.93
485.18	14714.95
485.35	14953.68
485.53	14604.94
485.71	14831.97
485.89	15398.38
486.07	14995.81
486.25	15272.00
486.43	15419.45
486.61	15517.75
486.78	15482.64
486.96	15513.07
487.14	16020.97
487.32	15936.71
487.50	16182.46
487.68	16290.13
487.85	16512.48
488.03	16865.90
488.21	16830.79
488.39	16837.81
488.57	16823.77
488.75	17160.81
488.92	17163.15
489.10	17507.21
489.28	17706.15
489.46	17628.92
489.64	17270.81
489.81	18036.17
489.99	17996.38
490.17	18143.83
490.35	18207.03
490.53	18338.10
490.70	18445.76
490.88	18480.87
491.06	18857.70
491.24	18684.50
491.41	18780.46
491.59	19136.22
491.77	19075.37
491.95	19117.50
492.13	19325.80
492.30	19845.40
492.48	19573.90
492.66	19765.82
492.84	19632.41
493.01	19957.75
493.19	19988.18
493.37	20147.33
493.54	19990.52
493.72	20652.89
493.90	20559.27
494.08	20561.61
494.25	21025.03
494.43	20680.97
494.61	21116.31
494.79	21282.49
494.96	20849.49
495.14	21277.81
495.32	21369.09
495.49	21748.26
495.67	21830.18
495.85	21708.47
496.02	21785.71
496.20	22146.15
496.38	22267.86
496.55	21792.73
496.73	22515.95
496.91	22221.05
497.09	22312.33
497.26	22967.68
497.44	22583.83
497.62	22838.95
497.79	22864.69
497.97	22616.60
498.14	23337.48
498.32	23297.69
498.50	23297.69
498.67	23711.97
498.85	23508.34
499.03	23761.12
499.20	23913.25
499.38	23882.83
499.56	23964.75
499.73	23747.08
499.91	23957.72
500.08	24430.51
500.26	24264.33
500.44	24414.13
500.61	24334.55
500.79	24311.14
500.97	24133.26
501.14	24685.63
501.32	24643.50
501.49	24805.00
501.67	25181.82
501.84	25071.82
502.02	25088.20
502.20	25312.89
502.37	25205.23
502.55	25385.45
502.72	25556.31
502.90	25390.13
503.07	25469.71
503.25	25656.95
503.43	25575.03
503.60	25888.67
503.78	25675.68
503.95	25956.54
504.13	26309.96
504.30	25991.65
504.48	26309.96
504.65	26267.83
504.83	26536.99
505.01	26628.27
505.18	26637.64
505.36	26855.31
505.53	26649.34
505.71	27094.04
505.88	27344.48
506.06	26855.31
506.23	27269.58
506.41	27012.12
506.58	27164.26
506.76	27297.67
506.93	27524.70
507.11	27241.50
507.28	27147.87
507.46	27115.11
507.63	27281.28
507.81	28013.87
507.98	27590.24
508.16	27971.74
508.33	28233.88
508.50	27843.01
508.68	28027.92
508.85	28636.45
509.03	28144.94
509.20	28350.91
509.38	28460.91
509.55	28907.96
509.73	28765.18
509.90	28725.39
510.08	28718.37
510.25	29109.24
510.42	29120.95
510.60	29039.03
510.77	29165.42
510.95	29457.98
511.12	28996.90
511.30	29223.93
511.47	29446.28
511.64	29378.40
511.82	29748.21
511.99	29841.83
512.17	29731.83
512.34	29757.57
512.51	29935.45
512.69	29727.14
512.86	30277.17
513.04	30529.95
513.21	30295.89
513.38	30312.28
513.56	30288.87
513.73	30115.67
513.90	30754.64
514.08	30380.15
514.25	30855.28
514.43	30799.11
514.60	30951.24
514.77	30588.46
514.95	31161.89
515.12	30756.98
515.29	30789.75
515.47	31241.47
515.64	31269.56
515.81	31307.01
515.99	31201.68
516.16	31346.79
516.33	31498.93
516.51	31730.64
516.68	31309.35
516.85	31335.09
517.03	31515.31
517.20	31676.81
517.37	31484.89
517.54	31847.67
517.72	31646.38
517.89	32070.02
518.06	32030.23
518.24	31866.39
518.41	31894.48
518.58	31754.05
518.75	31903.84
518.93	32261.94
519.10	32371.95
519.27	32769.84
519.45	32603.66
519.62	32657.49
519.79	32992.19
519.96	32809.63
520.14	33256.67
520.31	32734.73
520.48	33053.05
520.65	33230.93
520.83	33362.00
521.00	32879.85
521.17	33036.66
521.34	33338.59
521.52	33572.64
521.69	33357.32
521.86	33610.09
522.03	33647.54
522.20	33727.12
522.38	33596.05
522.55	34054.79
522.72	34115.65
522.89	34019.69
523.07	34401.19
523.24	34036.07
523.41	34419.92
523.58	33916.70
523.75	34525.24
523.92	34295.87
524.10	34508.86
524.27	35019.10
524.44	34445.66
524.61	34705.46
524.78	34836.53
524.96	35440.39
525.13	34876.32
525.30	34967.60
525.47	35255.49
525.64	35332.73
525.81	35168.89
525.98	34923.13
526.16	35033.14
526.33	35555.08
526.50	35194.64
526.67	35318.68
526.84	35632.32
527.01	35306.98
527.18	35700.19
527.36	35779.77
527.53	35498.91
527.70	36032.55
527.87	36114.47
528.04	36032.55
528.21	36163.62
528.38	35470.82
528.55	36027.87
528.72	36067.66
528.89	36163.62
529.07	36060.63
529.24	35959.99
529.41	36376.61
529.58	36191.70
529.75	36519.38
529.92	36755.77
530.09	36170.64
530.26	36247.88
530.43	36624.70
530.60	36142.55
530.77	36407.03
530.94	36507.68
531.11	36636.41
531.28	36713.64
531.46	36840.03
531.63	37006.21
531.80	36769.82
531.97	36898.55
532.14	37214.52
532.31	37067.06
532.48	37530.49
532.65	37535.17
532.82	37406.44
532.99	37476.66
533.16	37057.70
533.33	37317.50
533.50	37242.60
533.67	37354.95
533.84	37357.29
534.01	37567.94
534.18	37104.51
534.35	37827.74
534.52	37787.95
534.69	37893.27
534.86	37811.35
535.03	37579.64
535.20	37766.88
535.37	38234.99
535.54	38363.72
535.71	37729.44
535.88	37846.46
536.05	38005.62
536.22	38178.82
536.38	37797.31
536.55	38405.85
536.72	38185.84
536.89	37385.38
537.06	38045.41
537.23	38988.64
537.40	38452.66
537.57	38103.92
537.74	38359.04
537.91	38770.97
538.08	38590.75
538.25	38260.74
538.42	38602.46
538.59	38866.94
538.75	38686.71
538.92	38639.90
539.09	39042.48
539.26	38834.17
539.43	38976.94
539.60	39110.35
539.77	39126.74
539.94	38902.04
540.11	38888.00
540.28	38993.32
540.44	38993.32
540.61	38796.72
540.78	39452.07
540.95	39206.31
541.12	39281.21
541.29	39559.73
541.46	39498.88
541.62	39484.84
541.79	39552.71
541.96	38946.51
542.13	39358.45
542.30	39962.31
542.47	39707.19
542.63	39370.15
542.80	39522.29
542.97	40271.26
543.14	40463.18
543.31	40444.46
543.48	40517.01
543.64	40627.02
543.81	40308.71
543.98	40392.97
544.15	40222.11
544.32	40587.23
544.48	40769.79
544.65	40142.53
544.82	40184.66
544.99	40219.77
545.16	40348.50
545.32	40311.05
545.49	40966.40
545.66	40840.01
545.83	40879.80
546.00	40711.28
546.16	40673.83
546.33	40561.48
546.50	40673.83
546.67	40858.73
546.83	40540.42
547.00	40531.06
547.17	40825.96
547.34	40919.59
547.50	40678.51
547.67	41116.19
547.84	40947.67
548.00	41556.21
548.17	41633.45
548.34	41394.71
548.51	41308.11
548.67	41457.91
548.84	41893.25
549.01	41118.53
549.18	41092.79
549.34	41549.19
549.51	41502.38
549.68	41787.92
549.84	41553.87
550.01	41701.32
550.18	41170.02
550.34	41109.17
550.51	42045.38
550.68	41626.43
550.84	41315.14
551.01	42206.88
551.18	41567.91
551.34	41684.94
551.51	41816.01
551.68	41708.35
551.84	42110.92
552.01	41794.95
552.18	42277.10
552.34	41893.25
552.51	42614.13
552.68	42384.76
552.84	42073.47
553.01	42349.65
553.18	42380.08
553.34	42321.57
553.51	41888.57
553.67	42115.60
553.84	42492.43
554.01	42375.40
554.17	42452.64
554.34	42803.72
554.51	42401.14
554.67	42712.44
554.84	42398.80
555.00	42569.66
555.17	42213.90
555.33	43033.09
555.50	42806.06
555.67	42202.20
555.83	42717.12
556.00	42820.10
556.16	42609.45
556.33	42841.17
556.50	42600.09
556.66	43044.79
556.83	42728.82
556.99	43262.46
557.16	43005.00
557.32	43054.15
557.49	43082.24
557.65	42291.14
557.82	42396.46
557.98	42632.86
558.15	42869.25
558.32	43409.92
558.48	42995.64
558.65	43047.13
558.81	42775.63
558.98	42958.19
559.14	42817.76
559.31	42969.90
559.47	43119.69
559.64	43620.56
559.80	43686.10
559.97	43318.64
560.13	43297.57
560.30	43040.11
560.46	43480.13
560.63	43332.68
560.79	43594.82
560.96	43456.73
561.12	43552.69
561.29	43217.99
561.45	43217.99
561.61	43386.51
561.78	43328.00
561.94	43320.98
562.11	43313.95
562.27	43178.20
562.44	43138.41
562.60	43697.80
562.77	43779.72
562.93	43477.79
563.10	43416.94
563.26	43620.56
563.42	43861.64
563.59	43309.27
563.75	43899.09
563.92	43856.96
564.08	43817.17
564.24	43711.84
564.41	44252.51
564.57	43676.74
564.74	43477.79
564.90	43796.10
565.07	43320.98
565.23	43665.03
565.39	43718.87
565.56	43688.44
565.72	43583.12
565.88	43833.55
566.05	43852.28
566.21	43615.88
566.38	43728.23
566.54	43590.14
566.70	44584.86
566.87	44158.89
567.03	43969.30
567.19	44399.96
567.36	43433.32
567.52	43732.91
567.68	43924.83
567.85	43571.41
568.01	43770.36
568.17	43990.37
568.34	44168.25
568.50	44006.75
568.66	43824.19
568.83	44123.78
568.99	44065.27
569.15	43475.45
569.32	43814.83
569.48	43824.19
569.64	43943.56
569.81	44158.89
569.97	44432.73
570.13	43882.70
570.30	43695.46
570.46	43770.36
570.62	43941.22
570.78	44109.74
570.95	43885.04
571.11	44013.77
571.27	43641.63
571.43	44032.50
571.60	44477.20
571.76	43990.37
571.92	43952.92
572.09	43941.22
572.25	44158.89
572.41	44301.66
572.57	44346.13
572.74	44320.38
572.90	44177.61
573.06	44069.95
573.22	44198.68
573.38	44201.02
573.55	44055.90
573.71	43896.75
573.87	44243.15
574.03	43753.97
574.20	44030.16
574.36	43803.13
574.52	44107.40
574.68	44364.85
574.84	44516.99
575.01	44435.07
575.17	43929.51
575.33	44109.74
575.49	44402.30
575.65	44629.34
575.82	44456.14
575.98	44186.97
576.14	44753.38
576.30	44425.71
576.46	44339.11
576.62	44374.22
576.79	44203.36
576.95	43622.90
577.11	44622.31
577.27	44629.34
577.43	44041.86
577.59	44886.79
577.75	44362.51
577.92	44182.29
578.08	43971.64
578.24	44175.27
578.40	44287.62
578.56	44287.62
578.72	43901.43
578.88	44416.35
579.04	44584.86
579.21	44196.34
579.37	43941.22
579.53	44170.59
579.69	44025.48
579.85	44528.69
580.01	44273.57
580.17	44549.76
580.33	44201.02
580.49	44690.19
580.65	44547.42
580.82	44507.63
580.98	44327.41
581.14	44217.40
581.30	44631.68
581.46	44467.84
581.62	44552.10
581.78	44563.80
581.94	44727.64
582.10	44683.17
582.26	44423.37
582.42	44816.58
582.58	44151.87
582.74	44414.01
582.90	44505.29
583.06	44247.83
583.22	44802.53
583.38	44947.65
583.54	44856.37
583.70	44371.88
583.86	44240.81
584.02	44100.37
584.18	44776.79
584.34	44006.75
584.50	44449.11
584.66	44294.64
584.82	44636.36
584.98	44694.87
585.14	44126.12
585.30	44584.86
585.46	44229.10
585.62	44268.89
585.78	44542.74
585.94	44201.02
586.10	44378.90
586.26	44247.83
586.42	44465.50
586.58	44898.50
586.74	44554.44
586.90	44350.81
587.06	44268.89
587.22	44414.01
587.38	44701.89
587.54	45120.85
587.70	44524.01
587.86	44952.33
588.02	44795.51
588.18	45088.08
588.34	44453.79
588.49	44250.17
588.65	44509.97
588.81	44449.11
588.97	44367.20
589.13	44289.96
589.29	44130.80
589.45	44816.58
589.61	44912.54
589.77	44734.66
589.93	44797.85
590.08	45048.29
590.24	44858.71
590.40	44987.44
