SpectraSuite Data File
++++++++++++++++++++++++++++++++++++
Date: Fri Oct 25 11:25:56 EDT 2013
User: price-jones
Dark Spectrum Present: No
Reference Spectrum Present: No
Number of Sampled Component Spectra: 1
Spectrometers: USB2+H05261
Integration Time (usec): 100000 (USB2+H05261)
Spectra Averaged: 1 (USB2+H05261)
Boxcar Smoothing: 0 (USB2+H05261)
Correct for Electrical Dark: No (USB2+H05261)
Strobe/Lamp Enabled: No (USB2+H05261)
Correct for Detector Non-linearity: No (USB2+H05261)
Correct for Stray Light: No (USB2+H05261)
Number of Pixels in Processed Spectrum: 2048
>>>>>Begin Processed Spectral Data<<<<<
365.73	264.48
365.92	264.48
366.12	264.48
366.32	177.88
366.52	30.43
366.72	177.88
366.91	124.05
367.11	117.03
367.31	121.71
367.51	119.37
367.70	53.83
367.90	142.77
368.10	98.30
368.30	159.16
368.49	93.62
368.69	147.45
368.89	138.09
369.09	198.95
369.28	196.60
369.48	131.07
369.68	180.22
369.87	210.65
370.07	168.52
370.27	241.08
370.47	365.12
370.66	538.32
370.86	606.20
371.06	685.78
371.25	608.54
371.45	655.35
371.65	732.59
371.84	638.97
372.04	690.46
372.24	723.23
372.44	779.40
372.63	678.76
372.83	716.20
373.03	788.76
373.22	802.80
373.42	760.67
373.62	732.59
373.81	716.20
374.01	798.12
374.21	828.55
374.40	779.40
374.60	826.21
374.79	746.63
374.99	826.21
375.19	950.26
375.38	816.85
375.58	863.66
375.78	814.51
375.97	863.66
376.17	854.30
376.37	901.11
376.56	800.46
376.76	908.13
376.95	905.79
377.15	924.51
377.35	870.68
377.54	882.38
377.74	877.70
377.93	931.53
378.13	957.28
378.33	978.34
378.52	929.19
378.72	1008.77
378.91	926.85
379.11	940.90
379.31	910.47
379.50	952.60
379.70	1015.79
379.89	973.66
380.09	912.81
380.28	978.34
380.48	992.39
380.68	978.34
380.87	1013.45
381.07	1013.45
381.26	1104.73
381.46	1055.58
381.65	1046.22
381.85	1053.24
382.04	1036.86
382.24	1036.86
382.43	1057.92
382.63	1006.43
382.83	1053.24
383.02	1158.57
383.22	1170.27
383.41	1004.09
383.61	1093.03
383.80	1144.52
384.00	1125.80
384.19	1123.46
384.39	1109.41
384.58	1097.71
384.78	1153.88
384.97	1205.38
385.17	1165.59
385.36	1196.01
385.56	1170.27
385.75	1212.40
385.95	1205.38
386.14	1284.95
386.34	1188.99
386.53	1224.10
386.72	1160.91
386.92	1217.08
387.11	1123.46
387.31	1210.06
387.50	1177.29
387.70	1179.63
387.89	1315.38
388.09	1327.08
388.28	1249.85
388.48	1240.48
388.67	1334.11
388.86	1308.36
389.06	1322.40
389.25	1423.05
389.45	1306.02
389.64	1327.08
389.84	1390.28
390.03	1348.15
390.22	1327.08
390.42	1437.09
390.61	1294.32
390.81	1373.89
391.00	1383.26
391.19	1483.90
391.39	1369.21
391.58	1488.58
391.78	1444.11
391.97	1455.81
392.16	1458.15
392.36	1533.05
392.55	1530.71
392.75	1530.71
392.94	1607.95
393.13	1540.07
393.33	1486.24
393.52	1549.43
393.71	1565.82
393.91	1631.35
394.10	1547.09
394.29	1584.54
394.49	1593.90
394.68	1582.20
394.88	1643.06
395.07	1657.10
395.26	1598.59
395.46	1713.27
395.65	1769.44
395.84	1652.42
396.04	1736.68
396.23	1776.47
396.42	1746.04
396.62	1750.72
396.81	1802.21
397.00	1739.02
397.19	1769.44
397.39	1753.06
397.58	1827.96
397.77	1837.32
397.97	1818.60
398.16	1755.40
398.35	1856.04
398.55	1963.71
398.74	1893.49
398.93	1947.33
399.12	1825.62
399.32	1865.41
399.51	1923.92
399.70	2019.88
399.90	1902.86
400.09	2003.50
400.28	2087.76
400.47	2029.24
400.67	2085.42
400.86	1954.35
401.05	2026.90
401.24	2076.06
401.44	2099.46
401.63	2108.82
401.82	2057.33
402.01	2113.50
402.21	2256.28
402.40	2143.93
402.59	2071.37
402.78	2235.21
402.97	2062.01
403.17	2211.81
403.36	2246.91
403.55	2253.94
403.74	2321.81
403.93	2359.26
404.13	2403.73
404.32	2328.83
404.51	2462.24
404.70	2487.99
404.89	2359.26
405.09	2380.32
405.28	2506.71
405.47	2511.39
405.66	2438.84
405.85	2506.71
406.05	2583.95
406.24	2621.40
406.43	2626.08
406.62	2663.53
406.81	2616.72
407.00	2642.46
407.20	2597.99
407.39	2656.51
407.58	2644.81
407.77	2647.15
407.96	2792.26
408.15	2827.37
408.34	2801.62
408.54	2796.94
408.73	2682.25
408.92	2818.00
409.11	2930.35
409.30	2951.42
409.49	2864.82
409.68	2972.48
409.87	2904.60
410.07	3009.93
410.26	3052.06
410.45	2974.82
410.64	2939.71
410.83	3162.06
411.02	3236.96
411.21	3171.43
411.40	3173.77
411.59	3173.77
411.78	3239.30
411.98	3262.71
412.17	3363.35
412.36	3180.79
412.55	3239.30
412.74	3379.73
412.93	3417.18
413.12	3316.54
413.31	3590.38
413.50	3559.95
413.69	3510.80
413.88	3576.34
414.07	3749.54
414.26	3719.11
414.45	3695.71
414.64	3655.92
414.83	3691.02
415.02	3641.87
415.22	3756.56
415.41	3824.44
415.60	3880.61
415.79	3880.61
415.98	3899.33
416.17	3918.06
416.36	3927.42
416.55	3906.35
416.74	4042.11
416.93	3908.69
417.12	4037.42
417.31	4276.16
417.50	4168.49
417.69	4315.95
417.88	4308.93
418.07	4234.03
418.26	4266.80
418.45	4297.22
418.64	4461.06
418.83	4402.55
419.02	4423.61
419.21	4512.55
419.39	4599.15
419.58	4432.97
419.77	4456.38
419.96	4601.49
420.15	4528.94
420.34	4550.00
420.53	4578.09
420.72	4849.59
420.91	4561.70
421.10	4709.16
421.29	4671.71
421.48	4737.24
421.67	4882.36
421.86	4650.64
422.05	4772.35
422.24	4711.50
422.43	4880.02
422.61	4685.75
422.80	4709.16
422.99	4842.57
423.18	4961.94
423.37	4980.66
423.56	5025.13
423.75	4931.51
423.94	4868.31
424.13	4648.30
424.32	4753.63
424.50	4950.23
424.69	5041.51
424.88	5205.35
425.07	4837.89
425.26	4828.53
425.45	4926.83
425.64	4760.65
425.83	4936.19
426.01	5050.88
426.20	4957.25
426.39	4933.85
426.58	4964.28
426.77	5114.07
426.96	5172.58
427.15	5245.14
427.33	5071.94
427.52	5156.20
427.71	5252.16
427.90	5245.14
428.09	5207.69
428.28	5394.93
428.46	5327.06
428.65	5331.74
428.84	5411.32
429.03	5509.62
429.22	5153.86
429.40	5469.83
429.59	5334.08
429.78	5359.83
429.97	5195.99
430.16	5479.19
430.34	5537.71
430.53	5699.20
430.72	5568.13
430.91	5659.42
431.10	5734.31
431.28	5720.27
431.47	5834.96
431.66	5832.62
431.85	5593.88
432.03	5860.70
432.22	5949.64
432.41	5996.45
432.60	5809.21
432.79	6059.65
432.97	6022.20
433.16	5942.62
433.35	6024.54
433.54	5886.45
433.72	5937.94
433.91	6099.44
434.10	6127.52
434.28	6085.39
434.47	6071.35
434.66	6162.63
434.85	6359.24
435.03	6207.10
435.22	6176.67
435.41	6389.66
435.59	6422.43
435.78	6413.07
435.97	6546.48
436.16	6445.84
436.34	6452.86
436.53	6436.47
436.72	6642.44
436.90	6469.24
437.09	6628.40
437.28	6457.54
437.46	6609.67
437.65	6616.69
437.84	6705.63
438.02	6637.76
438.21	6710.32
438.40	6670.53
438.58	6951.39
438.77	7009.90
438.96	6864.79
439.14	7119.91
439.33	6991.18
439.52	7190.13
439.70	7365.67
439.89	7358.64
440.08	7351.62
440.26	7316.51
440.45	7286.09
440.63	7403.11
440.82	7578.65
441.01	7536.52
441.19	7419.50
441.38	7672.28
441.57	7777.60
441.75	7658.23
441.94	7950.80
442.12	7995.27
442.31	7927.39
442.50	8056.12
442.68	7999.95
442.87	7941.44
443.05	8184.85
443.24	8124.00
443.43	8121.66
443.61	8360.39
443.80	8461.04
443.98	8152.09
444.17	7868.88
444.35	8161.45
444.54	8339.33
444.73	8318.26
444.91	8201.24
445.10	8332.31
445.28	8219.96
445.47	8212.94
445.65	8147.40
445.84	8493.80
446.02	8519.55
446.21	8479.76
446.39	8435.29
446.58	8341.67
446.77	8549.98
446.95	8355.71
447.14	8461.04
447.32	8526.57
447.51	8341.67
447.69	8339.33
447.88	8329.97
448.06	8524.23
448.25	8531.25
448.43	8533.59
448.62	8685.73
448.80	8599.13
448.99	8702.11
449.17	8772.33
449.36	8711.47
449.54	8847.22
449.73	8849.57
449.91	8912.76
450.10	8861.27
450.28	8975.95
450.46	9060.21
450.65	9071.92
450.83	8980.64
451.02	9060.21
451.20	9165.54
451.39	9097.66
451.57	9102.34
451.76	9188.94
451.94	9249.80
452.13	9263.84
452.31	9369.16
452.49	9039.15
452.68	9399.59
452.86	9458.10
453.05	9350.44
453.23	9497.89
453.42	9163.20
453.60	9259.16
453.78	9392.57
453.97	9542.36
454.15	9315.33
454.34	9317.67
454.52	9671.09
454.70	9570.45
454.89	9717.90
455.07	9846.63
455.26	9666.41
455.44	9696.84
455.62	9776.42
455.81	9767.06
455.99	9860.68
456.17	9834.93
456.36	10050.26
456.54	10143.88
456.73	10108.77
456.91	10434.11
457.09	10457.51
457.28	10331.12
457.46	10354.53
457.64	10368.57
457.83	10588.58
458.01	10345.17
458.19	10656.46
458.38	10384.96
458.56	10626.03
458.74	10729.02
458.93	10621.35
459.11	10724.33
459.29	10616.67
459.48	10820.30
459.66	10724.33
459.84	10937.32
460.03	11140.95
460.21	10888.17
460.39	10733.70
460.57	10808.59
460.76	11136.27
460.94	10944.34
461.12	11157.33
461.31	11108.18
461.49	11211.17
461.67	11250.96
461.85	11477.99
462.04	11180.74
462.22	11751.83
462.40	11449.90
462.59	11475.65
462.77	11541.18
462.95	11468.62
463.13	11386.71
463.32	11695.66
463.50	11693.32
463.68	11550.54
463.86	11571.61
464.05	11658.21
464.23	11824.39
464.41	11903.96
464.59	11693.32
464.78	11889.92
464.96	12081.85
465.14	11751.83
465.32	12049.08
465.50	12348.67
465.69	11981.20
465.87	11988.22
466.05	12072.48
466.23	11974.18
466.41	11990.56
466.60	12336.96
466.78	12191.85
466.96	12065.46
467.14	12138.02
467.32	12063.12
467.51	12500.80
467.69	12273.77
467.87	12479.74
468.05	12470.37
468.23	12308.88
468.41	12456.33
468.60	12578.04
468.78	12573.36
468.96	12552.29
469.14	12762.94
469.32	13025.08
469.50	12744.22
469.69	12762.94
469.87	13247.43
470.05	13095.30
470.23	13011.04
470.41	13081.25
470.59	13188.92
470.77	13167.85
470.95	13149.13
471.14	13617.24
471.32	12982.95
471.50	13495.53
471.68	13514.25
471.86	13558.72
472.04	13830.23
472.22	14038.53
472.40	13476.80
472.58	13612.56
472.77	13891.08
472.95	14125.13
473.13	14602.60
473.31	14040.87
473.49	13891.08
473.67	14083.00
473.85	14281.95
474.03	14527.71
474.21	14490.26
474.39	14541.75
474.57	14867.08
474.75	14726.65
474.93	15051.99
475.12	14771.12
475.30	14951.34
475.48	14846.02
475.66	14911.55
475.84	15122.20
476.02	15302.42
476.20	15178.37
476.38	15634.78
476.56	15726.06
476.74	15971.82
476.92	15786.91
477.10	15742.44
477.28	16084.16
477.46	16058.42
477.64	16128.63
477.82	16346.30
478.00	17034.42
478.18	16844.84
478.36	16779.30
478.54	16884.62
478.72	17074.21
478.90	17408.90
479.08	17369.12
479.26	17539.97
479.44	17539.97
479.62	17851.27
479.80	17743.60
479.98	17900.42
480.16	18733.65
480.34	18195.32
480.52	18450.44
480.70	18396.61
480.88	18232.77
481.06	18398.95
481.24	18855.36
481.41	18944.30
481.59	18932.59
481.77	19332.82
481.95	19321.12
482.13	19688.59
482.31	19826.68
482.49	20191.80
482.67	20341.60
482.85	20414.15
483.03	20435.22
483.21	20613.10
483.39	20613.10
483.57	20929.07
483.74	20898.64
483.92	21319.94
484.10	21238.02
484.28	21591.44
484.46	21947.20
484.64	22263.18
484.82	21809.11
485.00	22225.73
485.18	22539.36
485.35	22918.53
485.53	22817.88
485.71	23257.90
485.89	23040.23
486.07	23433.44
486.25	23613.66
486.43	23515.36
486.61	23983.47
486.78	23915.59
486.96	24187.10
487.14	24498.39
487.32	24699.67
487.50	24676.27
487.68	25067.14
487.85	25062.46
488.03	25380.77
488.21	25769.30
488.39	25453.33
488.57	25617.16
488.75	25977.61
488.92	26017.40
489.10	26663.38
489.28	26731.26
489.46	27094.04
489.64	26738.28
489.81	27461.51
489.99	27351.50
490.17	27569.17
490.35	28063.02
490.53	28327.50
490.70	28161.33
490.88	28077.07
491.06	28498.36
491.24	28606.03
491.41	29191.16
491.59	29289.46
491.77	29233.29
491.95	29376.06
492.13	29460.32
492.30	29771.61
492.48	30162.48
492.66	30015.03
492.84	30270.15
493.01	30284.19
493.19	30513.56
493.37	31115.08
493.54	30785.07
493.72	31356.16
493.90	31644.04
494.08	31447.44
494.25	31707.24
494.43	32212.79
494.61	32210.45
494.79	32362.59
494.96	32292.37
495.14	32479.61
495.32	33116.24
495.49	33092.83
495.67	32835.38
495.85	33476.68
496.02	33998.62
496.20	33689.67
496.38	33954.15
496.55	33783.29
496.73	34930.16
496.91	34574.39
497.09	34700.78
497.26	34974.63
497.44	34632.91
497.62	35379.54
497.79	35910.84
497.97	35297.62
498.14	35704.87
498.32	36055.95
498.50	35770.41
498.67	36343.84
498.85	36219.79
499.03	36652.79
499.20	36549.81
499.38	37088.13
499.56	37008.55
499.73	37064.72
499.91	37198.13
500.08	37521.13
500.26	37209.84
500.44	37544.53
500.61	37771.57
500.79	37528.15
500.97	37743.48
501.14	38408.19
501.32	38270.10
501.49	38347.34
501.67	38288.82
501.84	38822.47
502.02	38976.94
502.20	39089.29
502.37	39239.08
502.55	38888.00
502.72	39477.82
502.90	39131.42
503.07	39791.45
503.25	39847.62
503.43	39866.34
503.60	39452.07
503.78	40130.83
503.95	40278.28
504.13	40025.50
504.30	40334.45
504.48	40570.85
504.65	40236.15
504.83	41102.15
505.01	41223.86
505.18	40882.14
505.36	41401.74
505.53	40964.06
505.71	41610.04
505.88	41673.24
506.06	41076.40
506.23	41546.85
506.41	41551.53
506.58	41832.39
506.76	41605.36
506.93	42501.79
507.11	41984.53
507.28	42445.62
507.46	42878.61
507.63	42895.00
507.81	42796.70
507.98	42794.36
508.16	43241.40
508.33	43412.26
508.50	43320.98
508.68	43648.65
508.85	43765.68
509.03	43856.96
509.20	43859.30
509.38	44299.32
509.55	44107.40
509.73	44184.63
509.90	44425.71
510.08	44292.30
510.25	44554.44
510.42	44531.03
510.60	44877.43
510.77	45050.63
510.95	45102.12
511.12	44905.52
511.30	45205.11
511.47	45251.92
511.64	45359.58
511.82	45640.45
511.99	45715.34
512.17	45815.99
512.34	46000.89
512.51	46272.39
512.69	46141.32
512.86	46286.43
513.04	46248.99
513.21	46241.96
513.38	46443.25
513.56	46419.84
513.73	46871.57
513.90	46843.48
514.08	46911.36
514.25	47356.06
514.43	47136.05
514.60	47168.82
514.77	47309.25
514.95	47377.12
515.12	47440.32
515.29	47746.93
515.47	47585.43
515.64	48020.77
515.81	47629.90
515.99	47952.90
516.16	48266.53
516.33	48025.45
516.51	48261.85
516.68	48322.70
516.85	48315.68
517.03	48751.02
517.20	48739.32
517.37	48491.22
517.54	48711.23
517.72	48650.38
517.89	48900.81
518.06	49200.40
518.24	48804.85
518.41	48753.36
518.58	49216.78
518.75	48638.67
518.93	49710.64
519.10	49399.35
519.27	49586.59
519.45	49530.42
519.62	49595.95
519.79	49989.16
519.96	49874.48
520.14	50129.59
520.31	50052.36
520.48	50171.72
520.65	49893.20
520.83	50356.63
521.00	50583.66
521.17	50541.53
521.34	50798.99
521.52	50468.97
521.69	50726.43
521.86	50628.13
522.03	51033.04
522.20	51063.47
522.38	51402.85
522.55	51547.96
522.72	51157.09
522.89	51009.64
523.07	51166.45
523.24	51210.92
523.41	51426.25
523.58	51220.28
523.75	51856.91
523.92	51409.87
524.10	51826.48
524.27	51889.68
524.44	51861.59
524.61	51824.14
524.78	52016.07
524.96	52086.28
525.13	51943.51
525.30	52170.54
525.47	52388.21
525.64	52299.27
525.81	52119.05
525.98	52559.07
526.16	52252.46
526.33	52423.32
526.50	53062.29
526.67	52528.64
526.84	53052.92
527.01	52605.88
527.18	52633.97
527.36	52650.35
527.53	53081.01
527.70	53151.23
527.87	52959.30
528.04	53396.98
528.21	53097.39
528.38	53504.65
528.55	53469.54
528.72	53191.01
528.89	53347.83
529.07	53319.74
529.24	53469.54
529.41	53497.62
529.58	53689.55
529.75	53563.16
529.92	53799.55
530.09	53724.66
530.26	53881.47
530.43	54082.76
530.60	53949.35
530.77	53696.57
530.94	53893.18
531.11	53801.89
531.28	53979.78
531.46	54082.76
531.63	54143.61
531.80	54038.29
531.97	54387.03
532.14	54412.77
532.31	54218.51
532.48	54445.54
532.65	54433.84
532.82	54326.17
532.99	54447.88
533.16	54232.55
533.33	54712.36
533.50	54677.25
533.67	54630.44
533.84	54539.16
534.01	54838.75
534.18	54651.51
534.35	55004.93
534.52	55152.38
534.69	55077.49
534.86	55236.64
535.03	54740.45
535.20	55234.30
535.37	54990.89
535.54	55180.47
535.71	55061.10
535.88	55238.98
536.05	55379.42
536.22	55543.25
536.38	55454.31
536.55	55573.68
536.72	55341.97
536.89	55468.36
537.06	55622.83
537.23	55545.59
537.40	55505.80
537.57	55700.07
537.74	55674.32
537.91	55669.64
538.08	55910.72
538.25	55423.89
538.42	55590.06
538.59	55835.82
538.75	55817.10
538.92	56116.68
539.09	55931.78
539.26	56133.07
539.43	56133.07
539.60	56126.05
539.77	55880.29
539.94	56479.47
540.11	56016.04
540.28	56275.84
540.44	56151.79
540.61	56364.78
540.78	56214.99
540.95	56559.05
541.12	56512.23
541.29	56402.23
541.46	56406.91
541.62	56563.73
541.79	56910.13
541.96	56430.32
542.13	56542.66
542.30	56537.98
542.47	56767.35
542.63	56823.53
542.80	56928.85
542.97	57052.90
543.14	57034.17
543.31	57069.28
543.48	57064.60
543.64	57413.34
543.81	57144.18
543.98	57251.84
544.15	56987.36
544.32	57284.61
544.48	57607.61
544.65	57298.65
544.82	57310.36
544.99	57453.13
545.16	57219.08
545.32	57333.76
545.49	57504.62
545.66	57841.66
545.83	57396.96
546.00	57523.35
546.16	57485.90
546.33	57467.17
546.50	57366.53
546.67	57602.92
546.83	57513.98
547.00	57588.88
547.17	57471.85
547.34	57687.18
547.50	57694.21
547.67	58085.07
547.84	58003.16
548.00	57874.43
548.17	57673.14
548.34	57968.05
548.51	57780.81
548.67	58082.73
548.84	58078.05
549.01	57944.64
549.18	58164.65
549.34	58152.95
549.51	58211.46
549.68	58487.65
549.84	58042.95
550.01	58525.10
550.18	58092.10
550.34	58356.58
550.51	58262.96
550.68	58382.32
550.84	58272.32
551.01	58363.60
551.18	58422.11
551.34	58087.42
551.51	58415.09
551.68	58417.43
551.84	58763.83
552.01	58190.40
552.18	58614.04
552.34	58485.31
552.51	58646.80
552.68	58291.04
552.84	58492.33
553.01	58824.68
553.18	58717.02
553.34	59023.63
553.51	58649.14
553.67	58574.25
553.84	58850.43
554.01	58815.32
554.17	59002.56
554.34	58836.39
554.51	58941.71
554.67	58941.71
554.84	58937.03
555.00	58848.09
555.17	58841.07
555.33	59297.47
555.50	58876.18
555.67	58955.75
555.83	58871.49
556.00	58941.71
556.16	59173.42
556.33	59138.32
556.50	59138.32
556.66	59175.76
556.83	58827.02
556.99	59260.02
557.16	59524.50
557.32	59318.54
557.49	59276.41
557.65	59365.35
557.82	59353.65
557.98	59091.51
558.15	59557.27
558.32	59473.01
558.48	59384.07
558.65	59618.13
558.81	59367.69
558.98	59295.13
559.14	59405.14
559.31	59522.16
559.47	59585.36
559.64	59571.32
559.80	59636.85
559.97	59629.83
560.13	59583.02
560.30	59648.55
560.46	59510.46
560.63	59756.22
560.79	59681.32
560.96	59793.67
561.12	59690.68
561.29	59751.54
561.45	59723.45
561.61	59608.76
561.78	59650.89
561.94	59526.84
562.11	59641.53
562.27	59854.52
562.44	59891.97
562.60	59781.96
562.77	59693.02
562.93	59620.47
563.10	59835.80
563.26	59774.94
563.42	60039.42
563.59	60083.89
563.75	59887.29
563.92	59796.01
564.08	59877.93
564.24	60140.07
564.41	59774.94
564.57	60048.78
564.74	60027.72
564.90	59934.10
565.07	60121.34
565.23	59934.10
565.39	59929.42
565.56	60093.25
565.72	60114.32
565.88	59957.50
566.05	59973.89
566.21	60168.15
566.38	60149.43
566.54	60083.89
566.70	60282.84
566.87	60285.18
567.03	60013.68
567.19	60273.48
567.36	60296.88
567.52	60285.18
567.68	60502.85
567.85	60214.96
568.01	60430.29
568.17	60179.85
568.34	60219.64
568.50	60346.03
568.66	60149.43
568.83	60395.18
568.99	60170.49
569.15	60390.50
569.32	60264.11
569.48	60313.26
569.64	60500.51
569.81	60397.52
569.97	60121.34
570.13	60308.58
570.30	60299.22
570.46	60374.12
570.62	60360.08
570.78	60320.29
570.95	60296.88
571.11	60397.52
571.27	60423.27
571.43	60402.21
571.60	60530.93
571.76	60470.08
571.92	60411.57
572.09	60491.15
572.25	60317.95
572.41	60446.68
572.57	60521.57
572.74	60676.05
572.90	60493.49
573.06	60605.83
573.22	60336.67
573.38	60617.53
573.55	60601.15
573.71	60559.02
573.87	60603.49
574.03	60582.43
574.20	60615.19
574.36	60446.68
574.52	60617.53
574.68	60645.62
574.84	60662.00
575.01	60631.58
575.17	60502.85
575.33	60610.51
575.49	60533.28
575.65	60624.56
575.82	60718.18
575.98	60666.69
576.14	60793.07
576.30	60692.43
576.46	60378.80
576.62	60559.02
576.79	60638.60
576.95	60624.56
577.11	60699.45
577.27	60750.94
577.43	60748.60
577.59	60596.47
577.75	60626.90
577.92	60493.49
578.08	60633.92
578.24	60622.22
578.40	60968.61
578.56	60704.13
578.72	60692.43
578.88	60893.72
579.04	60839.89
579.21	60788.39
579.37	60842.23
579.53	61038.83
579.69	60650.30
579.85	60687.75
580.01	60631.58
580.17	60575.40
580.33	60722.86
580.49	60832.86
580.65	60865.63
580.82	60704.13
580.98	60764.99
581.14	60842.23
581.30	60877.33
581.46	60795.42
581.62	60919.46
581.78	60966.27
581.94	60776.69
582.10	60917.12
582.26	60729.88
582.42	60643.28
582.58	60900.74
582.74	60886.70
582.90	60917.12
583.06	61162.88
583.22	60692.43
583.38	61080.96
583.54	60767.33
583.70	60781.37
583.86	61015.43
584.02	60786.05
584.18	60898.40
584.34	61027.13
584.50	60917.12
584.66	60814.14
584.82	60886.70
584.98	61186.28
585.14	61059.90
585.30	60825.84
585.46	60935.85
585.62	60980.32
585.78	60970.96
585.94	60704.13
586.10	60926.49
586.26	60849.25
586.42	61041.17
586.58	60741.58
586.74	61015.43
586.90	60739.24
587.06	60872.65
587.22	60844.57
587.38	60912.44
587.54	61020.11
587.70	61226.07
587.86	60992.02
588.02	60966.27
588.18	60931.17
588.34	60842.23
588.49	60835.20
