SpectraSuite Data File
++++++++++++++++++++++++++++++++++++
Date: Fri Oct 25 11:33:18 EDT 2013
User: price-jones
Dark Spectrum Present: No
Reference Spectrum Present: No
Number of Sampled Component Spectra: 1
Spectrometers: USB2+H05261
Integration Time (usec): 100000 (USB2+H05261)
Spectra Averaged: 1 (USB2+H05261)
Boxcar Smoothing: 0 (USB2+H05261)
Correct for Electrical Dark: No (USB2+H05261)
Strobe/Lamp Enabled: No (USB2+H05261)
Correct for Detector Non-linearity: No (USB2+H05261)
Correct for Stray Light: No (USB2+H05261)
Number of Pixels in Processed Spectrum: 2048
>>>>>Begin Processed Spectral Data<<<<<
365.73	229.37
365.92	229.37
366.12	229.37
366.32	250.44
366.52	224.69
366.72	182.56
366.91	166.18
367.11	135.75
367.31	147.45
367.51	229.37
367.70	124.05
367.90	189.58
368.10	245.76
368.30	184.90
368.49	126.39
368.69	215.33
368.89	189.58
369.09	245.76
369.28	259.80
369.48	224.69
369.68	236.39
369.87	238.73
370.07	262.14
370.27	264.48
370.47	311.29
370.66	482.15
370.86	535.98
371.06	489.17
371.25	540.66
371.45	519.60
371.65	557.05
371.84	554.71
372.04	578.11
372.24	559.39
372.44	622.58
372.63	592.16
372.83	624.92
373.03	620.24
373.22	550.03
373.42	592.16
373.62	641.31
373.81	603.86
374.01	678.76
374.21	620.24
374.40	650.67
374.60	587.47
374.79	685.78
374.99	594.50
375.19	648.33
375.38	671.73
375.58	615.56
375.78	641.31
375.97	671.73
376.17	725.57
376.37	660.03
376.56	653.01
376.76	678.76
376.95	631.94
377.15	592.16
377.35	664.71
377.54	669.39
377.74	643.65
377.93	681.10
378.13	638.97
378.33	763.01
378.52	685.78
378.72	667.05
378.91	631.94
379.11	699.82
379.31	596.84
379.50	744.29
379.70	767.70
379.89	748.97
380.09	711.52
380.28	732.59
380.48	784.08
380.68	671.73
380.87	713.86
381.07	781.74
381.26	774.72
381.46	739.61
381.65	755.99
381.85	753.65
382.04	751.31
382.24	751.31
382.43	702.16
382.63	720.88
382.83	744.29
383.02	791.10
383.22	767.70
383.41	774.72
383.61	847.27
383.80	863.66
384.00	908.13
384.19	812.17
384.39	823.87
384.58	849.61
384.78	880.04
384.97	809.83
385.17	751.31
385.36	884.72
385.56	922.17
385.75	835.57
385.95	884.72
386.14	880.04
386.34	800.46
386.53	837.91
386.72	833.23
386.92	908.13
387.11	842.59
387.31	917.49
387.50	926.85
387.70	793.44
387.89	908.13
388.09	945.58
388.28	950.26
388.48	957.28
388.67	903.45
388.86	924.51
389.06	894.08
389.25	940.90
389.45	940.90
389.64	973.66
389.84	999.41
390.03	1083.67
390.22	1006.43
390.42	945.58
390.61	985.37
390.81	922.17
391.00	978.34
391.19	1043.88
391.39	994.73
391.58	1029.84
391.78	1032.18
391.97	1027.50
392.16	1039.20
392.36	1081.33
392.55	968.98
392.75	971.32
392.94	1034.52
393.13	1060.26
393.33	1076.65
393.52	1083.67
393.71	1125.80
393.91	1071.97
394.10	1095.37
394.29	1158.57
394.49	1137.50
394.68	1128.14
394.88	1146.86
395.07	1191.33
395.26	1165.59
395.46	1144.52
395.65	1200.69
395.84	1188.99
396.04	1289.64
396.23	1254.53
396.42	1207.72
396.62	1268.57
396.81	1268.57
397.00	1247.51
397.19	1198.35
397.39	1177.29
397.58	1214.74
397.77	1266.23
397.97	1338.79
398.16	1245.16
398.35	1291.98
398.55	1273.25
398.74	1303.68
398.93	1409.00
399.12	1317.72
399.32	1348.15
399.51	1259.21
399.70	1418.36
399.90	1313.04
400.09	1397.30
400.28	1430.07
400.47	1409.00
400.67	1390.28
400.86	1462.83
401.05	1409.00
401.24	1423.05
401.44	1371.55
401.63	1458.15
401.82	1359.85
402.01	1458.15
402.21	1530.71
402.40	1511.99
402.59	1495.60
402.78	1514.33
402.97	1523.69
403.17	1568.16
403.36	1533.05
403.55	1533.05
403.74	1603.27
403.93	1624.33
404.13	1540.07
404.32	1617.31
404.51	1605.61
404.70	1603.27
404.89	1605.61
405.09	1612.63
405.28	1760.08
405.47	1685.19
405.66	1685.19
405.85	1760.08
406.05	1769.44
406.24	1736.68
406.43	1778.81
406.62	1895.83
406.81	1849.02
407.00	1856.04
407.20	1816.26
407.39	1823.28
407.58	1802.21
407.77	1867.75
407.96	1816.26
408.15	1893.49
408.34	1853.70
408.54	1987.11
408.73	2010.52
408.92	1886.47
409.11	1956.69
409.30	2085.42
409.49	2022.22
409.68	1900.52
409.87	2097.12
410.07	2118.18
410.26	2076.06
410.45	2019.88
410.64	2001.16
410.83	2064.35
411.02	2097.12
411.21	2207.13
411.40	2134.57
411.59	2209.47
411.78	2172.02
411.98	2230.53
412.17	2293.72
412.36	2401.39
412.55	2326.49
412.74	2342.88
412.93	2291.38
413.12	2413.09
413.31	2373.30
413.50	2345.22
413.69	2450.54
413.88	2483.31
414.07	2387.35
414.26	2466.92
414.45	2459.90
414.64	2546.50
414.83	2628.42
415.02	2607.36
415.22	2745.45
415.41	2586.29
415.60	2656.51
415.79	2726.72
415.98	2825.03
416.17	2801.62
416.36	2759.49
416.55	2827.37
416.74	2818.00
416.93	2881.20
417.12	2874.18
417.31	2843.75
417.50	2965.46
417.69	3052.06
417.88	2953.76
418.07	2946.73
418.26	3040.36
418.45	2930.35
418.64	3192.49
418.83	2986.52
419.02	3143.34
419.21	3066.10
419.39	3126.96
419.58	3035.67
419.77	2981.84
419.96	3157.38
420.15	3251.00
420.34	3159.72
420.53	3166.74
420.72	3251.00
420.91	3152.70
421.10	3328.24
421.29	3419.52
421.48	3295.47
421.67	3262.71
421.86	3316.54
422.05	3382.07
422.24	3215.90
422.43	3442.93
422.61	3433.57
422.80	3417.18
422.99	3468.67
423.18	3447.61
423.37	3480.38
423.56	3384.41
423.75	3515.48
423.94	3386.76
424.13	3190.15
424.32	3356.33
424.50	3440.59
424.69	3517.83
424.88	3475.70
425.07	3527.19
425.26	3309.52
425.45	3431.23
425.64	3365.69
425.83	3620.81
426.01	3468.67
426.20	3447.61
426.39	3454.63
426.58	3508.46
426.77	3503.78
426.96	3611.45
427.15	3653.58
427.33	3590.38
427.52	3618.47
427.71	3676.98
427.90	3496.76
428.09	3784.65
428.28	3698.05
428.46	3681.66
428.65	3613.79
428.84	3871.25
429.03	3943.80
429.22	3667.62
429.40	3721.45
429.59	3765.92
429.78	3702.73
429.97	3854.86
430.16	3765.92
430.34	3913.38
430.53	3911.04
430.72	3929.76
430.91	3955.51
431.10	4046.79
431.28	3955.51
431.47	3922.74
431.66	4037.42
431.85	3946.14
432.03	4187.22
432.22	4191.90
432.41	4046.79
432.60	4217.65
432.79	4109.98
432.97	4056.15
433.16	4100.62
433.35	4194.24
433.54	3995.29
433.72	4294.88
433.91	4152.11
434.10	4245.73
434.28	4236.37
434.47	4255.09
434.66	4329.99
434.85	4402.55
435.03	4444.68
435.22	4313.61
435.41	4538.30
435.59	4358.08
435.78	4432.97
435.97	4344.03
436.16	4477.44
436.34	4386.16
436.53	4507.87
436.72	4519.57
436.90	4465.74
437.09	4484.47
437.28	4568.73
437.46	4613.20
437.65	4514.89
437.84	4461.06
438.02	4676.39
438.21	4610.86
438.40	4702.14
438.58	4702.14
438.77	4601.49
438.96	4807.46
439.14	4809.80
439.33	4990.02
439.52	4723.20
439.70	4826.18
439.89	5074.28
440.08	5053.22
440.26	5104.71
440.45	4945.55
440.63	5125.77
440.82	5289.61
441.01	5158.54
441.19	5245.14
441.38	5364.51
441.57	5345.78
441.75	5324.72
441.94	5610.26
442.12	5500.26
442.31	5352.81
442.50	5521.32
442.68	5596.22
442.87	5481.53
443.05	5446.43
443.24	5666.44
443.43	5668.78
443.61	5671.12
443.80	5916.87
443.98	5652.39
444.17	5568.13
444.35	5643.03
444.54	5736.65
444.73	5621.97
444.91	5596.22
445.10	5621.97
445.28	5762.40
445.47	5631.33
445.65	5664.10
445.84	5767.08
446.02	5727.29
446.21	5816.23
446.39	5746.02
446.58	5841.98
446.77	5776.44
446.95	5652.39
447.14	5715.59
447.32	5762.40
447.51	5750.70
447.69	5701.54
447.88	5813.89
448.06	5870.06
448.25	5818.57
448.43	5841.98
448.62	5830.27
448.80	5827.93
448.99	5849.00
449.17	6108.80
449.36	5928.58
449.54	6043.26
449.73	6141.57
449.91	6113.48
450.10	6174.33
450.28	6246.89
450.46	6253.91
450.65	6143.91
450.83	6263.27
451.02	6359.24
451.20	6368.60
451.39	6218.80
451.57	6230.51
451.76	6186.04
451.94	6303.06
452.13	6396.68
452.31	6406.05
452.49	6328.81
452.68	6527.75
452.86	6303.06
453.05	6349.87
453.23	6473.92
453.42	6331.15
453.60	6403.71
453.78	6555.84
453.97	6443.49
454.15	6438.81
454.34	6476.26
454.52	6576.91
454.70	6614.35
454.89	6623.72
455.07	6534.78
455.26	6443.49
455.44	6857.77
455.62	6775.85
455.81	6710.32
455.99	6761.81
456.17	6848.41
456.36	6927.99
456.54	6820.32
456.73	6946.71
456.91	7117.57
457.09	6998.20
457.28	7110.55
457.46	6883.52
457.64	7136.29
457.83	7061.40
458.01	7115.23
458.19	7171.40
458.38	7199.49
458.56	7206.51
458.74	7279.07
458.93	7353.96
459.11	7377.37
459.29	7262.68
459.48	7318.86
459.66	7227.57
459.84	7543.55
460.03	7707.38
460.21	7548.23
460.39	7293.11
460.57	7349.28
460.76	7616.10
460.94	7461.63
461.12	7485.03
461.31	7440.56
461.49	7478.01
461.67	7564.61
461.85	7735.47
462.04	7676.96
462.22	8060.80
462.40	7803.35
462.59	7812.71
462.77	7733.13
462.95	7796.32
463.13	7908.67
463.32	7950.80
463.50	8002.29
463.68	8231.66
463.86	7918.03
464.05	7793.98
464.23	7768.24
464.41	8135.70
464.59	7868.88
464.78	8135.70
464.96	7969.52
465.14	7826.75
465.32	8149.75
465.50	8255.07
465.69	8187.19
465.87	8163.79
466.05	8334.65
466.23	8222.30
466.41	8222.30
466.60	8135.70
466.78	8161.45
466.96	8414.23
467.14	8479.76
467.32	8177.83
467.51	8407.20
467.69	8180.17
467.87	8187.19
468.05	8585.08
468.23	8397.84
468.41	8437.63
468.60	8519.55
468.78	8844.88
468.96	8699.77
469.14	8667.00
469.32	8748.92
469.50	8465.72
469.69	8477.42
469.87	8872.97
470.05	8589.77
470.23	8842.54
470.41	8730.20
470.59	8816.80
470.77	8753.60
470.95	8861.27
471.14	9060.21
471.32	8982.98
471.50	9195.96
471.68	9256.82
471.86	9296.61
472.04	9217.03
472.22	9518.96
472.40	9245.12
472.58	9240.44
472.77	9460.45
472.95	9453.42
473.13	9750.67
473.31	9554.07
473.49	9591.52
473.67	9514.28
473.85	9617.26
474.03	9750.67
474.21	9689.82
474.39	9905.15
474.57	9823.23
474.75	10052.60
474.93	10214.10
475.12	9975.36
475.30	10146.22
475.48	9980.04
475.66	10277.29
475.84	10043.24
476.02	10139.20
476.20	10235.16
476.38	10387.30
476.56	10829.66
476.74	10623.69
476.92	10452.83
477.10	10593.26
477.28	10778.17
477.46	10778.17
477.64	10780.51
477.82	11042.65
478.00	11089.46
478.18	11154.99
478.36	11178.40
478.54	11543.52
478.72	11412.45
478.90	11419.47
479.08	11768.21
479.26	12107.59
479.44	11775.24
479.62	12002.27
479.80	11962.48
479.98	11964.82
480.16	12383.77
480.34	12257.39
480.52	12451.65
480.70	12470.37
480.88	12273.77
481.06	12418.88
481.24	12620.17
481.41	13015.72
481.59	13116.36
481.77	13029.76
481.95	12769.96
482.13	13039.12
482.31	13116.36
482.49	13362.12
482.67	13561.06
482.85	13603.19
483.03	13788.10
483.21	13731.92
483.39	13811.50
483.57	13699.16
483.74	14008.11
483.92	13975.34
484.10	14164.92
484.28	14785.16
484.46	14649.41
484.64	14897.51
484.82	14714.95
485.00	14707.93
485.18	14822.61
485.35	15257.95
485.53	15220.50
485.71	15365.62
485.89	15602.01
486.07	15536.48
486.25	15639.46
486.43	15786.91
486.61	15721.38
486.78	15925.00
486.96	16065.44
487.14	16402.47
487.32	16170.76
487.50	16428.22
487.68	16229.27
487.85	16486.73
488.03	16964.20
488.21	17015.69
488.39	16915.05
488.57	17289.54
488.75	17383.16
488.92	17350.39
489.10	17900.42
489.28	17703.81
489.46	17603.17
489.64	17942.55
489.81	18349.80
489.99	18012.76
490.17	18492.57
490.35	18735.99
490.53	18750.03
490.70	18827.27
490.88	18984.09
491.06	19112.81
491.24	18738.33
491.41	19091.75
491.59	19243.88
491.77	19482.62
491.95	19403.04
492.13	19695.61
492.30	20025.62
492.48	20180.10
492.66	20168.40
492.84	20456.28
493.01	20315.85
493.19	20063.07
493.37	20692.68
493.54	20439.90
493.72	20779.28
493.90	20507.77
494.08	20996.95
494.25	21298.88
494.43	21123.33
494.61	21135.04
494.79	21392.50
494.96	21172.49
495.14	21518.89
495.32	22104.02
495.49	22061.89
495.67	22085.30
495.85	22204.66
496.02	22457.44
496.20	22431.69
496.38	22541.70
496.55	22644.68
496.73	23307.05
496.91	23082.36
497.09	23103.43
497.26	22848.31
497.44	22939.59
497.62	23608.98
497.79	23641.75
497.97	23496.64
498.14	23737.71
498.32	24051.34
498.50	23828.99
498.67	24191.78
498.85	23957.72
499.03	24163.69
499.20	24011.56
499.38	24161.35
499.56	24322.85
499.73	24856.49
499.91	24861.17
500.08	25125.65
500.26	24950.11
500.44	24388.38
500.61	25146.72
500.79	24711.38
500.97	25336.30
501.14	25825.47
501.32	25364.39
501.49	25551.63
501.67	25539.93
501.84	26162.51
502.02	25645.25
502.20	25607.80
502.37	25874.62
502.55	25993.99
502.72	26279.54
502.90	25972.92
503.07	25919.09
503.25	26052.50
503.43	26082.93
503.60	26457.42
503.78	26752.32
503.95	26747.64
504.13	26693.81
504.30	26974.67
504.48	26757.00
504.65	26761.69
504.83	26955.95
505.01	27428.74
505.18	27470.87
505.36	27576.19
505.53	27550.45
505.71	27679.18
505.88	27751.73
506.06	27718.96
506.23	27845.35
506.41	27953.02
506.58	27550.45
506.76	28203.46
506.93	28175.37
507.11	28144.94
507.28	27845.35
507.46	28348.57
507.63	28517.09
507.81	28449.21
507.98	28320.48
508.16	28613.05
508.33	29043.71
508.50	28900.94
508.68	29195.84
508.85	29043.71
509.03	28891.57
509.20	29048.39
509.38	29284.78
509.55	29401.81
509.73	29509.47
509.90	29479.05
510.08	29521.18
510.25	29544.58
510.42	29546.92
510.60	30082.91
510.77	30394.20
510.95	30712.51
511.12	30190.57
511.30	30085.25
511.47	30213.98
511.64	30670.38
511.82	30948.90
511.99	30412.92
512.17	30883.37
512.34	30518.25
512.51	31175.94
512.69	31082.31
512.86	31014.44
513.04	31232.11
513.21	31019.12
513.38	31398.29
513.56	31152.53
513.73	31264.88
513.90	31679.15
514.08	31321.05
514.25	31578.51
514.43	32051.30
514.60	31990.44
514.77	32465.57
514.95	32133.21
515.12	31997.46
515.29	31821.92
515.47	32137.90
515.64	32357.91
515.81	32243.22
515.99	32318.12
516.16	32788.56
516.33	32598.98
516.51	32725.37
516.68	32620.05
516.85	32648.13
517.03	33034.32
517.20	33158.37
517.37	33394.76
517.54	32809.63
517.72	33256.67
517.89	32952.40
518.06	33441.57
518.24	33354.97
518.41	33205.18
518.58	33284.76
518.75	33317.53
518.93	33514.13
519.10	33373.70
519.27	33827.76
519.45	33638.18
519.62	34087.56
519.79	34026.71
519.96	34178.84
520.14	34309.91
520.31	34209.27
520.48	34487.79
520.65	34164.80
520.83	34712.49
521.00	34820.15
521.17	35035.48
521.34	34724.19
521.52	34710.14
521.69	34998.03
521.86	35138.46
522.03	35108.04
522.20	35150.17
522.38	35330.39
522.55	35491.88
522.72	35271.87
522.89	35269.53
523.07	35716.58
523.24	35613.59
523.41	35796.15
523.58	35606.57
523.75	35945.95
523.92	36023.19
524.10	35915.52
524.27	35964.67
524.44	35922.54
524.61	36301.71
524.78	36563.85
524.96	36306.39
525.13	36594.28
525.30	35931.90
525.47	36666.83
525.64	36474.91
525.81	36568.53
525.98	36734.71
526.16	36697.26
526.33	36547.47
526.50	36854.08
526.67	36510.02
526.84	36795.56
527.01	37209.84
527.18	36825.99
527.36	36776.84
527.53	36989.83
527.70	37486.02
527.87	37706.03
528.04	37041.32
528.21	37376.01
528.38	37652.20
528.55	37586.66
528.72	37570.28
528.89	37441.55
529.07	37326.86
529.24	37516.45
529.41	38024.34
529.58	37862.85
529.75	37755.18
529.92	37787.95
530.09	38036.05
530.26	37970.51
530.43	38064.13
530.60	37958.81
530.77	38050.09
530.94	38642.24
531.11	38073.49
531.28	38354.36
531.46	38373.08
531.63	38359.04
531.80	38244.35
531.97	39012.05
532.14	38841.19
532.31	38653.95
532.48	38976.94
532.65	39091.63
532.82	39129.08
532.99	38801.40
533.16	38775.66
533.33	38719.48
533.50	39725.91
533.67	39047.16
533.84	38618.84
534.01	39082.27
534.18	39367.81
534.35	39618.25
534.52	39269.51
534.69	39665.06
534.86	39721.23
535.03	39515.26
535.20	39852.30
535.37	39861.66
535.54	40154.23
535.71	39445.05
535.88	39793.79
536.05	39924.86
536.22	39927.20
536.38	39665.06
536.55	39887.41
536.72	39917.84
536.89	39927.20
537.06	39899.11
537.23	40479.57
537.40	39910.82
537.57	40243.17
537.74	40341.47
537.91	40713.62
538.08	40697.24
538.25	40552.12
538.42	40704.26
538.59	41160.66
538.75	40720.64
538.92	41078.74
539.09	40678.51
539.26	40758.09
539.43	40971.08
539.60	41088.10
539.77	40554.46
539.94	41280.03
540.11	41151.30
540.28	41397.06
540.44	40802.56
540.61	41298.75
540.78	41488.34
540.95	41043.63
541.12	41139.60
541.29	41296.41
541.46	41336.20
541.62	41610.04
541.79	41401.74
541.96	41326.84
542.13	41153.64
542.30	41549.19
542.47	41640.47
542.63	41696.64
542.80	41818.35
542.97	42134.32
543.14	42307.52
543.31	41846.44
543.48	42539.24
543.64	42799.04
543.81	42260.71
543.98	42195.18
544.15	42071.13
544.32	42529.87
544.48	42710.10
544.65	42789.67
544.82	42588.39
544.99	42117.94
545.16	42665.63
545.32	42607.11
545.49	42969.90
545.66	43274.16
545.83	42988.62
546.00	42864.57
546.16	42789.67
546.33	42808.40
546.50	42618.81
546.67	43316.29
546.83	42827.12
547.00	43210.97
547.17	42986.28
547.34	43175.86
547.50	43421.62
547.67	43739.93
547.84	43388.85
548.00	43335.02
548.17	43192.25
548.34	43573.75
548.51	43697.80
548.67	43992.71
548.84	43608.86
549.01	43753.97
549.18	43508.22
549.34	43798.44
549.51	43489.49
549.68	43959.94
549.84	43796.10
550.01	44055.90
550.18	43203.95
550.34	43852.28
550.51	43744.61
550.68	43952.92
550.84	43913.13
551.01	44224.42
551.18	43697.80
551.34	44037.18
551.51	44044.20
551.68	43978.67
551.84	44039.52
552.01	44149.53
552.18	44437.41
552.34	44004.41
552.51	44671.46
552.68	44149.53
552.84	44781.47
553.01	44311.02
553.18	44315.70
553.34	44591.89
553.51	44631.68
553.67	44563.80
553.84	44619.97
554.01	44912.54
554.17	44996.80
554.34	45184.04
554.51	44526.35
554.67	44973.39
554.84	45116.17
555.00	44657.42
555.17	45120.85
555.33	44814.24
555.50	45188.72
555.67	44727.64
555.83	44917.22
556.00	45500.01
556.16	45392.35
556.33	45352.56
556.50	45361.92
556.66	45106.80
556.83	44926.58
556.99	45324.47
557.16	45375.97
557.32	45294.05
557.49	45006.16
557.65	44814.24
557.82	45694.28
557.98	45485.97
558.15	45738.75
558.32	45804.28
558.48	45280.00
558.65	45682.58
558.81	45591.30
558.98	45427.46
559.14	45382.99
559.31	45666.19
559.47	45689.60
559.64	45911.95
559.80	46050.04
559.97	45876.84
560.13	45670.87
560.30	45757.47
560.46	46017.27
560.63	45736.41
560.79	46089.83
560.96	46181.11
561.12	46712.41
561.29	46225.58
561.45	46351.97
561.61	46106.21
561.78	45879.18
561.94	46190.47
562.11	45909.61
562.27	45996.21
562.44	45619.38
562.60	46398.78
562.77	46195.15
562.93	45970.46
563.10	46227.92
563.26	46000.89
563.42	46347.29
563.59	46110.89
563.75	46167.07
563.92	46541.55
564.08	46190.47
564.24	46866.89
564.41	46309.84
564.57	46354.31
564.74	46623.47
564.90	46358.99
565.07	46464.32
565.23	46841.14
565.39	46574.32
565.56	46429.21
565.72	46520.49
565.88	46286.43
566.05	46178.77
566.21	46642.20
566.38	46232.60
566.54	46703.05
566.70	46553.26
566.87	46614.11
567.03	46522.83
567.19	46791.99
567.36	46581.34
567.52	46223.24
567.68	46958.17
567.85	47047.11
568.01	47114.98
568.17	46773.27
568.34	46803.69
568.50	47098.60
568.66	46703.05
568.83	46845.82
568.99	46632.83
569.15	46801.35
569.32	46642.20
569.48	47044.77
569.64	47246.05
569.81	47000.30
569.97	46995.62
570.13	46913.70
570.30	46604.75
570.46	47194.56
570.62	47377.12
570.78	46799.01
570.95	47007.32
571.11	47215.63
571.27	46490.06
571.43	46653.90
571.60	47309.25
571.76	46864.55
571.92	46759.22
572.09	46714.75
572.25	47248.39
572.41	46944.12
572.57	47093.92
572.74	47842.89
572.90	47047.11
573.06	47241.37
573.22	46834.12
573.38	47386.49
573.55	47253.08
573.71	47648.63
573.87	47318.61
574.03	47201.58
574.20	47257.76
574.36	47533.94
574.52	47323.29
574.68	47489.47
574.84	47070.51
575.01	47346.70
575.17	47337.33
575.33	47201.58
575.49	47199.24
575.65	47030.72
575.82	47381.80
575.98	47012.00
576.14	47395.85
576.30	47746.93
576.46	47323.29
576.62	47456.70
576.79	47543.30
576.95	46761.56
577.11	47323.29
577.27	47484.79
577.43	47489.47
577.59	47498.83
577.75	47391.17
577.92	47339.68
578.08	47543.30
578.24	47276.48
578.40	47632.24
578.56	47826.51
578.72	47725.86
578.88	47622.88
579.04	47168.82
579.21	47494.15
579.37	47526.92
579.53	47831.19
579.69	47681.39
579.85	47578.41
580.01	47047.11
580.17	47358.40
580.33	47379.46
580.49	46951.15
580.65	47332.65
580.82	47643.94
580.98	47526.92
581.14	47381.80
581.30	47608.84
581.46	47229.67
581.62	47398.19
581.78	47344.36
581.94	47412.23
582.10	47540.96
582.26	47510.53
582.42	47690.76
582.58	47887.36
582.74	48013.75
582.90	47704.80
583.06	47779.70
583.22	47274.14
583.38	47306.91
583.54	47798.42
583.70	47817.14
583.86	47833.53
584.02	47372.44
584.18	47976.30
584.34	47873.32
584.50	48067.58
584.66	47896.72
584.82	47859.27
584.98	48105.03
585.14	47496.49
585.30	47543.30
585.46	47910.77
585.62	47569.05
585.78	47716.50
585.94	47016.68
586.10	48062.90
586.26	47461.38
586.42	47700.12
586.58	48112.05
586.74	47480.11
586.90	47416.91
587.06	47538.62
587.22	47742.25
587.38	47875.66
587.54	47700.12
587.70	48154.18
587.86	47615.86
588.02	47681.39
588.18	47725.86
588.34	47966.94
588.49	47810.12
588.65	48011.41
588.81	47711.82
588.97	48011.41
589.13	47817.14
589.29	48128.44
589.45	48294.61
589.61	47962.26
589.77	47962.26
589.93	47814.80
