SpectraSuite Data File
++++++++++++++++++++++++++++++++++++
Date: Fri Oct 25 10:43:33 EDT 2013
User: price-jones
Dark Spectrum Present: No
Reference Spectrum Present: No
Number of Sampled Component Spectra: 1
Spectrometers: USB2+H05261
Integration Time (usec): 100000 (USB2+H05261)
Spectra Averaged: 1 (USB2+H05261)
Boxcar Smoothing: 0 (USB2+H05261)
Correct for Electrical Dark: No (USB2+H05261)
Strobe/Lamp Enabled: No (USB2+H05261)
Correct for Detector Non-linearity: No (USB2+H05261)
Correct for Stray Light: No (USB2+H05261)
Number of Pixels in Processed Spectrum: 2048
>>>>>Begin Processed Spectral Data<<<<<
365.73	126.39
365.92	126.39
366.12	126.39
366.32	0.00
366.52	4.68
366.72	70.22
366.91	0.00
367.11	60.85
367.31	0.00
367.51	0.00
367.70	11.70
367.90	46.81
368.10	110.01
368.30	65.54
368.49	25.75
368.69	4.68
368.89	23.41
369.09	128.73
369.28	37.45
369.48	23.41
369.68	67.88
369.87	0.00
370.07	117.03
370.27	149.79
370.47	196.60
370.66	414.27
370.86	465.77
371.06	456.40
371.25	496.19
371.45	575.77
371.65	414.27
371.84	489.17
372.04	388.53
372.24	421.30
372.44	454.06
372.63	528.96
372.83	528.96
373.03	472.79
373.22	521.94
373.42	528.96
373.62	557.05
373.81	550.03
374.01	524.28
374.21	582.79
374.40	521.94
374.60	599.18
374.79	578.11
374.99	547.69
375.19	594.50
375.38	678.76
375.58	596.84
375.78	653.01
375.97	615.56
376.17	603.86
376.37	617.90
376.56	610.88
376.76	638.97
376.95	645.99
377.15	596.84
377.35	631.94
377.54	622.58
377.74	695.14
377.93	606.20
378.13	606.20
378.33	713.86
378.52	711.52
378.72	739.61
378.91	704.50
379.11	622.58
379.31	636.63
379.50	620.24
379.70	706.84
379.89	676.41
380.09	660.03
380.28	692.80
380.48	697.48
380.68	699.82
380.87	697.48
381.07	697.48
381.26	727.91
381.46	748.97
381.65	599.18
381.85	629.60
382.04	648.33
382.24	758.33
382.43	723.23
382.63	671.73
382.83	741.95
383.02	800.46
383.22	823.87
383.41	615.56
383.61	779.40
383.80	713.86
384.00	784.08
384.19	793.44
384.39	777.06
384.58	744.29
384.78	734.93
384.97	791.10
385.17	788.76
385.36	711.52
385.56	819.19
385.75	833.23
385.95	816.85
386.14	795.78
386.34	802.80
386.53	884.72
386.72	877.70
386.92	901.11
387.11	823.87
387.31	887.06
387.50	858.98
387.70	870.68
387.89	894.08
388.09	880.04
388.28	858.98
388.48	858.98
388.67	889.40
388.86	910.47
389.06	1036.86
389.25	1041.54
389.45	978.34
389.64	943.24
389.84	1053.24
390.03	966.64
390.22	1039.20
390.42	973.66
390.61	973.66
390.81	983.02
391.00	1081.33
391.19	1090.69
391.39	1076.65
391.58	1053.24
391.78	1050.90
391.97	968.98
392.16	1006.43
392.36	1132.82
392.55	1086.01
392.75	1004.09
392.94	1008.77
393.13	1053.24
393.33	964.30
393.52	1046.22
393.71	1104.73
393.91	1095.37
394.10	1144.52
394.29	1107.07
394.49	1137.50
394.68	1242.82
394.88	1188.99
395.07	1254.53
395.26	1146.86
395.46	1240.48
395.65	1231.12
395.84	1231.12
396.04	1196.01
396.23	1160.91
396.42	1104.73
396.62	1160.91
396.81	1261.55
397.00	1116.44
397.19	1299.00
397.39	1233.46
397.58	1430.07
397.77	1315.38
397.97	1486.24
398.16	1490.92
398.35	1355.17
398.55	1455.81
398.74	1444.11
398.93	1446.45
399.12	1504.96
399.32	1504.96
399.51	1516.67
399.70	1558.80
399.90	1647.74
400.09	1577.52
400.28	1657.10
400.47	1621.99
400.67	1699.23
400.86	1629.01
401.05	1696.89
401.24	1680.50
401.44	1792.85
401.63	1795.19
401.82	1659.44
402.01	1743.70
402.21	1715.61
402.40	1781.15
402.59	1659.44
402.78	1710.93
402.97	1816.26
403.17	1799.87
403.36	1902.86
403.55	1863.07
403.74	1930.94
403.93	1856.04
404.13	1914.56
404.32	1949.67
404.51	1856.04
404.70	1952.01
404.89	2003.50
405.09	2015.20
405.28	1937.96
405.47	2010.52
405.66	1977.75
405.85	2057.33
406.05	1994.14
406.24	2033.93
406.43	1994.14
406.62	2073.71
406.81	2090.10
407.00	2097.12
407.20	2080.74
407.39	2071.37
407.58	2115.84
407.77	2146.27
407.96	2209.47
408.15	2190.74
408.34	2211.81
408.54	2363.94
408.73	2333.51
408.92	2225.85
409.11	2354.58
409.30	2415.43
409.49	2242.23
409.68	2244.57
409.87	2282.02
410.07	2361.60
410.26	2389.69
410.45	2319.47
410.64	2436.50
410.83	2480.97
411.02	2539.48
411.21	2710.34
411.40	2572.25
411.59	2534.80
411.78	2710.34
411.98	2612.04
412.17	2516.08
412.36	2651.83
412.55	2775.88
412.74	2832.05
412.93	2818.00
413.12	2771.19
413.31	2911.63
413.50	2815.66
413.69	2782.90
413.88	2780.56
414.07	2965.46
414.26	3016.95
414.45	3014.61
414.64	3007.59
414.83	3141.00
415.02	3096.53
415.22	3124.62
415.41	3211.22
415.60	3150.36
415.79	3169.09
415.98	3412.50
416.17	3220.58
416.36	3363.35
416.55	3236.96
416.74	3311.86
416.93	3297.81
417.12	3335.26
417.31	3225.26
417.50	3337.60
417.69	3552.93
417.88	3461.65
418.07	3459.31
418.26	3473.36
418.45	3541.23
418.64	3674.64
418.83	3613.79
419.02	3562.30
419.21	3695.71
419.39	3686.34
419.58	3613.79
419.77	3672.30
419.96	3548.25
420.15	3801.03
420.34	3733.15
420.53	3728.47
420.72	3857.20
420.91	3754.22
421.10	3911.04
421.29	3889.97
421.48	3810.39
421.67	3836.14
421.86	3786.99
422.05	3777.62
422.24	3742.52
422.43	3798.69
422.61	3714.43
422.80	3985.93
422.99	3943.80
423.18	3967.21
423.37	3925.08
423.56	4009.34
423.75	3964.87
423.94	3805.71
424.13	3684.00
424.32	3791.67
424.50	4077.21
424.69	4117.00
424.88	4147.43
425.07	3850.18
425.26	3906.35
425.45	3967.21
425.64	3992.95
425.83	3873.59
426.01	4095.94
426.20	4119.34
426.39	3990.61
426.58	3985.93
426.77	4060.83
426.96	3950.82
427.15	4074.87
427.33	3997.64
427.52	4126.36
427.71	4109.98
427.90	4079.55
428.09	4128.70
428.28	4077.21
428.46	4124.02
428.65	4344.03
428.84	4196.58
429.03	4395.53
429.22	4049.13
429.40	4028.06
429.59	4163.81
429.78	3955.51
429.97	3918.06
430.16	3936.78
430.34	3974.23
430.53	4271.48
430.72	4252.75
430.91	4311.27
431.10	4456.38
431.28	4645.96
431.47	4561.70
431.66	4606.17
431.85	4491.49
432.03	4636.60
432.22	4718.52
432.41	4671.71
432.60	4732.56
432.79	4592.13
432.97	4692.77
433.16	4683.41
433.35	4660.01
433.54	4730.22
433.72	4695.11
433.91	4704.48
434.10	4706.82
434.28	4711.50
434.47	4964.28
434.66	5018.11
434.85	4905.76
435.03	5046.20
435.22	4926.83
435.41	5060.24
435.59	5151.52
435.78	5062.58
435.97	5179.61
436.16	5027.47
436.34	5139.82
436.53	5181.95
436.72	5240.46
436.90	5252.16
437.09	5233.44
437.28	5118.75
437.46	5179.61
437.65	5179.61
437.84	5231.10
438.02	5036.83
438.21	5266.21
438.40	5198.33
438.58	5345.78
438.77	5341.10
438.96	5460.47
439.14	5535.37
439.33	5797.51
439.52	5657.07
439.70	5619.63
439.89	5659.42
440.08	5645.37
440.26	5724.95
440.45	5834.96
440.63	5921.56
440.82	5916.87
441.01	5844.32
441.19	6019.86
441.38	6047.94
441.57	6162.63
441.75	6134.54
441.94	6384.98
442.12	6272.64
442.31	6394.34
442.50	6382.64
442.68	6363.92
442.87	6408.39
443.05	6324.13
443.24	6534.78
443.43	6684.57
443.61	6530.09
443.80	6534.78
443.98	6410.73
444.17	6305.40
444.35	6480.94
444.54	6644.78
444.73	6394.34
444.91	6616.69
445.10	6546.48
445.28	6487.96
445.47	6523.07
445.65	6436.47
445.84	6555.84
446.02	6574.56
446.21	6422.43
446.39	6595.63
446.58	6567.54
446.77	6766.49
446.95	6593.29
447.14	6717.34
447.32	6841.39
447.51	6703.29
447.69	6785.21
447.88	6759.47
448.06	6761.81
448.25	6560.52
448.43	6993.52
448.62	6820.32
448.80	6794.58
448.99	6867.13
449.17	6881.18
449.36	6808.62
449.54	7012.24
449.73	7157.36
449.91	7005.22
450.10	7208.85
450.28	7229.91
450.46	7269.70
450.65	7351.62
450.83	7077.78
451.02	7384.39
451.20	7370.35
451.39	7365.67
451.57	7061.40
451.76	7382.05
451.94	7138.63
452.13	7276.73
452.31	7283.75
452.49	7243.96
452.68	7279.07
452.86	7206.51
453.05	7297.79
453.23	7342.26
453.42	7293.11
453.60	7503.76
453.78	7496.74
453.97	7405.46
454.15	7386.73
454.34	7236.94
454.52	7447.58
454.70	7609.08
454.89	7679.30
455.07	7758.88
455.26	7529.50
455.44	7719.09
455.62	7817.39
455.81	7744.83
455.99	7981.23
456.17	7906.33
456.36	7946.12
456.54	7723.77
456.73	8030.38
456.91	8355.71
457.09	8145.06
457.28	8318.26
457.46	8098.25
457.64	8109.96
457.83	7969.52
458.01	8219.96
458.19	8255.07
458.38	7981.23
458.56	8255.07
458.74	8414.23
458.93	8107.62
459.11	8163.79
459.29	8234.00
459.48	8236.35
459.66	8414.23
459.84	8491.46
460.03	8664.66
460.21	8613.17
460.39	8659.98
460.57	8596.79
460.76	8580.40
460.94	8786.37
461.12	8582.74
461.31	8802.75
461.49	8655.30
461.67	8894.04
461.85	8802.75
462.04	8915.10
462.22	9345.76
462.40	9032.13
462.59	8879.99
462.77	8814.46
462.95	9053.19
463.13	8947.87
463.32	9069.58
463.50	9085.96
463.68	9022.77
463.86	9043.83
464.05	8751.26
464.23	8940.85
464.41	8957.23
464.59	8872.97
464.78	9217.03
464.96	8982.98
465.14	9022.77
465.32	9390.23
465.50	9373.85
465.69	9245.12
465.87	9146.81
466.05	9441.72
466.23	9128.09
466.41	9167.88
466.60	9497.89
466.78	9249.80
466.96	9282.56
467.14	9308.31
467.32	9273.20
467.51	9563.43
467.69	9219.37
467.87	9479.17
468.05	9579.81
468.23	9497.89
468.41	9481.51
468.60	9415.98
468.78	9654.71
468.96	9460.45
469.14	9877.06
469.32	9598.54
469.50	9467.47
469.69	9720.24
469.87	9823.23
470.05	9767.06
470.23	9933.23
470.41	9652.37
470.59	9900.47
470.77	9884.08
470.95	9951.96
471.14	10354.53
471.32	10078.35
471.50	10296.02
471.68	10230.48
471.86	10277.29
472.04	10480.92
472.22	10693.91
472.40	10207.08
472.58	10586.24
472.77	10555.82
472.95	10637.73
473.13	11119.89
473.31	10487.94
473.49	10651.78
473.67	10700.93
473.85	10602.63
474.03	10923.28
474.21	10946.69
474.39	11286.06
474.57	10869.45
474.75	11117.54
474.93	11236.91
475.12	11281.38
475.30	11531.82
475.48	10991.16
475.66	11365.64
475.84	11522.46
476.02	11541.18
476.20	11351.60
476.38	11817.36
476.56	11871.20
476.74	12121.63
476.92	11775.24
477.10	11873.54
477.28	12077.16
477.46	12121.63
477.64	12212.92
477.82	12486.76
478.00	12940.82
478.18	12442.29
478.36	12547.61
478.54	12641.23
478.72	12784.01
478.90	13011.04
479.08	13160.83
479.26	13247.43
479.44	13261.48
479.62	13319.99
479.80	13217.01
479.98	13561.06
480.16	13664.05
480.34	13532.98
480.52	13671.07
480.70	13703.84
480.88	13664.05
481.06	13886.40
481.24	14239.82
481.41	14471.53
481.59	14340.46
481.77	14431.74
481.95	14429.40
482.13	14658.78
482.31	14602.60
482.49	15026.24
482.67	15171.35
482.85	15150.29
483.03	15054.33
483.21	15499.03
483.39	15431.15
483.57	15616.05
483.74	15321.15
483.92	15756.49
484.10	15295.40
484.28	15733.08
484.46	16161.40
484.64	16240.98
484.82	16035.01
485.00	16098.20
485.18	16695.04
485.35	16432.90
485.53	16105.23
485.71	16093.52
485.89	16372.05
486.07	16437.58
486.25	16650.57
486.43	17015.69
486.61	16931.44
486.78	17282.52
486.96	17427.63
487.14	17818.50
487.32	18019.78
487.50	18087.66
487.68	18312.35
487.85	18384.91
488.03	18497.25
488.21	18752.37
488.39	18494.91
488.57	18752.37
488.75	18761.73
488.92	19007.49
489.10	19470.92
489.28	19421.77
489.46	19744.76
489.64	19810.29
489.81	20297.13
489.99	20189.46
490.17	20119.24
490.35	20154.35
490.53	20428.20
490.70	20552.24
490.88	20372.02
491.06	20449.26
491.24	21142.06
491.41	20549.90
491.59	20641.18
491.77	20760.55
491.95	20929.07
492.13	21652.30
492.30	21425.26
492.48	21813.79
492.66	21869.97
492.84	22162.53
493.01	22068.91
493.19	22082.95
493.37	22361.48
493.54	22302.96
493.72	22759.37
493.90	22607.23
494.08	23152.58
494.25	23007.47
494.43	23332.80
494.61	23534.09
494.79	23318.76
494.96	23412.38
495.14	23723.67
495.32	23831.33
495.49	23491.96
495.67	23733.03
495.85	24397.74
496.02	24603.71
496.20	24357.96
496.38	24395.40
496.55	24442.21
496.73	24992.24
496.91	24819.04
497.09	24936.07
497.26	24994.58
497.44	25263.74
497.62	25378.43
497.79	25521.20
497.97	25172.46
498.14	25432.26
498.32	25788.02
498.50	25619.50
498.67	26066.55
498.85	26064.21
499.03	26487.84
499.20	26136.76
499.38	26387.20
499.56	26541.68
499.73	26015.05
499.91	26548.70
500.08	26691.47
500.26	26508.91
500.44	26281.88
500.61	26539.33
500.79	26345.07
500.97	26661.04
501.14	27321.07
501.32	27316.39
501.49	27316.39
501.67	27194.68
501.84	27428.74
502.02	27709.60
502.20	27725.99
502.37	27892.16
502.55	27300.01
502.72	27964.72
502.90	28203.46
503.07	27899.19
503.25	27953.02
503.43	27941.32
503.60	28306.44
503.78	28290.06
503.95	28144.94
504.13	28620.07
504.30	28704.33
504.48	28680.92
504.65	28907.96
504.83	29090.52
505.01	29369.04
505.18	29319.89
505.36	28922.00
505.53	29303.51
505.71	29949.50
505.88	29469.69
506.06	29788.00
506.23	29788.00
506.41	29422.87
506.58	30235.04
506.76	29750.55
506.93	30029.07
507.11	30010.35
507.28	29984.60
507.46	30017.37
507.63	30047.80
507.81	30611.87
507.98	30115.67
508.16	30232.70
508.33	30553.35
508.50	30813.15
508.68	30937.20
508.85	31239.13
509.03	30574.42
509.20	31484.89
509.38	31321.05
509.55	31679.15
509.73	31405.31
509.90	31178.28
510.08	31431.05
510.25	31459.14
510.42	31417.01
510.60	32149.60
510.77	31927.25
510.95	32119.17
511.12	31711.92
511.30	32189.39
511.47	32346.20
511.64	32627.07
511.82	32617.71
511.99	32290.03
512.17	32268.97
512.34	31992.78
512.51	32519.40
512.69	32610.68
512.86	32790.91
513.04	33083.47
513.21	32823.67
513.38	32943.04
513.56	32793.25
513.73	32554.51
513.90	33069.43
514.08	32837.72
514.25	33104.54
514.43	33113.90
514.60	33493.07
514.77	33364.34
514.95	33511.79
515.12	33890.96
515.29	34033.73
515.47	33722.44
515.64	34085.22
515.81	33993.94
515.99	33563.28
516.16	33923.72
516.33	33610.09
516.51	34202.25
516.68	33570.30
516.85	32856.44
517.03	33429.87
517.20	33553.92
517.37	34153.10
517.54	34345.02
517.72	33954.15
517.89	34047.77
518.06	34204.59
518.24	34555.67
518.41	34251.40
518.58	34513.54
518.75	34792.06
518.93	35206.34
519.10	35175.91
519.27	35204.00
519.45	35096.33
519.62	35236.77
519.79	35466.14
519.96	35016.75
520.14	35559.76
520.31	35510.61
520.48	35936.59
520.65	35311.66
520.83	35882.75
521.00	35838.28
521.17	35695.51
521.34	35871.05
521.52	36194.04
521.69	36126.17
521.86	36313.41
522.03	36156.60
522.20	36357.88
522.38	36432.78
522.55	36278.30
522.72	36240.86
522.89	36161.28
523.07	36809.61
523.24	36854.08
523.41	37170.05
523.58	36643.43
523.75	37333.89
523.92	37652.20
524.10	37397.08
524.27	37621.77
524.44	37350.27
524.61	37024.93
524.78	37415.80
524.96	37425.17
525.13	37418.14
525.30	37638.15
525.47	37699.01
525.64	37703.69
525.81	37303.46
525.98	37258.99
526.16	37832.42
526.33	37237.92
526.50	37294.10
526.67	37521.13
526.84	37481.34
527.01	37326.86
527.18	37593.68
527.36	38108.60
527.53	38494.79
527.70	38593.09
527.87	38555.64
528.04	38326.27
528.21	38588.41
528.38	38515.86
528.55	38504.15
528.72	38876.30
528.89	39009.71
529.07	39005.03
529.24	38728.84
529.41	39234.40
529.58	38911.41
529.75	38492.45
529.92	39180.57
530.09	39299.94
530.26	39271.85
530.43	39210.99
530.60	39140.78
530.77	39328.02
530.94	39431.01
531.11	39196.95
531.28	39562.08
531.46	40156.57
531.63	39566.76
531.80	39501.22
531.97	39143.12
532.14	39271.85
532.31	39311.64
532.48	39449.73
532.65	39445.05
532.82	39597.18
532.99	39557.39
533.16	39805.49
533.33	39917.84
533.50	39922.52
533.67	39763.36
533.84	39676.76
534.01	40112.10
534.18	40034.86
534.35	40318.07
534.52	40320.41
534.69	40704.26
534.86	40378.92
535.03	40327.43
535.20	40765.11
535.37	41144.28
535.54	41022.57
535.71	40938.31
535.88	40816.60
536.05	40755.75
536.22	40889.16
536.38	40748.73
536.55	40751.07
536.72	40620.00
536.89	40765.11
537.06	40711.28
537.23	40687.87
537.40	40950.01
537.57	41118.53
537.74	41408.76
537.91	41652.17
538.08	40645.74
538.25	40942.99
538.42	41453.23
538.59	41462.59
538.75	40868.09
538.92	41163.00
539.09	41586.64
539.26	41858.14
539.43	41366.63
539.60	41303.43
539.77	41418.12
539.94	41741.11
540.11	41378.33
540.28	41792.61
540.44	41593.66
540.61	41230.88
540.78	41228.54
540.95	41429.82
541.12	41378.33
541.29	41675.58
541.46	41717.71
541.62	41998.57
541.79	42270.08
541.96	41443.87
542.13	41818.35
542.30	41741.11
542.47	41893.25
542.63	42005.59
542.80	42026.66
542.97	42429.23
543.14	42794.36
543.31	42597.75
543.48	42621.16
543.64	42733.50
543.81	43091.60
543.98	42686.69
544.15	42796.70
544.32	43037.77
544.48	43592.48
544.65	42766.27
544.82	42976.92
544.99	42925.42
545.16	43000.32
545.32	42944.15
545.49	43377.15
545.66	43143.09
545.83	43089.26
546.00	43452.05
546.16	43147.78
546.33	42976.92
546.50	42909.04
546.67	43433.32
546.83	42747.54
547.00	43016.71
547.17	42808.40
547.34	43339.70
547.50	43227.35
547.67	43725.89
547.84	43672.06
548.00	43648.65
548.17	43910.79
548.34	43861.64
548.51	43889.73
548.67	43957.60
548.84	43730.57
549.01	43686.10
549.18	43459.07
549.34	43599.50
549.51	43730.57
549.68	44210.38
549.84	43903.77
550.01	44240.81
550.18	44147.18
550.34	44013.77
550.51	43552.69
550.68	43999.73
550.84	43878.02
551.01	43985.69
551.18	44158.89
551.34	44212.72
551.51	44299.32
551.68	44477.20
551.84	44329.75
552.01	44568.48
552.18	44156.55
552.34	44142.50
552.51	44217.40
552.68	44744.02
552.84	44357.83
553.01	43997.39
553.18	44254.85
553.34	44811.90
553.51	44336.77
553.67	44521.67
553.84	44769.77
554.01	45205.11
554.17	44641.04
554.34	44942.97
554.51	44432.73
554.67	44823.60
554.84	44903.18
555.00	44772.11
555.17	44266.55
555.33	44751.04
555.50	44928.92
555.67	44744.02
555.83	44495.92
556.00	44779.13
556.16	45310.43
556.33	45092.76
556.50	45022.54
556.66	44851.69
556.83	44608.27
556.99	44928.92
557.16	44996.80
557.32	45162.98
557.49	45076.38
557.65	44938.29
557.82	44851.69
557.98	45148.93
558.15	45289.37
558.32	45177.02
558.48	44547.42
558.65	45378.31
558.81	44755.72
558.98	44790.83
559.14	44961.69
559.31	45071.70
559.47	45076.38
559.64	45244.90
559.80	45102.12
559.97	45500.01
560.13	45015.52
560.30	45361.92
560.46	45043.61
560.63	45165.32
560.79	45663.85
560.96	45492.99
561.12	45322.13
561.29	45125.53
561.45	45272.98
561.61	45434.48
561.78	45184.04
561.94	45027.23
562.11	45483.63
562.27	45036.59
562.44	45460.23
562.60	45427.46
562.77	45645.13
562.93	45553.85
563.10	45691.94
563.26	44926.58
563.42	45535.12
563.59	45806.62
563.75	45659.17
563.92	45799.60
564.08	45425.12
564.24	46174.09
564.41	45258.94
564.57	45998.55
564.74	45556.19
564.90	45694.28
565.07	45806.62
565.23	45432.14
565.39	45783.22
565.56	45731.73
565.72	45670.87
565.88	45572.57
566.05	45237.87
566.21	45607.68
566.38	45530.44
566.54	45668.53
566.70	46110.89
566.87	46085.15
567.03	46122.60
567.19	46265.37
567.36	46078.13
567.52	46181.11
567.68	46005.57
567.85	45607.68
568.01	45841.73
568.17	45446.18
568.34	46300.48
568.50	45773.86
568.66	45785.56
568.83	46000.89
568.99	45689.60
569.15	45628.74
569.32	45820.67
569.48	45462.57
569.64	45970.46
569.81	45858.12
569.97	45661.51
570.13	45689.60
570.30	45404.05
570.46	45528.10
570.62	45469.59
570.78	45069.36
570.95	45034.25
571.11	45649.81
571.27	45371.28
571.43	45663.85
571.60	46096.85
571.76	46131.96
571.92	45801.94
572.09	46007.91
572.25	46185.79
572.41	46260.69
572.57	46110.89
572.74	46368.35
572.90	45790.24
573.06	46293.46
573.22	45914.29
573.38	45729.39
573.55	45940.04
573.71	46199.83
573.87	45963.44
574.03	45787.90
574.20	46148.34
574.36	45855.78
574.52	45984.51
574.68	46071.10
574.84	45935.35
575.01	45724.71
575.17	45778.54
575.33	45961.10
575.49	45867.48
575.65	46115.58
575.82	46342.61
575.98	45830.03
576.14	46082.81
576.30	46134.30
576.46	45677.90
576.62	45713.00
576.79	45886.20
576.95	45610.02
577.11	46328.56
577.27	46141.32
577.43	45902.59
577.59	45944.72
577.75	45518.74
577.92	45162.98
578.08	45340.86
578.24	45366.60
578.40	46014.93
578.56	46225.58
578.72	45914.29
578.88	46602.41
579.04	46288.77
579.21	45895.56
579.37	46178.77
579.53	46078.13
579.69	45837.05
579.85	46117.92
580.01	46059.40
580.17	46033.66
580.33	46237.28
580.49	46085.15
580.65	46024.29
580.82	45993.87
580.98	45670.87
581.14	45626.40
581.30	46373.03
581.46	46171.75
581.62	46216.22
581.78	45921.31
581.94	46511.13
582.10	46181.11
582.26	46160.05
582.42	45874.50
582.58	45954.08
582.74	45890.88
582.90	46450.27
583.06	46265.37
583.22	46031.32
583.38	46356.65
583.54	46431.55
583.70	46412.82
583.86	45846.41
584.02	46103.87
584.18	46223.24
584.34	46319.20
584.50	46607.09
584.66	46677.30
584.82	45949.40
584.98	46265.37
585.14	46515.81
585.30	46256.01
585.46	45951.74
585.62	45813.65
585.78	45862.80
585.94	45647.47
586.10	45844.07
586.26	45717.68
586.42	46003.23
586.58	46330.90
586.74	46265.37
586.90	46253.67
587.06	45925.99
587.22	46162.39
587.38	46005.57
587.54	46342.61
587.70	46204.52
587.86	45478.95
588.02	45914.29
588.18	46454.95
588.34	45558.53
588.49	45827.69
588.65	45436.82
588.81	46028.98
588.97	45689.60
589.13	45581.93
589.29	45787.90
589.45	45691.94
589.61	45717.68
589.77	46047.70
589.93	46256.01
