SpectraSuite Data File
++++++++++++++++++++++++++++++++++++
Date: Fri Oct 25 10:48:34 EDT 2013
User: price-jones
Dark Spectrum Present: No
Reference Spectrum Present: No
Number of Sampled Component Spectra: 1
Spectrometers: USB2+H05261
Integration Time (usec): 100000 (USB2+H05261)
Spectra Averaged: 1 (USB2+H05261)
Boxcar Smoothing: 0 (USB2+H05261)
Correct for Electrical Dark: No (USB2+H05261)
Strobe/Lamp Enabled: No (USB2+H05261)
Correct for Detector Non-linearity: No (USB2+H05261)
Correct for Stray Light: No (USB2+H05261)
Number of Pixels in Processed Spectrum: 2048
>>>>>Begin Processed Spectral Data<<<<<
365.73	159.16
365.92	159.16
366.12	159.16
366.32	42.13
366.52	11.70
366.72	95.96
366.91	72.56
367.11	14.04
367.31	25.75
367.51	37.45
367.70	0.00
367.90	81.92
368.10	56.17
368.30	39.79
368.49	53.83
368.69	72.56
368.89	93.62
369.09	79.58
369.28	46.81
369.48	23.41
369.68	16.38
369.87	105.32
370.07	149.79
370.27	152.13
370.47	217.67
370.66	407.25
370.86	421.30
371.06	524.28
371.25	500.87
371.45	435.34
371.65	477.47
371.84	465.77
372.04	533.64
372.24	552.37
372.44	557.05
372.63	526.62
372.83	512.58
373.03	578.11
373.22	489.17
373.42	575.77
373.62	585.13
373.81	557.05
374.01	690.46
374.21	596.84
374.40	543.00
374.60	636.63
374.79	631.94
374.99	662.37
375.19	713.86
375.38	643.65
375.58	589.82
375.78	613.22
375.97	615.56
376.17	709.18
376.37	688.12
376.56	699.82
376.76	692.80
376.95	718.54
377.15	753.65
377.35	671.73
377.54	674.07
377.74	746.63
377.93	758.33
378.13	601.52
378.33	746.63
378.52	748.97
378.72	758.33
378.91	711.52
379.11	650.67
379.31	741.95
379.50	730.25
379.70	695.14
379.89	765.36
380.09	732.59
380.28	685.78
380.48	709.18
380.68	636.63
380.87	781.74
381.07	781.74
381.26	753.65
381.46	676.41
381.65	765.36
381.85	755.99
382.04	720.88
382.24	704.50
382.43	748.97
382.63	697.48
382.83	739.61
383.02	805.14
383.22	823.87
383.41	678.76
383.61	798.12
383.80	823.87
384.00	835.57
384.19	858.98
384.39	891.74
384.58	805.14
384.78	873.02
384.97	800.46
385.17	823.87
385.36	880.04
385.56	875.36
385.75	826.21
385.95	894.08
386.14	866.00
386.34	875.36
386.53	866.00
386.72	854.30
386.92	978.34
387.11	908.13
387.31	936.21
387.50	812.17
387.70	983.02
387.89	973.66
388.09	959.62
388.28	959.62
388.48	868.34
388.67	940.90
388.86	938.55
389.06	1011.11
389.25	950.26
389.45	1006.43
389.64	1036.86
389.84	1055.58
390.03	1069.62
390.22	957.28
390.42	1097.71
390.61	1102.39
390.81	1174.95
391.00	1097.71
391.19	1074.31
391.39	1118.78
391.58	1109.41
391.78	1067.28
391.97	1104.73
392.16	1249.85
392.36	1114.10
392.55	1128.14
392.75	1034.52
392.94	976.00
393.13	1011.11
393.33	1032.18
393.52	1081.33
393.71	1107.07
393.91	1118.78
394.10	1181.97
394.29	1226.44
394.49	1273.25
394.68	1366.87
394.88	1282.61
395.07	1308.36
395.26	1263.89
395.46	1343.47
395.65	1331.76
395.84	1315.38
396.04	1301.34
396.23	1217.08
396.42	1165.59
396.62	1174.95
396.81	1242.82
397.00	1259.21
397.19	1324.74
397.39	1352.83
397.58	1451.13
397.77	1390.28
397.97	1500.28
398.16	1453.47
398.35	1411.34
398.55	1507.30
398.74	1511.99
398.93	1598.59
399.12	1572.84
399.32	1643.06
399.51	1617.31
399.70	1673.48
399.90	1511.99
400.09	1565.82
400.28	1764.76
400.47	1687.53
400.67	1659.44
400.86	1647.74
401.05	1785.83
401.24	1837.32
401.44	1865.41
401.63	1907.54
401.82	1743.70
402.01	1809.23
402.21	1818.60
402.40	1849.02
402.59	1888.81
402.78	1804.55
402.97	1881.79
403.17	1872.43
403.36	1902.86
403.55	1944.99
403.74	1940.30
403.93	1947.33
404.13	1968.39
404.32	1907.54
404.51	1867.75
404.70	1940.30
404.89	1989.46
405.09	1996.48
405.28	1966.05
405.47	2052.65
405.66	2019.88
405.85	2092.44
406.05	2134.57
406.24	2045.63
406.43	2160.31
406.62	2190.74
406.81	2197.76
407.00	2204.78
407.20	2181.38
407.39	2160.31
407.58	2256.28
407.77	2235.21
407.96	2328.83
408.15	2284.36
408.34	2363.94
408.54	2387.35
408.73	2408.41
408.92	2408.41
409.11	2530.12
409.30	2459.90
409.49	2272.66
409.68	2476.29
409.87	2345.22
410.07	2436.50
410.26	2487.99
410.45	2422.45
410.64	2609.70
410.83	2527.78
411.02	2715.02
411.21	2663.53
411.40	2658.85
411.59	2752.47
411.78	2668.21
411.98	2654.17
412.17	2825.03
412.36	2834.39
412.55	2825.03
412.74	2867.16
412.93	2841.41
413.12	2860.13
413.31	2977.16
413.50	3038.02
413.69	3016.95
413.88	3059.08
414.07	2923.33
414.26	3026.31
414.45	3052.06
414.64	3133.98
414.83	3241.64
415.02	3208.87
415.22	3204.19
415.41	3330.58
415.60	3180.79
415.79	3260.37
415.98	3461.65
416.17	3426.54
416.36	3295.47
416.55	3368.03
416.74	3510.80
416.93	3290.79
417.12	3386.76
417.31	3417.18
417.50	3466.33
417.69	3438.25
417.88	3775.28
418.07	3536.55
418.26	3555.27
418.45	3583.36
418.64	3749.54
418.83	3735.50
419.02	3627.83
419.21	3576.34
419.39	3794.01
419.58	3676.98
419.77	3719.11
419.96	3700.39
420.15	3962.53
420.34	3857.20
420.53	3974.23
420.72	3967.21
420.91	3925.08
421.10	3960.19
421.29	4091.26
421.48	3899.33
421.67	4065.51
421.86	4016.36
422.05	3983.59
422.24	3871.25
422.43	3936.78
422.61	3974.23
422.80	4128.70
422.99	4156.79
423.18	4210.62
423.37	4030.40
423.56	3950.82
423.75	4203.60
423.94	4021.04
424.13	3904.01
424.32	3992.95
424.50	4128.70
424.69	4187.22
424.88	4393.19
425.07	4028.06
425.26	4081.89
425.45	4028.06
425.64	4100.62
425.83	4231.69
426.01	4180.20
426.20	4264.46
426.39	4114.66
426.58	4117.00
426.77	4227.01
426.96	4147.43
427.15	4039.76
427.33	4318.29
427.52	4234.03
427.71	4217.65
427.90	4404.89
428.09	4201.26
428.28	4304.25
428.46	4355.74
428.65	4156.79
428.84	4332.33
429.03	4550.00
429.22	4327.65
429.40	4327.65
429.59	4252.75
429.78	4011.68
429.97	4105.30
430.16	4301.90
430.34	4163.81
430.53	4257.43
430.72	4367.44
430.91	4411.91
431.10	4444.68
431.28	4720.86
431.47	4849.59
431.66	4847.25
431.85	4634.26
432.03	4702.14
432.22	4912.78
432.41	4784.06
432.60	4840.23
432.79	4922.15
432.97	5085.98
433.16	4865.97
433.35	4828.53
433.54	4947.89
433.72	4868.31
433.91	4894.06
434.10	5008.75
434.28	5027.47
434.47	4952.57
434.66	4994.70
434.85	5198.33
435.03	5191.31
435.22	5193.65
435.41	5301.31
435.59	5238.12
435.78	5341.10
435.97	5186.63
436.16	5390.25
436.34	5383.23
436.53	5261.52
436.72	5371.53
436.90	5275.57
437.09	5401.96
437.28	5298.97
437.46	5275.57
437.65	5425.36
437.84	5401.96
438.02	5390.25
438.21	5378.55
438.40	5254.50
438.58	5614.95
438.77	5827.93
438.96	5551.75
439.14	5778.78
439.33	5680.48
439.52	5977.73
439.70	6010.50
439.89	5898.15
440.08	5963.68
440.26	5989.43
440.45	6029.22
440.63	6136.88
440.82	6298.38
441.01	6134.54
441.19	6228.17
441.38	6303.06
441.57	6403.71
441.75	6392.00
441.94	6490.31
442.12	6555.84
442.31	6614.35
442.50	6534.78
442.68	6502.01
442.87	6457.54
443.05	6487.96
443.24	6595.63
443.43	6785.21
443.61	6619.04
443.80	6956.07
443.98	6614.35
444.17	6555.84
444.35	6766.49
444.54	6759.47
444.73	6722.02
444.91	6817.98
445.10	6693.93
445.28	6628.40
445.47	6539.46
445.65	6649.46
445.84	6651.80
446.02	6642.44
446.21	6796.92
446.39	6855.43
446.58	7005.22
446.77	6925.65
446.95	6848.41
447.14	7005.22
447.32	6993.52
447.51	7016.93
447.69	6991.18
447.88	6993.52
448.06	7054.37
448.25	6972.46
448.43	6974.80
448.62	7087.14
448.80	6899.90
448.99	6944.37
449.17	7187.79
449.36	7183.10
449.54	7297.79
449.73	7368.01
449.91	7148.00
450.10	7353.96
450.28	7508.44
450.46	7632.49
450.65	7527.16
450.83	7379.71
451.02	7536.52
451.20	7517.80
451.39	7620.78
451.57	7641.85
451.76	7501.42
451.94	7489.71
452.13	7641.85
452.31	7375.03
452.49	7204.17
452.68	7473.33
452.86	7566.95
453.05	7318.86
453.23	7698.02
453.42	7641.85
453.60	7609.08
453.78	7880.58
453.97	7597.38
454.15	7768.24
454.34	7655.89
454.52	7754.19
454.70	7925.05
454.89	7801.01
455.07	7894.63
455.26	7941.44
455.44	8116.98
455.62	7999.95
455.81	8116.98
455.99	8124.00
456.17	7992.93
456.36	8257.41
456.54	8308.90
456.73	8196.56
456.91	8435.29
457.09	8407.20
457.28	8615.51
457.46	8355.71
457.64	8383.80
457.83	8224.64
458.01	8404.86
458.19	8741.90
458.38	8505.51
458.56	8727.86
458.74	8704.45
458.93	8606.15
459.11	8664.66
459.29	8582.74
459.48	8669.34
459.66	8596.79
459.84	8877.65
460.03	8985.32
460.21	8819.14
460.39	8814.46
460.57	8739.56
460.76	8903.40
460.94	9011.06
461.12	8821.48
461.31	9067.24
461.49	8999.36
461.67	9057.87
461.85	9282.56
462.04	9160.86
462.22	9497.89
462.40	9467.47
462.59	9341.08
462.77	9128.09
462.95	9331.72
463.13	9298.95
463.32	9437.04
463.50	9277.88
463.68	9458.10
463.86	9233.41
464.05	9420.66
464.23	9102.34
464.41	9523.64
464.59	9228.73
464.78	9448.74
464.96	9432.36
465.14	9273.20
465.32	9579.81
465.50	9802.16
465.69	9696.84
465.87	9507.26
466.05	9523.64
466.23	9465.13
466.41	9596.20
466.60	9872.38
466.78	9568.11
466.96	9490.87
467.14	9680.46
467.32	9734.29
467.51	9984.73
467.69	9687.48
467.87	9991.75
468.05	9881.74
468.23	9731.95
468.41	9813.87
468.60	9895.78
468.78	9942.60
468.96	9905.15
469.14	9916.85
469.32	10026.86
469.50	9980.04
469.69	10249.21
469.87	10141.54
470.05	10113.45
470.23	10239.84
470.41	10202.40
470.59	10176.65
470.77	10204.74
470.95	10300.70
471.14	10501.98
471.32	10286.65
471.50	10757.10
471.68	10586.24
471.86	10768.80
472.04	10846.04
472.22	11070.73
472.40	10700.93
472.58	10874.13
472.77	10565.18
472.95	11016.90
473.13	11297.77
473.31	10834.34
473.49	10883.49
473.67	10909.24
473.85	11194.78
474.03	11356.28
474.21	11417.13
474.39	11496.71
474.57	11667.57
474.75	11655.87
474.93	11496.71
475.12	11499.05
475.30	11702.68
475.48	11555.22
475.66	11882.90
475.84	11913.33
476.02	11864.18
476.20	11627.78
476.38	11901.62
476.56	12418.88
476.74	12418.88
476.92	12142.70
477.10	12276.11
477.28	12610.81
477.46	12814.43
477.64	12699.75
477.82	12760.60
478.00	13200.62
478.18	13022.74
478.36	12989.97
478.54	13303.60
478.72	13287.22
478.90	13376.16
479.08	13537.66
479.26	13738.94
479.44	13420.63
479.62	13722.56
479.80	13771.71
479.98	13862.99
480.16	14310.04
480.34	14061.94
480.52	14415.36
480.70	14174.28
480.88	14441.11
481.06	14265.57
481.24	14431.74
481.41	14539.41
481.59	15206.46
481.77	14836.66
481.95	14913.89
482.13	15154.97
482.31	15180.71
482.49	15410.09
482.67	15740.10
482.85	15548.18
483.03	15740.10
483.21	15861.81
483.39	15798.62
483.57	15845.43
483.74	16053.73
483.92	16280.77
484.10	16154.38
484.28	16299.49
484.46	16678.66
484.64	17240.39
484.82	16861.22
485.00	16774.62
485.18	17057.82
485.35	16863.56
485.53	16655.25
485.71	16943.14
485.89	17003.99
486.07	16987.61
486.25	16940.80
486.43	17254.43
486.61	17568.06
486.78	18043.19
486.96	17972.97
487.14	18321.71
487.32	18476.19
487.50	18338.10
487.68	18850.67
487.85	19089.41
488.03	19117.50
488.21	19147.92
488.39	19063.66
488.57	19405.38
488.75	19501.34
488.92	19707.31
489.10	20004.56
489.28	20336.91
489.46	20013.92
489.64	20503.09
489.81	21018.01
489.99	21020.35
490.17	21057.80
490.35	21322.28
490.53	20851.83
490.70	21200.57
490.88	21359.73
491.06	21671.02
491.24	21291.85
491.41	21446.33
491.59	21907.41
491.77	21689.74
491.95	21792.73
492.13	22085.30
492.30	22455.10
492.48	22602.55
492.66	22829.59
492.84	22576.81
493.01	23080.02
493.19	23080.02
493.37	23164.28
493.54	22967.68
493.72	23452.17
493.90	23346.84
494.08	23459.19
494.25	23803.25
494.43	24226.89
494.61	24486.68
494.79	24133.26
494.96	24154.33
495.14	24390.72
495.32	24208.16
495.49	24720.74
495.67	24858.83
495.85	25055.43
496.02	24856.49
496.20	25432.26
496.38	25331.62
496.55	25544.61
496.73	25982.29
496.91	25860.58
497.09	25764.62
497.26	26106.34
497.44	26038.46
497.62	26263.15
497.79	26195.28
497.97	25837.17
498.14	26328.69
498.32	26459.76
498.50	26228.04
498.67	26817.86
498.85	26916.16
499.03	27197.02
499.20	27302.35
499.38	27267.24
499.56	27351.50
499.73	27583.21
499.91	27611.30
500.08	27906.21
500.26	27164.26
500.44	27707.26
500.61	27953.02
500.79	27625.34
500.97	27793.86
501.14	28100.47
501.32	28091.11
501.49	28243.24
501.67	28247.93
501.84	28278.35
502.02	28348.57
502.20	28446.87
502.37	28641.14
502.55	28835.40
502.72	28683.27
502.90	29181.80
503.07	29146.69
503.25	29095.20
503.43	28709.01
503.60	29039.03
503.78	29289.46
503.95	29191.16
504.13	29628.84
504.30	29682.67
504.48	30174.19
504.65	30148.44
504.83	30417.60
505.01	30185.89
505.18	30314.62
505.36	30424.62
505.53	30197.59
505.71	30551.01
505.88	30569.74
506.06	30202.27
506.23	30445.69
506.41	30536.97
506.58	30881.03
506.76	30852.94
506.93	31480.21
507.11	31573.83
507.28	31197.00
507.46	30986.35
507.63	30852.94
507.81	31374.88
507.98	31098.70
508.16	31576.17
508.33	31424.03
508.50	31693.19
508.68	31449.78
508.85	32491.32
509.03	32236.20
509.20	32393.01
509.38	32116.83
509.55	32500.68
509.73	32493.66
509.90	32528.77
510.08	32704.31
510.25	32629.41
510.42	32650.47
510.60	32868.14
510.77	33078.79
510.95	32931.34
511.12	33191.14
511.30	32968.79
511.47	33546.90
511.64	33385.40
511.82	33778.61
511.99	33298.80
512.17	33706.05
512.34	33401.79
512.51	33429.87
512.69	33727.12
512.86	33670.95
513.04	33841.81
513.21	33853.51
513.38	33717.76
513.56	34178.84
513.73	33991.60
513.90	33902.66
514.08	33923.72
514.25	34794.40
514.43	34565.03
514.60	34649.29
514.77	34323.96
514.95	35056.54
515.12	34506.52
515.29	34689.08
515.47	34731.21
515.64	34951.22
515.81	34705.46
515.99	34590.78
516.16	35021.44
516.33	34834.19
516.51	34979.31
516.68	34525.24
516.85	34169.48
517.03	34548.65
517.20	34934.84
517.37	35398.26
517.54	35557.42
517.72	35566.78
517.89	34958.24
518.06	35012.07
518.24	35192.30
518.41	35491.88
518.58	35700.19
518.75	35604.23
518.93	36077.02
519.10	36229.15
519.27	36121.49
519.45	36465.55
519.62	36421.08
519.79	36463.21
519.96	36713.64
520.14	36692.58
520.31	36297.03
520.48	36690.24
520.65	36828.33
520.83	37118.56
521.00	37165.37
521.17	37104.51
521.34	37301.12
521.52	37453.25
521.69	37188.77
521.86	37626.45
522.03	37755.18
522.20	37668.58
522.38	37890.93
522.55	37684.97
522.72	37535.17
522.89	37481.34
523.07	38225.63
523.24	37574.96
523.41	38164.78
523.58	38043.07
523.75	38560.33
523.92	38307.55
524.10	38597.77
524.27	38866.94
524.44	38459.68
524.61	38270.10
524.78	38263.08
524.96	38703.10
525.13	39049.50
525.30	39007.37
525.47	39082.27
525.64	39119.71
525.81	38796.72
525.98	38721.82
526.16	38412.87
526.33	38171.80
526.50	38792.04
526.67	38581.39
526.84	38628.20
527.01	38555.64
527.18	38775.66
527.36	39133.76
527.53	39433.35
527.70	39468.45
527.87	39718.89
528.04	39395.90
528.21	39913.16
528.38	39756.34
528.55	40133.17
528.72	40065.29
528.89	40147.21
529.07	40191.68
529.24	39821.87
529.41	40020.82
529.58	39697.83
529.75	40147.21
529.92	40397.65
530.09	40297.00
530.26	40746.39
530.43	40662.13
530.60	40357.86
530.77	40411.69
530.94	40975.76
531.11	40608.29
531.28	40524.04
531.46	40453.82
531.63	40680.85
531.80	40802.56
531.97	40519.35
532.14	40598.93
532.31	40407.01
532.48	40641.06
532.65	41338.54
532.82	41310.46
532.99	41163.00
533.16	41167.68
533.33	41467.27
533.50	41502.38
533.67	41600.68
533.84	41390.03
534.01	41067.04
534.18	41469.61
534.35	41752.82
534.52	41626.43
534.69	41619.41
534.86	41996.23
535.03	41579.62
535.20	42440.93
535.37	42359.02
535.54	42579.03
535.71	41813.67
535.88	42216.24
536.05	41986.87
536.22	41642.81
536.38	42522.85
536.55	42213.90
536.72	41956.44
536.89	41691.96
537.06	42066.45
537.23	42120.28
537.40	42300.50
537.57	42848.19
537.74	42712.44
537.91	43033.09
538.08	42499.45
538.25	42319.23
538.42	42801.38
538.59	42738.18
538.75	41839.42
538.92	42646.90
539.09	42731.16
539.26	42997.98
539.43	42660.94
539.60	42588.39
539.77	42574.34
539.94	42948.83
540.11	42492.43
540.28	43098.62
540.44	42965.21
540.61	42845.85
540.78	42799.04
540.95	42834.14
541.12	42618.81
541.29	43283.53
541.46	43100.97
541.62	43255.44
541.79	43643.97
541.96	43192.25
542.13	43145.44
542.30	43353.74
542.47	43014.37
542.63	43257.78
542.80	43330.34
542.97	43821.85
543.14	43833.55
543.31	43758.66
543.48	43810.15
543.64	44322.72
543.81	44435.07
543.98	44083.99
544.15	43697.80
544.32	44556.78
544.48	44615.29
544.65	44325.07
544.82	43981.01
544.99	43590.14
545.16	43679.08
545.32	44053.56
545.49	44652.74
545.66	44722.96
545.83	44502.95
546.00	44182.29
546.16	44704.23
546.33	44648.06
546.50	44341.45
546.67	44680.83
546.83	44289.96
547.00	44392.94
547.17	44399.96
547.34	44758.06
547.50	44882.11
547.67	44910.20
547.84	44767.43
548.00	44949.99
548.17	44882.11
548.34	44760.40
548.51	45251.92
548.67	44947.65
548.84	45099.78
549.01	44570.82
549.18	44938.29
549.34	44982.76
549.51	45291.71
549.68	44921.90
549.84	45404.05
550.01	45514.06
550.18	45006.16
550.34	45137.23
550.51	45691.94
550.68	45303.41
550.84	45333.84
551.01	45268.30
551.18	44975.73
551.34	45633.42
551.51	45500.01
551.68	45741.09
551.84	45532.78
552.01	45404.05
552.18	45860.46
552.34	45422.78
552.51	45731.73
552.68	45619.38
552.84	46052.38
553.01	46169.41
553.18	45820.67
553.34	45521.08
553.51	45467.25
553.67	45832.37
553.84	46253.67
554.01	46248.99
554.17	46541.55
554.34	46380.06
554.51	45956.42
554.67	46501.76
554.84	46256.01
555.00	45797.26
555.17	46043.02
555.33	46244.30
555.50	46099.19
555.67	45808.96
555.83	46344.95
556.00	45869.82
556.16	46801.35
556.33	46174.09
556.50	46080.47
556.66	45970.46
556.83	45965.78
556.99	46389.42
557.16	46560.28
557.32	46403.46
557.49	46120.26
557.65	45439.16
557.82	46260.69
557.98	46490.06
558.15	46110.89
558.32	46326.22
558.48	46424.53
558.65	46419.84
558.81	46396.44
558.98	46656.24
559.14	46267.71
559.31	46600.07
559.47	46614.11
559.64	46396.44
559.80	46440.91
559.97	46536.87
560.13	46403.46
560.30	46328.56
560.46	46389.42
560.63	47161.79
560.79	46890.29
560.96	47112.64
561.12	46611.77
561.29	46864.55
561.45	47007.32
561.61	46904.34
561.78	46873.91
561.94	46815.40
562.11	46857.52
562.27	47042.43
562.44	46656.24
562.60	46937.10
562.77	47276.48
562.93	46721.77
563.10	47077.54
563.26	46721.77
563.42	46944.12
563.59	47199.24
563.75	46623.47
563.92	47096.26
564.08	46876.25
564.24	47063.49
564.41	46768.58
564.57	46958.17
564.74	46965.19
564.90	47503.51
565.07	47107.96
565.23	46852.84
565.39	46972.21
565.56	47194.56
565.72	46979.23
565.88	46995.62
566.05	47068.17
566.21	47044.77
566.38	46974.55
566.54	47161.79
566.70	47379.46
566.87	47250.74
567.03	47117.32
567.19	47547.98
567.36	47641.60
567.52	46902.00
567.68	47952.90
567.85	47166.48
568.01	47519.90
568.17	46887.95
568.34	47058.81
568.50	46801.35
568.66	46902.00
568.83	47587.77
568.99	47051.79
569.15	47227.33
569.32	47505.85
569.48	47304.57
569.64	47189.88
569.81	47313.93
569.97	47009.66
570.13	47150.09
570.30	46976.89
570.46	46927.74
570.62	46960.51
570.78	46363.67
570.95	46536.87
571.11	47435.64
571.27	47255.42
571.43	47222.65
571.60	46862.21
571.76	47173.50
571.92	47042.43
572.09	47384.15
572.25	47152.43
572.41	47271.80
572.57	46948.81
572.74	47831.19
572.90	47178.18
573.06	47608.84
573.22	46920.72
573.38	47351.38
573.55	46972.21
573.71	47405.21
573.87	47274.14
574.03	47026.04
574.20	47304.57
574.36	47206.26
574.52	47229.67
574.68	47555.00
574.84	47269.46
575.01	47426.28
575.17	47030.72
575.33	47117.32
575.49	47084.56
575.65	47531.60
575.82	47529.26
575.98	47206.26
576.14	47786.72
576.30	47643.94
576.46	47290.52
576.62	47105.62
576.79	46979.23
576.95	47236.69
577.11	47536.28
577.27	47569.05
577.43	47538.62
577.59	47236.69
577.75	47426.28
577.92	47007.32
578.08	46850.50
578.24	47009.66
578.40	47290.52
578.56	47381.80
578.72	46953.49
578.88	47587.77
579.04	47241.37
579.21	47014.34
579.37	47473.09
579.53	47077.54
579.69	46925.40
579.85	47297.55
580.01	47342.02
580.17	47150.09
580.33	47274.14
580.49	47236.69
580.65	47531.60
580.82	47129.03
580.98	46960.51
581.14	47316.27
581.30	47246.05
581.46	47255.42
581.62	47239.03
581.78	47379.46
581.94	48020.77
582.10	47676.71
582.26	47931.83
582.42	47468.40
582.58	47863.96
582.74	47316.27
582.90	47463.72
583.06	47831.19
583.22	47402.87
583.38	48051.20
583.54	47709.48
583.70	47498.83
583.86	47665.01
584.02	47150.09
584.18	47592.45
584.34	47526.92
584.50	47765.65
584.66	47232.01
584.82	47473.09
584.98	47358.40
585.14	47381.80
585.30	47185.20
585.46	47351.38
585.62	47206.26
585.78	47501.17
585.94	47232.01
586.10	47234.35
586.26	47122.01
586.42	47419.25
586.58	47601.82
586.74	47564.37
586.90	47608.84
587.06	47636.92
587.22	47515.22
587.38	47077.54
587.54	47725.86
587.70	47833.53
587.86	47625.22
588.02	47159.45
588.18	47435.64
588.34	47463.72
588.49	47114.98
588.65	46827.10
588.81	46918.38
588.97	46995.62
589.13	46780.29
589.29	47070.51
589.45	47505.85
589.61	47337.33
589.77	47356.06
