SpectraSuite Data File
++++++++++++++++++++++++++++++++++++
Date: Fri Oct 25 11:22:40 EDT 2013
User: price-jones
Dark Spectrum Present: No
Reference Spectrum Present: No
Number of Sampled Component Spectra: 1
Spectrometers: USB2+H05261
Integration Time (usec): 100000 (USB2+H05261)
Spectra Averaged: 1 (USB2+H05261)
Boxcar Smoothing: 0 (USB2+H05261)
Correct for Electrical Dark: No (USB2+H05261)
Strobe/Lamp Enabled: No (USB2+H05261)
Correct for Detector Non-linearity: No (USB2+H05261)
Correct for Stray Light: No (USB2+H05261)
Number of Pixels in Processed Spectrum: 2048
>>>>>Begin Processed Spectral Data<<<<<
365.73	227.03
365.92	227.03
366.12	227.03
366.32	128.73
366.52	91.28
366.72	149.79
366.91	72.56
367.11	112.35
367.31	39.79
367.51	149.79
367.70	98.30
367.90	49.15
368.10	135.75
368.30	208.31
368.49	117.03
368.69	112.35
368.89	163.84
369.09	131.07
369.28	196.60
369.48	166.18
369.68	184.90
369.87	124.05
370.07	170.86
370.27	149.79
370.47	308.95
370.66	552.37
370.86	622.58
371.06	685.78
371.25	660.03
371.45	667.05
371.65	732.59
371.84	688.12
372.04	648.33
372.24	627.26
372.44	755.99
372.63	765.36
372.83	805.14
373.03	812.17
373.22	781.74
373.42	798.12
373.62	784.08
373.81	830.89
374.01	819.19
374.21	835.57
374.40	772.38
374.60	767.70
374.79	835.57
374.99	819.19
375.19	816.85
375.38	866.00
375.58	788.76
375.78	866.00
375.97	851.96
376.17	884.72
376.37	884.72
376.56	828.55
376.76	870.68
376.95	901.11
377.15	966.64
377.35	959.62
377.54	931.53
377.74	931.53
377.93	919.83
378.13	908.13
378.33	971.32
378.52	915.15
378.72	896.43
378.91	931.53
379.11	978.34
379.31	990.05
379.50	905.79
379.70	889.40
379.89	978.34
380.09	947.92
380.28	945.58
380.48	997.07
380.68	908.13
380.87	980.68
381.07	961.96
381.26	1083.67
381.46	978.34
381.65	1083.67
381.85	1022.81
382.04	1156.22
382.24	1069.62
382.43	1064.94
382.63	1071.97
382.83	1034.52
383.02	1015.79
383.22	1097.71
383.41	1022.81
383.61	1039.20
383.80	1111.75
384.00	1104.73
384.19	1060.26
384.39	1071.97
384.58	1118.78
384.78	1149.20
384.97	1114.10
385.17	1083.67
385.36	1057.92
385.56	1151.54
385.75	1100.05
385.95	1130.48
386.14	1116.44
386.34	1196.01
386.53	1163.25
386.72	1149.20
386.92	1210.06
387.11	1280.27
387.31	1322.40
387.50	1219.42
387.70	1193.67
387.89	1221.76
388.09	1174.95
388.28	1268.57
388.48	1329.42
388.67	1266.23
388.86	1427.73
389.06	1401.98
389.25	1406.66
389.45	1352.83
389.64	1221.76
389.84	1390.28
390.03	1369.21
390.22	1399.64
390.42	1355.17
390.61	1416.02
390.81	1401.98
391.00	1394.96
391.19	1409.00
391.39	1310.70
391.58	1434.75
391.78	1451.13
391.97	1497.94
392.16	1352.83
392.36	1533.05
392.55	1554.12
392.75	1582.20
392.94	1598.59
393.13	1575.18
393.33	1523.69
393.52	1610.29
393.71	1544.75
393.91	1570.50
394.10	1584.54
394.29	1661.78
394.49	1547.09
394.68	1645.40
394.88	1706.25
395.07	1657.10
395.26	1675.82
395.46	1629.01
395.65	1746.04
395.84	1689.87
396.04	1717.95
396.23	1739.02
396.42	1746.04
396.62	1781.15
396.81	1734.34
397.00	1811.57
397.19	1785.83
397.39	1844.34
397.58	1825.62
397.77	1877.11
397.97	1856.04
398.16	1902.86
398.35	1966.05
398.55	1881.79
398.74	1930.94
398.93	1872.43
399.12	2040.95
399.32	1937.96
399.51	2038.61
399.70	2026.90
399.90	1942.64
400.09	2064.35
400.28	2092.44
400.47	2108.82
400.67	2057.33
400.86	2155.63
401.05	2062.01
401.24	2019.88
401.44	2160.31
401.63	2008.18
401.82	2284.36
402.01	2165.00
402.21	2165.00
402.40	2097.12
402.59	2181.38
402.78	2078.40
402.97	2167.34
403.17	2289.04
403.36	2303.09
403.55	2188.40
403.74	2340.54
403.93	2359.26
404.13	2413.09
404.32	2277.34
404.51	2370.96
404.70	2382.67
404.89	2471.61
405.09	2480.97
405.28	2373.30
405.47	2506.71
405.66	2499.69
405.85	2513.74
406.05	2499.69
406.24	2485.65
406.43	2675.23
406.62	2693.96
406.81	2745.45
407.00	2630.76
407.20	2682.25
407.39	2658.85
407.58	2773.53
407.77	2829.71
407.96	2754.81
408.15	2857.79
408.34	2759.49
408.54	2853.11
408.73	2834.39
408.92	2822.69
409.11	2883.54
409.30	2913.97
409.49	2892.90
409.68	2848.43
409.87	2911.63
410.07	3005.25
410.26	2986.52
410.45	2988.86
410.64	3052.06
410.83	3089.51
411.02	3126.96
411.21	3248.66
411.40	3138.66
411.59	3232.28
411.78	3199.51
411.98	3229.94
412.17	3222.92
412.36	3361.01
412.55	3311.86
412.74	3346.97
412.93	3426.54
413.12	3400.80
413.31	3627.83
413.50	3569.32
413.69	3501.44
413.88	3463.99
414.07	3506.12
414.26	3571.66
414.45	3707.41
414.64	3660.60
414.83	3796.35
415.02	3852.52
415.22	3885.29
415.41	3794.01
415.60	3786.99
415.79	3845.50
415.98	4007.00
416.17	4042.11
416.36	4105.30
416.55	4058.49
416.74	4086.58
416.93	4030.40
417.12	4131.05
417.31	4140.41
417.50	4210.62
417.69	4400.21
417.88	4421.27
418.07	4219.99
418.26	4341.69
418.45	4334.67
418.64	4498.51
418.83	4411.91
419.02	4362.76
419.21	4397.87
419.39	4486.81
419.58	4482.13
419.77	4559.36
419.96	4592.13
420.15	4449.36
420.34	4667.03
420.53	4519.57
420.72	4657.67
420.91	4704.48
421.10	4894.06
421.29	4863.63
421.48	4863.63
421.67	4875.34
421.86	4835.55
422.05	4865.97
422.24	4765.33
422.43	4877.68
422.61	4781.71
422.80	5085.98
422.99	4952.57
423.18	4819.16
423.37	5022.79
423.56	5104.71
423.75	4994.70
423.94	4943.21
424.13	4601.49
424.32	4840.23
424.50	5025.13
424.69	5121.09
424.88	5102.37
425.07	5011.09
425.26	5039.17
425.45	5151.52
425.64	5029.81
425.83	4917.47
426.01	5053.22
426.20	5167.90
426.39	5032.15
426.58	5121.09
426.77	5095.35
426.96	5238.12
427.15	5205.35
427.33	5172.58
427.52	5085.98
427.71	5298.97
427.90	5420.68
428.09	5423.02
428.28	5289.61
428.46	5455.79
428.65	5373.87
428.84	5444.09
429.03	5696.86
429.22	5387.91
429.40	5511.96
429.59	5612.60
429.78	5455.79
429.97	5345.78
430.16	5549.41
430.34	5753.04
430.53	5659.42
430.72	5626.65
430.91	5659.42
431.10	5781.12
431.28	5736.65
431.47	5933.26
431.66	5837.30
431.85	5884.11
432.03	6026.88
432.22	6080.71
432.41	6022.20
432.60	5933.26
432.79	5893.47
432.97	6050.28
433.16	6061.99
433.35	6069.01
433.54	6303.06
433.72	6176.67
433.91	6106.46
434.10	6331.15
434.28	6176.67
434.47	6384.98
434.66	6387.32
434.85	6354.55
435.03	6237.53
435.22	6366.26
435.41	6436.47
435.59	6303.06
435.78	6310.08
435.97	6548.82
436.16	6539.46
436.34	6417.75
436.53	6530.09
436.72	6778.19
436.90	6576.91
437.09	6752.45
437.28	6567.54
437.46	6712.66
437.65	6637.76
437.84	6794.58
438.02	6871.81
438.21	6857.77
438.40	6731.38
438.58	6970.12
438.77	6918.62
438.96	6995.86
439.14	7089.48
439.33	7232.26
439.52	7119.91
439.70	7276.73
439.89	7445.24
440.08	7609.08
440.26	7604.40
440.45	7412.48
440.63	7569.29
440.82	7517.80
441.01	7691.00
441.19	7742.49
441.38	7702.70
441.57	7681.64
441.75	7740.15
441.94	8049.10
442.12	7845.48
442.31	8126.34
442.50	8072.51
442.68	7927.39
442.87	8124.00
443.05	8236.35
443.24	8086.55
443.43	8067.83
443.61	8152.09
443.80	8418.91
443.98	8161.45
444.17	7871.22
444.35	8203.58
444.54	8475.08
444.73	8423.59
444.91	8416.57
445.10	8451.67
445.28	8191.88
445.47	8257.41
445.65	8105.28
445.84	8379.12
446.02	8552.32
446.21	8390.82
446.39	8601.47
446.58	8470.40
446.77	8414.23
446.95	8294.86
447.14	8517.21
447.32	8671.68
447.51	8489.12
447.69	8746.58
447.88	8730.20
448.06	8585.08
448.25	8535.93
448.43	8613.17
448.62	8688.07
448.80	8507.85
448.99	8734.88
449.17	8819.14
449.36	8648.28
449.54	8751.26
449.73	8931.48
449.91	8905.74
450.10	9008.72
450.28	9095.32
450.46	9069.58
450.65	9149.15
450.83	9170.22
451.02	9004.04
451.20	9018.08
451.39	9137.45
451.57	9156.18
451.76	9116.39
451.94	9359.80
452.13	9488.53
452.31	9275.54
452.49	9284.91
452.68	9413.63
452.86	9320.01
453.05	9394.91
453.23	9720.24
453.42	9621.94
453.60	9530.66
453.78	9706.20
453.97	9568.11
454.15	9453.42
454.34	9378.53
454.52	9898.13
454.70	9586.83
454.89	9673.43
455.07	9919.19
455.26	10038.56
455.44	10085.37
455.62	9820.89
455.81	10164.95
455.99	10001.11
456.17	10148.56
456.36	10024.51
456.54	10202.40
456.73	10380.28
456.91	10373.25
457.09	10518.37
457.28	10846.04
457.46	10333.47
457.64	10492.62
457.83	10562.84
458.01	10705.61
458.19	10644.76
458.38	10567.52
458.56	10670.50
458.74	10740.72
458.93	10759.44
459.11	10787.53
459.29	10721.99
459.48	10604.97
459.66	10874.13
459.84	10939.66
460.03	11042.65
460.21	11187.76
460.39	11037.97
460.57	11253.30
460.76	11185.42
460.94	11339.90
461.12	11255.64
461.31	11304.79
461.49	11335.21
461.67	11201.80
461.85	11346.92
462.04	11133.93
462.22	11934.39
462.40	11595.01
462.59	11485.01
462.77	11658.21
462.95	11843.11
463.13	11742.47
463.32	11477.99
463.50	11737.79
463.68	11660.55
463.86	11847.79
464.05	11777.58
464.23	11641.82
464.41	12189.51
464.59	11833.75
464.78	12343.99
464.96	11852.47
465.14	11789.28
465.32	12198.87
465.50	12226.96
465.69	12336.96
465.87	12138.02
466.05	12224.62
466.23	12329.94
466.41	12229.30
466.60	12624.85
466.78	12306.54
466.96	12208.23
467.14	12121.63
467.32	12641.23
467.51	12578.04
467.69	12339.30
467.87	12683.36
468.05	12837.84
468.23	12500.80
468.41	12699.75
468.60	13001.68
468.78	12856.56
468.96	12676.34
469.14	12933.80
469.32	13118.70
469.50	12758.26
469.69	13004.02
469.87	13181.90
470.05	13202.96
470.23	13235.73
470.41	13247.43
470.59	13408.93
470.77	13331.69
470.95	13394.89
471.14	13664.05
471.32	13495.53
471.50	13497.87
471.68	13488.51
471.86	13633.62
472.04	14024.49
472.22	13872.36
472.40	13551.70
472.58	13738.94
472.77	14359.19
472.95	14417.70
473.13	14576.86
473.31	14010.45
473.49	14497.28
473.67	14150.88
473.85	14513.66
474.03	14516.00
474.21	14457.49
474.39	14689.20
474.57	14654.09
474.75	15002.83
474.93	14911.55
475.12	15157.31
475.30	15110.50
475.48	15112.84
475.66	15290.72
475.84	15267.31
476.02	15468.60
476.20	15459.24
476.38	15777.55
476.56	15899.26
476.74	16102.89
476.92	15969.48
477.10	16095.86
477.28	16252.68
477.46	16294.81
477.64	16472.69
477.82	16510.14
478.00	17216.98
478.18	16830.79
478.36	17163.15
478.54	17254.43
478.72	17268.47
478.90	17432.31
479.08	17776.37
479.26	17968.29
479.44	17998.72
479.62	18373.21
479.80	18064.25
479.98	18312.35
480.16	18544.06
480.34	18537.04
480.52	18806.20
480.70	18923.23
480.88	18270.22
481.06	18906.85
481.24	18925.57
481.41	19468.58
481.59	19604.33
481.77	19630.07
481.95	19798.59
482.13	19969.45
482.31	19704.97
482.49	20262.02
482.67	20730.12
482.85	20695.02
483.03	20828.43
483.21	20943.11
483.39	21188.87
483.57	21050.78
483.74	21329.30
483.92	21563.36
484.10	21598.46
484.28	21806.77
484.46	22340.41
484.64	22443.40
484.82	21792.73
485.00	22710.22
485.18	22977.04
485.35	23105.77
485.53	23164.28
485.71	23108.11
485.89	23882.83
486.07	23452.17
486.25	23545.79
486.43	23623.03
486.61	24133.26
486.78	24285.40
486.96	24341.57
487.14	24821.38
487.32	24727.76
487.50	25039.05
487.68	25142.03
487.85	25432.26
488.03	25696.74
488.21	26118.04
488.39	25998.67
488.57	26387.20
488.75	26260.81
488.92	26869.35
489.10	26988.72
489.28	26895.10
489.46	27129.15
489.64	27482.57
489.81	27978.76
489.99	27833.65
490.17	28002.17
490.35	28416.44
490.53	28364.95
490.70	28449.21
490.88	28273.67
491.06	28961.79
491.24	28807.31
491.41	29219.25
491.59	29610.12
491.77	29443.94
491.95	29713.10
492.13	29919.07
492.30	30342.70
492.48	30118.01
492.66	30532.29
492.84	30321.64
493.01	30661.02
493.19	30504.20
493.37	31267.22
493.54	31339.77
493.72	32086.40
493.90	31990.44
494.08	32121.51
494.25	32144.92
494.43	32067.68
494.61	32481.95
494.79	32341.52
494.96	32547.49
495.14	33083.47
495.32	32989.85
495.49	33530.51
495.67	33319.87
495.85	33996.28
496.02	34108.63
496.20	34272.46
496.38	34260.76
496.55	34508.86
496.73	35229.74
496.91	34771.00
497.09	35147.82
497.26	34998.03
497.44	35461.46
497.62	35255.49
497.79	36278.30
497.97	36100.42
498.14	36149.57
498.32	36479.59
498.50	36484.27
498.67	36818.97
498.85	36933.65
499.03	37312.82
499.20	37076.43
499.38	37003.87
499.56	37008.55
499.73	37823.06
499.91	37298.78
500.08	37628.79
500.26	37696.67
500.44	37897.95
500.61	37944.76
500.79	38031.36
500.97	38607.14
501.14	38909.07
501.32	38689.06
501.49	38995.67
501.67	39068.22
501.84	39552.71
502.02	38972.26
502.20	39636.97
502.37	39562.08
502.55	39213.34
502.72	39494.20
502.90	40245.51
503.07	39800.81
503.25	39924.86
503.43	40034.86
503.60	40517.01
503.78	40840.01
503.95	40790.86
504.13	40790.86
504.30	40896.18
504.48	40863.41
504.65	41053.00
504.83	41635.79
505.01	41219.17
505.18	41598.34
505.36	41879.21
505.53	41457.91
505.71	41808.99
505.88	41968.15
506.06	42225.60
506.23	42012.62
506.41	41944.74
506.58	42373.06
506.76	42223.26
506.93	42763.93
507.11	42859.89
507.28	43124.37
507.46	43161.82
507.63	43199.27
507.81	43480.13
507.98	43208.63
508.16	43646.31
508.33	43730.57
508.50	43686.10
508.68	43927.17
508.85	44278.25
509.03	44301.66
509.20	44446.77
509.38	44626.99
509.55	44619.97
509.73	44877.43
509.90	45158.30
510.08	44781.47
510.25	45130.21
510.42	45216.81
510.60	45429.80
510.77	45647.47
510.95	45937.69
511.12	45579.59
511.30	45120.85
511.47	45717.68
511.64	45865.14
511.82	46141.32
511.99	45593.64
512.17	46167.07
512.34	46356.65
512.51	46859.87
512.69	46295.80
512.86	46415.16
513.04	47201.58
513.21	46745.18
513.38	47217.97
513.56	47313.93
513.73	47288.18
513.90	47299.89
514.08	47374.78
514.25	48196.31
514.43	47770.33
514.60	47796.08
514.77	47760.97
514.95	47753.95
515.12	47826.51
515.29	47679.05
515.47	48177.59
515.64	48486.54
515.81	48233.76
515.99	48727.61
516.16	48800.17
516.33	48741.66
516.51	49174.66
516.68	48914.86
516.85	49013.16
517.03	49120.82
517.20	48844.64
517.37	49294.02
517.54	49439.14
517.72	49113.80
517.89	49177.00
518.06	49509.35
518.24	49888.52
518.41	49483.61
518.58	50155.34
518.75	49303.38
518.93	49979.80
519.10	49790.22
519.27	50080.44
519.45	50010.23
519.62	50504.08
519.79	50445.57
519.96	50351.94
520.14	50632.81
520.31	50604.72
520.48	50447.91
520.65	50518.12
520.83	50759.20
521.00	50941.76
521.17	50698.34
521.34	51068.15
521.52	51175.81
521.69	51260.07
521.86	51222.62
522.03	51496.47
522.20	51620.52
522.38	51337.31
522.55	51648.60
522.72	51587.75
522.89	51419.23
523.07	52158.84
523.24	51789.03
523.41	51718.82
523.58	51889.68
523.75	52383.53
523.92	52114.37
524.10	52296.93
524.27	52175.22
524.44	52559.07
524.61	52210.33
524.78	52722.91
524.96	52540.35
525.13	52683.12
525.30	52753.33
525.47	52879.72
525.64	52863.34
525.81	53048.24
525.98	52926.53
526.16	53088.03
526.33	52746.31
526.50	53354.85
526.67	52926.53
526.84	53099.73
527.01	53127.82
527.18	52931.22
527.36	53396.98
527.53	53551.46
527.70	53614.65
527.87	53771.47
528.04	53247.19
528.21	53890.83
528.38	53542.10
528.55	53593.59
528.72	53598.27
528.89	53659.12
529.07	53783.17
529.24	53659.12
529.41	54045.31
529.58	53923.60
529.75	53958.71
529.92	54106.16
530.09	53874.45
530.26	54218.51
530.43	54342.56
530.60	53900.20
530.77	54045.31
530.94	54202.13
531.11	54326.17
531.28	54447.88
531.46	54560.23
531.63	54504.06
531.80	54457.24
531.97	54660.87
532.14	54681.94
532.31	54578.95
532.48	54775.56
532.65	55007.27
532.82	54796.62
532.99	55063.44
533.16	54796.62
533.33	55091.53
533.50	55185.15
533.67	55117.28
533.84	55002.59
534.01	55206.22
534.18	55440.27
534.35	55569.00
534.52	55271.75
534.69	55285.79
534.86	55625.17
535.03	55215.58
535.20	55306.86
535.37	55510.49
535.54	55648.58
535.71	55395.80
535.88	55629.85
536.05	55791.35
536.22	55702.41
536.38	55859.23
536.55	55473.04
536.72	56044.13
536.89	55650.92
537.06	55679.00
537.23	56243.07
537.40	55894.33
537.57	55807.73
537.74	56079.24
537.91	56224.35
538.08	55987.95
538.25	55903.70
538.42	56205.62
538.59	56575.43
538.75	56231.37
538.92	56236.05
539.09	56526.28
539.26	56186.90
539.43	56205.62
539.60	56575.43
539.77	56542.66
539.94	56704.16
540.11	56701.82
540.28	56589.47
540.44	56552.02
540.61	56797.78
540.78	56704.16
540.95	56619.90
541.12	56783.74
541.29	56797.78
541.46	56655.01
541.62	56945.23
541.79	56868.00
541.96	56629.26
542.13	56891.40
542.30	56877.36
542.47	57006.09
542.63	56978.00
542.80	57041.20
542.97	57202.69
543.14	57352.49
543.31	57490.58
543.48	57406.32
543.64	57769.10
543.81	57357.17
543.98	57567.82
544.15	57757.40
544.32	57787.83
544.48	57769.10
544.65	57689.52
544.82	57755.06
544.99	57535.05
545.16	57539.73
545.32	57715.27
545.49	57867.40
545.66	57825.28
545.83	58209.12
546.00	58122.52
546.16	57900.17
546.33	57855.70
546.50	57815.91
546.67	57996.13
546.83	57783.15
547.00	57944.64
547.17	57865.06
547.34	57881.45
547.50	58340.19
547.67	58092.10
547.84	58052.31
548.00	58269.98
548.17	58335.51
548.34	58255.93
548.51	58457.22
548.67	58578.93
548.84	58211.46
549.01	58305.09
549.18	58232.53
549.34	58307.43
549.51	58562.54
549.68	58539.14
549.84	58368.28
550.01	58759.15
550.18	58532.12
550.34	58485.31
550.51	58768.51
550.68	58681.91
550.84	58382.32
551.01	58951.07
551.18	58808.30
551.34	58850.43
551.51	58485.31
551.68	58955.75
551.84	58564.88
552.01	58672.55
552.18	58974.48
552.34	58784.90
552.51	58937.03
552.68	58820.00
552.84	58958.09
553.01	59173.42
553.18	59051.72
553.34	58995.54
553.51	58932.35
553.67	59072.78
553.84	59276.41
554.01	59290.45
554.17	59253.00
554.34	59250.66
554.51	59379.39
554.67	59384.07
554.84	59257.68
555.00	59344.28
555.17	59217.89
555.33	59145.34
555.50	59037.67
555.67	59377.05
555.83	59075.12
556.00	59150.02
556.16	59634.51
556.33	59564.29
556.50	59341.94
556.66	59557.27
556.83	59299.81
556.99	59355.99
557.16	59615.79
557.32	59714.09
557.49	59732.81
557.65	59538.55
557.82	59437.90
557.98	59622.81
558.15	59568.97
558.32	59948.14
558.48	59271.73
558.65	59723.45
558.81	59590.04
558.98	59920.05
559.14	59812.39
559.31	59796.01
559.47	59772.60
559.64	60116.66
559.80	59987.93
559.97	60107.30
560.13	59718.77
560.30	60196.24
560.46	59952.82
560.63	59999.63
560.79	59985.59
560.96	60051.12
561.12	60055.81
561.29	60175.17
561.45	60093.25
561.61	60034.74
561.78	59948.14
561.94	60095.60
562.11	60109.64
562.27	60041.76
562.44	60149.43
562.60	60207.94
562.77	60453.70
562.93	59964.52
563.10	60142.41
563.26	60032.40
563.42	60549.66
563.59	60072.19
563.75	60182.19
563.92	60303.90
564.08	60163.47
564.24	60280.50
564.41	60081.55
564.57	60460.72
564.74	60271.14
564.90	60229.01
565.07	60336.67
565.23	60156.45
565.39	60317.95
565.56	60406.89
565.72	60575.40
565.88	60357.74
566.05	60149.43
566.21	60521.57
566.38	60427.95
566.54	60533.28
566.70	60584.77
566.87	60547.32
567.03	60324.97
567.19	60736.90
567.36	60505.19
567.52	60381.14
567.68	60736.90
567.85	60516.89
568.01	60626.90
568.17	60535.62
568.34	60603.49
568.50	60669.03
568.66	60542.64
568.83	60554.34
568.99	60467.74
569.15	60734.56
569.32	60587.11
569.48	60392.84
569.64	60505.19
569.81	60673.71
569.97	60509.87
570.13	60449.02
570.30	60594.13
570.46	60711.16
570.62	60535.62
570.78	60835.20
570.95	60776.69
571.11	60846.91
571.27	60666.69
571.43	60797.76
571.60	60823.50
571.76	60870.31
571.92	60718.18
572.09	60774.35
572.25	60830.52
572.41	60732.22
572.57	60832.86
572.74	60903.08
572.90	60917.12
573.06	60823.50
573.22	60683.07
573.38	60659.66
573.55	60980.32
573.71	61038.83
573.87	60903.08
574.03	60680.73
574.20	60910.10
574.36	60720.52
574.52	61043.51
574.68	60989.68
574.84	60858.61
575.01	61062.24
575.17	61024.79
575.33	60928.83
575.49	60933.51
575.65	60963.93
575.82	60905.42
575.98	60954.57
576.14	61233.10
576.30	61034.15
576.46	60846.91
576.62	61125.43
576.79	61048.19
576.95	60743.92
577.11	61024.79
577.27	61130.11
577.43	60996.70
577.59	60910.10
577.75	60795.42
577.92	60811.80
578.08	60933.51
578.24	61048.19
578.40	61148.84
578.56	61174.58
578.72	61034.15
578.88	61307.99
579.04	61254.16
579.21	60949.89
579.37	61209.69
579.53	61298.63
579.69	61085.64
579.85	61132.45
580.01	61151.18
580.17	61116.07
580.33	61125.43
580.49	61120.75
580.65	61291.61
580.82	61003.72
580.98	61148.84
581.14	60989.68
581.30	61226.07
581.46	61027.13
581.62	61418.00
581.78	61200.33
581.94	61176.92
582.10	61141.81
582.26	60980.32
582.42	61169.90
582.58	61190.97
582.74	61048.19
582.90	61146.50
583.06	61216.71
583.22	61078.62
583.38	60959.25
583.54	61172.24
583.70	61340.76
583.86	61378.21
584.02	61190.97
584.18	61354.80
584.34	61090.32
584.50	61275.22
584.66	60996.70
584.82	61006.06
584.98	61319.70
585.14	61324.38
585.30	61137.13
585.46	61132.45
585.62	61146.50
585.78	61403.95
585.94	61073.94
586.10	61155.86
586.26	61235.44
586.42	61219.05
586.58	61293.95
586.74	61240.12
586.90	61034.15
587.06	61109.05
587.22	61319.70
587.38	61036.49
587.54	61453.11
587.70	61347.78
587.86	61263.52
588.02	61169.90
588.18	61513.96
588.34	61460.13
588.49	61123.09
