SpectraSuite Data File
++++++++++++++++++++++++++++++++++++
Date: Fri Oct 25 11:33:36 EDT 2013
User: price-jones
Dark Spectrum Present: No
Reference Spectrum Present: No
Number of Sampled Component Spectra: 1
Spectrometers: USB2+H05261
Integration Time (usec): 100000 (USB2+H05261)
Spectra Averaged: 1 (USB2+H05261)
Boxcar Smoothing: 0 (USB2+H05261)
Correct for Electrical Dark: No (USB2+H05261)
Strobe/Lamp Enabled: No (USB2+H05261)
Correct for Detector Non-linearity: No (USB2+H05261)
Correct for Stray Light: No (USB2+H05261)
Number of Pixels in Processed Spectrum: 2048
>>>>>Begin Processed Spectral Data<<<<<
365.73	315.97
365.92	315.97
366.12	315.97
366.32	276.18
366.52	187.24
366.72	231.71
366.91	173.20
367.11	180.22
367.31	191.92
367.51	177.88
367.70	161.50
367.90	182.56
368.10	119.37
368.30	231.71
368.49	168.52
368.69	212.99
368.89	201.29
369.09	191.92
369.28	212.99
369.48	215.33
369.68	236.39
369.87	283.20
370.07	231.71
370.27	304.27
370.47	294.91
370.66	430.66
370.86	449.38
371.06	559.39
371.25	571.09
371.45	472.79
371.65	603.86
371.84	524.28
372.04	528.96
372.24	613.22
372.44	648.33
372.63	653.01
372.83	617.90
373.03	596.84
373.22	634.29
373.42	624.92
373.62	655.35
373.81	606.20
374.01	645.99
374.21	622.58
374.40	720.88
374.60	711.52
374.79	620.24
374.99	706.84
375.19	669.39
375.38	667.05
375.58	631.94
375.78	713.86
375.97	676.41
376.17	692.80
376.37	706.84
376.56	711.52
376.76	645.99
376.95	631.94
377.15	678.76
377.35	624.92
377.54	636.63
377.74	669.39
377.93	737.27
378.13	636.63
378.33	720.88
378.52	667.05
378.72	732.59
378.91	727.91
379.11	760.67
379.31	725.57
379.50	755.99
379.70	690.46
379.89	624.92
380.09	674.07
380.28	720.88
380.48	758.33
380.68	779.40
380.87	699.82
381.07	711.52
381.26	784.08
381.46	849.61
381.65	866.00
381.85	788.76
382.04	791.10
382.24	746.63
382.43	774.72
382.63	802.80
382.83	760.67
383.02	765.36
383.22	791.10
383.41	748.97
383.61	702.16
383.80	854.30
384.00	816.85
384.19	833.23
384.39	912.81
384.58	826.21
384.78	741.95
384.97	802.80
385.17	844.93
385.36	800.46
385.56	770.04
385.75	812.17
385.95	854.30
386.14	863.66
386.34	887.06
386.53	919.83
386.72	828.55
386.92	929.19
387.11	849.61
387.31	905.79
387.50	805.14
387.70	854.30
387.89	823.87
388.09	884.72
388.28	858.98
388.48	964.30
388.67	926.85
388.86	997.07
389.06	901.11
389.25	844.93
389.45	987.71
389.64	873.02
389.84	971.32
390.03	990.05
390.22	905.79
390.42	952.60
390.61	1022.81
390.81	910.47
391.00	931.53
391.19	1041.54
391.39	976.00
391.58	1067.28
391.78	1011.11
391.97	985.37
392.16	1041.54
392.36	1034.52
392.55	1067.28
392.75	1074.31
392.94	1008.77
393.13	985.37
393.33	1078.99
393.52	999.41
393.71	1111.75
393.91	1055.58
394.10	1055.58
394.29	1135.16
394.49	1188.99
394.68	1093.03
394.88	1100.05
395.07	1104.73
395.26	1102.39
395.46	1097.71
395.65	1158.57
395.84	1163.25
396.04	1200.69
396.23	1179.63
396.42	1167.93
396.62	1301.34
396.81	1205.38
397.00	1203.04
397.19	1186.65
397.39	1235.80
397.58	1231.12
397.77	1184.31
397.97	1294.32
398.16	1203.04
398.35	1273.25
398.55	1254.53
398.74	1380.92
398.93	1317.72
399.12	1200.69
399.32	1369.21
399.51	1320.06
399.70	1352.83
399.90	1392.62
400.09	1359.85
400.28	1364.53
400.47	1287.29
400.67	1441.77
400.86	1385.60
401.05	1385.60
401.24	1455.81
401.44	1387.94
401.63	1448.79
401.82	1467.52
402.01	1453.47
402.21	1413.68
402.40	1453.47
402.59	1404.32
402.78	1516.67
402.97	1533.05
403.17	1453.47
403.36	1544.75
403.55	1568.16
403.74	1511.99
403.93	1549.43
404.13	1582.20
404.32	1533.05
404.51	1657.10
404.70	1657.10
404.89	1556.46
405.09	1650.08
405.28	1720.29
405.47	1703.91
405.66	1687.53
405.85	1724.97
406.05	1727.32
406.24	1703.91
406.43	1750.72
406.62	1748.38
406.81	1870.09
407.00	1741.36
407.20	1799.87
407.39	1797.53
407.58	1856.04
407.77	1842.00
407.96	1900.52
408.15	1858.39
408.34	1916.90
408.54	1930.94
408.73	1944.99
408.92	1905.20
409.11	2022.22
409.30	1799.87
409.49	2062.01
409.68	1970.73
409.87	1919.24
410.07	2097.12
410.26	2012.86
410.45	2090.10
410.64	2076.06
410.83	2066.69
411.02	2162.66
411.21	2160.31
411.40	2090.10
411.59	2108.82
411.78	2211.81
411.98	2221.17
412.17	2225.85
412.36	2410.75
412.55	2359.26
412.74	2420.11
412.93	2382.67
413.12	2319.47
413.31	2450.54
413.50	2298.41
413.69	2401.39
413.88	2476.29
414.07	2509.05
414.26	2541.82
414.45	2527.78
414.64	2497.35
414.83	2565.23
415.02	2595.65
415.22	2590.97
415.41	2511.39
415.60	2628.42
415.79	2761.83
415.98	2658.85
416.17	2789.92
416.36	2679.91
416.55	2722.04
416.74	2862.48
416.93	2757.15
417.12	2836.73
417.31	2768.85
417.50	2937.37
417.69	2993.55
417.88	2855.45
418.07	2930.35
418.26	2967.80
418.45	3014.61
418.64	3122.27
418.83	3028.65
419.02	2979.50
419.21	3075.46
419.39	3131.64
419.58	3183.13
419.77	3108.23
419.96	3187.81
420.15	3133.98
420.34	3056.74
420.53	3206.53
420.72	3258.03
420.91	3180.79
421.10	3241.64
421.29	3206.53
421.48	3304.84
421.67	3274.41
421.86	3307.18
422.05	3309.52
422.24	3276.75
422.43	3370.37
422.61	3349.31
422.80	3396.12
422.99	3386.76
423.18	3328.24
423.37	3503.78
423.56	3400.80
423.75	3419.52
423.94	3426.54
424.13	3232.28
424.32	3213.56
424.50	3321.22
424.69	3344.63
424.88	3543.57
425.07	3524.85
425.26	3293.13
425.45	3400.80
425.64	3520.17
425.83	3417.18
426.01	3452.29
426.20	3370.37
426.39	3452.29
426.58	3492.08
426.77	3487.40
426.96	3545.91
427.15	3550.59
427.33	3613.79
427.52	3550.59
427.71	3520.17
427.90	3599.74
428.09	3662.94
428.28	3672.30
428.46	3646.55
428.65	3644.21
428.84	3822.09
429.03	3817.41
429.22	3768.26
429.40	3648.90
429.59	3665.28
429.78	3674.64
429.97	3588.04
430.16	3726.13
430.34	3976.57
430.53	3988.27
430.72	3894.65
430.91	3974.23
431.10	4072.53
431.28	3880.61
431.47	3918.06
431.66	4011.68
431.85	3976.57
432.03	4030.40
432.22	4098.28
432.41	4046.79
432.60	4091.26
432.79	4079.55
432.97	4145.09
433.16	4243.39
433.35	4060.83
433.54	4145.09
433.72	4161.47
433.91	4262.12
434.10	4161.47
434.28	4194.24
434.47	4269.14
434.66	4245.73
434.85	4273.82
435.03	4276.16
435.22	4313.61
435.41	4479.79
435.59	4234.03
435.78	4334.67
435.97	4458.72
436.16	4444.68
436.34	4409.57
436.53	4397.87
436.72	4587.45
436.90	4475.10
437.09	4571.07
437.28	4414.25
437.46	4601.49
437.65	4510.21
437.84	4648.30
438.02	4573.41
438.21	4557.02
438.40	4664.69
438.58	4816.82
438.77	4741.93
438.96	4660.01
439.14	4793.42
439.33	4912.78
439.52	4910.44
439.70	5022.79
439.89	5081.30
440.08	4961.94
440.26	4985.34
440.45	5064.92
440.63	5085.98
440.82	5170.24
441.01	5184.29
441.19	5132.79
441.38	5483.88
441.57	5291.95
441.75	5156.20
441.94	5488.56
442.12	5474.51
442.31	5476.85
442.50	5504.94
442.68	5401.96
442.87	5490.90
443.05	5444.09
443.24	5401.96
443.43	5497.92
443.61	5659.42
443.80	5792.83
443.98	5638.35
444.17	5270.89
444.35	5547.07
444.54	5823.25
444.73	5437.06
444.91	5467.49
445.10	5619.63
445.28	5846.66
445.47	5652.39
445.65	5575.16
445.84	5813.89
446.02	5781.12
446.21	5799.85
446.39	5839.64
446.58	5748.36
446.77	5713.25
446.95	5540.05
447.14	5881.77
447.32	5834.96
447.51	5722.61
447.69	5701.54
447.88	5753.04
448.06	5734.31
448.25	5720.27
448.43	5830.27
448.62	5781.12
448.80	5760.06
448.99	5830.27
449.17	5799.85
449.36	5984.75
449.54	6104.12
449.73	6008.16
449.91	6253.91
450.10	6085.39
450.28	6118.16
450.46	6193.06
450.65	6115.82
450.83	6080.71
451.02	6216.46
451.20	6272.64
451.39	6342.85
451.57	6218.80
451.76	6186.04
451.94	6312.42
452.13	6274.98
452.31	6277.32
452.49	6300.72
452.68	6195.40
452.86	6413.07
453.05	6445.84
453.23	6347.53
453.42	6310.08
453.60	6300.72
453.78	6450.52
453.97	6193.06
454.15	6616.69
454.34	6518.39
454.52	6438.81
454.70	6607.33
454.89	6576.91
455.07	6492.65
455.26	6558.18
455.44	6593.29
455.62	6677.55
455.81	6764.15
455.99	6817.98
456.17	6731.38
456.36	6696.27
456.54	6834.36
456.73	6970.12
456.91	6895.22
457.09	6967.77
457.28	7063.74
457.46	6878.83
457.64	7061.40
457.83	7117.57
458.01	6888.20
458.19	7211.19
458.38	7201.83
458.56	7148.00
458.74	7220.55
458.93	6956.07
459.11	7323.54
459.29	7197.15
459.48	7309.49
459.66	7194.81
459.84	7356.30
460.03	7384.39
460.21	7506.10
460.39	7410.14
460.57	7297.79
460.76	7604.40
460.94	7543.55
461.12	7564.61
461.31	7559.93
461.49	7492.05
461.67	7667.60
461.85	7569.29
462.04	7499.08
462.22	8142.72
462.40	7798.66
462.59	7707.38
462.77	7623.12
462.95	7793.98
463.13	7719.09
463.32	7761.22
463.50	7838.45
463.68	7686.32
463.86	7901.65
464.05	7686.32
464.23	7772.92
464.41	8004.63
464.59	7775.26
464.78	8217.62
464.96	8013.99
465.14	7960.16
465.32	8280.82
465.50	8138.04
465.69	8154.43
465.87	8124.00
466.05	8208.26
466.23	8222.30
466.41	8116.98
466.60	8297.20
466.78	8156.77
466.96	8276.13
467.14	8325.29
467.32	8489.12
467.51	8344.01
467.69	8276.13
467.87	8416.57
468.05	8423.59
468.23	8301.88
468.41	8231.66
468.60	8566.36
468.78	8493.80
468.96	8290.18
469.14	8589.77
469.32	8498.49
469.50	8615.51
469.69	8589.77
469.87	8800.41
470.05	8634.24
470.23	8861.27
470.41	8720.84
470.59	8865.95
470.77	8788.71
470.95	8901.06
471.14	8999.36
471.32	8994.68
471.50	9137.45
471.68	9144.47
471.86	9252.14
472.04	9252.14
472.22	9226.39
472.40	9128.09
472.58	9418.32
472.77	9390.23
472.95	9191.28
473.13	9582.15
473.31	9350.44
473.49	9591.52
473.67	9628.96
473.85	9841.95
474.03	9921.53
474.21	9844.29
474.39	9954.30
474.57	9734.29
474.75	10024.51
474.93	9912.17
475.12	9961.32
475.30	9919.19
475.48	9867.70
475.66	10080.69
475.84	10097.07
476.02	10139.20
476.20	10340.49
476.38	10436.45
476.56	10658.80
476.74	10541.77
476.92	10562.84
477.10	10263.25
477.28	10923.28
477.46	10824.98
477.64	10862.43
477.82	11000.52
478.00	11199.46
478.18	11068.39
478.36	11145.63
478.54	11421.81
478.72	11297.77
478.90	11473.31
479.08	11606.72
479.26	11599.70
479.44	11808.00
479.62	11592.67
479.80	12030.35
479.98	11988.22
480.16	12313.56
480.34	12086.53
480.52	12203.55
480.70	12210.57
480.88	11992.90
481.06	12514.84
481.24	12442.29
481.41	12732.51
481.59	12592.08
481.77	12657.62
481.95	12929.12
482.13	13167.85
482.31	12987.63
482.49	13406.59
482.67	13378.50
482.85	13394.89
483.03	13607.87
483.21	13750.65
483.39	13919.17
483.57	13884.06
483.74	13933.21
483.92	14162.58
484.10	13954.27
484.28	14398.98
484.46	14523.02
484.64	14647.07
484.82	14338.12
485.00	14607.28
485.18	15122.20
485.35	15049.64
485.53	15227.53
485.71	15330.51
485.89	15367.96
486.07	15218.16
486.25	15396.04
486.43	15461.58
486.61	15878.19
486.78	15733.08
486.96	15864.15
487.14	16358.00
487.32	16278.43
487.50	16350.98
487.68	16428.22
487.85	16950.16
488.03	16545.25
488.21	17114.00
488.39	16947.82
488.57	17060.16
488.75	16877.60
488.92	17160.81
489.10	17362.09
489.28	17528.27
489.46	17923.82
489.64	17675.73
489.81	18401.29
489.99	18221.07
490.17	17951.91
490.35	18691.52
490.53	18579.17
490.70	18757.05
490.88	18539.38
491.06	18768.76
491.24	19136.22
491.41	19026.21
491.59	19253.25
491.77	19304.74
491.95	19262.61
492.13	19667.52
492.30	19697.95
492.48	19714.33
492.66	19922.64
492.84	19868.81
493.01	20365.00
493.19	20219.89
493.37	20142.65
493.54	20306.49
493.72	21069.50
493.90	20381.38
494.08	20741.83
494.25	20776.94
494.43	20854.17
494.61	21097.59
494.79	21149.08
494.96	21156.10
495.14	21860.60
495.32	21699.11
495.49	21664.00
495.67	22001.04
495.85	22010.40
496.02	21954.22
496.20	22141.47
496.38	22654.05
496.55	22515.95
496.73	22955.97
496.91	22525.32
497.09	22848.31
497.26	23073.00
497.44	22895.12
497.62	23267.27
497.79	23150.24
497.97	23634.73
498.14	23281.31
498.32	23679.20
498.50	23536.43
498.67	24079.43
498.85	23913.25
499.03	24006.87
499.20	24053.69
499.38	24079.43
499.56	24315.83
499.73	24570.94
499.91	24458.60
500.08	24816.70
500.26	24521.79
500.44	24800.32
500.61	24687.97
500.79	24858.83
500.97	25261.40
501.14	25294.17
501.32	25479.07
501.49	25392.47
501.67	25458.01
501.84	25507.16
502.02	25282.47
502.20	25738.87
502.37	25986.97
502.55	25755.26
502.72	25900.37
502.90	26089.95
503.07	26064.21
503.25	26249.11
503.43	25984.63
503.60	26635.30
503.78	26721.90
503.95	26534.65
504.13	26665.72
504.30	26883.39
504.48	26434.01
504.65	26689.13
504.83	27164.26
505.01	27168.94
505.18	27234.47
505.36	27463.85
505.53	27253.20
505.71	27372.57
505.88	27651.09
506.06	27487.25
506.23	27641.73
506.41	27552.79
506.58	27810.25
506.76	28002.17
506.93	27754.07
507.11	28201.11
507.28	28442.19
507.46	28599.01
507.63	28257.29
507.81	28301.76
507.98	28610.71
508.16	28470.28
508.33	28514.75
508.50	28645.82
508.68	28821.36
508.85	28964.13
509.03	28912.64
509.20	29179.46
509.38	29429.90
509.55	29310.53
509.73	29355.00
509.90	29331.59
510.08	29394.79
510.25	29673.31
510.42	29830.13
510.60	29788.00
510.77	30087.59
510.95	30356.75
511.12	29776.30
511.30	29820.77
511.47	30260.79
511.64	30164.82
511.82	30061.84
511.99	30654.00
512.17	30419.94
512.34	30586.12
512.51	30902.09
512.69	30752.30
512.86	30892.73
513.04	30759.32
513.21	31126.78
513.38	31044.87
513.56	31576.17
513.73	31175.94
513.90	30972.31
514.08	31309.35
514.25	31527.02
514.43	31325.73
514.60	31613.62
514.77	31524.68
514.95	32058.32
515.12	31810.22
515.29	32034.91
515.47	32004.49
515.64	32121.51
515.81	31920.23
515.99	32161.30
516.16	32582.60
516.33	32421.10
516.51	32751.12
516.68	32063.00
516.85	32582.60
517.03	32706.65
517.20	32369.61
517.37	33043.68
517.54	32833.04
517.72	32870.48
517.89	33186.46
518.06	33177.09
518.24	32889.21
518.41	33083.47
518.58	32814.31
518.75	33053.05
518.93	33083.47
519.10	33266.03
519.27	33713.08
519.45	33455.62
519.62	33961.17
519.79	33556.26
519.96	33614.77
520.14	33518.81
520.31	33998.62
520.48	34363.75
520.65	33736.48
520.83	34176.50
521.00	34651.63
521.17	34576.73
521.34	34363.75
521.52	34792.06
521.69	34330.98
521.86	34684.40
522.03	34778.02
522.20	34969.94
522.38	35058.88
522.55	35009.73
522.72	35299.96
522.89	34808.45
523.07	35321.02
523.24	34974.63
523.41	35519.97
523.58	35318.68
523.75	35615.93
523.92	35557.42
524.10	35534.01
524.27	35583.16
524.44	35758.70
524.61	35910.84
524.78	36226.81
524.96	35906.16
525.13	36135.53
525.30	36400.01
525.47	36594.28
525.64	35683.81
525.81	36484.27
525.98	36196.38
526.16	36240.86
526.33	36507.68
526.50	36685.56
526.67	36395.33
526.84	36694.92
527.01	36594.28
527.18	37177.07
527.36	36723.01
527.53	36671.51
527.70	37420.48
527.87	37247.29
528.04	37144.30
528.21	37249.63
528.38	37043.66
528.55	37546.87
528.72	37294.10
528.89	37333.89
529.07	37181.75
529.24	37041.32
529.41	37654.54
529.58	37144.30
529.75	37479.00
529.92	37310.48
530.09	37331.54
530.26	37801.99
530.43	37961.15
530.60	37816.04
530.77	37890.93
530.94	37965.83
531.11	37949.45
531.28	38085.20
531.46	37958.81
531.63	38422.23
531.80	37890.93
531.97	38583.73
532.14	38462.02
532.31	38000.94
532.48	38345.00
532.65	38401.17
532.82	38731.18
532.99	38689.06
533.16	38101.58
533.33	38565.01
533.50	38920.77
533.67	38895.02
533.84	38876.30
534.01	38815.44
534.18	39093.97
534.35	39243.76
534.52	39398.24
534.69	39393.56
534.86	39512.92
535.03	39250.78
535.20	39063.54
535.37	39697.83
535.54	39817.19
535.71	39519.95
535.88	39096.31
536.05	38995.67
536.22	39887.41
536.38	39641.65
536.55	39889.75
536.72	39625.27
536.89	39782.09
537.06	40084.01
537.23	40067.63
537.40	39746.98
537.57	40060.61
537.74	40500.63
537.91	40416.37
538.08	40224.45
538.25	39988.05
538.42	40374.24
538.59	40397.65
538.75	40100.40
538.92	40350.84
539.09	40442.12
539.26	40479.57
539.43	40458.50
539.60	40690.21
539.77	40624.68
539.94	40790.86
540.11	40928.95
540.28	40788.52
540.44	40739.36
540.61	40811.92
540.78	40959.38
540.95	40844.69
541.12	40467.86
541.29	40931.29
541.46	40942.99
541.62	40966.40
541.79	41099.81
541.96	41195.77
542.13	40760.43
542.30	41298.75
542.47	41383.01
542.63	41645.15
542.80	41062.36
542.97	41741.11
543.14	41942.40
543.31	41940.06
543.48	42106.24
543.64	42066.45
543.81	42347.31
543.98	41965.81
544.15	42061.77
544.32	42265.39
544.48	42564.98
544.65	42263.05
544.82	42344.97
544.99	41928.36
545.16	42120.28
545.32	42335.61
545.49	42944.15
545.66	42632.86
545.83	42342.63
546.00	43009.68
546.16	42784.99
546.33	42508.81
546.50	42906.70
546.67	43009.68
546.83	42080.49
547.00	42707.76
547.17	42698.39
547.34	42717.12
547.50	43054.15
547.67	43377.15
547.84	43421.62
548.00	43182.88
548.17	43346.72
548.34	43295.23
548.51	43618.22
548.67	43402.89
548.84	43115.01
549.01	43491.83
549.18	43194.59
549.34	43489.49
549.51	43885.04
549.68	43746.95
549.84	43381.83
550.01	43770.36
550.18	43496.52
550.34	43564.39
550.51	43346.72
550.68	43978.67
550.84	43309.27
551.01	43973.98
551.18	44098.03
551.34	43667.37
551.51	43807.81
551.68	44121.44
551.84	43936.54
552.01	43564.39
552.18	43622.90
552.34	43669.72
552.51	44371.88
552.68	44074.63
552.84	44369.54
553.01	44006.75
553.18	43592.48
553.34	44491.24
553.51	44060.58
553.67	44406.98
553.84	44383.58
554.01	44362.51
554.17	44261.87
554.34	44622.31
554.51	44509.97
554.67	44715.93
554.84	44755.72
555.00	44664.44
555.17	44603.59
555.33	44416.35
555.50	44821.26
555.67	44982.76
555.83	44371.88
556.00	44397.62
556.16	45177.02
556.33	44818.92
556.50	44828.28
556.66	45450.86
556.83	44673.81
556.99	45418.10
557.16	45134.89
557.32	45301.07
557.49	45162.98
557.65	45420.44
557.82	44957.01
557.98	45038.93
558.15	45113.83
558.32	45483.63
558.48	44783.81
558.65	45317.45
558.81	45331.50
558.98	45277.66
559.14	45462.57
559.31	45003.82
559.47	45036.59
559.64	45202.77
559.80	45738.75
559.97	45694.28
560.13	45059.99
560.30	45570.23
560.46	45855.78
560.63	45776.20
560.79	46209.20
560.96	45670.87
561.12	45895.56
561.29	45558.53
561.45	45942.38
561.61	45731.73
561.78	45635.77
561.94	45745.77
562.11	45855.78
562.27	45673.21
562.44	45668.53
562.60	45872.16
562.77	45677.90
562.93	45729.39
563.10	45963.44
563.26	45441.50
563.42	45771.52
563.59	45820.67
563.75	45741.09
563.92	46138.98
564.08	45865.14
564.24	45879.18
564.41	46036.00
564.57	46171.75
564.74	46171.75
564.90	45633.42
565.07	46307.50
565.23	45483.63
565.39	46057.06
565.56	46036.00
565.72	45717.68
565.88	46202.18
566.05	46017.27
566.21	46408.14
566.38	46260.69
566.54	46155.36
566.70	46635.17
566.87	46239.62
567.03	45921.31
567.19	46490.06
567.36	46377.72
567.52	46059.40
567.68	46574.32
567.85	46199.83
568.01	46497.08
568.17	46024.29
568.34	46272.39
568.50	46534.53
568.66	46438.57
568.83	46579.00
568.99	46543.89
569.15	46471.34
569.32	46284.09
569.48	46452.61
569.64	46499.42
569.81	47196.90
569.97	46616.45
570.13	46511.13
570.30	46342.61
570.46	46920.72
570.62	46810.71
570.78	46862.21
570.95	46728.80
571.11	46827.10
571.27	46806.03
571.43	46487.72
571.60	46686.67
571.76	46548.57
571.92	46239.62
572.09	46576.66
572.25	46602.41
572.41	46670.28
572.57	47079.88
572.74	47313.93
572.90	46862.21
573.06	47117.32
573.22	47028.38
573.38	46808.37
573.55	47325.63
573.71	47274.14
573.87	46953.49
574.03	46969.87
574.20	47248.39
574.36	46761.56
574.52	47278.82
574.68	46894.97
574.84	46873.91
575.01	47353.72
575.17	47061.15
575.33	47168.82
575.49	46939.44
575.65	47323.29
575.82	47332.65
575.98	46965.19
576.14	47363.08
576.30	47351.38
576.46	47030.72
576.62	46763.90
576.79	47248.39
576.95	46843.48
577.11	46597.73
577.27	46918.38
577.43	46909.02
577.59	47206.26
577.75	46871.57
577.92	47012.00
578.08	47136.05
578.24	47164.14
578.40	47281.16
578.56	47356.06
578.72	46796.67
578.88	47295.21
579.04	47374.78
579.21	46948.81
579.37	47068.17
579.53	47707.14
579.69	46866.89
579.85	46686.67
580.01	47086.90
580.17	47070.51
580.33	47725.86
580.49	47264.78
580.65	47414.57
580.82	47232.01
580.98	47629.90
581.14	47084.56
581.30	47606.50
581.46	47267.12
581.62	47388.83
581.78	47133.71
581.94	47187.54
582.10	47023.70
582.26	47229.67
582.42	47103.28
582.58	47255.42
582.74	47196.90
582.90	47107.96
583.06	47299.89
583.22	47271.80
583.38	47124.35
583.54	47229.67
583.70	47079.88
583.86	47491.81
584.02	47150.09
584.18	47976.30
584.34	47571.39
584.50	47360.74
584.66	47433.30
584.82	47173.50
584.98	48046.52
585.14	47742.25
585.30	47526.92
585.46	47634.58
585.62	47498.83
585.78	47730.54
585.94	47093.92
586.10	47414.57
586.26	47632.24
586.42	47449.68
586.58	47693.10
586.74	47381.80
586.90	46887.95
587.06	47061.15
587.22	47767.99
587.38	47377.12
587.54	47494.15
587.70	47973.96
587.86	47566.71
588.02	47480.11
588.18	47124.35
588.34	47370.10
588.49	47323.29
588.65	47498.83
588.81	47264.78
588.97	47723.52
589.13	47746.93
589.29	47798.42
589.45	47604.16
589.61	47760.97
589.77	48013.75
589.93	47625.22
590.08	47489.47
