SpectraSuite Data File
++++++++++++++++++++++++++++++++++++
Date: Fri Oct 25 11:23:34 EDT 2013
User: price-jones
Dark Spectrum Present: No
Reference Spectrum Present: No
Number of Sampled Component Spectra: 1
Spectrometers: USB2+H05261
Integration Time (usec): 100000 (USB2+H05261)
Spectra Averaged: 1 (USB2+H05261)
Boxcar Smoothing: 0 (USB2+H05261)
Correct for Electrical Dark: No (USB2+H05261)
Strobe/Lamp Enabled: No (USB2+H05261)
Correct for Detector Non-linearity: No (USB2+H05261)
Correct for Stray Light: No (USB2+H05261)
Number of Pixels in Processed Spectrum: 2048
>>>>>Begin Processed Spectral Data<<<<<
365.73	294.91
365.92	294.91
366.12	294.91
366.32	173.20
366.52	154.48
366.72	131.07
366.91	67.88
367.11	126.39
367.31	142.77
367.51	133.41
367.70	105.32
367.90	102.98
368.10	112.35
368.30	56.17
368.49	60.85
368.69	191.92
368.89	152.13
369.09	203.63
369.28	138.09
369.48	149.79
369.68	168.52
369.87	205.97
370.07	241.08
370.27	266.82
370.47	224.69
370.66	589.82
370.86	566.41
371.06	681.10
371.25	683.44
371.45	657.69
371.65	697.48
371.84	627.26
372.04	737.27
372.24	653.01
372.44	702.16
372.63	653.01
372.83	727.91
373.03	784.08
373.22	709.18
373.42	683.44
373.62	683.44
373.81	823.87
374.01	819.19
374.21	910.47
374.40	755.99
374.60	826.21
374.79	788.76
374.99	821.53
375.19	809.83
375.38	814.51
375.58	805.14
375.78	858.98
375.97	987.71
376.17	940.90
376.37	887.06
376.56	933.87
376.76	809.83
376.95	926.85
377.15	837.91
377.35	875.36
377.54	844.93
377.74	854.30
377.93	863.66
378.13	880.04
378.33	980.68
378.52	978.34
378.72	968.98
378.91	910.47
379.11	912.81
379.31	894.08
379.50	929.19
379.70	1013.45
379.89	1060.26
380.09	908.13
380.28	994.73
380.48	1027.50
380.68	994.73
380.87	985.37
381.07	971.32
381.26	1050.90
381.46	1039.20
381.65	1036.86
381.85	1034.52
382.04	1001.75
382.24	1083.67
382.43	968.98
382.63	1083.67
382.83	1116.44
383.02	1121.12
383.22	1093.03
383.41	1078.99
383.61	1139.84
383.80	1128.14
384.00	1165.59
384.19	1165.59
384.39	1095.37
384.58	1170.27
384.78	1191.33
384.97	1170.27
385.17	1228.78
385.36	1114.10
385.56	1200.69
385.75	1186.65
385.95	1196.01
386.14	1203.04
386.34	1179.63
386.53	1369.21
386.72	1280.27
386.92	1210.06
387.11	1296.66
387.31	1296.66
387.50	1287.29
387.70	1179.63
387.89	1282.61
388.09	1228.78
388.28	1221.76
388.48	1261.55
388.67	1277.93
388.86	1259.21
389.06	1200.69
389.25	1320.06
389.45	1373.89
389.64	1350.49
389.84	1341.13
390.03	1409.00
390.22	1420.71
390.42	1369.21
390.61	1373.89
390.81	1350.49
391.00	1413.68
391.19	1446.45
391.39	1556.46
391.58	1537.73
391.78	1451.13
391.97	1486.24
392.16	1493.26
392.36	1453.47
392.55	1558.80
392.75	1514.33
392.94	1504.96
393.13	1504.96
393.33	1462.83
393.52	1474.54
393.71	1521.35
393.91	1614.97
394.10	1528.37
394.29	1549.43
394.49	1593.90
394.68	1619.65
394.88	1598.59
395.07	1703.91
395.26	1689.87
395.46	1701.57
395.65	1724.97
395.84	1596.25
396.04	1781.15
396.23	1724.97
396.42	1846.68
396.62	1959.03
396.81	1879.45
397.00	1746.04
397.19	1724.97
397.39	1722.63
397.58	1811.57
397.77	1809.23
397.97	1877.11
398.16	1785.83
398.35	1853.70
398.55	1717.95
398.74	1891.15
398.93	1895.83
399.12	1874.77
399.32	1846.68
399.51	1996.48
399.70	2022.22
399.90	1884.13
400.09	2017.54
400.28	2003.50
400.47	2012.86
400.67	2052.65
400.86	2172.02
401.05	2181.38
401.24	2085.42
401.44	2148.61
401.63	2157.97
401.82	2207.13
402.01	2143.93
402.21	2132.23
402.40	2193.08
402.59	2195.42
402.78	2209.47
402.97	2235.21
403.17	2328.83
403.36	2242.23
403.55	2347.56
403.74	2228.19
403.93	2356.92
404.13	2361.60
404.32	2483.31
404.51	2452.88
404.70	2324.15
404.89	2319.47
405.09	2478.63
405.28	2462.24
405.47	2429.48
405.66	2459.90
405.85	2513.74
406.05	2525.44
406.24	2621.40
406.43	2593.31
406.62	2682.25
406.81	2546.50
407.00	2637.78
407.20	2562.89
407.39	2630.76
407.58	2736.09
407.77	2686.94
407.96	2684.59
408.15	2794.60
408.34	2670.55
408.54	2682.25
408.73	2778.22
408.92	2789.92
409.11	2736.09
409.30	3009.93
409.49	2885.88
409.68	2789.92
409.87	2801.62
410.07	2977.16
410.26	3000.57
410.45	3054.40
410.64	3047.38
410.83	3070.78
411.02	3129.30
411.21	3101.21
411.40	3117.59
411.59	3253.34
411.78	3145.68
411.98	3152.70
412.17	3323.56
412.36	3218.24
412.55	3337.60
412.74	3342.28
412.93	3417.18
413.12	3321.22
413.31	3548.25
413.50	3435.91
413.69	3478.04
413.88	3684.00
414.07	3527.19
414.26	3688.68
414.45	3552.93
414.64	3651.24
414.83	3672.30
415.02	3700.39
415.22	3843.16
415.41	3857.20
415.60	3737.84
415.79	3864.22
415.98	3997.64
416.17	3992.95
416.36	3967.21
416.55	3957.85
416.74	4124.02
416.93	3939.12
417.12	4135.73
417.31	4241.05
417.50	4301.90
417.69	4367.44
417.88	4318.29
418.07	4177.86
418.26	4327.65
418.45	4353.40
418.64	4402.55
418.83	4442.34
419.02	4596.81
419.21	4566.39
419.39	4599.15
419.58	4442.34
419.77	4444.68
419.96	4465.74
420.15	4542.98
420.34	4643.62
420.53	4669.37
420.72	4767.67
420.91	4727.88
421.10	4777.03
421.29	4943.21
421.48	4631.92
421.67	4767.67
421.86	4695.11
422.05	4664.69
422.24	4802.78
422.43	4901.08
422.61	4802.78
422.80	4933.85
422.99	4910.44
423.18	5043.85
423.37	5109.39
423.56	4891.72
423.75	4816.82
423.94	4903.42
424.13	4657.67
424.32	4802.78
424.50	5018.11
424.69	5139.82
424.88	5093.01
425.07	4943.21
425.26	4990.02
425.45	5050.88
425.64	4997.04
425.83	4887.04
426.01	5181.95
426.20	5217.05
426.39	5109.39
426.58	5018.11
426.77	5102.37
426.96	5137.48
427.15	5013.43
427.33	5107.05
427.52	5149.18
427.71	5245.14
427.90	5172.58
428.09	5191.31
428.28	5369.19
428.46	5413.66
428.65	5315.36
428.84	5570.48
429.03	5453.45
429.22	5350.46
429.40	5418.34
429.59	5547.07
429.78	5203.01
429.97	5387.91
430.16	5593.88
430.34	5675.80
430.53	5741.33
430.72	5778.78
430.91	5678.14
431.10	5661.76
431.28	5717.93
431.47	5900.49
431.66	5818.57
431.85	5713.25
432.03	5968.37
432.22	5930.92
432.41	6080.71
432.60	5837.30
432.79	5900.49
432.97	6003.47
433.16	6069.01
433.35	6073.69
433.54	6052.63
433.72	6108.80
433.91	5998.79
434.10	6150.93
434.28	6073.69
434.47	6237.53
434.66	6256.25
434.85	6174.33
435.03	6324.13
435.22	6377.96
435.41	6602.65
435.59	6270.30
435.78	6424.77
435.97	6562.86
436.16	6436.47
436.34	6518.39
436.53	6525.41
436.72	6733.72
436.90	6471.58
437.09	6670.53
437.28	6597.97
437.46	6623.72
437.65	6609.67
437.84	6761.81
438.02	6764.15
438.21	6658.82
438.40	6731.38
438.58	7052.03
438.77	7080.12
438.96	6984.16
439.14	7098.84
439.33	7220.55
439.52	7192.47
439.70	7201.83
439.89	7403.11
440.08	7386.73
440.26	7513.12
440.45	7431.20
440.63	7651.21
440.82	7513.12
441.01	7379.71
441.19	7611.42
441.38	7686.32
441.57	7744.83
441.75	7683.98
441.94	7941.44
442.12	7873.56
442.31	7913.35
442.50	8011.65
442.68	7939.10
442.87	8072.51
443.05	8088.89
443.24	8128.68
443.43	7957.82
443.61	8163.79
443.80	8472.74
443.98	8051.44
444.17	7819.73
444.35	8203.58
444.54	8269.11
444.73	8219.96
444.91	8327.63
445.10	8116.98
445.28	8418.91
445.47	8355.71
445.65	8430.61
445.84	8503.17
446.02	8423.59
446.21	8379.12
446.39	8315.92
446.58	8500.83
446.77	8547.64
446.95	8404.86
447.14	8306.56
447.32	8573.38
447.51	8561.68
447.69	8465.72
447.88	8472.74
448.06	8477.42
448.25	8514.87
448.43	8615.51
448.62	8446.99
448.80	8587.43
448.99	8559.34
449.17	8844.88
449.36	8596.79
449.54	8858.93
449.73	8997.02
449.91	8971.27
450.10	8931.48
450.28	9001.70
450.46	8847.22
450.65	9022.77
450.83	9029.79
451.02	9214.69
451.20	8926.80
451.39	9193.62
451.57	9146.81
451.76	9107.02
451.94	9193.62
452.13	9097.66
452.31	9390.23
452.49	9015.74
452.68	9579.81
452.86	9256.82
453.05	9495.55
453.23	9495.55
453.42	9387.89
453.60	9329.38
453.78	9514.28
453.97	9437.04
454.15	9575.13
454.34	9355.12
454.52	9645.35
454.70	9802.16
454.89	9666.41
455.07	9809.19
455.26	9926.21
455.44	9956.64
455.62	9951.96
455.81	9846.63
455.99	10183.67
456.17	10211.76
456.36	10169.63
456.54	10146.22
456.73	10225.80
456.91	10312.40
457.09	10497.30
457.28	10588.58
457.46	10499.64
457.64	10424.75
457.83	10518.37
458.01	10466.88
458.19	10883.49
458.38	10663.48
458.56	10684.55
458.74	10595.61
458.93	10698.59
459.11	10677.52
459.29	10764.12
459.48	10759.44
459.66	11037.97
459.84	11049.67
460.03	11147.97
460.21	10953.71
460.39	10883.49
460.57	11054.35
460.76	11225.21
460.94	11215.85
461.12	10993.50
461.31	11260.32
461.49	11066.05
461.67	11290.74
461.85	11501.39
462.04	11337.56
462.22	11962.48
462.40	11623.10
462.59	11501.39
462.77	11494.37
462.95	11468.62
463.13	11517.78
463.32	11634.80
463.50	11595.01
463.68	11896.94
463.86	11606.72
464.05	11646.51
464.23	11623.10
464.41	11929.71
464.59	11744.81
464.78	12198.87
464.96	11810.34
465.14	12056.10
465.32	11812.68
465.50	12109.93
465.69	12114.61
465.87	12215.26
466.05	12402.50
466.23	12184.83
466.41	11967.16
466.60	12365.05
466.78	12063.12
466.96	12088.87
467.14	12109.93
467.32	12278.45
467.51	12802.73
467.69	12123.98
467.87	12388.46
468.05	12435.27
468.23	12428.24
468.41	12788.69
468.60	12528.89
468.78	12697.41
468.96	12671.66
469.14	12793.37
469.32	12975.93
469.50	12704.43
469.69	13046.15
469.87	12950.18
470.05	13048.49
470.23	13099.98
470.41	13135.09
470.59	13198.28
470.77	13034.44
470.95	13352.76
471.14	13537.66
471.32	13373.82
471.50	13717.88
471.68	13657.03
471.86	13710.86
472.04	13935.55
472.22	14139.18
472.40	13825.54
472.58	13834.91
472.77	13816.18
472.95	14132.15
473.13	14394.29
473.31	14146.20
473.49	14202.37
473.67	14085.34
473.85	14466.85
474.03	14768.78
474.21	14864.74
474.39	14602.60
474.57	14597.92
474.75	14970.07
474.93	15169.01
475.12	14946.66
475.30	15386.68
475.48	15042.62
475.66	15178.37
475.84	15264.97
476.02	15442.85
476.20	15400.72
476.38	15805.64
476.56	15702.65
476.74	16180.12
476.92	15925.00
477.10	15824.36
477.28	16318.22
477.46	16360.34
477.64	16402.47
477.82	16484.39
478.00	16980.59
478.18	17041.44
478.36	16933.78
478.54	17303.58
478.72	17041.44
478.90	17514.23
479.08	17671.04
479.26	17465.08
479.44	17401.88
479.62	17813.82
479.80	18270.22
479.98	18370.86
480.16	18420.02
480.34	18192.98
480.52	18651.73
480.70	18913.87
480.88	18604.92
481.06	18759.39
481.24	19173.67
481.41	19421.77
481.59	19159.63
481.77	19447.51
481.95	19796.25
482.13	19604.33
482.31	19557.52
482.49	20451.60
482.67	20294.79
482.85	20505.43
483.03	20437.56
483.21	20833.11
483.39	21006.31
483.57	21001.63
483.74	21385.47
483.92	21542.29
484.10	21006.31
484.28	21907.41
484.46	22073.59
484.64	22377.86
484.82	21930.82
485.00	22422.33
485.18	22724.26
485.35	23014.49
485.53	22813.20
485.71	22953.63
485.89	23744.73
486.07	23309.40
486.25	23468.55
486.43	23590.26
486.61	23915.59
486.78	24098.16
486.96	24053.69
487.14	24601.37
487.32	24446.90
487.50	24929.05
487.68	25245.02
487.85	24954.79
488.03	25827.81
488.21	25612.48
488.39	26092.29
488.57	26169.53
488.75	26452.73
488.92	26375.50
489.10	26939.57
489.28	27021.48
489.46	27220.43
489.64	27040.21
489.81	27735.35
489.99	27812.59
490.17	28114.52
490.35	28318.14
490.53	28294.74
490.70	28526.45
490.88	28238.56
491.06	28849.44
491.24	28767.52
491.41	29465.00
491.59	29109.24
491.77	29392.45
491.95	29813.74
492.13	29776.30
492.30	30047.80
492.48	29989.28
492.66	30246.74
492.84	30281.85
493.01	30600.16
493.19	30841.24
493.37	31449.78
493.54	31218.07
493.72	31332.75
493.90	31543.40
494.08	32025.55
494.25	32261.94
494.43	32297.05
494.61	32224.50
494.79	32348.54
494.96	32617.71
495.14	32762.82
495.32	33516.47
495.49	33270.72
495.67	33317.53
495.85	33593.71
496.02	33748.18
496.20	34150.76
496.38	34099.26
496.55	34286.51
496.73	35154.85
496.91	34920.79
497.09	35049.52
497.26	35274.21
497.44	34998.03
497.62	35658.06
497.79	35948.29
497.97	35644.02
498.14	35901.48
498.32	36355.54
498.50	36615.34
498.67	37048.34
498.85	36526.40
499.03	36503.00
499.20	37127.92
499.38	36889.18
499.56	37233.24
499.73	37235.58
499.91	37165.37
500.08	37914.34
500.26	37275.37
500.44	37640.50
500.61	37738.80
500.79	38237.33
500.97	38464.36
501.14	38717.14
501.32	38817.78
501.49	39019.07
501.67	38649.27
501.84	39297.59
502.02	38948.85
502.20	39253.12
502.37	39503.56
502.55	39466.11
502.72	39325.68
502.90	39463.77
503.07	39253.12
503.25	39779.74
503.43	39622.93
503.60	39999.76
503.78	40046.57
503.95	40575.53
504.13	40357.86
504.30	40528.72
504.48	40577.87
504.65	41083.42
504.83	40692.55
505.01	41525.78
505.18	41361.95
505.36	41848.78
505.53	41212.15
505.71	41750.48
505.88	42169.43
506.06	41565.57
506.23	41937.72
506.41	41762.18
506.58	42522.85
506.76	42169.43
506.93	42436.25
507.11	42660.94
507.28	42333.27
507.46	43164.16
507.63	43026.07
507.81	43262.46
507.98	42962.87
508.16	43316.29
508.33	43199.27
508.50	43377.15
508.68	43742.27
508.85	43840.57
509.03	43985.69
509.20	44292.30
509.38	44669.12
509.55	44727.64
509.73	44545.08
509.90	44481.88
510.08	44769.77
510.25	44655.08
510.42	44851.69
510.60	45055.31
510.77	45043.61
510.95	45813.65
511.12	45509.38
511.30	44926.58
511.47	45429.80
511.64	45181.70
511.82	46277.07
511.99	45694.28
512.17	45975.14
512.34	45984.51
512.51	46314.52
512.69	46754.54
512.86	46480.70
513.04	46909.02
513.21	47168.82
513.38	47002.64
513.56	47126.69
513.73	46869.23
513.90	47201.58
514.08	46887.95
514.25	47288.18
514.43	47227.33
514.60	47445.00
514.77	47547.98
514.95	47936.51
515.12	47587.77
515.29	47512.88
515.47	47810.12
515.64	47906.08
515.81	48266.53
515.99	48463.13
516.16	48657.40
516.33	48465.47
516.51	49015.50
516.68	48594.20
516.85	48809.53
517.03	48790.81
517.20	48858.68
517.37	48844.64
517.54	49315.09
517.72	49052.95
517.89	48762.72
518.06	49375.94
518.24	49200.40
518.41	49556.16
518.58	49607.65
518.75	49301.04
518.93	49712.98
519.10	49148.91
519.27	49675.53
519.45	50005.55
519.62	50000.86
519.79	49954.05
519.96	49710.64
520.14	50373.01
520.31	50293.43
520.48	50230.24
520.65	50688.98
520.83	51136.02
521.00	50815.37
521.17	50398.76
521.34	50686.64
521.52	50990.91
521.69	50859.84
521.86	50815.37
522.03	51374.76
522.20	51334.97
522.38	51547.96
522.55	51505.83
522.72	51650.94
522.89	51444.98
523.07	51320.93
523.24	51573.70
523.41	51826.48
523.58	51763.29
523.75	52065.22
523.92	51957.55
524.10	51908.40
524.27	52123.73
524.44	52023.09
524.61	52109.69
524.78	52200.97
524.96	52245.44
525.13	52325.02
525.30	52381.19
525.47	52428.00
525.64	52701.84
525.81	52715.89
525.98	52626.95
526.16	52645.67
526.33	52643.33
526.50	53106.76
526.67	52851.64
526.84	52851.64
527.01	52699.50
527.18	53043.56
527.36	53010.79
527.53	53179.31
527.70	53244.85
527.87	53350.17
528.04	53202.72
528.21	53385.28
528.38	53532.73
528.55	53481.24
528.72	53422.73
528.89	53481.24
529.07	53413.37
529.24	53343.15
529.41	53567.84
529.58	53677.85
529.75	53853.39
529.92	53989.14
530.09	53970.41
530.26	54216.17
530.43	53986.80
530.60	53822.96
530.77	53961.05
530.94	54066.38
531.11	53771.47
531.28	54152.97
531.46	54361.28
531.63	54300.43
531.80	54251.28
531.97	54457.24
532.14	54766.20
532.31	54447.88
532.48	54412.77
532.65	54941.74
532.82	54852.80
532.99	54810.67
533.16	54607.04
533.33	55047.06
533.50	54864.50
533.67	54803.64
533.84	54829.39
534.01	54960.46
534.18	54941.74
534.35	55292.82
534.52	55199.19
534.69	55262.39
534.86	55379.42
535.03	55009.61
535.20	55150.04
535.37	55292.82
535.54	55662.62
535.71	55414.52
535.88	55744.54
536.05	55454.31
536.22	55622.83
536.38	55632.19
536.55	55798.37
536.72	55667.30
536.89	55683.69
537.06	55751.56
537.23	55655.60
537.40	55700.07
537.57	55767.94
537.74	55735.18
537.91	55938.80
538.08	55894.33
538.25	55709.43
538.42	56133.07
538.59	56313.29
538.75	55875.61
538.92	56046.47
539.09	56301.59
539.26	56371.80
539.43	56231.37
539.60	56250.09
539.77	56456.06
539.94	56626.92
540.11	56193.92
540.28	56348.40
540.44	56381.16
540.61	56355.42
540.78	56605.86
540.95	56659.69
541.12	56680.75
541.29	56406.91
541.46	56474.79
541.62	56671.39
541.79	56715.86
541.96	56580.11
542.13	56704.16
542.30	56374.14
542.47	56863.32
542.63	56884.38
542.80	56996.73
542.97	57209.71
543.14	57265.89
543.31	57214.40
543.48	57237.80
543.64	57574.84
543.81	57497.60
543.98	57411.00
544.15	57249.50
544.32	57584.20
544.48	57495.26
544.65	57403.98
544.82	57537.39
544.99	57303.34
545.16	57577.18
545.32	57546.75
545.49	57801.87
545.66	57696.55
545.83	57591.22
546.00	57813.57
546.16	57890.81
546.33	57785.49
546.50	57619.31
546.67	57923.58
546.83	57649.74
547.00	57764.42
547.17	57968.05
547.34	57862.72
547.50	57911.88
547.67	58262.96
547.84	57921.24
548.00	58073.37
548.17	58340.19
548.34	58127.20
548.51	58213.80
548.67	58225.51
548.84	58199.76
549.01	57956.35
549.18	58321.47
549.34	58319.13
549.51	58281.68
549.68	58621.06
549.84	58356.58
550.01	58405.73
550.18	58314.45
550.34	58595.31
550.51	58539.14
550.68	58358.92
550.84	58489.99
551.01	58707.66
551.18	58672.55
551.34	58508.71
551.51	58618.72
551.68	58637.44
551.84	58485.31
552.01	58637.44
552.18	58773.19
552.34	58644.46
552.51	58660.85
552.68	58749.79
552.84	58628.08
553.01	58801.28
553.18	58693.61
553.34	58864.47
553.51	58951.07
553.67	58773.19
553.84	59236.62
554.01	59072.78
554.17	59178.10
554.34	59082.14
554.51	59086.82
554.67	58962.78
554.84	58972.14
555.00	58986.18
555.17	58990.86
555.33	59180.45
555.50	59007.25
555.67	59086.82
555.83	59196.83
556.00	59135.98
556.16	59419.18
556.33	59264.70
556.50	59194.49
556.66	59451.95
556.83	58988.52
556.99	59683.66
557.16	59510.46
557.32	59517.48
557.49	59707.07
557.65	59250.66
557.82	59414.50
557.98	59583.02
558.15	59391.09
558.32	59341.94
558.48	59407.48
558.65	59304.49
558.81	59517.48
558.98	59531.53
559.14	59653.23
559.31	59671.96
559.47	59697.70
559.64	59756.22
559.80	59505.78
559.97	59592.38
560.13	59763.24
560.30	59810.05
560.46	59676.64
560.63	59664.94
560.79	59824.09
560.96	59894.31
561.12	59973.89
561.29	60051.12
561.45	59739.83
561.61	59524.50
561.78	59758.56
561.94	60076.87
562.11	60009.00
562.27	59842.82
562.44	59985.59
562.60	60065.17
562.77	60086.23
562.93	60018.36
563.10	60392.84
563.26	59985.59
563.42	60434.97
563.59	59966.87
563.75	60341.35
563.92	60175.17
564.08	60207.94
564.24	60123.68
564.41	60072.19
564.57	60154.11
564.74	60282.84
564.90	60097.94
565.07	60067.51
565.23	60121.34
565.39	59936.44
565.56	60329.65
565.72	60310.92
565.88	60317.95
566.05	60172.83
566.21	60294.54
566.38	60282.84
566.54	60388.16
566.70	60491.15
566.87	60343.69
567.03	60346.03
567.19	60500.51
567.36	60439.65
567.52	60226.66
567.68	60659.66
567.85	60339.01
568.01	60385.82
568.17	60463.06
568.34	60411.57
568.50	60341.35
568.66	60420.93
568.83	60224.32
568.99	60238.37
569.15	60556.68
569.32	60512.21
569.48	60512.21
569.64	60797.76
569.81	60568.38
569.97	60500.51
570.13	60339.01
570.30	60437.31
570.46	60587.11
570.62	60493.49
570.78	60533.28
570.95	60474.76
571.11	60722.86
571.27	60570.72
571.43	60449.02
571.60	60748.60
571.76	60772.01
571.92	60802.44
572.09	60598.81
572.25	60608.17
572.41	60622.22
572.57	60584.77
572.74	60654.98
572.90	60500.51
573.06	60718.18
573.22	60739.24
573.38	60858.61
573.55	60692.43
573.71	60896.06
573.87	60706.47
574.03	60521.57
574.20	60919.46
574.36	60622.22
574.52	60704.13
574.68	60617.53
574.84	60795.42
575.01	60935.85
575.17	60900.74
575.33	60802.44
575.49	60694.77
575.65	60622.22
575.82	60889.04
575.98	60945.21
576.14	61062.24
576.30	60884.36
576.46	60662.00
576.62	60882.02
576.79	60757.97
576.95	60680.73
577.11	60905.42
577.27	60879.67
577.43	60725.20
577.59	60851.59
577.75	60762.65
577.92	60746.26
578.08	60722.86
578.24	60931.17
578.40	60931.17
578.56	60825.84
578.72	60992.02
578.88	61069.26
579.04	61120.75
579.21	60940.53
579.37	60860.95
579.53	61160.54
579.69	60779.03
579.85	60823.50
580.01	60865.63
580.17	60917.12
580.33	60994.36
580.49	61244.80
580.65	61095.00
580.82	60975.64
580.98	60755.63
581.14	60793.07
581.30	60977.98
581.46	60980.32
581.62	60970.96
581.78	60942.87
581.94	61123.09
582.10	60968.61
582.26	61109.05
582.42	60919.46
582.58	61078.62
582.74	61020.11
582.90	60999.04
583.06	61181.60
583.22	60837.54
583.38	61010.74
583.54	61048.19
583.70	61013.08
583.86	61258.84
584.02	60905.42
584.18	60952.23
584.34	60970.96
584.50	60837.54
584.66	61015.43
584.82	60708.82
584.98	61247.14
585.14	61006.06
585.30	61041.17
585.46	61071.60
585.62	60889.04
585.78	61125.43
585.94	60924.14
586.10	61092.66
586.26	61024.79
586.42	61200.33
586.58	61165.22
586.74	61244.80
586.90	61118.41
587.06	61118.41
587.22	61097.34
587.38	61139.47
587.54	61317.35
587.70	61329.06
587.86	61095.00
588.02	61202.67
588.18	61275.22
588.34	61113.73
588.49	61055.21
