SpectraSuite Data File
++++++++++++++++++++++++++++++++++++
Date: Fri Oct 25 11:25:00 EDT 2013
User: price-jones
Dark Spectrum Present: No
Reference Spectrum Present: No
Number of Sampled Component Spectra: 1
Spectrometers: USB2+H05261
Integration Time (usec): 100000 (USB2+H05261)
Spectra Averaged: 1 (USB2+H05261)
Boxcar Smoothing: 0 (USB2+H05261)
Correct for Electrical Dark: No (USB2+H05261)
Strobe/Lamp Enabled: No (USB2+H05261)
Correct for Detector Non-linearity: No (USB2+H05261)
Correct for Stray Light: No (USB2+H05261)
Number of Pixels in Processed Spectrum: 2048
>>>>>Begin Processed Spectral Data<<<<<
365.73	250.44
365.92	250.44
366.12	250.44
366.32	170.86
366.52	170.86
366.72	145.11
366.91	168.52
367.11	70.22
367.31	126.39
367.51	112.35
367.70	177.88
367.90	170.86
368.10	180.22
368.30	184.90
368.49	105.32
368.69	131.07
368.89	196.60
369.09	124.05
369.28	154.48
369.48	140.43
369.68	131.07
369.87	222.35
370.07	234.05
370.27	255.12
370.47	308.95
370.66	582.79
370.86	571.09
371.06	664.71
371.25	704.50
371.45	648.33
371.65	636.63
371.84	645.99
372.04	777.06
372.24	685.78
372.44	660.03
372.63	716.20
372.83	695.14
373.03	758.33
373.22	737.27
373.42	856.64
373.62	779.40
373.81	844.93
374.01	805.14
374.21	802.80
374.40	805.14
374.60	861.32
374.79	844.93
374.99	748.97
375.19	840.25
375.38	781.74
375.58	858.98
375.78	791.10
375.97	912.81
376.17	770.04
376.37	919.83
376.56	844.93
376.76	821.53
376.95	802.80
377.15	947.92
377.35	887.06
377.54	936.21
377.74	922.17
377.93	917.49
378.13	915.15
378.33	1004.09
378.52	870.68
378.72	929.19
378.91	936.21
379.11	891.74
379.31	905.79
379.50	875.36
379.70	926.85
379.89	959.62
380.09	936.21
380.28	950.26
380.48	915.15
380.68	938.55
380.87	1062.60
381.07	976.00
381.26	1128.14
381.46	1006.43
381.65	1020.47
381.85	1001.75
382.04	992.39
382.24	1137.50
382.43	1046.22
382.63	1076.65
382.83	1006.43
383.02	1179.63
383.22	1156.22
383.41	1071.97
383.61	1188.99
383.80	1062.60
384.00	1088.35
384.19	1132.82
384.39	1015.79
384.58	1158.57
384.78	1135.16
384.97	1261.55
385.17	1139.84
385.36	1114.10
385.56	1156.22
385.75	1121.12
385.95	1109.41
386.14	1179.63
386.34	1186.65
386.53	1256.87
386.72	1210.06
386.92	1249.85
387.11	1217.08
387.31	1238.14
387.50	1282.61
387.70	1277.93
387.89	1294.32
388.09	1245.16
388.28	1245.16
388.48	1406.66
388.67	1378.58
388.86	1324.74
389.06	1282.61
389.25	1320.06
389.45	1427.73
389.64	1378.58
389.84	1413.68
390.03	1369.21
390.22	1329.42
390.42	1462.83
390.61	1296.66
390.81	1420.71
391.00	1380.92
391.19	1460.49
391.39	1383.26
391.58	1500.28
391.78	1479.22
391.97	1446.45
392.16	1500.28
392.36	1523.69
392.55	1472.20
392.75	1486.24
392.94	1577.52
393.13	1504.96
393.33	1558.80
393.52	1528.37
393.71	1542.41
393.91	1563.48
394.10	1514.33
394.29	1507.30
394.49	1589.22
394.68	1626.67
394.88	1729.66
395.07	1849.02
395.26	1612.63
395.46	1696.89
395.65	1727.32
395.84	1790.51
396.04	1753.06
396.23	1785.83
396.42	1678.16
396.62	1809.23
396.81	1797.53
397.00	1778.81
397.19	1809.23
397.39	1888.81
397.58	1863.07
397.77	1851.36
397.97	1813.92
398.16	1811.57
398.35	1867.75
398.55	1884.13
398.74	1898.17
398.93	2026.90
399.12	1968.39
399.32	1865.41
399.51	1933.28
399.70	1961.37
399.90	1987.11
400.09	2003.50
400.28	2031.58
400.47	1980.09
400.67	2176.70
400.86	2017.54
401.05	1968.39
401.24	2047.97
401.44	2083.08
401.63	2064.35
401.82	2157.97
402.01	2087.76
402.21	2279.68
402.40	2228.19
402.59	2207.13
402.78	2186.06
402.97	2310.11
403.17	2211.81
403.36	2225.85
403.55	2291.38
403.74	2377.98
403.93	2223.51
404.13	2443.52
404.32	2321.81
404.51	2270.32
404.70	2324.15
404.89	2394.37
405.09	2469.27
405.28	2455.22
405.47	2473.95
405.66	2565.23
405.85	2511.39
406.05	2483.31
406.24	2539.48
406.43	2595.65
406.62	2588.63
406.81	2665.87
407.00	2499.69
407.20	2640.12
407.39	2478.63
407.58	2647.15
407.77	2677.57
407.96	2806.30
408.15	2832.05
408.34	2635.44
408.54	2782.90
408.73	2787.58
408.92	2846.09
409.11	2881.20
409.30	2958.44
409.49	2850.77
409.68	2892.90
409.87	2913.97
410.07	3047.38
410.26	2972.48
410.45	3101.21
410.64	3110.57
410.83	3171.43
411.02	3063.76
411.21	3187.81
411.40	3038.02
411.59	3192.49
411.78	3178.45
411.98	3251.00
412.17	3321.22
412.36	3241.64
412.55	3316.54
412.74	3400.80
412.93	3365.69
413.12	3379.73
413.31	3494.42
413.50	3618.47
413.69	3398.46
413.88	3597.40
414.07	3515.48
414.26	3737.84
414.45	3630.17
414.64	3557.61
414.83	3712.09
415.02	3819.75
415.22	3812.73
415.41	3801.03
415.60	3747.20
415.79	3882.95
415.98	3904.01
416.17	3964.87
416.36	3875.93
416.55	3948.48
416.74	4077.21
416.93	4107.64
417.12	3943.80
417.31	4124.02
417.50	4021.04
417.69	4318.29
417.88	4287.86
418.07	4189.56
418.26	4208.28
418.45	4264.46
418.64	4461.06
418.83	4334.67
419.02	4454.04
419.21	4442.34
419.39	4456.38
419.58	4379.14
419.77	4332.33
419.96	4587.45
420.15	4643.62
420.34	4521.92
420.53	4582.77
420.72	4748.95
420.91	4716.18
421.10	4655.33
421.29	4863.63
421.48	4627.24
421.67	4713.84
421.86	4826.18
422.05	4744.27
422.24	4919.81
422.43	4945.55
422.61	4847.25
422.80	4975.98
422.99	4983.00
423.18	4828.53
423.37	4929.17
423.56	4929.17
423.75	5032.15
423.94	4837.89
424.13	4615.54
424.32	4858.95
424.50	5008.75
424.69	5085.98
424.88	4973.64
425.07	4919.81
425.26	5022.79
425.45	5018.11
425.64	4945.55
425.83	4884.70
426.01	5011.09
426.20	5011.09
426.39	5055.56
426.58	5069.60
426.77	4947.89
426.96	5085.98
427.15	5022.79
427.33	5167.90
427.52	5125.77
427.71	5128.11
427.90	5254.50
428.09	5303.65
428.28	5383.23
428.46	5423.02
428.65	5334.08
428.84	5455.79
429.03	5493.24
429.22	5413.66
429.40	5479.19
429.59	5504.94
429.78	5282.59
429.97	5118.75
430.16	5472.17
430.34	5528.35
430.53	5607.92
430.72	5715.59
430.91	5542.39
431.10	5514.30
431.28	5694.52
431.47	5659.42
431.66	5797.51
431.85	5717.93
432.03	5872.40
432.22	5928.58
432.41	5968.37
432.60	5902.83
432.79	5746.02
432.97	5827.93
433.16	6010.50
433.35	6005.81
433.54	5902.83
433.72	6120.50
433.91	6155.61
434.10	6146.25
434.28	6167.31
434.47	6195.40
434.66	6197.74
434.85	6263.27
435.03	6384.98
435.22	6256.25
435.41	6436.47
435.59	6307.74
435.78	6331.15
435.97	6410.73
436.16	6382.64
436.34	6445.84
436.53	6380.30
436.72	6717.34
436.90	6384.98
437.09	6686.91
437.28	6457.54
437.46	6494.99
437.65	6604.99
437.84	6825.00
438.02	6731.38
438.21	6815.64
438.40	6810.96
438.58	7012.24
438.77	7009.90
438.96	6923.30
439.14	7194.81
439.33	7143.32
439.52	7155.02
439.70	7358.64
439.89	7229.91
440.08	7321.20
440.26	7382.05
440.45	7318.86
440.63	7454.61
440.82	7728.45
441.01	7583.34
441.19	7613.76
441.38	7707.38
441.57	7908.67
441.75	7927.39
441.94	7894.63
442.12	7887.61
442.31	7974.21
442.50	7981.23
442.68	8145.06
442.87	8187.19
443.05	7957.82
443.24	8173.15
443.43	8138.04
443.61	8180.17
443.80	8266.77
443.98	8194.22
444.17	7721.43
444.35	8229.32
444.54	8243.37
444.73	8404.86
444.91	8400.18
445.10	8280.82
445.28	8231.66
445.47	8250.39
445.65	8528.91
445.84	8496.14
446.02	8477.42
446.21	8493.80
446.39	8365.07
446.58	8475.08
446.77	8482.10
446.95	8184.85
447.14	8416.57
447.32	8528.91
447.51	8681.05
447.69	8449.33
447.88	8601.47
448.06	8416.57
448.25	8493.80
448.43	8650.62
448.62	8482.10
448.80	8667.00
448.99	8439.97
449.17	8788.71
449.36	8638.92
449.54	8779.35
449.73	8851.91
449.91	8938.51
450.10	9018.08
450.28	8997.02
450.46	9071.92
450.65	9144.47
450.83	9123.41
451.02	9097.66
451.20	9315.33
451.39	9018.08
451.57	9050.85
451.76	8884.67
451.94	9137.45
452.13	9469.81
452.31	9144.47
452.49	8938.51
452.68	9298.95
452.86	9312.99
453.05	9455.76
453.23	9413.63
453.42	9378.53
453.60	9373.85
453.78	9441.72
453.97	9383.21
454.15	9591.52
454.34	9376.19
454.52	9626.62
454.70	9617.26
454.89	9603.22
455.07	9858.34
455.26	9884.08
455.44	9806.84
455.62	9987.07
455.81	10019.83
455.99	10111.11
456.17	9877.06
456.36	10113.45
456.54	9987.07
456.73	10068.98
456.91	10246.87
457.09	10408.36
457.28	10464.54
457.46	10171.97
457.64	10567.52
457.83	10616.67
458.01	10417.72
458.19	10677.52
458.38	10551.14
458.56	10523.05
458.74	10630.71
458.93	10677.52
459.11	10700.93
459.29	10626.03
459.48	10883.49
459.66	10637.73
459.84	10810.93
460.03	10958.39
460.21	10927.96
460.39	10970.09
460.57	10995.84
460.76	11096.48
460.94	11037.97
461.12	11068.39
461.31	10998.18
461.49	11201.80
461.67	11140.95
461.85	11585.65
462.04	11075.42
462.22	11964.82
462.40	11515.44
462.59	11405.43
462.77	11571.61
462.95	11599.70
463.13	11646.51
463.32	11644.17
463.50	11929.71
463.68	11777.58
463.86	12002.27
464.05	11529.48
464.23	11534.16
464.41	11915.67
464.59	11433.52
464.78	12056.10
464.96	11908.65
465.14	11831.41
465.32	12116.95
465.50	12009.29
465.69	12351.01
465.87	12231.64
466.05	12112.27
466.23	12285.47
466.41	12217.60
466.60	12233.98
466.78	11960.14
466.96	12304.20
467.14	12299.52
467.32	12456.33
467.51	12566.34
467.69	12166.10
467.87	12592.08
468.05	12643.57
468.23	12524.21
468.41	12402.50
468.60	12446.97
468.78	12849.54
468.96	12629.53
469.14	13018.06
469.32	12903.37
469.50	12631.87
469.69	13097.64
469.87	12978.27
470.05	12910.40
470.23	13139.77
470.41	13179.56
470.59	13341.05
470.77	13165.51
470.95	13298.92
471.14	13479.15
471.32	13034.44
471.50	13650.00
471.68	13640.64
471.86	13701.50
472.04	13654.69
472.22	13853.63
472.40	13369.14
472.58	13919.17
472.77	13919.17
472.95	14120.45
473.13	14518.34
473.31	14155.56
473.49	14167.26
473.67	14104.07
473.85	14321.74
474.03	14609.62
474.21	14532.39
474.39	14553.45
474.57	14689.20
474.75	15019.22
474.93	14712.61
475.12	14963.04
475.30	15047.30
475.48	15396.04
475.66	15199.44
475.84	15166.67
476.02	15433.49
476.20	15337.53
476.38	15733.08
476.56	15679.25
476.74	15896.92
476.92	15494.35
477.10	15728.40
477.28	16210.55
477.46	15967.13
477.64	16428.22
477.82	16456.31
478.00	17029.74
478.18	16542.91
478.36	17006.33
478.54	16994.63
478.72	17069.53
478.90	17074.21
479.08	17678.07
479.26	17537.63
479.44	17923.82
479.62	17855.95
479.80	18099.36
479.98	18190.64
480.16	18373.21
480.34	18265.54
480.52	18618.96
480.70	18394.27
480.88	18551.09
481.06	19080.05
481.24	18951.32
481.41	18988.77
481.59	19337.51
481.77	19185.37
481.95	19410.06
482.13	19978.81
482.31	19693.27
482.49	20313.51
482.67	20243.29
482.85	20505.43
483.03	20575.65
483.21	20400.11
483.39	20765.23
483.57	20779.28
483.74	21153.76
483.92	21018.01
484.10	21223.98
484.28	21886.35
484.46	21956.57
484.64	22263.18
484.82	21806.77
485.00	22396.59
485.18	22630.64
485.35	22848.31
485.53	22742.99
485.71	23033.21
485.89	23527.06
486.07	23065.98
486.25	23274.29
486.43	23405.36
486.61	23536.43
486.78	24098.16
486.96	24301.78
487.14	24561.58
487.32	24524.13
487.50	24690.31
487.68	24823.72
487.85	25348.00
488.03	25511.84
488.21	25741.21
488.39	25542.27
488.57	25940.16
488.75	26162.51
488.92	26529.97
489.10	26518.27
489.28	26590.83
489.46	26881.05
489.64	27042.55
489.81	27786.84
489.99	27564.49
490.17	27623.00
490.35	28020.89
490.53	28233.88
490.70	28507.72
490.88	28196.43
491.06	28606.03
491.24	28910.30
491.41	29046.05
491.59	29277.76
491.77	29436.92
491.95	29486.07
492.13	29649.91
492.30	29673.31
492.48	30239.72
492.66	30202.27
492.84	30108.65
493.01	30298.23
493.19	30836.56
493.37	30684.42
493.54	30866.98
493.72	31536.38
493.90	31433.39
494.08	31658.09
494.25	32222.16
494.43	32133.21
494.61	32273.65
494.79	31964.70
494.96	32385.99
495.14	32769.84
495.32	33221.56
495.49	32889.21
495.67	32858.78
495.85	33483.70
496.02	33797.34
496.20	34480.77
496.38	34019.69
496.55	34258.42
496.73	34904.41
496.91	34443.32
497.09	34796.74
497.26	34696.10
497.44	35154.85
497.62	35271.87
497.79	35842.96
497.97	35620.61
498.14	35929.56
498.32	35835.94
498.50	36006.80
498.67	36477.25
498.85	36133.19
499.03	36308.73
499.20	36493.63
499.38	36596.62
499.56	36833.01
499.73	37153.66
499.91	37270.69
500.08	37336.23
500.26	37160.69
500.44	37745.82
500.61	38178.82
500.79	37469.64
500.97	37846.46
501.14	38492.45
501.32	38653.95
501.49	38422.23
501.67	38827.15
501.84	38897.36
502.02	39014.39
502.20	39042.48
502.37	39213.34
502.55	39386.54
502.72	39456.75
502.90	39576.12
503.07	39098.65
503.25	39587.82
503.43	39449.73
503.60	39873.37
503.78	39938.90
503.95	40273.60
504.13	40912.56
504.30	40776.81
504.48	40402.33
504.65	40545.10
504.83	41291.73
505.01	41570.25
505.18	40879.80
505.36	41453.23
505.53	41034.27
505.71	41392.37
505.88	41710.69
506.06	41713.03
506.23	41933.04
506.41	41656.85
506.58	41984.53
506.76	41745.80
506.93	42263.05
507.11	42040.70
507.28	42609.45
507.46	42487.74
507.63	42738.18
507.81	42534.56
507.98	42684.35
508.16	43222.67
508.33	43105.65
508.50	43634.61
508.68	43632.27
508.85	43761.00
509.03	43901.43
509.20	43805.47
509.38	44067.61
509.55	44402.30
509.73	44306.34
509.90	44683.17
510.08	44355.49
510.25	45027.23
510.42	44411.67
510.60	44708.91
510.77	45284.68
510.95	45556.19
511.12	44884.45
511.30	44971.05
511.47	45485.97
511.64	45310.43
511.82	45591.30
511.99	45282.34
512.17	45872.16
512.34	46031.32
512.51	45954.08
512.69	46284.09
512.86	46223.24
513.04	46370.69
513.21	46602.41
513.38	46319.20
513.56	47110.30
513.73	46976.89
513.90	46983.91
514.08	47051.79
514.25	47196.90
514.43	47222.65
514.60	47290.52
514.77	47224.99
514.95	47459.04
515.12	47285.84
515.29	47749.27
515.47	47573.73
515.64	47730.54
515.81	48030.13
515.99	48053.54
516.16	48086.31
516.33	48556.75
516.51	48458.45
516.68	48570.80
516.85	48294.61
517.03	48807.19
517.20	48795.49
517.37	48636.33
517.54	48390.58
517.72	49116.14
517.89	49109.12
518.06	49095.08
518.24	49097.42
518.41	49169.97
518.58	49675.53
518.75	49106.78
518.93	49443.82
519.10	49324.45
519.27	49701.28
519.45	49881.50
519.62	50021.93
519.79	50057.04
519.96	49776.17
520.14	49977.46
520.31	49860.43
520.48	50588.34
520.65	49996.18
520.83	50581.32
521.00	50749.84
521.17	50567.27
521.34	50749.84
521.52	50808.35
521.69	51250.71
521.86	51157.09
522.03	50768.56
522.20	51065.81
522.38	51384.12
522.55	51433.27
522.72	51077.51
522.89	51267.09
523.07	51470.72
523.24	51466.04
523.41	51444.98
523.58	51402.85
523.75	51920.10
523.92	51987.98
524.10	51885.00
524.27	51931.81
524.44	52011.38
524.61	52423.32
524.78	52271.18
524.96	51899.04
525.13	52009.04
525.30	52097.98
525.47	52474.81
525.64	52168.20
525.81	52402.25
525.98	52783.76
526.16	52582.48
526.33	52640.99
526.50	53148.88
526.67	52713.55
526.84	53017.82
527.01	52748.65
527.18	52832.91
527.36	53022.50
527.53	52926.53
527.70	53165.27
527.87	53235.48
528.04	52917.17
528.21	52940.58
528.38	53090.37
528.55	53572.52
528.72	53279.96
528.89	53242.51
529.07	53336.13
529.24	53277.61
529.41	53757.42
529.58	53659.12
529.75	53530.39
529.92	53624.01
530.09	53715.29
530.26	53729.34
530.43	53998.50
530.60	53783.17
530.77	53698.91
530.94	54110.85
531.11	53968.07
531.28	53993.82
531.46	54293.41
531.63	53951.69
531.80	54155.32
531.97	54326.17
532.14	54433.84
532.31	54204.47
532.48	54394.05
532.65	54773.22
532.82	54431.50
532.99	54773.22
533.16	54351.92
533.33	54553.21
533.50	54953.44
533.67	54583.63
533.84	54670.23
534.01	54899.61
534.18	54941.74
534.35	55161.75
534.52	55037.70
534.69	55117.28
534.86	55377.08
535.03	54857.48
535.20	55302.18
535.37	55360.69
535.54	55498.78
535.71	55201.53
535.88	55182.81
536.05	55576.02
536.22	55533.89
536.38	55522.19
536.55	55697.73
536.72	55482.40
536.89	55487.08
537.06	55732.84
537.23	55767.94
537.40	55454.31
537.57	55533.89
537.74	55739.86
537.91	55948.17
538.08	55901.36
538.25	55466.02
538.42	55831.14
538.59	56207.97
538.75	55859.23
538.92	55847.52
539.09	56233.71
539.26	56144.77
539.43	55952.85
539.60	56025.40
539.77	56301.59
539.94	56561.39
540.11	56285.20
540.28	56425.64
540.44	56390.53
540.61	56470.11
540.78	56402.23
540.95	56273.50
541.12	56451.38
541.29	56388.19
541.46	56676.07
541.62	56404.57
541.79	56435.00
541.96	56362.44
542.13	56584.79
542.30	56498.19
542.47	56713.52
542.63	56580.11
542.80	56914.81
542.97	57038.86
543.14	57137.16
543.31	57095.03
543.48	57190.99
543.64	57385.25
543.81	57038.86
543.98	57347.81
544.15	57312.70
544.32	57331.42
544.48	57750.38
544.65	57223.76
544.82	57352.49
544.99	57319.72
545.16	57338.44
545.32	57343.12
545.49	57581.86
545.66	57719.95
545.83	57448.45
546.00	57715.27
546.16	57609.95
546.33	57240.14
546.50	57411.00
546.67	57804.21
546.83	57263.55
547.00	57698.89
547.17	57663.78
547.34	57954.00
547.50	58031.24
547.67	58220.83
547.84	57813.57
548.00	58017.20
548.17	58286.36
548.34	58199.76
548.51	58066.35
548.67	58115.50
548.84	57867.40
549.01	58143.59
549.18	57762.08
549.34	58211.46
549.51	58372.96
549.68	58197.42
549.84	58379.98
550.01	58459.56
550.18	58277.00
550.34	58527.44
550.51	58312.11
550.68	58288.70
550.84	58267.64
551.01	58358.92
551.18	58457.22
551.34	58534.46
551.51	58518.07
551.68	58567.23
551.84	58567.23
552.01	58480.63
552.18	58618.72
552.34	58471.26
552.51	58342.53
552.68	58553.18
552.84	58513.39
553.01	58693.61
553.18	58740.42
553.34	58866.81
553.51	58625.74
553.67	58534.46
553.84	58848.09
554.01	59124.27
554.17	58768.51
554.34	58901.92
554.51	58815.32
554.67	58859.79
554.84	58915.96
555.00	58787.24
555.17	59063.42
555.33	58911.28
555.50	58876.18
555.67	59021.29
555.83	59009.59
556.00	59304.49
556.16	59601.74
556.33	59351.30
556.50	59058.74
556.66	59178.10
556.83	59131.29
556.99	59559.61
557.16	59536.21
557.32	59365.35
557.49	59590.04
557.65	59133.63
557.82	59377.05
557.98	59241.30
558.15	59355.99
558.32	59477.69
558.48	59367.69
558.65	59414.50
558.81	59327.90
558.98	59636.85
559.14	59475.35
559.31	59718.77
559.47	59639.19
559.64	59517.48
559.80	59662.60
559.97	59723.45
560.13	59657.91
560.30	59662.60
560.46	59770.26
560.63	59749.20
560.79	59730.47
560.96	59746.86
561.12	59634.51
561.29	59894.31
561.45	59990.27
561.61	59973.89
561.78	59796.01
561.94	59730.47
562.11	59758.56
562.27	59660.26
562.44	59868.56
562.60	59966.87
562.77	60023.04
562.93	59920.05
563.10	59950.48
563.26	59784.30
563.42	60097.94
563.59	59915.37
563.75	59962.18
563.92	60069.85
564.08	59896.65
564.24	60182.19
564.41	60170.49
564.57	60163.47
564.74	60074.53
564.90	60102.62
565.07	60292.20
565.23	59959.84
565.39	59985.59
565.56	60254.75
565.72	60163.47
565.88	60130.70
566.05	60100.28
566.21	60219.64
566.38	60214.96
566.54	60189.22
566.70	60303.90
566.87	60306.24
567.03	60018.36
567.19	60378.80
567.36	60432.63
567.52	60245.39
567.68	60484.12
567.85	60395.18
568.01	60322.63
568.17	60308.58
568.34	60243.05
568.50	60212.62
568.66	60296.88
568.83	60404.55
568.99	60193.90
569.15	60402.21
569.32	60294.54
569.48	60336.67
569.64	60549.66
569.81	60385.82
569.97	60271.14
570.13	60669.03
570.30	60243.05
570.46	60432.63
570.62	60456.04
570.78	60434.97
570.95	60479.44
571.11	60566.04
571.27	60369.44
571.43	60278.16
571.60	60493.49
571.76	60437.31
571.92	60652.64
572.09	60619.88
572.25	60650.30
572.41	60449.02
572.57	60430.29
572.74	60727.54
572.90	60591.79
573.06	60629.24
573.22	60528.59
573.38	60617.53
573.55	60498.17
573.71	60804.78
573.87	60596.47
574.03	60678.39
574.20	60575.40
574.36	60629.24
574.52	60589.45
574.68	60776.69
574.84	60690.09
575.01	60664.35
575.17	60626.90
575.33	60741.58
575.49	60486.46
575.65	60673.71
575.82	60713.50
575.98	60683.07
576.14	60811.80
576.30	60781.37
576.46	60715.84
576.62	60795.42
576.79	60732.22
576.95	60371.78
577.11	60720.52
577.27	60704.13
577.43	60797.76
577.59	60685.41
577.75	60505.19
577.92	60582.43
578.08	60706.47
578.24	60594.13
578.40	60839.89
578.56	60830.52
578.72	60935.85
578.88	61010.74
579.04	60987.34
579.21	60795.42
579.37	60942.87
579.53	60996.70
579.69	60739.24
579.85	60877.33
580.01	60938.19
580.17	60584.77
580.33	60999.04
580.49	60685.41
580.65	60987.34
580.82	60725.20
580.98	60657.32
581.14	60753.29
581.30	60898.40
581.46	60669.03
581.62	61027.13
581.78	60912.44
581.94	60961.59
582.10	61090.32
582.26	60926.49
582.42	60891.38
582.58	61223.73
582.74	60676.05
582.90	60945.21
583.06	61020.11
583.22	60823.50
583.38	61095.00
583.54	61001.38
583.70	60823.50
583.86	61080.96
584.02	60816.48
584.18	61041.17
584.34	60877.33
584.50	60781.37
584.66	60849.25
584.82	60809.46
584.98	61109.05
585.14	60924.14
585.30	60924.14
585.46	60870.31
585.62	61240.12
585.78	61216.71
585.94	60746.26
586.10	61024.79
586.26	61003.72
586.42	60889.04
586.58	60938.19
586.74	60963.93
586.90	60910.10
587.06	60774.35
587.22	61127.77
587.38	61048.19
587.54	61104.37
587.70	61132.45
587.86	60992.02
588.02	61083.30
588.18	61202.67
588.34	61059.90
588.49	61080.96
