SpectraSuite Data File
++++++++++++++++++++++++++++++++++++
Date: Fri Oct 25 11:25:07 EDT 2013
User: price-jones
Dark Spectrum Present: No
Reference Spectrum Present: No
Number of Sampled Component Spectra: 1
Spectrometers: USB2+H05261
Integration Time (usec): 100000 (USB2+H05261)
Spectra Averaged: 1 (USB2+H05261)
Boxcar Smoothing: 0 (USB2+H05261)
Correct for Electrical Dark: No (USB2+H05261)
Strobe/Lamp Enabled: No (USB2+H05261)
Correct for Detector Non-linearity: No (USB2+H05261)
Correct for Stray Light: No (USB2+H05261)
Number of Pixels in Processed Spectrum: 2048
>>>>>Begin Processed Spectral Data<<<<<
365.73	236.39
365.92	236.39
366.12	236.39
366.32	121.71
366.52	121.71
366.72	131.07
366.91	140.43
367.11	86.60
367.31	121.71
367.51	128.73
367.70	56.17
367.90	98.30
368.10	149.79
368.30	84.26
368.49	177.88
368.69	173.20
368.89	117.03
369.09	128.73
369.28	131.07
369.48	147.45
369.68	189.58
369.87	189.58
370.07	238.73
370.27	245.76
370.47	330.02
370.66	580.45
370.86	751.31
371.06	706.84
371.25	699.82
371.45	664.71
371.65	631.94
371.84	709.18
372.04	610.88
372.24	683.44
372.44	610.88
372.63	697.48
372.83	741.95
373.03	713.86
373.22	781.74
373.42	746.63
373.62	802.80
373.81	727.91
374.01	748.97
374.21	877.70
374.40	793.44
374.60	748.97
374.79	830.89
374.99	805.14
375.19	798.12
375.38	777.06
375.58	791.10
375.78	863.66
375.97	880.04
376.17	793.44
376.37	802.80
376.56	755.99
376.76	851.96
376.95	882.38
377.15	861.32
377.35	908.13
377.54	929.19
377.74	884.72
377.93	882.38
378.13	894.08
378.33	973.66
378.52	924.51
378.72	1011.11
378.91	884.72
379.11	964.30
379.31	990.05
379.50	877.70
379.70	1013.45
379.89	957.28
380.09	961.96
380.28	940.90
380.48	976.00
380.68	1025.15
380.87	1018.13
381.07	1018.13
381.26	1114.10
381.46	926.85
381.65	968.98
381.85	1004.09
382.04	1071.97
382.24	1067.28
382.43	938.55
382.63	1018.13
382.83	1100.05
383.02	1013.45
383.22	1107.07
383.41	1086.01
383.61	1132.82
383.80	1151.54
384.00	1130.48
384.19	1226.44
384.39	1203.04
384.58	1224.10
384.78	1114.10
384.97	1104.73
385.17	1179.63
385.36	1200.69
385.56	1123.46
385.75	1196.01
385.95	1200.69
386.14	1233.46
386.34	1277.93
386.53	1226.44
386.72	1184.31
386.92	1275.59
387.11	1299.00
387.31	1198.35
387.50	1231.12
387.70	1277.93
387.89	1270.91
388.09	1224.10
388.28	1238.14
388.48	1196.01
388.67	1416.02
388.86	1282.61
389.06	1308.36
389.25	1315.38
389.45	1315.38
389.64	1313.04
389.84	1331.76
390.03	1399.64
390.22	1362.19
390.42	1390.28
390.61	1343.47
390.81	1481.56
391.00	1420.71
391.19	1441.77
391.39	1376.24
391.58	1359.85
391.78	1516.67
391.97	1458.15
392.16	1455.81
392.36	1526.03
392.55	1409.00
392.75	1511.99
392.94	1544.75
393.13	1425.39
393.33	1528.37
393.52	1500.28
393.71	1657.10
393.91	1593.90
394.10	1486.24
394.29	1600.93
394.49	1640.72
394.68	1687.53
394.88	1659.44
395.07	1678.16
395.26	1659.44
395.46	1629.01
395.65	1603.27
395.84	1694.55
396.04	1717.95
396.23	1673.48
396.42	1743.70
396.62	1605.61
396.81	1739.02
397.00	1790.51
397.19	1743.70
397.39	1888.81
397.58	1961.37
397.77	1820.94
397.97	1797.53
398.16	1830.30
398.35	1853.70
398.55	1900.52
398.74	1849.02
398.93	1909.88
399.12	1959.03
399.32	1874.77
399.51	1933.28
399.70	2052.65
399.90	1963.71
400.09	2019.88
400.28	1940.30
400.47	1982.43
400.67	1966.05
400.86	2092.44
401.05	1963.71
401.24	1968.39
401.44	2094.78
401.63	2118.18
401.82	2099.46
402.01	2150.95
402.21	2127.55
402.40	2120.53
402.59	2050.31
402.78	2237.55
402.97	2169.68
403.17	2333.51
403.36	2244.57
403.55	2258.62
403.74	2176.70
403.93	2356.92
404.13	2462.24
404.32	2347.56
404.51	2392.03
404.70	2347.56
404.89	2427.14
405.09	2469.27
405.28	2438.84
405.47	2478.63
405.66	2595.65
405.85	2516.08
406.05	2429.48
406.24	2408.41
406.43	2492.67
406.62	2612.04
406.81	2672.89
407.00	2518.42
407.20	2619.06
407.39	2588.63
407.58	2677.57
407.77	2640.12
407.96	2787.58
408.15	2738.43
408.34	2668.21
408.54	2815.66
408.73	2822.69
408.92	2895.24
409.11	2897.58
409.30	2829.71
409.49	3073.12
409.68	3000.57
409.87	3040.36
410.07	2951.42
410.26	3009.93
410.45	2937.37
410.64	2930.35
410.83	3023.97
411.02	2937.37
411.21	3094.19
411.40	3087.17
411.59	3080.14
411.78	3115.25
411.98	3262.71
412.17	3272.07
412.36	3323.56
412.55	3372.71
412.74	3276.75
412.93	3428.88
413.12	3323.56
413.31	3508.46
413.50	3325.90
413.69	3515.48
413.88	3564.64
414.07	3604.42
414.26	3555.27
414.45	3693.37
414.64	3658.26
414.83	3758.90
415.02	3749.54
415.22	3885.29
415.41	3925.08
415.60	3920.40
415.79	3840.82
415.98	3857.20
416.17	4035.08
416.36	3957.85
416.55	4063.17
416.74	4004.66
416.93	3934.44
417.12	4014.02
417.31	4166.15
417.50	4198.92
417.69	4299.56
417.88	4315.95
418.07	4231.69
418.26	4334.67
418.45	4299.56
418.64	4463.40
418.83	4372.12
419.02	4606.17
419.21	4575.75
419.39	4383.82
419.58	4367.44
419.77	4407.23
419.96	4667.03
420.15	4706.82
420.34	4538.30
420.53	4533.62
420.72	4702.14
420.91	4716.18
421.10	4725.54
421.29	4861.29
421.48	4772.35
421.67	4748.95
421.86	4753.63
422.05	4821.50
422.24	4723.20
422.43	4936.19
422.61	4821.50
422.80	4943.21
422.99	4880.02
423.18	4784.06
423.37	5008.75
423.56	4896.40
423.75	4887.04
423.94	4931.51
424.13	4699.80
424.32	4816.82
424.50	4870.65
424.69	4992.36
424.88	5076.62
425.07	5034.49
425.26	4856.61
425.45	5029.81
425.64	5039.17
425.83	4966.62
426.01	5078.96
426.20	5043.85
426.39	5128.11
426.58	5050.88
426.77	4863.63
426.96	5163.22
427.15	5020.45
427.33	5289.61
427.52	5191.31
427.71	5474.51
427.90	5219.39
428.09	5313.02
428.28	5289.61
428.46	5385.57
428.65	5355.15
428.84	5657.07
429.03	5397.28
429.22	5366.85
429.40	5535.37
429.59	5486.22
429.78	5235.78
429.97	5207.69
430.16	5408.98
430.34	5418.34
430.53	5682.82
430.72	5713.25
430.91	5563.45
431.10	5518.98
431.28	5657.07
431.47	5895.81
431.66	5865.38
431.85	5853.68
432.03	5851.34
432.22	5984.75
432.41	5757.72
432.60	5860.70
432.79	5799.85
432.97	5888.79
433.16	6094.76
433.35	6031.56
433.54	5888.79
433.72	6097.10
433.91	6181.35
434.10	6179.01
434.28	6113.48
434.47	6012.84
434.66	6338.17
434.85	6207.10
435.03	6230.51
435.22	6249.23
435.41	6497.33
435.59	6574.56
435.78	6445.84
435.97	6487.96
436.16	6399.02
436.34	6427.11
436.53	6588.61
436.72	6565.20
436.90	6492.65
437.09	6644.78
437.28	6555.84
437.46	6530.09
437.65	6661.16
437.84	6806.28
438.02	6825.00
438.21	6672.87
438.40	6679.89
438.58	6944.37
438.77	7101.19
438.96	6927.99
439.14	7148.00
439.33	7262.68
439.52	7276.73
439.70	7293.11
439.89	7351.62
440.08	7293.11
440.26	7253.32
440.45	7346.94
440.63	7363.33
440.82	7623.12
441.01	7611.42
441.19	7585.68
441.38	7581.00
441.57	7723.77
441.75	7683.98
441.94	7927.39
442.12	7875.90
442.31	7934.42
442.50	7943.78
442.68	8124.00
442.87	7985.91
443.05	8042.08
443.24	8058.46
443.43	7957.82
443.61	8074.85
443.80	8547.64
443.98	8021.02
444.17	7782.28
444.35	8334.65
444.54	8409.54
444.73	8308.90
444.91	8318.26
445.10	8390.82
445.28	8297.20
445.47	8131.02
445.65	8241.03
445.84	8248.05
446.02	8322.94
446.21	8496.14
446.39	8411.89
446.58	8446.99
446.77	8517.21
446.95	8409.54
447.14	8369.76
447.32	8538.27
447.51	8404.86
447.69	8559.34
447.88	8418.91
448.06	8451.67
448.25	8526.57
448.43	8830.84
448.62	8599.13
448.80	8491.46
448.99	8475.08
449.17	8704.45
449.36	8671.68
449.54	8725.52
449.73	8777.01
449.91	9081.28
450.10	8898.72
450.28	9085.96
450.46	9027.45
450.65	9046.17
450.83	8992.34
451.02	8947.87
451.20	9181.92
451.39	9088.30
451.57	8997.02
451.76	9025.11
451.94	9114.05
452.13	9291.93
452.31	9261.50
452.49	9142.13
452.68	9465.13
452.86	9352.78
453.05	9329.38
453.23	9188.94
453.42	9263.84
453.60	9371.50
453.78	9479.17
453.97	9554.07
454.15	9561.09
454.34	9385.55
454.52	9547.05
454.70	9626.62
454.89	9736.63
455.07	9708.54
455.26	9748.33
455.44	9722.59
455.62	9888.76
455.81	9916.85
455.99	10003.45
456.17	9984.73
456.36	10267.93
456.54	10047.92
456.73	10174.31
456.91	10541.77
457.09	10551.14
457.28	10375.59
457.46	10326.44
457.64	10345.17
457.83	10342.83
458.01	10406.02
458.19	10611.99
458.38	10368.57
458.56	10576.88
458.74	10637.73
458.93	10555.82
459.11	10759.44
459.29	10707.95
459.48	10794.55
459.66	10663.48
459.84	10827.32
460.03	11056.69
460.21	10775.83
460.39	11007.54
460.57	11035.63
460.76	11159.67
460.94	11171.38
461.12	11091.80
461.31	11110.52
461.49	10963.07
461.67	11110.52
461.85	11606.72
462.04	11288.40
462.22	11822.05
462.40	11662.89
462.59	11506.07
462.77	11529.48
462.95	11524.80
463.13	11580.97
463.32	11599.70
463.50	11702.68
463.68	11571.61
463.86	11800.98
464.05	11639.48
464.23	11751.83
464.41	11705.02
464.59	11573.95
464.78	12067.80
464.96	12032.69
465.14	11885.24
465.32	11709.70
465.50	12025.67
465.69	12280.79
465.87	11927.37
466.05	12070.14
466.23	12257.39
466.41	12180.15
466.60	12587.40
466.78	12018.65
466.96	12269.09
467.14	12262.07
467.32	12482.08
467.51	12477.40
467.69	11983.54
467.87	12430.59
468.05	12500.80
468.23	12423.56
468.41	12346.33
468.60	12688.04
468.78	12704.43
468.96	12432.93
469.14	12624.85
469.32	13006.36
469.50	12718.47
469.69	12678.68
469.87	12987.63
470.05	13217.01
470.23	13004.02
470.41	13282.54
470.59	13497.87
470.77	13111.68
470.95	13305.95
471.14	13678.09
471.32	13184.24
471.50	13586.81
471.68	13696.82
471.86	13532.98
472.04	13563.40
472.22	13664.05
472.40	13448.72
472.58	13809.16
472.77	14071.30
472.95	13776.39
473.13	14312.38
473.31	13973.00
473.49	13991.72
473.67	13937.89
473.85	14207.05
474.03	14663.46
474.21	14375.57
474.39	14590.90
474.57	14583.88
474.75	14878.79
474.93	14972.41
475.12	14836.66
475.30	15056.67
475.48	14953.68
475.66	15145.61
475.84	15246.25
476.02	15583.29
476.20	15384.34
476.38	15765.85
476.56	15861.81
476.74	15932.03
476.92	15744.78
477.10	15845.43
477.28	16079.48
477.46	16334.60
477.64	16390.77
477.82	16479.71
478.00	16737.17
478.18	16673.98
478.36	16753.55
478.54	17048.46
478.72	17224.00
478.90	17315.28
479.08	17507.21
479.26	17703.81
479.44	17724.88
479.62	17703.81
479.80	18082.98
479.98	18075.96
480.16	18569.81
480.34	17788.07
480.52	18349.80
480.70	18693.86
480.88	18480.87
481.06	18581.51
481.24	18787.48
481.41	19150.26
481.59	19253.25
481.77	19220.48
481.95	19496.66
482.13	19658.16
482.31	19620.71
482.49	20194.14
482.67	19901.58
482.85	20421.17
483.03	20496.07
483.21	20936.09
483.39	21027.37
483.57	20823.75
483.74	21223.98
483.92	21460.37
484.10	21249.72
484.28	21474.42
484.46	21862.94
484.64	22317.01
484.82	21731.87
485.00	22246.79
485.18	22302.96
485.35	23035.55
485.53	22398.93
485.71	22609.58
485.89	23283.65
486.07	22843.63
486.25	23190.03
486.43	23541.11
486.61	23646.43
486.78	24386.04
486.96	24049.00
487.14	24201.14
487.32	24482.00
487.50	24783.93
487.68	24915.00
487.85	25240.34
488.03	25315.23
488.21	25900.37
488.39	25799.73
488.57	26192.94
488.75	26167.19
488.92	26487.84
489.10	26441.03
489.28	26408.26
489.46	27098.72
489.64	26810.84
489.81	27297.67
489.99	27662.79
490.17	27349.16
490.35	28011.53
490.53	28191.75
490.70	28353.25
490.88	28140.26
491.06	28643.48
491.24	29055.41
491.41	28837.74
491.59	29167.76
491.77	29352.66
491.95	29680.33
492.13	29642.88
492.30	29977.58
492.48	30235.04
492.66	30403.56
492.84	30473.78
493.01	30785.07
493.19	30593.14
493.37	31035.50
493.54	31180.62
493.72	31421.69
493.90	31484.89
494.08	31873.42
494.25	31475.52
494.43	31812.56
494.61	32219.81
494.79	32484.30
494.96	32173.00
495.14	32634.09
495.32	32889.21
495.49	33369.02
495.67	33680.31
495.85	33715.42
496.02	33935.43
496.20	33696.69
496.38	33692.01
496.55	34586.10
496.73	34766.32
496.91	34185.86
497.09	34403.53
497.26	34850.58
497.44	34857.60
497.62	35117.40
497.79	35721.26
497.97	35068.25
498.14	35957.65
498.32	35922.54
498.50	36121.49
498.67	36568.53
498.85	36182.34
499.03	36802.58
499.20	36524.06
499.38	36872.80
499.56	37003.87
499.73	36989.83
499.91	37120.90
500.08	37219.20
500.26	37378.36
500.44	37806.67
500.61	37897.95
500.79	37607.73
500.97	38146.05
501.14	37930.72
501.32	38389.47
501.49	38396.49
501.67	38616.50
501.84	38569.69
502.02	38876.30
502.20	38766.29
502.37	39037.80
502.55	38852.89
502.72	39468.45
502.90	39414.62
503.07	39292.91
503.25	39533.99
503.43	39459.09
503.60	39880.39
503.78	40004.44
503.95	40306.37
504.13	40671.49
504.30	40439.78
504.48	40498.29
504.65	40514.67
504.83	40727.66
505.01	41298.75
505.18	41116.19
505.36	41663.88
505.53	41219.17
505.71	41656.85
505.88	41596.00
506.06	41378.33
506.23	41818.35
506.41	41504.72
506.58	42050.06
506.76	41387.69
506.93	42220.92
507.11	42391.78
507.28	42670.31
507.46	42464.34
507.63	42342.63
507.81	42845.85
507.98	42632.86
508.16	43175.86
508.33	43260.12
508.50	43562.05
508.68	42983.94
508.85	43812.49
509.03	43634.61
509.20	44039.52
509.38	44325.07
509.55	44287.62
509.73	44608.27
509.90	44521.67
510.08	44563.80
510.25	44521.67
510.42	44725.30
510.60	44711.25
510.77	44893.82
510.95	45460.23
511.12	44903.18
511.30	44879.77
511.47	45490.65
511.64	45731.73
511.82	45907.27
511.99	45734.07
512.17	46185.79
512.34	45830.03
512.51	46171.75
512.69	46424.53
512.86	46192.81
513.04	46433.89
513.21	46494.74
513.38	46712.41
513.56	46997.96
513.73	46497.08
513.90	46913.70
514.08	46824.76
514.25	47084.56
514.43	47192.22
514.60	47496.49
514.77	47079.88
514.95	48060.56
515.12	47515.22
515.29	47470.75
515.47	47622.88
515.64	47973.96
515.81	47569.05
515.99	48158.86
516.16	48296.95
516.33	47728.20
516.51	48671.44
516.68	48318.02
516.85	48554.41
517.03	48500.58
517.20	48619.95
517.37	48626.97
517.54	48676.12
517.72	48666.76
517.89	48978.05
518.06	48973.37
518.24	48964.01
518.41	48898.47
518.58	49186.36
518.75	49322.11
518.93	49443.82
519.10	49464.88
519.27	49766.81
519.45	49748.09
519.62	50028.95
519.79	50155.34
519.96	49705.96
520.14	50340.24
520.31	49832.35
520.48	50293.43
520.65	50326.20
520.83	50529.83
521.00	50244.28
521.17	50232.58
521.34	50291.09
521.52	50735.79
521.69	50583.66
521.86	50824.73
522.03	51114.96
522.20	50791.97
522.38	51070.49
522.55	51325.61
522.72	51224.96
522.89	51356.03
523.07	51641.58
523.24	51473.06
523.41	51629.88
523.58	51311.56
523.75	51463.70
523.92	51599.45
524.10	52219.69
524.27	51873.29
524.44	51620.52
524.61	51639.24
524.78	51915.42
524.96	52105.01
525.13	51835.84
525.30	52648.01
525.47	52463.11
525.64	52233.74
525.81	52425.66
525.98	52523.96
526.16	52355.44
526.33	52388.21
526.50	53130.16
526.67	52549.71
526.84	52802.49
527.01	52662.05
527.18	52968.66
527.36	52715.89
527.53	52935.90
527.70	53467.20
527.87	53237.83
528.04	53340.81
528.21	53525.71
528.38	53394.64
528.55	53277.61
528.72	53588.91
528.89	53359.53
529.07	53305.70
529.24	53296.34
529.41	53565.50
529.58	53621.67
529.75	53579.54
529.92	53708.27
530.09	53628.69
530.26	53825.30
530.43	53881.47
530.60	53609.97
530.77	53982.12
530.94	53862.75
531.11	53701.25
531.28	54234.89
531.46	54005.52
531.63	54115.53
531.80	54138.93
531.97	54600.02
532.14	54089.78
532.31	54288.73
532.48	54593.00
532.65	54560.23
532.82	54284.04
532.99	54532.14
533.16	54494.69
533.33	54569.59
533.50	54918.33
533.67	54656.19
533.84	54719.38
534.01	54798.96
534.18	54876.20
534.35	55262.39
534.52	55203.88
534.69	55206.22
534.86	55126.64
535.03	54997.91
535.20	55213.24
535.37	55409.84
535.54	55391.12
535.71	55112.59
535.88	55274.09
536.05	55442.61
536.22	55360.69
536.38	55217.92
536.55	55571.34
536.72	55405.16
536.89	55274.09
537.06	55386.44
537.23	55758.58
537.40	55236.64
537.57	55522.19
537.74	55833.48
537.91	55875.61
538.08	55852.20
538.25	55625.17
538.42	55852.20
538.59	56011.36
538.75	55896.67
538.92	56088.60
539.09	56041.79
539.26	56027.74
539.43	56053.49
539.60	55987.95
539.77	56011.36
539.94	56224.35
540.11	56210.31
540.28	56348.40
540.44	56378.82
540.61	56301.59
540.78	56346.06
540.95	56236.05
541.12	56470.11
541.29	56355.42
541.46	56563.73
541.62	56355.42
541.79	56537.98
541.96	56460.74
542.13	56404.57
542.30	56619.90
542.47	56783.74
542.63	56713.52
542.80	56781.40
542.97	57106.73
543.14	57141.84
543.31	57247.16
543.48	57244.82
543.64	57462.49
543.81	57310.36
543.98	57186.31
544.15	57186.31
544.32	57380.57
544.48	57469.51
544.65	57134.82
544.82	57331.42
544.99	57364.19
545.16	57528.03
545.32	57258.87
545.49	57530.37
545.66	57556.11
545.83	57315.04
546.00	57682.50
546.16	57633.35
546.33	57497.60
546.50	57242.48
546.67	57661.44
546.83	57361.85
547.00	57780.81
547.17	57780.81
547.34	57729.31
547.50	57848.68
547.67	57958.69
547.84	57911.88
548.00	57954.00
548.17	58064.01
548.34	58143.59
548.51	58110.82
548.67	58024.22
548.84	58092.10
549.01	58209.12
549.18	58155.29
549.34	58209.12
549.51	58211.46
549.68	58272.32
549.84	58185.72
550.01	58508.71
550.18	57911.88
550.34	58363.60
550.51	58314.45
550.68	58272.32
550.84	58094.44
551.01	58494.67
551.18	58394.03
551.34	58592.97
551.51	58686.59
551.68	58592.97
551.84	58553.18
552.01	58410.41
552.18	58567.23
552.34	58443.18
552.51	58557.86
552.68	58614.04
552.84	58562.54
553.01	58801.28
553.18	58717.02
553.34	58726.38
553.51	58569.57
553.67	58773.19
553.84	58948.73
554.01	58918.31
554.17	58967.46
554.34	58946.39
554.51	58822.34
554.67	59077.46
554.84	58981.50
555.00	58836.39
555.17	58810.64
555.33	58927.67
555.50	58946.39
555.67	58944.05
555.83	59049.38
556.00	59276.41
556.16	59405.14
556.33	59276.41
556.50	59152.36
556.66	59388.75
556.83	59054.06
556.99	59182.79
557.16	59447.27
557.32	59313.86
557.49	59674.30
557.65	59220.23
557.82	59164.06
557.98	59283.43
558.15	59133.63
558.32	59292.79
558.48	59192.15
558.65	59517.48
558.81	59475.35
558.98	59473.01
559.14	59526.84
559.31	59465.99
559.47	59655.57
559.64	59578.34
559.80	59735.15
559.97	59487.06
560.13	59484.72
560.30	59639.19
560.46	59664.94
560.63	59856.86
560.79	59697.70
560.96	59721.11
561.12	59620.47
561.29	59817.07
561.45	59559.61
561.61	59866.22
561.78	59653.23
561.94	59889.63
562.11	59625.15
562.27	59938.78
562.44	60074.53
562.60	59746.86
562.77	59875.58
562.93	59840.48
563.10	59770.26
563.26	60027.72
563.42	60100.28
563.59	59870.90
563.75	59840.48
563.92	59873.24
564.08	60086.23
564.24	60121.34
564.41	60100.28
564.57	60130.70
564.74	59903.67
564.90	59877.93
565.07	59945.80
565.23	60013.68
565.39	60053.47
565.56	60243.05
565.72	60039.42
565.88	60076.87
566.05	60013.68
566.21	59927.08
566.38	59990.27
566.54	60179.85
566.70	60261.77
566.87	60182.19
567.03	59854.52
567.19	60353.05
567.36	60198.58
567.52	60083.89
567.68	60523.91
567.85	60140.07
568.01	60465.40
568.17	60346.03
568.34	60460.72
568.50	60507.53
568.66	60233.69
568.83	60385.82
568.99	60168.15
569.15	60224.32
569.32	60388.16
569.48	60261.77
569.64	60624.56
569.81	60301.56
569.97	60287.52
570.13	60306.24
570.30	60111.98
570.46	60507.53
570.62	60369.44
570.78	60306.24
570.95	60371.78
571.11	60629.24
571.27	60425.61
571.43	60275.82
571.60	60547.32
571.76	60617.53
571.92	60451.36
572.09	60633.92
572.25	60331.99
572.41	60130.70
572.57	60570.72
572.74	60732.22
572.90	60559.02
573.06	60582.43
573.22	60439.65
573.38	60509.87
573.55	60451.36
573.71	60800.10
573.87	60566.04
574.03	60519.23
574.20	60589.45
574.36	60577.75
574.52	60617.53
574.68	60748.60
574.84	60692.43
575.01	60516.89
575.17	60718.18
575.33	60559.02
575.49	60528.59
575.65	60748.60
575.82	60753.29
575.98	60502.85
576.14	60828.18
576.30	60828.18
576.46	60664.35
576.62	60743.92
576.79	60732.22
576.95	60659.66
577.11	60727.54
577.27	60814.14
577.43	60713.50
577.59	60596.47
577.75	60554.34
577.92	60624.56
578.08	60760.31
578.24	60657.32
578.40	60786.05
578.56	60804.78
578.72	60734.56
578.88	61052.87
579.04	61043.51
579.21	60654.98
579.37	60900.74
579.53	60825.84
579.69	60762.65
579.85	60671.37
580.01	60767.33
580.17	60757.97
580.33	60823.50
580.49	60982.66
580.65	60743.92
580.82	60645.62
580.98	60690.09
581.14	60544.98
581.30	60905.42
581.46	60736.90
581.62	60664.35
581.78	60729.88
581.94	60992.02
582.10	60760.31
582.26	60856.27
582.42	60959.25
582.58	61029.47
582.74	60577.75
582.90	60863.29
583.06	60816.48
583.22	60680.73
583.38	60954.57
583.54	60865.63
583.70	60788.39
583.86	61066.92
584.02	60631.58
584.18	61013.08
584.34	60795.42
584.50	60884.36
584.66	60673.71
584.82	60720.52
584.98	60973.30
585.14	61029.47
585.30	60769.67
585.46	61057.56
585.62	60821.16
585.78	61141.81
585.94	60659.66
586.10	60872.65
586.26	60884.36
586.42	60959.25
586.58	61197.99
586.74	60956.91
586.90	60896.06
587.06	60807.12
587.22	61144.16
587.38	60996.70
587.54	61078.62
587.70	61216.71
587.86	60989.68
588.02	60849.25
588.18	60914.78
588.34	60856.27
588.49	60931.17
