SpectraSuite Data File
++++++++++++++++++++++++++++++++++++
Date: Fri Oct 25 11:34:48 EDT 2013
User: price-jones
Dark Spectrum Present: No
Reference Spectrum Present: No
Number of Sampled Component Spectra: 1
Spectrometers: USB2+H05261
Integration Time (usec): 100000 (USB2+H05261)
Spectra Averaged: 1 (USB2+H05261)
Boxcar Smoothing: 0 (USB2+H05261)
Correct for Electrical Dark: No (USB2+H05261)
Strobe/Lamp Enabled: No (USB2+H05261)
Correct for Detector Non-linearity: No (USB2+H05261)
Correct for Stray Light: No (USB2+H05261)
Number of Pixels in Processed Spectrum: 2048
>>>>>Begin Processed Spectral Data<<<<<
365.73	280.86
365.92	280.86
366.12	280.86
366.32	205.97
366.52	187.24
366.72	271.50
366.91	124.05
367.11	187.24
367.31	163.84
367.51	234.05
367.70	196.60
367.90	201.29
368.10	177.88
368.30	184.90
368.49	175.54
368.69	210.65
368.89	238.73
369.09	234.05
369.28	245.76
369.48	210.65
369.68	262.14
369.87	266.82
370.07	215.33
370.27	311.29
370.47	283.20
370.66	479.81
370.86	521.94
371.06	510.24
371.25	547.69
371.45	561.73
371.65	561.73
371.84	500.87
372.04	557.05
372.24	533.64
372.44	571.09
372.63	641.31
372.83	564.07
373.03	603.86
373.22	617.90
373.42	662.37
373.62	615.56
373.81	645.99
374.01	671.73
374.21	629.60
374.40	636.63
374.60	678.76
374.79	585.13
374.99	706.84
375.19	638.97
375.38	674.07
375.58	657.69
375.78	702.16
375.97	695.14
376.17	730.25
376.37	603.86
376.56	620.24
376.76	667.05
376.95	688.12
377.15	622.58
377.35	685.78
377.54	650.67
377.74	709.18
377.93	732.59
378.13	737.27
378.33	709.18
378.52	741.95
378.72	685.78
378.91	702.16
379.11	711.52
379.31	697.48
379.50	648.33
379.70	727.91
379.89	744.29
380.09	788.76
380.28	620.24
380.48	697.48
380.68	704.50
380.87	676.41
381.07	706.84
381.26	753.65
381.46	823.87
381.65	765.36
381.85	755.99
382.04	798.12
382.24	758.33
382.43	725.57
382.63	758.33
382.83	786.42
383.02	814.51
383.22	711.52
383.41	702.16
383.61	802.80
383.80	805.14
384.00	805.14
384.19	814.51
384.39	702.16
384.58	755.99
384.78	734.93
384.97	816.85
385.17	821.53
385.36	837.91
385.56	809.83
385.75	781.74
385.95	826.21
386.14	725.57
386.34	765.36
386.53	828.55
386.72	760.67
386.92	835.57
387.11	809.83
387.31	880.04
387.50	816.85
387.70	875.36
387.89	889.40
388.09	924.51
388.28	758.33
388.48	863.66
388.67	837.91
388.86	931.53
389.06	898.77
389.25	898.77
389.45	929.19
389.64	908.13
389.84	936.21
390.03	870.68
390.22	912.81
390.42	959.62
390.61	950.26
390.81	1004.09
391.00	901.11
391.19	1001.75
391.39	954.94
391.58	903.45
391.78	964.30
391.97	945.58
392.16	976.00
392.36	1006.43
392.55	1013.45
392.75	950.26
392.94	929.19
393.13	973.66
393.33	1027.50
393.52	1046.22
393.71	1043.88
393.91	1046.22
394.10	966.64
394.29	1111.75
394.49	973.66
394.68	1006.43
394.88	1011.11
395.07	1076.65
395.26	1048.56
395.46	1125.80
395.65	1102.39
395.84	1165.59
396.04	1198.35
396.23	1158.57
396.42	1135.16
396.62	1203.04
396.81	1203.04
397.00	1102.39
397.19	1156.22
397.39	1128.14
397.58	1135.16
397.77	1221.76
397.97	1212.40
398.16	1214.74
398.35	1200.69
398.55	1284.95
398.74	1142.18
398.93	1233.46
399.12	1156.22
399.32	1249.85
399.51	1280.27
399.70	1287.29
399.90	1301.34
400.09	1256.87
400.28	1294.32
400.47	1287.29
400.67	1334.11
400.86	1261.55
401.05	1409.00
401.24	1406.66
401.44	1329.42
401.63	1479.22
401.82	1364.53
402.01	1303.68
402.21	1418.36
402.40	1441.77
402.59	1441.77
402.78	1479.22
402.97	1453.47
403.17	1533.05
403.36	1404.32
403.55	1462.83
403.74	1483.90
403.93	1568.16
404.13	1563.48
404.32	1554.12
404.51	1540.07
404.70	1614.97
404.89	1579.86
405.09	1671.14
405.28	1598.59
405.47	1682.85
405.66	1584.54
405.85	1624.33
406.05	1636.03
406.24	1689.87
406.43	1750.72
406.62	1748.38
406.81	1750.72
407.00	1743.70
407.20	1598.59
407.39	1797.53
407.58	1792.85
407.77	1741.36
407.96	1872.43
408.15	1790.51
408.34	1734.34
408.54	1905.20
408.73	1860.73
408.92	1818.60
409.11	1860.73
409.30	1860.73
409.49	1919.24
409.68	1923.92
409.87	1888.81
410.07	1954.35
410.26	1914.56
410.45	1921.58
410.64	1909.88
410.83	1977.75
411.02	2090.10
411.21	2064.35
411.40	2080.74
411.59	2165.00
411.78	2059.67
411.98	2059.67
412.17	2087.76
412.36	2085.42
412.55	2249.25
412.74	2200.10
412.93	2296.07
413.12	2195.42
413.31	2284.36
413.50	2216.49
413.69	2260.96
413.88	2377.98
414.07	2363.94
414.26	2368.62
414.45	2452.88
414.64	2471.61
414.83	2478.63
415.02	2464.58
415.22	2506.71
415.41	2506.71
415.60	2387.35
415.79	2499.69
415.98	2614.38
416.17	2682.25
416.36	2513.74
416.55	2663.53
416.74	2621.40
416.93	2658.85
417.12	2640.12
417.31	2839.07
417.50	2722.04
417.69	2822.69
417.88	2818.00
418.07	2810.98
418.26	2841.41
418.45	2916.31
418.64	2897.58
418.83	2733.75
419.02	2796.94
419.21	3000.57
419.39	2970.14
419.58	2951.42
419.77	2876.52
419.96	2958.44
420.15	3005.25
420.34	2974.82
420.53	3026.31
420.72	3033.33
420.91	3009.93
421.10	3201.85
421.29	3138.66
421.48	3035.67
421.67	2998.23
421.86	3089.51
422.05	3157.38
422.24	3070.78
422.43	3232.28
422.61	3157.38
422.80	3192.49
422.99	3183.13
423.18	3138.66
423.37	3269.73
423.56	3185.47
423.75	3276.75
423.94	3204.19
424.13	3082.49
424.32	3136.32
424.50	3126.96
424.69	3288.45
424.88	3276.75
425.07	3199.51
425.26	3063.76
425.45	3227.60
425.64	3253.34
425.83	3419.52
426.01	3400.80
426.20	3321.22
426.39	3321.22
426.58	3328.24
426.77	3267.39
426.96	3358.67
427.15	3211.22
427.33	3393.78
427.52	3548.25
427.71	3478.04
427.90	3379.73
428.09	3494.42
428.28	3487.40
428.46	3468.67
428.65	3548.25
428.84	3494.42
429.03	3653.58
429.22	3468.67
429.40	3644.21
429.59	3611.45
429.78	3522.51
429.97	3447.61
430.16	3487.40
430.34	3744.86
430.53	3700.39
430.72	3716.77
430.91	3749.54
431.10	3705.07
431.28	3801.03
431.47	3716.77
431.66	3964.87
431.85	3794.01
432.03	3824.44
432.22	3873.59
432.41	3880.61
432.60	3936.78
432.79	3826.78
432.97	3698.05
433.16	3852.52
433.35	3868.91
433.54	3941.46
433.72	3896.99
433.91	3868.91
434.10	3967.21
434.28	3950.82
434.47	4035.08
434.66	4007.00
434.85	3969.55
435.03	4215.30
435.22	4124.02
435.41	4170.83
435.59	4138.07
435.78	4177.86
435.97	4135.73
436.16	4175.52
436.34	4126.36
436.53	4159.13
436.72	4285.52
436.90	4149.77
437.09	4304.25
437.28	4149.77
437.46	4227.01
437.65	4280.84
437.84	4353.40
438.02	4470.42
438.21	4365.10
438.40	4404.89
438.58	4554.68
438.77	4526.60
438.96	4374.46
439.14	4461.06
439.33	4547.66
439.52	4564.04
439.70	4596.81
439.89	4786.40
440.08	4814.48
440.26	4770.01
440.45	4762.99
440.63	4889.38
440.82	4903.42
441.01	4802.78
441.19	4945.55
441.38	4980.66
441.57	4994.70
441.75	5069.60
441.94	5025.13
442.12	5228.76
442.31	5062.58
442.50	5137.48
442.68	5097.69
442.87	5203.01
443.05	5207.69
443.24	5263.86
443.43	5160.88
443.61	5214.71
443.80	5275.57
443.98	5174.92
444.17	5013.43
444.35	5287.27
444.54	5394.93
444.73	5217.05
444.91	5401.96
445.10	5373.87
445.28	5338.76
445.47	5226.42
445.65	5331.74
445.84	5549.41
446.02	5256.84
446.21	5313.02
446.39	5481.53
446.58	5514.30
446.77	5338.76
446.95	5298.97
447.14	5369.19
447.32	5453.45
447.51	5446.43
447.69	5444.09
447.88	5451.11
448.06	5507.28
448.25	5343.44
448.43	5526.00
448.62	5472.17
448.80	5458.13
448.99	5575.16
449.17	5673.46
449.36	5781.12
449.54	5664.10
449.73	5727.29
449.91	5638.35
450.10	5678.14
450.28	5724.95
450.46	5863.04
450.65	5853.68
450.83	5802.19
451.02	5916.87
451.20	5727.29
451.39	5891.13
451.57	5743.67
451.76	5755.38
451.94	6040.92
452.13	5877.09
452.31	5837.30
452.49	5884.11
452.68	5926.24
452.86	5893.47
453.05	6052.63
453.23	6071.35
453.42	5949.64
453.60	5944.96
453.78	6153.27
453.97	6047.94
454.15	6111.14
454.34	6120.50
454.52	6361.58
454.70	6277.32
454.89	6328.81
455.07	6251.57
455.26	6174.33
455.44	6406.05
455.62	6289.02
455.81	6319.45
455.99	6366.26
456.17	6469.24
456.36	6511.37
456.54	6541.80
456.73	6403.71
456.91	6497.33
457.09	6633.08
457.28	6794.58
457.46	6427.11
457.64	6729.04
457.83	6637.76
458.01	6595.63
458.19	6752.45
458.38	6750.10
458.56	6909.26
458.74	6757.13
458.93	6808.62
459.11	6935.01
459.29	6579.25
459.48	6733.72
459.66	6944.37
459.84	6796.92
460.03	6932.67
460.21	7126.93
460.39	6806.28
460.57	6876.49
460.76	7068.42
460.94	7070.76
461.12	6927.99
461.31	7164.38
461.49	7089.48
461.67	7129.27
461.85	7220.55
462.04	7080.12
462.22	7449.93
462.40	7262.68
462.59	7335.24
462.77	7265.02
462.95	7414.82
463.13	7363.33
463.32	7342.26
463.50	7438.22
463.68	7548.23
463.86	7377.37
464.05	7349.28
464.23	7248.64
464.41	7632.49
464.59	7431.20
464.78	7698.02
464.96	7499.08
465.14	7557.59
465.32	7653.55
465.50	7742.49
465.69	7693.34
465.87	7789.30
466.05	7765.90
466.23	7634.83
466.41	7662.91
466.60	7906.33
466.78	7637.17
466.96	7826.75
467.14	7786.96
467.32	7990.59
467.51	7845.48
467.69	7683.98
467.87	8126.34
468.05	8077.19
468.23	7824.41
468.41	7805.69
468.60	7925.05
468.78	8231.66
468.96	7831.43
469.14	8203.58
469.32	7941.44
469.50	8011.65
469.69	8184.85
469.87	8365.07
470.05	8442.31
470.23	8439.97
470.41	8243.37
470.59	8322.94
470.77	8070.17
470.95	8381.46
471.14	8374.44
471.32	8285.50
471.50	8463.38
471.68	8463.38
471.86	8615.51
472.04	8617.85
472.22	8627.21
472.40	8648.28
472.58	8674.03
472.77	8685.73
472.95	8870.63
473.13	8973.61
473.31	8779.35
473.49	9132.77
473.67	8844.88
473.85	8971.27
474.03	9018.08
474.21	9221.71
474.39	9198.31
474.57	9167.88
474.75	9394.91
474.93	9327.03
475.12	9235.75
475.30	9432.36
475.48	9518.96
475.66	9626.62
475.84	9633.64
476.02	9640.67
476.20	9778.76
476.38	9654.71
476.56	10010.47
476.74	9930.89
476.92	9781.10
477.10	9860.68
477.28	10022.17
477.46	10162.61
477.64	10160.27
477.82	10202.40
478.00	10611.99
478.18	10216.44
478.36	10455.17
478.54	10551.14
478.72	10733.70
478.90	10736.04
479.08	10682.20
479.26	11105.84
479.44	10956.05
479.62	11056.69
479.80	10988.82
479.98	11379.68
480.16	11435.86
480.34	11433.52
480.52	11602.04
480.70	11651.19
480.88	11424.15
481.06	11487.35
481.24	11482.67
481.41	12016.31
481.59	12051.42
481.77	12077.16
481.95	12229.30
482.13	12198.87
482.31	12154.40
482.49	12503.14
482.67	12608.47
482.85	12776.98
483.03	12828.48
483.21	12774.64
483.39	12861.24
483.57	12840.18
483.74	12931.46
483.92	13041.46
484.10	13053.17
484.28	13577.45
484.46	13657.03
484.64	13743.63
484.82	13544.68
485.00	13642.98
485.18	13748.31
485.35	14298.33
485.53	14185.99
485.71	14270.25
485.89	14422.38
486.07	14324.08
486.25	14398.98
486.43	14548.77
486.61	14679.84
486.78	14817.93
486.96	14923.26
487.14	15288.38
487.32	15269.66
487.50	15222.84
487.68	15459.24
487.85	15461.58
488.03	15695.63
488.21	16032.67
488.39	16187.14
488.57	16189.49
488.75	16079.48
488.92	16196.51
489.10	16482.05
489.28	16484.39
489.46	16748.87
489.64	16533.54
489.81	17074.21
489.99	16587.38
490.17	17516.57
490.35	17331.67
490.53	17418.27
490.70	17448.69
490.88	17373.80
491.06	17633.60
491.24	17799.77
491.41	17958.93
491.59	17944.89
491.77	18012.76
491.95	18314.69
492.13	18370.86
492.30	18658.75
492.48	18602.58
492.66	18700.88
492.84	18941.96
493.01	19019.19
493.19	18827.27
493.37	18953.66
493.54	19019.19
493.72	19115.16
493.90	19456.87
494.08	19620.71
494.25	19690.93
494.43	19740.08
494.61	19611.35
494.79	19913.28
494.96	20346.28
495.14	20247.97
495.32	20428.20
495.49	20135.63
495.67	20285.42
495.85	20858.85
496.02	21146.74
496.20	20671.61
496.38	21046.10
496.55	21207.59
496.73	21652.30
496.91	21266.11
497.09	21413.56
497.26	21652.30
497.44	21380.79
497.62	21886.35
497.79	22061.89
497.97	22005.72
498.14	22033.80
498.32	22108.70
498.50	22328.71
498.67	22185.94
498.85	22363.82
499.03	22515.95
499.20	22497.23
499.38	22675.11
499.56	22501.91
499.73	23206.41
499.91	23033.21
500.08	23084.70
500.26	22993.42
500.44	23070.66
500.61	23117.47
500.79	23339.82
500.97	23608.98
501.14	23700.26
501.32	23718.99
501.49	23407.70
501.67	23803.25
501.84	23618.35
502.02	23716.65
502.20	24215.18
502.37	24091.13
502.55	24357.96
502.72	24278.38
502.90	24329.87
503.07	24407.11
503.25	24453.92
503.43	24659.88
503.60	24800.32
503.78	24510.09
503.95	24577.97
504.13	24746.48
504.30	25221.61
504.48	24620.10
504.65	24865.85
504.83	25486.09
505.01	25902.71
505.18	25493.12
505.36	25455.67
505.53	25593.76
505.71	25841.85
505.88	25874.62
506.06	26029.10
506.23	25947.18
506.41	25811.43
506.58	26043.14
506.76	26419.97
506.93	26286.56
507.11	26316.98
507.28	26354.43
507.46	26740.62
507.63	26492.52
507.81	26677.43
507.98	26864.67
508.16	26686.79
508.33	26658.70
508.50	27185.32
508.68	26705.51
508.85	27520.02
509.03	27239.15
509.20	27255.54
509.38	27323.41
509.55	27431.08
509.73	27548.11
509.90	27662.79
510.08	27456.82
510.25	27852.38
510.42	27569.17
510.60	27623.00
510.77	27861.74
510.95	28395.38
511.12	27728.33
511.30	27639.39
511.47	28481.98
511.64	28348.57
511.82	28360.27
511.99	28280.69
512.17	28582.62
512.34	28535.81
512.51	28905.62
512.69	28505.38
512.86	28950.09
513.04	29099.88
513.21	28879.87
513.38	29401.81
513.56	29179.46
513.73	29053.07
513.90	29289.46
514.08	29181.80
514.25	29385.43
514.43	29511.81
514.60	29539.90
514.77	29605.44
514.95	29654.59
515.12	29832.47
515.29	29881.62
515.47	30089.93
515.64	30038.44
515.81	30050.14
515.99	30143.76
516.16	30183.55
516.33	30302.92
516.51	30668.04
516.68	30506.54
516.85	30520.59
517.03	30487.82
517.20	30855.28
517.37	30787.41
517.54	30792.09
517.72	31061.25
517.89	30974.65
518.06	30883.37
518.24	30859.96
518.41	30976.99
518.58	30979.33
518.75	30733.57
518.93	31229.77
519.10	31309.35
519.27	31653.40
519.45	31854.69
519.62	31583.19
519.79	31716.60
519.96	31878.10
520.14	31873.42
520.31	31512.97
520.48	32170.66
520.65	31707.24
520.83	32098.11
521.00	32154.28
521.17	32006.83
521.34	32453.87
521.52	31889.80
521.69	32781.54
521.86	32627.07
522.03	32594.30
522.20	32823.67
522.38	32884.53
522.55	32669.20
522.72	32854.10
522.89	33191.14
523.07	33558.60
523.24	32814.31
523.41	32943.04
523.58	32999.21
523.75	33074.11
523.92	33174.75
524.10	33432.21
524.27	33549.24
524.44	33425.19
524.61	33158.37
524.78	33949.47
524.96	33699.03
525.13	33773.93
525.30	34438.64
525.47	34059.48
525.64	33460.30
525.81	34101.61
525.98	34277.15
526.16	34108.63
526.33	34052.45
526.50	34298.21
526.67	33869.89
526.84	34504.18
527.01	33970.54
527.18	34623.54
527.36	34597.80
527.53	34546.31
527.70	34759.30
527.87	34703.12
528.04	34782.70
528.21	34440.98
528.38	34361.40
528.55	34902.07
528.72	35269.53
528.89	34930.16
529.07	34967.60
529.24	35421.67
529.41	34927.81
529.58	35227.40
529.75	35068.25
529.92	35531.67
530.09	35084.63
530.26	35466.14
530.43	35431.03
530.60	35339.75
530.77	35344.43
530.94	35587.85
531.11	35538.69
531.28	35494.22
531.46	35824.24
531.63	35852.33
531.80	35913.18
531.97	36034.89
532.14	36025.53
532.31	36304.05
532.48	36444.48
532.65	36119.15
532.82	36243.20
532.99	35791.47
533.16	36346.18
533.33	36147.23
533.50	36613.00
533.67	36540.44
533.84	36584.91
534.01	36788.54
534.18	36465.55
534.35	36715.98
534.52	37022.59
534.69	37184.09
534.86	36957.06
535.03	36727.69
535.20	36863.44
535.37	37134.94
535.54	36982.80
535.71	37097.49
535.88	37125.58
536.05	36751.09
536.22	37448.57
536.38	37118.56
536.55	37188.77
536.72	37319.84
536.89	37275.37
537.06	37455.59
537.23	37600.71
537.40	37296.44
537.57	37258.99
537.74	37364.31
537.91	37542.19
538.08	37359.63
538.25	37654.54
538.42	37310.48
538.59	37865.19
538.75	37656.88
538.92	37982.21
539.09	38206.90
539.26	38134.35
539.43	38321.59
539.60	38506.49
539.77	38174.14
539.94	38206.90
540.11	38417.55
540.28	38476.07
540.44	38227.97
540.61	38061.79
540.78	37818.38
540.95	38768.63
541.12	38192.86
541.29	38478.41
541.46	38314.57
541.62	38562.67
541.79	39154.82
541.96	38373.08
542.13	38211.59
542.30	38815.44
542.47	38974.60
542.63	38988.64
542.80	39297.59
542.97	39498.88
543.14	39278.87
543.31	39459.09
543.48	39438.03
543.64	40194.02
543.81	40088.70
543.98	39594.84
544.15	39115.03
544.32	39704.85
544.48	39840.60
544.65	39707.19
544.82	39889.75
544.99	39648.68
545.16	39746.98
545.32	39768.04
545.49	40114.44
545.66	39964.65
545.83	39990.39
546.00	40430.41
546.16	40271.26
546.33	40041.88
546.50	40004.44
546.67	39854.64
546.83	39700.17
547.00	40093.38
547.17	40252.53
547.34	40343.81
547.50	40144.87
547.67	40807.24
547.84	40435.10
548.00	40158.91
548.17	40938.31
548.34	40706.60
548.51	40514.67
548.67	40720.64
548.84	40748.73
549.01	40762.77
549.18	40730.00
549.34	40711.28
549.51	40814.26
549.68	40655.11
549.84	40158.91
550.01	40835.33
550.18	40561.48
550.34	40809.58
550.51	41172.36
550.68	41050.66
550.84	40825.96
551.01	41048.32
551.18	40641.06
551.34	41067.04
551.51	40992.14
551.68	41308.11
551.84	41031.93
552.01	41338.54
552.18	41333.86
552.34	40467.86
552.51	41748.14
552.68	40987.46
552.84	41287.05
553.01	41329.18
553.18	41006.19
553.34	41390.03
553.51	41598.34
553.67	41574.94
553.84	41715.37
554.01	41954.10
554.17	41965.81
554.34	41727.07
554.51	41626.43
554.67	42117.94
554.84	42354.33
555.00	41928.36
555.17	41488.34
555.33	42160.07
555.50	41951.76
555.67	42124.96
555.83	41963.46
556.00	42323.91
556.16	42579.03
556.33	42396.46
556.50	42204.54
556.66	42040.70
556.83	42408.17
556.99	42384.76
557.16	42642.22
557.32	42536.90
557.49	41968.15
557.65	42380.08
557.82	42440.93
557.98	42178.79
558.15	42351.99
558.32	42574.34
558.48	42068.79
558.65	42649.24
558.81	42415.19
558.98	42459.66
559.14	42440.93
559.31	42548.60
559.47	42251.35
559.64	42691.37
559.80	42384.76
559.97	43033.09
560.13	42731.16
560.30	42770.95
560.46	42792.01
560.63	43023.73
560.79	43030.75
560.96	42726.48
561.12	42646.90
561.29	42937.13
561.45	42801.38
561.61	43246.08
561.78	43271.82
561.94	42876.27
562.11	42696.05
562.27	43227.35
562.44	42590.73
562.60	42806.06
562.77	43391.19
562.93	42684.35
563.10	43351.40
563.26	43171.18
563.42	43559.71
563.59	42848.19
563.75	43232.04
563.92	42857.55
564.08	43079.90
564.24	43543.33
564.41	43365.45
564.57	43236.72
564.74	43508.22
564.90	42918.40
565.07	43468.43
565.23	43072.88
565.39	43646.31
565.56	43447.36
565.72	43435.66
565.88	43328.00
566.05	43470.77
566.21	43344.38
566.38	43416.94
566.54	43793.76
566.70	43840.57
566.87	43646.31
567.03	43409.92
567.19	43763.34
567.36	43866.32
567.52	43952.92
567.68	43721.21
567.85	44133.14
568.01	43845.26
568.17	43536.30
568.34	43756.32
568.50	43695.46
568.66	43613.54
568.83	43957.60
568.99	43529.28
569.15	43861.64
569.32	43515.24
569.48	43688.44
569.64	43899.09
569.81	43803.13
569.97	43957.60
570.13	43730.57
570.30	43765.68
570.46	44285.28
570.62	43784.40
570.78	43798.44
570.95	43702.48
571.11	44179.95
571.27	43702.48
571.43	43948.24
571.60	43929.51
571.76	43700.14
571.92	44226.76
572.09	43903.77
572.25	43826.53
572.41	43896.75
572.57	44133.14
572.74	44547.42
572.90	44030.16
573.06	44418.69
573.22	43758.66
573.38	44172.93
573.55	43669.72
573.71	44467.84
573.87	44411.67
574.03	43976.33
574.20	44250.17
574.36	44500.61
574.52	44098.03
574.68	44540.39
574.84	44701.89
575.01	44332.09
575.17	44575.50
575.33	44210.38
575.49	44245.49
575.65	44308.68
575.82	44500.61
575.98	43889.73
576.14	44554.44
576.30	44765.09
576.46	44383.58
576.62	44018.46
576.79	44268.89
576.95	44069.95
577.11	44137.82
577.27	44231.44
577.43	44278.25
577.59	44247.83
577.75	43995.05
577.92	44156.55
578.08	44212.72
578.24	44512.31
578.40	44678.49
578.56	44442.09
578.72	44275.91
578.88	45003.82
579.04	44212.72
579.21	43999.73
579.37	44458.48
579.53	44587.21
579.69	44437.41
579.85	44577.84
580.01	44016.11
580.17	44102.71
580.33	44451.45
580.49	44772.11
580.65	44411.67
580.82	44914.88
580.98	44076.97
581.14	44144.84
581.30	44662.10
581.46	44453.79
581.62	44676.15
581.78	44238.47
581.94	44676.15
582.10	44404.64
582.26	44622.31
582.42	44870.41
582.58	44704.23
582.74	44425.71
582.90	44641.04
583.06	44580.18
583.22	44383.58
583.38	44753.38
583.54	44624.65
583.70	44652.74
583.86	44814.24
584.02	44584.86
584.18	45022.54
584.34	44952.33
584.50	44966.37
584.66	44861.05
584.82	44526.35
584.98	45020.20
585.14	44779.13
585.30	44402.30
585.46	44608.27
585.62	44114.42
585.78	44851.69
585.94	43828.87
586.10	44664.44
586.26	44516.99
586.42	44247.83
586.58	44851.69
586.74	44594.23
586.90	44720.62
587.06	44559.12
587.22	44692.53
587.38	44491.24
587.54	44856.37
587.70	45298.73
587.86	44725.30
588.02	44999.14
588.18	44905.52
588.34	44549.76
588.49	44760.40
588.65	44870.41
588.81	44659.76
588.97	44982.76
589.13	44470.18
589.29	44804.88
589.45	45029.57
589.61	45144.25
589.77	44732.32
589.93	45017.86
590.08	45078.72
590.24	45567.89
