SpectraSuite Data File
++++++++++++++++++++++++++++++++++++
Date: Fri Oct 25 11:25:14 EDT 2013
User: price-jones
Dark Spectrum Present: No
Reference Spectrum Present: No
Number of Sampled Component Spectra: 1
Spectrometers: USB2+H05261
Integration Time (usec): 100000 (USB2+H05261)
Spectra Averaged: 1 (USB2+H05261)
Boxcar Smoothing: 0 (USB2+H05261)
Correct for Electrical Dark: No (USB2+H05261)
Strobe/Lamp Enabled: No (USB2+H05261)
Correct for Detector Non-linearity: No (USB2+H05261)
Correct for Stray Light: No (USB2+H05261)
Number of Pixels in Processed Spectrum: 2048
>>>>>Begin Processed Spectral Data<<<<<
365.73	290.23
365.92	290.23
366.12	290.23
366.32	180.22
366.52	177.88
366.72	159.16
366.91	128.73
367.11	154.48
367.31	88.94
367.51	128.73
367.70	156.82
367.90	135.75
368.10	98.30
368.30	159.16
368.49	112.35
368.69	161.50
368.89	140.43
369.09	161.50
369.28	203.63
369.48	166.18
369.68	175.54
369.87	208.31
370.07	234.05
370.27	224.69
370.47	301.93
370.66	559.39
370.86	660.03
371.06	620.24
371.25	674.07
371.45	641.31
371.65	699.82
371.84	660.03
372.04	660.03
372.24	758.33
372.44	751.31
372.63	765.36
372.83	784.08
373.03	730.25
373.22	807.48
373.42	744.29
373.62	807.48
373.81	847.27
374.01	901.11
374.21	767.70
374.40	744.29
374.60	828.55
374.79	840.25
374.99	835.57
375.19	851.96
375.38	814.51
375.58	858.98
375.78	891.74
375.97	851.96
376.17	957.28
376.37	791.10
376.56	898.77
376.76	807.48
376.95	833.23
377.15	854.30
377.35	854.30
377.54	889.40
377.74	926.85
377.93	833.23
378.13	908.13
378.33	983.02
378.52	957.28
378.72	915.15
378.91	964.30
379.11	954.94
379.31	884.72
379.50	903.45
379.70	912.81
379.89	952.60
380.09	990.05
380.28	994.73
380.48	992.39
380.68	940.90
380.87	929.19
381.07	1036.86
381.26	1093.03
381.46	1027.50
381.65	976.00
381.85	1041.54
382.04	987.71
382.24	964.30
382.43	968.98
382.63	1109.41
382.83	1022.81
383.02	1100.05
383.22	1205.38
383.41	1050.90
383.61	1001.75
383.80	1132.82
384.00	1062.60
384.19	1006.43
384.39	1139.84
384.58	1130.48
384.78	1144.52
384.97	1179.63
385.17	1137.50
385.36	1139.84
385.56	1149.20
385.75	1198.35
385.95	1177.29
386.14	1219.42
386.34	1221.76
386.53	1104.73
386.72	1111.75
386.92	1317.72
387.11	1191.33
387.31	1224.10
387.50	1151.54
387.70	1217.08
387.89	1273.25
388.09	1252.19
388.28	1184.31
388.48	1294.32
388.67	1254.53
388.86	1303.68
389.06	1329.42
389.25	1399.64
389.45	1364.53
389.64	1350.49
389.84	1357.51
390.03	1327.08
390.22	1329.42
390.42	1345.81
390.61	1425.39
390.81	1366.87
391.00	1383.26
391.19	1392.62
391.39	1378.58
391.58	1394.96
391.78	1397.30
391.97	1455.81
392.16	1341.13
392.36	1448.79
392.55	1519.01
392.75	1537.73
392.94	1556.46
393.13	1441.77
393.33	1558.80
393.52	1479.22
393.71	1607.95
393.91	1598.59
394.10	1652.42
394.29	1593.90
394.49	1612.63
394.68	1610.29
394.88	1682.85
395.07	1647.74
395.26	1696.89
395.46	1675.82
395.65	1694.55
395.84	1732.00
396.04	1783.49
396.23	1795.19
396.42	1678.16
396.62	1682.85
396.81	1734.34
397.00	1692.21
397.19	1764.76
397.39	1771.79
397.58	1757.74
397.77	1853.70
397.97	1952.01
398.16	1858.39
398.35	1874.77
398.55	1781.15
398.74	1839.66
398.93	1947.33
399.12	1977.75
399.32	1867.75
399.51	1980.09
399.70	2017.54
399.90	2029.24
400.09	1966.05
400.28	1933.28
400.47	2003.50
400.67	2092.44
400.86	2172.02
401.05	2057.33
401.24	2019.88
401.44	2024.56
401.63	2207.13
401.82	2031.58
402.01	2017.54
402.21	2150.95
402.40	2127.55
402.59	2160.31
402.78	2242.23
402.97	2197.76
403.17	2272.66
403.36	2176.70
403.55	2286.70
403.74	2300.75
403.93	2354.58
404.13	2424.80
404.32	2289.04
404.51	2363.94
404.70	2413.09
404.89	2387.35
405.09	2525.44
405.28	2457.56
405.47	2492.67
405.66	2497.35
405.85	2495.01
406.05	2530.12
406.24	2546.50
406.43	2567.57
406.62	2427.14
406.81	2558.21
407.00	2518.42
407.20	2544.16
407.39	2637.78
407.58	2572.25
407.77	2710.34
407.96	2696.30
408.15	2729.06
408.34	2794.60
408.54	2920.99
408.73	2787.58
408.92	2764.17
409.11	2913.97
409.30	2923.33
409.49	2928.01
409.68	2876.52
409.87	2970.14
410.07	2899.92
410.26	3002.91
410.45	3007.59
410.64	2991.20
410.83	3049.72
411.02	3005.25
411.21	3141.00
411.40	3075.46
411.59	3267.39
411.78	3049.72
411.98	3199.51
412.17	3251.00
412.36	3330.58
412.55	3211.22
412.74	3293.13
412.93	3459.31
413.12	3272.07
413.31	3496.76
413.50	3351.65
413.69	3400.80
413.88	3478.04
414.07	3590.38
414.26	3611.45
414.45	3597.40
414.64	3737.84
414.83	3672.30
415.02	3726.13
415.22	3826.78
415.41	3808.05
415.60	3709.75
415.79	3899.33
415.98	3941.46
416.17	4042.11
416.36	3904.01
416.55	4095.94
416.74	4112.32
416.93	4039.76
417.12	4109.98
417.31	4107.64
417.50	4095.94
417.69	4224.67
417.88	4348.72
418.07	4257.43
418.26	4269.14
418.45	4376.80
418.64	4376.80
418.83	4348.72
419.02	4301.90
419.21	4514.89
419.39	4397.87
419.58	4390.84
419.77	4444.68
419.96	4580.43
420.15	4533.62
420.34	4615.54
420.53	4538.30
420.72	4622.56
420.91	4716.18
421.10	4641.28
421.29	4840.23
421.48	4594.47
421.67	4755.97
421.86	4898.74
422.05	4772.35
422.24	4622.56
422.43	4849.59
422.61	4793.42
422.80	5013.43
422.99	4924.49
423.18	4938.53
423.37	5074.28
423.56	4943.21
423.75	4753.63
423.94	4940.87
424.13	4624.90
424.32	4688.09
424.50	4936.19
424.69	5015.77
424.88	5128.11
425.07	4854.27
425.26	4865.97
425.45	4936.19
425.64	4997.04
425.83	4980.66
426.01	5088.32
426.20	5104.71
426.39	5083.64
426.58	4992.36
426.77	5123.43
426.96	5128.11
427.15	5057.90
427.33	5261.52
427.52	5048.54
427.71	5301.31
427.90	5233.44
428.09	5219.39
428.28	5184.29
428.46	5348.12
428.65	5305.99
428.84	5476.85
429.03	5490.90
429.22	5394.93
429.40	5369.19
429.59	5327.06
429.78	5177.26
429.97	5064.92
430.16	5465.15
430.34	5537.71
430.53	5624.31
430.72	5591.54
430.91	5645.37
431.10	5565.79
431.28	5734.31
431.47	5699.20
431.66	5771.76
431.85	5666.44
432.03	5853.68
432.22	5926.24
432.41	5813.89
432.60	5937.94
432.79	5940.28
432.97	6008.16
433.16	5886.45
433.35	5818.57
433.54	5959.00
433.72	6024.54
433.91	6031.56
434.10	6209.44
434.28	6071.35
434.47	6076.03
434.66	6335.83
434.85	6462.22
435.03	6415.41
435.22	6188.38
435.41	6291.36
435.59	6342.85
435.78	6251.57
435.97	6476.26
436.16	6377.96
436.34	6342.85
436.53	6321.79
436.72	6487.96
436.90	6232.85
437.09	6499.67
437.28	6509.03
437.46	6754.79
437.65	6698.61
437.84	6698.61
438.02	6717.34
438.21	6700.95
438.40	6684.57
438.58	6874.15
438.77	6979.48
438.96	6796.92
439.14	6923.30
439.33	7157.36
439.52	6906.92
439.70	7133.95
439.89	7110.55
440.08	7339.92
440.26	7339.92
440.45	7267.36
440.63	7377.37
440.82	7625.47
441.01	7508.44
441.19	7536.52
441.38	7665.25
441.57	7578.65
441.75	7812.71
441.94	7925.05
442.12	7775.26
442.31	7964.84
442.50	8046.76
442.68	7934.42
442.87	7894.63
443.05	7950.80
443.24	8102.93
443.43	8011.65
443.61	8018.68
443.80	8407.20
443.98	7915.69
444.17	7829.09
444.35	8236.35
444.54	8070.17
444.73	8264.43
444.91	8369.76
445.10	8077.19
445.28	8114.64
445.47	8248.05
445.65	8189.53
445.84	8486.78
446.02	8351.03
446.21	8290.18
446.39	8234.00
446.58	8491.46
446.77	8514.87
446.95	8018.68
447.14	8383.80
447.32	8238.69
447.51	8287.84
447.69	8432.95
447.88	8437.63
448.06	8418.91
448.25	8383.80
448.43	8418.91
448.62	8486.78
448.80	8484.44
448.99	8564.02
449.17	8512.53
449.36	8659.98
449.54	8758.28
449.73	8613.17
449.91	8734.88
450.10	8830.84
450.28	9020.42
450.46	9032.13
450.65	8971.27
450.83	8964.25
451.02	8940.85
451.20	9135.11
451.39	9043.83
451.57	9172.56
451.76	9015.74
451.94	9057.87
452.13	9078.94
452.31	9121.07
452.49	9008.72
452.68	9268.52
452.86	9345.76
453.05	9320.01
453.23	9455.76
453.42	9387.89
453.60	9254.48
453.78	9228.73
453.97	9259.16
454.15	9373.85
454.34	9619.60
454.52	9563.43
454.70	9659.39
454.89	9666.41
455.07	9776.42
455.26	9617.26
455.44	9879.40
455.62	9792.80
455.81	9710.88
455.99	9853.66
456.17	9963.66
456.36	9905.15
456.54	10218.78
456.73	10029.20
456.91	10246.87
457.09	10480.92
457.28	10389.64
457.46	10293.68
457.64	10310.06
457.83	10391.98
458.01	10394.32
458.19	10490.28
458.38	10249.21
458.56	10698.59
458.74	10565.18
458.93	10623.69
459.11	10729.02
459.29	10576.88
459.48	10621.35
459.66	10644.76
459.84	10834.34
460.03	10864.77
460.21	10843.70
460.39	11019.24
460.57	10958.39
460.76	11016.90
460.94	11054.35
461.12	11080.10
461.31	11169.04
461.49	11063.71
461.67	10960.73
461.85	11328.19
462.04	10998.18
462.22	11789.28
462.40	11421.81
462.59	11335.21
462.77	11501.39
462.95	11501.39
463.13	11389.05
463.32	11644.17
463.50	11620.76
463.68	11831.41
463.86	11768.21
464.05	11564.59
464.23	11545.86
464.41	11749.49
464.59	11440.54
464.78	12063.12
464.96	12044.40
465.14	11676.93
465.32	12114.61
465.50	12023.33
465.69	11950.78
465.87	11967.16
466.05	12091.21
466.23	12271.43
466.41	11932.05
466.60	12161.42
466.78	12131.00
466.96	12250.36
467.14	11875.88
467.32	12100.57
467.51	12692.73
467.69	12009.29
467.87	12245.68
468.05	12631.87
468.23	12400.16
468.41	12395.48
468.60	12512.50
468.78	12622.51
468.96	12418.88
469.14	12601.44
469.32	12744.22
469.50	12489.10
469.69	12753.58
469.87	12863.58
470.05	12828.48
470.23	12924.44
470.41	12833.16
470.59	13057.85
470.77	13060.19
470.95	13128.06
471.14	13537.66
471.32	13001.68
471.50	13366.80
471.68	13432.33
471.86	13441.70
472.04	13481.49
472.22	13837.25
472.40	13462.76
472.58	13680.43
472.77	13708.52
472.95	13930.87
473.13	14420.04
473.31	13762.35
473.49	13949.59
473.67	13994.06
473.85	14080.66
474.03	14293.65
474.21	14506.64
474.39	14427.06
474.57	14588.56
474.75	14736.01
474.93	14696.22
475.12	14815.59
475.30	14956.02
475.48	15012.20
475.66	15084.75
475.84	15028.58
476.02	15417.11
476.20	15047.30
476.38	15555.20
476.56	15777.55
476.74	15875.85
476.92	15747.12
477.10	15534.14
477.28	16233.96
477.46	16294.81
477.64	16116.93
477.82	16402.47
478.00	16746.53
478.18	16706.74
478.36	16954.84
478.54	16573.33
478.72	16587.38
478.90	17413.59
479.08	17366.78
479.26	17221.66
479.44	17523.59
479.62	17703.81
479.80	17898.08
479.98	18087.66
480.16	18562.79
480.34	18157.88
480.52	18331.08
480.70	18506.62
480.88	18420.02
481.06	18735.99
481.24	18689.18
481.41	18721.95
481.59	19314.10
481.77	19370.27
481.95	19344.53
482.13	19686.25
482.31	19234.52
482.49	19999.88
482.67	20137.97
482.85	20482.03
483.03	20582.67
483.21	20566.29
483.39	20676.29
483.57	20503.09
483.74	20814.38
483.92	21158.44
484.10	20879.92
484.28	21542.29
484.46	21727.19
484.64	21886.35
484.82	21685.06
485.00	22298.28
485.18	22309.99
485.35	22913.84
485.53	22630.64
485.71	22902.14
485.89	23051.94
486.07	23428.76
486.25	23115.13
486.43	23091.73
486.61	23796.23
486.78	23702.61
486.96	23868.78
487.14	24559.24
487.32	24360.30
487.50	24510.09
487.68	24713.72
487.85	25027.35
488.03	25245.02
488.21	25284.81
488.39	25724.83
488.57	25914.41
488.75	25907.39
488.92	25851.22
489.10	26363.79
489.28	26448.05
489.46	26735.94
489.64	26764.03
489.81	27520.02
489.99	27274.26
490.17	27697.90
490.35	27779.82
490.53	28109.83
490.70	28067.70
490.88	27828.97
491.06	28489.00
491.24	28505.38
491.41	28776.89
491.59	28882.21
491.77	29022.64
491.95	29226.27
492.13	29570.33
492.30	29759.91
492.48	30110.99
492.66	30185.89
492.84	30085.25
493.01	30525.27
493.19	30501.86
493.37	30586.12
493.54	30459.73
493.72	30993.37
493.90	31325.73
494.08	31400.63
494.25	31861.71
494.43	31910.86
494.61	32273.65
494.79	31899.16
494.96	32357.91
495.14	32196.41
495.32	32861.12
495.49	32858.78
495.67	32961.76
495.85	33296.46
496.02	33605.41
496.20	33759.89
496.38	33656.90
496.55	34080.54
496.73	34377.79
496.91	34286.51
497.09	34602.48
497.26	34892.71
497.44	34675.04
497.62	34871.64
497.79	35431.03
497.97	35103.35
498.14	36189.36
498.32	35714.23
498.50	35695.51
498.67	36491.29
498.85	36044.25
499.03	36559.17
499.20	36584.91
499.38	36634.06
499.56	36856.42
499.73	36851.73
499.91	36985.15
500.08	37067.06
500.26	37001.53
500.44	37179.41
500.61	37525.81
500.79	37514.11
500.97	37727.10
501.14	38450.32
501.32	38553.30
501.49	37724.75
501.67	38265.42
501.84	38787.36
502.02	38494.79
502.20	39040.14
502.37	38843.53
502.55	39009.71
502.72	39299.94
502.90	39325.68
503.07	39505.90
503.25	38838.85
503.43	39484.84
503.60	39653.36
503.78	39707.19
503.95	40247.85
504.13	40512.33
504.30	40236.15
504.48	40149.55
504.65	40264.24
504.83	40687.87
505.01	40701.92
505.18	40926.61
505.36	41202.79
505.53	40605.95
505.71	41305.77
505.88	41507.06
506.06	41298.75
506.23	41640.47
506.41	41340.88
506.58	42190.50
506.76	41769.20
506.93	42389.44
507.11	41825.37
507.28	42354.33
507.46	42576.69
507.63	42527.53
507.81	43051.81
507.98	42684.35
508.16	42871.59
508.33	43152.46
508.50	42850.53
508.68	42721.80
508.85	43641.63
509.03	43260.12
509.20	43672.06
509.38	44027.82
509.55	44158.89
509.73	44156.55
509.90	43941.22
510.08	44247.83
510.25	44437.41
510.42	43999.73
510.60	44355.49
510.77	45024.89
510.95	45059.99
511.12	44879.77
511.30	45148.93
511.47	44919.56
511.64	45085.74
511.82	45794.92
511.99	45462.57
512.17	45823.01
512.34	45965.78
512.51	46073.45
512.69	46134.30
512.86	46061.74
513.04	46651.56
513.21	46223.24
513.38	46593.04
513.56	46684.33
513.73	46361.33
513.90	46459.63
514.08	46630.49
514.25	46827.10
514.43	47161.79
514.60	47138.39
514.77	47192.22
514.95	47592.45
515.12	47325.63
515.29	47332.65
515.47	47697.78
515.64	47611.18
515.81	47777.36
515.99	48074.60
516.16	47929.49
516.33	48013.75
516.51	48732.29
516.68	47997.37
516.85	48020.77
517.03	48470.15
517.20	48692.50
517.37	48392.92
517.54	48650.38
517.72	48619.95
517.89	48966.35
518.06	48989.75
518.24	48692.50
518.41	49169.97
518.58	48793.15
518.75	48900.81
518.93	49205.08
519.10	49378.28
519.27	49242.53
519.45	49542.12
519.62	49794.90
519.79	49588.93
519.96	49556.16
520.14	49970.44
520.31	49825.32
520.48	50087.46
520.65	49638.08
520.83	50094.49
521.00	50347.26
521.17	50052.36
521.34	50363.65
521.52	50057.04
521.69	50094.49
521.86	50611.74
522.03	50768.56
522.20	51040.06
522.38	50843.46
522.55	51360.72
522.72	50852.82
522.89	50829.41
523.07	51456.68
523.24	51475.40
523.41	50990.91
523.58	51231.99
523.75	51576.04
523.92	51480.08
524.10	51564.34
524.27	52133.09
524.44	51746.90
524.61	51782.01
524.78	51704.77
524.96	52004.36
525.13	51772.65
525.30	52231.40
525.47	52158.84
525.64	52147.14
525.81	52423.32
525.98	52486.51
526.16	52121.39
526.33	52357.78
526.50	52631.63
526.67	52561.41
526.84	52367.15
527.01	52692.48
527.18	52739.29
527.36	52640.99
527.53	52992.07
527.70	52994.41
527.87	53045.90
528.04	52736.95
528.21	53125.48
528.38	53247.19
528.55	53095.05
528.72	53270.59
528.89	53373.58
529.07	53017.82
529.24	53120.80
529.41	53413.37
529.58	53364.21
529.75	53537.41
529.92	53525.71
530.09	53593.59
530.26	53626.35
530.43	53724.66
530.60	53708.27
530.77	53584.22
530.94	53677.85
531.11	53715.29
531.28	53874.45
531.46	53914.24
531.63	53811.26
531.80	53710.61
531.97	54178.72
532.14	54092.12
532.31	54012.54
532.48	54429.16
532.65	54267.66
532.82	54501.71
532.99	54555.55
533.16	54255.96
533.33	54426.82
533.50	54419.80
533.67	54611.72
533.84	54370.64
534.01	54742.79
534.18	54560.23
534.35	55187.49
534.52	54747.47
534.69	54733.43
534.86	54923.01
535.03	54721.72
535.20	54866.84
535.37	55044.72
535.54	55224.94
535.71	55145.36
535.88	55098.55
536.05	54808.32
536.22	55215.58
536.38	55519.85
536.55	55192.17
536.72	55311.54
536.89	55196.85
537.06	55351.33
537.23	55681.34
537.40	55264.73
537.57	55224.94
537.74	55374.73
537.91	55646.24
538.08	55807.73
538.25	55512.83
538.42	55423.89
538.59	56013.70
538.75	55475.38
538.92	55725.81
539.09	55873.27
539.26	56095.62
539.43	55650.92
539.60	56023.06
539.77	56032.42
539.94	56088.60
540.11	55955.19
540.28	56226.69
540.44	56313.29
540.61	56329.67
540.78	55915.40
540.95	56121.37
541.12	56051.15
541.29	56072.21
541.46	56308.61
541.62	56329.67
541.79	56645.65
541.96	56034.77
542.13	56250.09
542.30	56399.89
542.47	56690.12
542.63	56650.33
542.80	56788.42
542.97	56814.16
543.14	57186.31
543.31	56757.99
543.48	56999.07
543.64	57099.71
543.81	57261.21
543.98	57125.46
544.15	57104.39
544.32	57293.97
544.48	57305.68
544.65	56956.94
544.82	57144.18
544.99	57141.84
545.16	57244.82
545.32	57080.98
545.49	57387.60
545.66	57623.99
545.83	57504.62
546.00	57588.88
546.16	57308.02
546.33	57413.34
546.50	57476.54
546.67	57661.44
546.83	57181.63
547.00	57565.48
547.17	57464.83
547.34	57476.54
547.50	57769.10
547.67	57897.83
547.84	57736.34
548.00	57827.62
548.17	57907.19
548.34	57946.98
548.51	57951.66
548.67	57963.37
548.84	57757.40
549.01	57638.03
549.18	57958.69
549.34	57944.64
549.51	57890.81
549.68	58096.78
549.84	58141.25
550.01	58124.86
550.18	58047.63
550.34	58085.07
550.51	58192.74
550.68	58183.38
550.84	58005.50
551.01	58389.34
551.18	58253.59
551.34	58314.45
551.51	58410.41
551.68	58527.44
551.84	58326.15
552.01	58141.25
552.18	58609.35
552.34	58377.64
552.51	58480.63
552.68	58248.91
552.84	58499.35
553.01	58656.17
553.18	58557.86
553.34	58693.61
553.51	58576.59
553.67	58712.34
553.84	58637.44
554.01	58810.64
554.17	58939.37
554.34	58616.38
554.51	58841.07
554.67	58969.80
554.84	58822.34
555.00	58920.65
555.17	58754.47
555.33	58920.65
555.50	58677.23
555.67	58805.96
555.83	58740.42
556.00	58997.88
556.16	59250.66
556.33	58997.88
556.50	58803.62
556.66	59334.92
556.83	58890.22
556.99	59072.78
557.16	59154.70
557.32	59278.75
557.49	59388.75
557.65	58969.80
557.82	59269.39
557.98	59201.51
558.15	59135.98
558.32	59238.96
558.48	59255.34
558.65	59260.02
558.81	59245.98
558.98	59250.66
559.14	59416.84
559.31	59681.32
559.47	59388.75
559.64	59337.26
559.80	59627.49
559.97	59655.57
560.13	59391.09
560.30	59564.29
560.46	59587.70
560.63	59702.38
560.79	59723.45
560.96	59796.01
561.12	59590.04
561.29	59749.20
561.45	59725.79
561.61	59671.96
561.78	59781.96
561.94	59475.35
562.11	59632.17
562.27	59662.60
562.44	59835.80
562.60	59889.63
562.77	59859.20
562.93	59648.55
563.10	59760.90
563.26	59531.53
563.42	59742.17
563.59	59805.37
563.75	59966.87
563.92	59849.84
564.08	59833.46
564.24	59969.21
564.41	60041.76
564.57	59999.63
564.74	59980.91
564.90	59826.43
565.07	59901.33
565.23	59838.14
565.39	59791.33
565.56	60083.89
565.72	59906.01
565.88	59842.82
566.05	60154.11
566.21	60013.68
566.38	59976.23
566.54	59990.27
566.70	60182.19
566.87	60310.92
567.03	59976.23
567.19	60331.99
567.36	60009.00
567.52	60147.09
567.68	60210.28
567.85	60226.66
568.01	60111.98
568.17	60172.83
568.34	60374.12
568.50	60128.36
568.66	60151.77
568.83	60200.92
568.99	60175.17
569.15	60247.73
569.32	60273.48
569.48	60224.32
569.64	60420.93
569.81	60369.44
569.97	60121.34
570.13	60111.98
570.30	60212.62
570.46	60189.22
570.62	60289.86
570.78	60413.91
570.95	60179.85
571.11	60474.76
571.27	60310.92
571.43	60217.30
571.60	60568.38
571.76	60308.58
571.92	60500.51
572.09	60231.35
572.25	60210.28
572.41	60303.90
572.57	60472.42
572.74	60416.25
572.90	60500.51
573.06	60505.19
573.22	60388.16
573.38	60441.99
573.55	60402.21
573.71	60673.71
573.87	60596.47
574.03	60430.29
574.20	60441.99
574.36	60406.89
574.52	60434.97
574.68	60568.38
574.84	60481.78
575.01	60582.43
575.17	60498.17
575.33	60570.72
575.49	60432.63
575.65	60500.51
575.82	60484.12
575.98	60526.25
576.14	60786.05
576.30	60858.61
576.46	60610.51
576.62	60467.74
576.79	60362.42
576.95	60474.76
577.11	60631.58
577.27	60697.11
577.43	60788.39
577.59	60692.43
577.75	60530.93
577.92	60388.16
578.08	60596.47
578.24	60694.77
578.40	60711.16
578.56	60828.18
578.72	60664.35
578.88	60891.38
579.04	60898.40
579.21	60708.82
579.37	60720.52
579.53	60748.60
579.69	60409.23
579.85	60654.98
580.01	60767.33
580.17	60512.21
580.33	60783.71
580.49	60669.03
580.65	60760.31
580.82	60699.45
580.98	60617.53
581.14	60570.72
581.30	60891.38
581.46	60587.11
581.62	60835.20
581.78	60486.46
581.94	60690.09
582.10	60636.26
582.26	60580.09
582.42	60573.06
582.58	60783.71
582.74	60711.16
582.90	60711.16
583.06	60533.28
583.22	60589.45
583.38	60821.16
583.54	60622.22
583.70	60767.33
583.86	60856.27
584.02	60701.79
584.18	60828.18
584.34	60800.10
584.50	60753.29
584.66	60528.59
584.82	60580.09
584.98	61041.17
585.14	60603.49
585.30	60779.03
585.46	60856.27
585.62	60781.37
585.78	60956.91
585.94	60725.20
586.10	60928.83
586.26	60912.44
586.42	60914.78
586.58	60816.48
586.74	60835.20
586.90	60874.99
587.06	60657.32
587.22	60963.93
587.38	60781.37
587.54	60889.04
587.70	61120.75
587.86	60921.80
588.02	60949.89
588.18	61062.24
588.34	60891.38
588.49	60830.52
