SpectraSuite Data File
++++++++++++++++++++++++++++++++++++
Date: Fri Oct 25 11:24:04 EDT 2013
User: price-jones
Dark Spectrum Present: No
Reference Spectrum Present: No
Number of Sampled Component Spectra: 1
Spectrometers: USB2+H05261
Integration Time (usec): 100000 (USB2+H05261)
Spectra Averaged: 1 (USB2+H05261)
Boxcar Smoothing: 0 (USB2+H05261)
Correct for Electrical Dark: No (USB2+H05261)
Strobe/Lamp Enabled: No (USB2+H05261)
Correct for Detector Non-linearity: No (USB2+H05261)
Correct for Stray Light: No (USB2+H05261)
Number of Pixels in Processed Spectrum: 2048
>>>>>Begin Processed Spectral Data<<<<<
365.73	189.58
365.92	189.58
366.12	189.58
366.32	107.66
366.52	177.88
366.72	126.39
366.91	147.45
367.11	142.77
367.31	107.66
367.51	79.58
367.70	145.11
367.90	159.16
368.10	88.94
368.30	229.37
368.49	133.41
368.69	152.13
368.89	205.97
369.09	110.01
369.28	140.43
369.48	191.92
369.68	168.52
369.87	184.90
370.07	128.73
370.27	215.33
370.47	252.78
370.66	550.03
370.86	638.97
371.06	664.71
371.25	741.95
371.45	629.60
371.65	704.50
371.84	634.29
372.04	746.63
372.24	753.65
372.44	727.91
372.63	697.48
372.83	793.44
373.03	795.78
373.22	699.82
373.42	770.04
373.62	746.63
373.81	894.08
374.01	812.17
374.21	830.89
374.40	786.42
374.60	882.38
374.79	779.40
374.99	840.25
375.19	851.96
375.38	901.11
375.58	884.72
375.78	842.59
375.97	788.76
376.17	887.06
376.37	912.81
376.56	798.12
376.76	844.93
376.95	877.70
377.15	945.58
377.35	877.70
377.54	828.55
377.74	887.06
377.93	877.70
378.13	950.26
378.33	898.77
378.52	929.19
378.72	966.64
378.91	905.79
379.11	863.66
379.31	945.58
379.50	992.39
379.70	994.73
379.89	990.05
380.09	985.37
380.28	980.68
380.48	990.05
380.68	990.05
380.87	973.66
381.07	1008.77
381.26	1109.41
381.46	1015.79
381.65	1020.47
381.85	1022.81
382.04	1029.84
382.24	1107.07
382.43	1118.78
382.63	966.64
382.83	1069.62
383.02	1083.67
383.22	1137.50
383.41	1032.18
383.61	1193.67
383.80	1144.52
384.00	1081.33
384.19	1224.10
384.39	1111.75
384.58	1107.07
384.78	1095.37
384.97	1224.10
385.17	1261.55
385.36	1210.06
385.56	1146.86
385.75	1139.84
385.95	1041.54
386.14	1128.14
386.34	1210.06
386.53	1174.95
386.72	1214.74
386.92	1207.72
387.11	1266.23
387.31	1247.51
387.50	1306.02
387.70	1261.55
387.89	1306.02
388.09	1245.16
388.28	1310.70
388.48	1313.04
388.67	1306.02
388.86	1289.64
389.06	1338.79
389.25	1380.92
389.45	1282.61
389.64	1341.13
389.84	1364.53
390.03	1392.62
390.22	1301.34
390.42	1416.02
390.61	1404.32
390.81	1362.19
391.00	1460.49
391.19	1432.41
391.39	1401.98
391.58	1411.34
391.78	1430.07
391.97	1507.30
392.16	1474.54
392.36	1565.82
392.55	1497.94
392.75	1537.73
392.94	1591.56
393.13	1579.86
393.33	1451.13
393.52	1626.67
393.71	1621.99
393.91	1631.35
394.10	1425.39
394.29	1638.38
394.49	1596.25
394.68	1621.99
394.88	1584.54
395.07	1570.50
395.26	1724.97
395.46	1638.38
395.65	1659.44
395.84	1724.97
396.04	1830.30
396.23	1753.06
396.42	1764.76
396.62	1689.87
396.81	1734.34
397.00	1788.17
397.19	1823.28
397.39	1743.70
397.58	1870.09
397.77	1722.63
397.97	1923.92
398.16	1762.42
398.35	1872.43
398.55	1863.07
398.74	1893.49
398.93	1942.64
399.12	1900.52
399.32	1968.39
399.51	1895.83
399.70	2043.29
399.90	1919.24
400.09	2062.01
400.28	2029.24
400.47	2169.68
400.67	2282.02
400.86	2076.06
401.05	2010.52
401.24	2073.71
401.44	2132.23
401.63	2162.66
401.82	2160.31
402.01	2118.18
402.21	2090.10
402.40	2202.44
402.59	2333.51
402.78	2228.19
402.97	2356.92
403.17	2277.34
403.36	2239.89
403.55	2265.64
403.74	2385.01
403.93	2466.92
404.13	2417.77
404.32	2443.52
404.51	2387.35
404.70	2349.90
404.89	2368.62
405.09	2434.16
405.28	2464.58
405.47	2518.42
405.66	2518.42
405.85	2595.65
406.05	2469.27
406.24	2548.84
406.43	2656.51
406.62	2530.12
406.81	2693.96
407.00	2583.95
407.20	2480.97
407.39	2644.81
407.58	2703.32
407.77	2918.65
407.96	2832.05
408.15	2799.28
408.34	2689.28
408.54	2864.82
408.73	2715.02
408.92	2855.45
409.11	2892.90
409.30	2771.19
409.49	2820.35
409.68	2981.84
409.87	2906.95
410.07	2970.14
410.26	3075.46
410.45	2946.73
410.64	2967.80
410.83	3084.83
411.02	3007.59
411.21	3199.51
411.40	3171.43
411.59	3323.56
411.78	3197.17
411.98	3143.34
412.17	3398.46
412.36	3358.67
412.55	3372.71
412.74	3311.86
412.93	3463.99
413.12	3368.03
413.31	3522.51
413.50	3459.31
413.69	3520.17
413.88	3538.89
414.07	3581.02
414.26	3543.57
414.45	3590.38
414.64	3648.90
414.83	3812.73
415.02	3885.29
415.22	3866.56
415.41	3871.25
415.60	3791.67
415.79	3920.40
415.98	4053.81
416.17	4145.09
416.36	3988.27
416.55	4072.53
416.74	4166.15
416.93	4002.32
417.12	4222.33
417.31	4203.60
417.50	4255.09
417.69	4210.62
417.88	4379.14
418.07	4264.46
418.26	4332.33
418.45	4234.03
418.64	4428.29
418.83	4411.91
419.02	4458.72
419.21	4484.47
419.39	4561.70
419.58	4631.92
419.77	4360.42
419.96	4554.68
420.15	4692.77
420.34	4596.81
420.53	4622.56
420.72	4718.52
420.91	4770.01
421.10	4755.97
421.29	4627.24
421.48	4674.05
421.67	4851.93
421.86	4699.80
422.05	4758.31
422.24	4739.58
422.43	4992.36
422.61	4748.95
422.80	5015.77
422.99	4973.64
423.18	5060.24
423.37	5137.48
423.56	4950.23
423.75	5039.17
423.94	5020.45
424.13	4638.94
424.32	4760.65
424.50	5109.39
424.69	5259.18
424.88	5160.88
425.07	4894.06
425.26	5008.75
425.45	4983.00
425.64	4959.60
425.83	5039.17
426.01	5081.30
426.20	5224.08
426.39	5011.09
426.58	5015.77
426.77	5055.56
426.96	5172.58
427.15	5128.11
427.33	5212.37
427.52	5132.79
427.71	5376.21
427.90	5313.02
428.09	5313.02
428.28	5334.08
428.46	5476.85
428.65	5411.32
428.84	5617.29
429.03	5626.65
429.22	5455.79
429.40	5579.84
429.59	5451.11
429.78	5252.16
429.97	5263.86
430.16	5474.51
430.34	5638.35
430.53	5734.31
430.72	5781.12
430.91	5703.89
431.10	5614.95
431.28	5811.55
431.47	5722.61
431.66	5795.17
431.85	5781.12
432.03	5825.59
432.22	6125.18
432.41	5898.15
432.60	5982.41
432.79	6043.26
432.97	5961.34
433.16	6139.23
433.35	6019.86
433.54	6244.55
433.72	6141.57
433.91	6225.82
434.10	6349.87
434.28	6181.35
434.47	6289.02
434.66	6296.04
434.85	6342.85
435.03	6265.61
435.22	6239.87
435.41	6382.64
435.59	6607.33
435.78	6586.27
435.97	6497.33
436.16	6466.90
436.34	6497.33
436.53	6553.50
436.72	6675.21
436.90	6455.20
437.09	6764.15
437.28	6511.37
437.46	6656.48
437.65	6773.51
437.84	6696.27
438.02	6827.34
438.21	6810.96
438.40	6717.34
438.58	7042.67
438.77	7019.27
438.96	7110.55
439.14	7028.63
439.33	7243.96
439.52	7178.42
439.70	7227.57
439.89	7428.86
440.08	7447.58
440.26	7452.27
440.45	7414.82
440.63	7522.48
440.82	7845.48
441.01	7611.42
441.19	7550.57
441.38	7730.79
441.57	7857.18
441.75	7733.13
441.94	7798.66
442.12	7969.52
442.31	8084.21
442.50	8051.44
442.68	7948.46
442.87	8109.96
443.05	8280.82
443.24	8355.71
443.43	8088.89
443.61	8334.65
443.80	8435.29
443.98	8049.10
444.17	8044.42
444.35	8400.18
444.54	8390.82
444.73	8348.69
444.91	8362.73
445.10	8458.70
445.28	8358.05
445.47	8341.67
445.65	8280.82
445.84	8599.13
446.02	8538.27
446.21	8320.60
446.39	8379.12
446.58	8498.49
446.77	8765.31
446.95	8299.54
447.14	8589.77
447.32	8638.92
447.51	8526.57
447.69	8470.40
447.88	8505.51
448.06	8549.98
448.25	8510.19
448.43	8847.22
448.62	8688.07
448.80	8482.10
448.99	8805.10
449.17	8547.64
449.36	8538.27
449.54	8982.98
449.73	8802.75
449.91	9025.11
450.10	8961.91
450.28	9102.34
450.46	9076.60
450.65	8973.61
450.83	9158.52
451.02	8999.36
451.20	9453.42
451.39	9371.50
451.57	9104.68
451.76	9273.20
451.94	9085.96
452.13	9392.57
452.31	9404.27
452.49	9277.88
452.68	9661.73
452.86	9245.12
453.05	9544.70
453.23	9523.64
453.42	9455.76
453.60	9469.81
453.78	9673.43
453.97	9371.50
454.15	9460.45
454.34	9628.96
454.52	9970.68
454.70	9790.46
454.89	9764.72
455.07	9926.21
455.26	9778.76
455.44	9886.42
455.62	10085.37
455.81	9895.78
455.99	10181.33
456.17	10127.50
456.36	10078.35
456.54	10209.42
456.73	10171.97
456.91	10492.62
457.09	10415.38
457.28	10698.59
457.46	10347.51
457.64	10640.08
457.83	10588.58
458.01	10525.39
458.19	10691.57
458.38	10785.19
458.56	10874.13
458.74	10583.90
458.93	10700.93
459.11	10796.89
459.29	10729.02
459.48	10841.36
459.66	10925.62
459.84	11009.88
460.03	11089.46
460.21	10750.08
460.39	11007.54
460.57	11122.23
460.76	11119.89
460.94	11243.93
461.12	11145.63
461.31	11145.63
461.49	11281.38
461.67	11274.36
461.85	11234.57
462.04	11456.92
462.22	11709.70
462.40	11726.08
462.59	11688.64
462.77	11550.54
462.95	11616.08
463.13	11763.53
463.32	11791.62
463.50	11761.19
463.68	11756.51
463.86	12102.91
464.05	11800.98
464.23	11822.05
464.41	12374.41
464.59	11784.60
464.78	12121.63
464.96	12140.36
465.14	11983.54
465.32	11992.90
465.50	12116.95
465.69	12393.14
465.87	12388.46
466.05	12386.12
466.23	12138.02
466.41	12280.79
466.60	12468.03
466.78	12343.99
466.96	12444.63
467.14	12542.93
467.32	12367.39
467.51	12505.48
467.69	12222.28
467.87	12388.46
468.05	12528.89
468.23	12437.61
468.41	12587.40
468.60	12741.88
468.78	12917.42
468.96	12561.66
469.14	12961.89
469.32	13177.22
469.50	12819.11
469.69	13074.23
469.87	13198.28
470.05	13406.59
470.23	13132.75
470.41	13331.69
470.59	13221.69
470.77	13186.58
470.95	13383.18
471.14	13701.50
471.32	13083.59
471.50	13839.59
471.68	13729.58
471.86	13752.99
472.04	13586.81
472.22	14401.32
472.40	13954.27
472.58	14136.84
472.77	14026.83
472.95	14324.08
473.13	14700.90
473.31	14078.32
473.49	14008.11
473.67	14317.06
473.85	14403.66
474.03	14759.42
474.21	14686.86
474.39	14951.34
474.57	14686.86
474.75	15192.42
474.93	14878.79
475.12	15239.23
475.30	15164.33
475.48	15183.06
475.66	15243.91
475.84	15147.95
476.02	15641.80
476.20	15276.68
476.38	16037.35
476.56	15899.26
476.74	16063.10
476.92	15999.90
477.10	15997.56
477.28	16636.53
477.46	15990.54
477.64	16519.50
477.82	16421.20
478.00	17247.41
478.18	17130.38
478.36	16865.90
478.54	17305.92
478.72	17371.46
478.90	17493.16
479.08	17778.71
479.26	17851.27
479.44	17710.83
479.62	18026.81
479.80	18136.81
479.98	18291.29
480.16	18801.52
480.34	18448.10
480.52	18932.59
480.70	18768.76
480.88	18581.51
481.06	19122.18
481.24	18951.32
481.41	19541.13
481.59	19676.88
481.77	19932.00
481.95	19438.15
482.13	19669.86
482.31	19777.53
482.49	20224.57
482.67	20655.23
482.85	20805.02
483.03	20727.78
483.21	21062.48
483.39	21001.63
483.57	20879.92
483.74	21074.18
483.92	21556.33
484.10	21223.98
484.28	21949.54
484.46	22204.66
484.64	22649.36
484.82	22317.01
485.00	22558.08
485.18	22883.42
485.35	22824.90
485.53	22813.20
485.71	22948.95
485.89	23686.22
486.07	23630.05
486.25	23552.81
486.43	23686.22
486.61	24208.16
486.78	23917.93
486.96	24444.56
487.14	25034.37
487.32	24987.56
487.50	24877.55
487.68	25308.21
487.85	25331.62
488.03	25610.14
488.21	26153.15
488.39	26047.82
488.57	26078.25
488.75	26487.84
488.92	26710.19
489.10	27072.98
489.28	27000.42
489.46	27482.57
489.64	27204.05
489.81	27828.97
489.99	27784.50
490.17	28268.99
490.35	28704.33
490.53	28011.53
490.70	28594.32
490.88	28470.28
491.06	28989.88
491.24	29181.80
491.41	29619.48
491.59	29535.22
491.77	29198.18
491.95	29486.07
492.13	29867.58
492.30	30064.18
492.48	30038.44
492.66	30295.89
492.84	30972.31
493.01	30806.13
493.19	31292.96
493.37	31597.23
493.54	31440.42
493.72	31517.65
493.90	31922.57
494.08	32098.11
494.25	32465.57
494.43	32112.15
494.61	32975.81
494.79	32758.14
494.96	32891.55
495.14	32924.32
495.32	33249.65
495.49	33156.03
495.67	33916.70
495.85	33769.25
496.02	33919.04
496.20	34300.55
496.38	34293.53
496.55	34146.08
496.73	35166.55
496.91	35239.11
497.09	35269.53
497.26	35306.98
497.44	34911.43
497.62	35557.42
497.79	36055.95
497.97	35683.81
498.14	36170.64
498.32	36573.21
498.50	36699.60
498.67	36809.61
498.85	36849.39
499.03	36767.48
499.20	37394.74
499.38	37270.69
499.56	37048.34
499.73	37198.13
499.91	37551.56
500.08	38127.33
500.26	37699.01
500.44	38183.50
500.61	37956.47
500.79	38188.18
500.97	38340.32
501.14	39171.21
501.32	39103.33
501.49	38642.24
501.67	38614.16
501.84	39431.01
502.02	39089.29
502.20	39215.68
502.37	39639.31
502.55	39414.62
502.72	39791.45
502.90	39936.56
503.07	39889.75
503.25	40184.66
503.43	40060.61
503.60	39934.22
503.78	40350.84
503.95	40315.73
504.13	40837.67
504.30	40973.42
504.48	40374.24
504.65	41034.27
504.83	41338.54
505.01	41694.30
505.18	41886.23
505.36	41593.66
505.53	41352.58
505.71	42176.45
505.88	42225.60
506.06	41808.99
506.23	42127.30
506.41	42597.75
506.58	42520.51
506.76	42440.93
506.93	42777.97
507.11	42672.65
507.28	43023.73
507.46	43016.71
507.63	42979.26
507.81	43557.37
507.98	42887.98
508.16	43524.60
508.33	43639.29
508.50	43810.15
508.68	43882.70
508.85	44301.66
509.03	44222.08
509.20	44091.01
509.38	44619.97
509.55	44914.88
509.73	44451.45
509.90	44870.41
510.08	44839.98
510.25	45195.74
510.42	44662.10
510.60	45310.43
510.77	45427.46
510.95	45462.57
511.12	45745.77
511.30	45738.75
511.47	45432.14
511.64	46005.57
511.82	46103.87
511.99	45942.38
512.17	46347.29
512.34	46078.13
512.51	46761.56
512.69	46532.19
512.86	46375.37
513.04	46511.13
513.21	46574.32
513.38	47063.49
513.56	47391.17
513.73	47157.11
513.90	47908.43
514.08	47255.42
514.25	47550.32
514.43	47863.96
514.60	47449.68
514.77	47601.82
514.95	47920.13
515.12	47854.59
515.29	47840.55
515.47	48346.11
515.64	48126.10
515.81	48144.82
515.99	48554.41
516.16	48652.72
516.33	48559.09
516.51	49202.74
516.68	48626.97
516.85	48760.38
517.03	49020.18
517.20	49162.95
517.37	49036.56
517.54	49308.07
517.72	49205.08
517.89	49116.14
518.06	49916.61
518.24	49787.88
518.41	49532.76
518.58	49932.99
518.75	49750.43
518.93	49797.24
519.10	49478.92
519.27	50167.04
519.45	49968.10
519.62	50255.98
519.79	50000.86
519.96	50478.33
520.14	50485.36
520.31	50337.90
520.48	50646.85
520.65	50696.00
520.83	50969.85
521.00	50829.41
521.17	50813.03
521.34	50791.97
521.52	51320.93
521.69	51049.42
521.86	51269.43
522.03	51442.63
522.20	51669.67
522.38	51498.81
522.55	51672.01
522.72	51599.45
522.89	51737.54
523.07	52025.43
523.24	51716.48
523.41	51969.26
523.58	51669.67
523.75	52182.24
523.92	52079.26
524.10	52474.81
524.27	52453.75
524.44	52243.10
524.61	52252.46
524.78	52371.83
524.96	52406.94
525.13	52671.42
525.30	52713.55
525.47	52830.57
525.64	52807.17
525.81	52676.10
525.98	53029.52
526.16	52865.68
526.33	52940.58
526.50	53514.01
526.67	53001.43
526.84	53240.17
527.01	52952.28
527.18	53073.99
527.36	53139.52
527.53	53354.85
527.70	53659.12
527.87	53375.92
528.04	53471.88
528.21	53862.75
528.38	53308.04
528.55	53808.92
528.72	53598.27
528.89	53829.98
529.07	53453.15
529.24	53736.36
529.41	53888.49
529.58	53902.54
529.75	53897.86
529.92	54157.66
530.09	54089.78
530.26	54120.21
530.43	54164.68
530.60	54071.06
530.77	54110.85
530.94	54281.70
531.11	54253.62
531.28	54616.40
531.46	54417.46
531.63	54447.88
531.80	54738.11
531.97	54578.95
532.14	54583.63
532.31	54494.69
532.48	54639.81
532.65	54539.16
532.82	54656.19
532.99	54908.97
533.16	54625.76
533.33	55131.32
533.50	55047.06
533.67	54951.10
533.84	55009.61
534.01	55075.15
534.18	55365.37
534.35	55299.84
534.52	55346.65
534.69	55671.98
534.86	55707.09
535.03	55395.80
535.20	55458.99
535.37	55618.15
535.54	55648.58
535.71	55517.51
535.88	55569.00
536.05	55674.32
536.22	55765.60
536.38	55784.33
536.55	55950.51
536.72	55578.36
536.89	55772.63
537.06	55737.52
537.23	56055.83
537.40	55753.90
537.57	55992.64
537.74	55781.99
537.91	56048.81
538.08	55994.98
538.25	55833.48
538.42	56102.64
538.59	56193.92
538.75	56030.08
538.92	56275.84
539.09	56247.75
539.26	56336.69
539.43	56402.23
539.60	56460.74
539.77	56505.21
539.94	56509.89
540.11	56514.58
540.28	56692.46
540.44	56701.82
540.61	56420.95
540.78	56633.94
540.95	56846.93
541.12	56439.68
541.29	56781.40
541.46	56683.09
541.62	56715.86
541.79	56809.48
541.96	56690.12
542.13	56729.90
542.30	56748.63
542.47	57111.41
542.63	56985.02
542.80	57244.82
542.97	57322.06
543.14	57261.21
543.31	57190.99
543.48	57174.61
543.64	57602.92
543.81	57408.66
543.98	57682.50
544.15	57511.64
544.32	57574.84
544.48	57778.46
544.65	57670.80
544.82	57705.91
544.99	57467.17
545.16	57904.85
545.32	57687.18
545.49	57890.81
545.66	57869.75
545.83	57792.51
546.00	57733.99
546.16	57979.75
546.33	57925.92
546.50	57785.49
546.67	57729.31
546.83	57712.93
547.00	58052.31
547.17	57911.88
547.34	57792.51
547.50	58113.16
547.67	58302.74
547.84	58007.84
548.00	58103.80
548.17	58216.14
548.34	58391.68
548.51	58384.66
548.67	58763.83
548.84	58234.87
549.01	58422.11
549.18	58218.49
549.34	58382.32
549.51	58663.19
549.68	58578.93
549.84	58506.37
550.01	58576.59
550.18	58368.28
550.34	58562.54
550.51	58691.27
550.68	58611.70
550.84	58527.44
551.01	58752.13
551.18	58717.02
551.34	58609.35
551.51	58651.48
551.68	59025.97
551.84	58932.35
552.01	58733.40
552.18	58845.75
552.34	58658.51
552.51	58820.00
552.68	58911.28
552.84	58885.54
553.01	59206.19
553.18	58988.52
553.34	59079.80
553.51	58958.09
553.67	59098.53
553.84	59150.02
554.01	59257.68
554.17	59365.35
554.34	59194.49
554.51	59058.74
554.67	59325.56
554.84	59236.62
555.00	59250.66
555.17	59236.62
555.33	59412.16
555.50	59199.17
555.67	59126.61
555.83	59215.55
556.00	59278.75
556.16	59540.89
556.33	59288.11
556.50	59381.73
556.66	59540.89
556.83	59405.14
556.99	59529.19
557.16	59669.62
557.32	59604.08
557.49	59756.22
557.65	59554.93
557.82	59515.14
557.98	59489.40
558.15	59531.53
558.32	59669.62
558.48	59641.53
558.65	59648.55
558.81	59627.49
558.98	59557.27
559.14	59695.36
559.31	59838.14
559.47	59791.33
559.64	59730.47
559.80	59913.03
559.97	59927.08
560.13	59746.86
560.30	59861.54
560.46	59889.63
560.63	60044.10
560.79	59924.74
560.96	59838.14
561.12	59760.90
561.29	60016.02
561.45	59924.74
561.61	60212.62
561.78	60051.12
561.94	59999.63
562.11	59821.75
562.27	60114.32
562.44	60158.79
562.60	60065.17
562.77	60086.23
562.93	59779.62
563.10	60214.96
563.26	60341.35
563.42	60575.40
563.59	60086.23
563.75	60048.78
563.92	60154.11
564.08	60229.01
564.24	60432.63
564.41	60334.33
564.57	60231.35
564.74	60229.01
564.90	60203.26
565.07	60378.80
565.23	60268.79
565.39	60074.53
565.56	60357.74
565.72	60367.10
565.88	60261.77
566.05	60212.62
566.21	60254.75
566.38	60259.43
566.54	60453.70
566.70	60458.38
566.87	60528.59
567.03	60217.30
567.19	60589.45
567.36	60460.72
567.52	60299.22
567.68	60678.39
567.85	60594.13
568.01	60554.34
568.17	60502.85
568.34	60505.19
568.50	60582.43
568.66	60528.59
568.83	60690.09
568.99	60561.36
569.15	60624.56
569.32	60535.62
569.48	60491.15
569.64	60713.50
569.81	60580.09
569.97	60432.63
570.13	60683.07
570.30	60444.33
570.46	60776.69
570.62	60748.60
570.78	60722.86
570.95	60533.28
571.11	60741.58
571.27	60650.30
571.43	60601.15
571.60	60853.93
571.76	60790.73
571.92	60804.78
572.09	60823.50
572.25	60867.97
572.41	60830.52
572.57	60781.37
572.74	61001.38
572.90	60739.24
573.06	60959.25
573.22	60659.66
573.38	60837.54
573.55	60786.05
573.71	60872.65
573.87	60926.49
574.03	60788.39
574.20	61062.24
574.36	60818.82
574.52	60669.03
574.68	60970.96
574.84	61045.85
575.01	60903.08
575.17	61006.06
575.33	60692.43
575.49	60748.60
575.65	60870.31
575.82	60811.80
575.98	61017.77
576.14	61064.58
576.30	61109.05
576.46	61090.32
576.62	60853.93
576.79	60989.68
576.95	60776.69
577.11	61008.40
577.27	60966.27
577.43	60952.23
577.59	60931.17
577.75	60940.53
577.92	60970.96
578.08	61041.17
578.24	60959.25
578.40	61027.13
578.56	61277.57
578.72	60935.85
578.88	61095.00
579.04	61113.73
579.21	61141.81
579.37	61073.94
579.53	61286.93
579.69	60823.50
579.85	60963.93
580.01	61116.07
580.17	60968.61
580.33	61174.58
580.49	61130.11
580.65	61186.28
580.82	60947.55
580.98	61078.62
581.14	61104.37
581.30	61104.37
581.46	61036.49
581.62	60921.80
581.78	60874.99
581.94	61043.51
582.10	60961.59
582.26	61153.52
582.42	61080.96
582.58	61134.79
582.74	61123.09
582.90	61076.28
583.06	61087.98
583.22	61015.43
583.38	61092.66
583.54	61214.37
583.70	61216.71
583.86	61052.87
584.02	60977.98
584.18	61165.22
584.34	61155.86
584.50	61277.57
584.66	61080.96
584.82	60926.49
584.98	61415.66
585.14	61261.18
585.30	60891.38
585.46	61118.41
585.62	61139.47
585.78	61174.58
585.94	61073.94
586.10	61116.07
586.26	61160.54
586.42	61202.67
586.58	61174.58
586.74	61343.10
586.90	61076.28
587.06	61270.54
587.22	61268.20
587.38	61343.10
587.54	61254.16
587.70	61324.38
587.86	61209.69
588.02	61151.18
588.18	61408.64
588.34	61186.28
588.49	61111.39
