SpectraSuite Data File
++++++++++++++++++++++++++++++++++++
Date: Fri Oct 25 11:25:25 EDT 2013
User: price-jones
Dark Spectrum Present: No
Reference Spectrum Present: No
Number of Sampled Component Spectra: 1
Spectrometers: USB2+H05261
Integration Time (usec): 100000 (USB2+H05261)
Spectra Averaged: 1 (USB2+H05261)
Boxcar Smoothing: 0 (USB2+H05261)
Correct for Electrical Dark: No (USB2+H05261)
Strobe/Lamp Enabled: No (USB2+H05261)
Correct for Detector Non-linearity: No (USB2+H05261)
Correct for Stray Light: No (USB2+H05261)
Number of Pixels in Processed Spectrum: 2048
>>>>>Begin Processed Spectral Data<<<<<
365.73	229.37
365.92	229.37
366.12	229.37
366.32	107.66
366.52	170.86
366.72	102.98
366.91	98.30
367.11	170.86
367.31	124.05
367.51	163.84
367.70	79.58
367.90	147.45
368.10	156.82
368.30	170.86
368.49	154.48
368.69	105.32
368.89	175.54
369.09	163.84
369.28	140.43
369.48	152.13
369.68	117.03
369.87	191.92
370.07	173.20
370.27	224.69
370.47	238.73
370.66	636.63
370.86	643.65
371.06	695.14
371.25	676.41
371.45	662.37
371.65	634.29
371.84	699.82
372.04	629.60
372.24	765.36
372.44	699.82
372.63	669.39
372.83	737.27
373.03	725.57
373.22	788.76
373.42	779.40
373.62	795.78
373.81	854.30
374.01	809.83
374.21	873.02
374.40	807.48
374.60	849.61
374.79	828.55
374.99	777.06
375.19	877.70
375.38	837.91
375.58	767.70
375.78	866.00
375.97	856.64
376.17	933.87
376.37	894.08
376.56	877.70
376.76	896.43
376.95	933.87
377.15	943.24
377.35	954.94
377.54	873.02
377.74	938.55
377.93	924.51
378.13	940.90
378.33	997.07
378.52	968.98
378.72	964.30
378.91	987.71
379.11	940.90
379.31	952.60
379.50	983.02
379.70	994.73
379.89	954.94
380.09	980.68
380.28	978.34
380.48	978.34
380.68	1006.43
380.87	1034.52
381.07	1076.65
381.26	1050.90
381.46	952.60
381.65	1060.26
381.85	1041.54
382.04	954.94
382.24	1121.12
382.43	1015.79
382.63	1078.99
382.83	1067.28
383.02	1081.33
383.22	1083.67
383.41	1083.67
383.61	1081.33
383.80	1097.71
384.00	1167.93
384.19	1203.04
384.39	1107.07
384.58	1062.60
384.78	1210.06
384.97	1160.91
385.17	1205.38
385.36	1156.22
385.56	1172.61
385.75	1165.59
385.95	1128.14
386.14	1226.44
386.34	1240.48
386.53	1238.14
386.72	1172.61
386.92	1217.08
387.11	1160.91
387.31	1203.04
387.50	1277.93
387.70	1259.21
387.89	1221.76
388.09	1270.91
388.28	1226.44
388.48	1261.55
388.67	1334.11
388.86	1331.76
389.06	1373.89
389.25	1329.42
389.45	1301.34
389.64	1380.92
389.84	1359.85
390.03	1341.13
390.22	1336.45
390.42	1345.81
390.61	1390.28
390.81	1437.09
391.00	1357.51
391.19	1413.68
391.39	1444.11
391.58	1432.41
391.78	1521.35
391.97	1493.26
392.16	1446.45
392.36	1561.14
392.55	1558.80
392.75	1434.75
392.94	1490.92
393.13	1551.78
393.33	1575.18
393.52	1647.74
393.71	1664.12
393.91	1446.45
394.10	1598.59
394.29	1636.03
394.49	1614.97
394.68	1636.03
394.88	1664.12
395.07	1696.89
395.26	1570.50
395.46	1713.27
395.65	1706.25
395.84	1722.63
396.04	1713.27
396.23	1722.63
396.42	1699.23
396.62	1668.80
396.81	1722.63
397.00	1729.66
397.19	1732.00
397.39	1837.32
397.58	1806.89
397.77	1804.55
397.97	1832.64
398.16	1785.83
398.35	1839.66
398.55	1867.75
398.74	1846.68
398.93	1916.90
399.12	1914.56
399.32	1944.99
399.51	1865.41
399.70	2134.57
399.90	1973.07
400.09	1970.73
400.28	2015.20
400.47	2019.88
400.67	2047.97
400.86	2052.65
401.05	2062.01
401.24	2218.83
401.44	2078.40
401.63	2115.84
401.82	2211.81
402.01	2129.89
402.21	2160.31
402.40	2218.83
402.59	2188.40
402.78	2221.17
402.97	2223.51
403.17	2188.40
403.36	2235.21
403.55	2326.49
403.74	2282.02
403.93	2420.11
404.13	2406.07
404.32	2375.64
404.51	2356.92
404.70	2399.05
404.89	2389.69
405.09	2485.65
405.28	2497.35
405.47	2434.16
405.66	2586.29
405.85	2457.56
406.05	2487.99
406.24	2434.16
406.43	2513.74
406.62	2621.40
406.81	2623.74
407.00	2562.89
407.20	2562.89
407.39	2621.40
407.58	2640.12
407.77	2703.32
407.96	2808.64
408.15	2789.92
408.34	2724.38
408.54	2757.15
408.73	2787.58
408.92	2761.83
409.11	2761.83
409.30	2867.16
409.49	2794.60
409.68	2846.09
409.87	2984.18
410.07	2925.67
410.26	2920.99
410.45	2974.82
410.64	3094.19
410.83	2949.08
411.02	3183.13
411.21	3295.47
411.40	2991.20
411.59	3164.40
411.78	3159.72
411.98	3246.32
412.17	3293.13
412.36	3328.24
412.55	3155.04
412.74	3363.35
412.93	3480.38
413.12	3386.76
413.31	3410.16
413.50	3452.29
413.69	3414.84
413.88	3548.25
414.07	3461.65
414.26	3550.59
414.45	3548.25
414.64	3637.19
414.83	3709.75
415.02	3742.52
415.22	3747.20
415.41	3831.46
415.60	3754.22
415.79	3892.31
415.98	3854.86
416.17	3941.46
416.36	3962.53
416.55	3997.64
416.74	3997.64
416.93	3948.48
417.12	4035.08
417.31	4177.86
417.50	4084.23
417.69	4306.59
417.88	4372.12
418.07	4273.82
418.26	4238.71
418.45	4227.01
418.64	4479.79
418.83	4379.14
419.02	4259.78
419.21	4550.00
419.39	4407.23
419.58	4430.63
419.77	4479.79
419.96	4538.30
420.15	4578.09
420.34	4395.53
420.53	4519.57
420.72	4519.57
420.91	4557.02
421.10	4521.92
421.29	4784.06
421.48	4746.61
421.67	4770.01
421.86	4681.07
422.05	4585.11
422.24	4788.74
422.43	4814.48
422.61	4837.89
422.80	4837.89
422.99	4809.80
423.18	4922.15
423.37	4961.94
423.56	4954.91
423.75	4812.14
423.94	4805.12
424.13	4617.88
424.32	4791.08
424.50	4903.42
424.69	5015.77
424.88	5064.92
425.07	5062.58
425.26	4788.74
425.45	4940.87
425.64	4917.47
425.83	4924.49
426.01	5046.20
426.20	5022.79
426.39	4985.34
426.58	4964.28
426.77	4990.02
426.96	4945.55
427.15	5071.94
427.33	5149.18
427.52	5081.30
427.71	5177.26
427.90	5219.39
428.09	5247.48
428.28	5179.61
428.46	5476.85
428.65	5416.00
428.84	5383.23
429.03	5430.04
429.22	5287.27
429.40	5366.85
429.59	5542.39
429.78	5284.93
429.97	5191.31
430.16	5416.00
430.34	5493.24
430.53	5549.41
430.72	5586.86
430.91	5579.84
431.10	5596.22
431.28	5738.99
431.47	5867.72
431.66	5743.67
431.85	5666.44
432.03	5893.47
432.22	5755.38
432.41	5849.00
432.60	5841.98
432.79	5888.79
432.97	6022.20
433.16	6019.86
433.35	5834.96
433.54	6174.33
433.72	6031.56
433.91	6033.90
434.10	6141.57
434.28	5933.26
434.47	6155.61
434.66	6127.52
434.85	6061.99
435.03	6249.23
435.22	6197.74
435.41	6478.60
435.59	6473.92
435.78	6258.59
435.97	6441.15
436.16	6279.66
436.34	6303.06
436.53	6375.62
436.72	6539.46
436.90	6485.62
437.09	6434.13
437.28	6443.49
437.46	6661.16
437.65	6534.78
437.84	6569.88
438.02	6715.00
438.21	6703.29
438.40	6583.93
438.58	7000.54
438.77	6773.51
438.96	6892.88
439.14	7119.91
439.33	7087.14
439.52	7241.62
439.70	7222.89
439.89	7105.87
440.08	7283.75
440.26	7232.26
440.45	7192.47
440.63	7307.15
440.82	7602.06
441.01	7428.86
441.19	7637.17
441.38	7566.95
441.57	7735.47
441.75	7705.04
441.94	7578.65
442.12	7749.51
442.31	7999.95
442.50	7939.10
442.68	7688.66
442.87	7812.71
443.05	7875.90
443.24	8215.28
443.43	8131.02
443.61	8105.28
443.80	8105.28
443.98	7955.48
444.17	7927.39
444.35	8077.19
444.54	8126.34
444.73	8065.49
444.91	8152.09
445.10	8257.41
445.28	8383.80
445.47	8109.96
445.65	8344.01
445.84	8379.12
446.02	8533.59
446.21	8547.64
446.39	8381.46
446.58	8278.47
446.77	8374.44
446.95	8346.35
447.14	8484.44
447.32	8346.35
447.51	8376.78
447.69	8224.64
447.88	8554.66
448.06	8376.78
448.25	8336.99
448.43	8493.80
448.62	8439.97
448.80	8379.12
448.99	8542.96
449.17	8599.13
449.36	8674.03
449.54	8744.24
449.73	8800.41
449.91	8990.00
450.10	8889.35
450.28	9074.26
450.46	8826.16
450.65	8945.53
450.83	9011.06
451.02	9151.49
451.20	9041.49
451.39	9104.68
451.57	9078.94
451.76	9104.68
451.94	9212.35
452.13	9345.76
452.31	9043.83
452.49	9139.79
452.68	9437.04
452.86	9144.47
453.05	9172.56
453.23	9275.54
453.42	9179.58
453.60	9411.29
453.78	9418.32
453.97	9327.03
454.15	9647.69
454.34	9451.08
454.52	9689.82
454.70	9638.33
454.89	9668.75
455.07	9818.55
455.26	9867.70
455.44	9811.53
455.62	9657.05
455.81	9806.84
455.99	9811.53
456.17	9879.40
456.36	9951.96
456.54	9975.36
456.73	10139.20
456.91	10171.97
457.09	10380.28
457.28	10403.68
457.46	10312.40
457.64	10462.19
457.83	10452.83
458.01	10406.02
458.19	10546.45
458.38	10441.13
458.56	10684.55
458.74	10736.04
458.93	10506.66
459.11	10822.64
459.29	10663.48
459.48	10827.32
459.66	10736.04
459.84	10729.02
460.03	10871.79
460.21	10988.82
460.39	10942.00
460.57	10640.08
460.76	10923.28
460.94	11023.92
461.12	11054.35
461.31	11183.08
461.49	11007.54
461.67	11288.40
461.85	11293.08
462.04	11211.17
462.22	11719.06
462.40	11592.67
462.59	11400.75
462.77	11524.80
462.95	11477.99
463.13	11375.00
463.32	11482.67
463.50	11885.24
463.68	11822.05
463.86	11686.29
464.05	11555.22
464.23	11480.33
464.41	11812.68
464.59	11438.20
464.78	12049.08
464.96	12011.63
465.14	11857.15
465.32	11950.78
465.50	11953.12
465.69	12049.08
465.87	11695.66
466.05	12276.11
466.23	11981.20
466.41	12016.31
466.60	12367.39
466.78	12135.68
466.96	12086.53
467.14	12051.42
467.32	12299.52
467.51	12276.11
467.69	12032.69
467.87	12208.23
468.05	12510.16
468.23	12571.02
468.41	12526.55
468.60	12386.12
468.78	12664.64
468.96	12411.86
469.14	12774.64
469.32	12952.52
469.50	12402.50
469.69	12877.63
469.87	12791.03
470.05	12957.21
470.23	12931.46
470.41	12872.95
470.59	13104.66
470.77	13142.11
470.95	13083.59
471.14	13334.03
471.32	13022.74
471.50	13380.84
471.68	13549.36
471.86	13570.43
472.04	13657.03
472.22	13792.78
472.40	13846.61
472.58	13764.69
472.77	13827.88
472.95	14118.11
473.13	14291.31
473.31	13790.44
473.49	14085.34
473.67	14024.49
473.85	14073.64
474.03	14471.53
474.21	14331.10
474.39	14633.03
474.57	14501.96
474.75	14471.53
474.93	14815.59
475.12	14717.29
475.30	14862.40
475.48	14909.21
475.66	14876.44
475.84	15021.56
476.02	15372.64
476.20	15133.90
476.38	15396.04
476.56	15840.75
476.74	15702.65
476.92	15751.81
477.10	15590.31
477.28	15976.50
477.46	16301.83
477.64	16301.83
477.82	16533.54
478.00	16732.49
478.18	16737.17
478.36	16734.83
478.54	16861.22
478.72	17001.65
478.90	17439.33
479.08	17444.01
479.26	17282.52
479.44	17596.15
479.62	17701.47
479.80	17930.84
479.98	18001.06
480.16	18464.49
480.34	18382.57
480.52	18249.16
480.70	18356.82
480.88	18256.18
481.06	18249.16
481.24	18480.87
481.41	18579.17
481.59	18995.79
481.77	19377.30
481.95	19136.22
482.13	19625.39
482.31	19587.94
482.49	20109.88
482.67	19913.28
482.85	20341.60
483.03	20475.01
483.21	20617.78
483.39	20606.08
483.57	20608.42
483.74	20751.19
483.92	21362.07
484.10	21322.28
484.28	21277.81
484.46	21846.56
484.64	22258.49
484.82	21804.43
485.00	21937.84
485.18	22766.39
485.35	22614.26
485.53	22621.28
485.71	23047.26
485.89	23126.83
486.07	23164.28
486.25	23367.91
486.43	23463.87
486.61	23735.37
486.78	23840.70
486.96	23508.34
487.14	24238.59
487.32	24381.36
487.50	24547.54
487.68	24627.12
487.85	24772.23
488.03	25296.51
488.21	25869.94
488.39	25404.17
488.57	26015.05
488.75	25898.03
488.92	26136.76
489.10	26405.92
489.28	26092.29
489.46	26703.17
489.64	26848.29
489.81	27639.39
489.99	27466.19
490.17	27641.73
490.35	27419.38
490.53	28072.39
490.70	28116.86
490.88	28184.73
491.06	28528.79
491.24	28442.19
491.41	28734.76
491.59	29097.54
491.77	28856.46
491.95	29450.96
492.13	29233.29
492.30	29656.93
492.48	29476.71
492.66	29841.83
492.84	30075.88
493.01	30356.75
493.19	30115.67
493.37	30768.68
493.54	30883.37
493.72	31519.99
493.90	30923.16
494.08	31290.62
494.25	31772.77
494.43	31838.31
494.61	31997.46
494.79	32720.69
494.96	32030.23
495.14	32362.59
495.32	33111.56
495.49	32734.73
495.67	33647.54
495.85	33029.64
496.02	33247.31
496.20	33729.46
496.38	33860.53
496.55	33926.07
496.73	34883.34
496.91	34003.30
497.09	34558.01
497.26	34581.42
497.44	34810.79
497.62	34986.33
497.79	35637.00
497.97	35105.70
498.14	35400.60
498.32	35950.63
498.50	35835.94
498.67	36584.91
498.85	36231.49
499.03	36392.99
499.20	35934.24
499.38	36591.94
499.56	36950.04
499.73	36905.57
499.91	37076.43
500.08	37376.01
500.26	36865.78
500.44	37453.25
500.61	37322.18
500.79	37514.11
500.97	38204.56
501.14	38155.41
501.32	38181.16
501.49	38602.46
501.67	38347.34
501.84	38721.82
502.02	38756.93
502.20	38925.45
502.37	38855.23
502.55	38609.48
502.72	39569.10
502.90	39328.02
503.07	39250.78
503.25	39440.37
503.43	38946.51
503.60	39737.62
503.78	39854.64
503.95	39746.98
504.13	40477.22
504.30	40547.44
504.48	40067.63
504.65	40414.03
504.83	40259.55
505.01	41139.60
505.18	41165.34
505.36	41392.37
505.53	40704.26
505.71	41380.67
505.88	41317.48
506.06	41439.18
506.23	41687.28
506.41	41558.55
506.58	41727.07
506.76	41801.97
506.93	42029.00
507.11	41696.64
507.28	42005.59
507.46	42679.67
507.63	42534.56
507.81	43115.01
507.98	42518.17
508.16	42527.53
508.33	42965.21
508.50	43002.66
508.68	43271.82
508.85	43407.58
509.03	42927.77
509.20	43622.90
509.38	43966.96
509.55	44161.23
509.73	43819.51
509.90	43969.30
510.08	44034.84
510.25	44053.56
510.42	43945.90
510.60	44868.07
510.77	44708.91
510.95	45289.37
511.12	44442.09
511.30	44376.56
511.47	44973.39
511.64	45450.86
511.82	45593.64
511.99	45448.52
512.17	45605.34
512.34	45514.06
512.51	45972.80
512.69	46202.18
512.86	46040.68
513.04	46382.40
513.21	46115.58
513.38	46354.31
513.56	46366.01
513.73	46260.69
513.90	46639.86
514.08	46459.63
514.25	46733.48
514.43	47065.83
514.60	47278.82
514.77	46780.29
514.95	47019.02
515.12	46927.74
515.29	47346.70
515.47	47562.03
515.64	47695.44
515.81	47608.84
515.99	47835.87
516.16	47805.44
516.33	48135.46
516.51	48299.30
516.68	47856.93
516.85	48198.65
517.03	48744.00
517.20	48535.69
517.37	48477.18
517.54	48662.08
517.72	48650.38
517.89	48748.68
518.06	49233.17
518.24	48889.11
518.41	49382.96
518.58	49209.76
518.75	48952.30
518.93	49158.27
519.10	49104.44
519.27	49298.70
519.45	49602.97
519.62	49457.86
519.79	49654.47
519.96	49209.76
520.14	50162.36
520.31	49731.70
520.48	49811.28
520.65	49862.77
520.83	50328.54
521.00	49937.67
521.17	50162.36
521.34	50644.51
521.52	50330.88
521.69	50464.29
521.86	50300.45
522.03	50944.10
522.20	51026.02
522.38	51386.46
522.55	50913.67
522.72	51320.93
522.89	50855.16
523.07	51313.90
523.24	51173.47
523.41	51323.27
523.58	50766.22
523.75	51339.65
523.92	51351.35
524.10	51426.25
524.27	51580.73
524.44	51798.40
524.61	51751.59
524.78	52018.41
524.96	51760.95
525.13	52006.70
525.30	52563.75
525.47	52369.49
525.64	51987.98
525.81	52449.06
525.98	52470.13
526.16	51952.87
526.33	52353.10
526.50	52446.72
526.67	52500.56
526.84	52662.05
527.01	52662.05
527.18	52523.96
527.36	52708.86
527.53	52610.56
527.70	53418.05
527.87	53205.06
528.04	52879.72
528.21	53291.66
528.38	53125.48
528.55	53537.41
528.72	53226.12
528.89	53081.01
529.07	52978.03
529.24	52875.04
529.41	53453.15
529.58	53411.02
529.75	53228.46
529.92	53736.36
530.09	53654.44
530.26	53563.16
530.43	53652.10
530.60	53567.84
530.77	53663.80
530.94	53666.14
531.11	53897.86
531.28	53890.83
531.46	53659.12
531.63	53947.01
531.80	54188.08
531.97	54272.34
532.14	53869.77
532.31	53918.92
532.48	54314.47
532.65	54066.38
532.82	54190.42
532.99	54663.21
533.16	54157.66
533.33	54602.36
533.50	54728.75
533.67	54590.66
533.84	54401.07
534.01	54576.61
534.18	54422.14
534.35	55075.15
534.52	54562.57
534.69	55056.42
534.86	55110.25
535.03	54852.80
535.20	54784.92
535.37	55189.83
535.54	55089.19
535.71	55089.19
535.88	55215.58
536.05	55126.64
536.22	55386.44
536.38	55290.48
536.55	55384.10
536.72	55292.82
536.89	55199.19
537.06	55241.32
537.23	55351.33
537.40	55515.17
537.57	55435.59
537.74	55620.49
537.91	55632.19
538.08	55810.07
538.25	55533.89
538.42	55510.49
538.59	55702.41
538.75	55674.32
538.92	55917.74
539.09	55852.20
539.26	55852.20
539.43	55819.44
539.60	56112.00
539.77	56048.81
539.94	56189.24
540.11	56271.16
540.28	56427.98
540.44	56016.04
540.61	55899.01
540.78	55999.66
540.95	56217.33
541.12	55842.84
541.29	56465.42
541.46	56294.56
541.62	56306.27
541.79	56615.22
541.96	56079.24
542.13	56395.21
542.30	56385.85
542.47	56680.75
542.63	56676.07
542.80	56755.65
542.97	56961.62
543.14	56928.85
543.31	57013.11
543.48	56985.02
543.64	57188.65
543.81	56999.07
543.98	57083.33
544.15	57141.84
544.32	57338.44
544.48	57403.98
544.65	57062.26
544.82	57268.23
544.99	57041.20
545.16	57235.46
545.32	57277.59
545.49	57542.07
545.66	57565.48
545.83	57542.07
546.00	57495.26
546.16	57251.84
546.33	57286.95
546.50	57467.17
546.67	57406.32
546.83	57083.33
547.00	57502.28
547.17	57411.00
547.34	57432.07
547.50	57605.26
547.67	57911.88
547.84	57928.26
548.00	57883.79
548.17	58049.97
548.34	57607.61
548.51	57942.30
548.67	57984.43
548.84	57790.17
549.01	57991.45
549.18	57921.24
549.34	57851.02
549.51	58028.90
549.68	58141.25
549.84	58251.25
550.01	58333.17
550.18	58122.52
550.34	58092.10
550.51	58274.66
550.68	58066.35
550.84	58103.80
551.01	58110.82
551.18	58431.47
551.34	58429.13
551.51	58497.01
551.68	58454.88
551.84	58518.07
552.01	58504.03
552.18	58466.58
552.34	58571.91
552.51	58653.82
552.68	58443.18
552.84	58368.28
553.01	58698.30
553.18	58511.05
553.34	58817.66
553.51	58522.76
553.67	58693.61
553.84	58721.70
554.01	58710.00
554.17	58801.28
554.34	58780.21
554.51	58829.37
554.67	58592.97
554.84	58677.23
555.00	58836.39
555.17	58890.22
555.33	58798.94
555.50	58564.88
555.67	58646.80
555.83	58782.55
556.00	58976.82
556.16	59377.05
556.33	59114.91
556.50	58812.98
556.66	59187.47
556.83	59030.65
556.99	59182.79
557.16	59292.79
557.32	59302.15
557.49	59433.22
557.65	58995.54
557.82	59098.53
557.98	59007.25
558.15	59196.83
558.32	59358.33
558.48	59241.30
558.65	59206.19
558.81	59257.68
558.98	59407.48
559.14	59304.49
559.31	59646.21
559.47	59561.95
559.64	59482.37
559.80	59449.61
559.97	59461.31
560.13	59334.92
560.30	59489.40
560.46	59559.61
560.63	59735.15
560.79	59613.44
560.96	59571.32
561.12	59571.32
561.29	59711.75
561.45	59627.49
561.61	59517.48
561.78	59622.81
561.94	59620.47
562.11	59524.50
562.27	59566.63
562.44	59697.70
562.60	59770.26
562.77	59674.30
562.93	59732.81
563.10	59812.39
563.26	59512.80
563.42	60020.70
563.59	59676.64
563.75	59739.83
563.92	59971.55
564.08	59859.20
564.24	59753.88
564.41	60006.65
564.57	59992.61
564.74	59845.16
564.90	59917.71
565.07	59796.01
565.23	60060.49
565.39	59671.96
565.56	60079.21
565.72	60009.00
565.88	59959.84
566.05	59870.90
566.21	59882.61
566.38	60004.31
566.54	60016.02
566.70	60100.28
566.87	60229.01
567.03	59887.29
567.19	59976.23
567.36	60310.92
567.52	59959.84
567.68	60243.05
567.85	60229.01
568.01	60245.39
568.17	59985.59
568.34	60254.75
568.50	60095.60
568.66	60133.04
568.83	60217.30
568.99	60200.92
569.15	60236.03
569.32	60315.61
569.48	60161.13
569.64	60233.69
569.81	60301.56
569.97	60165.81
570.13	60177.51
570.30	60238.37
570.46	60350.71
570.62	60388.16
570.78	60289.86
570.95	60168.15
571.11	60336.67
571.27	60149.43
571.43	60395.18
571.60	60411.57
571.76	60657.32
571.92	60221.98
572.09	60470.08
572.25	60512.21
572.41	60299.22
572.57	60336.67
572.74	60509.87
572.90	60261.77
573.06	60449.02
573.22	60432.63
573.38	60418.59
573.55	60224.32
573.71	60573.06
573.87	60526.25
574.03	60355.39
574.20	60577.75
574.36	60348.37
574.52	60535.62
574.68	60477.10
574.84	60760.31
575.01	60594.13
575.17	60498.17
575.33	60589.45
575.49	60383.48
575.65	60376.46
575.82	60439.65
575.98	60720.52
576.14	61003.72
576.30	60537.96
576.46	60624.56
576.62	60662.00
576.79	60652.64
576.95	60390.50
577.11	60652.64
577.27	60577.75
577.43	60453.70
577.59	60446.68
577.75	60633.92
577.92	60388.16
578.08	60456.04
578.24	60640.94
578.40	60650.30
578.56	60552.00
578.72	60549.66
578.88	60654.98
579.04	60739.24
579.21	60753.29
579.37	60729.88
579.53	60774.35
579.69	60446.68
579.85	60640.94
580.01	60425.61
580.17	60694.77
580.33	60729.88
580.49	60816.48
580.65	60732.22
580.82	60652.64
580.98	60591.79
581.14	60619.88
581.30	60818.82
581.46	60734.56
581.62	60708.82
581.78	60603.49
581.94	60654.98
582.10	60753.29
582.26	60449.02
582.42	60762.65
582.58	60636.26
582.74	60786.05
582.90	60664.35
583.06	60769.67
583.22	60746.26
583.38	60666.69
583.54	60755.63
583.70	60797.76
583.86	60980.32
584.02	60762.65
584.18	60856.27
584.34	60935.85
584.50	60762.65
584.66	60891.38
584.82	60477.10
584.98	60872.65
585.14	60975.64
585.30	60622.22
585.46	60722.86
585.62	61022.45
585.78	60882.02
585.94	60470.08
586.10	60830.52
586.26	60626.90
586.42	60867.97
586.58	61045.85
586.74	60886.70
586.90	60690.09
587.06	60753.29
587.22	60846.91
587.38	60769.67
587.54	60853.93
587.70	61003.72
587.86	60725.20
588.02	60842.23
588.18	60966.27
588.34	60837.54
588.49	61078.62
