SpectraSuite Data File
++++++++++++++++++++++++++++++++++++
Date: Fri Oct 25 10:43:44 EDT 2013
User: price-jones
Dark Spectrum Present: No
Reference Spectrum Present: No
Number of Sampled Component Spectra: 1
Spectrometers: USB2+H05261
Integration Time (usec): 100000 (USB2+H05261)
Spectra Averaged: 1 (USB2+H05261)
Boxcar Smoothing: 0 (USB2+H05261)
Correct for Electrical Dark: No (USB2+H05261)
Strobe/Lamp Enabled: No (USB2+H05261)
Correct for Detector Non-linearity: No (USB2+H05261)
Correct for Stray Light: No (USB2+H05261)
Number of Pixels in Processed Spectrum: 2048
>>>>>Begin Processed Spectral Data<<<<<
365.73	152.13
365.92	152.13
366.12	152.13
366.32	86.60
366.52	16.38
366.72	72.56
366.91	0.00
367.11	39.79
367.31	0.00
367.51	42.13
367.70	0.00
367.90	0.00
368.10	0.00
368.30	88.94
368.49	9.36
368.69	65.54
368.89	2.34
369.09	0.00
369.28	49.15
369.48	0.00
369.68	88.94
369.87	114.69
370.07	79.58
370.27	79.58
370.47	234.05
370.66	332.36
370.86	437.68
371.06	477.47
371.25	449.38
371.45	437.68
371.65	468.11
371.84	423.64
372.04	456.40
372.24	428.32
372.44	489.17
372.63	486.83
372.83	552.37
373.03	451.72
373.22	526.62
373.42	547.69
373.62	468.11
373.81	615.56
374.01	603.86
374.21	526.62
374.40	547.69
374.60	564.07
374.79	575.77
374.99	580.45
375.19	566.41
375.38	571.09
375.58	547.69
375.78	505.56
375.97	599.18
376.17	587.47
376.37	674.07
376.56	592.16
376.76	617.90
376.95	662.37
377.15	699.82
377.35	685.78
377.54	662.37
377.74	685.78
377.93	627.26
378.13	716.20
378.33	645.99
378.52	660.03
378.72	655.35
378.91	695.14
379.11	704.50
379.31	662.37
379.50	601.52
379.70	751.31
379.89	669.39
380.09	716.20
380.28	660.03
380.48	676.41
380.68	671.73
380.87	653.01
381.07	702.16
381.26	676.41
381.46	819.19
381.65	753.65
381.85	730.25
382.04	746.63
382.24	753.65
382.43	650.67
382.63	746.63
382.83	720.88
383.02	695.14
383.22	751.31
383.41	692.80
383.61	641.31
383.80	777.06
384.00	624.92
384.19	741.95
384.39	765.36
384.58	751.31
384.78	730.25
384.97	826.21
385.17	809.83
385.36	779.40
385.56	732.59
385.75	826.21
385.95	870.68
386.14	856.64
386.34	777.06
386.53	840.25
386.72	816.85
386.92	842.59
387.11	877.70
387.31	901.11
387.50	919.83
387.70	837.91
387.89	929.19
388.09	844.93
388.28	880.04
388.48	922.17
388.67	940.90
388.86	931.53
389.06	861.32
389.25	978.34
389.45	997.07
389.64	1020.47
389.84	929.19
390.03	976.00
390.22	952.60
390.42	1018.13
390.61	945.58
390.81	1055.58
391.00	992.39
391.19	1053.24
391.39	1086.01
391.58	1020.47
391.78	1062.60
391.97	1118.78
392.16	908.13
392.36	983.02
392.55	983.02
392.75	954.94
392.94	1011.11
393.13	973.66
393.33	931.53
393.52	1011.11
393.71	1022.81
393.91	1039.20
394.10	1160.91
394.29	1050.90
394.49	1156.22
394.68	1219.42
394.88	1177.29
395.07	1219.42
395.26	1203.04
395.46	1256.87
395.65	1268.57
395.84	1266.23
396.04	1231.12
396.23	1214.74
396.42	1114.10
396.62	1214.74
396.81	1114.10
397.00	1214.74
397.19	1238.14
397.39	1263.89
397.58	1448.79
397.77	1313.04
397.97	1390.28
398.16	1404.32
398.35	1476.88
398.55	1369.21
398.74	1493.26
398.93	1493.26
399.12	1409.00
399.32	1385.60
399.51	1455.81
399.70	1551.78
399.90	1519.01
400.09	1556.46
400.28	1551.78
400.47	1551.78
400.67	1675.82
400.86	1696.89
401.05	1659.44
401.24	1640.72
401.44	1598.59
401.63	1666.46
401.82	1757.74
402.01	1568.16
402.21	1750.72
402.40	1785.83
402.59	1729.66
402.78	1710.93
402.97	1645.40
403.17	1788.17
403.36	1713.27
403.55	1834.98
403.74	1827.96
403.93	1844.34
404.13	1888.81
404.32	1907.54
404.51	1790.51
404.70	1851.36
404.89	1860.73
405.09	2040.95
405.28	2031.58
405.47	1998.82
405.66	1909.88
405.85	1994.14
406.05	2019.88
406.24	1942.64
406.43	1994.14
406.62	2085.42
406.81	2029.24
407.00	2099.46
407.20	1996.48
407.39	2022.22
407.58	2064.35
407.77	2160.31
407.96	2062.01
408.15	2157.97
408.34	2176.70
408.54	2169.68
408.73	2282.02
408.92	2246.91
409.11	2293.72
409.30	2326.49
409.49	2197.76
409.68	2328.83
409.87	2214.15
410.07	2319.47
410.26	2317.13
410.45	2359.26
410.64	2455.22
410.83	2431.82
411.02	2452.88
411.21	2637.78
411.40	2621.40
411.59	2665.87
411.78	2637.78
411.98	2630.76
412.17	2612.04
412.36	2595.65
412.55	2682.25
412.74	2686.94
412.93	2612.04
413.12	2717.36
413.31	2803.96
413.50	2733.75
413.69	2778.22
413.88	2906.95
414.07	2715.02
414.26	2766.51
414.45	2862.48
414.64	3016.95
414.83	3014.61
415.02	2946.73
415.22	3126.96
415.41	3091.85
415.60	3023.97
415.79	3166.74
415.98	3201.85
416.17	3295.47
416.36	3183.13
416.55	3131.64
416.74	3110.57
416.93	3208.87
417.12	3215.90
417.31	3293.13
417.50	3260.37
417.69	3342.28
417.88	3281.43
418.07	3382.07
418.26	3311.86
418.45	3433.57
418.64	3581.02
418.83	3644.21
419.02	3428.88
419.21	3543.57
419.39	3517.83
419.58	3534.21
419.77	3461.65
419.96	3595.06
420.15	3669.96
420.34	3630.17
420.53	3662.94
420.72	3744.86
420.91	3824.44
421.10	3702.73
421.29	3836.14
421.48	3796.35
421.67	3932.10
421.86	3868.91
422.05	3794.01
422.24	3751.88
422.43	3873.59
422.61	3847.84
422.80	3836.14
422.99	3878.27
423.18	3826.78
423.37	3925.08
423.56	3946.14
423.75	3810.39
423.94	3850.18
424.13	3599.74
424.32	3672.30
424.50	3948.48
424.69	3831.46
424.88	3962.53
425.07	3932.10
425.26	3775.28
425.45	3857.20
425.64	3908.69
425.83	3985.93
426.01	3927.42
426.20	4049.13
426.39	3911.04
426.58	3918.06
426.77	3854.86
426.96	4119.34
427.15	3953.16
427.33	3964.87
427.52	4046.79
427.71	3929.76
427.90	4042.11
428.09	4121.68
428.28	4053.81
428.46	4117.00
428.65	4126.36
428.84	3971.89
429.03	4227.01
429.22	4030.40
429.40	4072.53
429.59	4100.62
429.78	3955.51
429.97	3892.31
430.16	3936.78
430.34	4109.98
430.53	4152.11
430.72	4145.09
430.91	4255.09
431.10	4383.82
431.28	4360.42
431.47	4624.90
431.66	4664.69
431.85	4493.83
432.03	4414.25
432.22	4477.44
432.41	4486.81
432.60	4596.81
432.79	4664.69
432.97	4770.01
433.16	4697.46
433.35	4709.16
433.54	4578.09
433.72	4664.69
433.91	4603.83
434.10	4875.34
434.28	4753.63
434.47	4826.18
434.66	4739.58
434.85	4882.36
435.03	4891.72
435.22	4828.53
435.41	5020.45
435.59	5114.07
435.78	5018.11
435.97	5036.83
436.16	5090.67
436.34	5153.86
436.53	5142.16
436.72	5123.43
436.90	4983.00
437.09	5242.80
437.28	5188.97
437.46	5174.92
437.65	5116.41
437.84	5179.61
438.02	5158.54
438.21	5137.48
438.40	5102.37
438.58	5343.44
438.77	5455.79
438.96	5455.79
439.14	5593.88
439.33	5385.57
439.52	5511.96
439.70	5757.72
439.89	5650.05
440.08	5636.01
440.26	5673.46
440.45	5626.65
440.63	5921.56
440.82	5930.92
441.01	5830.27
441.19	5951.98
441.38	6188.38
441.57	6225.82
441.75	6155.61
441.94	6197.74
442.12	6136.88
442.31	6340.51
442.50	6289.02
442.68	6256.25
442.87	6237.53
443.05	6284.34
443.24	6441.15
443.43	6375.62
443.61	6307.74
443.80	6511.37
443.98	6291.36
444.17	6274.98
444.35	6455.20
444.54	6595.63
444.73	6361.58
444.91	6502.01
445.10	6415.41
445.28	6422.43
445.47	6333.49
445.65	6370.94
445.84	6396.68
446.02	6576.91
446.21	6541.80
446.39	6541.80
446.58	6696.27
446.77	6656.48
446.95	6450.52
447.14	6576.91
447.32	6871.81
447.51	6532.44
447.69	6778.19
447.88	6719.68
448.06	6502.01
448.25	6576.91
448.43	6696.27
448.62	6745.42
448.80	6729.04
448.99	6740.74
449.17	6815.64
449.36	6637.76
449.54	6946.71
449.73	6871.81
449.91	6916.28
450.10	7187.79
450.28	7255.66
450.46	6986.50
450.65	7059.06
450.83	7187.79
451.02	7218.21
451.20	7183.10
451.39	7019.27
451.57	7173.74
451.76	7087.14
451.94	7145.66
452.13	7215.87
452.31	7307.15
452.49	7002.88
452.68	7021.61
452.86	7070.76
453.05	7295.45
453.23	7248.64
453.42	7288.43
453.60	7276.73
453.78	7370.35
453.97	7180.76
454.15	7148.00
454.34	7265.02
454.52	7658.23
454.70	7550.57
454.89	7449.93
455.07	7531.84
455.26	7590.36
455.44	7880.58
455.62	7688.66
455.81	7616.10
455.99	7658.23
456.17	7768.24
456.36	7805.69
456.54	7831.43
456.73	7854.84
456.91	8006.97
457.09	7976.55
457.28	8243.37
457.46	7967.18
457.64	8142.72
457.83	8121.66
458.01	7854.84
458.19	8163.79
458.38	7892.29
458.56	8332.31
458.74	8168.47
458.93	8208.26
459.11	8149.75
459.29	8142.72
459.48	8334.65
459.66	8161.45
459.84	8388.48
460.03	8648.28
460.21	8393.16
460.39	8381.46
460.57	8500.83
460.76	8599.13
460.94	8468.06
461.12	8507.85
461.31	8425.93
461.49	8463.38
461.67	8531.25
461.85	8779.35
462.04	8659.98
462.22	8968.93
462.40	8879.99
462.59	8985.32
462.77	8767.65
462.95	8950.21
463.13	8968.93
463.32	8791.05
463.50	8741.90
463.68	8879.99
463.86	8940.85
464.05	8805.10
464.23	8784.03
464.41	8982.98
464.59	8889.35
464.78	9153.84
464.96	8936.17
465.14	8936.17
465.32	8954.89
465.50	9362.14
465.69	9057.87
465.87	9130.43
466.05	9310.65
466.23	9221.71
466.41	9174.90
466.60	9434.70
466.78	9095.32
466.96	9025.11
467.14	9142.13
467.32	9327.03
467.51	9516.62
467.69	9177.24
467.87	9366.82
468.05	9369.16
468.23	9315.33
468.41	9266.18
468.60	9441.72
468.78	9563.43
468.96	9322.35
469.14	9516.62
469.32	9827.91
469.50	9568.11
469.69	9675.77
469.87	9710.88
470.05	9783.44
470.23	9762.37
470.41	9722.59
470.59	9930.89
470.77	9902.81
470.95	9958.98
471.14	10122.82
471.32	9745.99
471.50	10200.05
471.68	10211.76
471.86	10253.89
472.04	10097.07
472.22	10473.90
472.40	10073.67
472.58	10242.18
472.77	10396.66
472.95	10675.18
473.13	10860.09
473.31	10466.88
473.49	10410.70
473.67	10436.45
473.85	10881.15
474.03	10785.19
474.21	10972.43
474.39	10876.47
474.57	11028.60
474.75	11073.07
474.93	11265.00
475.12	11019.24
475.30	11269.68
475.48	11129.25
475.66	11459.26
475.84	11075.42
476.02	11236.91
476.20	11068.39
476.38	11576.29
476.56	11836.09
476.74	11662.89
476.92	11880.56
477.10	11552.88
477.28	11770.55
477.46	12070.14
477.64	12147.38
477.82	12173.13
478.00	12472.71
478.18	12329.94
478.36	12369.73
478.54	12638.89
478.72	12678.68
478.90	12732.51
479.08	12978.27
479.26	12968.91
479.44	12971.25
479.62	13172.54
479.80	13107.00
479.98	13221.69
480.16	13446.38
480.34	13446.38
480.52	13760.01
480.70	13837.25
480.88	13385.52
481.06	13921.51
481.24	13734.26
481.41	13848.95
481.59	14057.26
481.77	14445.79
481.95	14174.28
482.13	14359.19
482.31	14544.09
482.49	15033.26
482.67	14443.45
482.85	14897.51
483.03	15061.35
483.21	15068.37
483.39	15133.90
483.57	15173.69
483.74	15655.84
483.92	15482.64
484.10	15466.26
484.28	15822.02
484.46	16070.12
484.64	16240.98
484.82	15740.10
485.00	15920.32
485.18	16173.10
485.35	16538.23
485.53	16196.51
485.71	15929.69
485.89	16191.83
486.07	16383.75
486.25	16297.15
486.43	16805.05
486.61	16919.73
486.78	17202.94
486.96	17252.09
487.14	17472.10
487.32	17535.29
487.50	17640.62
487.68	17860.63
487.85	18125.11
488.03	18508.96
488.21	18567.47
488.39	18230.43
488.57	18448.10
488.75	18747.69
488.92	18857.70
489.10	19133.88
489.28	19344.53
489.46	19976.47
489.64	19407.72
489.81	20250.32
489.99	20271.38
490.17	20037.33
490.35	20161.37
490.53	20247.97
490.70	20280.74
490.88	20451.60
491.06	20641.18
491.24	20400.11
491.41	20680.97
491.59	20423.51
491.77	20521.82
491.95	20739.49
492.13	21144.40
492.30	21565.70
492.48	21399.52
492.66	21656.98
492.84	21652.30
493.01	21876.99
493.19	22054.87
493.37	21841.88
493.54	21942.52
493.72	22228.07
493.90	22494.89
494.08	22831.93
494.25	22892.78
494.43	22937.25
494.61	22965.34
494.79	23087.04
494.96	23433.44
495.14	23051.94
495.32	23473.23
495.49	23627.71
495.67	23805.59
495.85	23786.86
496.02	24077.09
496.20	24156.67
496.38	24041.98
496.55	24126.24
496.73	24872.87
496.91	24655.20
497.09	24863.51
497.26	24606.05
497.44	24638.82
497.62	24943.09
497.79	25102.25
497.97	25116.29
498.14	25259.06
498.32	25715.47
498.50	25539.93
498.67	25701.42
498.85	26176.55
499.03	25993.99
499.20	25956.54
499.38	25881.64
499.56	26078.25
499.73	26480.82
499.91	26405.92
500.08	26017.40
500.26	26485.50
500.44	26492.52
500.61	26635.30
500.79	26026.76
500.97	26679.77
501.14	27112.77
501.32	27129.15
501.49	27220.43
501.67	27012.12
501.84	27204.05
502.02	26890.41
502.20	27555.13
502.37	27606.62
502.55	27129.15
502.72	27866.42
502.90	27840.67
503.07	27716.62
503.25	28039.62
503.43	27742.37
503.60	28435.17
503.78	27988.13
503.95	27835.99
504.13	28100.47
504.30	28535.81
504.48	28587.30
504.65	28821.36
504.83	28830.72
505.01	28900.94
505.18	29242.65
505.36	29071.79
505.53	29226.27
505.71	29350.32
505.88	29319.89
506.06	28968.81
506.23	29591.39
506.41	29406.49
506.58	29287.12
506.76	29469.69
506.93	29605.44
507.11	29914.39
507.28	30080.56
507.46	29797.36
507.63	29514.16
507.81	30221.00
507.98	29504.79
508.16	30471.43
508.33	30333.34
508.50	30756.98
508.68	30073.54
508.85	31110.40
509.03	30993.37
509.20	30857.62
509.38	30810.81
509.55	30951.24
509.73	31009.76
509.90	31002.74
510.08	31271.90
510.25	31030.82
510.42	31402.97
510.60	31398.29
510.77	31754.05
510.95	31798.52
511.12	32002.14
511.30	31929.59
511.47	32224.50
511.64	31772.77
511.82	32130.87
511.99	31782.13
512.17	32123.85
512.34	31960.02
512.51	32601.32
512.69	32535.79
512.86	32381.31
513.04	32760.48
513.21	32456.21
513.38	32488.98
513.56	32657.49
513.73	32547.49
513.90	33050.70
514.08	33160.71
514.25	32931.34
514.43	32875.16
514.60	33237.95
514.77	32816.65
514.95	33593.71
515.12	33591.37
515.29	33113.90
515.47	33530.51
515.64	33771.59
515.81	33256.67
515.99	33596.05
516.16	33790.31
516.33	33282.42
516.51	33642.86
516.68	33041.34
516.85	33371.36
517.03	33432.21
517.20	34197.57
517.37	34094.58
517.54	34450.35
517.72	34178.84
517.89	33689.67
518.06	33802.02
518.24	33797.34
518.41	33951.81
518.58	34836.53
518.75	34239.70
518.93	34438.64
519.10	34412.90
519.27	34740.57
519.45	34506.52
519.62	34569.71
519.79	35218.04
519.96	34679.72
520.14	35435.71
520.31	34927.81
520.48	35587.85
520.65	35494.22
520.83	35360.81
521.00	35594.87
521.17	35917.86
521.34	35941.27
521.52	35608.91
521.69	36275.96
521.86	35943.61
522.03	36144.89
522.20	36315.75
522.38	35702.53
522.55	35985.74
522.72	36180.00
522.89	36430.44
523.07	36411.71
523.24	36175.32
523.41	36617.68
523.58	36414.05
523.75	37338.57
523.92	36526.40
524.10	37060.04
524.27	37083.45
524.44	37158.34
524.61	36828.33
524.78	37209.84
524.96	37282.39
525.13	37376.01
525.30	37544.53
525.47	37350.27
525.64	37514.11
525.81	37249.63
525.98	37406.44
526.16	37296.44
526.33	37111.53
526.50	37439.21
526.67	37116.22
526.84	37361.97
527.01	37109.19
527.18	37574.96
527.36	37958.81
527.53	37876.89
527.70	38209.25
527.87	38281.80
528.04	37818.38
528.21	38403.51
528.38	38099.24
528.55	38618.84
528.72	39138.44
528.89	38539.26
529.07	38576.71
529.24	38396.49
529.41	38726.50
529.58	38796.72
529.75	38707.78
529.92	38724.16
530.09	39292.91
530.26	38946.51
530.43	38637.56
530.60	38658.63
530.77	38848.21
530.94	39157.16
531.11	39299.94
531.28	39454.41
531.46	39150.14
531.63	39653.36
531.80	39447.39
531.97	38925.45
532.14	39386.54
532.31	39208.65
532.48	38829.49
532.65	39105.67
532.82	39290.57
532.99	39873.37
533.16	39438.03
533.33	39791.45
533.50	40259.55
533.67	39709.53
533.84	39735.27
534.01	40053.59
534.18	39847.62
534.35	40121.46
534.52	40079.33
534.69	40088.70
534.86	40062.95
535.03	40051.25
535.20	40308.71
535.37	41123.21
535.54	40573.19
535.71	40322.75
535.88	40414.03
536.05	40507.65
536.22	40603.61
536.38	40697.24
536.55	40463.18
536.72	40484.25
536.89	40514.67
537.06	40039.54
537.23	40624.68
537.40	40364.88
537.57	40751.07
537.74	40832.99
537.91	41134.92
538.08	41443.87
538.25	40985.12
538.42	41001.50
538.59	41579.62
538.75	40730.00
538.92	41277.69
539.09	41144.28
539.26	41261.30
539.43	41167.68
539.60	41422.80
539.77	41010.87
539.94	41153.64
540.11	41247.26
540.28	41502.38
540.44	41368.97
540.61	41174.70
540.78	41273.01
540.95	40924.27
541.12	41214.49
541.29	41532.81
541.46	41397.06
541.62	41549.19
541.79	42026.66
541.96	41581.96
542.13	41724.73
542.30	41792.61
542.47	41710.69
542.63	41869.84
542.80	41996.23
542.97	42043.04
543.14	42405.83
543.31	42225.60
543.48	42387.10
543.64	42497.11
543.81	42635.20
543.98	42326.25
544.15	42658.60
544.32	42700.73
544.48	42770.95
544.65	42637.54
544.82	42677.33
544.99	42693.71
545.16	42759.25
545.32	42246.67
545.49	42913.72
545.66	43021.39
545.83	43318.64
546.00	43302.25
546.16	42733.50
546.33	43323.32
546.50	42691.37
546.67	43051.81
546.83	43091.60
547.00	43012.02
547.17	43077.56
547.34	43129.05
547.50	43112.67
547.67	43320.98
547.84	43409.92
548.00	43328.00
548.17	43672.06
548.34	43601.84
548.51	44069.95
548.67	43468.43
548.84	43643.97
549.01	43323.32
549.18	42983.94
549.34	43718.87
549.51	43819.51
549.68	43676.74
549.84	43618.22
550.01	43873.34
550.18	43665.03
550.34	43875.68
550.51	43847.60
550.68	43744.61
550.84	43400.55
551.01	43938.88
551.18	43793.76
551.34	43643.97
551.51	43971.64
551.68	44009.09
551.84	44378.90
552.01	43756.32
552.18	44226.76
552.34	43716.53
552.51	44161.23
552.68	44259.53
552.84	44196.34
553.01	44254.85
553.18	44226.76
553.34	44219.74
553.51	44149.53
553.67	44596.57
553.84	44839.98
554.01	44327.41
554.17	44477.20
554.34	44392.94
554.51	44278.25
554.67	44397.62
554.84	44531.03
555.00	44423.37
555.17	44336.77
555.33	44669.12
555.50	44542.74
555.67	44409.32
555.83	44465.50
556.00	44442.09
556.16	44966.37
556.33	44699.55
556.50	44715.93
556.66	44999.14
556.83	44282.94
556.99	44591.89
557.16	45191.06
557.32	44949.99
557.49	44905.52
557.65	44861.05
557.82	45085.74
557.98	44673.81
558.15	44196.34
558.32	45027.23
558.48	45104.46
558.65	44980.42
558.81	44854.03
558.98	45160.64
559.14	45160.64
559.31	44641.04
559.47	45043.61
559.64	44947.65
559.80	44985.10
559.97	45057.65
560.13	44648.06
560.30	44964.03
560.46	45076.38
560.63	45184.04
560.79	45380.65
560.96	45359.58
561.12	44961.69
561.29	45055.31
561.45	44854.03
561.61	45464.91
561.78	44931.26
561.94	45031.91
562.11	45354.90
562.27	45083.40
562.44	45577.25
562.60	45359.58
562.77	45656.83
562.93	45188.72
563.10	45933.01
563.26	44697.21
563.42	45301.07
563.59	45291.71
563.75	45071.70
563.92	45654.49
564.08	45308.09
564.24	45717.68
564.41	45333.84
564.57	45516.40
564.74	44966.37
564.90	45340.86
565.07	45741.09
565.23	44884.45
565.39	45408.73
565.56	45844.07
565.72	44893.82
565.88	45034.25
566.05	45492.99
566.21	45375.97
566.38	45289.37
566.54	45415.76
566.70	45638.11
566.87	45752.79
567.03	45455.54
567.19	45933.01
567.36	45783.22
567.52	46040.68
567.68	45958.76
567.85	45804.28
568.01	45619.38
568.17	45755.13
568.34	46092.17
568.50	45530.44
568.66	45741.09
568.83	45769.18
568.99	45586.61
569.15	45404.05
569.32	45446.18
569.48	45326.81
569.64	45792.58
569.81	45853.44
569.97	45689.60
570.13	46110.89
570.30	45345.54
570.46	45305.75
570.62	45453.20
570.78	45546.82
570.95	45413.41
571.11	45626.40
571.27	45731.73
571.43	45820.67
571.60	46026.63
571.76	45535.12
571.92	45928.33
572.09	45785.56
572.25	45830.03
572.41	45663.85
572.57	46092.17
572.74	46340.27
572.90	45823.01
573.06	46073.45
573.22	45867.48
573.38	45645.13
573.55	45787.90
573.71	46124.94
573.87	45921.31
574.03	45729.39
574.20	45736.41
574.36	45914.29
574.52	45488.31
574.68	45759.81
574.84	46028.98
575.01	45366.60
575.17	46092.17
575.33	45275.32
575.49	45247.24
575.65	45902.59
575.82	46361.33
575.98	45696.62
576.14	46241.96
576.30	46225.58
576.46	45792.58
576.62	45329.16
576.79	45904.93
576.95	45544.48
577.11	45450.86
577.27	45563.21
577.43	45942.38
577.59	45670.87
577.75	45715.34
577.92	45488.31
578.08	45504.70
578.24	45792.58
578.40	45872.16
578.56	46183.45
578.72	45329.16
578.88	45624.06
579.04	45944.72
579.21	45940.04
579.37	45860.46
579.53	45745.77
579.69	45558.53
579.85	45724.71
580.01	46237.28
580.17	46000.89
580.33	45785.56
580.49	46064.08
580.65	45799.60
580.82	45539.80
580.98	45771.52
581.14	45869.82
581.30	46113.23
581.46	46075.79
581.62	45769.18
581.78	45617.04
581.94	46436.23
582.10	46021.95
582.26	45858.12
582.42	46078.13
582.58	46464.32
582.74	46099.19
582.90	46312.18
583.06	46321.54
583.22	45991.53
583.38	46124.94
583.54	46190.47
583.70	46251.33
583.86	45947.06
584.02	45811.31
584.18	45668.53
584.34	46019.61
584.50	46230.26
584.66	46085.15
584.82	45797.26
584.98	46412.82
585.14	46321.54
585.30	45794.92
585.46	45525.76
585.62	45911.95
585.78	45858.12
585.94	45972.80
586.10	46213.88
586.26	45581.93
586.42	45820.67
586.58	46080.47
586.74	45804.28
586.90	45794.92
587.06	45897.91
587.22	46036.00
587.38	46073.45
587.54	45963.44
587.70	46164.73
587.86	45954.08
588.02	45818.33
588.18	46071.10
588.34	45823.01
588.49	45467.25
588.65	45134.89
588.81	45528.10
588.97	45813.65
589.13	45392.35
589.29	45961.10
589.45	45769.18
589.61	45710.66
589.77	46649.22
589.93	45968.12
590.08	45961.10
