SpectraSuite Data File
++++++++++++++++++++++++++++++++++++
Date: Fri Oct 25 10:47:30 EDT 2013
User: price-jones
Dark Spectrum Present: No
Reference Spectrum Present: No
Number of Sampled Component Spectra: 1
Spectrometers: USB2+H05261
Integration Time (usec): 100000 (USB2+H05261)
Spectra Averaged: 1 (USB2+H05261)
Boxcar Smoothing: 0 (USB2+H05261)
Correct for Electrical Dark: No (USB2+H05261)
Strobe/Lamp Enabled: No (USB2+H05261)
Correct for Detector Non-linearity: No (USB2+H05261)
Correct for Stray Light: No (USB2+H05261)
Number of Pixels in Processed Spectrum: 2048
>>>>>Begin Processed Spectral Data<<<<<
365.73	126.39
365.92	126.39
366.12	126.39
366.32	46.81
366.52	72.56
366.72	107.66
366.91	44.47
367.11	56.17
367.31	35.11
367.51	21.06
367.70	0.00
367.90	42.13
368.10	0.00
368.30	0.00
368.49	56.17
368.69	56.17
368.89	56.17
369.09	67.88
369.28	16.38
369.48	0.00
369.68	23.41
369.87	102.98
370.07	135.75
370.27	135.75
370.47	210.65
370.66	355.76
370.86	418.96
371.06	498.53
371.25	442.36
371.45	493.85
371.65	440.02
371.84	458.74
372.04	397.89
372.24	517.26
372.44	505.56
372.63	425.98
372.83	489.17
373.03	472.79
373.22	507.90
373.42	505.56
373.62	552.37
373.81	603.86
374.01	601.52
374.21	559.39
374.40	493.85
374.60	531.30
374.79	568.75
374.99	641.31
375.19	568.75
375.38	554.71
375.58	606.20
375.78	566.41
375.97	559.39
376.17	662.37
376.37	571.09
376.56	610.88
376.76	571.09
376.95	575.77
377.15	617.90
377.35	592.16
377.54	601.52
377.74	620.24
377.93	608.54
378.13	638.97
378.33	582.79
378.52	592.16
378.72	622.58
378.91	657.69
379.11	678.76
379.31	587.47
379.50	589.82
379.70	638.97
379.89	631.94
380.09	608.54
380.28	627.26
380.48	725.57
380.68	655.35
380.87	636.63
381.07	718.54
381.26	622.58
381.46	622.58
381.65	688.12
381.85	645.99
382.04	683.44
382.24	575.77
382.43	690.46
382.63	641.31
382.83	699.82
383.02	692.80
383.22	727.91
383.41	622.58
383.61	737.27
383.80	692.80
384.00	730.25
384.19	784.08
384.39	734.93
384.58	777.06
384.78	681.10
384.97	641.31
385.17	826.21
385.36	765.36
385.56	690.46
385.75	699.82
385.95	716.20
386.14	755.99
386.34	826.21
386.53	844.93
386.72	814.51
386.92	844.93
387.11	781.74
387.31	819.19
387.50	823.87
387.70	786.42
387.89	793.44
388.09	826.21
388.28	755.99
388.48	765.36
388.67	795.78
388.86	802.80
389.06	840.25
389.25	952.60
389.45	999.41
389.64	887.06
389.84	835.57
390.03	882.38
390.22	926.85
390.42	915.15
390.61	821.53
390.81	861.32
391.00	910.47
391.19	945.58
391.39	945.58
391.58	954.94
391.78	952.60
391.97	917.49
392.16	863.66
392.36	997.07
392.55	947.92
392.75	983.02
392.94	912.81
393.13	947.92
393.33	961.96
393.52	917.49
393.71	1013.45
393.91	957.28
394.10	1022.81
394.29	1043.88
394.49	1053.24
394.68	1086.01
394.88	1090.69
395.07	1144.52
395.26	1053.24
395.46	1018.13
395.65	1083.67
395.84	1064.94
396.04	1179.63
396.23	1212.40
396.42	1095.37
396.62	1172.61
396.81	1181.97
397.00	1081.33
397.19	1144.52
397.39	1181.97
397.58	1163.25
397.77	1158.57
397.97	1238.14
398.16	1380.92
398.35	1235.80
398.55	1329.42
398.74	1191.33
398.93	1390.28
399.12	1228.78
399.32	1212.40
399.51	1329.42
399.70	1404.32
399.90	1359.85
400.09	1420.71
400.28	1385.60
400.47	1338.79
400.67	1390.28
400.86	1416.02
401.05	1437.09
401.24	1380.92
401.44	1411.34
401.63	1413.68
401.82	1472.20
402.01	1357.51
402.21	1537.73
402.40	1462.83
402.59	1497.94
402.78	1476.88
402.97	1502.62
403.17	1563.48
403.36	1544.75
403.55	1516.67
403.74	1631.35
403.93	1593.90
404.13	1610.29
404.32	1633.69
404.51	1582.20
404.70	1577.52
404.89	1638.38
405.09	1762.42
405.28	1792.85
405.47	1694.55
405.66	1783.49
405.85	1729.66
406.05	1732.00
406.24	1767.10
406.43	1717.95
406.62	1818.60
406.81	1771.79
407.00	1664.12
407.20	1788.17
407.39	1769.44
407.58	1771.79
407.77	1884.13
407.96	1806.89
408.15	1879.45
408.34	1769.44
408.54	2047.97
408.73	1940.30
408.92	1900.52
409.11	1954.35
409.30	1994.14
409.49	2059.67
409.68	2008.18
409.87	1947.33
410.07	2183.72
410.26	2052.65
410.45	1987.11
410.64	2073.71
410.83	2071.37
411.02	2134.57
411.21	2160.31
411.40	2172.02
411.59	2155.63
411.78	2134.57
411.98	2289.04
412.17	2307.77
412.36	2228.19
412.55	2331.17
412.74	2373.30
412.93	2406.07
413.12	2270.32
413.31	2509.05
413.50	2436.50
413.69	2427.14
413.88	2420.11
414.07	2516.08
414.26	2523.10
414.45	2471.61
414.64	2569.91
414.83	2689.28
415.02	2729.06
415.22	2597.99
415.41	2619.06
415.60	2637.78
415.79	2787.58
415.98	2789.92
416.17	2792.26
416.36	2825.03
416.55	2867.16
416.74	2902.26
416.93	2832.05
417.12	2759.49
417.31	2986.52
417.50	2874.18
417.69	3105.89
417.88	2965.46
418.07	2916.31
418.26	3052.06
418.45	3005.25
418.64	3038.02
418.83	3038.02
419.02	3014.61
419.21	3033.33
419.39	3122.27
419.58	3030.99
419.77	3110.57
419.96	3225.26
420.15	3171.43
420.34	3136.32
420.53	3253.34
420.72	3225.26
420.91	3358.67
421.10	3358.67
421.29	3365.69
421.48	3204.19
421.67	3288.45
421.86	3363.35
422.05	3236.96
422.24	3272.07
422.43	3272.07
422.61	3449.95
422.80	3391.44
422.99	3314.20
423.18	3459.31
423.37	3487.40
423.56	3398.46
423.75	3468.67
423.94	3370.37
424.13	3110.57
424.32	3309.52
424.50	3524.85
424.69	3520.17
424.88	3424.20
425.07	3370.37
425.26	3398.46
425.45	3353.99
425.64	3314.20
425.83	3571.66
426.01	3508.46
426.20	3482.72
426.39	3454.63
426.58	3501.44
426.77	3538.89
426.96	3602.08
427.15	3433.57
427.33	3529.53
427.52	3581.02
427.71	3623.15
427.90	3688.68
428.09	3695.71
428.28	3707.41
428.46	3585.70
428.65	3620.81
428.84	3791.67
429.03	3840.82
429.22	3651.24
429.40	3861.88
429.59	3662.94
429.78	3555.27
429.97	3499.10
430.16	3559.95
430.34	3744.86
430.53	3882.95
430.72	3873.59
430.91	3777.62
431.10	3819.75
431.28	3847.84
431.47	4018.70
431.66	4159.13
431.85	3969.55
432.03	3988.27
432.22	4109.98
432.41	4074.87
432.60	4070.19
432.79	4182.54
432.97	4086.58
433.16	4138.07
433.35	4135.73
433.54	4124.02
433.72	4217.65
433.91	4248.07
434.10	4248.07
434.28	4250.41
434.47	4201.26
434.66	4397.87
434.85	4339.35
435.03	4259.78
435.22	4308.93
435.41	4369.78
435.59	4402.55
435.78	4344.03
435.97	4503.19
436.16	4440.00
436.34	4500.85
436.53	4397.87
436.72	4512.55
436.90	4517.23
437.09	4629.58
437.28	4472.76
437.46	4627.24
437.65	4594.47
437.84	4582.77
438.02	4507.87
438.21	4624.90
438.40	4477.44
438.58	4755.97
438.77	4826.18
438.96	4770.01
439.14	4926.83
439.33	4758.31
439.52	4917.47
439.70	5095.35
439.89	4908.10
440.08	4994.70
440.26	4973.64
440.45	4983.00
440.63	5039.17
440.82	5160.88
441.01	5151.52
441.19	5252.16
441.38	5221.74
441.57	5118.75
441.75	5308.34
441.94	5439.40
442.12	5420.68
442.31	5558.77
442.50	5465.15
442.68	5397.28
442.87	5486.22
443.05	5645.37
443.24	5699.20
443.43	5708.57
443.61	5659.42
443.80	5949.64
443.98	5472.17
444.17	5404.30
444.35	5682.82
444.54	5863.04
444.73	5731.97
444.91	5746.02
445.10	5785.80
445.28	5757.72
445.47	5652.39
445.65	5643.03
445.84	5577.50
446.02	5638.35
446.21	5811.55
446.39	5790.49
446.58	5900.49
446.77	6022.20
446.95	5710.91
447.14	5851.34
447.32	5902.83
447.51	5926.24
447.69	5699.20
447.88	5804.53
448.06	5900.49
448.25	5827.93
448.43	5954.32
448.62	5783.46
448.80	5837.30
448.99	5846.66
449.17	5963.68
449.36	5982.41
449.54	5998.79
449.73	5912.19
449.91	6232.85
450.10	6237.53
450.28	6225.82
450.46	6274.98
450.65	6335.83
450.83	6347.53
451.02	6239.87
451.20	6380.30
451.39	6164.97
451.57	6230.51
451.76	6279.66
451.94	6338.17
452.13	6237.53
452.31	6373.28
452.49	6249.23
452.68	6375.62
452.86	6326.47
453.05	6296.04
453.23	6520.73
453.42	6370.94
453.60	6195.40
453.78	6485.62
453.97	6347.53
454.15	6485.62
454.34	6499.67
454.52	6581.59
454.70	6586.27
454.89	6565.20
455.07	6609.67
455.26	6668.19
455.44	6892.88
455.62	6773.51
455.81	6654.14
455.99	6745.42
456.17	6869.47
456.36	6803.94
456.54	6909.26
456.73	7016.93
456.91	7136.29
457.09	7222.89
457.28	7143.32
457.46	7115.23
457.64	7000.54
457.83	7159.70
458.01	7157.36
458.19	7311.83
458.38	7094.16
458.56	7372.69
458.74	7384.39
458.93	7194.81
459.11	7321.20
459.29	7297.79
459.48	7283.75
459.66	7281.41
459.84	7414.82
460.03	7637.17
460.21	7489.71
460.39	7391.41
460.57	7648.87
460.76	7634.83
460.94	7679.30
461.12	7716.75
461.31	7520.14
461.49	7520.14
461.67	7693.34
461.85	7681.64
462.04	7756.54
462.22	8138.04
462.40	7742.49
462.59	7737.81
462.77	7726.11
462.95	7927.39
463.13	7733.13
463.32	7840.79
463.50	7911.01
463.68	7932.08
463.86	7971.86
464.05	7826.75
464.23	7929.74
464.41	7950.80
464.59	7882.92
464.78	8018.68
464.96	8147.40
465.14	8100.59
465.32	8088.89
465.50	8285.50
465.69	8222.30
465.87	8124.00
466.05	8088.89
466.23	8154.43
466.41	8205.92
466.60	8439.97
466.78	8163.79
466.96	8285.50
467.14	8119.32
467.32	8257.41
467.51	8311.24
467.69	8297.20
467.87	8381.46
468.05	8571.04
468.23	8346.35
468.41	8168.47
468.60	8493.80
468.78	8470.40
468.96	8407.20
469.14	8451.67
469.32	8578.06
469.50	8320.60
469.69	8720.84
469.87	8737.22
470.05	8842.54
470.23	8620.19
470.41	8781.69
470.59	8681.05
470.77	8795.73
470.95	8936.17
471.14	9067.24
471.32	8826.16
471.50	9034.47
471.68	8973.61
471.86	9085.96
472.04	9004.04
472.22	9460.45
472.40	8968.93
472.58	9123.41
472.77	9256.82
472.95	9392.57
473.13	9659.39
473.31	9301.29
473.49	9289.59
473.67	9397.25
473.85	9479.17
474.03	9605.56
474.21	9411.29
474.39	9811.53
474.57	9703.86
474.75	9827.91
474.93	9914.51
475.12	9792.80
475.30	10139.20
475.48	9895.78
475.66	10174.31
475.84	10090.05
476.02	10183.67
476.20	10310.06
476.38	10476.24
476.56	10427.09
476.74	10382.62
476.92	10586.24
477.10	10466.88
477.28	10754.76
477.46	10621.35
477.64	10677.52
477.82	11047.33
478.00	11096.48
478.18	11276.70
478.36	11274.36
478.54	11314.15
478.72	11346.92
478.90	11447.56
479.08	11501.39
479.26	11763.53
479.44	11775.24
479.62	11571.61
479.80	11796.30
479.98	11733.11
480.16	12135.68
480.34	12315.90
480.52	12325.26
480.70	11983.54
480.88	12182.49
481.06	12397.82
481.24	12231.64
481.41	12610.81
481.59	12709.11
481.77	12622.51
481.95	12746.56
482.13	12858.90
482.31	12905.71
482.49	13310.63
482.67	13128.06
482.85	13364.46
483.03	13589.15
483.21	13570.43
483.39	13877.04
483.57	13720.22
483.74	13818.52
483.92	13900.44
484.10	13951.93
484.28	14031.51
484.46	14391.95
484.64	14389.61
484.82	14413.02
485.00	14424.72
485.18	14717.29
485.35	14946.66
485.53	14691.54
485.71	14621.33
485.89	14963.04
486.07	14925.60
486.25	15105.82
486.43	15143.27
486.61	15466.26
486.78	15665.21
486.96	15751.81
487.14	15779.89
487.32	15964.79
487.50	16070.12
487.68	16156.72
487.85	16496.10
488.03	16861.22
488.21	16512.48
488.39	16896.33
488.57	16620.14
488.75	16938.46
488.92	17165.49
489.10	17228.68
489.28	17448.69
489.46	17525.93
489.64	17586.79
489.81	18052.55
489.99	18026.81
490.17	17923.82
490.35	18450.44
490.53	17888.71
490.70	18412.99
490.88	18258.52
491.06	18827.27
491.24	18878.76
491.41	18970.04
491.59	18853.02
491.77	18717.26
491.95	19014.51
492.13	19122.18
492.30	19541.13
492.48	19452.19
492.66	19632.41
492.84	19278.99
493.01	19908.60
493.19	19934.34
493.37	19861.79
493.54	19950.73
493.72	20446.92
493.90	20585.01
494.08	20755.87
494.25	20896.30
494.43	21102.27
494.61	20830.77
494.79	21357.39
494.96	21039.08
495.14	21090.57
495.32	21415.90
495.49	21535.27
495.67	21387.82
495.85	21708.47
496.02	21717.83
496.20	21823.16
496.38	22171.89
496.55	21778.68
496.73	22754.69
496.91	22427.01
497.09	22260.84
497.26	22579.15
497.44	22452.76
497.62	22508.93
497.79	23138.54
497.97	22707.88
498.14	22892.78
498.32	23157.26
498.50	23330.46
498.67	23410.04
498.85	23515.36
499.03	23789.20
499.20	23843.04
499.38	23466.21
499.56	23943.68
499.73	24198.80
499.91	23997.51
500.08	24112.20
500.26	23931.98
500.44	24397.74
500.61	24205.82
500.79	24264.33
500.97	24741.80
501.14	24933.73
501.32	24931.39
501.49	24662.22
501.67	24802.66
501.84	25104.59
502.02	24926.71
502.20	25221.61
502.37	25486.09
502.55	25357.36
502.72	25123.31
502.90	25434.60
503.07	25532.90
503.25	25940.16
503.43	25469.71
503.60	25685.04
503.78	25582.06
503.95	25926.11
504.13	26251.45
504.30	25865.26
504.48	25993.99
504.65	26099.31
504.83	26508.91
505.01	26838.92
505.18	26221.02
505.36	26625.93
505.53	26480.82
505.71	26878.71
505.88	27145.53
506.06	26890.41
506.23	27236.81
506.41	26630.62
506.58	27112.77
506.76	27311.71
506.93	27386.61
507.11	27580.87
507.28	27550.45
507.46	27122.13
507.63	27597.26
507.81	27480.23
507.98	27473.21
508.16	27938.97
508.33	28016.21
508.50	27821.95
508.68	28018.55
508.85	28264.31
509.03	28526.45
509.20	28458.57
509.38	28435.17
509.55	28566.24
509.73	28563.90
509.90	28664.54
510.08	28694.97
510.25	28673.90
510.42	29090.52
510.60	29308.19
510.77	28973.49
510.95	29179.46
511.12	28849.44
511.30	29017.96
511.47	29607.78
511.64	29411.17
511.82	29766.93
511.99	29446.28
512.17	29443.94
512.34	29205.20
512.51	29926.09
512.69	29816.08
512.86	29923.75
513.04	30398.88
513.21	30272.49
513.38	30469.09
513.56	29895.66
513.73	30036.09
513.90	30656.34
514.08	30221.00
514.25	30555.69
514.43	30747.62
514.60	30448.03
514.77	30394.20
514.95	30897.41
515.12	30401.22
515.29	30955.93
515.47	30831.88
515.64	31208.70
515.81	31290.62
515.99	31182.96
516.16	31232.11
516.33	31349.14
516.51	31508.29
516.68	31035.50
516.85	31037.84
517.03	31360.84
517.20	31255.51
517.37	31494.25
517.54	31442.76
517.72	31557.44
517.89	31583.19
518.06	31740.00
518.24	31807.88
518.41	32088.74
518.58	31662.77
518.75	31786.82
518.93	32325.14
519.10	32060.66
519.27	32198.75
519.45	32250.24
519.62	32528.77
519.79	32313.44
519.96	32816.65
520.14	33308.16
520.31	32444.51
520.48	33083.47
520.65	32931.34
520.83	33130.28
521.00	33214.54
521.17	32463.23
521.34	33209.86
521.52	33324.55
521.69	33301.14
521.86	33401.79
522.03	33577.33
522.20	33762.23
522.38	33738.82
522.55	34185.86
522.72	33905.00
522.89	33701.37
523.07	33462.64
523.24	33979.90
523.41	33984.58
523.58	33890.96
523.75	34012.66
523.92	34120.33
524.10	34335.66
524.27	34195.23
524.44	34429.28
524.61	34445.66
524.78	34742.91
524.96	34918.45
525.13	34630.57
525.30	35356.13
525.47	34906.75
525.64	35009.73
525.81	34955.90
525.98	35433.37
526.16	34642.27
526.33	35028.46
526.50	35297.62
526.67	34881.00
526.84	34820.15
527.01	35103.35
527.18	34986.33
527.36	35051.86
527.53	35915.52
527.70	35943.61
527.87	35941.27
528.04	35749.34
528.21	35714.23
528.38	35716.58
528.55	35992.76
528.72	35995.10
528.89	35725.94
529.07	35924.88
529.24	35915.52
529.41	36039.57
529.58	35868.71
529.75	35697.85
529.92	36158.94
530.09	36081.70
530.26	36378.95
530.43	35983.40
530.60	36311.07
530.77	36921.95
530.94	36463.21
531.11	36699.60
531.28	36465.55
531.46	36694.92
531.63	36741.73
531.80	36645.77
531.97	36781.52
532.14	36910.25
532.31	36334.48
532.48	36795.56
532.65	37237.92
532.82	37116.22
532.99	37439.21
533.16	36596.62
533.33	37315.16
533.50	37481.34
533.67	37275.37
533.84	37024.93
534.01	37280.05
534.18	37434.53
534.35	37654.54
534.52	37736.46
534.69	37408.78
534.86	37521.13
535.03	37413.46
535.20	37596.03
535.37	37816.04
535.54	37961.15
535.71	37617.09
535.88	37436.87
536.05	37486.02
536.22	38333.29
536.38	37862.85
536.55	37979.87
536.72	38480.75
536.89	38000.94
537.06	38298.19
537.23	38223.29
537.40	37979.87
537.57	38305.21
537.74	38550.96
537.91	38639.90
538.08	38403.51
538.25	38132.01
538.42	38408.19
538.59	38686.71
538.75	38593.09
538.92	38913.75
539.09	38520.54
539.26	38789.70
539.43	38714.80
539.60	38843.53
539.77	38490.11
539.94	38693.74
540.11	38789.70
540.28	38553.30
540.44	38953.54
540.61	38609.48
540.78	38988.64
540.95	39108.01
541.12	39145.46
541.29	39042.48
541.46	39278.87
541.62	38770.97
541.79	39423.98
541.96	38925.45
542.13	39295.25
542.30	39213.34
542.47	39299.94
542.63	39353.77
542.80	39639.31
542.97	39768.04
543.14	40346.15
543.31	39945.92
543.48	39927.20
543.64	40556.80
543.81	40219.77
543.98	40376.58
544.15	39751.66
544.32	40360.20
544.48	40554.46
544.65	40430.41
544.82	40231.47
544.99	39866.34
545.16	40636.38
545.32	39826.56
545.49	40715.96
545.66	40687.87
545.83	40542.76
546.00	40713.62
546.16	40769.79
546.33	40278.28
546.50	40229.13
546.67	40533.40
546.83	40250.19
547.00	40495.95
547.17	40739.36
547.34	40575.53
547.50	40540.42
547.67	41429.82
547.84	41008.53
548.00	41141.94
548.17	41368.97
548.34	41310.46
548.51	41460.25
548.67	41088.10
548.84	41418.12
549.01	40942.99
549.18	41120.87
549.34	41212.15
549.51	41453.23
549.68	41668.56
549.84	41486.00
550.01	41736.43
550.18	41455.57
550.34	41139.60
550.51	41301.09
550.68	41476.63
550.84	41324.50
551.01	41914.31
551.18	41331.52
551.34	41614.72
551.51	41860.48
551.68	41745.80
551.84	41808.99
552.01	41624.09
552.18	41797.29
552.34	41439.18
552.51	41996.23
552.68	41720.05
552.84	42183.48
553.01	42398.80
553.18	41764.52
553.34	41516.42
553.51	41778.56
553.67	41682.60
553.84	42178.79
554.01	42213.90
554.17	42099.22
554.34	41907.29
554.51	42351.99
554.67	42480.72
554.84	42251.35
555.00	42272.42
555.17	41923.68
555.33	42134.32
555.50	42710.10
555.67	42412.85
555.83	42714.78
556.00	42834.14
556.16	42836.48
556.33	42728.82
556.50	42621.16
556.66	42557.96
556.83	41886.23
556.99	43000.32
557.16	42885.64
557.32	42782.65
557.49	42366.04
557.65	42131.98
557.82	42398.80
557.98	42534.56
558.15	42656.26
558.32	42972.24
558.48	43213.31
558.65	43337.36
558.81	42616.47
558.98	42574.34
559.14	43199.27
559.31	42946.49
559.47	43372.47
559.64	43363.11
559.80	43084.58
559.97	42810.74
560.13	42616.47
560.30	42810.74
560.46	43400.55
560.63	42909.04
560.79	43351.40
560.96	43122.03
561.12	43012.02
561.29	43007.34
561.45	43131.39
561.61	43255.44
561.78	42934.79
561.94	43213.31
562.11	43196.93
562.27	43302.25
562.44	43335.02
562.60	43459.07
562.77	43494.18
562.93	43302.25
563.10	43665.03
563.26	43054.15
563.42	43217.99
563.59	43402.89
563.75	42782.65
563.92	43620.56
564.08	43590.14
564.24	43452.05
564.41	43772.70
564.57	43934.20
564.74	43555.03
564.90	43629.93
565.07	43604.18
565.23	43309.27
565.39	43718.87
565.56	43655.67
565.72	43601.84
565.88	43384.17
566.05	43906.11
566.21	43634.61
566.38	43173.52
566.54	43522.26
566.70	43264.80
566.87	43910.79
567.03	43838.23
567.19	44091.01
567.36	44299.32
567.52	43196.93
567.68	43882.70
567.85	43941.22
568.01	43784.40
568.17	43569.07
568.34	44184.63
568.50	43765.68
568.66	43840.57
568.83	43826.53
568.99	43803.13
569.15	44020.80
569.32	43772.70
569.48	43316.29
569.64	44264.21
569.81	44044.20
569.97	43938.88
570.13	43770.36
570.30	43753.97
570.46	43711.84
570.62	43510.56
570.78	43702.48
570.95	43721.21
571.11	44175.27
571.27	43683.76
571.43	43842.92
571.60	43910.79
571.76	43526.94
571.92	43782.06
572.09	43964.62
572.25	43817.17
572.41	43959.94
572.57	44142.50
572.74	44325.07
572.90	44236.12
573.06	44294.64
573.22	44250.17
573.38	44076.97
573.55	43938.88
573.71	44020.80
573.87	43665.03
574.03	43496.52
574.20	44072.29
574.36	43828.87
574.52	44018.46
574.68	43927.17
574.84	44095.69
575.01	43840.57
575.17	44311.02
575.33	43805.47
575.49	44081.65
575.65	44526.35
575.82	44526.35
575.98	44294.64
576.14	44521.67
576.30	44252.51
576.46	44107.40
576.62	44030.16
576.79	44224.42
576.95	43761.00
577.11	43892.07
577.27	44430.39
577.43	44137.82
577.59	44545.08
577.75	44147.18
577.92	43992.71
578.08	44025.48
578.24	44247.83
578.40	43957.60
578.56	44205.70
578.72	44456.14
578.88	44938.29
579.04	44315.70
579.21	44105.06
579.37	44460.82
579.53	43903.77
579.69	43817.17
579.85	44147.18
580.01	44533.37
580.17	44257.19
580.33	44374.22
580.49	44626.99
580.65	44116.76
580.82	44315.70
580.98	44378.90
581.14	43889.73
581.30	44325.07
581.46	44201.02
581.62	44121.44
581.78	44371.88
581.94	44280.60
582.10	44376.56
582.26	44353.15
582.42	44278.25
582.58	43899.09
582.74	44224.42
582.90	44406.98
583.06	44402.30
583.22	44404.64
583.38	44596.57
583.54	44055.90
583.70	43894.41
583.86	44397.62
584.02	43744.61
584.18	44430.39
584.34	44285.28
584.50	44184.63
584.66	44598.91
584.82	44247.83
584.98	44308.68
585.14	44439.75
585.30	44226.76
585.46	44343.79
585.62	44112.08
585.78	44287.62
585.94	44282.94
586.10	44051.22
586.26	44027.82
586.42	44570.82
586.58	44655.08
586.74	44467.84
586.90	44135.48
587.06	43873.34
587.22	44746.36
587.38	44516.99
587.54	44428.05
587.70	44734.66
587.86	44470.18
588.02	44708.91
588.18	44545.08
588.34	44203.36
588.49	44240.81
588.65	44343.79
588.81	44046.54
588.97	44051.22
589.13	44371.88
589.29	44559.12
589.45	44608.27
589.61	44797.85
589.77	44264.21
589.93	44596.57
590.08	44788.49
590.24	44587.21
590.40	44636.36
