SpectraSuite Data File
++++++++++++++++++++++++++++++++++++
Date: Fri Oct 25 11:22:59 EDT 2013
User: price-jones
Dark Spectrum Present: No
Reference Spectrum Present: No
Number of Sampled Component Spectra: 1
Spectrometers: USB2+H05261
Integration Time (usec): 100000 (USB2+H05261)
Spectra Averaged: 1 (USB2+H05261)
Boxcar Smoothing: 0 (USB2+H05261)
Correct for Electrical Dark: No (USB2+H05261)
Strobe/Lamp Enabled: No (USB2+H05261)
Correct for Detector Non-linearity: No (USB2+H05261)
Correct for Stray Light: No (USB2+H05261)
Number of Pixels in Processed Spectrum: 2048
>>>>>Begin Processed Spectral Data<<<<<
365.73	187.24
365.92	187.24
366.12	187.24
366.32	79.58
366.52	114.69
366.72	86.60
366.91	105.32
367.11	79.58
367.31	114.69
367.51	133.41
367.70	156.82
367.90	159.16
368.10	135.75
368.30	196.60
368.49	131.07
368.69	145.11
368.89	114.69
369.09	88.94
369.28	212.99
369.48	154.48
369.68	133.41
369.87	177.88
370.07	154.48
370.27	236.39
370.47	283.20
370.66	568.75
370.86	613.22
371.06	683.44
371.25	770.04
371.45	678.76
371.65	777.06
371.84	685.78
372.04	622.58
372.24	674.07
372.44	746.63
372.63	723.23
372.83	781.74
373.03	706.84
373.22	723.23
373.42	798.12
373.62	774.72
373.81	784.08
374.01	840.25
374.21	819.19
374.40	746.63
374.60	887.06
374.79	753.65
374.99	842.59
375.19	809.83
375.38	849.61
375.58	884.72
375.78	884.72
375.97	889.40
376.17	910.47
376.37	844.93
376.56	837.91
376.76	901.11
376.95	849.61
377.15	917.49
377.35	926.85
377.54	891.74
377.74	847.27
377.93	870.68
378.13	943.24
378.33	866.00
378.52	940.90
378.72	929.19
378.91	933.87
379.11	919.83
379.31	933.87
379.50	1001.75
379.70	978.34
379.89	938.55
380.09	947.92
380.28	976.00
380.48	1001.75
380.68	1027.50
380.87	1001.75
381.07	968.98
381.26	987.71
381.46	1109.41
381.65	987.71
381.85	1034.52
382.04	1029.84
382.24	1076.65
382.43	1071.97
382.63	1097.71
382.83	1142.18
383.02	1128.14
383.22	1139.84
383.41	1130.48
383.61	1104.73
383.80	1142.18
384.00	1167.93
384.19	1135.16
384.39	1100.05
384.58	1104.73
384.78	1139.84
384.97	1062.60
385.17	1184.31
385.36	1121.12
385.56	1163.25
385.75	1146.86
385.95	1191.33
386.14	1149.20
386.34	1151.54
386.53	1205.38
386.72	1205.38
386.92	1343.47
387.11	1137.50
387.31	1252.19
387.50	1263.89
387.70	1247.51
387.89	1245.16
388.09	1308.36
388.28	1254.53
388.48	1291.98
388.67	1270.91
388.86	1373.89
389.06	1343.47
389.25	1366.87
389.45	1317.72
389.64	1338.79
389.84	1259.21
390.03	1345.81
390.22	1385.60
390.42	1397.30
390.61	1331.76
390.81	1390.28
391.00	1469.86
391.19	1476.88
391.39	1474.54
391.58	1416.02
391.78	1418.36
391.97	1617.31
392.16	1544.75
392.36	1565.82
392.55	1420.71
392.75	1437.09
392.94	1481.56
393.13	1579.86
393.33	1430.07
393.52	1650.08
393.71	1565.82
393.91	1643.06
394.10	1647.74
394.29	1537.73
394.49	1563.48
394.68	1596.25
394.88	1675.82
395.07	1685.19
395.26	1645.40
395.46	1689.87
395.65	1727.32
395.84	1680.50
396.04	1727.32
396.23	1774.13
396.42	1722.63
396.62	1776.47
396.81	1790.51
397.00	1799.87
397.19	1802.21
397.39	1818.60
397.58	1755.40
397.77	1816.26
397.97	1863.07
398.16	1893.49
398.35	1919.24
398.55	1914.56
398.74	1909.88
398.93	1844.34
399.12	1954.35
399.32	1930.94
399.51	1994.14
399.70	1954.35
399.90	2005.84
400.09	2097.12
400.28	2073.71
400.47	2045.63
400.67	2069.03
400.86	2136.91
401.05	2106.48
401.24	2036.27
401.44	2106.48
401.63	2165.00
401.82	2179.04
402.01	2127.55
402.21	2125.21
402.40	2200.10
402.59	2221.17
402.78	2310.11
402.97	2331.17
403.17	2258.62
403.36	2317.13
403.55	2354.58
403.74	2347.56
403.93	2314.79
404.13	2438.84
404.32	2317.13
404.51	2333.51
404.70	2382.67
404.89	2354.58
405.09	2462.24
405.28	2518.42
405.47	2499.69
405.66	2572.25
405.85	2576.93
406.05	2485.65
406.24	2497.35
406.43	2600.34
406.62	2700.98
406.81	2729.06
407.00	2541.82
407.20	2590.97
407.39	2520.76
407.58	2654.17
407.77	2717.36
407.96	2705.66
408.15	2843.75
408.34	2839.07
408.54	2768.85
408.73	2801.62
408.92	2899.92
409.11	2834.39
409.30	2871.84
409.49	3033.33
409.68	2869.50
409.87	2998.23
410.07	3089.51
410.26	2986.52
410.45	2963.12
410.64	3075.46
410.83	3136.32
411.02	3096.53
411.21	3274.41
411.40	3255.69
411.59	3206.53
411.78	3098.87
411.98	3171.43
412.17	3222.92
412.36	3358.67
412.55	3337.60
412.74	3485.06
412.93	3428.88
413.12	3372.71
413.31	3494.42
413.50	3506.12
413.69	3428.88
413.88	3646.55
414.07	3571.66
414.26	3569.32
414.45	3728.47
414.64	3655.92
414.83	3871.25
415.02	3751.88
415.22	3871.25
415.41	3861.88
415.60	3824.44
415.79	3880.61
415.98	3981.25
416.17	4023.38
416.36	4007.00
416.55	4004.66
416.74	4205.94
416.93	4051.47
417.12	4084.23
417.31	4180.20
417.50	4264.46
417.69	4219.99
417.88	4367.44
418.07	4241.05
418.26	4257.43
418.45	4292.54
418.64	4521.92
418.83	4498.51
419.02	4475.10
419.21	4573.41
419.39	4484.47
419.58	4404.89
419.77	4484.47
419.96	4533.62
420.15	4624.90
420.34	4568.73
420.53	4695.11
420.72	4702.14
420.91	4622.56
421.10	4709.16
421.29	4727.88
421.48	4842.57
421.67	4791.08
421.86	4748.95
422.05	4784.06
422.24	4847.25
422.43	4985.34
422.61	4919.81
422.80	5001.72
422.99	4936.19
423.18	4847.25
423.37	5088.32
423.56	5015.77
423.75	4842.57
423.94	4882.36
424.13	4643.62
424.32	4861.29
424.50	5048.54
424.69	5214.71
424.88	5006.41
425.07	4997.04
425.26	5032.15
425.45	4997.04
425.64	5018.11
425.83	4959.60
426.01	5205.35
426.20	5172.58
426.39	5137.48
426.58	5053.22
426.77	5057.90
426.96	5296.63
427.15	5221.74
427.33	5193.65
427.52	5270.89
427.71	5221.74
427.90	5121.09
428.09	5158.54
428.28	5373.87
428.46	5350.46
428.65	5434.72
428.84	5509.62
429.03	5549.41
429.22	5434.72
429.40	5481.53
429.59	5420.68
429.78	5359.83
429.97	5181.95
430.16	5689.84
430.34	5701.54
430.53	5614.95
430.72	5638.35
430.91	5626.65
431.10	5668.78
431.28	5600.90
431.47	5652.39
431.66	5886.45
431.85	5937.94
432.03	5921.56
432.22	5970.71
432.41	5853.68
432.60	6045.60
432.79	5888.79
432.97	6038.58
433.16	5914.53
433.35	5975.39
433.54	6251.57
433.72	6244.55
433.91	6300.72
434.10	6118.16
434.28	6218.80
434.47	6167.31
434.66	6291.36
434.85	6242.21
435.03	6523.07
435.22	6417.75
435.41	6703.29
435.59	6417.75
435.78	6286.68
435.97	6443.49
436.16	6565.20
436.34	6586.27
436.53	6509.03
436.72	6693.93
436.90	6415.41
437.09	6736.06
437.28	6455.20
437.46	6778.19
437.65	6733.72
437.84	6787.55
438.02	6771.17
438.21	6684.57
438.40	6874.15
438.58	7056.72
438.77	7101.19
438.96	6944.37
439.14	7241.62
439.33	7218.21
439.52	7075.44
439.70	7241.62
439.89	7531.84
440.08	7456.95
440.26	7552.91
440.45	7311.83
440.63	7506.10
440.82	7784.62
441.01	7611.42
441.19	7726.11
441.38	7686.32
441.57	7859.52
441.75	7969.52
441.94	7948.46
442.12	7918.03
442.31	8360.39
442.50	8079.53
442.68	8124.00
442.87	8070.17
443.05	8386.14
443.24	8334.65
443.43	8262.09
443.61	8290.18
443.80	8575.72
443.98	8205.92
444.17	8018.68
444.35	8060.80
444.54	8297.20
444.73	8372.10
444.91	8226.98
445.10	8334.65
445.28	8402.52
445.47	8409.54
445.65	8252.73
445.84	8599.13
446.02	8496.14
446.21	8446.99
446.39	8613.17
446.58	8482.10
446.77	8645.94
446.95	8334.65
447.14	8652.96
447.32	8655.30
447.51	8301.88
447.69	8482.10
447.88	8587.43
448.06	8585.08
448.25	8688.07
448.43	8697.43
448.62	8746.58
448.80	8652.96
448.99	8690.41
449.17	8894.04
449.36	8573.38
449.54	8833.18
449.73	8739.56
449.91	9114.05
450.10	9137.45
450.28	9158.52
450.46	9163.20
450.65	9128.09
450.83	9111.71
451.02	9013.40
451.20	9282.56
451.39	9210.01
451.57	9322.35
451.76	9053.19
451.94	9444.06
452.13	9495.55
452.31	9277.88
452.49	9188.94
452.68	9390.23
452.86	9617.26
453.05	9507.26
453.23	9603.22
453.42	9366.82
453.60	9268.52
453.78	9549.39
453.97	9502.58
454.15	9481.51
454.34	9657.05
454.52	9682.80
454.70	9778.76
454.89	9745.99
455.07	10036.22
455.26	10031.54
455.44	10040.90
455.62	10071.33
455.81	9848.97
455.99	10068.98
456.17	10050.26
456.36	10160.27
456.54	10410.70
456.73	10340.49
456.91	10628.37
457.09	10565.18
457.28	10621.35
457.46	10408.36
457.64	10649.44
457.83	10541.77
458.01	10471.56
458.19	10731.36
458.38	10499.64
458.56	10789.87
458.74	10906.90
458.93	10803.91
459.11	10815.62
459.29	10597.95
459.48	10951.37
459.66	10970.09
459.84	11009.88
460.03	11314.15
460.21	11096.48
460.39	10869.45
460.57	10963.07
460.76	11021.58
460.94	11143.29
461.12	11375.00
461.31	11014.56
461.49	11103.50
461.67	11133.93
461.85	11485.01
462.04	11391.39
462.22	11473.31
462.40	11564.59
462.59	11735.45
462.77	11492.03
462.95	11747.15
463.13	11700.34
463.32	11695.66
463.50	11644.17
463.68	11950.78
463.86	11896.94
464.05	11702.68
464.23	11709.70
464.41	11843.11
464.59	11637.14
464.78	12327.60
464.96	12051.42
465.14	11990.56
465.32	12156.74
465.50	12360.37
465.69	12238.66
465.87	12531.23
466.05	12294.83
466.23	12304.20
466.41	12336.96
466.60	12664.64
466.78	12252.70
466.96	12374.41
467.14	12489.10
467.32	12411.86
467.51	12624.85
467.69	12149.72
467.87	12746.56
468.05	12830.82
468.23	12547.61
468.41	12613.15
468.60	12599.10
468.78	12798.05
468.96	12734.85
469.14	12814.43
469.32	12901.03
469.50	12807.41
469.69	13366.80
469.87	13214.66
470.05	13167.85
470.23	13329.35
470.41	13144.45
470.59	13547.02
470.77	13067.21
470.95	13193.60
471.14	13713.20
471.32	13458.08
471.50	13624.26
471.68	13593.83
471.86	13699.16
472.04	13734.26
472.22	14342.80
472.40	13879.38
472.58	13965.98
472.77	14083.00
472.95	14190.67
473.13	14597.92
473.31	13991.72
473.49	14267.91
473.67	14331.10
473.85	14422.38
474.03	14579.20
474.21	14703.25
474.39	14579.20
474.57	14817.93
474.75	14963.04
474.93	15061.35
475.12	14918.57
475.30	15484.98
475.48	15309.44
475.66	15433.49
475.84	15396.04
476.02	15405.41
476.20	15393.70
476.38	15798.62
476.56	16072.46
476.74	16107.57
476.92	15962.45
477.10	15913.30
477.28	16212.89
477.46	16245.66
477.64	16484.39
477.82	16533.54
478.00	17326.99
478.18	16999.31
478.36	17050.80
478.54	17097.61
478.72	17476.78
478.90	17657.00
479.08	17759.98
479.26	17757.64
479.44	17893.40
479.62	17837.22
479.80	18073.62
479.98	18398.95
480.16	18939.62
480.34	18614.28
480.52	18618.96
480.70	18647.05
480.88	18885.78
481.06	18782.80
481.24	19061.32
481.41	19283.67
481.59	19777.53
481.77	19861.79
481.95	19524.75
482.13	20205.84
482.31	19917.96
482.49	20430.54
482.67	20182.44
482.85	20563.95
483.03	20812.04
483.21	20936.09
483.39	21165.46
483.57	21109.29
483.74	20961.84
483.92	21675.70
484.10	21231.00
484.28	21872.31
484.46	22340.41
484.64	22611.92
484.82	21930.82
485.00	22569.79
485.18	22817.88
485.35	23201.73
485.53	22909.16
485.71	23213.43
485.89	23489.62
486.07	23381.95
486.25	23440.47
486.43	23681.54
486.61	24109.86
486.78	24318.17
486.96	24587.33
487.14	25015.65
487.32	24587.33
487.50	24886.92
487.68	25198.21
487.85	25642.91
488.03	25811.43
488.21	26003.35
488.39	25874.62
488.57	26202.30
488.75	26143.78
488.92	26916.16
489.10	26923.18
489.28	26878.71
489.46	27634.71
489.64	27054.25
489.81	27688.54
489.99	27688.54
490.17	27812.59
490.35	28168.35
490.53	28285.37
490.70	28786.25
490.88	28409.42
491.06	29291.80
491.24	29039.03
491.41	29247.33
491.59	29355.00
491.77	29745.87
491.95	29837.15
492.13	30000.99
492.30	30118.01
492.48	30125.04
492.66	30057.16
492.84	30625.91
493.01	31012.10
493.19	30792.09
493.37	31222.75
493.54	31199.34
493.72	31536.38
493.90	31789.16
494.08	32435.14
494.25	32428.12
494.43	32140.24
494.61	32608.34
494.79	33244.97
494.96	32376.63
495.14	33163.05
495.32	33816.06
495.49	33046.02
495.67	33371.36
495.85	33839.47
496.02	34012.66
496.20	33989.26
496.38	34206.93
496.55	34541.63
496.73	35285.92
496.91	34593.12
497.09	35023.78
497.26	35503.59
497.44	35082.29
497.62	35580.82
497.79	36374.27
497.97	35697.85
498.14	36194.04
498.32	36510.02
498.50	36339.16
498.67	37102.17
498.85	36266.60
499.03	36999.19
499.20	36715.98
499.38	37310.48
499.56	37584.32
499.73	37617.09
499.91	37762.20
500.08	38082.86
500.26	37500.06
500.44	37942.42
500.61	38391.81
500.79	38141.37
500.97	38394.15
501.14	38644.59
501.32	39070.56
501.49	38801.40
501.67	39218.02
501.84	39166.52
502.02	39302.28
502.20	39089.29
502.37	39555.05
502.55	39400.58
502.72	39707.19
502.90	39929.54
503.07	40058.27
503.25	39686.12
503.43	40044.23
503.60	40184.66
503.78	40521.69
503.95	41053.00
504.13	40715.96
504.30	40645.74
504.48	40840.01
504.65	41109.17
504.83	41537.49
505.01	41628.77
505.18	41083.42
505.36	41797.29
505.53	41422.80
505.71	42384.76
505.88	42064.11
506.06	41591.32
506.23	42424.55
506.41	42040.70
506.58	42969.90
506.76	42541.58
506.93	42520.51
507.11	42754.57
507.28	42831.80
507.46	42595.41
507.63	43002.66
507.81	43262.46
507.98	43220.33
508.16	43697.80
508.33	44170.59
508.50	43615.88
508.68	43976.33
508.85	44296.98
509.03	43995.05
509.20	44191.65
509.38	44549.76
509.55	44830.62
509.73	44744.02
509.90	44898.50
510.08	44648.06
510.25	44875.09
510.42	45242.56
510.60	45439.16
510.77	45801.94
510.95	45881.52
511.12	45481.29
511.30	45668.53
511.47	45909.61
511.64	45965.78
511.82	46246.65
511.99	46127.28
512.17	46735.82
512.34	45925.99
512.51	46637.51
512.69	46955.83
512.86	46520.49
513.04	46752.20
513.21	47133.71
513.38	46857.52
513.56	46862.21
513.73	46953.49
513.90	47632.24
514.08	46878.59
514.25	47611.18
514.43	47232.01
514.60	47641.60
514.77	47767.99
514.95	48193.97
515.12	47690.76
515.29	48086.31
515.47	48119.07
515.64	48376.53
515.81	48243.12
515.99	48830.60
516.16	48594.20
516.33	48795.49
516.51	49111.46
516.68	48484.20
516.85	48734.63
517.03	49432.11
517.20	49209.76
517.37	49024.86
517.54	49118.48
517.72	49322.11
517.89	49397.01
518.06	49326.79
518.24	49865.11
518.41	49350.20
518.58	49762.13
518.75	49382.96
518.93	49696.59
519.10	50115.55
519.27	50014.91
519.45	50490.04
519.62	50075.76
519.79	50494.72
519.96	50174.06
520.14	50239.60
520.31	50059.38
520.48	50890.27
520.65	50578.98
520.83	50990.91
521.00	50862.18
521.17	50937.08
521.34	51119.64
521.52	51264.75
521.69	51079.85
521.86	51222.62
522.03	51756.27
522.20	51791.37
522.38	51838.18
522.55	51842.87
522.72	51889.68
522.89	51636.90
523.07	51959.89
523.24	51604.13
523.41	52343.74
523.58	51608.81
523.75	52177.56
523.92	52165.86
524.10	52236.08
524.27	52053.51
524.44	52144.80
524.61	52395.23
524.78	52521.62
524.96	52577.79
525.13	52839.93
525.30	52633.97
525.47	52783.76
525.64	53116.12
525.81	52779.08
525.98	52952.28
526.16	52844.62
526.33	52975.69
526.50	53198.04
526.67	53137.18
526.84	53258.89
527.01	53216.76
527.18	53286.98
527.36	53471.88
527.53	53249.53
527.70	53399.32
527.87	53621.67
528.04	53633.38
528.21	53715.29
528.38	53270.59
528.55	53525.71
528.72	53757.42
528.89	53705.93
529.07	53677.85
529.24	53514.01
529.41	53773.81
529.58	54007.86
529.75	53921.26
529.92	54038.29
530.09	54103.82
530.26	54475.97
530.43	54244.26
530.60	54031.27
530.77	53956.37
530.94	54014.88
531.11	54007.86
531.28	54377.67
531.46	54260.64
531.63	54394.05
531.80	54394.05
531.97	54670.23
532.14	54660.87
532.31	54548.53
532.48	54958.12
532.65	54983.86
532.82	54581.29
532.99	54845.77
533.16	55000.25
533.33	55063.44
533.50	55166.43
533.67	55271.75
533.84	55037.70
534.01	55196.85
534.18	55264.73
534.35	55526.87
534.52	55320.90
534.69	55494.10
534.86	55028.34
535.03	55400.48
535.20	55461.33
535.37	55615.81
535.54	55646.24
535.71	55749.22
535.88	55384.10
536.05	55707.09
536.22	55931.78
536.38	55980.93
536.55	55831.14
536.72	55805.39
536.89	55760.92
537.06	55863.91
537.23	56109.66
537.40	55800.71
537.57	56032.42
537.74	56060.51
537.91	56051.15
538.08	56250.09
538.25	55854.54
538.42	56151.79
538.59	56374.14
538.75	56053.49
538.92	56245.41
539.09	56481.81
539.26	56456.06
539.43	56275.84
539.60	56528.62
539.77	56458.40
539.94	56736.93
540.11	56465.42
540.28	56587.13
540.44	56669.05
540.61	56402.23
540.78	56371.80
540.95	56662.03
541.12	56657.35
541.29	56479.47
541.46	56664.37
541.62	56891.40
541.79	56816.50
541.96	56795.44
542.13	56846.93
542.30	56942.89
542.47	57235.46
542.63	56875.02
542.80	57003.75
542.97	57263.55
543.14	57270.57
543.31	57286.95
543.48	57350.15
543.64	57612.29
543.81	57497.60
543.98	57368.87
544.15	57361.85
544.32	57752.72
544.48	57914.22
544.65	57443.77
544.82	57455.47
544.99	57326.74
545.16	57666.12
545.32	57471.85
545.49	57893.15
545.66	57939.96
545.83	57829.96
546.00	57673.14
546.16	57801.87
546.33	57928.26
546.50	57602.92
546.67	58042.95
546.83	57502.28
547.00	58120.18
547.17	57893.15
547.34	58024.22
547.50	58239.55
547.67	58220.83
547.84	58148.27
548.00	58361.26
548.17	58614.04
548.34	58106.14
548.51	58384.66
548.67	58424.45
548.84	58440.84
549.01	58246.57
549.18	58372.96
549.34	58335.51
549.51	58595.31
549.68	58574.25
549.84	58511.05
550.01	58693.61
550.18	58401.05
550.34	58649.14
550.51	58592.97
550.68	58595.31
550.84	58508.71
551.01	58733.40
551.18	58728.72
551.34	58836.39
551.51	58712.34
551.68	58974.48
551.84	58677.23
552.01	58775.53
552.18	58845.75
552.34	58702.98
552.51	58920.65
552.68	58798.94
552.84	58822.34
553.01	59180.45
553.18	59091.51
553.34	59021.29
553.51	58927.67
553.67	59070.44
553.84	59201.51
554.01	59260.02
554.17	59274.07
554.34	59145.34
554.51	58995.54
554.67	59278.75
554.84	59220.23
555.00	59175.76
555.17	59100.87
555.33	59196.83
555.50	59135.98
555.67	59372.37
555.83	59267.05
556.00	59117.25
556.16	59568.97
556.33	59421.52
556.50	59442.59
556.66	59552.59
556.83	59372.37
556.99	59664.94
557.16	59723.45
557.32	59681.32
557.49	59660.26
557.65	59426.20
557.82	59526.84
557.98	59646.21
558.15	59632.17
558.32	59576.00
558.48	59824.09
558.65	59756.22
558.81	59983.25
558.98	59913.03
559.14	59702.38
559.31	59936.44
559.47	59875.58
559.64	59948.14
559.80	59880.27
559.97	59805.37
560.13	59742.17
560.30	59779.62
560.46	60060.49
560.63	60013.68
560.79	59906.01
560.96	60023.04
561.12	60032.40
561.29	60109.64
561.45	59889.63
561.61	59803.03
561.78	60086.23
561.94	60027.72
562.11	59920.05
562.27	60364.76
562.44	60051.12
562.60	60163.47
562.77	60163.47
562.93	60016.02
563.10	60191.56
563.26	60137.72
563.42	60444.33
563.59	60231.35
563.75	60294.54
563.92	60198.58
564.08	60189.22
564.24	60313.26
564.41	60301.56
564.57	60322.63
564.74	60420.93
564.90	60460.72
565.07	60336.67
565.23	60083.89
565.39	60257.09
565.56	60289.86
565.72	60369.44
565.88	60364.76
566.05	60346.03
566.21	60409.23
566.38	60392.84
566.54	60481.78
566.70	60514.55
566.87	60577.75
567.03	60411.57
567.19	60736.90
567.36	60420.93
567.52	60395.18
567.68	60704.13
567.85	60364.76
568.01	60502.85
568.17	60509.87
568.34	60554.34
568.50	60690.09
568.66	60409.23
568.83	60362.42
568.99	60556.68
569.15	60495.83
569.32	60470.08
569.48	60467.74
569.64	60743.92
569.81	60755.63
569.97	60507.53
570.13	60844.57
570.30	60629.24
570.46	60779.03
570.62	60556.68
570.78	60886.70
570.95	60603.49
571.11	60917.12
571.27	60718.18
571.43	60701.79
571.60	60825.84
571.76	60781.37
571.92	60772.01
572.09	60676.05
572.25	60900.74
572.41	60790.73
572.57	60912.44
572.74	60849.25
572.90	60659.66
573.06	60781.37
573.22	60849.25
573.38	60741.58
573.55	60835.20
573.71	61015.43
573.87	60954.57
574.03	60603.49
574.20	60900.74
574.36	60748.60
574.52	61013.08
574.68	60968.61
574.84	60949.89
575.01	61169.90
575.17	60954.57
575.33	60814.14
575.49	60949.89
575.65	60786.05
575.82	61001.38
575.98	61228.41
576.14	61109.05
576.30	61041.17
576.46	60903.08
576.62	60898.40
576.79	60844.57
576.95	60874.99
577.11	60795.42
577.27	61003.72
577.43	61059.90
577.59	60891.38
577.75	60949.89
577.92	60959.25
578.08	61064.58
578.24	61197.99
578.40	61340.76
578.56	61095.00
578.72	60933.51
578.88	61249.48
579.04	61099.68
579.21	61118.41
579.37	61291.61
579.53	61125.43
579.69	61008.40
579.85	61043.51
580.01	61109.05
580.17	60975.64
580.33	61109.05
580.49	61071.60
580.65	61085.64
580.82	61050.53
580.98	60933.51
581.14	60989.68
581.30	61092.66
581.46	60919.46
581.62	61176.92
581.78	61310.33
581.94	61160.54
582.10	61137.13
582.26	61200.33
582.42	61167.56
582.58	61186.28
582.74	60907.76
582.90	61261.18
583.06	61048.19
583.22	61076.28
583.38	61085.64
583.54	61123.09
583.70	61254.16
583.86	61207.35
584.02	61006.06
584.18	61197.99
584.34	61307.99
584.50	60940.53
584.66	60935.85
584.82	60982.66
584.98	61286.93
585.14	61197.99
585.30	61104.37
585.46	61216.71
585.62	61155.86
585.78	61165.22
585.94	61085.64
586.10	61207.35
586.26	61315.01
586.42	61319.70
586.58	61226.07
586.74	61202.67
586.90	61010.74
587.06	61099.68
587.22	61230.75
587.38	61251.82
587.54	61563.11
587.70	61420.34
587.86	61364.17
588.02	61277.57
588.18	61317.35
588.34	61230.75
588.49	61188.63
