SpectraSuite Data File
++++++++++++++++++++++++++++++++++++
Date: Fri Oct 25 11:26:20 EDT 2013
User: price-jones
Dark Spectrum Present: No
Reference Spectrum Present: No
Number of Sampled Component Spectra: 1
Spectrometers: USB2+H05261
Integration Time (usec): 100000 (USB2+H05261)
Spectra Averaged: 1 (USB2+H05261)
Boxcar Smoothing: 0 (USB2+H05261)
Correct for Electrical Dark: No (USB2+H05261)
Strobe/Lamp Enabled: No (USB2+H05261)
Correct for Detector Non-linearity: No (USB2+H05261)
Correct for Stray Light: No (USB2+H05261)
Number of Pixels in Processed Spectrum: 2048
>>>>>Begin Processed Spectral Data<<<<<
365.73	198.95
365.92	198.95
366.12	198.95
366.32	189.58
366.52	156.82
366.72	100.64
366.91	163.84
367.11	145.11
367.31	126.39
367.51	173.20
367.70	149.79
367.90	79.58
368.10	184.90
368.30	205.97
368.49	60.85
368.69	208.31
368.89	145.11
369.09	166.18
369.28	210.65
369.48	149.79
369.68	152.13
369.87	203.63
370.07	212.99
370.27	276.18
370.47	348.74
370.66	521.94
370.86	695.14
371.06	692.80
371.25	795.78
371.45	660.03
371.65	711.52
371.84	725.57
372.04	767.70
372.24	723.23
372.44	697.48
372.63	763.01
372.83	772.38
373.03	753.65
373.22	779.40
373.42	723.23
373.62	812.17
373.81	798.12
374.01	751.31
374.21	777.06
374.40	788.76
374.60	851.96
374.79	800.46
374.99	770.04
375.19	861.32
375.38	873.02
375.58	863.66
375.78	798.12
375.97	847.27
376.17	912.81
376.37	849.61
376.56	912.81
376.76	840.25
376.95	826.21
377.15	987.71
377.35	976.00
377.54	950.26
377.74	851.96
377.93	891.74
378.13	826.21
378.33	952.60
378.52	1008.77
378.72	919.83
378.91	952.60
379.11	973.66
379.31	936.21
379.50	873.02
379.70	987.71
379.89	947.92
380.09	889.40
380.28	936.21
380.48	1022.81
380.68	952.60
380.87	905.79
381.07	1053.24
381.26	997.07
381.46	1006.43
381.65	1025.15
381.85	978.34
382.04	1027.50
382.24	1093.03
382.43	1057.92
382.63	1097.71
382.83	987.71
383.02	1186.65
383.22	1102.39
383.41	1020.47
383.61	1132.82
383.80	1090.69
384.00	1083.67
384.19	1111.75
384.39	1245.16
384.58	1114.10
384.78	1121.12
384.97	1156.22
385.17	1144.52
385.36	1184.31
385.56	1146.86
385.75	1146.86
385.95	1130.48
386.14	1163.25
386.34	1093.03
386.53	1158.57
386.72	1205.38
386.92	1181.97
387.11	1256.87
387.31	1294.32
387.50	1212.40
387.70	1226.44
387.89	1320.06
388.09	1249.85
388.28	1322.40
388.48	1224.10
388.67	1287.29
388.86	1289.64
389.06	1287.29
389.25	1327.08
389.45	1291.98
389.64	1303.68
389.84	1355.17
390.03	1371.55
390.22	1392.62
390.42	1291.98
390.61	1371.55
390.81	1282.61
391.00	1369.21
391.19	1413.68
391.39	1322.40
391.58	1563.48
391.78	1439.43
391.97	1582.20
392.16	1444.11
392.36	1537.73
392.55	1437.09
392.75	1547.09
392.94	1488.58
393.13	1514.33
393.33	1533.05
393.52	1540.07
393.71	1596.25
393.91	1591.56
394.10	1610.29
394.29	1638.38
394.49	1689.87
394.68	1636.03
394.88	1692.21
395.07	1699.23
395.26	1643.06
395.46	1750.72
395.65	1694.55
395.84	1771.79
396.04	1790.51
396.23	1781.15
396.42	1708.59
396.62	1701.57
396.81	1884.13
397.00	1753.06
397.19	1748.38
397.39	1865.41
397.58	1818.60
397.77	1844.34
397.97	1912.22
398.16	1802.21
398.35	1907.54
398.55	1809.23
398.74	1900.52
398.93	2031.58
399.12	1872.43
399.32	1823.28
399.51	1818.60
399.70	1994.14
399.90	1851.36
400.09	1991.80
400.28	1980.09
400.47	2029.24
400.67	2047.97
400.86	2017.54
401.05	2071.37
401.24	2127.55
401.44	2104.14
401.63	2078.40
401.82	2120.53
402.01	2050.31
402.21	2064.35
402.40	2108.82
402.59	2129.89
402.78	2204.78
402.97	2129.89
403.17	2326.49
403.36	2115.84
403.55	2340.54
403.74	2352.24
403.93	2382.67
404.13	2258.62
404.32	2373.30
404.51	2385.01
404.70	2420.11
404.89	2361.60
405.09	2403.73
405.28	2471.61
405.47	2401.39
405.66	2462.24
405.85	2485.65
406.05	2506.71
406.24	2597.99
406.43	2565.23
406.62	2717.36
406.81	2686.94
407.00	2574.59
407.20	2530.12
407.39	2672.89
407.58	2672.89
407.77	2616.72
407.96	2794.60
408.15	2815.66
408.34	2668.21
408.54	2789.92
408.73	2782.90
408.92	2801.62
409.11	2803.96
409.30	2846.09
409.49	2815.66
409.68	2918.65
409.87	2876.52
410.07	2904.60
410.26	2949.08
410.45	2895.24
410.64	3089.51
410.83	2911.63
411.02	3026.31
411.21	3159.72
411.40	3026.31
411.59	3169.09
411.78	3187.81
411.98	3148.02
412.17	3234.62
412.36	3358.67
412.55	3206.53
412.74	3335.26
412.93	3337.60
413.12	3377.39
413.31	3548.25
413.50	3363.35
413.69	3414.84
413.88	3475.70
414.07	3571.66
414.26	3463.99
414.45	3679.32
414.64	3667.62
414.83	3590.38
415.02	3693.37
415.22	3779.97
415.41	3733.15
415.60	3777.62
415.79	3880.61
415.98	4009.34
416.17	4126.36
416.36	3934.44
416.55	4051.47
416.74	4152.11
416.93	3981.25
417.12	4175.52
417.31	4177.86
417.50	4175.52
417.69	4353.40
417.88	4166.15
418.07	4234.03
418.26	4299.56
418.45	4231.69
418.64	4400.21
418.83	4219.99
419.02	4339.35
419.21	4297.22
419.39	4526.60
419.58	4496.17
419.77	4535.96
419.96	4573.41
420.15	4528.94
420.34	4599.15
420.53	4561.70
420.72	4627.24
420.91	4585.11
421.10	4723.20
421.29	4812.14
421.48	4561.70
421.67	4713.84
421.86	4854.27
422.05	4678.73
422.24	4770.01
422.43	4795.76
422.61	4856.61
422.80	4807.46
422.99	4828.53
423.18	4837.89
423.37	5039.17
423.56	4952.57
423.75	4837.89
423.94	4692.77
424.13	4566.39
424.32	4781.71
424.50	5053.22
424.69	5132.79
424.88	5057.90
425.07	4849.59
425.26	4774.69
425.45	4844.91
425.64	4947.89
425.83	4983.00
426.01	4990.02
426.20	4936.19
426.39	4999.38
426.58	4929.17
426.77	5109.39
426.96	5170.24
427.15	5109.39
427.33	5008.75
427.52	5093.01
427.71	5324.72
427.90	5165.56
428.09	5163.22
428.28	5203.01
428.46	5387.91
428.65	5219.39
428.84	5540.05
429.03	5345.78
429.22	5305.99
429.40	5439.40
429.59	5404.30
429.78	5324.72
429.97	5247.48
430.16	5350.46
430.34	5584.52
430.53	5657.07
430.72	5703.89
430.91	5579.84
431.10	5533.03
431.28	5713.25
431.47	5685.16
431.66	5699.20
431.85	5694.52
432.03	5738.99
432.22	6052.63
432.41	5834.96
432.60	5973.05
432.79	5764.74
432.97	5937.94
433.16	6026.88
433.35	5834.96
433.54	6001.13
433.72	6036.24
433.91	5944.96
434.10	6223.48
434.28	6083.05
434.47	6139.23
434.66	6036.24
434.85	6242.21
435.03	6270.30
435.22	6260.93
435.41	6420.09
435.59	6237.53
435.78	6345.19
435.97	6471.58
436.16	6401.37
436.34	6396.68
436.53	6539.46
436.72	6583.93
436.90	6321.79
437.09	6602.65
437.28	6394.34
437.46	6588.61
437.65	6675.21
437.84	6731.38
438.02	6658.82
438.21	6717.34
438.40	6768.83
438.58	6946.71
438.77	7028.63
438.96	6906.92
439.14	7087.14
439.33	6918.62
439.52	7250.98
439.70	6986.50
439.89	7211.19
440.08	7290.77
440.26	7358.64
440.45	7314.17
440.63	7206.51
440.82	7527.16
441.01	7414.82
441.19	7463.97
441.38	7538.87
441.57	7644.19
441.75	7761.22
441.94	7927.39
442.12	7772.92
442.31	8037.40
442.50	7915.69
442.68	7901.65
442.87	8006.97
443.05	8046.76
443.24	8196.56
443.43	8095.91
443.61	8205.92
443.80	8259.75
443.98	8093.57
444.17	7744.83
444.35	8191.88
444.54	8149.75
444.73	8273.79
444.91	8325.29
445.10	8358.05
445.28	8355.71
445.47	8163.79
445.65	8210.60
445.84	8294.86
446.02	8304.22
446.21	8245.71
446.39	8271.45
446.58	8498.49
446.77	8276.13
446.95	8187.19
447.14	8491.46
447.32	8500.83
447.51	8393.16
447.69	8313.58
447.88	8386.14
448.06	8594.45
448.25	8393.16
448.43	8383.80
448.62	8489.12
448.80	8360.39
448.99	8341.67
449.17	8685.73
449.36	8624.87
449.54	9015.74
449.73	8835.52
449.91	8990.00
450.10	8847.22
450.28	8910.42
450.46	8999.36
450.65	9039.15
450.83	9055.53
451.02	8875.31
451.20	9263.84
451.39	8990.00
451.57	9008.72
451.76	9186.60
451.94	9011.06
452.13	9303.63
452.31	9088.30
452.49	9013.40
452.68	9291.93
452.86	9224.05
453.05	9385.55
453.23	9294.27
453.42	9224.05
453.60	9415.98
453.78	9607.90
453.97	9294.27
454.15	9362.14
454.34	9327.03
454.52	9439.38
454.70	9495.55
454.89	9664.07
455.07	9928.55
455.26	9713.22
455.44	9886.42
455.62	9912.17
455.81	9736.63
455.99	9975.36
456.17	9900.47
456.36	9886.42
456.54	9987.07
456.73	10324.10
456.91	10314.74
457.09	10232.82
457.28	10450.49
457.46	10183.67
457.64	10473.90
457.83	10445.81
458.01	10214.10
458.19	10532.41
458.38	10373.25
458.56	10789.87
458.74	10752.42
458.93	10607.31
459.11	10750.08
459.29	10698.59
459.48	10703.27
459.66	10647.10
459.84	10731.36
460.03	10937.32
460.21	10951.37
460.39	10759.44
460.57	10817.96
460.76	10806.25
460.94	10890.51
461.12	11166.70
461.31	11103.50
461.49	11070.73
461.67	11162.01
461.85	11639.48
462.04	11239.25
462.22	11772.89
462.40	11382.03
462.59	11494.37
462.77	11342.24
462.95	11641.82
463.13	11435.86
463.32	11569.27
463.50	11646.51
463.68	11749.49
463.86	11646.51
464.05	11632.46
464.23	11695.66
464.41	11545.86
464.59	11719.06
464.78	11843.11
464.96	12009.29
465.14	11714.38
465.32	11971.84
465.50	12198.87
465.69	12154.40
465.87	12182.49
466.05	11889.92
466.23	11864.18
466.41	12035.03
466.60	12397.82
466.78	12088.87
466.96	12222.28
467.14	12084.19
467.32	12360.37
467.51	12416.54
467.69	12152.06
467.87	12210.57
468.05	12379.09
468.23	12414.20
468.41	12273.77
468.60	12416.54
468.78	12439.95
468.96	12484.42
469.14	12535.91
469.32	12814.43
469.50	12355.69
469.69	12814.43
469.87	13226.37
470.05	13149.13
470.23	13128.06
470.41	12915.08
470.59	13266.16
470.77	13146.79
470.95	13078.91
471.14	13561.06
471.32	13008.70
471.50	13373.82
471.68	13614.90
471.86	13654.69
472.04	13659.37
472.22	13877.04
472.40	13659.37
472.58	13783.41
472.77	13734.26
472.95	13994.06
473.13	14445.79
473.31	14047.90
473.49	13954.27
473.67	13893.42
473.85	14059.60
474.03	14342.80
474.21	14546.43
474.39	14431.74
474.57	14398.98
474.75	14728.99
474.93	14848.36
475.12	14941.98
475.30	14759.42
475.48	14906.87
475.66	14970.07
475.84	15068.37
476.02	15199.44
476.20	15365.62
476.38	15641.80
476.56	15831.38
476.74	15864.15
476.92	15606.69
477.10	15826.70
477.28	15723.72
477.46	16011.60
477.64	16332.26
477.82	16299.49
478.00	16608.44
478.18	16652.91
478.36	16959.52
478.54	16985.27
478.72	16830.79
478.90	17198.26
479.08	17453.37
479.26	17392.52
479.44	17722.54
479.62	17982.34
479.80	17944.89
479.98	18160.22
480.16	18595.56
480.34	18057.23
480.52	18345.12
480.70	18485.55
480.88	18178.94
481.06	18604.92
481.24	18611.94
481.41	18883.44
481.59	19318.78
481.77	19503.68
481.95	19480.28
482.13	19742.42
482.31	19695.61
482.49	19726.04
482.67	20112.22
482.85	20084.14
483.03	20484.37
483.21	20842.47
483.39	20718.42
483.57	20664.59
483.74	20929.07
483.92	21319.94
484.10	20971.20
484.28	21436.97
484.46	22094.66
484.64	22263.18
484.82	21982.31
485.00	22209.34
485.18	22583.83
485.35	22820.22
485.53	22501.91
485.71	22735.96
485.89	23089.38
486.07	23016.83
486.25	23159.60
486.43	23147.90
486.61	23613.66
486.78	23800.91
486.96	24102.84
487.14	24390.72
487.32	24364.98
487.50	24744.14
487.68	24687.97
487.85	24964.15
488.03	25575.03
488.21	25706.10
488.39	25497.80
488.57	25516.52
488.75	26059.52
488.92	26024.42
489.10	26487.84
489.28	26639.98
489.46	26958.29
489.64	26593.17
489.81	27321.07
489.99	27538.74
490.17	27644.07
490.35	28025.57
490.53	27854.72
490.70	28182.39
490.88	28063.02
491.06	28624.75
491.24	28498.36
491.41	28985.19
491.59	28666.88
491.77	28823.70
491.95	29420.53
492.13	29474.37
492.30	29338.62
492.48	29666.29
492.66	30089.93
492.84	30003.33
493.01	30363.77
493.19	30249.08
493.37	31246.15
493.54	30668.04
493.72	31475.52
493.90	31276.58
494.08	31784.48
494.25	31768.09
494.43	31651.06
494.61	32196.41
494.79	32472.59
494.96	32297.05
495.14	31985.76
495.32	33041.34
495.49	33106.88
495.67	33350.29
495.85	33233.27
496.02	33689.67
496.20	33865.21
496.38	34040.75
496.55	33956.49
496.73	34628.23
496.91	34073.52
497.09	34630.57
497.26	34555.67
497.44	34703.12
497.62	34635.25
497.79	35370.18
497.97	35152.51
498.14	35896.80
498.32	35552.74
498.50	35655.72
498.67	36217.45
498.85	36222.13
499.03	36126.17
499.20	36238.51
499.38	36278.30
499.56	36807.26
499.73	36856.42
499.91	37315.16
500.08	37268.35
500.26	36900.89
500.44	37387.72
500.61	37603.05
500.79	37357.29
500.97	37785.61
501.14	38342.66
501.32	38183.50
501.49	38347.34
501.67	38581.39
501.84	38813.10
502.02	38590.75
502.20	38808.42
502.37	38923.11
502.55	39019.07
502.72	39058.86
502.90	39428.66
503.07	38979.28
503.25	39452.07
503.43	39463.77
503.60	39983.37
503.78	39519.95
503.95	39875.71
504.13	40388.28
504.30	40648.08
504.48	40102.74
504.65	39754.00
504.83	40294.66
505.01	41132.57
505.18	40893.84
505.36	41221.52
505.53	41081.08
505.71	41455.57
505.88	41535.15
506.06	41118.53
506.23	41715.37
506.41	41118.53
506.58	41151.30
506.76	41879.21
506.93	42153.05
507.11	41996.23
507.28	42618.81
507.46	42965.21
507.63	42438.59
507.81	42838.83
507.98	42436.25
508.16	42972.24
508.33	43508.22
508.50	43061.18
508.68	43531.62
508.85	43288.21
509.03	43501.20
509.20	43358.42
509.38	44083.99
509.55	43803.13
509.73	43985.69
509.90	44402.30
510.08	44360.17
510.25	44121.44
510.42	44219.74
510.60	44662.10
510.77	44741.68
510.95	44987.44
511.12	45029.57
511.30	45347.88
511.47	45366.60
511.64	45158.30
511.82	45457.88
511.99	45375.97
512.17	45855.78
512.34	45373.63
512.51	46213.88
512.69	46176.43
512.86	46188.13
513.04	46281.75
513.21	46218.56
513.38	46312.18
513.56	46593.04
513.73	46431.55
513.90	46679.64
514.08	46515.81
514.25	47007.32
514.43	47119.66
514.60	47199.24
514.77	47210.95
514.95	47428.62
515.12	47033.07
515.29	47814.80
515.47	47510.53
515.64	47838.21
515.81	47634.58
515.99	48182.27
516.16	48381.21
516.33	47697.78
516.51	47889.70
516.68	48086.31
516.85	48088.65
517.03	48879.75
517.20	48781.45
517.37	48280.57
517.54	48839.96
517.72	48329.72
517.89	48818.89
518.06	48980.39
518.24	49177.00
518.41	49198.06
518.58	49048.27
518.75	48776.76
518.93	49434.45
519.10	49263.60
519.27	49312.75
519.45	49462.54
519.62	49375.94
519.79	49485.95
519.96	49507.01
520.14	49687.23
520.31	49942.35
520.48	49860.43
520.65	49834.69
520.83	50199.81
521.00	50506.42
521.17	50358.97
521.34	50557.91
521.52	50192.79
521.69	50525.14
521.86	50688.98
522.03	50859.84
522.20	51068.15
522.38	51129.00
522.55	51220.28
522.72	51208.58
522.89	51004.95
523.07	51098.58
523.24	51192.20
523.41	51545.62
523.58	51070.49
523.75	51597.11
523.92	51206.24
524.10	51648.60
524.27	51526.89
524.44	51922.44
524.61	51660.30
524.78	52011.38
524.96	51889.68
525.13	51987.98
525.30	52179.90
525.47	52264.16
525.64	51866.27
525.81	52308.63
525.98	52278.21
526.16	52320.34
526.33	52423.32
526.50	52816.53
526.67	52428.00
526.84	52573.11
527.01	52584.82
527.18	52776.74
527.36	52678.44
527.53	52760.36
527.70	53296.34
527.87	52919.51
528.04	53052.92
528.21	53102.07
528.38	53130.16
528.55	53467.20
528.72	52931.22
528.89	53144.20
529.07	53240.17
529.24	53202.72
529.41	53504.65
529.58	53364.21
529.75	53361.87
529.92	53289.32
530.09	53886.15
530.26	53518.69
530.43	53539.75
530.60	53560.82
530.77	53586.57
530.94	53848.71
531.11	53738.70
531.28	54038.29
531.46	53839.34
531.63	53897.86
531.80	53785.51
531.97	53904.88
532.14	54213.83
532.31	54356.60
532.48	54377.67
532.65	54246.60
532.82	54176.38
532.99	54415.11
533.16	54312.13
533.33	54480.65
533.50	54777.90
533.67	54611.72
533.84	54457.24
534.01	54756.83
534.18	54724.07
534.35	55047.06
534.52	54695.98
534.69	55047.06
534.86	54932.37
535.03	54726.41
535.20	55056.42
535.37	55255.37
535.54	55028.34
535.71	54969.82
535.88	55203.88
536.05	55126.64
536.22	55302.18
536.38	55540.91
536.55	55178.13
536.72	55119.62
536.89	55173.45
537.06	55414.52
537.23	55695.39
537.40	55290.48
537.57	55709.43
537.74	55742.20
537.91	55828.80
538.08	55409.84
538.25	55622.83
538.42	55697.73
538.59	55835.82
538.75	55648.58
538.92	55990.30
539.09	56030.08
539.26	55870.93
539.43	55868.59
539.60	55779.65
539.77	56004.34
539.94	56116.68
540.11	56107.32
540.28	56161.15
540.44	56119.02
540.61	56243.07
540.78	56339.04
540.95	56128.39
541.12	56030.08
541.29	56252.44
541.46	56289.88
541.62	56444.36
541.79	56608.20
541.96	56172.86
542.13	56268.82
542.30	56626.92
542.47	56570.75
542.63	56835.23
542.80	56722.88
542.97	56860.97
543.14	56872.68
543.31	56825.87
543.48	57069.28
543.64	57155.88
543.81	56912.47
543.98	57158.22
544.15	56875.02
544.32	57183.97
544.48	57265.89
544.65	57048.22
544.82	57118.43
544.99	57221.42
545.16	57279.93
545.32	57188.65
545.49	57429.72
545.66	57675.48
545.83	57312.70
546.00	57556.11
546.16	57689.52
546.33	57317.38
546.50	57312.70
546.67	57530.37
546.83	57102.05
547.00	57277.59
547.17	57551.43
547.34	57513.98
547.50	57574.84
547.67	57975.07
547.84	57853.36
548.00	57689.52
548.17	57935.28
548.34	57748.04
548.51	57939.96
548.67	57982.09
548.84	57925.92
549.01	57743.36
549.18	57954.00
549.34	57970.39
549.51	58148.27
549.68	58145.93
549.84	58190.40
550.01	58279.34
550.18	57916.56
550.34	58312.11
550.51	58300.40
550.68	58073.37
550.84	57977.41
551.01	58192.74
551.18	58251.25
551.34	58349.56
551.51	58349.56
551.68	58464.24
551.84	58375.30
552.01	58277.00
552.18	58408.07
552.34	58305.09
552.51	58492.33
552.68	58459.56
552.84	58478.28
553.01	58592.97
553.18	58812.98
553.34	58761.49
553.51	58698.30
553.67	58534.46
553.84	58798.94
554.01	58862.13
554.17	58794.26
554.34	58700.64
554.51	58801.28
554.67	58871.49
554.84	58761.49
555.00	58747.45
555.17	59121.93
555.33	58740.42
555.50	58646.80
555.67	58745.11
555.83	58731.06
556.00	58937.03
556.16	59283.43
556.33	59040.01
556.50	59075.12
556.66	59084.48
556.83	58728.72
556.99	59405.14
557.16	59370.03
557.32	59267.05
557.49	59409.82
557.65	58918.31
557.82	59075.12
557.98	59203.85
558.15	59128.95
558.32	59222.58
558.48	59187.47
558.65	59157.04
558.81	59264.70
558.98	59166.40
559.14	59496.42
559.31	59360.67
559.47	59414.50
559.64	59222.58
559.80	59515.14
559.97	59524.50
560.13	59538.55
560.30	59683.66
560.46	59489.40
560.63	59622.81
560.79	59629.83
560.96	59760.90
561.12	59543.23
561.29	59618.13
561.45	59697.70
561.61	59491.74
561.78	59611.10
561.94	59456.63
562.11	59707.07
562.27	59690.68
562.44	59693.02
562.60	59884.95
562.77	59751.54
562.93	59583.02
563.10	59957.50
563.26	59662.60
563.42	60013.68
563.59	59800.69
563.75	59730.47
563.92	59817.07
564.08	59723.45
564.24	60051.12
564.41	60011.34
564.57	59962.18
564.74	59875.58
564.90	60055.81
565.07	59920.05
565.23	59852.18
565.39	59964.52
565.56	59990.27
565.72	60104.96
565.88	60083.89
566.05	59784.30
566.21	60065.17
566.38	59999.63
566.54	60182.19
566.70	60224.32
566.87	60177.51
567.03	59938.78
567.19	60193.90
567.36	60126.02
567.52	60111.98
567.68	60200.92
567.85	59987.93
568.01	60048.78
568.17	59948.14
568.34	60317.95
568.50	60299.22
568.66	60058.15
568.83	60133.04
568.99	60093.25
569.15	60207.94
569.32	60039.42
569.48	60308.58
569.64	60334.33
569.81	60130.70
569.97	60104.96
570.13	60341.35
570.30	60320.29
570.46	60156.45
570.62	60210.28
570.78	60369.44
570.95	60229.01
571.11	60427.95
571.27	60341.35
571.43	60430.29
571.60	60130.70
571.76	60268.79
571.92	60348.37
572.09	60376.46
572.25	60329.65
572.41	60374.12
572.57	60395.18
572.74	60750.94
572.90	60322.63
573.06	60313.26
573.22	60584.77
573.38	60552.00
573.55	60416.25
573.71	60591.79
573.87	60474.76
574.03	60420.93
574.20	60453.70
574.36	60434.97
574.52	60582.43
574.68	60626.90
574.84	60605.83
575.01	60631.58
575.17	60589.45
575.33	60470.08
575.49	60589.45
575.65	60601.15
575.82	60570.72
575.98	60472.42
576.14	60715.84
576.30	60629.24
576.46	60589.45
576.62	60767.33
576.79	60526.25
576.95	60425.61
577.11	60713.50
577.27	60608.17
577.43	60526.25
577.59	60540.30
577.75	60591.79
577.92	60409.23
578.08	60582.43
578.24	60629.24
578.40	60767.33
578.56	60821.16
578.72	60470.08
578.88	60654.98
579.04	60807.12
579.21	60856.27
579.37	60764.99
579.53	60734.56
579.69	60615.19
579.85	60395.18
580.01	60552.00
580.17	60549.66
580.33	60624.56
580.49	60793.07
580.65	60886.70
580.82	60594.13
580.98	60570.72
581.14	60697.11
581.30	60662.00
581.46	60577.75
581.62	60533.28
581.78	60523.91
581.94	60701.79
582.10	60722.86
582.26	60526.25
582.42	60748.60
582.58	60610.51
582.74	60898.40
582.90	60832.86
583.06	60547.32
583.22	60711.16
583.38	60788.39
583.54	60928.83
583.70	60694.77
583.86	60961.59
584.02	60713.50
584.18	60802.44
584.34	60755.63
584.50	60823.50
584.66	60638.60
584.82	60772.01
584.98	60926.49
585.14	60828.18
585.30	60683.07
585.46	60678.39
585.62	60652.64
585.78	60870.31
585.94	60678.39
586.10	60720.52
586.26	60514.55
586.42	60935.85
586.58	60872.65
586.74	60793.07
586.90	60762.65
587.06	60935.85
587.22	60980.32
587.38	60774.35
587.54	60912.44
587.70	60856.27
587.86	60807.12
588.02	60711.16
588.18	60935.85
588.34	60874.99
588.49	60912.44
