SpectraSuite Data File
++++++++++++++++++++++++++++++++++++
Date: Fri Oct 25 10:43:59 EDT 2013
User: price-jones
Dark Spectrum Present: No
Reference Spectrum Present: No
Number of Sampled Component Spectra: 1
Spectrometers: USB2+H05261
Integration Time (usec): 100000 (USB2+H05261)
Spectra Averaged: 1 (USB2+H05261)
Boxcar Smoothing: 0 (USB2+H05261)
Correct for Electrical Dark: No (USB2+H05261)
Strobe/Lamp Enabled: No (USB2+H05261)
Correct for Detector Non-linearity: No (USB2+H05261)
Correct for Stray Light: No (USB2+H05261)
Number of Pixels in Processed Spectrum: 2048
>>>>>Begin Processed Spectral Data<<<<<
365.73	91.28
365.92	91.28
366.12	91.28
366.32	7.02
366.52	14.04
366.72	23.41
366.91	0.00
367.11	18.72
367.31	77.24
367.51	0.00
367.70	42.13
367.90	42.13
368.10	93.62
368.30	30.43
368.49	72.56
368.69	67.88
368.89	49.15
369.09	23.41
369.28	93.62
369.48	63.19
369.68	39.79
369.87	53.83
370.07	147.45
370.27	138.09
370.47	198.95
370.66	358.10
370.86	447.04
371.06	521.94
371.25	484.49
371.45	472.79
371.65	512.58
371.84	407.25
372.04	486.83
372.24	507.90
372.44	468.11
372.63	496.19
372.83	538.32
373.03	486.83
373.22	547.69
373.42	500.87
373.62	442.36
373.81	507.90
374.01	557.05
374.21	571.09
374.40	559.39
374.60	528.96
374.79	575.77
374.99	636.63
375.19	650.67
375.38	690.46
375.58	655.35
375.78	631.94
375.97	538.32
376.17	624.92
376.37	571.09
376.56	681.10
376.76	568.75
376.95	664.71
377.15	678.76
377.35	653.01
377.54	706.84
377.74	547.69
377.93	610.88
378.13	674.07
378.33	671.73
378.52	674.07
378.72	582.79
378.91	676.41
379.11	641.31
379.31	667.05
379.50	622.58
379.70	664.71
379.89	662.37
380.09	744.29
380.28	683.44
380.48	706.84
380.68	688.12
380.87	727.91
381.07	695.14
381.26	631.94
381.46	678.76
381.65	711.52
381.85	695.14
382.04	777.06
382.24	709.18
382.43	727.91
382.63	627.26
382.83	648.33
383.02	823.87
383.22	760.67
383.41	681.10
383.61	720.88
383.80	770.04
384.00	737.27
384.19	770.04
384.39	786.42
384.58	847.27
384.78	774.72
384.97	807.48
385.17	896.43
385.36	798.12
385.56	784.08
385.75	737.27
385.95	791.10
386.14	851.96
386.34	746.63
386.53	887.06
386.72	795.78
386.92	884.72
387.11	870.68
387.31	819.19
387.50	880.04
387.70	933.87
387.89	819.19
388.09	833.23
388.28	835.57
388.48	933.87
388.67	957.28
388.86	863.66
389.06	919.83
389.25	905.79
389.45	990.05
389.64	1008.77
389.84	959.62
390.03	1032.18
390.22	985.37
390.42	1064.94
390.61	1032.18
390.81	945.58
391.00	987.71
391.19	1053.24
391.39	1074.31
391.58	1097.71
391.78	1062.60
391.97	1064.94
392.16	1067.28
392.36	1029.84
392.55	1025.15
392.75	1086.01
392.94	1004.09
393.13	1048.56
393.33	945.58
393.52	1095.37
393.71	1069.62
393.91	1102.39
394.10	1137.50
394.29	1184.31
394.49	1177.29
394.68	1172.61
394.88	1158.57
395.07	1205.38
395.26	1214.74
395.46	1226.44
395.65	1277.93
395.84	1287.29
396.04	1336.45
396.23	1205.38
396.42	1235.80
396.62	1231.12
396.81	1256.87
397.00	1252.19
397.19	1252.19
397.39	1280.27
397.58	1371.55
397.77	1352.83
397.97	1467.52
398.16	1448.79
398.35	1495.60
398.55	1385.60
398.74	1476.88
398.93	1507.30
399.12	1598.59
399.32	1469.86
399.51	1551.78
399.70	1645.40
399.90	1593.90
400.09	1617.31
400.28	1582.20
400.47	1603.27
400.67	1678.16
400.86	1717.95
401.05	1675.82
401.24	1694.55
401.44	1722.63
401.63	1753.06
401.82	1654.76
402.01	1732.00
402.21	1713.27
402.40	1792.85
402.59	1762.42
402.78	1727.32
402.97	1778.81
403.17	1825.62
403.36	1696.89
403.55	1907.54
403.74	1905.20
403.93	1881.79
404.13	1942.64
404.32	1942.64
404.51	1823.28
404.70	1975.41
404.89	1877.11
405.09	1982.43
405.28	2085.42
405.47	1947.33
405.66	2040.95
405.85	1940.30
406.05	1886.47
406.24	1959.03
406.43	2033.93
406.62	2092.44
406.81	1987.11
407.00	2036.27
407.20	1980.09
407.39	2125.21
407.58	2183.72
407.77	2183.72
407.96	2260.96
408.15	2272.66
408.34	2190.74
408.54	2251.60
408.73	2352.24
408.92	2380.32
409.11	2387.35
409.30	2296.07
409.49	2298.41
409.68	2305.43
409.87	2373.30
410.07	2377.98
410.26	2349.90
410.45	2530.12
410.64	2464.58
410.83	2483.31
411.02	2555.86
411.21	2649.49
411.40	2424.80
411.59	2562.89
411.78	2651.83
411.98	2689.28
412.17	2663.53
412.36	2595.65
412.55	2780.56
412.74	2670.55
412.93	2787.58
413.12	2799.28
413.31	2923.33
413.50	2825.03
413.69	2813.32
413.88	2995.89
414.07	2913.97
414.26	2895.24
414.45	2937.37
414.64	2984.18
414.83	2981.84
415.02	3094.19
415.22	3056.74
415.41	3159.72
415.60	3211.22
415.79	3150.36
415.98	3412.50
416.17	3218.24
416.36	3234.62
416.55	3243.98
416.74	3251.00
416.93	3307.18
417.12	3309.52
417.31	3449.95
417.50	3445.27
417.69	3435.91
417.88	3445.27
418.07	3375.05
418.26	3536.55
418.45	3499.10
418.64	3634.85
418.83	3557.61
419.02	3606.77
419.21	3550.59
419.39	3545.91
419.58	3506.12
419.77	3510.80
419.96	3691.02
420.15	3592.72
420.34	3660.60
420.53	3775.28
420.72	3777.62
420.91	3889.97
421.10	3794.01
421.29	3953.16
421.48	3904.01
421.67	3777.62
421.86	3824.44
422.05	3805.71
422.24	3791.67
422.43	3747.20
422.61	3791.67
422.80	3852.52
422.99	3950.82
423.18	4037.42
423.37	3950.82
423.56	4021.04
423.75	3878.27
423.94	3875.93
424.13	3709.75
424.32	3770.60
424.50	3948.48
424.69	3925.08
424.88	3974.23
425.07	3920.40
425.26	3845.50
425.45	3988.27
425.64	4021.04
425.83	4074.87
426.01	4124.02
426.20	4058.49
426.39	4124.02
426.58	3943.80
426.77	3927.42
426.96	4121.68
427.15	4011.68
427.33	4016.36
427.52	4114.66
427.71	4093.60
427.90	4198.92
428.09	4278.50
428.28	4154.45
428.46	4093.60
428.65	4166.15
428.84	4290.20
429.03	4255.09
429.22	4112.32
429.40	4222.33
429.59	4194.24
429.78	4053.81
429.97	3913.38
430.16	3978.91
430.34	4203.60
430.53	4135.73
430.72	4161.47
430.91	4308.93
431.10	4444.68
431.28	4652.98
431.47	4676.39
431.66	4697.46
431.85	4592.13
432.03	4617.88
432.22	4709.16
432.41	4669.37
432.60	4765.33
432.79	4685.75
432.97	4833.21
433.16	4856.61
433.35	4662.35
433.54	4781.71
433.72	4678.73
433.91	4767.67
434.10	4819.16
434.28	4828.53
434.47	4840.23
434.66	4983.00
434.85	5046.20
435.03	4863.63
435.22	4926.83
435.41	5076.62
435.59	5039.17
435.78	5198.33
435.97	5195.99
436.16	5116.41
436.34	5146.84
436.53	5301.31
436.72	5343.44
436.90	5184.29
437.09	5296.63
437.28	5097.69
437.46	5270.89
437.65	5102.37
437.84	5142.16
438.02	5032.15
438.21	5317.70
438.40	5046.20
438.58	5359.83
438.77	5432.38
438.96	5488.56
439.14	5591.54
439.33	5628.99
439.52	5661.76
439.70	5734.31
439.89	5493.24
440.08	5628.99
440.26	5790.49
440.45	5778.78
440.63	5731.97
440.82	6010.50
441.01	6024.54
441.19	6036.24
441.38	6200.08
441.57	6097.10
441.75	6228.17
441.94	6485.62
442.12	6289.02
442.31	6361.58
442.50	6291.36
442.68	6406.05
442.87	6342.85
443.05	6604.99
443.24	6487.96
443.43	6429.45
443.61	6300.72
443.80	6619.04
443.98	6403.71
444.17	6228.17
444.35	6455.20
444.54	6799.26
444.73	6504.35
444.91	6480.94
445.10	6544.14
445.28	6614.35
445.47	6450.52
445.65	6555.84
445.84	6569.88
446.02	6562.86
446.21	6478.60
446.39	6651.80
446.58	6773.51
446.77	6530.09
446.95	6700.95
447.14	6836.70
447.32	6867.13
447.51	6780.53
447.69	6539.46
447.88	6813.30
448.06	6909.26
448.25	6817.98
448.43	6817.98
448.62	6724.36
448.80	6586.27
448.99	6881.18
449.17	6981.82
449.36	6834.36
449.54	6974.80
449.73	6998.20
449.91	7211.19
450.10	7115.23
450.28	7215.87
450.46	7248.64
450.65	7260.34
450.83	7129.27
451.02	7176.08
451.20	7295.45
451.39	7208.85
451.57	7281.41
451.76	7176.08
451.94	7246.30
452.13	7344.60
452.31	7281.41
452.49	7185.44
452.68	7414.82
452.86	7330.56
453.05	7325.88
453.23	7442.90
453.42	7417.16
453.60	7421.84
453.78	7358.64
453.97	7431.20
454.15	7630.15
454.34	7424.18
454.52	7726.11
454.70	7442.90
454.89	7555.25
455.07	7536.52
455.26	7482.69
455.44	7990.59
455.62	7866.54
455.81	7754.19
455.99	7817.39
456.17	7950.80
456.36	8105.28
456.54	7864.20
456.73	8098.25
456.91	8131.02
457.09	8051.44
457.28	8407.20
457.46	8198.90
457.64	8390.82
457.83	8079.53
458.01	8056.12
458.19	8439.97
458.38	8135.70
458.56	8393.16
458.74	8189.53
458.93	8269.11
459.11	8219.96
459.29	8540.61
459.48	8444.65
459.66	8224.64
459.84	8409.54
460.03	8681.05
460.21	8594.45
460.39	8699.77
460.57	8468.06
460.76	8624.87
460.94	8875.31
461.12	8638.92
461.31	8699.77
461.49	8664.66
461.67	8872.97
461.85	8781.69
462.04	8823.82
462.22	9085.96
462.40	8919.78
462.59	8922.12
462.77	8748.92
462.95	9135.11
463.13	8987.66
463.32	9048.51
463.50	8945.53
463.68	8990.00
463.86	9231.07
464.05	8870.63
464.23	8931.48
464.41	9366.82
464.59	8805.10
464.78	9261.50
464.96	9102.34
465.14	9158.52
465.32	9184.26
465.50	9383.21
465.69	9280.22
465.87	9125.75
466.05	9240.44
466.23	9233.41
466.41	9224.05
466.60	9305.97
466.78	9261.50
466.96	9221.71
467.14	9158.52
467.32	9467.47
467.51	9399.59
467.69	9289.59
467.87	9446.40
468.05	9682.80
468.23	9394.91
468.41	9324.69
468.60	9607.90
468.78	9722.59
468.96	9558.75
469.14	9645.35
469.32	9774.08
469.50	9760.03
469.69	9830.25
469.87	9874.72
470.05	9966.00
470.23	10005.79
470.41	9968.34
470.59	9879.40
470.77	9694.50
470.95	9958.98
471.14	10202.40
471.32	10012.81
471.50	10333.47
471.68	10303.04
471.86	10377.94
472.04	10670.50
472.22	10649.44
472.40	10258.57
472.58	10377.94
472.77	10537.09
472.95	10691.57
473.13	10850.72
473.31	10616.67
473.49	10630.71
473.67	10663.48
473.85	10876.47
474.03	11204.14
474.21	11002.86
474.39	10946.69
474.57	11192.44
474.75	11194.78
474.93	11199.46
475.12	11122.23
475.30	11442.88
475.48	11314.15
475.66	11248.61
475.84	11407.77
476.02	11485.01
476.20	11452.24
476.38	11941.41
476.56	11885.24
476.74	11896.94
476.92	11859.49
477.10	11833.75
477.28	12116.95
477.46	12163.76
477.64	12138.02
477.82	12470.37
478.00	12678.68
478.18	12655.28
478.36	12697.41
478.54	12720.81
478.72	12849.54
478.90	12769.96
479.08	13156.15
479.26	13282.54
479.44	13289.56
479.62	13327.01
479.80	13252.11
479.98	13394.89
480.16	13544.68
480.34	13544.68
480.52	14181.31
480.70	13951.93
480.88	13591.49
481.06	14061.94
481.24	13996.40
481.41	14265.57
481.59	14520.68
481.77	14672.82
481.95	14506.64
482.13	14927.94
482.31	14700.90
482.49	15140.93
482.67	14792.19
482.85	15260.29
483.03	15248.59
483.21	15414.77
483.39	15623.08
483.57	15697.97
483.74	15599.67
483.92	15749.46
484.10	15754.15
484.28	15807.98
484.46	16224.59
484.64	16568.65
484.82	16072.46
485.00	16524.18
485.18	16664.61
485.35	16772.28
485.53	16463.33
485.71	16493.76
485.89	16372.05
486.07	16592.06
486.25	16858.88
486.43	17034.42
486.61	17329.33
486.78	17252.09
486.96	17406.56
487.14	18108.72
487.32	17790.41
487.50	18141.49
487.68	18209.37
487.85	18693.86
488.03	18466.83
488.21	18909.19
488.39	18740.67
488.57	18897.49
488.75	18916.21
488.92	18932.59
489.10	19360.91
489.28	19379.64
489.46	19882.85
489.64	19669.86
489.81	20264.36
489.99	20362.66
490.17	20297.13
490.35	20416.49
490.53	20423.51
490.70	20697.36
490.88	20489.05
491.06	20772.25
491.24	21163.12
491.41	20695.02
491.59	21064.82
491.77	20699.70
491.95	21252.06
492.13	21462.71
492.30	21727.19
492.48	22160.19
492.66	21926.14
492.84	22288.92
493.01	22309.99
493.19	21874.65
493.37	22492.55
493.54	22497.23
493.72	22768.73
493.90	22714.90
494.08	23138.54
494.25	23154.92
494.43	23529.41
494.61	23358.55
494.79	23543.45
494.96	23779.84
495.14	23833.68
495.32	23672.18
495.49	23756.44
495.67	24191.78
495.85	23861.76
496.02	24376.68
496.20	24381.36
496.38	24606.05
496.55	24648.18
496.73	25064.80
496.91	25046.07
497.09	25315.23
497.26	25383.11
497.44	25380.77
497.62	25116.29
497.79	25315.23
497.97	25443.96
498.14	25692.06
498.32	25586.74
498.50	25898.03
498.67	26122.72
498.85	26307.62
499.03	26464.44
499.20	26436.35
499.38	26829.56
499.56	26670.40
499.73	26904.46
499.91	26534.65
500.08	26845.94
500.26	26455.08
500.44	26754.66
500.61	26672.74
500.79	26843.60
500.97	26836.58
501.14	27192.34
501.32	27056.59
501.49	27300.01
501.67	27424.06
501.84	27676.83
502.02	27213.41
502.20	27978.76
502.37	28123.88
502.55	28056.00
502.72	28268.99
502.90	28423.47
503.07	27894.50
503.25	27922.59
503.43	28018.55
503.60	28058.34
503.78	28297.08
503.95	28250.27
504.13	28687.95
504.30	29252.02
504.48	28973.49
504.65	29249.67
504.83	29228.61
505.01	29472.03
505.18	29289.46
505.36	30068.86
505.53	29589.05
505.71	29560.97
505.88	29816.08
506.06	29263.72
506.23	30108.65
506.41	29642.88
506.58	30066.52
506.76	30293.55
506.93	30316.96
507.11	30211.64
507.28	30174.19
507.46	30450.37
507.63	30359.09
507.81	30646.97
507.98	30661.02
508.16	30569.74
508.33	30738.26
508.50	31145.51
508.68	31061.25
508.85	31559.78
509.03	31049.55
509.20	31683.83
509.38	31566.81
509.55	31236.79
509.73	31480.21
509.90	31695.53
510.08	31662.77
510.25	31950.65
510.42	31531.70
510.60	32257.26
510.77	31859.37
510.95	32378.97
511.12	32301.73
511.30	32353.23
511.47	33055.39
511.64	32589.62
511.82	32723.03
511.99	32402.38
512.17	32458.55
512.34	32400.04
512.51	32947.72
512.69	32980.49
512.86	32959.42
513.04	33242.63
513.21	32961.76
513.38	33139.65
513.56	33031.98
513.73	32914.95
513.90	32821.33
514.08	33270.72
514.25	33413.49
514.43	33242.63
514.60	33369.02
514.77	33443.91
514.95	33965.85
515.12	33825.42
515.29	33879.25
515.47	34288.85
515.64	34354.38
515.81	34242.04
515.99	34223.31
516.16	33888.62
516.33	33539.88
516.51	33998.62
516.68	33799.68
516.85	33785.63
517.03	33977.56
517.20	34300.55
517.37	34534.60
517.54	34897.39
517.72	34225.65
517.89	34054.79
518.06	34445.66
518.24	34452.69
518.41	34181.18
518.58	34499.50
518.75	34927.81
518.93	34796.74
519.10	34773.34
519.27	34951.22
519.45	35414.65
519.62	35122.08
519.79	35587.85
519.96	35772.75
520.14	35695.51
520.31	35784.45
520.48	35218.04
520.65	35819.56
520.83	36369.58
521.00	35943.61
521.17	36009.14
521.34	36392.99
521.52	36481.93
521.69	36254.90
521.86	36559.17
522.03	36488.95
522.20	36694.92
522.38	36655.13
522.55	36720.66
522.72	36500.65
522.89	36355.54
523.07	36861.10
523.24	37064.72
523.41	37251.97
523.58	37340.91
523.75	37408.78
523.92	37574.96
524.10	37820.72
524.27	37429.85
524.44	37572.62
524.61	37656.88
524.78	37727.10
524.96	38017.32
525.13	37708.37
525.30	37816.04
525.47	38064.13
525.64	38040.73
525.81	38101.58
525.98	37823.06
526.16	37713.05
526.33	37670.92
526.50	38270.10
526.67	37589.00
526.84	37638.15
527.01	37537.51
527.18	38256.06
527.36	38017.32
527.53	38726.50
527.70	38967.58
527.87	38806.08
528.04	38916.09
528.21	38782.68
528.38	38712.46
528.55	39112.69
528.72	38740.55
528.89	39299.94
529.07	38878.64
529.24	38979.28
529.41	39267.17
529.58	39409.94
529.75	38976.94
529.92	39484.84
530.09	39683.78
530.26	39592.50
530.43	39690.80
530.60	39550.37
530.77	39571.44
530.94	39583.14
531.11	39569.10
531.28	39679.10
531.46	39791.45
531.63	40226.79
531.80	39496.54
531.97	39763.36
532.14	39952.94
532.31	39435.69
532.48	39578.46
532.65	39529.31
532.82	39929.54
532.99	40442.12
533.16	39866.34
533.33	40034.86
533.50	40327.43
533.67	40622.34
533.84	40582.55
534.01	40100.40
534.18	40280.62
534.35	40664.47
534.52	40809.58
534.69	40645.74
534.86	40699.58
535.03	40580.21
535.20	41057.68
535.37	40982.78
535.54	40863.41
535.71	40776.81
535.88	40868.09
536.05	41029.59
536.22	41450.89
536.38	41682.60
536.55	41092.79
536.72	41216.83
536.89	40612.98
537.06	40767.45
537.23	41048.32
537.40	41015.55
537.57	41383.01
537.74	41411.10
537.91	41610.04
538.08	41333.86
538.25	41464.93
538.42	41635.79
538.59	41560.89
538.75	41265.99
538.92	41701.32
539.09	41862.82
539.26	42010.28
539.43	41720.05
539.60	41663.88
539.77	41462.59
539.94	41656.85
540.11	41694.30
540.28	42003.25
540.44	42029.00
540.61	41897.93
540.78	41516.42
540.95	41539.83
541.12	41956.44
541.29	41649.83
541.46	42239.65
541.62	42382.42
541.79	42101.56
541.96	42272.42
542.13	42230.29
542.30	42375.40
542.47	42178.79
542.63	42216.24
542.80	42408.17
542.97	42462.00
543.14	42859.89
543.31	42686.69
543.48	42934.79
543.64	43236.72
543.81	43335.02
543.98	43192.25
544.15	43054.15
544.32	43414.60
544.48	43611.20
544.65	43241.40
544.82	43365.45
544.99	43232.04
545.16	43178.20
545.32	43175.86
545.49	43590.14
545.66	43798.44
545.83	43824.19
546.00	43604.18
546.16	43548.01
546.33	43297.57
546.50	43342.04
546.67	43487.15
546.83	43356.08
547.00	43723.55
547.17	43468.43
547.34	43187.56
547.50	43433.32
547.67	44275.91
547.84	43363.11
548.00	43854.62
548.17	44060.58
548.34	44058.24
548.51	44006.75
548.67	44020.80
548.84	43910.79
549.01	44182.29
549.18	44325.07
549.34	44451.45
549.51	44425.71
549.68	44140.16
549.84	44172.93
550.01	44414.01
550.18	44170.59
550.34	44568.48
550.51	44156.55
550.68	44327.41
550.84	43746.95
551.01	44364.85
551.18	43901.43
551.34	44783.81
551.51	44498.26
551.68	44680.83
551.84	44360.17
552.01	44306.34
552.18	44648.06
552.34	43901.43
552.51	44664.44
552.68	44837.64
552.84	45045.95
553.01	44933.60
553.18	44781.47
553.34	44575.50
553.51	44458.48
553.67	44914.88
553.84	45347.88
554.01	44786.15
554.17	44872.75
554.34	44917.22
554.51	44903.18
554.67	45317.45
554.84	45174.68
555.00	44882.11
555.17	45015.52
555.33	45333.84
555.50	45193.40
555.67	44657.42
555.83	44713.59
556.00	45312.77
556.16	45390.01
556.33	44910.20
556.50	45036.59
556.66	45141.91
556.83	45001.48
556.99	45441.50
557.16	45303.41
557.32	45277.66
557.49	45624.06
557.65	45373.63
557.82	45392.35
557.98	45390.01
558.15	45317.45
558.32	45088.08
558.48	44872.75
558.65	45382.99
558.81	45427.46
558.98	45457.88
559.14	45415.76
559.31	45593.64
559.47	45851.09
559.64	45605.34
559.80	45691.94
559.97	45296.39
560.13	45179.36
560.30	45469.59
560.46	45769.18
560.63	45565.55
560.79	45551.51
560.96	45628.74
561.12	45436.82
561.29	45244.90
561.45	45731.73
561.61	45411.07
561.78	45741.09
561.94	45399.37
562.11	45359.58
562.27	45532.78
562.44	45642.79
562.60	45914.29
562.77	45755.13
562.93	45588.95
563.10	46021.95
563.26	45287.03
563.42	46609.43
563.59	45635.77
563.75	45675.55
563.92	46160.05
564.08	45844.07
564.24	46057.06
564.41	45869.82
564.57	45979.82
564.74	46284.09
564.90	45968.12
565.07	46120.26
565.23	45780.88
565.39	45694.28
565.56	45851.09
565.72	45490.65
565.88	45766.84
566.05	45815.99
566.21	45673.21
566.38	45762.15
566.54	45783.22
566.70	46335.59
566.87	45947.06
567.03	46532.19
567.19	46293.46
567.36	46117.92
567.52	46263.03
567.68	46181.11
567.85	45956.42
568.01	46192.81
568.17	46164.73
568.34	46464.32
568.50	46061.74
568.66	45993.87
568.83	46099.19
568.99	46085.15
569.15	46099.19
569.32	45797.26
569.48	45965.78
569.64	46342.61
569.81	46279.41
569.97	46167.07
570.13	46005.57
570.30	45940.04
570.46	45834.71
570.62	46078.13
570.78	45694.28
570.95	45844.07
571.11	46028.98
571.27	46157.70
571.43	46298.14
571.60	45956.42
571.76	46099.19
571.92	46209.20
572.09	46117.92
572.25	46499.42
572.41	45869.82
572.57	46614.11
572.74	46532.19
572.90	46248.99
573.06	46124.94
573.22	46136.64
573.38	46330.90
573.55	45935.35
573.71	46457.29
573.87	46101.53
574.03	46047.70
574.20	46115.58
574.36	45937.69
574.52	46429.21
574.68	46471.34
574.84	46611.77
575.01	46305.16
575.17	46146.00
575.33	46396.44
575.49	46274.73
575.65	46295.80
575.82	46050.04
575.98	46225.58
576.14	46497.08
576.30	46471.34
576.46	45907.27
576.62	45914.29
576.79	46129.62
576.95	45886.20
577.11	46036.00
577.27	46183.45
577.43	46548.57
577.59	45993.87
577.75	46316.86
577.92	46078.13
578.08	46117.92
578.24	46052.38
578.40	46419.84
578.56	46738.16
578.72	46256.01
578.88	46815.40
579.04	46642.20
579.21	46220.90
579.37	46279.41
579.53	46176.43
579.69	45818.33
579.85	46211.54
580.01	46267.71
580.17	46426.87
580.33	46192.81
580.49	46686.67
580.65	46363.67
580.82	46539.21
580.98	45968.12
581.14	46307.50
581.30	46672.62
581.46	46773.27
581.62	46653.90
581.78	46461.97
581.94	46621.13
582.10	46700.71
582.26	46358.99
582.42	46426.87
582.58	46838.80
582.74	46810.71
582.90	46588.36
583.06	46773.27
583.22	46342.61
583.38	46628.15
583.54	46756.88
583.70	46705.39
583.86	46546.23
584.02	46164.73
584.18	46806.03
584.34	46412.82
584.50	46272.39
584.66	46583.68
584.82	46017.27
584.98	46892.63
585.14	46330.90
585.30	46628.15
585.46	46562.62
585.62	46270.05
585.78	45947.06
585.94	46174.09
586.10	46288.77
586.26	46415.16
586.42	47033.07
586.58	46497.08
586.74	46614.11
586.90	46253.67
587.06	46501.76
587.22	46492.40
587.38	46513.47
587.54	46794.33
587.70	46419.84
587.86	46637.51
588.02	46155.36
588.18	46536.87
588.34	46146.00
588.49	45979.82
588.65	45614.70
588.81	45970.46
588.97	45813.65
589.13	46052.38
589.29	46216.22
589.45	46396.44
589.61	46681.98
589.77	46527.51
589.93	46583.68
