SpectraSuite Data File
++++++++++++++++++++++++++++++++++++
Date: Fri Oct 25 10:47:20 EDT 2013
User: price-jones
Dark Spectrum Present: No
Reference Spectrum Present: No
Number of Sampled Component Spectra: 1
Spectrometers: USB2+H05261
Integration Time (usec): 100000 (USB2+H05261)
Spectra Averaged: 1 (USB2+H05261)
Boxcar Smoothing: 0 (USB2+H05261)
Correct for Electrical Dark: No (USB2+H05261)
Strobe/Lamp Enabled: No (USB2+H05261)
Correct for Detector Non-linearity: No (USB2+H05261)
Correct for Stray Light: No (USB2+H05261)
Number of Pixels in Processed Spectrum: 2048
>>>>>Begin Processed Spectral Data<<<<<
365.73	184.90
365.92	184.90
366.12	184.90
366.32	117.03
366.52	49.15
366.72	37.45
366.91	44.47
367.11	42.13
367.31	28.09
367.51	44.47
367.70	0.00
367.90	9.36
368.10	28.09
368.30	70.22
368.49	39.79
368.69	79.58
368.89	93.62
369.09	16.38
369.28	67.88
369.48	0.00
369.68	88.94
369.87	86.60
370.07	72.56
370.27	159.16
370.47	224.69
370.66	381.51
370.86	313.63
371.06	482.15
371.25	425.98
371.45	433.00
371.65	451.72
371.84	416.62
372.04	468.11
372.24	461.09
372.44	503.22
372.63	454.06
372.83	498.53
373.03	533.64
373.22	498.53
373.42	535.98
373.62	517.26
373.81	514.92
374.01	617.90
374.21	599.18
374.40	475.13
374.60	624.92
374.79	505.56
374.99	538.32
375.19	500.87
375.38	564.07
375.58	608.54
375.78	503.22
375.97	498.53
376.17	603.86
376.37	578.11
376.56	592.16
376.76	505.56
376.95	571.09
377.15	615.56
377.35	585.13
377.54	594.50
377.74	566.41
377.93	674.07
378.13	613.22
378.33	596.84
378.52	561.73
378.72	561.73
378.91	603.86
379.11	564.07
379.31	638.97
379.50	482.15
379.70	606.20
379.89	575.77
380.09	732.59
380.28	655.35
380.48	617.90
380.68	653.01
380.87	643.65
381.07	629.60
381.26	702.16
381.46	631.94
381.65	685.78
381.85	629.60
382.04	660.03
382.24	720.88
382.43	718.54
382.63	641.31
382.83	732.59
383.02	704.50
383.22	751.31
383.41	620.24
383.61	777.06
383.80	737.27
384.00	849.61
384.19	730.25
384.39	716.20
384.58	664.71
384.78	697.48
384.97	800.46
385.17	765.36
385.36	844.93
385.56	851.96
385.75	702.16
385.95	781.74
386.14	830.89
386.34	861.32
386.53	873.02
386.72	753.65
386.92	718.54
387.11	779.40
387.31	786.42
387.50	741.95
387.70	788.76
387.89	779.40
388.09	840.25
388.28	784.08
388.48	882.38
388.67	784.08
388.86	795.78
389.06	863.66
389.25	830.89
389.45	863.66
389.64	976.00
389.84	943.24
390.03	844.93
390.22	940.90
390.42	905.79
390.61	903.45
390.81	880.04
391.00	917.49
391.19	940.90
391.39	940.90
391.58	1001.75
391.78	905.79
391.97	964.30
392.16	943.24
392.36	952.60
392.55	954.94
392.75	905.79
392.94	931.53
393.13	954.94
393.33	990.05
393.52	959.62
393.71	1081.33
393.91	994.73
394.10	978.34
394.29	997.07
394.49	1025.15
394.68	1093.03
394.88	1095.37
395.07	1086.01
395.26	1013.45
395.46	1102.39
395.65	1060.26
395.84	1210.06
396.04	1259.21
396.23	1118.78
396.42	1121.12
396.62	1167.93
396.81	1069.62
397.00	1174.95
397.19	1151.54
397.39	1203.04
397.58	1210.06
397.77	1200.69
397.97	1097.71
398.16	1203.04
398.35	1334.11
398.55	1235.80
398.74	1350.49
398.93	1376.24
399.12	1277.93
399.32	1345.81
399.51	1334.11
399.70	1392.62
399.90	1397.30
400.09	1303.68
400.28	1364.53
400.47	1280.27
400.67	1451.13
400.86	1488.58
401.05	1432.41
401.24	1434.75
401.44	1465.18
401.63	1479.22
401.82	1404.32
402.01	1462.83
402.21	1425.39
402.40	1568.16
402.59	1488.58
402.78	1504.96
402.97	1444.11
403.17	1570.50
403.36	1523.69
403.55	1490.92
403.74	1577.52
403.93	1626.67
404.13	1558.80
404.32	1685.19
404.51	1600.93
404.70	1724.97
404.89	1645.40
405.09	1748.38
405.28	1727.32
405.47	1645.40
405.66	1734.34
405.85	1760.08
406.05	1750.72
406.24	1654.76
406.43	1830.30
406.62	1820.94
406.81	1842.00
407.00	1790.51
407.20	1844.34
407.39	1839.66
407.58	1827.96
407.77	1879.45
407.96	1963.71
408.15	1954.35
408.34	1977.75
408.54	1973.07
408.73	1952.01
408.92	1954.35
409.11	1907.54
409.30	2040.95
409.49	2057.33
409.68	2127.55
409.87	1987.11
410.07	2085.42
410.26	2076.06
410.45	2003.50
410.64	2157.97
410.83	2165.00
411.02	2132.23
411.21	2237.55
411.40	2200.10
411.59	2246.91
411.78	2225.85
411.98	2251.60
412.17	2218.83
412.36	2324.15
412.55	2218.83
412.74	2431.82
412.93	2483.31
413.12	2324.15
413.31	2450.54
413.50	2499.69
413.69	2539.48
413.88	2492.67
414.07	2567.57
414.26	2497.35
414.45	2469.27
414.64	2628.42
414.83	2642.46
415.02	2635.44
415.22	2747.79
415.41	2705.66
415.60	2663.53
415.79	2649.49
415.98	2733.75
416.17	2766.51
416.36	2787.58
416.55	2792.26
416.74	2803.96
416.93	2836.73
417.12	3007.59
417.31	2911.63
417.50	2895.24
417.69	3019.29
417.88	2993.55
418.07	2916.31
418.26	2918.65
418.45	2972.48
418.64	3157.38
418.83	3023.97
419.02	3084.83
419.21	3096.53
419.39	3225.26
419.58	3068.44
419.77	3038.02
419.96	3066.10
420.15	3272.07
420.34	3246.32
420.53	3356.33
420.72	3393.78
420.91	3295.47
421.10	3272.07
421.29	3332.92
421.48	3316.54
421.67	3290.79
421.86	3255.69
422.05	3342.28
422.24	3398.46
422.43	3513.14
422.61	3272.07
422.80	3454.63
422.99	3583.36
423.18	3335.26
423.37	3398.46
423.56	3574.00
423.75	3295.47
423.94	3311.86
424.13	3251.00
424.32	3300.16
424.50	3564.64
424.69	3447.61
424.88	3637.19
425.07	3527.19
425.26	3466.33
425.45	3515.48
425.64	3513.14
425.83	3499.10
426.01	3433.57
426.20	3552.93
426.39	3529.53
426.58	3524.85
426.77	3550.59
426.96	3527.19
427.15	3485.06
427.33	3478.04
427.52	3571.66
427.71	3602.08
427.90	3529.53
428.09	3676.98
428.28	3669.96
428.46	3723.79
428.65	3700.39
428.84	3756.56
429.03	3822.09
429.22	3716.77
429.40	3770.60
429.59	3801.03
429.78	3442.93
429.97	3449.95
430.16	3618.47
430.34	3723.79
430.53	3777.62
430.72	3815.07
430.91	3955.51
431.10	3728.47
431.28	4039.76
431.47	4051.47
431.66	4072.53
431.85	3969.55
432.03	4077.21
432.22	4154.45
432.41	4098.28
432.60	4091.26
432.79	3995.29
432.97	3999.98
433.16	4180.20
433.35	4135.73
433.54	4168.49
433.72	4140.41
433.91	4056.15
434.10	4313.61
434.28	4241.05
434.47	4358.08
434.66	4339.35
434.85	4264.46
435.03	4468.08
435.22	4306.59
435.41	4519.57
435.59	4578.09
435.78	4550.00
435.97	4617.88
436.16	4519.57
436.34	4512.55
436.53	4383.82
436.72	4491.49
436.90	4444.68
437.09	4662.35
437.28	4470.42
437.46	4603.83
437.65	4589.79
437.84	4695.11
438.02	4617.88
438.21	4535.96
438.40	4622.56
438.58	4755.97
438.77	4849.59
438.96	4732.56
439.14	4947.89
439.33	4952.57
439.52	4833.21
439.70	4992.36
439.89	4854.27
440.08	5020.45
440.26	4950.23
440.45	5062.58
440.63	5081.30
440.82	5210.03
441.01	5144.50
441.19	5111.73
441.38	5308.34
441.57	5144.50
441.75	5371.53
441.94	5488.56
442.12	5516.64
442.31	5586.86
442.50	5598.56
442.68	5603.24
442.87	5762.40
443.05	5462.81
443.24	5511.96
443.43	5617.29
443.61	5628.99
443.80	5811.55
443.98	5664.10
444.17	5507.28
444.35	5760.06
444.54	5774.10
444.73	5816.23
444.91	5596.22
445.10	5743.67
445.28	5603.24
445.47	5575.16
445.65	5804.53
445.84	5762.40
446.02	5991.77
446.21	5813.89
446.39	5755.38
446.58	5825.59
446.77	5902.83
446.95	5713.25
447.14	5870.06
447.32	5877.09
447.51	5914.53
447.69	5685.16
447.88	5863.04
448.06	5839.64
448.25	5921.56
448.43	5916.87
448.62	5884.11
448.80	5893.47
448.99	5959.00
449.17	6026.88
449.36	5914.53
449.54	6087.73
449.73	6249.23
449.91	6134.54
450.10	6251.57
450.28	6274.98
450.46	6153.27
450.65	6043.26
450.83	6125.18
451.02	6143.91
451.20	6424.77
451.39	6317.11
451.57	6317.11
451.76	6242.21
451.94	6352.21
452.13	6464.56
452.31	6249.23
452.49	6300.72
452.68	6356.90
452.86	6237.53
453.05	6544.14
453.23	6427.11
453.42	6523.07
453.60	6436.47
453.78	6483.28
453.97	6602.65
454.15	6604.99
454.34	6558.18
454.52	6649.46
454.70	6736.06
454.89	6623.72
455.07	6658.82
455.26	6651.80
455.44	6700.95
455.62	6846.07
455.81	6668.19
455.99	6874.15
456.17	6857.77
456.36	6892.88
456.54	6888.20
456.73	7021.61
456.91	6986.50
457.09	6981.82
457.28	7248.64
457.46	7091.82
457.64	7246.30
457.83	7145.66
458.01	7049.69
458.19	7330.56
458.38	7098.84
458.56	7098.84
458.74	7262.68
458.93	7124.59
459.11	7403.11
459.29	7047.35
459.48	7375.03
459.66	7372.69
459.84	7548.23
460.03	7534.18
460.21	7513.12
460.39	7468.65
460.57	7290.77
460.76	7520.14
460.94	7700.36
461.12	7447.58
461.31	7506.10
461.49	7538.87
461.67	7625.47
461.85	7831.43
462.04	7482.69
462.22	8325.29
462.40	7948.46
462.59	7943.78
462.77	7845.48
462.95	7999.95
463.13	7812.71
463.32	7861.86
463.50	8028.04
463.68	7955.48
463.86	7913.35
464.05	7859.52
464.23	7918.03
464.41	8119.32
464.59	7733.13
464.78	8053.78
464.96	7969.52
465.14	7906.33
465.32	8009.31
465.50	8304.22
465.69	8215.28
465.87	8212.94
466.05	8156.77
466.23	8280.82
466.41	8109.96
466.60	8421.25
466.78	8194.22
466.96	8386.14
467.14	8379.12
467.32	8540.61
467.51	8500.83
467.69	8215.28
467.87	8381.46
468.05	8631.90
468.23	8250.39
468.41	8549.98
468.60	8379.12
468.78	8620.19
468.96	8496.14
469.14	8667.00
469.32	8854.25
469.50	8493.80
469.69	8606.15
469.87	8833.18
470.05	8802.75
470.23	8910.42
470.41	8681.05
470.59	9029.79
470.77	8739.56
470.95	9041.49
471.14	9013.40
471.32	8903.40
471.50	9132.77
471.68	9174.90
471.86	9378.53
472.04	9015.74
472.22	9240.44
472.40	9207.67
472.58	9273.20
472.77	9291.93
472.95	9312.99
473.13	9694.50
473.31	9275.54
473.49	9446.40
473.67	9275.54
473.85	9413.63
474.03	9764.72
474.21	9893.44
474.39	9898.13
474.57	9907.49
474.75	9900.47
474.93	9935.57
475.12	9907.49
475.30	10064.30
475.48	9912.17
475.66	10244.52
475.84	10284.31
476.02	10113.45
476.20	10216.44
476.38	10438.79
476.56	10714.97
476.74	10384.96
476.92	10548.79
477.10	10637.73
477.28	10773.49
477.46	10775.83
477.64	10754.76
477.82	10974.77
478.00	11232.23
478.18	11117.54
478.36	11257.98
478.54	11435.86
478.72	11255.64
478.90	11686.29
479.08	11840.77
479.26	11681.61
479.44	11681.61
479.62	11632.46
479.80	12016.31
479.98	12088.87
480.16	12231.64
480.34	12074.82
480.52	12142.70
480.70	12182.49
480.88	12042.06
481.06	12351.01
481.24	12564.00
481.41	12674.00
481.59	12781.67
481.77	12872.95
481.95	12821.45
482.13	13081.25
482.31	13146.79
482.49	13495.53
482.67	13191.26
482.85	13383.18
483.03	13809.16
483.21	13685.11
483.39	13736.60
483.57	13973.00
483.74	14003.43
483.92	13987.04
484.10	14146.20
484.28	14223.44
484.46	14368.55
484.64	14656.43
484.82	14576.86
485.00	14506.64
485.18	14633.03
485.35	14956.02
485.53	14672.82
485.71	14906.87
485.89	15054.33
486.07	15059.01
486.25	15215.82
486.43	15241.57
486.61	15452.22
486.78	15630.10
486.96	15826.70
487.14	15878.19
487.32	15777.55
487.50	16198.85
487.68	16329.92
487.85	16369.71
488.03	16669.30
488.21	16718.45
488.39	16879.94
488.57	17046.12
488.75	17216.98
488.92	17460.40
489.10	17455.72
489.28	17352.73
489.46	17771.69
489.64	17745.94
489.81	18080.64
489.99	18204.69
490.17	18066.60
490.35	18310.01
490.53	18150.85
490.70	18342.78
490.88	18651.73
491.06	18764.07
491.24	18754.71
491.41	18630.66
491.59	18948.98
491.77	19066.00
491.95	19021.53
492.13	19534.11
492.30	19634.75
492.48	19648.80
492.66	19637.09
492.84	19803.27
493.01	19887.53
493.19	20147.33
493.37	20217.55
493.54	20201.16
493.72	20208.19
493.90	20402.45
494.08	20809.70
494.25	21010.99
494.43	20945.45
494.61	20879.92
494.79	20915.03
494.96	21399.52
495.14	21252.06
495.32	21488.46
495.49	21565.70
495.67	21582.08
495.85	22267.86
496.02	21802.09
496.20	22174.24
496.38	22225.73
496.55	22349.78
496.73	22684.47
496.91	22548.72
497.09	22827.24
497.26	22719.58
497.44	22963.00
497.62	23082.36
497.79	23033.21
497.97	23035.55
498.14	23470.89
498.32	23398.34
498.50	23515.36
498.67	23545.79
498.85	23475.57
499.03	24147.31
499.20	23428.76
499.38	24053.69
499.56	24013.90
499.73	24196.46
499.91	24175.39
500.08	24079.43
500.26	24367.32
500.44	24594.35
500.61	24301.78
500.79	24446.90
500.97	24456.26
501.14	24744.14
501.32	24828.40
501.49	24533.50
501.67	24975.86
501.84	24938.41
502.02	25362.04
502.20	25652.27
502.37	25481.41
502.55	25546.95
502.72	25668.66
502.90	25392.47
503.07	25364.39
503.25	25422.90
503.43	25617.16
503.60	25872.28
503.78	25923.77
503.95	25888.67
504.13	26195.28
504.30	26459.76
504.48	25940.16
504.65	26869.35
504.83	26600.19
505.01	26700.83
505.18	26911.48
505.36	26700.83
505.53	27096.38
505.71	26991.06
505.88	27089.36
506.06	26871.69
506.23	27044.89
506.41	27058.93
506.58	27587.89
506.76	27520.02
506.93	27524.70
507.11	27295.33
507.28	27545.76
507.46	27487.25
507.63	27651.09
507.81	27646.41
507.98	27763.43
508.16	27969.40
508.33	27756.41
508.50	28140.26
508.68	28524.11
508.85	28430.49
509.03	28561.56
509.20	28336.87
509.38	28781.57
509.55	28847.10
509.73	28222.18
509.90	28613.05
510.08	28683.27
510.25	28631.77
510.42	29151.37
510.60	28828.38
510.77	29572.67
510.95	29371.38
511.12	29184.14
511.30	29659.27
511.47	29422.87
511.64	29745.87
511.82	30143.76
511.99	29834.81
512.17	29436.92
512.34	29603.10
512.51	29989.28
512.69	30225.68
512.86	29956.52
513.04	30546.33
513.21	30321.64
513.38	30408.24
513.56	30331.00
513.73	30394.20
513.90	30471.43
514.08	30361.43
514.25	30457.39
514.43	30862.30
514.60	30799.11
514.77	30508.88
514.95	31290.62
515.12	30780.39
515.29	30686.76
515.47	31522.34
515.64	31122.10
515.81	31297.64
515.99	31428.71
516.16	31143.17
516.33	31468.50
516.51	31407.65
516.68	31267.22
516.85	31325.73
517.03	31447.44
517.20	31585.53
517.37	31491.91
517.54	31842.99
517.72	31842.99
517.89	31702.56
518.06	31927.25
518.24	31964.70
518.41	31842.99
518.58	32065.34
518.75	32170.66
518.93	32570.90
519.10	32168.32
519.27	32706.65
519.45	32355.57
519.62	32856.44
519.79	32765.16
519.96	32690.26
520.14	33003.89
520.31	32699.62
520.48	33029.64
520.65	32884.53
520.83	32971.13
521.00	33773.93
521.17	33656.90
521.34	33191.14
521.52	33448.60
521.69	33237.95
521.86	33572.64
522.03	33378.38
522.20	34127.35
522.38	33949.47
522.55	33591.37
522.72	33935.43
522.89	34218.63
523.07	34120.33
523.24	33778.61
523.41	34134.37
523.58	34160.12
523.75	34546.31
523.92	34436.30
524.10	34614.18
524.27	34412.90
524.44	34820.15
524.61	34679.72
524.78	34492.47
524.96	34583.76
525.13	34494.82
525.30	34745.25
525.47	34836.53
525.64	34801.43
525.81	35253.15
525.98	35480.18
526.16	35007.39
526.33	34775.68
526.50	35360.81
526.67	35328.05
526.84	35161.87
527.01	34707.80
527.18	35257.83
527.36	35732.96
527.53	35309.32
527.70	35805.52
527.87	36055.95
528.04	35997.44
528.21	35620.61
528.38	35910.84
528.55	36011.48
528.72	36161.28
528.89	36126.17
529.07	36271.28
529.24	35903.82
529.41	36259.58
529.58	36367.24
529.75	36446.82
529.92	36498.31
530.09	36439.80
530.26	36400.01
530.43	36680.88
530.60	36367.24
530.77	36444.48
530.94	37057.70
531.11	37144.30
531.28	36538.10
531.46	36917.27
531.63	37099.83
531.80	36940.68
531.97	36793.22
532.14	36580.23
532.31	36603.64
532.48	36753.43
532.65	37694.33
532.82	37277.71
532.99	37336.23
533.16	37085.79
533.33	37598.37
533.50	37663.90
533.67	37191.11
533.84	37179.41
534.01	37755.18
534.18	37771.57
534.35	37603.05
534.52	37397.08
534.69	37560.92
534.86	37560.92
535.03	38256.06
535.20	38277.12
535.37	38108.60
535.54	38506.49
535.71	37598.37
535.88	38036.05
536.05	38017.32
536.22	38146.05
536.38	38059.45
536.55	38204.56
536.72	38462.02
536.89	38403.51
537.06	38354.36
537.23	38478.41
537.40	38565.01
537.57	38595.43
537.74	38576.71
537.91	38962.90
538.08	39056.52
538.25	38773.31
538.42	38745.23
538.59	38969.92
538.75	38632.88
538.92	38555.64
539.09	39241.42
539.26	39140.78
539.43	38932.47
539.60	39283.55
539.77	38660.97
539.94	38990.98
540.11	38852.89
540.28	38990.98
540.44	39147.80
540.61	39213.34
540.78	39257.81
540.95	39421.64
541.12	38799.06
541.29	38820.13
541.46	39772.72
541.62	39297.59
541.79	39592.50
541.96	39264.83
542.13	39686.12
542.30	39524.63
542.47	39700.17
542.63	39810.17
542.80	39491.86
542.97	40282.96
543.14	39924.86
543.31	40465.52
543.48	40067.63
543.64	40575.53
543.81	40507.65
543.98	40374.24
544.15	40371.90
544.32	40711.28
544.48	40903.20
544.65	40177.64
544.82	40617.66
544.99	40353.18
545.16	40444.46
545.32	40746.39
545.49	41181.73
545.66	41200.45
545.83	40563.82
546.00	40751.07
546.16	40559.14
546.33	40603.61
546.50	40399.99
546.67	40409.35
546.83	40598.93
547.00	40760.43
547.17	41144.28
547.34	40893.84
547.50	41083.42
547.67	41106.83
547.84	41284.71
548.00	41284.71
548.17	41635.79
548.34	41390.03
548.51	41535.15
548.67	41588.98
548.84	41694.30
549.01	41305.77
549.18	41474.29
549.34	41352.58
549.51	41502.38
549.68	41710.69
549.84	41661.54
550.01	41764.52
550.18	41507.06
550.34	42351.99
550.51	41404.08
550.68	41635.79
550.84	41195.77
551.01	41722.39
551.18	41890.91
551.34	41631.11
551.51	41907.29
551.68	41890.91
551.84	42169.43
552.01	42010.28
552.18	42185.82
552.34	41687.28
552.51	42454.98
552.68	42106.24
552.84	41588.98
553.01	42677.33
553.18	42298.16
553.34	42267.73
553.51	41886.23
553.67	42298.16
553.84	42628.18
554.01	42038.36
554.17	42408.17
554.34	42794.36
554.51	42944.15
554.67	42567.32
554.84	42546.26
555.00	42665.63
555.17	42438.59
555.33	42698.39
555.50	42403.49
555.67	42401.14
555.83	42440.93
556.00	42490.09
556.16	43159.48
556.33	42899.68
556.50	42871.59
556.66	43175.86
556.83	42728.82
556.99	43119.69
557.16	43033.09
557.32	42623.50
557.49	42838.83
557.65	42597.75
557.82	42731.16
557.98	42780.31
558.15	43253.10
558.32	43449.70
558.48	43274.16
558.65	43276.51
558.81	43070.54
558.98	43138.41
559.14	42937.13
559.31	42564.98
559.47	43140.75
559.64	43393.53
559.80	43803.13
559.97	43449.70
560.13	42808.40
560.30	43255.44
560.46	43189.91
560.63	43154.80
560.79	43107.99
560.96	43812.49
561.12	43421.62
561.29	43377.15
561.45	43110.33
561.61	43276.51
561.78	43283.53
561.94	43484.81
562.11	43241.40
562.27	43042.45
562.44	43398.21
562.60	43700.14
562.77	44044.20
562.93	43290.55
563.10	43833.55
563.26	43480.13
563.42	43650.99
563.59	43433.32
563.75	43370.13
563.92	44147.18
564.08	43988.03
564.24	43814.83
564.41	43976.33
564.57	43353.74
564.74	43494.18
564.90	43854.62
565.07	43903.77
565.23	43875.68
565.39	43770.36
565.56	43913.13
565.72	43374.81
565.88	43863.98
566.05	43510.56
566.21	44016.11
566.38	43587.80
566.54	43735.25
566.70	43966.96
566.87	44158.89
567.03	43903.77
567.19	44428.05
567.36	43957.60
567.52	43962.28
567.68	43966.96
567.85	43770.36
568.01	43901.43
568.17	43945.90
568.34	43683.76
568.50	44102.71
568.66	44142.50
568.83	44191.65
568.99	43962.28
569.15	43505.88
569.32	43910.79
569.48	43803.13
569.64	44219.74
569.81	44261.87
569.97	44130.80
570.13	44051.22
570.30	43945.90
570.46	44130.80
570.62	43522.26
570.78	43690.78
570.95	43915.47
571.11	44292.30
571.27	44261.87
571.43	43688.44
571.60	44266.55
571.76	44107.40
571.92	44065.27
572.09	44261.87
572.25	43711.84
572.41	43789.08
572.57	44252.51
572.74	44491.24
572.90	44273.57
573.06	44378.90
573.22	44453.79
573.38	44512.31
573.55	44229.10
573.71	44095.69
573.87	44074.63
574.03	44081.65
574.20	44217.40
574.36	43903.77
574.52	44346.13
574.68	44453.79
574.84	44243.15
575.01	44332.09
575.17	44498.26
575.33	44163.57
575.49	44257.19
575.65	44715.93
575.82	44603.59
575.98	44509.97
576.14	44692.53
576.30	44460.82
576.46	44236.12
576.62	44231.44
576.79	44238.47
576.95	44144.84
577.11	44137.82
577.27	44657.42
577.43	44645.72
577.59	44179.95
577.75	44470.18
577.92	44142.50
578.08	44278.25
578.24	44463.16
578.40	44334.43
578.56	44367.20
578.72	44556.78
578.88	44388.26
579.04	44708.91
579.21	44369.54
579.37	44018.46
579.53	44582.52
579.69	44034.84
579.85	44619.97
580.01	44505.29
580.17	44285.28
580.33	44109.74
580.49	44533.37
580.65	44982.76
580.82	44615.29
580.98	44388.26
581.14	44154.21
581.30	44631.68
581.46	44704.23
581.62	44332.09
581.78	44198.68
581.94	44130.80
582.10	44769.77
582.26	44339.11
582.42	44451.45
582.58	44484.22
582.74	44044.20
582.90	44498.26
583.06	44701.89
583.22	44739.34
583.38	44729.98
583.54	44418.69
583.70	44439.75
583.86	44273.57
584.02	44151.87
584.18	44697.21
584.34	44414.01
584.50	44336.77
584.66	44711.25
584.82	44690.19
584.98	44849.35
585.14	44516.99
585.30	44315.70
585.46	44247.83
585.62	44168.25
585.78	44519.33
585.94	44182.29
586.10	44240.81
586.26	44498.26
586.42	44535.71
586.58	44556.78
586.74	44201.02
586.90	44212.72
587.06	44299.32
587.22	44765.09
587.38	44208.04
587.54	45272.98
587.70	44830.62
587.86	44781.47
588.02	44692.53
588.18	44650.40
588.34	44861.05
588.49	44102.71
588.65	44374.22
588.81	44112.08
588.97	44336.77
589.13	44149.53
589.29	44540.39
589.45	45057.65
589.61	44509.97
589.77	44774.45
589.93	44844.66
590.08	44734.66
590.24	44746.36
590.40	44657.42
