SpectraSuite Data File
++++++++++++++++++++++++++++++++++++
Date: Fri Oct 25 10:44:43 EDT 2013
User: price-jones
Dark Spectrum Present: No
Reference Spectrum Present: No
Number of Sampled Component Spectra: 1
Spectrometers: USB2+H05261
Integration Time (usec): 100000 (USB2+H05261)
Spectra Averaged: 1 (USB2+H05261)
Boxcar Smoothing: 0 (USB2+H05261)
Correct for Electrical Dark: No (USB2+H05261)
Strobe/Lamp Enabled: No (USB2+H05261)
Correct for Detector Non-linearity: No (USB2+H05261)
Correct for Stray Light: No (USB2+H05261)
Number of Pixels in Processed Spectrum: 2048
>>>>>Begin Processed Spectral Data<<<<<
365.73	208.31
365.92	208.31
366.12	208.31
366.32	65.54
366.52	56.17
366.72	105.32
366.91	0.00
367.11	65.54
367.31	0.00
367.51	0.00
367.70	67.88
367.90	0.00
368.10	0.00
368.30	35.11
368.49	49.15
368.69	49.15
368.89	77.24
369.09	110.01
369.28	60.85
369.48	9.36
369.68	114.69
369.87	91.28
370.07	117.03
370.27	114.69
370.47	201.29
370.66	346.40
370.86	447.04
371.06	402.57
371.25	386.19
371.45	430.66
371.65	393.21
371.84	475.13
372.04	409.59
372.24	498.53
372.44	524.28
372.63	519.60
372.83	484.49
373.03	489.17
373.22	500.87
373.42	573.43
373.62	484.49
373.81	545.34
374.01	489.17
374.21	582.79
374.40	507.90
374.60	624.92
374.79	582.79
374.99	561.73
375.19	545.34
375.38	573.43
375.58	554.71
375.78	559.39
375.97	594.50
376.17	681.10
376.37	599.18
376.56	615.56
376.76	664.71
376.95	613.22
377.15	629.60
377.35	582.79
377.54	592.16
377.74	685.78
377.93	571.09
378.13	643.65
378.33	606.20
378.52	622.58
378.72	622.58
378.91	655.35
379.11	559.39
379.31	657.69
379.50	585.13
379.70	638.97
379.89	615.56
380.09	624.92
380.28	631.94
380.48	699.82
380.68	674.07
380.87	645.99
381.07	648.33
381.26	645.99
381.46	671.73
381.65	706.84
381.85	603.86
382.04	779.40
382.24	683.44
382.43	657.69
382.63	690.46
382.83	709.18
383.02	875.36
383.22	653.01
383.41	734.93
383.61	617.90
383.80	706.84
384.00	683.44
384.19	709.18
384.39	697.48
384.58	723.23
384.78	732.59
384.97	805.14
385.17	758.33
385.36	725.57
385.56	791.10
385.75	704.50
385.95	835.57
386.14	807.48
386.34	779.40
386.53	793.44
386.72	816.85
386.92	901.11
387.11	851.96
387.31	770.04
387.50	828.55
387.70	833.23
387.89	805.14
388.09	819.19
388.28	812.17
388.48	856.64
388.67	889.40
388.86	873.02
389.06	856.64
389.25	891.74
389.45	971.32
389.64	858.98
389.84	917.49
390.03	968.98
390.22	931.53
390.42	901.11
390.61	954.94
390.81	936.21
391.00	952.60
391.19	973.66
391.39	936.21
391.58	940.90
391.78	961.96
391.97	943.24
392.16	987.71
392.36	1022.81
392.55	994.73
392.75	1039.20
392.94	999.41
393.13	971.32
393.33	929.19
393.52	929.19
393.71	1153.88
393.91	1039.20
394.10	1090.69
394.29	1102.39
394.49	1107.07
394.68	1123.46
394.88	1074.31
395.07	1114.10
395.26	983.02
395.46	1121.12
395.65	1170.27
395.84	1153.88
396.04	1163.25
396.23	1163.25
396.42	1071.97
396.62	1055.58
396.81	1090.69
397.00	1139.84
397.19	1146.86
397.39	1242.82
397.58	1308.36
397.77	1242.82
397.97	1308.36
398.16	1219.42
398.35	1315.38
398.55	1280.27
398.74	1324.74
398.93	1392.62
399.12	1306.02
399.32	1343.47
399.51	1336.45
399.70	1331.76
399.90	1345.81
400.09	1418.36
400.28	1390.28
400.47	1345.81
400.67	1364.53
400.86	1446.45
401.05	1469.86
401.24	1420.71
401.44	1523.69
401.63	1540.07
401.82	1521.35
402.01	1558.80
402.21	1533.05
402.40	1549.43
402.59	1516.67
402.78	1526.03
402.97	1530.71
403.17	1500.28
403.36	1661.78
403.55	1610.29
403.74	1680.50
403.93	1713.27
404.13	1732.00
404.32	1673.48
404.51	1706.25
404.70	1713.27
404.89	1668.80
405.09	1652.42
405.28	1734.34
405.47	1687.53
405.66	1746.04
405.85	1767.10
406.05	1818.60
406.24	1743.70
406.43	1802.21
406.62	1895.83
406.81	1933.28
407.00	1823.28
407.20	1853.70
407.39	1863.07
407.58	1914.56
407.77	1874.77
407.96	1881.79
408.15	2043.29
408.34	1984.77
408.54	2108.82
408.73	2038.61
408.92	2031.58
409.11	2136.91
409.30	2113.50
409.49	2174.36
409.68	2186.06
409.87	2019.88
410.07	2029.24
410.26	2143.93
410.45	2209.47
410.64	2326.49
410.83	2270.32
411.02	2209.47
411.21	2328.83
411.40	2392.03
411.59	2324.15
411.78	2382.67
411.98	2387.35
412.17	2366.28
412.36	2377.98
412.55	2368.62
412.74	2497.35
412.93	2459.90
413.12	2441.18
413.31	2551.18
413.50	2520.76
413.69	2499.69
413.88	2626.08
414.07	2628.42
414.26	2658.85
414.45	2576.93
414.64	2696.30
414.83	2647.15
415.02	2841.41
415.22	2750.13
415.41	2820.35
415.60	2860.13
415.79	2846.09
415.98	2869.50
416.17	2925.67
416.36	2909.29
416.55	2956.10
416.74	2953.76
416.93	2862.48
417.12	2913.97
417.31	2916.31
417.50	3000.57
417.69	3101.21
417.88	3061.42
418.07	3094.19
418.26	3169.09
418.45	3066.10
418.64	3213.56
418.83	3283.77
419.02	3150.36
419.21	3183.13
419.39	3201.85
419.58	3185.47
419.77	3143.34
419.96	3311.86
420.15	3225.26
420.34	3234.62
420.53	3300.16
420.72	3480.38
420.91	3412.50
421.10	3492.08
421.29	3557.61
421.48	3365.69
421.67	3379.73
421.86	3372.71
422.05	3356.33
422.24	3318.88
422.43	3480.38
422.61	3447.61
422.80	3620.81
422.99	3508.46
423.18	3639.53
423.37	3576.34
423.56	3527.19
423.75	3463.99
423.94	3574.00
424.13	3372.71
424.32	3339.94
424.50	3700.39
424.69	3562.30
424.88	3686.34
425.07	3674.64
425.26	3590.38
425.45	3447.61
425.64	3538.89
425.83	3602.08
426.01	3648.90
426.20	3698.05
426.39	3681.66
426.58	3623.15
426.77	3620.81
426.96	3466.33
427.15	3672.30
427.33	3754.22
427.52	3611.45
427.71	3688.68
427.90	3850.18
428.09	3796.35
428.28	3784.65
428.46	3796.35
428.65	3770.60
428.84	3936.78
429.03	3985.93
429.22	3840.82
429.40	3723.79
429.59	3899.33
429.78	3676.98
429.97	3705.07
430.16	3859.54
430.34	3901.67
430.53	3875.93
430.72	3880.61
430.91	3943.80
431.10	3983.59
431.28	4126.36
431.47	4128.70
431.66	4126.36
431.85	3967.21
432.03	4184.88
432.22	4390.84
432.41	4257.43
432.60	4229.35
432.79	4362.76
432.97	4257.43
433.16	4395.53
433.35	4201.26
433.54	4369.78
433.72	4353.40
433.91	4292.54
434.10	4458.72
434.28	4252.75
434.47	4383.82
434.66	4538.30
434.85	4479.79
435.03	4386.16
435.22	4500.85
435.41	4762.99
435.59	4540.64
435.78	4624.90
435.97	4589.79
436.16	4540.64
436.34	4587.45
436.53	4718.52
436.72	4645.96
436.90	4601.49
437.09	4732.56
437.28	4678.73
437.46	4830.87
437.65	4533.62
437.84	4835.55
438.02	4720.86
438.21	4674.05
438.40	4561.70
438.58	4926.83
438.77	4847.25
438.96	4950.23
439.14	4903.42
439.33	5149.18
439.52	4968.96
439.70	4975.98
439.89	5121.09
440.08	5114.07
440.26	5320.04
440.45	5207.69
440.63	5214.71
440.82	5462.81
441.01	5240.46
441.19	5488.56
441.38	5535.37
441.57	5451.11
441.75	5561.11
441.94	5699.20
442.12	5652.39
442.31	5916.87
442.50	5724.95
442.68	5741.33
442.87	5687.50
443.05	5813.89
443.24	5902.83
443.43	5806.87
443.61	5664.10
443.80	5930.92
443.98	5827.93
444.17	5589.20
444.35	5900.49
444.54	5888.79
444.73	5804.53
444.91	5738.99
445.10	5919.21
445.28	6129.86
445.47	5853.68
445.65	5921.56
445.84	5881.77
446.02	6132.20
446.21	5994.11
446.39	5987.09
446.58	6125.18
446.77	6087.73
446.95	5895.81
447.14	6017.52
447.32	6054.97
447.51	6038.58
447.69	5966.03
447.88	6064.33
448.06	6017.52
448.25	6139.23
448.43	5968.37
448.62	6061.99
448.80	6005.81
448.99	6218.80
449.17	6143.91
449.36	6164.97
449.54	6204.76
449.73	6312.42
449.91	6401.37
450.10	6604.99
450.28	6534.78
450.46	6431.79
450.65	6530.09
450.83	6403.71
451.02	6375.62
451.20	6626.06
451.39	6427.11
451.57	6487.96
451.76	6478.60
451.94	6469.24
452.13	6670.53
452.31	6703.29
452.49	6511.37
452.68	6670.53
452.86	6534.78
453.05	6436.47
453.23	6658.82
453.42	6541.80
453.60	6654.14
453.78	6920.96
453.97	6766.49
454.15	6707.98
454.34	6623.72
454.52	6672.87
454.70	6682.23
454.89	6832.02
455.07	6897.56
455.26	6970.12
455.44	6988.84
455.62	7049.69
455.81	6958.41
455.99	7133.95
456.17	7035.65
456.36	7077.78
456.54	7274.38
456.73	7091.82
456.91	7353.96
457.09	7330.56
457.28	7571.63
457.46	7232.26
457.64	7290.77
457.83	7368.01
458.01	7138.63
458.19	7246.30
458.38	7269.70
458.56	7691.00
458.74	7651.21
458.93	7487.37
459.11	7414.82
459.29	7527.16
459.48	7543.55
459.66	7454.61
459.84	7517.80
460.03	7714.41
460.21	7611.42
460.39	7590.36
460.57	7609.08
460.76	7831.43
460.94	7817.39
461.12	7939.10
461.31	7749.51
461.49	7660.57
461.67	7803.35
461.85	8021.02
462.04	7892.29
462.22	8077.19
462.40	8100.59
462.59	8011.65
462.77	8152.09
462.95	7911.01
463.13	8262.09
463.32	8114.64
463.50	8131.02
463.68	8138.04
463.86	7934.42
464.05	8116.98
464.23	8133.36
464.41	8238.69
464.59	8131.02
464.78	8414.23
464.96	8365.07
465.14	8145.06
465.32	8524.23
465.50	8542.96
465.69	8636.58
465.87	8322.94
466.05	8269.11
466.23	8627.21
466.41	8369.76
466.60	8521.89
466.78	8322.94
466.96	8491.46
467.14	8498.49
467.32	8564.02
467.51	8826.16
467.69	8531.25
467.87	8629.56
468.05	8498.49
468.23	8748.92
468.41	8762.97
468.60	8837.86
468.78	8805.10
468.96	8683.39
469.14	8903.40
469.32	9022.77
469.50	8849.57
469.69	8952.55
469.87	9109.36
470.05	9188.94
470.23	9085.96
470.41	8997.02
470.59	8924.46
470.77	9135.11
470.95	9137.45
471.14	9298.95
471.32	9071.92
471.50	9451.08
471.68	9521.30
471.86	9254.48
472.04	9404.27
472.22	9757.69
472.40	9423.00
472.58	9635.99
472.77	9570.45
472.95	9837.27
473.13	9919.19
473.31	9689.82
473.49	9657.05
473.67	9753.01
473.85	9722.59
474.03	10052.60
474.21	9998.77
474.39	10068.98
474.57	9886.42
474.75	10148.56
474.93	10319.42
475.12	10197.71
475.30	10305.38
475.48	10230.48
475.66	10246.87
475.84	10588.58
476.02	10445.81
476.20	10373.25
476.38	10436.45
476.56	10923.28
476.74	10815.62
476.92	10712.63
477.10	10752.42
477.28	11136.27
477.46	10888.17
477.64	11253.30
477.82	11190.10
478.00	11325.85
478.18	11480.33
478.36	11487.35
478.54	11604.38
478.72	11541.18
478.90	11925.03
479.08	11880.56
479.26	11957.80
479.44	12138.02
479.62	11939.07
479.80	12521.87
479.98	12053.76
480.16	12507.82
480.34	12379.09
480.52	12475.06
480.70	12989.97
480.88	12556.97
481.06	12753.58
481.24	12830.82
481.41	12964.23
481.59	13179.56
481.77	13174.88
481.95	13301.26
482.13	13207.64
482.31	13376.16
482.49	13596.17
482.67	13626.60
482.85	13738.94
483.03	14015.13
483.21	14108.75
483.39	14354.51
483.57	13811.50
483.74	14277.27
483.92	14230.46
484.10	14253.86
484.28	14457.49
484.46	14860.06
484.64	14906.87
484.82	14616.65
485.00	15192.42
485.18	15056.67
485.35	15449.88
485.53	15042.62
485.71	15016.88
485.89	15066.03
486.07	15508.39
486.25	15454.56
486.43	15749.46
486.61	15782.23
486.78	16166.08
486.96	16049.05
487.14	16533.54
487.32	16126.29
487.50	16538.23
487.68	16610.78
487.85	17149.11
488.03	16727.81
488.21	17317.62
488.39	17111.66
488.57	17184.21
488.75	17472.10
488.92	17722.54
489.10	17900.42
489.28	17813.82
489.46	18192.98
489.64	18022.12
489.81	18452.78
489.99	18560.45
490.17	18693.86
490.35	18843.65
490.53	18745.35
490.70	18939.62
490.88	19068.34
491.06	19005.15
491.24	19346.87
491.41	19140.90
491.59	19473.26
491.77	19288.35
491.95	19510.71
492.13	19749.44
492.30	20063.07
492.48	19955.41
492.66	19969.45
492.84	20060.73
493.01	20407.13
493.19	20159.03
493.37	20631.82
493.54	20790.98
493.72	20954.82
493.90	20812.04
494.08	20978.22
494.25	21619.53
494.43	21261.43
494.61	21495.48
494.79	21727.19
494.96	21638.25
495.14	21851.24
495.32	22136.79
495.49	21813.79
495.67	21745.92
495.85	22410.63
496.02	22513.61
496.20	22497.23
496.38	22504.25
496.55	22394.25
496.73	22981.72
496.91	22609.58
497.09	23063.64
497.26	23318.76
497.44	22906.82
497.62	23250.88
497.79	23693.24
497.97	23543.45
498.14	23679.20
498.32	23627.71
498.50	23775.16
498.67	24159.01
498.85	24058.37
499.03	24329.87
499.20	24149.65
499.38	24269.01
499.56	24547.54
499.73	24451.58
499.91	24844.79
500.08	24666.91
500.26	24676.27
500.44	24624.78
500.61	25120.97
500.79	24357.96
500.97	24886.92
501.14	25046.07
501.32	25420.56
501.49	25371.41
501.67	25317.57
501.84	25476.73
502.02	25661.63
502.20	25663.97
502.37	25846.54
502.55	25902.71
502.72	25891.01
502.90	26279.54
503.07	26192.94
503.25	26176.55
503.43	26164.85
503.60	26279.54
503.78	26253.79
503.95	26153.15
504.13	26441.03
504.30	26520.61
504.48	26799.13
504.65	27276.60
504.83	27075.32
505.01	27335.12
505.18	26817.86
505.36	27431.08
505.53	27484.91
505.71	27274.26
505.88	27573.85
506.06	27393.63
506.23	27445.12
506.41	27681.52
506.58	27910.89
506.76	28053.66
506.93	27730.67
507.11	27868.76
507.28	28250.27
507.46	27875.78
507.63	28004.51
507.81	28098.13
507.98	28173.03
508.16	28140.26
508.33	28521.77
508.50	28753.48
508.68	28753.48
508.85	29069.45
509.03	29123.29
509.20	28783.91
509.38	29277.76
509.55	29179.46
509.73	29413.51
509.90	29097.54
510.08	29235.63
510.25	29032.00
510.42	29743.53
510.60	29727.14
510.77	29734.17
510.95	29731.83
511.12	29497.77
511.30	29902.68
511.47	30546.33
511.64	30033.75
511.82	30199.93
511.99	30040.78
512.17	30232.70
512.34	30419.94
512.51	30616.55
512.69	30726.55
512.86	30506.54
513.04	31030.82
513.21	30960.61
513.38	30684.42
513.56	30862.30
513.73	30485.48
513.90	30831.88
514.08	30843.58
514.25	31428.71
514.43	31311.69
514.60	31211.04
514.77	31309.35
514.95	31232.11
515.12	31227.43
515.29	31604.25
515.47	31587.87
515.64	31885.12
515.81	31590.21
515.99	31686.17
516.16	31899.16
516.33	31683.83
516.51	31798.52
516.68	31681.49
516.85	31775.11
517.03	32058.32
517.20	31999.80
517.37	32247.90
517.54	32699.62
517.72	32116.83
517.89	32163.64
518.06	32259.60
518.24	32184.71
518.41	32744.09
518.58	32357.91
518.75	32776.86
518.93	32772.18
519.10	32444.51
519.27	32996.87
519.45	33151.35
519.62	32959.42
519.79	33275.40
519.96	33462.64
520.14	33806.70
520.31	33001.55
520.48	33027.30
520.65	33380.72
520.83	33638.18
521.00	33582.01
521.17	33404.13
521.34	34040.75
521.52	33961.17
521.69	33879.25
521.86	34113.31
522.03	34298.21
522.20	34096.92
522.38	34366.09
522.55	34370.77
522.72	34375.45
522.89	34115.65
523.07	34375.45
523.24	34595.46
523.41	34881.00
523.58	34726.53
523.75	35356.13
523.92	35236.77
524.10	35342.09
524.27	34873.98
524.44	35115.06
524.61	34873.98
524.78	35534.01
524.96	35152.51
525.13	35431.03
525.30	35391.24
525.47	35356.13
525.64	35477.84
525.81	35695.51
525.98	35445.07
526.16	35501.25
526.33	35255.49
526.50	35477.84
526.67	35246.13
526.84	35281.24
527.01	35590.19
527.18	35849.99
527.36	36163.62
527.53	35978.72
527.70	36524.06
527.87	36252.56
528.04	36175.32
528.21	36493.63
528.38	36425.76
528.55	36753.43
528.72	36694.92
528.89	36910.25
529.07	36531.08
529.24	36250.22
529.41	36517.04
529.58	36662.15
529.75	36495.97
529.92	36856.42
530.09	36781.52
530.26	36896.20
530.43	37378.36
530.60	36898.55
530.77	37153.66
530.94	37399.42
531.11	37118.56
531.28	37324.52
531.46	37158.34
531.63	37422.83
531.80	37364.31
531.97	37467.30
532.14	37247.29
532.31	37081.11
532.48	37422.83
532.65	37567.94
532.82	37640.50
532.99	38174.14
533.16	37198.13
533.33	38120.31
533.50	38099.24
533.67	37755.18
533.84	37638.15
534.01	37900.29
534.18	37738.80
534.35	38242.01
534.52	38377.76
534.69	37926.04
534.86	38429.26
535.03	38237.33
535.20	38213.93
535.37	38693.74
535.54	38632.88
535.71	38438.62
535.88	38574.37
536.05	38780.34
536.22	38733.53
536.38	38382.45
536.55	38726.50
536.72	38686.71
536.89	38740.55
537.06	38766.29
537.23	39229.72
537.40	38972.26
537.57	39222.70
537.74	39051.84
537.91	39316.32
538.08	39021.41
538.25	38859.91
538.42	38806.08
538.59	39201.63
538.75	38876.30
538.92	39533.99
539.09	39344.41
539.26	39220.36
539.43	39819.53
539.60	39318.66
539.77	39037.80
539.94	39393.56
540.11	39316.32
540.28	39316.32
540.44	39243.76
540.61	39978.69
540.78	39402.92
540.95	40016.14
541.12	39342.06
541.29	39388.88
541.46	39487.18
541.62	39754.00
541.79	39985.71
541.96	39854.64
542.13	39847.62
542.30	39810.17
542.47	40037.20
542.63	40292.32
542.80	40229.13
542.97	40643.40
543.14	40418.71
543.31	40416.37
543.48	40769.79
543.64	40889.16
543.81	40594.25
543.98	41003.85
544.15	40746.39
544.32	41123.21
544.48	40959.38
544.65	41467.27
544.82	40713.62
544.99	40395.31
545.16	41013.21
545.32	41195.77
545.49	41013.21
545.66	41273.01
545.83	41441.53
546.00	41720.05
546.16	41177.04
546.33	41020.23
546.50	40676.17
546.67	41095.13
546.83	40797.88
547.00	41130.23
547.17	41036.61
547.34	41434.50
547.50	41022.57
547.67	41574.94
547.84	41577.28
548.00	41525.78
548.17	41816.01
548.34	41722.39
548.51	41666.22
548.67	41619.41
548.84	41787.92
549.01	41270.67
549.18	41596.00
549.34	42082.83
549.51	42103.90
549.68	41839.42
549.84	41626.43
550.01	42279.44
550.18	41649.83
550.34	42066.45
550.51	41666.22
550.68	42354.33
550.84	41605.36
551.01	42223.26
551.18	42426.89
551.34	42164.75
551.51	42167.09
551.68	42719.46
551.84	42150.71
552.01	42218.58
552.18	42129.64
552.34	42185.82
552.51	42740.52
552.68	41808.99
552.84	42506.47
553.01	42520.51
553.18	42019.64
553.34	42054.75
553.51	42337.95
553.67	42607.11
553.84	42799.04
554.01	42529.87
554.17	42855.21
554.34	42572.00
554.51	42735.84
554.67	43098.62
554.84	42838.83
555.00	42295.82
555.17	42590.73
555.33	42885.64
555.50	42862.23
555.67	42494.77
555.83	42777.97
556.00	43091.60
556.16	43138.41
556.33	43239.06
556.50	42934.79
556.66	43196.93
556.83	43182.88
556.99	43100.97
557.16	43208.63
557.32	43367.79
557.49	43220.33
557.65	42801.38
557.82	43047.13
557.98	43283.53
558.15	43325.66
558.32	43072.88
558.48	43250.76
558.65	43423.96
558.81	42979.26
558.98	43295.23
559.14	43346.72
559.31	43164.16
559.47	43482.47
559.64	43863.98
559.80	43803.13
559.97	43445.02
560.13	43012.02
560.30	43077.56
560.46	43136.07
560.63	43716.53
560.79	43674.40
560.96	43746.95
561.12	43662.69
561.29	43824.19
561.45	43227.35
561.61	43690.78
561.78	43753.97
561.94	43056.50
562.11	43573.75
562.27	43688.44
562.44	43658.01
562.60	43889.73
562.77	43693.12
562.93	43749.29
563.10	43505.88
563.26	43023.73
563.42	43775.04
563.59	43751.63
563.75	43655.67
563.92	44165.91
564.08	44147.18
564.24	44081.65
564.41	44275.91
564.57	43672.06
564.74	44236.12
564.90	43526.94
565.07	43873.34
565.23	43969.30
565.39	44311.02
565.56	43948.24
565.72	43866.32
565.88	44037.18
566.05	43908.45
566.21	43735.25
566.38	43735.25
566.54	43927.17
566.70	44706.57
566.87	44446.77
567.03	43992.71
567.19	44472.52
567.36	44133.14
567.52	44149.53
567.68	44182.29
567.85	44226.76
568.01	44357.83
568.17	43768.02
568.34	44163.57
568.50	44172.93
568.66	44465.50
568.83	44126.12
568.99	43866.32
569.15	44189.31
569.32	44114.42
569.48	43887.39
569.64	44495.92
569.81	44318.04
569.97	44229.10
570.13	44116.76
570.30	43952.92
570.46	44336.77
570.62	43817.17
570.78	43775.04
570.95	43896.75
571.11	44278.25
571.27	44037.18
571.43	44147.18
571.60	44060.58
571.76	43882.70
571.92	44222.08
572.09	44151.87
572.25	44032.50
572.41	44512.31
572.57	44463.16
572.74	44369.54
572.90	44495.92
573.06	44367.20
573.22	44280.60
573.38	44414.01
573.55	44371.88
573.71	44294.64
573.87	43976.33
574.03	44154.21
574.20	44552.10
574.36	44353.15
574.52	44629.34
574.68	44381.24
574.84	44495.92
575.01	44203.36
575.17	44435.07
575.33	44720.62
575.49	44065.27
575.65	44671.46
575.82	44758.06
575.98	44430.39
576.14	44739.34
576.30	44563.80
576.46	44388.26
576.62	44538.05
576.79	44133.14
576.95	44158.89
577.11	44559.12
577.27	44439.75
577.43	44641.04
577.59	44514.65
577.75	44676.15
577.92	43959.94
578.08	44385.92
578.24	44519.33
578.40	44318.04
578.56	44226.76
578.72	44556.78
578.88	44875.09
579.04	44669.12
579.21	44418.69
579.37	43906.11
579.53	44208.04
579.69	44348.47
579.85	44514.65
580.01	44313.36
580.17	44928.92
580.33	44884.45
580.49	44737.00
580.65	44563.80
580.82	44739.34
580.98	44634.02
581.14	44512.31
581.30	44865.73
581.46	44680.83
581.62	44488.90
581.78	44533.37
581.94	44559.12
582.10	44577.84
582.26	44748.70
582.42	44446.77
582.58	44570.82
582.74	44296.98
582.90	44931.26
583.06	44474.86
583.22	44282.94
583.38	44605.93
583.54	44949.99
583.70	44690.19
583.86	44662.10
584.02	44493.58
584.18	44610.61
584.34	44329.75
584.50	44516.99
584.66	44524.01
584.82	44549.76
584.98	44987.44
585.14	45064.67
585.30	44383.58
585.46	44884.45
585.62	44524.01
585.78	44439.75
585.94	44285.28
586.10	44772.11
586.26	44729.98
586.42	44973.39
586.58	44617.63
586.74	44809.56
586.90	44554.44
587.06	45043.61
587.22	44638.70
587.38	44568.48
587.54	44643.38
587.70	44940.63
587.86	44531.03
588.02	44615.29
588.18	44830.62
588.34	44514.65
588.49	44648.06
588.65	43868.66
588.81	44348.47
588.97	44608.27
589.13	44172.93
589.29	44713.59
589.45	44107.40
589.61	44512.31
589.77	45223.83
589.93	44975.73
590.08	44545.08
590.24	44987.44
