SpectraSuite Data File
++++++++++++++++++++++++++++++++++++
Date: Fri Oct 25 10:43:46 EDT 2013
User: price-jones
Dark Spectrum Present: No
Reference Spectrum Present: No
Number of Sampled Component Spectra: 1
Spectrometers: USB2+H05261
Integration Time (usec): 100000 (USB2+H05261)
Spectra Averaged: 1 (USB2+H05261)
Boxcar Smoothing: 0 (USB2+H05261)
Correct for Electrical Dark: No (USB2+H05261)
Strobe/Lamp Enabled: No (USB2+H05261)
Correct for Detector Non-linearity: No (USB2+H05261)
Correct for Stray Light: No (USB2+H05261)
Number of Pixels in Processed Spectrum: 2048
>>>>>Begin Processed Spectral Data<<<<<
365.73	152.13
365.92	152.13
366.12	152.13
366.32	70.22
366.52	23.41
366.72	60.85
366.91	4.68
367.11	0.00
367.31	70.22
367.51	53.83
367.70	0.00
367.90	16.38
368.10	23.41
368.30	39.79
368.49	18.72
368.69	70.22
368.89	58.51
369.09	84.26
369.28	53.83
369.48	37.45
369.68	79.58
369.87	98.30
370.07	37.45
370.27	161.50
370.47	131.07
370.66	379.17
370.86	418.96
371.06	526.62
371.25	498.53
371.45	372.15
371.65	463.43
371.84	437.68
372.04	435.34
372.24	470.45
372.44	374.49
372.63	512.58
372.83	468.11
373.03	442.36
373.22	566.41
373.42	472.79
373.62	543.00
373.81	589.82
374.01	451.72
374.21	543.00
374.40	407.25
374.60	610.88
374.79	578.11
374.99	575.77
375.19	582.79
375.38	622.58
375.58	622.58
375.78	566.41
375.97	573.43
376.17	643.65
376.37	538.32
376.56	599.18
376.76	627.26
376.95	627.26
377.15	617.90
377.35	653.01
377.54	641.31
377.74	671.73
377.93	653.01
378.13	631.94
378.33	662.37
378.52	599.18
378.72	636.63
378.91	711.52
379.11	669.39
379.31	664.71
379.50	636.63
379.70	760.67
379.89	753.65
380.09	554.71
380.28	603.86
380.48	690.46
380.68	706.84
380.87	725.57
381.07	592.16
381.26	739.61
381.46	650.67
381.65	704.50
381.85	690.46
382.04	676.41
382.24	662.37
382.43	706.84
382.63	709.18
382.83	774.72
383.02	760.67
383.22	847.27
383.41	704.50
383.61	669.39
383.80	741.95
384.00	739.61
384.19	760.67
384.39	788.76
384.58	751.31
384.78	741.95
384.97	781.74
385.17	835.57
385.36	889.40
385.56	798.12
385.75	805.14
385.95	889.40
386.14	830.89
386.34	816.85
386.53	856.64
386.72	748.97
386.92	812.17
387.11	880.04
387.31	870.68
387.50	884.72
387.70	833.23
387.89	863.66
388.09	798.12
388.28	812.17
388.48	819.19
388.67	922.17
388.86	889.40
389.06	933.87
389.25	994.73
389.45	957.28
389.64	938.55
389.84	1025.15
390.03	1006.43
390.22	1034.52
390.42	954.94
390.61	917.49
390.81	1069.62
391.00	1055.58
391.19	1022.81
391.39	1062.60
391.58	1048.56
391.78	1036.86
391.97	976.00
392.16	957.28
392.36	1015.79
392.55	1015.79
392.75	954.94
392.94	1022.81
393.13	961.96
393.33	980.68
393.52	1041.54
393.71	1043.88
393.91	980.68
394.10	1107.07
394.29	1144.52
394.49	1172.61
394.68	1252.19
394.88	1188.99
395.07	1266.23
395.26	1151.54
395.46	1130.48
395.65	1247.51
395.84	1273.25
396.04	1191.33
396.23	1174.95
396.42	1238.14
396.62	1247.51
396.81	1156.22
397.00	1163.25
397.19	1280.27
397.39	1275.59
397.58	1240.48
397.77	1348.15
397.97	1460.49
398.16	1369.21
398.35	1378.58
398.55	1409.00
398.74	1453.47
398.93	1439.43
399.12	1523.69
399.32	1533.05
399.51	1488.58
399.70	1523.69
399.90	1504.96
400.09	1509.65
400.28	1647.74
400.47	1638.38
400.67	1659.44
400.86	1589.22
401.05	1603.27
401.24	1575.18
401.44	1717.95
401.63	1746.04
401.82	1661.78
402.01	1659.44
402.21	1717.95
402.40	1724.97
402.59	1671.14
402.78	1727.32
402.97	1666.46
403.17	1771.79
403.36	1790.51
403.55	1842.00
403.74	1879.45
403.93	1809.23
404.13	1720.29
404.32	1739.02
404.51	1743.70
404.70	1788.17
404.89	1933.28
405.09	1914.56
405.28	1905.20
405.47	1849.02
405.66	1881.79
405.85	1923.92
406.05	2008.18
406.24	2073.71
406.43	1961.37
406.62	2022.22
406.81	2052.65
407.00	1928.60
407.20	1996.48
407.39	2118.18
407.58	2146.27
407.77	2059.67
407.96	2122.87
408.15	2160.31
408.34	2197.76
408.54	2270.32
408.73	2305.43
408.92	2239.89
409.11	2300.75
409.30	2204.78
409.49	2155.63
409.68	2270.32
409.87	2228.19
410.07	2188.40
410.26	2359.26
410.45	2408.41
410.64	2333.51
410.83	2630.76
411.02	2443.52
411.21	2612.04
411.40	2485.65
411.59	2532.46
411.78	2572.25
411.98	2518.42
412.17	2663.53
412.36	2572.25
412.55	2654.17
412.74	2665.87
412.93	2588.63
413.12	2722.04
413.31	2729.06
413.50	2785.24
413.69	2860.13
413.88	2832.05
414.07	2825.03
414.26	2946.73
414.45	2963.12
414.64	2871.84
414.83	2942.05
415.02	3028.65
415.22	2939.71
415.41	2923.33
415.60	3087.17
415.79	3103.55
415.98	3267.39
416.17	3239.30
416.36	3143.34
416.55	3194.83
416.74	3225.26
416.93	3094.19
417.12	3197.17
417.31	3304.84
417.50	3208.87
417.69	3419.52
417.88	3386.76
418.07	3407.82
418.26	3400.80
418.45	3375.05
418.64	3386.76
418.83	3459.31
419.02	3550.59
419.21	3508.46
419.39	3435.91
419.58	3417.18
419.77	3421.86
419.96	3552.93
420.15	3695.71
420.34	3520.17
420.53	3667.62
420.72	3655.92
420.91	3770.60
421.10	3789.33
421.29	3737.84
421.48	3709.75
421.67	3789.33
421.86	3733.15
422.05	3698.05
422.24	3691.02
422.43	3726.13
422.61	3892.31
422.80	3840.82
422.99	3850.18
423.18	3777.62
423.37	3911.04
423.56	3845.50
423.75	3819.75
423.94	3808.05
424.13	3613.79
424.32	3812.73
424.50	3786.99
424.69	3922.74
424.88	4037.42
425.07	3730.81
425.26	3950.82
425.45	3852.52
425.64	3829.12
425.83	3836.14
426.01	4039.76
426.20	4018.70
426.39	3864.22
426.58	3796.35
426.77	3887.63
426.96	3904.01
427.15	3974.23
427.33	3847.84
427.52	4074.87
427.71	4070.19
427.90	4070.19
428.09	4119.34
428.28	4161.47
428.46	4124.02
428.65	4112.32
428.84	4084.23
429.03	4243.39
429.22	4107.64
429.40	4039.76
429.59	4046.79
429.78	3843.16
429.97	3913.38
430.16	3955.51
430.34	3953.16
430.53	4283.18
430.72	4175.52
430.91	4257.43
431.10	4245.73
431.28	4327.65
431.47	4435.32
431.66	4531.28
431.85	4423.61
432.03	4421.27
432.22	4568.73
432.41	4662.35
432.60	4631.92
432.79	4641.28
432.97	4746.61
433.16	4505.53
433.35	4580.43
433.54	4585.11
433.72	4496.17
433.91	4634.26
434.10	4620.22
434.28	4645.96
434.47	4629.58
434.66	4762.99
434.85	4692.77
435.03	4877.68
435.22	4917.47
435.41	4933.85
435.59	4940.87
435.78	5121.09
435.97	5090.67
436.16	5097.69
436.34	5043.85
436.53	5062.58
436.72	5011.09
436.90	4987.68
437.09	5027.47
437.28	5057.90
437.46	5235.78
437.65	5125.77
437.84	5170.24
438.02	4891.72
438.21	5057.90
438.40	5027.47
438.58	5064.92
438.77	5275.57
438.96	5369.19
439.14	5657.07
439.33	5586.86
439.52	5537.71
439.70	5469.83
439.89	5518.98
440.08	5518.98
440.26	5544.73
440.45	5645.37
440.63	5685.16
440.82	5891.13
441.01	5774.10
441.19	5844.32
441.38	5954.32
441.57	5902.83
441.75	6061.99
441.94	6251.57
442.12	6143.91
442.31	6293.70
442.50	5975.39
442.68	6225.82
442.87	6228.17
443.05	6246.89
443.24	6595.63
443.43	6314.77
443.61	6270.30
443.80	6555.84
443.98	6258.59
444.17	6122.84
444.35	6286.68
444.54	6551.16
444.73	6396.68
444.91	6399.02
445.10	6452.86
445.28	6324.13
445.47	6253.91
445.65	6324.13
445.84	6303.06
446.02	6375.62
446.21	6352.21
446.39	6221.14
446.58	6581.59
446.77	6546.48
446.95	6562.86
447.14	6590.95
447.32	6799.26
447.51	6609.67
447.69	6502.01
447.88	6551.16
448.06	6504.35
448.25	6509.03
448.43	6546.48
448.62	6677.55
448.80	6642.44
448.99	6841.39
449.17	6700.95
449.36	6520.73
449.54	6869.47
449.73	6946.71
449.91	6920.96
450.10	6977.14
450.28	7117.57
450.46	7080.12
450.65	7180.76
450.83	7049.69
451.02	7000.54
451.20	7054.37
451.39	6967.77
451.57	6965.43
451.76	7140.97
451.94	7012.24
452.13	7213.53
452.31	7030.97
452.49	7037.99
452.68	7204.17
452.86	7176.08
453.05	7140.97
453.23	7576.31
453.42	7129.27
453.60	7246.30
453.78	7356.30
453.97	7269.70
454.15	7243.96
454.34	7360.98
454.52	7375.03
454.70	7487.37
454.89	7424.18
455.07	7478.01
455.26	7611.42
455.44	7822.07
455.62	7506.10
455.81	7714.41
455.99	7695.68
456.17	7723.77
456.36	7555.25
456.54	7688.66
456.73	7901.65
456.91	7955.48
457.09	8046.76
457.28	8105.28
457.46	7859.52
457.64	7925.05
457.83	8124.00
458.01	7847.82
458.19	8056.12
458.38	8049.10
458.56	7990.59
458.74	7978.89
458.93	7922.71
459.11	8379.12
459.29	8105.28
459.48	8189.53
459.66	8163.79
459.84	8299.54
460.03	8379.12
460.21	8219.96
460.39	8526.57
460.57	8374.44
460.76	8360.39
460.94	8348.69
461.12	8430.61
461.31	8538.27
461.49	8325.29
461.67	8390.82
461.85	8762.97
462.04	8524.23
462.22	9202.99
462.40	8657.64
462.59	8842.54
462.77	8688.07
462.95	8753.60
463.13	8744.24
463.32	8758.28
463.50	8896.38
463.68	8564.02
463.86	8936.17
464.05	8704.45
464.23	8753.60
464.41	8844.88
464.59	8887.01
464.78	8952.55
464.96	9006.38
465.14	8833.18
465.32	9029.79
465.50	9128.09
465.69	9076.60
465.87	9160.86
466.05	8945.53
466.23	8912.76
466.41	9095.32
466.60	9238.09
466.78	9013.40
466.96	9139.79
467.14	9062.55
467.32	9153.84
467.51	9423.00
467.69	9062.55
467.87	9425.34
468.05	9345.76
468.23	9392.57
468.41	9212.35
468.60	9151.49
468.78	9418.32
468.96	9467.47
469.14	9523.64
469.32	9865.36
469.50	9060.21
469.69	9701.52
469.87	9717.90
470.05	9408.95
470.23	9617.26
470.41	9949.62
470.59	9626.62
470.77	9853.66
470.95	9710.88
471.14	10010.47
471.32	9853.66
471.50	10106.43
471.68	10272.61
471.86	10108.77
472.04	10361.55
472.22	10420.06
472.40	9989.41
472.58	10094.73
472.77	10073.67
472.95	10305.38
473.13	10478.58
473.31	10324.10
473.49	10312.40
473.67	10466.88
473.85	10445.81
474.03	10714.97
474.21	10740.72
474.39	10862.43
474.57	10675.18
474.75	10848.38
474.93	11030.94
475.12	10768.80
475.30	11115.20
475.48	10988.82
475.66	11028.60
475.84	10951.37
476.02	11157.33
476.20	11239.25
476.38	11194.78
476.56	11510.75
476.74	11405.43
476.92	11494.37
477.10	11590.33
477.28	11833.75
477.46	12079.50
477.64	12039.72
477.82	12446.97
478.00	12297.17
478.18	12393.14
478.36	12517.18
478.54	12327.60
478.72	12306.54
478.90	12470.37
479.08	12791.03
479.26	12908.05
479.44	12872.95
479.62	13076.57
479.80	12994.65
479.98	13280.20
480.16	13451.06
480.34	13366.80
480.52	13654.69
480.70	13568.09
480.88	13774.05
481.06	13717.88
481.24	13350.42
481.41	14019.81
481.59	14150.88
481.77	14406.00
481.95	14160.24
482.13	14303.01
482.31	14415.36
482.49	14569.83
482.67	14478.55
482.85	14860.06
483.03	15080.07
483.21	14876.44
483.39	15098.80
483.57	15066.03
483.74	15274.34
483.92	15211.14
484.10	14972.41
484.28	15653.50
484.46	15967.13
484.64	16215.23
484.82	15761.17
485.00	15969.48
485.18	15995.22
485.35	16313.53
485.53	15840.75
485.71	15864.15
485.89	16084.16
486.07	16130.97
486.25	16444.60
486.43	16683.34
486.61	16748.87
486.78	16992.29
486.96	16767.60
487.14	17312.94
487.32	17441.67
487.50	17771.69
487.68	17860.63
487.85	18160.22
488.03	18050.21
488.21	18429.38
488.39	18410.65
488.57	18136.81
488.75	18836.63
488.92	18738.33
489.10	19126.86
489.28	19066.00
489.46	19323.46
489.64	19344.53
489.81	19812.63
489.99	19934.34
490.17	19878.17
490.35	20341.60
490.53	19981.15
490.70	20329.89
490.88	20243.29
491.06	20634.16
491.24	20334.57
491.41	20278.40
491.59	20229.25
491.77	20517.14
491.95	20596.71
492.13	20690.34
492.30	21039.08
492.48	21392.50
492.66	21371.43
492.84	21577.40
493.01	21675.70
493.19	21476.76
493.37	21926.14
493.54	22199.98
493.72	22326.37
493.90	22429.35
494.08	22478.50
494.25	22642.34
494.43	22803.84
494.61	23056.62
494.79	23192.37
494.96	22958.31
495.14	23147.90
495.32	23388.97
495.49	23566.85
495.67	23449.83
495.85	23777.50
496.02	23772.82
496.20	23894.53
496.38	24264.33
496.55	24154.33
496.73	24503.07
496.91	24500.73
497.09	24500.73
497.26	24837.76
497.44	24514.77
497.62	24599.03
497.79	25514.18
497.97	24795.64
498.14	24947.77
498.32	25254.38
498.50	25490.77
498.67	25418.22
498.85	25656.95
499.03	25954.20
499.20	25781.00
499.38	26029.10
499.56	26338.05
499.73	25851.22
499.91	26288.90
500.08	26288.90
500.26	25874.62
500.44	26087.61
500.61	26361.45
500.79	25905.05
500.97	26401.24
501.14	26874.03
501.32	26834.24
501.49	27021.48
501.67	26986.38
501.84	27182.98
502.02	27241.50
502.20	27505.98
502.37	27328.10
502.55	27349.16
502.72	27744.71
502.90	27391.29
503.07	27505.98
503.25	27786.84
503.43	27407.67
503.60	27644.07
503.78	27552.79
503.95	27653.43
504.13	27960.04
504.30	27803.22
504.48	28322.82
504.65	28671.56
504.83	28648.16
505.01	28821.36
505.18	29015.62
505.36	29083.50
505.53	29048.39
505.71	29237.97
505.88	28856.46
506.06	28919.66
506.23	29085.84
506.41	29280.10
506.58	29256.70
506.76	29514.16
506.93	29399.47
507.11	29755.23
507.28	29783.32
507.46	29535.22
507.63	29359.68
507.81	29830.13
507.98	29972.90
508.16	29893.32
508.33	30068.86
508.50	30110.99
508.68	30239.72
508.85	30855.28
509.03	30497.18
509.20	30506.54
509.38	30628.25
509.55	31054.23
509.73	31040.18
509.90	30789.75
510.08	31180.62
510.25	31194.66
510.42	30845.92
510.60	31321.05
510.77	31288.28
510.95	31344.45
511.12	31314.03
511.30	31550.42
511.47	31950.65
511.64	31847.67
511.82	31903.84
511.99	31805.54
512.17	31765.75
512.34	31749.37
512.51	32430.46
512.69	32158.96
512.86	32395.35
513.04	32388.33
513.21	32467.91
513.38	32203.43
513.56	32423.44
513.73	32191.73
513.90	32725.37
514.08	32346.20
514.25	33127.94
514.43	32524.08
514.60	32903.25
514.77	32666.86
514.95	33261.35
515.12	33247.31
515.29	33261.35
515.47	33535.20
515.64	33237.95
515.81	33514.13
515.99	33483.70
516.16	33160.71
516.33	33336.25
516.51	33802.02
516.68	33146.67
516.85	32936.02
517.03	33336.25
517.20	33785.63
517.37	33827.76
517.54	34249.06
517.72	33708.40
517.89	33537.54
518.06	33560.94
518.24	33748.18
518.41	33926.07
518.58	33998.62
518.75	34235.02
518.93	34445.66
519.10	34677.38
519.27	34452.69
519.45	34424.60
519.62	34682.06
519.79	34501.84
519.96	34953.56
520.14	34916.11
520.31	34614.18
520.48	34745.25
520.65	35037.82
520.83	35339.75
521.00	35054.20
521.17	35339.75
521.34	35606.57
521.52	35629.98
521.69	35480.18
521.86	36051.27
522.03	35978.72
522.20	36535.76
522.38	35978.72
522.55	36123.83
522.72	35924.88
522.89	35967.01
523.07	36116.81
523.24	36126.17
523.41	36446.82
523.58	36290.01
523.75	37006.21
523.92	36821.31
524.10	36945.36
524.27	36725.35
524.44	36615.34
524.61	36821.31
524.78	37172.39
524.96	37090.47
525.13	36732.37
525.30	37486.02
525.47	37373.67
525.64	37266.01
525.81	36891.52
525.98	37102.17
526.16	36919.61
526.33	36774.50
526.50	37139.62
526.67	37418.14
526.84	37291.76
527.01	36613.00
527.18	37383.04
527.36	37727.10
527.53	37958.81
527.70	37874.55
527.87	37659.22
528.04	37883.91
528.21	37965.83
528.38	37909.66
528.55	38176.48
528.72	38504.15
528.89	38539.26
529.07	38288.82
529.24	38267.76
529.41	38572.03
529.58	38185.84
529.75	37970.51
529.92	38326.27
530.09	38263.08
530.26	38637.56
530.43	38794.38
530.60	38602.46
530.77	38710.12
530.94	39143.12
531.11	38843.53
531.28	39164.18
531.46	39154.82
531.63	39407.60
531.80	38829.49
531.97	38747.57
532.14	38838.85
532.31	38745.23
532.48	38857.57
532.65	39203.97
532.82	39267.17
532.99	39526.97
533.16	38988.64
533.33	39529.31
533.50	40018.48
533.67	39440.37
533.84	39660.38
534.01	39421.64
534.18	39576.12
534.35	40584.89
534.52	39510.58
534.69	39739.96
534.86	40032.52
535.03	39796.13
535.20	40243.17
535.37	40222.11
535.54	40388.28
535.71	39976.35
535.88	40297.00
536.05	40212.74
536.22	39718.89
536.38	40196.36
536.55	40215.08
536.72	40280.62
536.89	39761.02
537.06	40229.13
537.23	40641.06
537.40	40507.65
537.57	40659.79
537.74	40832.99
537.91	41170.02
538.08	40737.02
538.25	40095.72
538.42	40706.60
538.59	40935.97
538.75	40615.32
538.92	40907.88
539.09	40879.80
539.26	40776.81
539.43	41104.49
539.60	40940.65
539.77	40566.16
539.94	40783.83
540.11	40910.22
540.28	41273.01
540.44	40896.18
540.61	41102.15
540.78	40776.81
540.95	41085.76
541.12	40940.65
541.29	41549.19
541.46	41448.55
541.62	41724.73
541.79	41717.71
541.96	41326.84
542.13	41687.28
542.30	41258.96
542.47	41401.74
542.63	41502.38
542.80	41617.07
542.97	41862.82
543.14	42543.92
543.31	42073.47
543.48	42396.46
543.64	42309.86
543.81	42293.48
543.98	42377.74
544.15	42253.69
544.32	42373.06
544.48	42532.22
544.65	42433.91
544.82	42513.49
544.99	42127.30
545.16	42438.59
545.32	42466.68
545.49	42890.32
545.66	42941.81
545.83	43040.11
546.00	42864.57
546.16	42766.27
546.33	42639.88
546.50	42209.22
546.67	42892.66
546.83	42557.96
547.00	42536.90
547.17	42637.54
547.34	42541.58
547.50	42513.49
547.67	42787.33
547.84	43033.09
548.00	43515.24
548.17	43407.58
548.34	43075.22
548.51	43798.44
548.67	43622.90
548.84	43290.55
549.01	43194.59
549.18	43225.01
549.34	43536.30
549.51	43248.42
549.68	43384.17
549.84	43533.96
550.01	43562.05
550.18	43498.86
550.34	43288.21
550.51	43494.18
550.68	43267.14
550.84	43311.61
551.01	43395.87
551.18	43475.45
551.34	43718.87
551.51	43707.16
551.68	43634.61
551.84	43999.73
552.01	43714.19
552.18	43805.47
552.34	43269.48
552.51	43540.99
552.68	43856.96
552.84	44055.90
553.01	44322.72
553.18	44018.46
553.34	43871.00
553.51	44301.66
553.67	44109.74
553.84	44058.24
554.01	44130.80
554.17	44201.02
554.34	44095.69
554.51	44746.36
554.67	44348.47
554.84	44179.95
555.00	44151.87
555.17	44062.93
555.33	44086.33
555.50	43990.37
555.67	44222.08
555.83	44233.78
556.00	44364.85
556.16	44643.38
556.33	44369.54
556.50	44575.50
556.66	44374.22
556.83	44304.00
556.99	44479.54
557.16	44538.05
557.32	45031.91
557.49	44676.15
557.65	44617.63
557.82	44699.55
557.98	44390.60
558.15	44769.77
558.32	44985.10
558.48	44531.03
558.65	44161.23
558.81	44161.23
558.98	44793.17
559.14	44500.61
559.31	44891.48
559.47	44949.99
559.64	44978.07
559.80	44636.36
559.97	44882.11
560.13	44718.28
560.30	44458.48
560.46	45029.57
560.63	44889.13
560.79	45029.57
560.96	44924.24
561.12	45008.50
561.29	44802.53
561.45	45106.80
561.61	44957.01
561.78	44985.10
561.94	44725.30
562.11	44839.98
562.27	44678.49
562.44	44999.14
562.60	45092.76
562.77	44980.42
562.93	45392.35
563.10	45158.30
563.26	45385.33
563.42	44912.54
563.59	45045.95
563.75	46036.00
563.92	45724.71
564.08	45165.32
564.24	45500.01
564.41	45450.86
564.57	45137.23
564.74	45010.84
564.90	45226.17
565.07	45425.12
565.23	45345.54
565.39	45296.39
565.56	44914.88
565.72	44856.37
565.88	44900.84
566.05	44947.65
566.21	45474.27
566.38	45188.72
566.54	45392.35
566.70	45467.25
566.87	46057.06
567.03	45427.46
567.19	45897.91
567.36	45624.06
567.52	45483.63
567.68	45425.12
567.85	45404.05
568.01	45553.85
568.17	45359.58
568.34	45902.59
568.50	45167.66
568.66	45586.61
568.83	45404.05
568.99	45455.54
569.15	44624.65
569.32	45572.57
569.48	45603.00
569.64	46122.60
569.81	45509.38
569.97	45492.99
570.13	45603.00
570.30	44907.86
570.46	44973.39
570.62	44891.48
570.78	45310.43
570.95	45214.47
571.11	45804.28
571.27	45460.23
571.43	45256.60
571.60	45687.26
571.76	45467.25
571.92	45064.67
572.09	45427.46
572.25	45265.96
572.41	45219.15
572.57	45535.12
572.74	45804.28
572.90	45485.97
573.06	46272.39
573.22	45727.05
573.38	45586.61
573.55	45083.40
573.71	45888.54
573.87	45745.77
574.03	45586.61
574.20	45909.61
574.36	45404.05
574.52	45666.19
574.68	45113.83
574.84	45689.60
575.01	45605.34
575.17	45151.27
575.33	45670.87
575.49	45301.07
575.65	45778.54
575.82	45720.02
575.98	45628.74
576.14	45813.65
576.30	45879.18
576.46	46078.13
576.62	45514.06
576.79	45272.98
576.95	45350.22
577.11	45764.49
577.27	45752.79
577.43	45289.37
577.59	45249.58
577.75	45404.05
577.92	45148.93
578.08	44978.07
578.24	45469.59
578.40	45539.80
578.56	45544.48
578.72	45350.22
578.88	46148.34
579.04	45792.58
579.21	45605.34
579.37	45556.19
579.53	46012.59
579.69	45970.46
579.85	45516.40
580.01	45673.21
580.17	45947.06
580.33	45778.54
580.49	45570.23
580.65	45446.18
580.82	45745.77
580.98	45951.74
581.14	45490.65
581.30	45731.73
581.46	45490.65
581.62	45890.88
581.78	46181.11
581.94	46213.88
582.10	46239.62
582.26	45918.97
582.42	45954.08
582.58	45755.13
582.74	46059.40
582.90	45595.98
583.06	46136.64
583.22	46094.51
583.38	46181.11
583.54	45991.53
583.70	45972.80
583.86	45682.58
584.02	46017.27
584.18	45713.00
584.34	45975.14
584.50	45523.42
584.66	45687.26
584.82	45528.10
584.98	45806.62
585.14	46080.47
585.30	45677.90
585.46	45883.86
585.62	45338.52
585.78	45837.05
585.94	45184.04
586.10	45581.93
586.26	45420.44
586.42	45909.61
586.58	45682.58
586.74	45619.38
586.90	45745.77
587.06	45998.55
587.22	46316.86
587.38	45757.47
587.54	45839.39
587.70	46192.81
587.86	45804.28
588.02	45457.88
588.18	45794.92
588.34	45954.08
588.49	45485.97
588.65	44900.84
588.81	45352.56
588.97	45673.21
589.13	45390.01
589.29	45687.26
589.45	45364.26
589.61	45853.44
589.77	45998.55
589.93	45825.35
590.08	45745.77
