SpectraSuite Data File
++++++++++++++++++++++++++++++++++++
Date: Fri Oct 25 11:22:43 EDT 2013
User: price-jones
Dark Spectrum Present: No
Reference Spectrum Present: No
Number of Sampled Component Spectra: 1
Spectrometers: USB2+H05261
Integration Time (usec): 100000 (USB2+H05261)
Spectra Averaged: 1 (USB2+H05261)
Boxcar Smoothing: 0 (USB2+H05261)
Correct for Electrical Dark: No (USB2+H05261)
Strobe/Lamp Enabled: No (USB2+H05261)
Correct for Detector Non-linearity: No (USB2+H05261)
Correct for Stray Light: No (USB2+H05261)
Number of Pixels in Processed Spectrum: 2048
>>>>>Begin Processed Spectral Data<<<<<
365.73	205.97
365.92	205.97
366.12	205.97
366.32	145.11
366.52	121.71
366.72	196.60
366.91	98.30
367.11	175.54
367.31	102.98
367.51	156.82
367.70	86.60
367.90	138.09
368.10	98.30
368.30	131.07
368.49	149.79
368.69	117.03
368.89	166.18
369.09	156.82
369.28	147.45
369.48	184.90
369.68	184.90
369.87	147.45
370.07	145.11
370.27	212.99
370.47	255.12
370.66	650.67
370.86	636.63
371.06	620.24
371.25	641.31
371.45	648.33
371.65	678.76
371.84	641.31
372.04	650.67
372.24	645.99
372.44	592.16
372.63	671.73
372.83	697.48
373.03	702.16
373.22	709.18
373.42	763.01
373.62	777.06
373.81	798.12
374.01	760.67
374.21	837.91
374.40	809.83
374.60	826.21
374.79	791.10
374.99	819.19
375.19	856.64
375.38	805.14
375.58	784.08
375.78	727.91
375.97	866.00
376.17	868.34
376.37	800.46
376.56	868.34
376.76	901.11
376.95	880.04
377.15	858.98
377.35	800.46
377.54	828.55
377.74	828.55
377.93	847.27
378.13	903.45
378.33	959.62
378.52	861.32
378.72	938.55
378.91	880.04
379.11	908.13
379.31	987.71
379.50	940.90
379.70	910.47
379.89	1048.56
380.09	929.19
380.28	1053.24
380.48	1053.24
380.68	915.15
380.87	936.21
381.07	1048.56
381.26	1006.43
381.46	1022.81
381.65	1039.20
381.85	1025.15
382.04	1086.01
382.24	1032.18
382.43	1165.59
382.63	1006.43
382.83	1060.26
383.02	1125.80
383.22	1118.78
383.41	1029.84
383.61	1083.67
383.80	1053.24
384.00	1060.26
384.19	1130.48
384.39	1135.16
384.58	1116.44
384.78	1116.44
384.97	1093.03
385.17	1146.86
385.36	1128.14
385.56	1207.72
385.75	1151.54
385.95	1095.37
386.14	1128.14
386.34	1086.01
386.53	1224.10
386.72	1125.80
386.92	1196.01
387.11	1289.64
387.31	1303.68
387.50	1217.08
387.70	1217.08
387.89	1203.04
388.09	1303.68
388.28	1242.82
388.48	1306.02
388.67	1299.00
388.86	1273.25
389.06	1275.59
389.25	1291.98
389.45	1409.00
389.64	1301.34
389.84	1411.34
390.03	1313.04
390.22	1341.13
390.42	1296.66
390.61	1404.32
390.81	1430.07
391.00	1420.71
391.19	1437.09
391.39	1465.18
391.58	1416.02
391.78	1465.18
391.97	1458.15
392.16	1493.26
392.36	1544.75
392.55	1577.52
392.75	1493.26
392.94	1533.05
393.13	1488.58
393.33	1582.20
393.52	1533.05
393.71	1675.82
393.91	1551.78
394.10	1582.20
394.29	1577.52
394.49	1582.20
394.68	1624.33
394.88	1586.88
395.07	1657.10
395.26	1605.61
395.46	1631.35
395.65	1774.13
395.84	1643.06
396.04	1743.70
396.23	1764.76
396.42	1802.21
396.62	1834.98
396.81	1818.60
397.00	1729.66
397.19	1727.32
397.39	1823.28
397.58	1914.56
397.77	1762.42
397.97	1776.47
398.16	1916.90
398.35	1954.35
398.55	1865.41
398.74	1877.11
398.93	1952.01
399.12	1968.39
399.32	1874.77
399.51	1907.54
399.70	1959.03
399.90	2010.52
400.09	1940.30
400.28	2036.27
400.47	2076.06
400.67	2069.03
400.86	2017.54
401.05	2019.88
401.24	2057.33
401.44	2127.55
401.63	2113.50
401.82	2204.78
402.01	2115.84
402.21	2223.51
402.40	2190.74
402.59	2134.57
402.78	2228.19
402.97	2263.30
403.17	2228.19
403.36	2300.75
403.55	2282.02
403.74	2342.88
403.93	2317.13
404.13	2464.58
404.32	2293.72
404.51	2380.32
404.70	2476.29
404.89	2314.79
405.09	2382.67
405.28	2588.63
405.47	2485.65
405.66	2424.80
405.85	2567.57
406.05	2473.95
406.24	2583.95
406.43	2532.46
406.62	2682.25
406.81	2663.53
407.00	2530.12
407.20	2649.49
407.39	2621.40
407.58	2647.15
407.77	2785.24
407.96	2747.79
408.15	2909.29
408.34	2834.39
408.54	2796.94
408.73	2801.62
408.92	2801.62
409.11	2944.39
409.30	2958.44
409.49	2834.39
409.68	2904.60
409.87	2892.90
410.07	3002.91
410.26	3026.31
410.45	3129.30
410.64	2862.48
410.83	3138.66
411.02	3068.44
411.21	3045.04
411.40	3094.19
411.59	3206.53
411.78	3246.32
411.98	3164.40
412.17	3248.66
412.36	3316.54
412.55	3290.79
412.74	3382.07
412.93	3424.20
413.12	3389.10
413.31	3585.70
413.50	3463.99
413.69	3527.19
413.88	3637.19
414.07	3566.98
414.26	3590.38
414.45	3716.77
414.64	3676.98
414.83	3669.96
415.02	3744.86
415.22	3866.56
415.41	3929.76
415.60	4023.38
415.79	3889.97
415.98	3967.21
416.17	3812.73
416.36	3852.52
416.55	4004.66
416.74	3932.10
416.93	4086.58
417.12	4100.62
417.31	4215.30
417.50	4107.64
417.69	4156.79
417.88	4325.31
418.07	4287.86
418.26	4337.01
418.45	4337.01
418.64	4393.19
418.83	4447.02
419.02	4322.97
419.21	4521.92
419.39	4463.40
419.58	4381.48
419.77	4468.08
419.96	4540.64
420.15	4578.09
420.34	4542.98
420.53	4748.95
420.72	4704.48
420.91	4753.63
421.10	4767.67
421.29	4865.97
421.48	4739.58
421.67	4669.37
421.86	4725.54
422.05	4882.36
422.24	4933.85
422.43	4858.95
422.61	4854.27
422.80	4894.06
422.99	4873.00
423.18	4826.18
423.37	5078.96
423.56	5020.45
423.75	4997.04
423.94	4896.40
424.13	4500.85
424.32	4685.75
424.50	5067.26
424.69	5132.79
424.88	4917.47
425.07	5048.54
425.26	5102.37
425.45	5060.24
425.64	4954.91
425.83	5121.09
426.01	5046.20
426.20	4954.91
426.39	5097.69
426.58	5128.11
426.77	5217.05
426.96	5083.64
427.15	5132.79
427.33	5193.65
427.52	5100.03
427.71	5210.03
427.90	5345.78
428.09	5259.18
428.28	5245.14
428.46	5301.31
428.65	5390.25
428.84	5404.30
429.03	5352.81
429.22	5371.53
429.40	5214.71
429.59	5549.41
429.78	5504.94
429.97	5238.12
430.16	5432.38
430.34	5437.06
430.53	5659.42
430.72	5465.15
430.91	5626.65
431.10	5692.18
431.28	5675.80
431.47	5760.06
431.66	6036.24
431.85	5785.80
432.03	5959.00
432.22	5944.96
432.41	5834.96
432.60	5865.38
432.79	5991.77
432.97	5961.34
433.16	6008.16
433.35	6113.48
433.54	6246.89
433.72	6008.16
433.91	6106.46
434.10	6057.31
434.28	6111.14
434.47	6232.85
434.66	6260.93
434.85	6300.72
435.03	6183.70
435.22	6118.16
435.41	6279.66
435.59	6401.37
435.78	6483.28
435.97	6349.87
436.16	6399.02
436.34	6532.44
436.53	6516.05
436.72	6595.63
436.90	6487.96
437.09	6654.14
437.28	6502.01
437.46	6633.08
437.65	6810.96
437.84	6752.45
438.02	6668.19
438.21	6843.73
438.40	6670.53
438.58	7087.14
438.77	7150.34
438.96	6939.69
439.14	7152.68
439.33	7122.25
439.52	7199.49
439.70	6949.05
439.89	7398.43
440.08	7346.94
440.26	7475.67
440.45	7372.69
440.63	7398.43
440.82	7536.52
441.01	7489.71
441.19	7559.93
441.38	7695.68
441.57	7775.26
441.75	7782.28
441.94	8109.96
442.12	7918.03
442.31	8131.02
442.50	8035.06
442.68	8107.62
442.87	8004.63
443.05	7990.59
443.24	8311.24
443.43	8049.10
443.61	8182.51
443.80	8348.69
443.98	7999.95
444.17	7964.84
444.35	8301.88
444.54	8510.19
444.73	8339.33
444.91	8184.85
445.10	8191.88
445.28	8456.36
445.47	8374.44
445.65	8203.58
445.84	8458.70
446.02	8461.04
446.21	8599.13
446.39	8353.37
446.58	8559.34
446.77	8461.04
446.95	8236.35
447.14	8580.40
447.32	8671.68
447.51	8475.08
447.69	8568.70
447.88	8463.38
448.06	8524.23
448.25	8659.98
448.43	8482.10
448.62	8613.17
448.80	8650.62
448.99	8767.65
449.17	8858.93
449.36	8671.68
449.54	8915.10
449.73	9011.06
449.91	8978.30
450.10	8961.91
450.28	9146.81
450.46	9116.39
450.65	8973.61
450.83	8950.21
451.02	9114.05
451.20	9352.78
451.39	9245.12
451.57	9198.31
451.76	9043.83
451.94	9240.44
452.13	9301.29
452.31	9261.50
452.49	9160.86
452.68	9359.80
452.86	9385.55
453.05	9659.39
453.23	9476.83
453.42	9394.91
453.60	9413.63
453.78	9652.37
453.97	9518.96
454.15	9521.30
454.34	9596.20
454.52	9846.63
454.70	9870.04
454.89	9837.27
455.07	9778.76
455.26	9942.60
455.44	9792.80
455.62	9703.86
455.81	9937.91
455.99	9956.64
456.17	10080.69
456.36	10010.47
456.54	10462.19
456.73	10296.02
456.91	10464.54
457.09	10223.46
457.28	10452.83
457.46	10211.76
457.64	10644.76
457.83	10448.15
458.01	10530.07
458.19	10747.74
458.38	10157.92
458.56	10691.57
458.74	10480.92
458.93	10614.33
459.11	11014.56
459.29	10864.77
459.48	10815.62
459.66	10956.05
459.84	10876.47
460.03	11178.40
460.21	10970.09
460.39	11122.23
460.57	11171.38
460.76	11077.76
460.94	11267.34
461.12	11169.04
461.31	10817.96
461.49	11173.72
461.67	11442.88
461.85	11433.52
462.04	11466.28
462.22	11723.74
462.40	11513.10
462.59	11438.20
462.77	11599.70
462.95	11808.00
463.13	11765.87
463.32	11555.22
463.50	11705.02
463.68	11576.29
463.86	11836.09
464.05	11536.50
464.23	11772.89
464.41	11936.73
464.59	11571.61
464.78	12079.50
464.96	11983.54
465.14	11798.64
465.32	12294.83
465.50	12098.23
465.69	12180.15
465.87	12329.94
466.05	12119.29
466.23	12002.27
466.41	12276.11
466.60	12514.84
466.78	12351.01
466.96	12425.90
467.14	12308.88
467.32	12365.05
467.51	12395.48
467.69	12198.87
467.87	12482.08
468.05	12589.74
468.23	12336.96
468.41	12629.53
468.60	12737.20
468.78	12769.96
468.96	12727.83
469.14	12886.99
469.32	13153.81
469.50	12870.61
469.69	12915.08
469.87	13118.70
470.05	13235.73
470.23	13324.67
470.41	13205.30
470.59	13329.35
470.77	13132.75
470.95	13207.64
471.14	13406.59
471.32	13259.13
471.50	13565.74
471.68	13650.00
471.86	13832.57
472.04	13652.34
472.22	13872.36
472.40	13996.40
472.58	13640.64
472.77	13799.80
472.95	14202.37
473.13	14593.24
473.31	14001.08
473.49	14258.54
473.67	14286.63
473.85	14328.76
474.03	14590.90
474.21	14586.22
474.39	14857.72
474.57	14785.16
474.75	14787.50
474.93	14963.04
475.12	15091.77
475.30	15192.42
475.48	15126.88
475.66	15379.66
475.84	15391.36
476.02	15630.10
476.20	15449.88
476.38	15875.85
476.56	15669.89
476.74	15957.77
476.92	15800.96
477.10	15555.20
477.28	16037.35
477.46	16170.76
477.64	16519.50
477.82	16549.93
478.00	17195.92
478.18	16638.87
478.36	17153.79
478.54	17247.41
478.72	17109.32
478.90	17570.40
479.08	17514.23
479.26	17596.15
479.44	17687.43
479.62	17900.42
479.80	18003.40
479.98	18216.39
480.16	18705.56
480.34	18342.78
480.52	18801.52
480.70	18305.33
480.88	18317.03
481.06	18644.71
481.24	18988.77
481.41	19044.94
481.59	19421.77
481.77	19503.68
481.95	19517.73
482.13	19822.00
482.31	19534.11
482.49	20081.80
482.67	20156.69
482.85	20624.80
483.03	20760.55
483.21	20957.16
483.39	20989.92
483.57	20800.34
483.74	21163.12
483.92	21455.69
484.10	21378.45
484.28	21919.12
484.46	22150.83
484.64	22181.26
484.82	22216.36
485.00	22394.25
485.18	22630.64
485.35	23316.42
485.53	22590.85
485.71	23157.26
485.89	23461.53
486.07	23283.65
486.25	23545.79
486.43	23805.59
486.61	24435.19
486.78	24292.42
486.96	24379.02
487.14	24662.22
487.32	24510.09
487.50	25102.25
487.68	25017.99
487.85	25422.90
488.03	25441.62
488.21	25909.73
488.39	25841.85
488.57	26270.17
488.75	26157.83
488.92	26286.56
489.10	26398.90
489.28	26593.17
489.46	27009.78
489.64	27625.34
489.81	27873.44
489.99	27758.75
490.17	28102.81
490.35	28456.23
490.53	28034.94
490.70	28428.15
490.88	28297.08
491.06	29240.31
491.24	28847.10
491.41	29256.70
491.59	29427.56
491.77	29497.77
491.95	29876.94
492.13	29895.66
492.30	30174.19
492.48	30497.18
492.66	30040.78
492.84	30314.62
493.01	30586.12
493.19	30567.40
493.37	30855.28
493.54	31180.62
493.72	31470.84
493.90	31337.43
494.08	32177.68
494.25	32177.68
494.43	31952.99
494.61	32439.82
494.79	32577.92
494.96	32547.49
495.14	33113.90
495.32	33127.94
495.49	33027.30
495.67	33177.09
495.85	33830.10
496.02	33589.03
496.20	33883.94
496.38	34560.35
496.55	34361.40
496.73	35150.17
496.91	34857.60
497.09	34876.32
497.26	35346.77
497.44	34923.13
497.62	35304.64
497.79	36030.21
497.97	35606.57
498.14	35990.42
498.32	36685.56
498.50	36046.59
498.67	36479.59
498.85	36549.81
499.03	37237.92
499.20	37132.60
499.38	37130.26
499.56	37202.82
499.73	37057.70
499.91	37443.89
500.08	37261.33
500.26	37228.56
500.44	37801.99
500.61	38012.64
500.79	37757.52
500.97	38160.09
501.14	38464.36
501.32	38433.94
501.49	38281.80
501.67	39021.41
501.84	39653.36
502.02	38232.65
502.20	39335.04
502.37	39269.51
502.55	39629.95
502.72	39646.33
502.90	39988.05
503.07	39660.38
503.25	39828.90
503.43	40030.18
503.60	40168.27
503.78	40484.25
503.95	40177.64
504.13	40552.12
504.30	40823.62
504.48	40603.61
504.65	40875.12
504.83	41092.79
505.01	41390.03
505.18	41205.13
505.36	41698.98
505.53	41425.14
505.71	41588.98
505.88	42209.22
506.06	41593.66
506.23	41883.89
506.41	41916.65
506.58	42258.37
506.76	42174.11
506.93	42579.03
507.11	42459.66
507.28	42827.12
507.46	42707.76
507.63	43072.88
507.81	43182.88
507.98	43295.23
508.16	43393.53
508.33	43342.04
508.50	43725.89
508.68	43985.69
508.85	44151.87
509.03	43777.38
509.20	44257.19
509.38	44226.76
509.55	44144.84
509.73	45022.54
509.90	44641.04
510.08	44645.72
510.25	44676.15
510.42	44584.86
510.60	45392.35
510.77	44879.77
510.95	45378.31
511.12	45106.80
511.30	45184.04
511.47	45565.55
511.64	45750.45
511.82	46192.81
511.99	45827.69
512.17	46410.48
512.34	46033.66
512.51	46293.46
512.69	46305.16
512.86	46515.81
513.04	47253.08
513.21	46611.77
513.38	46801.35
513.56	46941.78
513.73	46726.46
513.90	47082.22
514.08	46976.89
514.25	47639.26
514.43	47295.21
514.60	47133.71
514.77	47290.52
514.95	47821.83
515.12	47789.06
515.29	47805.44
515.47	47892.04
515.64	48121.41
515.81	48273.55
515.99	48458.45
516.16	48533.35
516.33	48467.81
516.51	48854.00
516.68	48865.70
516.85	48360.15
517.03	49116.14
517.20	48896.13
517.37	49062.31
517.54	48837.62
517.72	49057.63
517.89	48975.71
518.06	49106.78
518.24	49354.88
518.41	49464.88
518.58	49041.24
518.75	49497.65
518.93	49441.48
519.10	49083.37
519.27	49921.29
519.45	49537.44
519.62	50064.06
519.79	50483.01
519.96	49975.12
520.14	50101.51
520.31	50454.93
520.48	50263.00
520.65	50520.46
520.83	50920.70
521.00	50637.49
521.17	50745.15
521.34	50784.94
521.52	50838.78
521.69	50965.17
521.86	51016.66
522.03	51117.30
522.20	51407.53
522.38	51494.13
522.55	51779.67
522.72	51311.56
522.89	51426.25
523.07	51714.14
523.24	51676.69
523.41	51758.61
523.58	51807.76
523.75	52165.86
523.92	51833.50
524.10	52402.25
524.27	52177.56
524.44	52168.20
524.61	51995.00
524.78	52102.67
524.96	52378.85
525.13	52439.70
525.30	52729.93
525.47	52460.77
525.64	52512.26
525.81	52690.14
525.98	52942.92
526.16	52739.29
526.33	52680.78
526.50	53109.10
526.67	53029.52
526.84	52825.89
527.01	52861.00
527.18	53073.99
527.36	53212.08
527.53	53013.13
527.70	53485.92
527.87	53680.19
528.04	53481.24
528.21	53549.12
528.38	53738.70
528.55	53521.03
528.72	53399.32
528.89	53593.59
529.07	53516.35
529.24	53577.20
529.41	53654.44
529.58	53752.74
529.75	53771.47
529.92	53839.34
530.09	54059.35
530.26	54021.90
530.43	54218.51
530.60	53851.05
530.77	54057.01
530.94	54057.01
531.11	54068.72
531.28	54464.27
531.46	54253.62
531.63	54312.13
531.80	54197.44
531.97	54141.27
532.14	54649.17
532.31	54866.84
532.48	54852.80
532.65	54784.92
532.82	54560.23
532.99	54850.45
533.16	55014.29
533.33	55040.04
533.50	55121.96
533.67	54951.10
533.84	54733.43
534.01	55089.19
534.18	55168.77
534.35	55501.12
534.52	55271.75
534.69	55395.80
534.86	55341.97
535.03	55278.77
535.20	55398.14
535.37	55222.60
535.54	55360.69
535.71	55285.79
535.88	55643.90
536.05	55557.30
536.22	55554.96
536.38	55554.96
536.55	55524.53
536.72	55662.62
536.89	55728.16
537.06	55674.32
537.23	55758.58
537.40	55442.61
537.57	55887.31
537.74	55763.26
537.91	56200.94
538.08	56025.40
538.25	55742.20
538.42	55730.50
538.59	56409.25
538.75	56058.17
538.92	56273.50
539.09	56645.65
539.26	56327.33
539.43	56193.92
539.60	56107.32
539.77	56449.04
539.94	56458.40
540.11	56299.25
540.28	56676.07
540.44	56456.06
540.61	56453.72
540.78	56222.01
540.95	56442.02
541.12	56205.62
541.29	56348.40
541.46	56556.70
541.62	56580.11
541.79	56711.18
541.96	56685.43
542.13	56643.30
542.30	56860.97
542.47	57003.75
542.63	56797.78
542.80	57015.45
542.97	57251.84
543.14	57111.41
543.31	57020.13
543.48	57317.38
543.64	57443.77
543.81	57312.70
543.98	57504.62
544.15	57308.02
544.32	57712.93
544.48	57434.41
544.65	57605.26
544.82	57375.89
544.99	57434.41
545.16	57642.71
545.32	57418.02
545.49	57750.38
545.66	57790.17
545.83	57602.92
546.00	58042.95
546.16	57872.09
546.33	57502.28
546.50	57502.28
546.67	57841.66
546.83	57387.60
547.00	57652.08
547.17	57755.06
547.34	57836.98
547.50	58007.84
547.67	58110.82
547.84	58094.44
548.00	58148.27
548.17	58415.09
548.34	58169.33
548.51	58185.72
548.67	58094.44
548.84	58209.12
549.01	58103.80
549.18	58302.74
549.34	58188.06
549.51	58295.72
549.68	58262.96
549.84	58417.43
550.01	58204.44
550.18	58447.86
550.34	58541.48
550.51	58541.48
550.68	58506.37
550.84	58211.46
551.01	58862.13
551.18	58637.44
551.34	58529.78
551.51	58688.93
551.68	58602.33
551.84	58731.06
552.01	58478.28
552.18	58859.79
552.34	58599.99
552.51	59021.29
552.68	58735.74
552.84	58707.66
553.01	58983.84
553.18	58890.22
553.34	59023.63
553.51	58852.77
553.67	59065.76
553.84	59091.51
554.01	59079.80
554.17	59121.93
554.34	59105.55
554.51	59040.01
554.67	59145.34
554.84	59112.57
555.00	58960.44
555.17	58988.52
555.33	59159.38
555.50	59220.23
555.67	59023.63
555.83	59180.45
556.00	59103.21
556.16	59201.51
556.33	59456.63
556.50	59393.43
556.66	59313.86
556.83	59114.91
556.99	59470.67
557.16	59592.38
557.32	59615.79
557.49	59667.28
557.65	59437.90
557.82	59468.33
557.98	59583.02
558.15	59503.44
558.32	59536.21
558.48	59372.37
558.65	59374.71
558.81	59597.06
558.98	59641.53
559.14	59639.19
559.31	59625.15
559.47	59744.51
559.64	59812.39
559.80	59950.48
559.97	59662.60
560.13	59664.94
560.30	59812.39
560.46	59735.15
560.63	59777.28
560.79	59697.70
560.96	59952.82
561.12	59973.89
561.29	59793.67
561.45	59980.91
561.61	59840.48
561.78	59868.56
561.94	59943.46
562.11	59852.18
562.27	60027.72
562.44	60088.57
562.60	60175.17
562.77	59943.46
562.93	59936.44
563.10	60079.21
563.26	59859.20
563.42	60355.39
563.59	60074.53
563.75	60001.97
563.92	60020.70
564.08	59976.23
564.24	60158.79
564.41	60172.83
564.57	60374.12
564.74	60126.02
564.90	60280.50
565.07	60203.26
565.23	60144.75
565.39	60247.73
565.56	60395.18
565.72	60315.61
565.88	60179.85
566.05	60156.45
566.21	60292.20
566.38	60154.11
566.54	60257.09
566.70	60596.47
566.87	60472.42
567.03	60420.93
567.19	60526.25
567.36	60521.57
567.52	60423.27
567.68	60467.74
567.85	60559.02
568.01	60598.81
568.17	60327.31
568.34	60645.62
568.50	60418.59
568.66	60294.54
568.83	60500.51
568.99	60486.46
569.15	60439.65
569.32	60519.23
569.48	60523.91
569.64	60486.46
569.81	60598.81
569.97	60458.38
570.13	60509.87
570.30	60500.51
570.46	60594.13
570.62	60729.88
570.78	60647.96
570.95	60610.51
571.11	60612.85
571.27	60734.56
571.43	60535.62
571.60	60741.58
571.76	60816.48
571.92	60638.60
572.09	60743.92
572.25	60685.41
572.41	60729.88
572.57	60807.12
572.74	60992.02
572.90	60741.58
573.06	60676.05
573.22	60676.05
573.38	60783.71
573.55	60671.37
573.71	60898.40
573.87	60727.54
574.03	60481.78
574.20	60832.86
574.36	60453.70
574.52	60795.42
574.68	60786.05
574.84	60917.12
575.01	60938.19
575.17	60729.88
575.33	60697.11
575.49	60865.63
575.65	60919.46
575.82	60753.29
575.98	60889.04
576.14	61073.94
576.30	60884.36
576.46	60917.12
576.62	60865.63
576.79	60802.44
576.95	60718.18
577.11	60914.78
577.27	61076.28
577.43	60853.93
577.59	60793.07
577.75	60924.14
577.92	60755.63
578.08	60982.66
578.24	60985.00
578.40	60809.46
578.56	60865.63
578.72	60877.33
578.88	61003.72
579.04	61087.98
579.21	61111.39
579.37	61050.53
579.53	61153.52
579.69	60886.70
579.85	61017.77
580.01	60907.76
580.17	60926.49
580.33	61015.43
580.49	61022.45
580.65	60865.63
580.82	60989.68
580.98	60683.07
581.14	60886.70
581.30	60938.19
581.46	61013.08
581.62	61071.60
581.78	60903.08
581.94	61104.37
582.10	60949.89
582.26	61062.24
582.42	60727.54
582.58	61024.79
582.74	60947.55
582.90	61078.62
583.06	60987.34
583.22	60865.63
583.38	60999.04
583.54	61104.37
583.70	61137.13
583.86	61085.64
584.02	60743.92
584.18	61197.99
584.34	61219.05
584.50	61148.84
584.66	60992.02
584.82	60772.01
584.98	61134.79
585.14	61153.52
585.30	61050.53
585.46	60980.32
585.62	60921.80
585.78	61251.82
585.94	60912.44
586.10	61113.73
586.26	61041.17
586.42	60931.17
586.58	61064.58
586.74	60898.40
586.90	61073.94
587.06	61090.32
587.22	61186.28
587.38	60877.33
587.54	61345.44
587.70	61359.48
587.86	61137.13
588.02	61223.73
588.18	61237.78
588.34	61212.03
588.49	61169.90
