SpectraSuite Data File
++++++++++++++++++++++++++++++++++++
Date: Fri Oct 25 11:22:40 EDT 2013
User: price-jones
Dark Spectrum Present: No
Reference Spectrum Present: No
Number of Sampled Component Spectra: 1
Spectrometers: USB2+H05261
Integration Time (usec): 100000 (USB2+H05261)
Spectra Averaged: 1 (USB2+H05261)
Boxcar Smoothing: 0 (USB2+H05261)
Correct for Electrical Dark: No (USB2+H05261)
Strobe/Lamp Enabled: No (USB2+H05261)
Correct for Detector Non-linearity: No (USB2+H05261)
Correct for Stray Light: No (USB2+H05261)
Number of Pixels in Processed Spectrum: 2048
>>>>>Begin Processed Spectral Data<<<<<
365.73	203.63
365.92	203.63
366.12	203.63
366.32	131.07
366.52	229.37
366.72	191.92
366.91	77.24
367.11	159.16
367.31	140.43
367.51	154.48
367.70	112.35
367.90	128.73
368.10	194.26
368.30	135.75
368.49	72.56
368.69	65.54
368.89	117.03
369.09	91.28
369.28	138.09
369.48	133.41
369.68	177.88
369.87	222.35
370.07	177.88
370.27	203.63
370.47	358.10
370.66	613.22
370.86	613.22
371.06	603.86
371.25	671.73
371.45	690.46
371.65	653.01
371.84	678.76
372.04	706.84
372.24	681.10
372.44	770.04
372.63	704.50
372.83	650.67
373.03	746.63
373.22	772.38
373.42	765.36
373.62	741.95
373.81	732.59
374.01	753.65
374.21	826.21
374.40	868.34
374.60	805.14
374.79	849.61
374.99	828.55
375.19	875.36
375.38	847.27
375.58	835.57
375.78	858.98
375.97	863.66
376.17	908.13
376.37	870.68
376.56	835.57
376.76	901.11
376.95	856.64
377.15	945.58
377.35	924.51
377.54	945.58
377.74	910.47
377.93	933.87
378.13	858.98
378.33	950.26
378.52	954.94
378.72	894.08
378.91	978.34
379.11	983.02
379.31	1022.81
379.50	952.60
379.70	957.28
379.89	924.51
380.09	971.32
380.28	1027.50
380.48	1018.13
380.68	1034.52
380.87	940.90
381.07	997.07
381.26	1067.28
381.46	971.32
381.65	994.73
381.85	990.05
382.04	1048.56
382.24	1022.81
382.43	1067.28
382.63	1004.09
382.83	1057.92
383.02	985.37
383.22	1139.84
383.41	1123.46
383.61	1048.56
383.80	1116.44
384.00	1102.39
384.19	1043.88
384.39	1146.86
384.58	1146.86
384.78	1116.44
384.97	1151.54
385.17	1172.61
385.36	1132.82
385.56	1156.22
385.75	1069.62
385.95	1132.82
386.14	1261.55
386.34	1224.10
386.53	1188.99
386.72	1217.08
386.92	1224.10
387.11	1254.53
387.31	1165.59
387.50	1263.89
387.70	1287.29
387.89	1284.95
388.09	1249.85
388.28	1238.14
388.48	1336.45
388.67	1315.38
388.86	1174.95
389.06	1245.16
389.25	1404.32
389.45	1334.11
389.64	1317.72
389.84	1423.05
390.03	1472.20
390.22	1465.18
390.42	1416.02
390.61	1334.11
390.81	1444.11
391.00	1371.55
391.19	1380.92
391.39	1399.64
391.58	1465.18
391.78	1460.49
391.97	1495.60
392.16	1394.96
392.36	1453.47
392.55	1565.82
392.75	1516.67
392.94	1441.77
393.13	1488.58
393.33	1535.39
393.52	1497.94
393.71	1554.12
393.91	1589.22
394.10	1652.42
394.29	1593.90
394.49	1666.46
394.68	1771.79
394.88	1551.78
395.07	1549.43
395.26	1715.61
395.46	1631.35
395.65	1671.14
395.84	1692.21
396.04	1839.66
396.23	1865.41
396.42	1706.25
396.62	1781.15
396.81	1792.85
397.00	1781.15
397.19	1764.76
397.39	1675.82
397.58	1898.17
397.77	1980.09
397.97	1863.07
398.16	1823.28
398.35	1851.36
398.55	1783.49
398.74	2050.31
398.93	1963.71
399.12	1980.09
399.32	1928.60
399.51	1975.41
399.70	2029.24
399.90	1940.30
400.09	1923.92
400.28	1980.09
400.47	2120.53
400.67	2022.22
400.86	2083.08
401.05	2064.35
401.24	2010.52
401.44	2038.61
401.63	2134.57
401.82	2150.95
402.01	2111.16
402.21	2113.50
402.40	2356.92
402.59	2267.98
402.78	2190.74
402.97	2286.70
403.17	2385.01
403.36	2265.64
403.55	2270.32
403.74	2352.24
403.93	2338.20
404.13	2354.58
404.32	2321.81
404.51	2389.69
404.70	2431.82
404.89	2485.65
405.09	2450.54
405.28	2438.84
405.47	2417.77
405.66	2635.44
405.85	2551.18
406.05	2551.18
406.24	2665.87
406.43	2642.46
406.62	2569.91
406.81	2626.08
407.00	2696.30
407.20	2607.36
407.39	2537.14
407.58	2761.83
407.77	2832.05
407.96	2796.94
408.15	2820.35
408.34	2747.79
408.54	2871.84
408.73	2815.66
408.92	2825.03
409.11	3028.65
409.30	2822.69
409.49	2946.73
409.68	3052.06
409.87	2867.16
410.07	3016.95
410.26	3014.61
410.45	2974.82
410.64	3059.08
410.83	3059.08
411.02	3150.36
411.21	3201.85
411.40	3054.40
411.59	3136.32
411.78	3211.22
411.98	3155.04
412.17	3311.86
412.36	3377.39
412.55	3407.82
412.74	3426.54
412.93	3396.12
413.12	3365.69
413.31	3529.53
413.50	3571.66
413.69	3492.08
413.88	3583.36
414.07	3714.43
414.26	3609.11
414.45	3609.11
414.64	3613.79
414.83	3913.38
415.02	3751.88
415.22	3836.14
415.41	3941.46
415.60	3939.12
415.79	4009.34
415.98	3997.64
416.17	4060.83
416.36	3885.29
416.55	4112.32
416.74	4030.40
416.93	4086.58
417.12	4086.58
417.31	4173.18
417.50	4210.62
417.69	4346.37
417.88	4241.05
418.07	4138.07
418.26	4229.35
418.45	4414.25
418.64	4437.66
418.83	4379.14
419.02	4400.21
419.21	4566.39
419.39	4578.09
419.58	4652.98
419.77	4461.06
419.96	4535.96
420.15	4631.92
420.34	4702.14
420.53	4620.22
420.72	4802.78
420.91	4711.50
421.10	4795.76
421.29	4823.84
421.48	4781.71
421.67	4912.78
421.86	4805.12
422.05	4816.82
422.24	4828.53
422.43	4706.82
422.61	4851.93
422.80	4957.25
422.99	5034.49
423.18	4952.57
423.37	4924.49
423.56	5008.75
423.75	4891.72
423.94	4889.38
424.13	4643.62
424.32	4840.23
424.50	5013.43
424.69	5137.48
424.88	5050.88
425.07	5081.30
425.26	4858.95
425.45	5102.37
425.64	5139.82
425.83	4994.70
426.01	5135.14
426.20	4980.66
426.39	5057.90
426.58	5142.16
426.77	5177.26
426.96	4959.60
427.15	5156.20
427.33	5207.69
427.52	5210.03
427.71	5195.99
427.90	5224.08
428.09	5401.96
428.28	5284.93
428.46	5432.38
428.65	5378.55
428.84	5624.31
429.03	5682.82
429.22	5385.57
429.40	5582.18
429.59	5598.56
429.78	5523.66
429.97	5280.25
430.16	5526.00
430.34	5692.18
430.53	5706.23
430.72	5628.99
430.91	5706.23
431.10	5727.29
431.28	5996.45
431.47	5884.11
431.66	5886.45
431.85	5792.83
432.03	5968.37
432.22	5935.60
432.41	5984.75
432.60	5961.34
432.79	6010.50
432.97	6139.23
433.16	6183.70
433.35	6031.56
433.54	6167.31
433.72	6265.61
433.91	6303.06
434.10	6300.72
434.28	6118.16
434.47	6171.99
434.66	6312.42
434.85	6258.59
435.03	6303.06
435.22	6429.45
435.41	6487.96
435.59	6593.29
435.78	6502.01
435.97	6583.93
436.16	6389.66
436.34	6349.87
436.53	6427.11
436.72	6637.76
436.90	6403.71
437.09	6630.74
437.28	6581.59
437.46	6698.61
437.65	6616.69
437.84	6825.00
438.02	6743.08
438.21	6942.03
438.40	6635.42
438.58	7037.99
438.77	6909.26
438.96	6986.50
439.14	7052.03
439.33	7183.10
439.52	7101.19
439.70	7194.81
439.89	7459.29
440.08	7522.48
440.26	7386.73
440.45	7566.95
440.63	7683.98
440.82	7569.29
441.01	7517.80
441.19	7819.73
441.38	7742.49
441.57	7728.45
441.75	7857.18
441.94	7971.86
442.12	7742.49
442.31	7971.86
442.50	7894.63
442.68	8030.38
442.87	8002.29
443.05	8372.10
443.24	8374.44
443.43	8210.60
443.61	8318.26
443.80	8418.91
443.98	8049.10
444.17	7871.22
444.35	8203.58
444.54	8552.32
444.73	8416.57
444.91	8311.24
445.10	8407.20
445.28	8107.62
445.47	8348.69
445.65	8454.02
445.84	8423.59
446.02	8692.75
446.21	8353.37
446.39	8552.32
446.58	8538.27
446.77	8498.49
446.95	8339.33
447.14	8423.59
447.32	8561.68
447.51	8479.76
447.69	8482.10
447.88	8727.86
448.06	8484.44
448.25	8505.51
448.43	8608.49
448.62	8664.66
448.80	8688.07
448.99	8655.30
449.17	8746.58
449.36	8723.18
449.54	9050.85
449.73	9123.41
449.91	9027.45
450.10	9083.62
450.28	9172.56
450.46	9139.79
450.65	9200.65
450.83	9228.73
451.02	9102.34
451.20	9221.71
451.39	9268.52
451.57	9273.20
451.76	9252.14
451.94	9238.09
452.13	9383.21
452.31	9366.82
452.49	9060.21
452.68	9565.77
452.86	9359.80
453.05	9561.09
453.23	9657.05
453.42	9401.93
453.60	9507.26
453.78	9556.41
453.97	9476.83
454.15	9561.09
454.34	9582.15
454.52	9846.63
454.70	9645.35
454.89	9905.15
455.07	9973.02
455.26	9935.57
455.44	10061.96
455.62	9989.41
455.81	10225.80
455.99	10197.71
456.17	10160.27
456.36	10251.55
456.54	10281.97
456.73	10249.21
456.91	10623.69
457.09	10532.41
457.28	10733.70
457.46	10401.34
457.64	10595.61
457.83	10473.90
458.01	10239.84
458.19	10843.70
458.38	10501.98
458.56	10909.24
458.74	10846.04
458.93	10794.55
459.11	10979.45
459.29	11021.58
459.48	10782.85
459.66	10869.45
459.84	11061.37
460.03	11110.52
460.21	11037.97
460.39	10981.79
460.57	11267.34
460.76	11276.70
460.94	11138.61
461.12	11501.39
461.31	11297.77
461.49	11229.89
461.67	11269.68
461.85	11740.13
462.04	11410.11
462.22	11686.29
462.40	11669.91
462.59	11534.16
462.77	11564.59
462.95	11571.61
463.13	11585.65
463.32	11826.73
463.50	11726.08
463.68	11737.79
463.86	11943.75
464.05	11634.80
464.23	11641.82
464.41	12287.81
464.59	11824.39
464.78	12315.90
464.96	12084.19
465.14	12011.63
465.32	12126.32
465.50	12336.96
465.69	12372.07
465.87	12231.64
466.05	12060.78
466.23	12116.95
466.41	12346.33
466.60	12545.27
466.78	12262.07
466.96	12175.47
467.14	12493.78
467.32	12407.18
467.51	12683.36
467.69	12238.66
467.87	12725.49
468.05	12554.63
468.23	12610.81
468.41	12652.94
468.60	12730.17
468.78	12793.37
468.96	12683.36
469.14	12854.22
469.32	13355.10
469.50	12709.11
469.69	13254.45
469.87	13240.41
470.05	13060.19
470.23	13121.04
470.41	13170.19
470.59	13481.49
470.77	13158.49
470.95	13200.62
471.14	13488.51
471.32	13249.77
471.50	13635.96
471.68	13809.16
471.86	13479.15
472.04	13778.73
472.22	14286.63
472.40	13731.92
472.58	13877.04
472.77	14225.78
472.95	14225.78
473.13	14810.91
473.31	13968.32
473.49	14193.01
473.67	14157.90
473.85	14567.49
474.03	14567.49
474.21	14546.43
474.39	14843.68
474.57	14796.87
474.75	15110.50
474.93	15145.61
475.12	15239.23
475.30	15433.49
475.48	15005.17
475.66	15117.52
475.84	15283.70
476.02	15382.00
476.20	15548.18
476.38	16004.58
476.56	16114.59
476.74	16121.61
476.92	16023.31
477.10	16084.16
477.28	16437.58
477.46	16189.49
477.64	16526.52
477.82	16858.88
478.00	16769.94
478.18	16608.44
478.36	17001.65
478.54	17254.43
478.72	17245.07
478.90	17366.78
479.08	17820.84
479.26	18068.94
479.44	18043.19
479.62	17853.61
479.80	18078.30
479.98	18228.09
480.16	18623.64
480.34	18490.23
480.52	18700.88
480.70	18654.07
480.88	18427.04
481.06	19056.64
481.24	18974.72
481.41	19243.88
481.59	19543.47
481.77	19658.16
481.95	19922.64
482.13	20051.37
482.31	19997.54
482.49	20524.16
482.67	20189.46
482.85	20800.34
483.03	20854.17
483.21	20980.56
483.39	21057.80
483.57	21113.97
483.74	21460.37
483.92	21769.32
484.10	21319.94
484.28	21884.01
484.46	22082.95
484.64	22457.44
484.82	22064.23
485.00	22679.79
485.18	22773.41
485.35	23339.82
485.53	22895.12
485.71	23131.51
485.89	23655.79
486.07	23506.00
486.25	23328.12
486.43	23793.89
486.61	24142.63
486.78	24425.83
486.96	24292.42
487.14	24985.22
487.32	24994.58
487.50	24758.19
487.68	25303.53
487.85	25553.97
488.03	25434.60
488.21	25898.03
488.39	25823.13
488.57	26359.11
488.75	26391.88
488.92	26527.63
489.10	26892.76
489.28	27159.58
489.46	27206.39
489.64	27115.11
489.81	28039.62
489.99	27690.88
490.17	27903.87
490.35	28463.25
490.53	28437.51
490.70	28517.09
490.88	28531.13
491.06	29102.22
491.24	29083.50
491.41	29142.01
491.59	29397.13
491.77	29649.91
491.95	29958.86
492.13	29935.45
492.30	30352.07
492.48	29902.68
492.66	30155.46
492.84	30806.13
493.01	31126.78
493.19	30841.24
493.37	31304.67
493.54	31461.48
493.72	31960.02
493.90	31943.63
494.08	32285.35
494.25	32460.89
494.43	32257.26
494.61	32458.55
494.79	32774.52
494.96	32479.61
495.14	32982.83
495.32	33509.45
495.49	33624.14
495.67	33366.68
495.85	33708.40
496.02	34139.05
496.20	34148.42
496.38	34602.48
496.55	34464.39
496.73	35447.41
496.91	35133.78
497.09	35058.88
497.26	35442.73
497.44	35241.45
497.62	35414.65
497.79	36051.27
497.97	35908.50
498.14	36346.18
498.32	36486.61
498.50	36526.40
498.67	36954.72
498.85	36587.25
499.03	37191.11
499.20	36961.74
499.38	37062.38
499.56	37436.87
499.73	37633.47
499.91	37523.47
500.08	38263.08
500.26	37607.73
500.44	38022.00
500.61	38209.25
500.79	38101.58
500.97	38249.03
501.14	39002.69
501.32	38817.78
501.49	39061.20
501.67	38796.72
501.84	39711.87
502.02	39019.07
502.20	39580.80
502.37	39583.14
502.55	39505.90
502.72	39519.95
502.90	39810.17
503.07	39997.41
503.25	40334.45
503.43	39943.58
503.60	40566.16
503.78	40278.28
503.95	40760.43
504.13	40854.05
504.30	40718.30
504.48	41095.13
504.65	40776.81
504.83	41647.49
505.01	41347.90
505.18	41734.09
505.36	41909.63
505.53	41710.69
505.71	42335.61
505.88	42295.82
506.06	41811.33
506.23	42162.41
506.41	41813.67
506.58	42031.34
506.76	42351.99
506.93	42412.85
507.11	42618.81
507.28	42932.45
507.46	42738.18
507.63	43641.63
507.81	43686.10
507.98	43475.45
508.16	43538.65
508.33	44203.36
508.50	43658.01
508.68	44116.76
508.85	44479.54
509.03	44123.78
509.20	44119.10
509.38	44952.33
509.55	44978.07
509.73	44886.79
509.90	45020.20
510.08	44760.40
510.25	45209.79
510.42	45179.36
510.60	45556.19
510.77	45263.62
510.95	45860.46
511.12	45808.96
511.30	45722.37
511.47	45783.22
511.64	45603.00
511.82	46487.72
511.99	46047.70
512.17	46092.17
512.34	46117.92
512.51	46499.42
512.69	46773.27
512.86	46534.53
513.04	47014.34
513.21	47332.65
513.38	47334.99
513.56	46941.78
513.73	46892.63
513.90	47337.33
514.08	47608.84
514.25	47615.86
514.43	47934.17
514.60	47831.19
514.77	47662.67
514.95	48191.63
515.12	48041.84
515.29	47899.06
515.47	48779.10
515.64	48369.51
515.81	48105.03
515.99	48519.31
516.16	49057.63
516.33	49076.35
516.51	49401.69
516.68	48992.09
516.85	48641.01
517.03	49059.97
517.20	49436.80
517.37	49048.27
517.54	49287.00
517.72	49434.45
517.89	49195.72
518.06	49354.88
518.24	49497.65
518.41	49441.48
518.58	49794.90
518.75	49766.81
518.93	49684.89
519.10	50019.59
519.27	49986.82
519.45	50131.93
519.62	50302.79
519.79	50223.22
519.96	50277.05
520.14	50600.04
520.31	50513.44
520.48	50766.22
520.65	50576.64
520.83	50705.37
521.00	50782.60
521.17	50944.10
521.34	51058.79
521.52	51374.76
521.69	51070.49
521.86	51594.77
522.03	51557.32
522.20	51330.29
522.38	51358.38
522.55	51980.96
522.72	51412.21
522.89	51473.06
523.07	51934.15
523.24	51969.26
523.41	51798.40
523.58	51810.10
523.75	52175.22
523.92	52308.63
524.10	52463.11
524.27	52336.72
524.44	52486.51
524.61	52449.06
524.78	52271.18
524.96	52289.91
525.13	52697.16
525.30	52926.53
525.47	52530.98
525.64	52566.09
525.81	52760.36
525.98	52949.94
526.16	53081.01
526.33	52823.55
526.50	53385.28
526.67	53162.93
526.84	53258.89
527.01	52905.47
527.18	53200.38
527.36	53294.00
527.53	53216.76
527.70	53591.25
527.87	53553.80
528.04	53263.57
528.21	53506.99
528.38	53661.46
528.55	54106.16
528.72	53448.47
528.89	53483.58
529.07	53851.05
529.24	53626.35
529.41	54078.08
529.58	53942.33
529.75	53731.68
529.92	53947.01
530.09	54358.94
530.26	54145.95
530.43	54010.20
530.60	54031.27
530.77	54340.22
530.94	54206.81
531.11	54316.81
531.28	54403.41
531.46	54637.47
531.63	54691.30
531.80	54501.71
531.97	54794.28
532.14	54838.75
532.31	54543.84
532.48	54770.88
532.65	54775.56
532.82	54609.38
532.99	54883.22
533.16	54588.31
533.33	55150.04
533.50	55435.59
533.67	55000.25
533.84	54986.21
534.01	54997.91
534.18	55082.17
534.35	55566.66
534.52	55323.24
534.69	55477.72
534.86	55344.31
535.03	55344.31
535.20	55611.13
535.37	55480.06
535.54	55482.40
535.71	55484.74
535.88	55564.32
536.05	55709.43
536.22	55870.93
536.38	55679.00
536.55	55786.67
536.72	55899.01
536.89	55803.05
537.06	55950.51
537.23	55903.70
537.40	56006.68
537.57	55887.31
537.74	56229.03
537.91	56212.65
538.08	56020.72
538.25	56104.98
538.42	56278.18
538.59	56430.32
538.75	56289.88
538.92	56315.63
539.09	56285.20
539.26	56336.69
539.43	56322.65
539.60	56301.59
539.77	56488.83
539.94	56512.23
540.11	56879.70
540.28	56633.94
540.44	56793.10
540.61	56690.12
540.78	56645.65
540.95	56479.47
541.12	56474.79
541.29	56736.93
541.46	56863.32
541.62	56879.70
541.79	56966.30
541.96	56566.07
542.13	56945.23
542.30	56757.99
542.47	57169.93
542.63	56914.81
542.80	56905.44
542.97	57322.06
543.14	57427.38
543.31	57235.46
543.48	57649.74
543.64	57488.24
543.81	57733.99
543.98	57462.49
544.15	57497.60
544.32	57645.05
544.48	57865.06
544.65	57523.35
544.82	57546.75
544.99	57396.96
545.16	57710.59
545.32	57661.44
545.49	57956.35
545.66	57818.25
545.83	58049.97
546.00	57993.79
546.16	57975.07
546.33	57921.24
546.50	57762.08
546.67	57937.62
546.83	57743.36
547.00	58122.52
547.17	57928.26
547.34	58078.05
547.50	58183.38
547.67	58265.30
547.84	58379.98
548.00	58328.49
548.17	58588.29
548.34	58209.12
548.51	58436.16
548.67	58576.59
548.84	58576.59
549.01	58424.45
549.18	58330.83
549.34	58468.92
549.51	58588.29
549.68	58459.56
549.84	58581.27
550.01	58457.22
550.18	58342.53
550.34	58557.86
550.51	58852.77
550.68	58698.30
550.84	58506.37
551.01	58951.07
551.18	58665.53
551.34	58859.79
551.51	58557.86
551.68	58609.35
551.84	58564.88
552.01	58695.95
552.18	58901.92
552.34	58775.53
552.51	59011.93
552.68	59018.95
552.84	58848.09
553.01	59018.95
553.18	59056.40
553.34	59068.10
553.51	59040.01
553.67	58922.99
553.84	59030.65
554.01	59037.67
554.17	59217.89
554.34	59079.80
554.51	59171.08
554.67	59260.02
554.84	59213.21
555.00	59084.48
555.17	59114.91
555.33	59208.53
555.50	59250.66
555.67	59295.13
555.83	59292.79
556.00	59217.89
556.16	59536.21
556.33	59470.67
556.50	59477.69
556.66	59657.91
556.83	59257.68
556.99	59641.53
557.16	59728.13
557.32	59632.17
557.49	59861.54
557.65	59718.77
557.82	59365.35
557.98	59667.28
558.15	59711.75
558.32	59744.51
558.48	59561.95
558.65	59669.62
558.81	59664.94
558.98	59760.90
559.14	59980.91
559.31	60137.72
559.47	59655.57
559.64	59800.69
559.80	60006.65
559.97	59819.41
560.13	59746.86
560.30	59868.56
560.46	60102.62
560.63	59969.21
560.79	60037.08
560.96	60013.68
561.12	60037.08
561.29	60126.02
561.45	60095.60
561.61	59999.63
561.78	60018.36
561.94	60133.04
562.11	59763.24
562.27	60172.83
562.44	60275.82
562.60	60252.41
562.77	60381.14
562.93	60090.91
563.10	60280.50
563.26	60023.04
563.42	60402.21
563.59	60023.04
563.75	60142.41
563.92	60231.35
564.08	60065.17
564.24	60360.08
564.41	60273.48
564.57	60591.79
564.74	60259.43
564.90	60296.88
565.07	60500.51
565.23	60301.56
565.39	60423.27
565.56	60378.80
565.72	60238.37
565.88	60416.25
566.05	60137.72
566.21	60395.18
566.38	60439.65
566.54	60554.34
566.70	60561.36
566.87	60622.22
567.03	60348.37
567.19	60657.32
567.36	60589.45
567.52	60423.27
567.68	60802.44
567.85	60519.23
568.01	60711.16
568.17	60430.29
568.34	60622.22
568.50	60671.37
568.66	60617.53
568.83	60624.56
568.99	60605.83
569.15	60594.13
569.32	60767.33
569.48	60444.33
569.64	60774.35
569.81	60605.83
569.97	60535.62
570.13	60762.65
570.30	60617.53
570.46	60755.63
570.62	60772.01
570.78	60788.39
570.95	60605.83
571.11	60762.65
571.27	60767.33
571.43	60678.39
571.60	61001.38
571.76	60867.97
571.92	60783.71
572.09	60793.07
572.25	60603.49
572.41	60825.84
572.57	60874.99
572.74	61066.92
572.90	60722.86
573.06	60828.18
573.22	60753.29
573.38	60999.04
573.55	60624.56
573.71	61020.11
573.87	60896.06
574.03	60776.69
574.20	60921.80
574.36	60954.57
574.52	60654.98
574.68	60903.08
574.84	60954.57
575.01	60994.36
575.17	60973.30
575.33	60896.06
575.49	60734.56
575.65	60858.61
575.82	61099.68
575.98	61186.28
576.14	61265.86
576.30	60849.25
576.46	61083.30
576.62	60926.49
576.79	60907.76
576.95	60736.90
577.11	61001.38
577.27	60879.67
577.43	61031.81
577.59	60947.55
577.75	60844.57
577.92	60729.88
578.08	60837.54
578.24	61057.56
578.40	61127.77
578.56	61059.90
578.72	60968.61
578.88	61303.31
579.04	61137.13
579.21	61036.49
579.37	61258.84
579.53	61282.25
579.69	60753.29
579.85	61022.45
580.01	61179.26
580.17	61099.68
580.33	61118.41
580.49	61197.99
580.65	61326.72
580.82	60818.82
580.98	60982.66
581.14	61031.81
581.30	61251.82
581.46	61031.81
581.62	61223.73
581.78	61183.94
581.94	61174.58
582.10	61162.88
582.26	61160.54
582.42	61251.82
582.58	61109.05
582.74	61057.56
582.90	61183.94
583.06	61099.68
583.22	61062.24
583.38	61066.92
583.54	60959.25
583.70	61389.91
583.86	61216.71
584.02	61022.45
584.18	61214.37
584.34	61102.03
584.50	61392.25
584.66	60996.70
584.82	61120.75
584.98	61499.92
585.14	61008.40
585.30	61137.13
585.46	61153.52
585.62	61048.19
585.78	61228.41
585.94	60966.27
586.10	61118.41
586.26	61329.06
586.42	61354.80
586.58	61436.72
586.74	61242.46
586.90	61041.17
587.06	61102.03
587.22	61279.91
587.38	61132.45
587.54	61443.74
587.70	61474.17
587.86	61090.32
588.02	61233.10
588.18	61399.27
588.34	61228.41
588.49	61296.29
