SpectraSuite Data File
++++++++++++++++++++++++++++++++++++
Date: Fri Oct 25 11:25:32 EDT 2013
User: price-jones
Dark Spectrum Present: No
Reference Spectrum Present: No
Number of Sampled Component Spectra: 1
Spectrometers: USB2+H05261
Integration Time (usec): 100000 (USB2+H05261)
Spectra Averaged: 1 (USB2+H05261)
Boxcar Smoothing: 0 (USB2+H05261)
Correct for Electrical Dark: No (USB2+H05261)
Strobe/Lamp Enabled: No (USB2+H05261)
Correct for Detector Non-linearity: No (USB2+H05261)
Correct for Stray Light: No (USB2+H05261)
Number of Pixels in Processed Spectrum: 2048
>>>>>Begin Processed Spectral Data<<<<<
365.73	283.20
365.92	283.20
366.12	283.20
366.32	189.58
366.52	105.32
366.72	110.01
366.91	98.30
367.11	114.69
367.31	114.69
367.51	105.32
367.70	140.43
367.90	84.26
368.10	166.18
368.30	121.71
368.49	105.32
368.69	126.39
368.89	154.48
369.09	212.99
369.28	220.01
369.48	112.35
369.68	154.48
369.87	163.84
370.07	266.82
370.27	220.01
370.47	369.80
370.66	582.79
370.86	713.86
371.06	678.76
371.25	688.12
371.45	695.14
371.65	739.61
371.84	723.23
372.04	671.73
372.24	753.65
372.44	725.57
372.63	739.61
372.83	774.72
373.03	763.01
373.22	779.40
373.42	774.72
373.62	795.78
373.81	807.48
374.01	866.00
374.21	798.12
374.40	781.74
374.60	781.74
374.79	828.55
374.99	866.00
375.19	833.23
375.38	898.77
375.58	823.87
375.78	800.46
375.97	830.89
376.17	884.72
376.37	837.91
376.56	795.78
376.76	772.38
376.95	926.85
377.15	887.06
377.35	908.13
377.54	971.32
377.74	884.72
377.93	924.51
378.13	901.11
378.33	922.17
378.52	936.21
378.72	952.60
378.91	957.28
379.11	971.32
379.31	943.24
379.50	936.21
379.70	978.34
379.89	1004.09
380.09	1067.28
380.28	940.90
380.48	1015.79
380.68	917.49
380.87	919.83
381.07	990.05
381.26	1114.10
381.46	1060.26
381.65	1102.39
381.85	950.26
382.04	987.71
382.24	924.51
382.43	1100.05
382.63	1032.18
382.83	1034.52
383.02	1142.18
383.22	1153.88
383.41	1074.31
383.61	1078.99
383.80	1224.10
384.00	1170.27
384.19	1048.56
384.39	1160.91
384.58	1146.86
384.78	1090.69
384.97	1144.52
385.17	1196.01
385.36	1121.12
385.56	1240.48
385.75	1207.72
385.95	1172.61
386.14	1198.35
386.34	1238.14
386.53	1196.01
386.72	1203.04
386.92	1235.80
387.11	1277.93
387.31	1165.59
387.50	1287.29
387.70	1142.18
387.89	1294.32
388.09	1247.51
388.28	1284.95
388.48	1256.87
388.67	1350.49
388.86	1378.58
389.06	1254.53
389.25	1502.62
389.45	1359.85
389.64	1352.83
389.84	1378.58
390.03	1397.30
390.22	1439.43
390.42	1404.32
390.61	1380.92
390.81	1355.17
391.00	1369.21
391.19	1399.64
391.39	1460.49
391.58	1476.88
391.78	1446.45
391.97	1486.24
392.16	1481.56
392.36	1621.99
392.55	1483.90
392.75	1462.83
392.94	1469.86
393.13	1549.43
393.33	1472.20
393.52	1497.94
393.71	1666.46
393.91	1614.97
394.10	1537.73
394.29	1570.50
394.49	1542.41
394.68	1629.01
394.88	1629.01
395.07	1647.74
395.26	1668.80
395.46	1577.52
395.65	1661.78
395.84	1736.68
396.04	1872.43
396.23	1668.80
396.42	1785.83
396.62	1774.13
396.81	1832.64
397.00	1818.60
397.19	1811.57
397.39	1792.85
397.58	1816.26
397.77	1724.97
397.97	1839.66
398.16	1874.77
398.35	1870.09
398.55	1886.47
398.74	1839.66
398.93	2033.93
399.12	1928.60
399.32	1851.36
399.51	1874.77
399.70	2008.18
399.90	1975.41
400.09	2062.01
400.28	1984.77
400.47	2005.84
400.67	2094.78
400.86	2108.82
401.05	1994.14
401.24	2010.52
401.44	2111.16
401.63	2183.72
401.82	2179.04
402.01	2094.78
402.21	2181.38
402.40	2179.04
402.59	2146.27
402.78	2186.06
402.97	2125.21
403.17	2207.13
403.36	2230.53
403.55	2314.79
403.74	2260.96
403.93	2356.92
404.13	2218.83
404.32	2335.85
404.51	2270.32
404.70	2469.27
404.89	2445.86
405.09	2555.86
405.28	2415.43
405.47	2492.67
405.66	2637.78
405.85	2417.77
406.05	2448.20
406.24	2555.86
406.43	2600.34
406.62	2602.68
406.81	2726.72
407.00	2593.31
407.20	2560.55
407.39	2668.21
407.58	2722.04
407.77	2647.15
407.96	2731.41
408.15	2801.62
408.34	2696.30
408.54	2806.30
408.73	2794.60
408.92	2719.70
409.11	2860.13
409.30	2918.65
409.49	2818.00
409.68	2965.46
409.87	2832.05
410.07	2867.16
410.26	2991.20
410.45	3012.27
410.64	2977.16
410.83	3014.61
411.02	3119.93
411.21	3173.77
411.40	3148.02
411.59	3112.91
411.78	3208.87
411.98	3150.36
412.17	3236.96
412.36	3192.49
412.55	3307.18
412.74	3344.63
412.93	3321.22
413.12	3363.35
413.31	3412.50
413.50	3389.10
413.69	3407.82
413.88	3583.36
414.07	3524.85
414.26	3674.64
414.45	3548.25
414.64	3524.85
414.83	3758.90
415.02	3796.35
415.22	3719.11
415.41	3880.61
415.60	3765.92
415.79	3857.20
415.98	3880.61
416.17	4060.83
416.36	3960.19
416.55	3941.46
416.74	3997.64
416.93	3875.93
417.12	4135.73
417.31	4278.50
417.50	4100.62
417.69	4285.52
417.88	4173.18
418.07	4217.65
418.26	4262.12
418.45	4294.88
418.64	4458.72
418.83	4400.21
419.02	4376.80
419.21	4425.95
419.39	4564.04
419.58	4479.79
419.77	4451.70
419.96	4348.72
420.15	4638.94
420.34	4582.77
420.53	4432.97
420.72	4620.22
420.91	4624.90
421.10	4812.14
421.29	4723.20
421.48	4552.34
421.67	4898.74
421.86	4865.97
422.05	4819.16
422.24	4793.42
422.43	4823.84
422.61	4795.76
422.80	5004.07
422.99	4767.67
423.18	4873.00
423.37	4943.21
423.56	4734.90
423.75	4830.87
423.94	4704.48
424.13	4557.02
424.32	4746.61
424.50	4990.02
424.69	4999.38
424.88	5029.81
425.07	4898.74
425.26	4835.55
425.45	4997.04
425.64	4936.19
425.83	5083.64
426.01	5097.69
426.20	5071.94
426.39	5165.56
426.58	5029.81
426.77	4929.17
426.96	5083.64
427.15	5200.67
427.33	5090.67
427.52	5100.03
427.71	5107.05
427.90	5214.71
428.09	5163.22
428.28	5329.40
428.46	5406.64
428.65	5336.42
428.84	5500.26
429.03	5495.58
429.22	5261.52
429.40	5331.74
429.59	5570.48
429.78	5371.53
429.97	5280.25
430.16	5502.60
430.34	5563.45
430.53	5610.26
430.72	5561.11
430.91	5535.37
431.10	5636.01
431.28	5682.82
431.47	5715.59
431.66	5909.85
431.85	5715.59
432.03	5785.80
432.22	6005.81
432.41	5963.68
432.60	5982.41
432.79	5975.39
432.97	5987.09
433.16	5949.64
433.35	6078.37
433.54	5846.66
433.72	6225.82
433.91	6143.91
434.10	6190.72
434.28	6167.31
434.47	6193.06
434.66	6043.26
434.85	6214.12
435.03	6237.53
435.22	6083.05
435.41	6511.37
435.59	6293.70
435.78	6389.66
435.97	6249.23
436.16	6403.71
436.34	6462.22
436.53	6572.22
436.72	6490.31
436.90	6401.37
437.09	6689.25
437.28	6396.68
437.46	6485.62
437.65	6691.59
437.84	6801.60
438.02	6595.63
438.21	6686.91
438.40	6672.87
438.58	6715.00
438.77	7014.59
438.96	6944.37
439.14	7005.22
439.33	7236.94
439.52	7045.01
439.70	7253.32
439.89	7211.19
440.08	7272.04
440.26	7419.50
440.45	7300.13
440.63	7410.14
440.82	7431.20
441.01	7583.34
441.19	7571.63
441.38	7822.07
441.57	7782.28
441.75	7578.65
441.94	8051.44
442.12	7978.89
442.31	7936.76
442.50	8098.25
442.68	7983.57
442.87	8037.40
443.05	7866.54
443.24	8046.76
443.43	8191.88
443.61	8142.72
443.80	8327.63
443.98	8067.83
444.17	7922.71
444.35	8177.83
444.54	8339.33
444.73	8322.94
444.91	8299.54
445.10	8411.89
445.28	8390.82
445.47	8266.77
445.65	8336.99
445.84	8418.91
446.02	8535.93
446.21	8439.97
446.39	8329.97
446.58	8496.14
446.77	8411.89
446.95	8084.21
447.14	8397.84
447.32	8542.96
447.51	8599.13
447.69	8250.39
447.88	8315.92
448.06	8353.37
448.25	8482.10
448.43	8657.64
448.62	8500.83
448.80	8648.28
448.99	8575.72
449.17	8800.41
449.36	8482.10
449.54	8884.67
449.73	8884.67
449.91	8884.67
450.10	8952.55
450.28	9034.47
450.46	8992.34
450.65	9153.84
450.83	8947.87
451.02	9142.13
451.20	9069.58
451.39	9146.81
451.57	9015.74
451.76	8987.66
451.94	9069.58
452.13	9142.13
452.31	9247.46
452.49	9085.96
452.68	9324.69
452.86	9376.19
453.05	9163.20
453.23	9275.54
453.42	9352.78
453.60	9240.44
453.78	9561.09
453.97	9561.09
454.15	9359.80
454.34	9657.05
454.52	9863.02
454.70	9465.13
454.89	9493.21
455.07	9661.73
455.26	9757.69
455.44	9942.60
455.62	9877.06
455.81	9940.26
455.99	9811.53
456.17	10073.67
456.36	9994.09
456.54	10293.68
456.73	10090.05
456.91	10354.53
457.09	10370.91
457.28	10434.11
457.46	10368.57
457.64	10382.62
457.83	10480.92
458.01	10303.04
458.19	10560.50
458.38	10480.92
458.56	10497.30
458.74	10572.20
458.93	10523.05
459.11	10696.25
459.29	10537.09
459.48	10787.53
459.66	11061.37
459.84	10934.98
460.03	10991.16
460.21	10824.98
460.39	10911.58
460.57	10853.06
460.76	11173.72
460.94	11028.60
461.12	11227.55
461.31	11009.88
461.49	11066.05
461.67	11019.24
461.85	11372.66
462.04	11351.60
462.22	11758.85
462.40	11590.33
462.59	11552.88
462.77	11379.68
462.95	11616.08
463.13	11513.10
463.32	11548.20
463.50	11632.46
463.68	11517.78
463.86	11702.68
464.05	11658.21
464.23	11808.00
464.41	11955.46
464.59	11503.73
464.78	12156.74
464.96	11962.48
465.14	12018.65
465.32	11978.86
465.50	12163.76
465.69	11988.22
465.87	11936.73
466.05	12039.72
466.23	12187.17
466.41	12147.38
466.60	12355.69
466.78	12046.74
466.96	12212.92
467.14	12084.19
467.32	12315.90
467.51	12451.65
467.69	11901.62
467.87	12238.66
468.05	12521.87
468.23	12411.86
468.41	12393.14
468.60	12388.46
468.78	12716.13
468.96	12339.30
469.14	12692.73
469.32	13057.85
469.50	12636.55
469.69	12989.97
469.87	13043.81
470.05	13015.72
470.23	12940.82
470.41	13294.24
470.59	13209.98
470.77	12959.55
470.95	13102.32
471.14	13481.49
471.32	13221.69
471.50	13537.66
471.68	13495.53
471.86	13703.84
472.04	13727.24
472.22	14001.08
472.40	13549.36
472.58	13834.91
472.77	13823.20
472.95	14087.68
473.13	14434.08
473.31	14141.52
473.49	14157.90
473.67	14167.26
473.85	14129.81
474.03	14761.76
474.21	14574.52
474.39	14693.88
474.57	14443.45
474.75	14864.74
474.93	14874.10
475.12	14897.51
475.30	15009.86
475.48	14925.60
475.66	14995.81
475.84	15183.06
476.02	15236.89
476.20	15133.90
476.38	15609.03
476.56	15861.81
476.74	15810.32
476.92	15955.43
477.10	15618.39
477.28	15962.45
477.46	15908.62
477.64	16325.24
477.82	16372.05
478.00	16861.22
478.18	16681.00
478.36	16578.01
478.54	16779.30
478.72	17060.16
478.90	17418.27
479.08	17434.65
479.26	17638.28
479.44	17537.63
479.62	17717.86
479.80	17680.41
479.98	18153.20
480.16	18398.95
480.34	18232.77
480.52	18284.26
480.70	18623.64
480.88	18200.01
481.06	18586.19
481.24	18789.82
481.41	19140.90
481.59	19323.46
481.77	19332.82
481.95	19414.74
482.13	19566.88
482.31	19484.96
482.49	19896.89
482.67	19901.58
482.85	20334.57
483.03	20631.82
483.21	20507.77
483.39	20786.30
483.57	20673.95
483.74	20819.07
483.92	21252.06
484.10	21027.37
484.28	21694.43
484.46	21792.73
484.64	22246.79
484.82	21642.93
485.00	22300.62
485.18	22607.23
485.35	22611.92
485.53	22494.89
485.71	22810.86
485.89	23566.85
486.07	23105.77
486.25	23033.21
486.43	23351.52
486.61	23826.65
486.78	23810.27
486.96	24041.98
487.14	24388.38
487.32	24570.94
487.50	24999.26
487.68	24657.54
487.85	25184.16
488.03	25486.09
488.21	25624.18
488.39	25855.90
488.57	26005.69
488.75	26022.08
488.92	26225.70
489.10	26279.54
489.28	26675.09
489.46	26904.46
489.64	26639.98
489.81	27309.37
489.99	27227.45
490.17	27304.69
490.35	27456.82
490.53	28025.57
490.70	28421.13
490.88	28243.24
491.06	28648.16
491.24	28865.83
491.41	28952.43
491.59	29228.61
491.77	29212.23
491.95	29259.04
492.13	29432.24
492.30	30270.15
492.48	29762.25
492.66	29867.58
492.84	30143.76
493.01	30345.05
493.19	30213.98
493.37	31035.50
493.54	31042.53
493.72	31077.63
493.90	31136.15
494.08	31599.57
494.25	31798.52
494.43	32011.51
494.61	32114.49
494.79	32615.37
494.96	32587.28
495.14	32299.39
495.32	32842.40
495.49	32882.19
495.67	33071.77
495.85	33179.43
496.02	33226.24
496.20	34359.06
496.38	33783.29
496.55	33687.33
496.73	34469.07
496.91	34054.79
497.09	34445.66
497.26	34705.46
497.44	34815.47
497.62	34941.86
497.79	35545.72
497.97	35260.17
498.14	35674.45
498.32	35793.81
498.50	35772.75
498.67	36376.61
498.85	36297.03
499.03	36252.56
499.20	36580.23
499.38	36704.28
499.56	36800.24
499.73	36821.31
499.91	36989.83
500.08	37574.96
500.26	36898.55
500.44	37914.34
500.61	37677.94
500.79	37242.60
500.97	37832.42
501.14	38476.07
501.32	38190.52
501.49	38272.44
501.67	38185.84
501.84	38667.99
502.02	38504.15
502.20	39150.14
502.37	38934.81
502.55	38930.13
502.72	39065.88
502.90	39220.36
503.07	39122.05
503.25	39910.82
503.43	39407.60
503.60	39875.71
503.78	39983.37
503.95	39861.66
504.13	40411.69
504.30	40332.11
504.48	40313.39
504.65	40554.46
504.83	40610.64
505.01	40905.54
505.18	41020.23
505.36	41291.73
505.53	40708.94
505.71	41457.91
505.88	41715.37
506.06	41111.51
506.23	41706.01
506.41	41820.69
506.58	41516.42
506.76	41778.56
506.93	42536.90
507.11	42232.63
507.28	42351.99
507.46	42333.27
507.63	42492.43
507.81	43173.52
507.98	42572.00
508.16	43318.64
508.33	43288.21
508.50	43374.81
508.68	43072.88
508.85	43863.98
509.03	43641.63
509.20	43938.88
509.38	44119.10
509.55	44081.65
509.73	43866.32
509.90	44205.70
510.08	44493.58
510.25	44339.11
510.42	44591.89
510.60	44519.33
510.77	44821.26
510.95	45406.39
511.12	44783.81
511.30	44818.92
511.47	45570.23
511.64	45228.51
511.82	45612.36
511.99	45766.84
512.17	45134.89
512.34	45490.65
512.51	46248.99
512.69	46314.52
512.86	45888.54
513.04	46384.74
513.21	46263.03
513.38	46286.43
513.56	46546.23
513.73	46567.30
513.90	46813.05
514.08	46454.95
514.25	46916.04
514.43	47290.52
514.60	47114.98
514.77	47278.82
514.95	47508.19
515.12	47150.09
515.29	47618.20
515.47	47615.86
515.64	47878.00
515.81	47405.21
515.99	47899.06
516.16	48243.12
516.33	47718.84
516.51	48701.87
516.68	48090.99
516.85	48411.64
517.03	48453.77
517.20	49017.84
517.37	48301.64
517.54	48732.29
517.72	48645.69
517.89	48842.30
518.06	49078.69
518.24	48914.86
518.41	48919.54
518.58	49041.24
518.75	49272.96
518.93	49191.04
519.10	49174.66
519.27	49441.48
519.45	49422.75
519.62	49612.34
519.79	49633.40
519.96	49822.98
520.14	49860.43
520.31	49881.50
520.48	50092.15
520.65	49993.84
520.83	50351.94
521.00	50468.97
521.17	50241.94
521.34	50394.07
521.52	50908.99
521.69	50796.65
521.86	50878.57
522.03	50951.12
522.20	51035.38
522.38	51295.18
522.55	50885.59
522.72	51283.48
522.89	51213.26
523.07	51608.81
523.24	51260.07
523.41	51440.29
523.58	51318.59
523.75	51779.67
523.92	51444.98
524.10	51887.34
524.27	51952.87
524.44	51634.56
524.61	51952.87
524.78	52186.92
524.96	51966.91
525.13	52207.99
525.30	51903.72
525.47	52243.10
525.64	51819.46
525.81	52594.18
525.98	52568.43
526.16	52608.22
526.33	52545.03
526.50	52856.32
526.67	52622.26
526.84	52584.82
527.01	52741.63
527.18	52566.09
527.36	52875.04
527.53	52687.80
527.70	53296.34
527.87	53146.54
528.04	53169.95
528.21	53055.26
528.38	52996.75
528.55	53338.47
528.72	53294.00
528.89	53251.87
529.07	53331.45
529.24	53052.92
529.41	53448.47
529.58	53422.73
529.75	53368.90
529.92	53677.85
530.09	53394.64
530.26	53525.71
530.43	53755.08
530.60	53595.93
530.77	53448.47
530.94	54054.67
531.11	53783.17
531.28	54000.84
531.46	53977.43
531.63	54190.42
531.80	54136.59
531.97	54005.52
532.14	54169.36
532.31	54333.20
532.48	54356.60
532.65	54487.67
532.82	54351.92
532.99	54525.12
533.16	54419.80
533.33	54536.82
533.50	54934.71
533.67	54740.45
533.84	54251.28
534.01	54667.89
534.18	54698.32
534.35	55126.64
534.52	54892.58
534.69	54955.78
534.86	55077.49
535.03	54855.14
535.20	54876.20
535.37	54897.27
535.54	55426.23
535.71	54906.63
535.88	55082.17
536.05	55196.85
536.22	55367.71
536.38	55316.22
536.55	55510.49
536.72	55297.50
536.89	55128.98
537.06	55634.53
537.23	55587.72
537.40	55421.55
537.57	55765.60
537.74	55810.07
537.91	55510.49
538.08	55856.88
538.25	55423.89
538.42	55718.79
538.59	56245.41
538.75	55622.83
538.92	55997.32
539.09	56032.42
539.26	55915.40
539.43	56090.94
539.60	56088.60
539.77	55955.19
539.94	56236.05
540.11	56198.60
540.28	56212.65
540.44	56170.52
540.61	56289.88
540.78	55884.97
540.95	56207.97
541.12	56374.14
541.29	56156.47
541.46	56528.62
541.62	56500.53
541.79	56381.16
541.96	56369.46
542.13	56374.14
542.30	56430.32
542.47	56697.14
542.63	56746.29
542.80	56699.48
542.97	57148.86
543.14	57099.71
543.31	56952.26
543.48	56786.08
543.64	57357.17
543.81	57357.17
543.98	57130.14
544.15	57127.80
544.32	57310.36
544.48	57394.62
544.65	57151.20
544.82	57251.84
544.99	57076.30
545.16	57284.61
545.32	57263.55
545.49	57240.14
545.66	57598.24
545.83	57544.41
546.00	57631.01
546.16	57635.69
546.33	57301.00
546.50	57268.23
546.67	57626.33
546.83	57272.91
547.00	57668.46
547.17	57560.79
547.34	57715.27
547.50	57698.89
547.67	57752.72
547.84	57836.98
548.00	57935.28
548.17	57820.59
548.34	57836.98
548.51	58087.42
548.67	58117.84
548.84	58003.16
549.01	57879.11
549.18	58108.48
549.34	58115.50
549.51	58113.16
549.68	58155.29
549.84	58099.12
550.01	58286.36
550.18	58183.38
550.34	58351.90
550.51	58225.51
550.68	58174.02
550.84	58157.63
551.01	58518.07
551.18	58155.29
551.34	58131.89
551.51	58473.60
551.68	58293.38
551.84	58363.60
552.01	58300.40
552.18	58649.14
552.34	58218.49
552.51	58459.56
552.68	58363.60
552.84	58740.42
553.01	58824.68
553.18	58637.44
553.34	58901.92
553.51	58522.76
553.67	58639.78
553.84	58789.58
554.01	58733.40
554.17	58880.86
554.34	58845.75
554.51	58845.75
554.67	58960.44
554.84	59011.93
555.00	58897.24
555.17	58794.26
555.33	58705.32
555.50	58492.33
555.67	58768.51
555.83	58829.37
556.00	59072.78
556.16	59201.51
556.33	59152.36
556.50	59061.08
556.66	59180.45
556.83	58890.22
556.99	59358.33
557.16	59426.20
557.32	59208.53
557.49	59428.54
557.65	59025.97
557.82	59154.70
557.98	59138.32
558.15	59391.09
558.32	59388.75
558.48	59297.47
558.65	59299.81
558.81	59428.54
558.98	59552.59
559.14	59526.84
559.31	59508.12
559.47	59491.74
559.64	59473.01
559.80	59590.04
559.97	59524.50
560.13	59292.79
560.30	59503.44
560.46	59554.93
560.63	59613.44
560.79	59604.08
560.96	59693.02
561.12	59695.36
561.29	59566.63
561.45	59608.76
561.61	59742.17
561.78	59798.35
561.94	59709.41
562.11	59931.76
562.27	59690.68
562.44	59824.09
562.60	59817.07
562.77	59807.71
562.93	59531.53
563.10	60053.47
563.26	59746.86
563.42	59917.71
563.59	59704.73
563.75	59779.62
563.92	59987.93
564.08	59744.51
564.24	60121.34
564.41	59868.56
564.57	60025.38
564.74	59969.21
564.90	59941.12
565.07	59957.50
565.23	59929.42
565.39	59938.78
565.56	60083.89
565.72	59980.91
565.88	59910.69
566.05	60156.45
566.21	60175.17
566.38	60006.65
566.54	60229.01
566.70	60170.49
566.87	60140.07
567.03	60037.08
567.19	60172.83
567.36	60264.11
567.52	60229.01
567.68	60376.46
567.85	60142.41
568.01	60360.08
568.17	60158.79
568.34	60353.05
568.50	60336.67
568.66	60032.40
568.83	60172.83
568.99	60219.64
569.15	60404.55
569.32	60371.78
569.48	60470.08
569.64	60449.02
569.81	60184.54
569.97	60395.18
570.13	60264.11
570.30	60210.28
570.46	60444.33
570.62	60425.61
570.78	60523.91
570.95	60324.97
571.11	60432.63
571.27	60420.93
571.43	60493.49
571.60	60502.85
571.76	60516.89
571.92	60591.79
572.09	60390.50
572.25	60273.48
572.41	60430.29
572.57	60357.74
572.74	60528.59
572.90	60341.35
573.06	60701.79
573.22	60568.38
573.38	60495.83
573.55	60409.23
573.71	60662.00
573.87	60540.30
574.03	60350.71
574.20	60537.96
574.36	60371.78
574.52	60711.16
574.68	60718.18
574.84	60523.91
575.01	60669.03
575.17	60402.21
575.33	60547.32
575.49	60463.06
575.65	60954.57
575.82	60477.10
575.98	60598.81
576.14	60605.83
576.30	60807.12
576.46	60669.03
576.62	60530.93
576.79	60624.56
576.95	60561.36
577.11	60683.07
577.27	60809.46
577.43	60657.32
577.59	60692.43
577.75	60624.56
577.92	60863.29
578.08	60713.50
578.24	60591.79
578.40	60708.82
578.56	60757.97
578.72	60746.26
578.88	60914.78
579.04	60849.25
579.21	60725.20
579.37	60652.64
579.53	61006.06
579.69	60542.64
579.85	60638.60
580.01	60507.53
580.17	60636.26
580.33	60694.77
580.49	60603.49
580.65	60676.05
580.82	60669.03
580.98	60856.27
581.14	60669.03
581.30	60889.04
581.46	60732.22
581.62	60860.95
581.78	60762.65
581.94	60772.01
582.10	60673.71
582.26	60860.95
582.42	60776.69
582.58	60739.24
582.74	60598.81
582.90	60760.31
583.06	60687.75
583.22	60790.73
583.38	60807.12
583.54	60874.99
583.70	60706.47
583.86	60928.83
584.02	60584.77
584.18	61029.47
584.34	60938.19
584.50	60779.03
584.66	60814.14
584.82	60790.73
584.98	61043.51
585.14	60977.98
585.30	60652.64
585.46	60980.32
585.62	61038.83
585.78	60992.02
585.94	60605.83
586.10	60896.06
586.26	61029.47
586.42	60821.16
586.58	60722.86
586.74	60907.76
586.90	60882.02
587.06	60903.08
587.22	61066.92
587.38	60741.58
587.54	61158.20
587.70	61038.83
587.86	60966.27
588.02	60835.20
588.18	61169.90
588.34	60900.74
588.49	61015.43
