SpectraSuite Data File
++++++++++++++++++++++++++++++++++++
Date: Fri Oct 25 11:25:45 EDT 2013
User: price-jones
Dark Spectrum Present: No
Reference Spectrum Present: No
Number of Sampled Component Spectra: 1
Spectrometers: USB2+H05261
Integration Time (usec): 100000 (USB2+H05261)
Spectra Averaged: 1 (USB2+H05261)
Boxcar Smoothing: 0 (USB2+H05261)
Correct for Electrical Dark: No (USB2+H05261)
Strobe/Lamp Enabled: No (USB2+H05261)
Correct for Detector Non-linearity: No (USB2+H05261)
Correct for Stray Light: No (USB2+H05261)
Number of Pixels in Processed Spectrum: 2048
>>>>>Begin Processed Spectral Data<<<<<
365.73	262.14
365.92	262.14
366.12	262.14
366.32	124.05
366.52	105.32
366.72	154.48
366.91	149.79
367.11	133.41
367.31	88.94
367.51	184.90
367.70	147.45
367.90	191.92
368.10	121.71
368.30	182.56
368.49	93.62
368.69	201.29
368.89	128.73
369.09	180.22
369.28	210.65
369.48	278.52
369.68	220.01
369.87	248.10
370.07	173.20
370.27	170.86
370.47	369.80
370.66	559.39
370.86	669.39
371.06	610.88
371.25	671.73
371.45	720.88
371.65	746.63
371.84	667.05
372.04	622.58
372.24	767.70
372.44	704.50
372.63	723.23
372.83	730.25
373.03	758.33
373.22	746.63
373.42	734.93
373.62	741.95
373.81	737.27
374.01	774.72
374.21	777.06
374.40	767.70
374.60	793.44
374.79	727.91
374.99	840.25
375.19	851.96
375.38	833.23
375.58	777.06
375.78	908.13
375.97	830.89
376.17	805.14
376.37	910.47
376.56	828.55
376.76	844.93
376.95	917.49
377.15	938.55
377.35	870.68
377.54	856.64
377.74	924.51
377.93	919.83
378.13	891.74
378.33	971.32
378.52	938.55
378.72	971.32
378.91	945.58
379.11	966.64
379.31	931.53
379.50	908.13
379.70	952.60
379.89	1008.77
380.09	976.00
380.28	997.07
380.48	994.73
380.68	978.34
380.87	973.66
381.07	903.45
381.26	980.68
381.46	1022.81
381.65	1046.22
381.85	1041.54
382.04	1057.92
382.24	1013.45
382.43	1062.60
382.63	1078.99
382.83	1041.54
383.02	1104.73
383.22	1053.24
383.41	1109.41
383.61	1144.52
383.80	1020.47
384.00	1130.48
384.19	1158.57
384.39	1137.50
384.58	1083.67
384.78	1095.37
384.97	1149.20
385.17	1100.05
385.36	1130.48
385.56	1142.18
385.75	1132.82
385.95	1212.40
386.14	1217.08
386.34	1184.31
386.53	1210.06
386.72	1167.93
386.92	1207.72
387.11	1193.67
387.31	1261.55
387.50	1249.85
387.70	1259.21
387.89	1259.21
388.09	1303.68
388.28	1291.98
388.48	1219.42
388.67	1245.16
388.86	1294.32
389.06	1345.81
389.25	1331.76
389.45	1317.72
389.64	1315.38
389.84	1350.49
390.03	1376.24
390.22	1401.98
390.42	1380.92
390.61	1359.85
390.81	1418.36
391.00	1383.26
391.19	1432.41
391.39	1430.07
391.58	1427.73
391.78	1526.03
391.97	1434.75
392.16	1514.33
392.36	1533.05
392.55	1568.16
392.75	1516.67
392.94	1427.73
393.13	1631.35
393.33	1469.86
393.52	1535.39
393.71	1544.75
393.91	1572.84
394.10	1516.67
394.29	1542.41
394.49	1514.33
394.68	1638.38
394.88	1547.09
395.07	1757.74
395.26	1624.33
395.46	1696.89
395.65	1736.68
395.84	1741.36
396.04	1755.40
396.23	1781.15
396.42	1722.63
396.62	1799.87
396.81	1748.38
397.00	1788.17
397.19	1863.07
397.39	1703.91
397.58	1792.85
397.77	1722.63
397.97	1830.30
398.16	1867.75
398.35	1893.49
398.55	1870.09
398.74	1837.32
398.93	1982.43
399.12	1916.90
399.32	1933.28
399.51	1886.47
399.70	2012.86
399.90	2005.84
400.09	2019.88
400.28	1989.46
400.47	2015.20
400.67	2033.93
400.86	2050.31
401.05	2099.46
401.24	2157.97
401.44	2012.86
401.63	1984.77
401.82	2155.63
402.01	2022.22
402.21	2188.40
402.40	2108.82
402.59	2157.97
402.78	2249.25
402.97	2258.62
403.17	2221.17
403.36	2165.00
403.55	2190.74
403.74	2277.34
403.93	2321.81
404.13	2354.58
404.32	2340.54
404.51	2356.92
404.70	2389.69
404.89	2331.17
405.09	2415.43
405.28	2424.80
405.47	2415.43
405.66	2366.28
405.85	2534.80
406.05	2492.67
406.24	2523.10
406.43	2572.25
406.62	2586.29
406.81	2745.45
407.00	2546.50
407.20	2502.03
407.39	2506.71
407.58	2607.36
407.77	2752.47
407.96	2675.23
408.15	2649.49
408.34	2691.62
408.54	2761.83
408.73	2740.77
408.92	2813.32
409.11	2796.94
409.30	2853.11
409.49	2841.41
409.68	2935.03
409.87	2963.12
410.07	3021.63
410.26	2930.35
410.45	3131.64
410.64	3150.36
410.83	3131.64
411.02	3204.19
411.21	3070.78
411.40	3066.10
411.59	3187.81
411.78	3059.08
411.98	3197.17
412.17	3187.81
412.36	3332.92
412.55	3176.11
412.74	3255.69
412.93	3321.22
413.12	3309.52
413.31	3538.89
413.50	3557.61
413.69	3438.25
413.88	3482.72
414.07	3529.53
414.26	3595.06
414.45	3541.23
414.64	3569.32
414.83	3644.21
415.02	3735.50
415.22	3861.88
415.41	3840.82
415.60	3686.34
415.79	3754.22
415.98	3908.69
416.17	3904.01
416.36	3981.25
416.55	3929.76
416.74	3985.93
416.93	4058.49
417.12	4053.81
417.31	3997.64
417.50	4238.71
417.69	4182.54
417.88	4243.39
418.07	4297.22
418.26	4292.54
418.45	4447.02
418.64	4437.66
418.83	4512.55
419.02	4187.22
419.21	4617.88
419.39	4540.64
419.58	4372.12
419.77	4477.44
419.96	4655.33
420.15	4552.34
420.34	4624.90
420.53	4564.04
420.72	4535.96
420.91	4631.92
421.10	4608.51
421.29	4669.37
421.48	4629.58
421.67	4805.12
421.86	4720.86
422.05	4751.29
422.24	4718.52
422.43	4826.18
422.61	4812.14
422.80	4929.17
422.99	4922.15
423.18	4896.40
423.37	4870.65
423.56	4823.84
423.75	4947.89
423.94	4748.95
424.13	4603.83
424.32	4762.99
424.50	4910.44
424.69	5025.13
424.88	5151.52
425.07	4968.96
425.26	4877.68
425.45	4835.55
425.64	4978.32
425.83	4908.10
426.01	5078.96
426.20	4884.70
426.39	4978.32
426.58	5020.45
426.77	4994.70
426.96	5029.81
427.15	5160.88
427.33	5081.30
427.52	5100.03
427.71	5266.21
427.90	5167.90
428.09	5261.52
428.28	5399.62
428.46	5296.63
428.65	5231.10
428.84	5397.28
429.03	5516.64
429.22	5331.74
429.40	5511.96
429.59	5329.40
429.78	5392.59
429.97	5294.29
430.16	5476.85
430.34	5488.56
430.53	5516.64
430.72	5673.46
430.91	5561.11
431.10	5547.07
431.28	5596.22
431.47	5771.76
431.66	5790.49
431.85	5778.78
432.03	5813.89
432.22	5916.87
432.41	6015.18
432.60	5720.27
432.79	5717.93
432.97	5966.03
433.16	5893.47
433.35	6038.58
433.54	6076.03
433.72	6083.05
433.91	6001.13
434.10	6108.80
434.28	6052.63
434.47	6148.59
434.66	6274.98
434.85	6310.08
435.03	6305.40
435.22	6434.13
435.41	6333.49
435.59	6274.98
435.78	6263.27
435.97	6396.68
436.16	6345.19
436.34	6469.24
436.53	6450.52
436.72	6672.87
436.90	6410.73
437.09	6609.67
437.28	6504.35
437.46	6387.32
437.65	6649.46
437.84	6569.88
438.02	6586.27
438.21	6710.32
438.40	6740.74
438.58	6932.67
438.77	6951.39
438.96	6871.81
439.14	6993.52
439.33	7129.27
439.52	7014.59
439.70	7215.87
439.89	7342.26
440.08	7302.47
440.26	7335.24
440.45	7386.73
440.63	7447.58
440.82	7513.12
441.01	7529.50
441.19	7265.02
441.38	7653.55
441.57	7623.12
441.75	7770.58
441.94	7786.96
442.12	7733.13
442.31	7992.93
442.50	7927.39
442.68	7875.90
442.87	7901.65
443.05	8023.36
443.24	8126.34
443.43	8184.85
443.61	8009.31
443.80	8269.11
443.98	7981.23
444.17	8042.08
444.35	8109.96
444.54	8306.56
444.73	8201.24
444.91	8205.92
445.10	8304.22
445.28	8236.35
445.47	8046.76
445.65	8168.47
445.84	8479.76
446.02	8423.59
446.21	8175.49
446.39	8224.64
446.58	8329.97
446.77	8578.06
446.95	8222.30
447.14	8383.80
447.32	8395.50
447.51	8442.31
447.69	8285.50
447.88	8439.97
448.06	8456.36
448.25	8360.39
448.43	8470.40
448.62	8533.59
448.80	8552.32
448.99	8346.35
449.17	8524.23
449.36	8662.32
449.54	8791.05
449.73	8865.95
449.91	8966.59
450.10	8926.80
450.28	9149.15
450.46	8968.93
450.65	8931.48
450.83	8926.80
451.02	8985.32
451.20	8966.59
451.39	9095.32
451.57	9132.77
451.76	9039.15
451.94	9050.85
452.13	9338.74
452.31	9151.49
452.49	9004.04
452.68	9437.04
452.86	9308.31
453.05	9458.10
453.23	9362.14
453.42	9116.39
453.60	9160.86
453.78	9324.69
453.97	9301.29
454.15	9458.10
454.34	9483.85
454.52	9446.40
454.70	9523.64
454.89	9621.94
455.07	9607.90
455.26	9748.33
455.44	9823.23
455.62	9720.24
455.81	9645.35
455.99	9687.48
456.17	9895.78
456.36	9966.00
456.54	10221.12
456.73	10061.96
456.91	10195.37
457.09	10352.19
457.28	10661.14
457.46	10141.54
457.64	10492.62
457.83	10246.87
458.01	10141.54
458.19	10464.54
458.38	10448.15
458.56	10562.84
458.74	10693.91
458.93	10455.17
459.11	10719.65
459.29	10438.79
459.48	10775.83
459.66	10665.82
459.84	10782.85
460.03	11019.24
460.21	10843.70
460.39	10836.68
460.57	10740.72
460.76	11129.25
460.94	11119.89
461.12	10995.84
461.31	11108.18
461.49	11122.23
461.67	11082.44
461.85	11213.51
462.04	11274.36
462.22	11625.44
462.40	11611.40
462.59	11360.96
462.77	11192.44
462.95	11480.33
463.13	11459.26
463.32	11485.01
463.50	11375.00
463.68	11789.28
463.86	11971.84
464.05	11506.07
464.23	11555.22
464.41	11892.26
464.59	11772.89
464.78	12233.98
464.96	11941.41
465.14	11768.21
465.32	11934.39
465.50	12098.23
465.69	11962.48
465.87	11971.84
466.05	11974.18
466.23	12142.70
466.41	12341.64
466.60	12486.76
466.78	12100.57
466.96	11976.52
467.14	12168.45
467.32	12116.95
467.51	12072.48
467.69	12032.69
467.87	12381.43
468.05	12407.18
468.23	12229.30
468.41	12395.48
468.60	12325.26
468.78	12510.16
468.96	12465.69
469.14	12638.89
469.32	12844.86
469.50	12496.12
469.69	12922.10
469.87	12987.63
470.05	12800.39
470.23	13163.17
470.41	13004.02
470.59	13256.79
470.77	13099.98
470.95	13060.19
471.14	13415.95
471.32	13130.41
471.50	13446.38
471.68	13444.04
471.86	13551.70
472.04	13565.74
472.22	13928.53
472.40	13467.44
472.58	13729.58
472.77	13813.84
472.95	14127.47
473.13	14424.72
473.31	13891.08
473.49	14064.28
473.67	14061.94
473.85	14195.35
474.03	14508.98
474.21	14607.28
474.39	14658.78
474.57	14366.21
474.75	14869.42
474.93	14831.97
475.12	14647.07
475.30	14862.40
475.48	14960.70
475.66	15028.58
475.84	15117.52
476.02	15208.80
476.20	15164.33
476.38	15393.70
476.56	15861.81
476.74	15676.91
476.92	15793.94
477.10	15599.67
477.28	15908.62
477.46	15953.09
477.64	16152.04
477.82	16362.69
478.00	16875.26
478.18	16542.91
478.36	16762.92
478.54	17170.17
478.72	16915.05
478.90	17259.11
479.08	17446.35
479.26	17575.08
479.44	17460.40
479.62	17743.60
479.80	18080.64
479.98	18001.06
480.16	18293.63
480.34	18097.02
480.52	18679.82
480.70	18689.18
480.88	18387.25
481.06	18565.13
481.24	18588.53
481.41	18977.06
481.59	18998.13
481.77	19550.49
481.95	19335.17
482.13	19669.86
482.31	19330.48
482.49	19924.98
482.67	20011.58
482.85	20208.19
483.03	20252.66
483.21	20685.65
483.39	21064.82
483.57	20744.17
483.74	20751.19
483.92	21013.33
484.10	20973.54
484.28	21509.52
484.46	22045.51
484.64	22485.53
484.82	21893.37
485.00	22171.89
485.18	22445.74
485.35	22967.68
485.53	22590.85
485.71	22700.86
485.89	23330.46
486.07	22845.97
486.25	23311.74
486.43	23318.76
486.61	23433.44
486.78	23936.66
486.96	24107.52
487.14	24238.59
487.32	24308.80
487.50	24786.27
487.68	24868.19
487.85	25294.17
488.03	25322.26
488.21	25530.56
488.39	25502.48
488.57	25940.16
488.75	25914.41
488.92	26181.23
489.10	26342.73
489.28	26366.13
489.46	26965.31
489.64	26806.16
489.81	27424.06
489.99	27248.52
490.17	27374.91
490.35	27894.50
490.53	27962.38
490.70	27976.42
490.88	27967.06
491.06	28247.93
491.24	28407.08
491.41	28741.78
491.59	28992.22
491.77	28826.04
491.95	29277.76
492.13	29516.50
492.30	29898.00
492.48	29699.06
492.66	30071.20
492.84	29858.21
493.01	30436.33
493.19	30431.65
493.37	30892.73
493.54	30913.80
493.72	31337.43
493.90	31335.09
494.08	31681.49
494.25	31707.24
494.43	31754.05
494.61	31807.88
494.79	32046.62
494.96	31901.50
495.14	32306.41
495.32	32912.61
495.49	32657.49
495.67	32996.87
495.85	33207.52
496.02	33078.79
496.20	33823.08
496.38	33703.71
496.55	34031.39
496.73	34576.73
496.91	34195.23
497.09	34829.51
497.26	34485.45
497.44	34761.64
497.62	34892.71
497.79	35082.29
497.97	35356.13
498.14	35599.55
498.32	35868.71
498.50	35892.12
498.67	36233.83
498.85	35725.94
499.03	36730.03
499.20	36161.28
499.38	36435.12
499.56	36978.12
499.73	36818.97
499.91	37198.13
500.08	37034.30
500.26	36966.42
500.44	37249.63
500.61	37481.34
500.79	37612.41
500.97	37958.81
501.14	38396.49
501.32	38234.99
501.49	38443.30
501.67	38433.94
501.84	38476.07
502.02	38831.83
502.20	38689.06
502.37	38565.01
502.55	38869.28
502.72	39157.16
502.90	39304.62
503.07	39145.46
503.25	39267.17
503.43	39646.33
503.60	39208.65
503.78	40079.33
503.95	39943.58
504.13	40084.01
504.30	40472.54
504.48	40554.46
504.65	40615.32
504.83	40514.67
505.01	41291.73
505.18	40711.28
505.36	41296.41
505.53	40903.20
505.71	41422.80
505.88	41818.35
506.06	41223.86
506.23	41717.71
506.41	41354.93
506.58	41383.01
506.76	41713.03
506.93	42174.11
507.11	41954.10
507.28	42333.27
507.46	42576.69
507.63	42426.89
507.81	42742.86
507.98	42342.63
508.16	42660.94
508.33	42726.48
508.50	42770.95
508.68	43601.84
508.85	43199.27
509.03	43487.15
509.20	43880.36
509.38	43796.10
509.55	43983.35
509.73	44299.32
509.90	44137.82
510.08	44404.64
510.25	44514.65
510.42	44561.46
510.60	44339.11
510.77	44926.58
510.95	45230.85
511.12	44802.53
511.30	45303.41
511.47	45298.73
511.64	44856.37
511.82	45944.72
511.99	45315.11
512.17	45698.96
512.34	45525.76
512.51	46239.62
512.69	45975.14
512.86	45869.82
513.04	46279.41
513.21	46424.53
513.38	46387.08
513.56	46426.87
513.73	46340.27
513.90	46138.98
514.08	46705.39
514.25	47147.75
514.43	47325.63
514.60	46859.87
514.77	46700.71
514.95	47323.29
515.12	46995.62
515.29	47309.25
515.47	47819.49
515.64	47863.96
515.81	47686.07
515.99	47779.70
516.16	48224.40
516.33	48177.59
516.51	48254.82
516.68	48261.85
516.85	47826.51
517.03	48222.06
517.20	48921.88
517.37	48217.38
517.54	48804.85
517.72	48432.71
517.89	48467.81
518.06	48751.02
518.24	48898.47
518.41	48741.66
518.58	49200.40
518.75	48956.99
518.93	48844.64
519.10	49139.55
519.27	49265.94
519.45	49212.10
519.62	49778.51
519.79	49244.87
519.96	49425.09
520.14	49621.70
520.31	49640.42
520.48	50019.59
520.65	49961.08
520.83	50396.42
521.00	50328.54
521.17	50291.09
521.34	50600.04
521.52	50398.76
521.69	50714.73
521.86	50693.66
522.03	50988.57
522.20	51096.24
522.38	51042.40
522.55	50674.94
522.72	51082.19
522.89	51452.00
523.07	51363.06
523.24	51131.34
523.41	51325.61
523.58	51480.08
523.75	51365.40
523.92	51402.85
524.10	51498.81
524.27	51725.84
524.44	51854.57
524.61	51433.27
524.78	52067.56
524.96	51920.10
525.13	51866.27
525.30	51847.55
525.47	52191.61
525.64	51913.08
525.81	52416.30
525.98	52336.72
526.16	52182.24
526.33	52250.12
526.50	52989.73
526.67	52123.73
526.84	52662.05
527.01	52889.09
527.18	52715.89
527.36	52919.51
527.53	52687.80
527.70	53073.99
527.87	53481.24
528.04	52982.71
528.21	52917.17
528.38	53141.86
528.55	53329.11
528.72	53069.31
528.89	53144.20
529.07	53380.60
529.24	53139.52
529.41	53420.39
529.58	53530.39
529.75	53193.36
529.92	53698.91
530.09	53663.80
530.26	53668.48
530.43	53708.27
530.60	53731.68
530.77	53602.95
530.94	53928.28
531.11	53848.71
531.28	53722.32
531.46	53743.38
531.63	53961.05
531.80	53844.02
531.97	53984.46
532.14	54309.79
532.31	54094.46
532.48	54190.42
532.65	54382.35
532.82	54356.60
532.99	54583.63
533.16	54253.62
533.33	54475.97
533.50	54703.00
533.67	54604.70
533.84	54478.31
534.01	54733.43
534.18	54681.94
534.35	55098.55
534.52	54656.19
534.69	54721.72
534.86	54969.82
535.03	54855.14
535.20	54962.80
535.37	55222.60
535.54	55110.25
535.71	54960.46
535.88	55220.26
536.05	55033.02
536.22	55517.51
536.38	55400.48
536.55	55276.43
536.72	55267.07
536.89	55220.26
537.06	55414.52
537.23	55402.82
537.40	55323.24
537.57	55433.25
537.74	55206.22
537.91	55730.50
538.08	55676.66
538.25	55564.32
538.42	55791.35
538.59	56097.96
538.75	55618.15
538.92	55908.38
539.09	56128.39
539.26	55866.25
539.43	55957.53
539.60	55753.90
539.77	56133.07
539.94	56245.41
540.11	56158.81
540.28	56154.13
540.44	56435.00
540.61	56392.87
540.78	56306.27
540.95	56240.73
541.12	56189.24
541.29	56121.37
541.46	56435.00
541.62	56294.56
541.79	56465.42
541.96	56081.58
542.13	56360.10
542.30	56556.70
542.47	56858.63
542.63	56603.52
542.80	56961.62
542.97	56839.91
543.14	57066.94
543.31	56870.34
543.48	56996.73
543.64	57499.94
543.81	57144.18
543.98	57097.37
544.15	57048.22
544.32	57146.52
544.48	57279.93
544.65	57102.05
544.82	57088.01
544.99	57088.01
545.16	57076.30
545.32	57375.89
545.49	57425.04
545.66	57286.95
545.83	57420.36
546.00	57387.60
546.16	57495.26
546.33	57471.85
546.50	57148.86
546.67	57427.38
546.83	57167.58
547.00	57375.89
547.17	57668.46
547.34	57457.81
547.50	57785.49
547.67	57916.56
547.84	57783.15
548.00	57872.09
548.17	58136.57
548.34	57820.59
548.51	58052.31
548.67	57961.03
548.84	58103.80
549.01	58014.86
549.18	58042.95
549.34	58138.91
549.51	58248.91
549.68	58302.74
549.84	58267.64
550.01	58246.57
550.18	58157.63
550.34	58181.04
550.51	58286.36
550.68	58129.54
550.84	58089.76
551.01	58466.58
551.18	58269.98
551.34	58216.14
551.51	58405.73
551.68	58295.72
551.84	58213.80
552.01	58309.77
552.18	58426.79
552.34	58284.02
552.51	58447.86
552.68	58358.92
552.84	58520.41
553.01	58698.30
553.18	58543.82
553.34	58700.64
553.51	58461.90
553.67	58653.82
553.84	58777.87
554.01	58700.64
554.17	58911.28
554.34	58766.17
554.51	58560.20
554.67	58864.47
554.84	58733.40
555.00	58824.68
555.17	58911.28
555.33	58857.45
555.50	58597.65
555.67	58576.59
555.83	58784.90
556.00	58829.37
556.16	59119.59
556.33	59077.46
556.50	58906.60
556.66	58990.86
556.83	58873.84
556.99	59173.42
557.16	59271.73
557.32	59267.05
557.49	59363.01
557.65	59070.44
557.82	59135.98
557.98	59037.67
558.15	59269.39
558.32	59379.39
558.48	59100.87
558.65	59351.30
558.81	59395.77
558.98	59344.28
559.14	59250.66
559.31	59288.11
559.47	59650.89
559.64	59576.00
559.80	59461.31
559.97	59360.67
560.13	59407.48
560.30	59519.82
560.46	59498.76
560.63	59686.00
560.79	59585.36
560.96	59601.74
561.12	59561.95
561.29	59573.66
561.45	59648.55
561.61	59557.27
561.78	59718.77
561.94	59643.87
562.11	59758.56
562.27	59576.00
562.44	59772.60
562.60	59796.01
562.77	59765.58
562.93	59634.51
563.10	59934.10
563.26	59821.75
563.42	59856.86
563.59	59821.75
563.75	59767.92
563.92	59833.46
564.08	59840.48
564.24	59927.08
564.41	59920.05
564.57	59751.54
564.74	59952.82
564.90	59929.42
565.07	59943.46
565.23	59859.20
565.39	60032.40
565.56	59983.25
565.72	59985.59
565.88	59999.63
566.05	59742.17
566.21	60034.74
566.38	60107.30
566.54	60041.76
566.70	59910.69
566.87	60217.30
567.03	60079.21
567.19	60093.25
567.36	60062.83
567.52	60247.73
567.68	60413.91
567.85	60266.45
568.01	60186.88
568.17	59962.18
568.34	60402.21
568.50	60086.23
568.66	60046.44
568.83	60268.79
568.99	60200.92
569.15	60264.11
569.32	60191.56
569.48	60212.62
569.64	60299.22
569.81	60154.11
569.97	60032.40
570.13	60217.30
570.30	60137.72
570.46	60315.61
570.62	60273.48
570.78	60257.09
570.95	60121.34
571.11	60341.35
571.27	60161.13
571.43	60163.47
571.60	60350.71
571.76	60341.35
571.92	60432.63
572.09	60439.65
572.25	60451.36
572.41	60200.92
572.57	60378.80
572.74	60690.09
572.90	60399.86
573.06	60470.08
573.22	60413.91
573.38	60402.21
573.55	60463.06
573.71	60699.45
573.87	60690.09
574.03	60416.25
574.20	60671.37
574.36	60460.72
574.52	60580.09
574.68	60566.04
574.84	60542.64
575.01	60559.02
575.17	60425.61
575.33	60341.35
575.49	60481.78
575.65	60542.64
575.82	60617.53
575.98	60776.69
576.14	60729.88
576.30	60741.58
576.46	60486.46
576.62	60610.51
576.79	60568.38
576.95	60549.66
577.11	60729.88
577.27	60676.05
577.43	60519.23
577.59	60631.58
577.75	60615.19
577.92	60502.85
578.08	60568.38
578.24	60399.86
578.40	60821.16
578.56	60769.67
578.72	60694.77
578.88	60828.18
579.04	60830.52
579.21	60701.79
579.37	60884.36
579.53	60980.32
579.69	60472.42
579.85	60596.47
580.01	60626.90
580.17	60444.33
580.33	60781.37
580.49	60786.05
580.65	60657.32
580.82	60669.03
580.98	60701.79
581.14	60589.45
581.30	60961.59
581.46	60587.11
581.62	60804.78
581.78	60673.71
581.94	60706.47
582.10	60463.06
582.26	60786.05
582.42	60561.36
582.58	60772.01
582.74	60753.29
582.90	60743.92
583.06	60725.20
583.22	60711.16
583.38	60896.06
583.54	60732.22
583.70	60762.65
583.86	60767.33
584.02	60540.30
584.18	60858.61
584.34	60802.44
584.50	60701.79
584.66	60746.26
584.82	60846.91
584.98	61069.26
585.14	60898.40
585.30	60860.95
585.46	60832.86
585.62	60699.45
585.78	60896.06
585.94	60767.33
586.10	60811.80
586.26	60748.60
586.42	60940.53
586.58	60968.61
586.74	60973.30
586.90	60767.33
587.06	60809.46
587.22	60940.53
587.38	60898.40
587.54	60917.12
587.70	61205.01
587.86	60769.67
588.02	60725.20
588.18	60781.37
588.34	60772.01
588.49	60931.17
