SpectraSuite Data File
++++++++++++++++++++++++++++++++++++
Date: Fri Oct 25 11:26:22 EDT 2013
User: price-jones
Dark Spectrum Present: No
Reference Spectrum Present: No
Number of Sampled Component Spectra: 1
Spectrometers: USB2+H05261
Integration Time (usec): 100000 (USB2+H05261)
Spectra Averaged: 1 (USB2+H05261)
Boxcar Smoothing: 0 (USB2+H05261)
Correct for Electrical Dark: No (USB2+H05261)
Strobe/Lamp Enabled: No (USB2+H05261)
Correct for Detector Non-linearity: No (USB2+H05261)
Correct for Stray Light: No (USB2+H05261)
Number of Pixels in Processed Spectrum: 2048
>>>>>Begin Processed Spectral Data<<<<<
365.73	196.60
365.92	196.60
366.12	196.60
366.32	173.20
366.52	196.60
366.72	194.26
366.91	142.77
367.11	156.82
367.31	147.45
367.51	166.18
367.70	100.64
367.90	163.84
368.10	198.95
368.30	119.37
368.49	194.26
368.69	140.43
368.89	215.33
369.09	140.43
369.28	135.75
369.48	138.09
369.68	189.58
369.87	140.43
370.07	138.09
370.27	236.39
370.47	374.49
370.66	545.34
370.86	638.97
371.06	690.46
371.25	664.71
371.45	685.78
371.65	699.82
371.84	650.67
372.04	664.71
372.24	732.59
372.44	798.12
372.63	725.57
372.83	755.99
373.03	842.59
373.22	699.82
373.42	777.06
373.62	795.78
373.81	842.59
374.01	842.59
374.21	763.01
374.40	770.04
374.60	884.72
374.79	781.74
374.99	837.91
375.19	847.27
375.38	814.51
375.58	835.57
375.78	723.23
375.97	777.06
376.17	945.58
376.37	922.17
376.56	889.40
376.76	908.13
376.95	950.26
377.15	877.70
377.35	985.37
377.54	880.04
377.74	898.77
377.93	870.68
378.13	947.92
378.33	1006.43
378.52	915.15
378.72	1008.77
378.91	922.17
379.11	919.83
379.31	964.30
379.50	880.04
379.70	1015.79
379.89	898.77
380.09	851.96
380.28	903.45
380.48	950.26
380.68	889.40
380.87	940.90
381.07	1029.84
381.26	1008.77
381.46	973.66
381.65	1053.24
381.85	1015.79
382.04	1074.31
382.24	1097.71
382.43	1123.46
382.63	1057.92
382.83	1128.14
383.02	1060.26
383.22	1116.44
383.41	1022.81
383.61	1100.05
383.80	1125.80
384.00	1102.39
384.19	1132.82
384.39	1128.14
384.58	1198.35
384.78	1086.01
384.97	1125.80
385.17	1203.04
385.36	1160.91
385.56	1198.35
385.75	1172.61
385.95	1256.87
386.14	1235.80
386.34	1142.18
386.53	1144.52
386.72	1224.10
386.92	1224.10
387.11	1224.10
387.31	1275.59
387.50	1266.23
387.70	1254.53
387.89	1170.27
388.09	1343.47
388.28	1249.85
388.48	1369.21
388.67	1343.47
388.86	1308.36
389.06	1282.61
389.25	1348.15
389.45	1327.08
389.64	1334.11
389.84	1390.28
390.03	1315.38
390.22	1416.02
390.42	1303.68
390.61	1336.45
390.81	1458.15
391.00	1411.34
391.19	1416.02
391.39	1425.39
391.58	1432.41
391.78	1509.65
391.97	1481.56
392.16	1448.79
392.36	1488.58
392.55	1476.88
392.75	1568.16
392.94	1607.95
393.13	1490.92
393.33	1467.52
393.52	1603.27
393.71	1446.45
393.91	1577.52
394.10	1610.29
394.29	1612.63
394.49	1511.99
394.68	1589.22
394.88	1614.97
395.07	1664.12
395.26	1680.50
395.46	1687.53
395.65	1710.93
395.84	1694.55
396.04	1816.26
396.23	1762.42
396.42	1734.34
396.62	1750.72
396.81	1755.40
397.00	1746.04
397.19	1729.66
397.39	1755.40
397.58	1764.76
397.77	1743.70
397.97	1823.28
398.16	1823.28
398.35	1944.99
398.55	1895.83
398.74	1860.73
398.93	1916.90
399.12	1968.39
399.32	1872.43
399.51	1872.43
399.70	1963.71
399.90	1905.20
400.09	1996.48
400.28	1998.82
400.47	2022.22
400.67	2043.29
400.86	1963.71
401.05	1975.41
401.24	2143.93
401.44	2080.74
401.63	2167.34
401.82	2083.08
402.01	2127.55
402.21	2176.70
402.40	2249.25
402.59	2251.60
402.78	2258.62
402.97	2260.96
403.17	2267.98
403.36	2272.66
403.55	2347.56
403.74	2293.72
403.93	2438.84
404.13	2298.41
404.32	2349.90
404.51	2438.84
404.70	2490.33
404.89	2359.26
405.09	2455.22
405.28	2537.14
405.47	2499.69
405.66	2487.99
405.85	2518.42
406.05	2551.18
406.24	2520.76
406.43	2621.40
406.62	2574.59
406.81	2670.55
407.00	2665.87
407.20	2651.83
407.39	2736.09
407.58	2605.02
407.77	2878.86
407.96	2647.15
408.15	2778.22
408.34	2775.88
408.54	2813.32
408.73	2747.79
408.92	2789.92
409.11	2710.34
409.30	2792.26
409.49	2801.62
409.68	2832.05
409.87	2846.09
410.07	2935.03
410.26	2956.10
410.45	2801.62
410.64	3169.09
410.83	3087.17
411.02	3108.23
411.21	3136.32
411.40	3077.80
411.59	3155.04
411.78	3047.38
411.98	3227.60
412.17	3323.56
412.36	3311.86
412.55	3318.88
412.74	3288.45
412.93	3393.78
413.12	3424.20
413.31	3468.67
413.50	3506.12
413.69	3421.86
413.88	3660.60
414.07	3620.81
414.26	3648.90
414.45	3688.68
414.64	3691.02
414.83	3581.02
415.02	3613.79
415.22	3850.18
415.41	3845.50
415.60	3829.12
415.79	3967.21
415.98	3983.59
416.17	4009.34
416.36	4023.38
416.55	4007.00
416.74	4079.55
416.93	4044.45
417.12	4149.77
417.31	4133.39
417.50	4243.39
417.69	4301.90
417.88	4283.18
418.07	4269.14
418.26	4187.22
418.45	4283.18
418.64	4327.65
418.83	4374.46
419.02	4428.29
419.21	4519.57
419.39	4535.96
419.58	4472.76
419.77	4388.50
419.96	4409.57
420.15	4617.88
420.34	4585.11
420.53	4599.15
420.72	4557.02
420.91	4660.01
421.10	4657.67
421.29	4762.99
421.48	4629.58
421.67	4744.27
421.86	4755.97
422.05	4751.29
422.24	4908.10
422.43	4823.84
422.61	4919.81
422.80	4826.18
422.99	4936.19
423.18	4898.74
423.37	4987.68
423.56	4945.55
423.75	4774.69
423.94	4922.15
424.13	4585.11
424.32	4711.50
424.50	4954.91
424.69	5074.28
424.88	5095.35
425.07	4917.47
425.26	4940.87
425.45	4908.10
425.64	5008.75
425.83	5057.90
426.01	5078.96
426.20	5015.77
426.39	5034.49
426.58	4966.62
426.77	5050.88
426.96	5006.41
427.15	5083.64
427.33	5046.20
427.52	5167.90
427.71	5060.24
427.90	5242.80
428.09	5198.33
428.28	5305.99
428.46	5434.72
428.65	5245.14
428.84	5572.82
429.03	5460.47
429.22	5364.51
429.40	5439.40
429.59	5404.30
429.78	5238.12
429.97	5284.93
430.16	5479.19
430.34	5406.64
430.53	5610.26
430.72	5678.14
430.91	5628.99
431.10	5678.14
431.28	5736.65
431.47	5750.70
431.66	5762.40
431.85	5610.26
432.03	5881.77
432.22	5923.90
432.41	5956.66
432.60	5825.59
432.79	5895.81
432.97	5963.68
433.16	6085.39
433.35	5816.23
433.54	6031.56
433.72	5977.73
433.91	6040.92
434.10	5942.62
434.28	5853.68
434.47	6087.73
434.66	6249.23
434.85	6260.93
435.03	6242.21
435.22	6319.45
435.41	6494.99
435.59	6520.73
435.78	6354.55
435.97	6537.12
436.16	6377.96
436.34	6356.90
436.53	6286.68
436.72	6616.69
436.90	6352.21
437.09	6663.51
437.28	6375.62
437.46	6438.81
437.65	6562.86
437.84	6794.58
438.02	6656.48
438.21	6806.28
438.40	6670.53
438.58	7164.38
438.77	7019.27
438.96	6785.21
439.14	7045.01
439.33	7040.33
439.52	7143.32
439.70	7131.61
439.89	7239.28
440.08	7307.15
440.26	7307.15
440.45	7597.38
440.63	7557.59
440.82	7576.31
441.01	7272.04
441.19	7531.84
441.38	7679.30
441.57	7740.15
441.75	7726.11
441.94	7962.50
442.12	7920.37
442.31	7962.50
442.50	8210.60
442.68	7847.82
442.87	7782.28
443.05	8032.72
443.24	8234.00
443.43	7960.16
443.61	7925.05
443.80	8322.94
443.98	7847.82
444.17	7702.70
444.35	8360.39
444.54	8294.86
444.73	8182.51
444.91	8187.19
445.10	8439.97
445.28	8126.34
445.47	8336.99
445.65	8325.29
445.84	8339.33
446.02	8557.00
446.21	8320.60
446.39	8140.38
446.58	8465.72
446.77	8430.61
446.95	8112.30
447.14	8439.97
447.32	8430.61
447.51	8273.79
447.69	8219.96
447.88	8449.33
448.06	8482.10
448.25	8470.40
448.43	8503.17
448.62	8631.90
448.80	8369.76
448.99	8519.55
449.17	8664.66
449.36	8510.19
449.54	8751.26
449.73	8887.01
449.91	8931.48
450.10	8753.60
450.28	8861.27
450.46	9179.58
450.65	8891.70
450.83	8975.95
451.02	8870.63
451.20	9034.47
451.39	9055.53
451.57	8966.59
451.76	8887.01
451.94	9228.73
452.13	9320.01
452.31	9268.52
452.49	9032.13
452.68	9231.07
452.86	9308.31
453.05	9511.94
453.23	9348.10
453.42	9385.55
453.60	9331.72
453.78	9427.68
453.97	9376.19
454.15	9385.55
454.34	9394.91
454.52	9736.63
454.70	9664.07
454.89	9603.22
455.07	9654.71
455.26	9736.63
455.44	9907.49
455.62	9769.40
455.81	9888.76
455.99	9919.19
456.17	9933.23
456.36	9888.76
456.54	10204.74
456.73	10108.77
456.91	10473.90
457.09	10286.65
457.28	10429.43
457.46	10225.80
457.64	10317.08
457.83	10363.89
458.01	10260.91
458.19	10590.92
458.38	10174.31
458.56	10628.37
458.74	10604.97
458.93	10862.43
459.11	10476.24
459.29	10424.75
459.48	10494.96
459.66	10867.11
459.84	10775.83
460.03	10956.05
460.21	10890.51
460.39	11159.67
460.57	10883.49
460.76	11147.97
460.94	11276.70
461.12	11112.86
461.31	10967.75
461.49	11250.96
461.67	11248.61
461.85	11590.33
462.04	11133.93
462.22	11698.00
462.40	11407.77
462.59	11379.68
462.77	11246.27
462.95	11524.80
463.13	11534.16
463.32	11520.12
463.50	11726.08
463.68	11653.53
463.86	11730.76
464.05	11719.06
464.23	11662.89
464.41	11396.07
464.59	11714.38
464.78	11845.45
464.96	11873.54
465.14	11620.76
465.32	11721.40
465.50	11861.84
465.69	12032.69
465.87	12025.67
466.05	12271.43
466.23	12028.01
466.41	12154.40
466.60	12271.43
466.78	11960.14
466.96	11812.68
467.14	12428.24
467.32	12290.15
467.51	12404.84
467.69	12105.25
467.87	12343.99
468.05	12587.40
468.23	12414.20
468.41	12226.96
468.60	12596.76
468.78	12807.41
468.96	12531.23
469.14	12678.68
469.32	12627.19
469.50	12620.17
469.69	12805.07
469.87	12968.91
470.05	13018.06
470.23	13013.38
470.41	13217.01
470.59	13125.72
470.77	13226.37
470.95	13090.62
471.14	13528.30
471.32	13071.89
471.50	13544.68
471.68	13556.38
471.86	13540.00
472.04	13678.09
472.22	14012.79
472.40	13689.79
472.58	13923.85
472.77	13797.46
472.95	14188.33
473.13	14523.02
473.31	14139.18
473.49	14066.62
473.67	13881.72
473.85	14249.18
474.03	14572.18
474.21	14530.05
474.39	14663.46
474.57	14794.53
474.75	14668.14
474.93	14881.13
475.12	14934.96
475.30	14693.88
475.48	15176.03
475.66	15012.20
475.84	14883.47
476.02	15288.38
476.20	15199.44
476.38	15522.43
476.56	15920.32
476.74	15948.41
476.92	15852.45
477.10	15763.51
477.28	15875.85
477.46	16060.76
477.64	16175.44
477.82	16322.90
478.00	16725.47
478.18	16582.70
478.36	16947.82
478.54	16903.35
478.72	16875.26
478.90	17291.88
479.08	17453.37
479.26	17657.00
479.44	17642.96
479.62	17589.13
479.80	17855.95
479.98	17752.96
480.16	18523.00
480.34	18104.04
480.52	18485.55
480.70	18595.56
480.88	18153.20
481.06	18569.81
481.24	18387.25
481.41	18911.53
481.59	19358.57
481.77	19307.08
481.95	19337.51
482.13	19403.04
482.31	19697.95
482.49	19669.86
482.67	19983.49
482.85	20453.94
483.03	20453.94
483.21	20517.14
483.39	20800.34
483.57	20678.63
483.74	21200.57
483.92	21472.07
484.10	21008.65
484.28	21699.11
484.46	22073.59
484.64	21965.93
484.82	21832.52
485.00	22562.76
485.18	22651.70
485.35	22801.50
485.53	22326.37
485.71	22480.85
485.89	23211.09
486.07	23122.15
486.25	23419.40
486.43	23711.97
486.61	23742.39
486.78	23524.72
486.96	24142.63
487.14	24479.66
487.32	24383.70
487.50	24503.07
487.68	25032.03
487.85	25310.55
488.03	25259.06
488.21	25649.93
488.39	25216.93
488.57	25781.00
488.75	25841.85
488.92	26019.74
489.10	26761.69
489.28	26593.17
489.46	26867.01
489.64	26632.96
489.81	27793.86
489.99	27229.79
490.17	27278.94
490.35	28004.51
490.53	28098.13
490.70	28067.70
490.88	27978.76
491.06	28898.59
491.24	28561.56
491.41	28767.52
491.59	28926.68
491.77	29076.48
491.95	29317.55
492.13	29680.33
492.30	29429.90
492.48	29846.51
492.66	29951.84
492.84	30146.10
493.01	30415.26
493.19	30291.21
493.37	31089.34
493.54	30815.49
493.72	31197.00
493.90	31206.36
494.08	31695.53
494.25	31524.68
494.43	31798.52
494.61	32041.93
494.79	32360.25
494.96	32297.05
495.14	32402.38
495.32	33076.45
495.49	32973.47
495.67	32973.47
495.85	33483.70
496.02	33579.67
496.20	33453.28
496.38	34087.56
496.55	33544.56
496.73	34527.58
496.91	34543.97
497.09	34185.86
497.26	34630.57
497.44	34572.05
497.62	35124.42
497.79	35388.90
497.97	35302.30
498.14	35768.07
498.32	36037.23
498.50	35676.79
498.67	36154.26
498.85	36196.38
499.03	36140.21
499.20	36449.16
499.38	36367.24
499.56	36844.71
499.73	36851.73
499.91	37085.79
500.08	37111.53
500.26	37235.58
500.44	37251.97
500.61	37111.53
500.79	37481.34
500.97	38052.43
501.14	38396.49
501.32	38106.26
501.49	38150.73
501.67	38464.36
501.84	38277.12
502.02	38885.66
502.20	38567.35
502.37	39014.39
502.55	38995.67
502.72	39082.27
502.90	39241.42
503.07	39423.98
503.25	39615.91
503.43	39250.78
503.60	39744.64
503.78	39821.87
503.95	39833.58
504.13	40009.12
504.30	40016.14
504.48	40318.07
504.65	40739.36
504.83	40978.10
505.01	41017.89
505.18	41013.21
505.36	41022.57
505.53	41116.19
505.71	41228.54
505.88	41565.57
506.06	41509.40
506.23	41635.79
506.41	42031.34
506.58	41457.91
506.76	41460.25
506.93	41935.38
507.11	41848.78
507.28	42244.33
507.46	42841.17
507.63	42532.22
507.81	42689.03
507.98	42450.30
508.16	42775.63
508.33	43297.57
508.50	43068.20
508.68	43316.29
508.85	43709.50
509.03	43419.28
509.20	43356.08
509.38	44079.31
509.55	43945.90
509.73	44414.01
509.90	44397.62
510.08	44442.09
510.25	44287.62
510.42	45064.67
510.60	44729.98
510.77	44877.43
510.95	45059.99
511.12	44882.11
511.30	45261.28
511.47	44933.60
511.64	44971.05
511.82	45670.87
511.99	45310.43
512.17	45425.12
512.34	45326.81
512.51	45881.52
512.69	46188.13
512.86	45993.87
513.04	46724.11
513.21	46150.68
513.38	46160.05
513.56	46635.17
513.73	46382.40
513.90	46518.15
514.08	46913.70
514.25	46749.86
514.43	47047.11
514.60	47269.46
514.77	47264.78
514.95	47309.25
515.12	46787.31
515.29	46932.42
515.47	47650.97
515.64	47707.14
515.81	47194.56
515.99	48009.07
516.16	48287.59
516.33	47903.74
516.51	48266.53
516.68	48245.46
516.85	48083.97
517.03	48708.89
517.20	49017.84
517.37	48318.02
517.54	48744.00
517.72	48760.38
517.89	48767.40
518.06	48942.94
518.24	48807.19
518.41	49169.97
518.58	49495.31
518.75	49230.83
518.93	49216.78
519.10	49244.87
519.27	49001.46
519.45	49567.87
519.62	49858.09
519.79	49879.16
519.96	49155.93
520.14	49617.02
520.31	49694.25
520.48	50223.22
520.65	49909.58
520.83	50351.94
521.00	50326.20
521.17	50019.59
521.34	50253.64
521.52	50569.61
521.69	50555.57
521.86	50791.97
522.03	50883.25
522.20	51271.78
522.38	50829.41
522.55	51119.64
522.72	51105.60
522.89	50923.04
523.07	51430.93
523.24	51196.88
523.41	51480.08
523.58	50939.42
523.75	51379.44
523.92	51255.39
524.10	51421.57
524.27	51810.10
524.44	51547.96
524.61	51634.56
524.78	51753.93
524.96	51756.27
525.13	51859.25
525.30	52105.01
525.47	52327.36
525.64	52294.59
525.81	52690.14
525.98	52500.56
526.16	52589.50
526.33	52514.60
526.50	52533.32
526.67	52313.31
526.84	52502.90
527.01	52353.10
527.18	53069.31
527.36	52816.53
527.53	52732.27
527.70	53214.42
527.87	53008.45
528.04	53059.94
528.21	53385.28
528.38	52996.75
528.55	53090.37
528.72	53010.79
528.89	53162.93
529.07	53003.77
529.24	53205.06
529.41	53593.59
529.58	53308.04
529.75	53478.90
529.92	53647.42
530.09	53380.60
530.26	53703.59
530.43	53832.32
530.60	53619.33
530.77	53841.68
530.94	53996.16
531.11	53563.16
531.28	53872.11
531.46	54204.47
531.63	54038.29
531.80	54061.69
531.97	54195.10
532.14	54265.32
532.31	54094.46
532.48	54349.58
532.65	54380.01
532.82	54312.13
532.99	54543.84
533.16	54258.30
533.33	54635.13
533.50	54747.47
533.67	54740.45
533.84	54529.80
534.01	54504.06
534.18	54883.22
534.35	55037.70
534.52	54901.95
534.69	54906.63
534.86	55269.41
535.03	54674.91
535.20	55082.17
535.37	55103.23
535.54	55271.75
535.71	55028.34
535.88	55246.00
536.05	55143.02
536.22	55150.04
536.38	55360.69
536.55	55517.51
536.72	55585.38
536.89	55248.35
537.06	55501.12
537.23	55524.53
537.40	55524.53
537.57	55636.87
537.74	55487.08
537.91	55664.96
538.08	55494.10
538.25	55590.06
538.42	55760.92
538.59	56182.22
538.75	55800.71
538.92	55744.54
539.09	55840.50
539.26	55959.87
539.43	55798.37
539.60	56023.06
539.77	56151.79
539.94	56514.58
540.11	56067.53
540.28	56259.46
540.44	56676.07
540.61	56044.13
540.78	56144.77
540.95	55950.51
541.12	56271.16
541.29	56458.40
541.46	56413.93
541.62	56535.64
541.79	56507.55
541.96	56198.60
542.13	56413.93
542.30	56481.81
542.47	56615.22
542.63	56708.84
542.80	56900.76
542.97	56767.35
543.14	57282.27
543.31	57036.51
543.48	56914.81
543.64	57013.11
543.81	57111.41
543.98	57113.75
544.15	56823.53
544.32	57226.10
544.48	57354.83
544.65	56935.87
544.82	57373.55
544.99	57038.86
545.16	57078.64
545.32	57176.95
545.49	57542.07
545.66	57511.64
545.83	57331.42
546.00	57565.48
546.16	57563.14
546.33	57392.28
546.50	57366.53
546.67	57474.20
546.83	57165.24
547.00	57516.32
547.17	57436.75
547.34	57607.61
547.50	57682.50
547.67	57984.43
547.84	57841.66
548.00	57972.73
548.17	57904.85
548.34	57902.51
548.51	58258.27
548.67	57993.79
548.84	57815.91
549.01	58028.90
549.18	58000.82
549.34	58045.29
549.51	57883.79
549.68	58010.18
549.84	58122.52
550.01	58092.10
550.18	57949.32
550.34	58174.02
550.51	58342.53
550.68	58288.70
550.84	58387.00
551.01	58307.43
551.18	58382.32
551.34	58415.09
551.51	58553.18
551.68	58307.43
551.84	58211.46
552.01	58295.72
552.18	58382.32
552.34	58342.53
552.51	58532.12
552.68	58471.26
552.84	58377.64
553.01	58651.48
553.18	58660.85
553.34	58731.06
553.51	58478.28
553.67	58562.54
553.84	58602.33
554.01	58679.57
554.17	58862.13
554.34	58691.27
554.51	58658.51
554.67	58700.64
554.84	58873.84
555.00	58731.06
555.17	58808.30
555.33	59068.10
555.50	58784.90
555.67	58815.32
555.83	58820.00
556.00	59077.46
556.16	59405.14
556.33	59070.44
556.50	58988.52
556.66	59185.13
556.83	58803.62
556.99	59157.04
557.16	59274.07
557.32	59241.30
557.49	59363.01
557.65	58981.50
557.82	59180.45
557.98	59119.59
558.15	59241.30
558.32	59299.81
558.48	59416.84
558.65	59372.37
558.81	59128.95
558.98	59316.20
559.14	59365.35
559.31	59470.67
559.47	59409.82
559.64	59650.89
559.80	59515.14
559.97	59540.89
560.13	59391.09
560.30	59583.02
560.46	59688.34
560.63	59536.21
560.79	59611.10
560.96	59594.72
561.12	59618.13
561.29	59372.37
561.45	59669.62
561.61	59674.30
561.78	59763.24
561.94	59554.93
562.11	59781.96
562.27	59590.04
562.44	59833.46
562.60	60048.78
562.77	59856.86
562.93	59456.63
563.10	59842.82
563.26	59611.10
563.42	60072.19
563.59	59931.76
563.75	59784.30
563.92	59880.27
564.08	59714.09
564.24	60079.21
564.41	59955.16
564.57	59971.55
564.74	59772.60
564.90	60051.12
565.07	59758.56
565.23	59852.18
565.39	59884.95
565.56	60158.79
565.72	60048.78
565.88	59915.37
566.05	59976.23
566.21	60182.19
566.38	60168.15
566.54	59957.50
566.70	60268.79
566.87	60247.73
567.03	60119.00
567.19	60299.22
567.36	60123.68
567.52	60097.94
567.68	60566.04
567.85	60416.25
568.01	60301.56
568.17	59971.55
568.34	60179.85
568.50	60259.43
568.66	60191.56
568.83	60100.28
568.99	60217.30
569.15	60247.73
569.32	60505.19
569.48	60388.16
569.64	60430.29
569.81	60170.49
569.97	60177.51
570.13	60420.93
570.30	60203.26
570.46	60107.30
570.62	60233.69
570.78	60301.56
570.95	60233.69
571.11	60404.55
571.27	60383.48
571.43	60226.66
571.60	60409.23
571.76	60404.55
571.92	60360.08
572.09	60477.10
572.25	60449.02
572.41	60451.36
572.57	60418.59
572.74	60561.36
572.90	60491.15
573.06	60413.91
573.22	60439.65
573.38	60556.68
573.55	60331.99
573.71	60549.66
573.87	60514.55
574.03	60554.34
574.20	60563.70
574.36	60411.57
574.52	60535.62
574.68	60596.47
574.84	60575.40
575.01	60734.56
575.17	60547.32
575.33	60456.04
575.49	60331.99
575.65	60418.59
575.82	60619.88
575.98	60542.64
576.14	60729.88
576.30	60493.49
576.46	60460.72
576.62	60575.40
576.79	60498.17
576.95	60523.91
577.11	60472.42
577.27	60589.45
577.43	60612.85
577.59	60603.49
577.75	60552.00
577.92	60622.22
578.08	60697.11
578.24	60814.14
578.40	60750.94
578.56	60732.22
578.72	60657.32
578.88	60835.20
579.04	60928.83
579.21	60669.03
579.37	60886.70
579.53	60856.27
579.69	60484.12
579.85	60594.13
580.01	60580.09
580.17	60582.43
580.33	60671.37
580.49	60781.37
580.65	60767.33
580.82	60666.69
580.98	60692.43
581.14	60851.59
581.30	60830.52
581.46	60647.96
581.62	60727.54
581.78	60605.83
581.94	60713.50
582.10	60725.20
582.26	60879.67
582.42	60612.85
582.58	60816.48
582.74	60809.46
582.90	60610.51
583.06	60865.63
583.22	60598.81
583.38	60760.31
583.54	60835.20
583.70	60781.37
583.86	60769.67
584.02	60650.30
584.18	60905.42
584.34	60940.53
584.50	60694.77
584.66	60811.80
584.82	60718.18
584.98	61104.37
585.14	60966.27
585.30	60718.18
585.46	60931.17
585.62	60896.06
585.78	61090.32
585.94	60467.74
586.10	61029.47
586.26	60926.49
586.42	61092.66
586.58	60814.14
586.74	60839.89
586.90	60729.88
587.06	60662.00
587.22	60746.26
587.38	60746.26
587.54	60851.59
587.70	61073.94
587.86	60830.52
588.02	60851.59
588.18	60956.91
588.34	60949.89
588.49	60851.59
