SpectraSuite Data File
++++++++++++++++++++++++++++++++++++
Date: Fri Oct 25 10:48:36 EDT 2013
User: price-jones
Dark Spectrum Present: No
Reference Spectrum Present: No
Number of Sampled Component Spectra: 1
Spectrometers: USB2+H05261
Integration Time (usec): 100000 (USB2+H05261)
Spectra Averaged: 1 (USB2+H05261)
Boxcar Smoothing: 0 (USB2+H05261)
Correct for Electrical Dark: No (USB2+H05261)
Strobe/Lamp Enabled: No (USB2+H05261)
Correct for Detector Non-linearity: No (USB2+H05261)
Correct for Stray Light: No (USB2+H05261)
Number of Pixels in Processed Spectrum: 2048
>>>>>Begin Processed Spectral Data<<<<<
365.73	135.75
365.92	135.75
366.12	135.75
366.32	18.72
366.52	60.85
366.72	49.15
366.91	102.98
367.11	42.13
367.31	0.00
367.51	42.13
367.70	70.22
367.90	135.75
368.10	35.11
368.30	88.94
368.49	124.05
368.69	117.03
368.89	74.90
369.09	18.72
369.28	133.41
369.48	30.43
369.68	163.84
369.87	102.98
370.07	65.54
370.27	149.79
370.47	212.99
370.66	341.72
370.86	461.09
371.06	477.47
371.25	465.77
371.45	472.79
371.65	582.79
371.84	463.43
372.04	489.17
372.24	468.11
372.44	608.54
372.63	613.22
372.83	535.98
373.03	589.82
373.22	669.39
373.42	653.01
373.62	550.03
373.81	559.39
374.01	622.58
374.21	596.84
374.40	554.71
374.60	641.31
374.79	627.26
374.99	608.54
375.19	648.33
375.38	601.52
375.58	720.88
375.78	662.37
375.97	681.10
376.17	711.52
376.37	648.33
376.56	674.07
376.76	645.99
376.95	608.54
377.15	716.20
377.35	676.41
377.54	692.80
377.74	704.50
377.93	763.01
378.13	755.99
378.33	723.23
378.52	758.33
378.72	727.91
378.91	662.37
379.11	655.35
379.31	650.67
379.50	648.33
379.70	727.91
379.89	723.23
380.09	732.59
380.28	758.33
380.48	784.08
380.68	814.51
380.87	744.29
381.07	725.57
381.26	866.00
381.46	753.65
381.65	812.17
381.85	674.07
382.04	713.86
382.24	765.36
382.43	835.57
382.63	746.63
382.83	720.88
383.02	830.89
383.22	748.97
383.41	763.01
383.61	767.70
383.80	755.99
384.00	800.46
384.19	819.19
384.39	842.59
384.58	823.87
384.78	837.91
384.97	821.53
385.17	882.38
385.36	816.85
385.56	821.53
385.75	800.46
385.95	835.57
386.14	903.45
386.34	966.64
386.53	868.34
386.72	856.64
386.92	929.19
387.11	964.30
387.31	915.15
387.50	952.60
387.70	917.49
387.89	950.26
388.09	922.17
388.28	828.55
388.48	898.77
388.67	1025.15
388.86	961.96
389.06	1029.84
389.25	1015.79
389.45	1048.56
389.64	1036.86
389.84	1062.60
390.03	1111.75
390.22	1160.91
390.42	990.05
390.61	1041.54
390.81	1048.56
391.00	1102.39
391.19	1137.50
391.39	1109.41
391.58	1050.90
391.78	1109.41
391.97	1100.05
392.16	1160.91
392.36	1184.31
392.55	1048.56
392.75	1156.22
392.94	1102.39
393.13	1022.81
393.33	1008.77
393.52	1128.14
393.71	1118.78
393.91	1191.33
394.10	1181.97
394.29	1219.42
394.49	1291.98
394.68	1313.04
394.88	1324.74
395.07	1268.57
395.26	1352.83
395.46	1289.64
395.65	1308.36
395.84	1252.19
396.04	1259.21
396.23	1196.01
396.42	1184.31
396.62	1291.98
396.81	1357.51
397.00	1270.91
397.19	1418.36
397.39	1432.41
397.58	1584.54
397.77	1519.01
397.97	1460.49
398.16	1540.07
398.35	1533.05
398.55	1544.75
398.74	1603.27
398.93	1645.40
399.12	1666.46
399.32	1511.99
399.51	1650.08
399.70	1685.19
399.90	1577.52
400.09	1692.21
400.28	1764.76
400.47	1631.35
400.67	1715.61
400.86	1856.04
401.05	1799.87
401.24	1781.15
401.44	1832.64
401.63	1853.70
401.82	1849.02
402.01	1781.15
402.21	1865.41
402.40	1842.00
402.59	1849.02
402.78	1891.15
402.97	1907.54
403.17	1853.70
403.36	1895.83
403.55	1984.77
403.74	1902.86
403.93	1942.64
404.13	1937.96
404.32	1961.37
404.51	1984.77
404.70	2132.23
404.89	1935.62
405.09	2153.29
405.28	2069.03
405.47	1966.05
405.66	2043.29
405.85	2122.87
406.05	2108.82
406.24	2162.66
406.43	2221.17
406.62	2289.04
406.81	2293.72
407.00	2167.34
407.20	2195.42
407.39	2155.63
407.58	2253.94
407.77	2331.17
407.96	2377.98
408.15	2228.19
408.34	2342.88
408.54	2324.15
408.73	2462.24
408.92	2342.88
409.11	2380.32
409.30	2258.62
409.49	2541.82
409.68	2441.18
409.87	2462.24
410.07	2392.03
410.26	2413.09
410.45	2448.20
410.64	2520.76
410.83	2612.04
411.02	2651.83
411.21	2820.35
411.40	2708.00
411.59	2705.66
411.78	2740.77
411.98	2693.96
412.17	2722.04
412.36	2803.96
412.55	2836.73
412.74	2949.08
412.93	2810.98
413.12	2810.98
413.31	3028.65
413.50	2846.09
413.69	2970.14
413.88	3026.31
414.07	3148.02
414.26	3016.95
414.45	3061.42
414.64	3173.77
414.83	3077.80
415.02	3213.56
415.22	3279.09
415.41	3323.56
415.60	3180.79
415.79	3304.84
415.98	3412.50
416.17	3370.37
416.36	3492.08
416.55	3325.90
416.74	3393.78
416.93	3503.78
417.12	3489.74
417.31	3456.97
417.50	3428.88
417.69	3485.06
417.88	3644.21
418.07	3623.15
418.26	3602.08
418.45	3611.45
418.64	3735.50
418.83	3812.73
419.02	3714.43
419.21	3772.94
419.39	3824.44
419.58	3625.49
419.77	3534.21
419.96	3712.09
420.15	3833.80
420.34	3906.35
420.53	3880.61
420.72	3969.55
420.91	3854.86
421.10	3964.87
421.29	4095.94
421.48	3997.64
421.67	3971.89
421.86	4004.66
422.05	3861.88
422.24	3988.27
422.43	3964.87
422.61	3967.21
422.80	3946.14
422.99	4194.24
423.18	4269.14
423.37	4095.94
423.56	4049.13
423.75	4037.42
423.94	3943.80
424.13	3794.01
424.32	4011.68
424.50	4128.70
424.69	4194.24
424.88	4210.62
425.07	4025.72
425.26	3934.44
425.45	3997.64
425.64	4117.00
425.83	4222.33
426.01	4196.58
426.20	4173.18
426.39	4297.22
426.58	4042.11
426.77	4119.34
426.96	4152.11
427.15	4156.79
427.33	4325.31
427.52	4397.87
427.71	4173.18
427.90	4262.12
428.09	4259.78
428.28	4217.65
428.46	4339.35
428.65	4334.67
428.84	4564.04
429.03	4454.04
429.22	4156.79
429.40	4365.10
429.59	4329.99
429.78	4194.24
429.97	4067.85
430.16	4133.39
430.34	4299.56
430.53	4334.67
430.72	4561.70
430.91	4451.70
431.10	4482.13
431.28	4578.09
431.47	4844.91
431.66	4964.28
431.85	4805.12
432.03	4903.42
432.22	4940.87
432.41	4765.33
432.60	4805.12
432.79	4671.71
432.97	5046.20
433.16	4926.83
433.35	4873.00
433.54	4940.87
433.72	4793.42
433.91	4936.19
434.10	4933.85
434.28	4929.17
434.47	5060.24
434.66	5156.20
434.85	5116.41
435.03	5130.45
435.22	5308.34
435.41	5291.95
435.59	5153.86
435.78	5336.42
435.97	5228.76
436.16	5296.63
436.34	5275.57
436.53	5341.10
436.72	5479.19
436.90	5254.50
437.09	5411.32
437.28	5338.76
437.46	5385.57
437.65	5411.32
437.84	5331.74
438.02	5423.02
438.21	5291.95
438.40	5593.88
438.58	5617.29
438.77	5626.65
438.96	5554.09
439.14	5708.57
439.33	5940.28
439.52	5930.92
439.70	5724.95
439.89	5748.36
440.08	5914.53
440.26	5921.56
440.45	5998.79
440.63	6064.33
440.82	6272.64
441.01	6242.21
441.19	6253.91
441.38	6401.37
441.57	6202.42
441.75	6422.43
441.94	6626.06
442.12	6459.88
442.31	6523.07
442.50	6581.59
442.68	6569.88
442.87	6567.54
443.05	6581.59
443.24	6602.65
443.43	6654.14
443.61	6722.02
443.80	6832.02
443.98	6553.50
444.17	6431.79
444.35	6658.82
444.54	6944.37
444.73	6888.20
444.91	6876.49
445.10	6707.98
445.28	6745.42
445.47	6768.83
445.65	6612.01
445.84	6722.02
446.02	6729.04
446.21	6731.38
446.39	6876.49
446.58	6883.52
446.77	6988.84
446.95	6988.84
447.14	6935.01
447.32	6977.14
447.51	6967.77
447.69	6890.54
447.88	7117.57
448.06	7037.99
448.25	7157.36
448.43	6892.88
448.62	6977.14
448.80	6944.37
448.99	7140.97
449.17	7199.49
449.36	7110.55
449.54	7194.81
449.73	7267.36
449.91	7407.80
450.10	7353.96
450.28	7602.06
450.46	7499.08
450.65	7655.89
450.83	7414.82
451.02	7590.36
451.20	7688.66
451.39	7531.84
451.57	7604.40
451.76	7548.23
451.94	7461.63
452.13	7424.18
452.31	7485.03
452.49	7531.84
452.68	7433.54
452.86	7480.35
453.05	7517.80
453.23	7681.64
453.42	7613.76
453.60	7789.30
453.78	7805.69
453.97	7611.42
454.15	7555.25
454.34	7655.89
454.52	7896.97
454.70	7896.97
454.89	7824.41
455.07	7857.18
455.26	7866.54
455.44	8063.15
455.62	7906.33
455.81	7861.86
455.99	8145.06
456.17	8131.02
456.36	8065.49
456.54	8285.50
456.73	8245.71
456.91	8676.37
457.09	8400.18
457.28	8734.88
457.46	8346.35
457.64	8404.86
457.83	8615.51
458.01	8318.26
458.19	8655.30
458.38	8461.04
458.56	8594.45
458.74	8669.34
458.93	8601.47
459.11	8470.40
459.29	8772.33
459.48	8634.24
459.66	8699.77
459.84	8858.93
460.03	8882.33
460.21	8746.58
460.39	8737.22
460.57	8706.79
460.76	8823.82
460.94	9011.06
461.12	8823.82
461.31	9085.96
461.49	8999.36
461.67	8999.36
461.85	9071.92
462.04	9006.38
462.22	9769.40
462.40	9240.44
462.59	9184.26
462.77	9324.69
462.95	9315.33
463.13	9207.67
463.32	9364.48
463.50	9465.13
463.68	9415.98
463.86	9481.51
464.05	9249.80
464.23	9303.63
464.41	9437.04
464.59	9245.12
464.78	9420.66
464.96	9535.34
465.14	9188.94
465.32	9540.02
465.50	9509.60
465.69	9741.31
465.87	9647.69
466.05	9465.13
466.23	9633.64
466.41	9589.17
466.60	9895.78
466.78	9493.21
466.96	9589.17
467.14	9724.93
467.32	9771.74
467.51	9895.78
467.69	9701.52
467.87	9767.06
468.05	9729.61
468.23	9767.06
468.41	9802.16
468.60	9877.06
468.78	10031.54
468.96	9802.16
469.14	10197.71
469.32	10195.37
469.50	10040.90
469.69	10146.22
469.87	9963.66
470.05	10125.16
470.23	10356.87
470.41	9944.94
470.59	10452.83
470.77	10186.01
470.95	10487.94
471.14	10806.25
471.32	10157.92
471.50	10586.24
471.68	10705.61
471.86	10867.11
472.04	10822.64
472.22	10953.71
472.40	10822.64
472.58	10916.26
472.77	10656.46
472.95	10895.19
473.13	11337.56
473.31	10757.10
473.49	10981.79
473.67	10883.49
473.85	11194.78
474.03	11332.87
474.21	11634.80
474.39	11269.68
474.57	11351.60
474.75	11761.19
474.93	11669.91
475.12	11637.14
475.30	11903.96
475.48	11740.13
475.66	11756.51
475.84	11948.43
476.02	12044.40
476.20	11941.41
476.38	12182.49
476.56	12203.55
476.74	12231.64
476.92	12430.59
477.10	12472.71
477.28	12444.63
477.46	12571.02
477.64	12737.20
477.82	12884.65
478.00	13062.53
478.18	13034.44
478.36	13069.55
478.54	13046.15
478.72	13184.24
478.90	13472.12
479.08	13495.53
479.26	13692.13
479.44	13692.13
479.62	13858.31
479.80	13860.65
479.98	13781.07
480.16	14162.58
480.34	14307.69
480.52	14115.77
480.70	14342.80
480.88	14228.12
481.06	14518.34
481.24	14436.42
481.41	14806.23
481.59	14824.95
481.77	14902.19
481.95	14984.11
482.13	15192.42
482.31	15213.48
482.49	15564.56
482.67	15239.23
482.85	15676.91
483.03	15700.31
483.21	16006.92
483.39	15843.09
483.57	16093.52
483.74	16046.71
483.92	16163.74
484.10	16269.06
484.28	16404.81
484.46	16657.59
484.64	16898.67
484.82	16648.23
485.00	16872.92
485.18	17034.42
485.35	17130.38
485.53	16814.41
485.71	16858.88
485.89	16940.80
486.07	17186.55
486.25	17404.22
486.43	17378.48
486.61	17547.00
486.78	18012.76
486.96	18326.39
487.14	18551.09
487.32	18347.46
487.50	18466.83
487.68	18899.83
487.85	18843.65
488.03	19323.46
488.21	19482.62
488.39	19215.80
488.57	19274.31
488.75	19309.42
488.92	19531.77
489.10	19997.54
489.28	20175.42
489.46	20430.54
489.64	20290.10
489.81	21144.40
489.99	20950.14
490.17	21057.80
490.35	21092.91
490.53	21020.35
490.70	21350.37
490.88	21661.66
491.06	21720.17
491.24	21675.70
491.41	21486.12
491.59	21280.15
491.77	21425.26
491.95	21710.81
492.13	22274.88
492.30	22429.35
492.48	22539.36
492.66	22771.07
492.84	22487.87
493.01	22747.67
493.19	22817.88
493.37	22895.12
493.54	23037.89
493.72	23620.69
493.90	23686.22
494.08	23786.86
494.25	23749.42
494.43	24095.82
494.61	24631.80
494.79	24350.93
494.96	24276.04
495.14	24357.96
495.32	24549.88
495.49	24547.54
495.67	24608.39
495.85	24797.98
496.02	25113.95
496.20	25252.04
496.38	25090.54
496.55	25303.53
496.73	26026.76
496.91	25455.67
497.09	26003.35
497.26	25764.62
497.44	25949.52
497.62	25766.96
497.79	25804.41
497.97	26125.06
498.14	26515.93
498.32	26668.06
498.50	26789.77
498.67	26775.73
498.85	26703.17
499.03	27623.00
499.20	27194.68
499.38	27182.98
499.56	27555.13
499.73	27498.95
499.91	27440.44
500.08	27353.84
500.26	27288.31
500.44	27831.31
500.61	27821.95
500.79	27363.20
500.97	27541.08
501.14	28231.54
501.32	28196.43
501.49	28039.62
501.67	28404.74
501.84	28332.18
502.02	28463.25
502.20	28669.22
502.37	28680.92
502.55	28999.24
502.72	28889.23
502.90	29057.75
503.07	28936.04
503.25	29488.41
503.43	29032.00
503.60	29116.26
503.78	29401.81
503.95	29228.61
504.13	29834.81
504.30	29876.94
504.48	29514.16
504.65	29706.08
504.83	30167.16
505.01	29827.79
505.18	30010.35
505.36	30551.01
505.53	30309.94
505.71	30967.63
505.88	30417.60
506.06	30696.13
506.23	30897.41
506.41	30436.33
506.58	30749.96
506.76	31019.12
506.93	30630.59
507.11	31395.95
507.28	31152.53
507.46	31173.60
507.63	30897.41
507.81	31669.79
507.98	31131.47
508.16	31653.40
508.33	31597.23
508.50	31660.43
508.68	31789.16
508.85	31999.80
509.03	32156.62
509.20	32058.32
509.38	32147.26
509.55	32797.93
509.73	32173.00
509.90	32407.06
510.08	32568.55
510.25	32496.00
510.42	32652.81
510.60	32329.82
510.77	32744.09
510.95	33373.70
511.12	33308.16
511.30	33251.99
511.47	33312.84
511.64	33509.45
511.82	33420.51
511.99	33095.18
512.17	33624.14
512.34	32992.19
512.51	33556.26
512.69	33865.21
512.86	33963.51
513.04	34490.13
513.21	33867.55
513.38	33921.38
513.56	34073.52
513.73	34075.86
513.90	33736.48
514.08	34125.01
514.25	34394.17
514.43	34183.52
514.60	34251.40
514.77	34501.84
514.95	34335.66
515.12	34735.89
515.29	34738.23
515.47	35145.48
515.64	34747.59
515.81	34754.61
515.99	34958.24
516.16	34962.92
516.33	34464.39
516.51	34623.54
516.68	34345.02
516.85	34588.44
517.03	34883.34
517.20	34785.04
517.37	35206.34
517.54	35739.98
517.72	35236.77
517.89	35063.57
518.06	35208.68
518.24	35274.21
518.41	35562.10
518.58	35580.82
518.75	35784.45
518.93	35978.72
519.10	35849.99
519.27	36081.70
519.45	36334.48
519.62	36240.86
519.79	36364.90
519.96	36591.94
520.14	36690.24
520.31	36416.40
520.48	37132.60
520.65	36788.54
520.83	36961.74
521.00	36943.02
521.17	36959.40
521.34	37301.12
521.52	37581.98
521.69	37474.32
521.86	37642.84
522.03	37127.92
522.20	37481.34
522.38	37661.56
522.55	37628.79
522.72	37736.46
522.89	37801.99
523.07	38099.24
523.24	37762.20
523.41	37996.26
523.58	37912.00
523.75	38527.56
523.92	38534.58
524.10	38632.88
524.27	38560.33
524.44	38625.86
524.61	38471.39
524.78	38866.94
524.96	38684.37
525.13	39199.29
525.30	38728.84
525.47	39131.42
525.64	38920.77
525.81	39030.77
525.98	38923.11
526.16	38749.91
526.33	38637.56
526.50	38675.01
526.67	38527.56
526.84	38782.68
527.01	38754.59
527.18	39014.39
527.36	39328.02
527.53	39662.72
527.70	39583.14
527.87	40072.31
528.04	39489.52
528.21	40189.34
528.38	40224.45
528.55	40711.28
528.72	40123.80
528.89	40271.26
529.07	40444.46
529.24	39601.86
529.41	40177.64
529.58	40140.19
529.75	39997.41
529.92	40575.53
530.09	40399.99
530.26	40781.49
530.43	40722.98
530.60	40229.13
530.77	40788.52
530.94	40835.33
531.11	40594.25
531.28	40552.12
531.46	40821.28
531.63	40961.72
531.80	40725.32
531.97	40690.21
532.14	40556.80
532.31	40430.41
532.48	40968.74
532.65	40975.76
532.82	40865.75
532.99	41404.08
533.16	40474.88
533.33	41155.98
533.50	41202.79
533.67	41420.46
533.84	41153.64
534.01	41148.96
534.18	41507.06
534.35	41904.95
534.52	41450.89
534.69	41909.63
534.86	41855.80
535.03	41661.54
535.20	42398.80
535.37	42314.55
535.54	42213.90
535.71	42309.86
535.88	41823.03
536.05	42522.85
536.22	41984.53
536.38	41867.50
536.55	41900.27
536.72	42005.59
536.89	42220.92
537.06	41848.78
537.23	42155.39
537.40	41738.77
537.57	42131.98
537.74	42302.84
537.91	42607.11
538.08	42689.03
538.25	42625.84
538.42	42981.60
538.59	42962.87
538.75	42349.65
538.92	42450.30
539.09	42543.92
539.26	42602.43
539.43	42749.88
539.60	43040.11
539.77	42698.39
539.94	42443.27
540.11	42934.79
540.28	42576.69
540.44	42768.61
540.61	42768.61
540.78	42611.79
540.95	42761.59
541.12	43260.12
541.29	42880.95
541.46	42904.36
541.62	43484.81
541.79	43763.34
541.96	42789.67
542.13	43285.87
542.30	43154.80
542.47	43917.81
542.63	43281.19
542.80	43625.25
542.97	43999.73
543.14	43859.30
543.31	43847.60
543.48	43608.86
543.64	44744.02
543.81	44390.60
543.98	44264.21
544.15	43753.97
544.32	43812.49
544.48	44474.86
544.65	44025.48
544.82	44825.94
544.99	43995.05
545.16	44053.56
545.32	44271.23
545.49	44474.86
545.66	44458.48
545.83	44442.09
546.00	44533.37
546.16	44797.85
546.33	44631.68
546.50	44296.98
546.67	44538.05
546.83	44095.69
547.00	44933.60
547.17	44135.48
547.34	44980.42
547.50	44741.68
547.67	44655.08
547.84	44744.02
548.00	45088.08
548.17	45680.24
548.34	44545.08
548.51	45118.51
548.67	45481.29
548.84	45317.45
549.01	44973.39
549.18	44879.77
549.34	45186.38
549.51	44905.52
549.68	45413.41
549.84	44774.45
550.01	45626.40
550.18	45055.31
550.34	45511.72
550.51	45132.55
550.68	44818.92
550.84	45130.21
551.01	45638.11
551.18	45490.65
551.34	45500.01
551.51	45720.02
551.68	45048.29
551.84	45766.84
552.01	45258.94
552.18	45684.92
552.34	45675.55
552.51	45773.86
552.68	45574.91
552.84	45675.55
553.01	46309.84
553.18	45642.79
553.34	45717.68
553.51	45720.02
553.67	45736.41
553.84	46232.60
554.01	46064.08
554.17	46534.53
554.34	46087.49
554.51	45869.82
554.67	46429.21
554.84	46082.81
555.00	45954.08
555.17	46031.32
555.33	46040.68
555.50	45893.22
555.67	46150.68
555.83	46073.45
556.00	46354.31
556.16	46588.36
556.33	46321.54
556.50	46478.36
556.66	46588.36
556.83	45668.53
556.99	46609.43
557.16	46265.37
557.32	46588.36
557.49	46391.76
557.65	46426.87
557.82	46312.18
557.98	46471.34
558.15	46066.42
558.32	46403.46
558.48	46539.21
558.65	45998.55
558.81	46443.25
558.98	46639.86
559.14	46101.53
559.31	46293.46
559.47	46415.16
559.64	46939.44
559.80	46721.77
559.97	46583.68
560.13	45989.19
560.30	46480.70
560.46	46525.17
560.63	46698.37
560.79	46892.63
560.96	46742.84
561.12	46799.01
561.29	46124.94
561.45	46597.73
561.61	46773.27
561.78	46408.14
561.94	46536.87
562.11	46361.33
562.27	46569.64
562.44	46752.20
562.60	47201.58
562.77	46780.29
562.93	46443.25
563.10	47154.77
563.26	46600.07
563.42	47407.55
563.59	46567.30
563.75	46672.62
563.92	47276.48
564.08	47208.61
564.24	47445.00
564.41	47063.49
564.57	46705.39
564.74	46923.06
564.90	46817.74
565.07	47360.74
565.23	46639.86
565.39	46918.38
565.56	47086.90
565.72	47014.34
565.88	46733.48
566.05	46843.48
566.21	47098.60
566.38	46857.52
566.54	46483.04
566.70	47316.27
566.87	47306.91
567.03	47047.11
567.19	47608.84
567.36	47075.19
567.52	46892.63
567.68	47051.79
567.85	47182.86
568.01	46969.87
568.17	47012.00
568.34	47234.35
568.50	47363.08
568.66	46981.57
568.83	47129.03
568.99	46976.89
569.15	47583.09
569.32	47208.61
569.48	47384.15
569.64	47573.73
569.81	47351.38
569.97	47004.98
570.13	47426.28
570.30	46546.23
570.46	46930.08
570.62	46831.78
570.78	46770.93
570.95	46831.78
571.11	47342.02
571.27	47178.18
571.43	47049.45
571.60	47391.17
571.76	47353.72
571.92	47171.16
572.09	47131.37
572.25	47351.38
572.41	47129.03
572.57	47290.52
572.74	47531.60
572.90	47318.61
573.06	47248.39
573.22	47688.42
573.38	47599.47
573.55	47405.21
573.71	47459.04
573.87	47166.48
574.03	47068.17
574.20	47466.06
574.36	47342.02
574.52	47564.37
574.68	47180.52
574.84	47285.84
575.01	47412.23
575.17	47297.55
575.33	47014.34
575.49	47302.23
575.65	47512.88
575.82	47569.05
575.98	47299.89
576.14	47812.46
576.30	47468.40
576.46	47098.60
576.62	47000.30
576.79	47346.70
576.95	47007.32
577.11	47150.09
577.27	47512.88
577.43	47051.79
577.59	47187.54
577.75	47313.93
577.92	47126.69
578.08	46981.57
578.24	47124.35
578.40	47533.94
578.56	47004.98
578.72	47159.45
578.88	47648.63
579.04	47437.98
579.21	47117.32
579.37	47718.84
579.53	47227.33
579.69	47157.11
579.85	47180.52
580.01	47821.83
580.17	47269.46
580.33	47683.73
580.49	47185.20
580.65	47742.25
580.82	47484.79
580.98	47114.98
581.14	47395.85
581.30	47339.68
581.46	47213.29
581.62	47311.59
581.78	47646.29
581.94	47988.00
582.10	47316.27
582.26	47608.84
582.42	47592.45
582.58	47564.37
582.74	47594.79
582.90	47241.37
583.06	47852.25
583.22	47445.00
583.38	47660.33
583.54	47707.14
583.70	47260.10
583.86	47646.29
584.02	47512.88
584.18	47463.72
584.34	47423.93
584.50	47578.41
584.66	47203.92
584.82	47192.22
584.98	47657.99
585.14	47199.24
585.30	47400.53
585.46	47187.54
585.62	47239.03
585.78	47782.04
585.94	46986.25
586.10	47414.57
586.26	47529.26
586.42	47786.72
586.58	47943.53
586.74	47943.53
586.90	47496.49
587.06	47239.03
587.22	47461.38
587.38	46955.83
587.54	47473.09
587.70	47695.44
587.86	47543.30
588.02	47786.72
588.18	47498.83
588.34	47400.53
588.49	47566.71
588.65	46990.94
588.81	46660.92
588.97	46934.76
589.13	46801.35
589.29	46824.76
589.45	46824.76
589.61	47449.68
589.77	47749.27
