SpectraSuite Data File
++++++++++++++++++++++++++++++++++++
Date: Fri Oct 25 10:47:36 EDT 2013
User: price-jones
Dark Spectrum Present: No
Reference Spectrum Present: No
Number of Sampled Component Spectra: 1
Spectrometers: USB2+H05261
Integration Time (usec): 100000 (USB2+H05261)
Spectra Averaged: 1 (USB2+H05261)
Boxcar Smoothing: 0 (USB2+H05261)
Correct for Electrical Dark: No (USB2+H05261)
Strobe/Lamp Enabled: No (USB2+H05261)
Correct for Detector Non-linearity: No (USB2+H05261)
Correct for Stray Light: No (USB2+H05261)
Number of Pixels in Processed Spectrum: 2048
>>>>>Begin Processed Spectral Data<<<<<
365.73	175.54
365.92	175.54
366.12	175.54
366.32	53.83
366.52	7.02
366.72	0.00
366.91	42.13
367.11	0.00
367.31	44.47
367.51	112.35
367.70	46.81
367.90	21.06
368.10	51.49
368.30	4.68
368.49	49.15
368.69	88.94
368.89	163.84
369.09	37.45
369.28	81.92
369.48	51.49
369.68	88.94
369.87	51.49
370.07	117.03
370.27	74.90
370.47	187.24
370.66	367.46
370.86	477.47
371.06	503.22
371.25	477.47
371.45	428.32
371.65	505.56
371.84	482.15
372.04	514.92
372.24	470.45
372.44	496.19
372.63	615.56
372.83	486.83
373.03	498.53
373.22	526.62
373.42	491.51
373.62	519.60
373.81	599.18
374.01	585.13
374.21	561.73
374.40	564.07
374.60	575.77
374.79	547.69
374.99	528.96
375.19	573.43
375.38	589.82
375.58	648.33
375.78	557.05
375.97	538.32
376.17	667.05
376.37	615.56
376.56	606.20
376.76	517.26
376.95	678.76
377.15	620.24
377.35	575.77
377.54	648.33
377.74	617.90
377.93	697.48
378.13	655.35
378.33	699.82
378.52	662.37
378.72	617.90
378.91	617.90
379.11	664.71
379.31	650.67
379.50	578.11
379.70	676.41
379.89	709.18
380.09	653.01
380.28	599.18
380.48	650.67
380.68	650.67
380.87	702.16
381.07	620.24
381.26	678.76
381.46	711.52
381.65	695.14
381.85	667.05
382.04	671.73
382.24	706.84
382.43	662.37
382.63	723.23
382.83	805.14
383.02	791.10
383.22	737.27
383.41	706.84
383.61	690.46
383.80	683.44
384.00	688.12
384.19	732.59
384.39	678.76
384.58	748.97
384.78	709.18
384.97	732.59
385.17	744.29
385.36	746.63
385.56	802.80
385.75	793.44
385.95	755.99
386.14	875.36
386.34	851.96
386.53	809.83
386.72	716.20
386.92	898.77
387.11	814.51
387.31	826.21
387.50	723.23
387.70	746.63
387.89	793.44
388.09	791.10
388.28	917.49
388.48	833.23
388.67	805.14
388.86	828.55
389.06	849.61
389.25	908.13
389.45	915.15
389.64	870.68
389.84	983.02
390.03	926.85
390.22	938.55
390.42	943.24
390.61	933.87
390.81	901.11
391.00	1013.45
391.19	964.30
391.39	936.21
391.58	945.58
391.78	1046.22
391.97	1093.03
392.16	1004.09
392.36	901.11
392.55	1043.88
392.75	978.34
392.94	1004.09
393.13	1004.09
393.33	875.36
393.52	1022.81
393.71	1032.18
393.91	1060.26
394.10	1008.77
394.29	1111.75
394.49	1123.46
394.68	1069.62
394.88	1060.26
395.07	1107.07
395.26	1163.25
395.46	1086.01
395.65	1207.72
395.84	1219.42
396.04	1210.06
396.23	1188.99
396.42	1116.44
396.62	1130.48
396.81	1149.20
397.00	1100.05
397.19	1163.25
397.39	1217.08
397.58	1261.55
397.77	1221.76
397.97	1259.21
398.16	1310.70
398.35	1282.61
398.55	1329.42
398.74	1329.42
398.93	1497.94
399.12	1371.55
399.32	1329.42
399.51	1359.85
399.70	1390.28
399.90	1364.53
400.09	1493.26
400.28	1441.77
400.47	1413.68
400.67	1434.75
400.86	1493.26
401.05	1533.05
401.24	1530.71
401.44	1465.18
401.63	1451.13
401.82	1593.90
402.01	1607.95
402.21	1502.62
402.40	1554.12
402.59	1577.52
402.78	1558.80
402.97	1572.84
403.17	1593.90
403.36	1675.82
403.55	1591.56
403.74	1614.97
403.93	1682.85
404.13	1624.33
404.32	1706.25
404.51	1717.95
404.70	1706.25
404.89	1652.42
405.09	1776.47
405.28	1741.36
405.47	1678.16
405.66	1877.11
405.85	1830.30
406.05	1739.02
406.24	1748.38
406.43	1842.00
406.62	1881.79
406.81	1966.05
407.00	1874.77
407.20	1902.86
407.39	1952.01
407.58	1949.67
407.77	1966.05
407.96	1982.43
408.15	1996.48
408.34	2001.16
408.54	2097.12
408.73	2069.03
408.92	2010.52
409.11	2024.56
409.30	2125.21
409.49	2059.67
409.68	2078.40
409.87	2106.48
410.07	2118.18
410.26	2275.00
410.45	2094.78
410.64	2289.04
410.83	2183.72
411.02	2275.00
411.21	2293.72
411.40	2300.75
411.59	2263.30
411.78	2471.61
411.98	2345.22
412.17	2438.84
412.36	2396.71
412.55	2427.14
412.74	2389.69
412.93	2445.86
413.12	2303.09
413.31	2633.10
413.50	2532.46
413.69	2588.63
413.88	2693.96
414.07	2616.72
414.26	2609.70
414.45	2590.97
414.64	2640.12
414.83	2633.10
415.02	2757.15
415.22	2813.32
415.41	2864.82
415.60	2794.60
415.79	2810.98
415.98	2965.46
416.17	2953.76
416.36	2953.76
416.55	3007.59
416.74	3075.46
416.93	2991.20
417.12	2993.55
417.31	3061.42
417.50	3023.97
417.69	3185.47
417.88	3117.59
418.07	3101.21
418.26	3047.38
418.45	3234.62
418.64	3112.91
418.83	3325.90
419.02	3215.90
419.21	3255.69
419.39	3253.34
419.58	3246.32
419.77	3407.82
419.96	3288.45
420.15	3318.88
420.34	3353.99
420.53	3410.16
420.72	3501.44
420.91	3524.85
421.10	3576.34
421.29	3538.89
421.48	3300.16
421.67	3510.80
421.86	3428.88
422.05	3478.04
422.24	3447.61
422.43	3517.83
422.61	3545.91
422.80	3658.26
422.99	3749.54
423.18	3669.96
423.37	3653.58
423.56	3590.38
423.75	3599.74
423.94	3419.52
424.13	3255.69
424.32	3391.44
424.50	3576.34
424.69	3597.40
424.88	3803.37
425.07	3552.93
425.26	3435.91
425.45	3660.60
425.64	3709.75
425.83	3611.45
426.01	3721.45
426.20	3625.49
426.39	3707.41
426.58	3508.46
426.77	3520.17
426.96	3684.00
427.15	3623.15
427.33	3791.67
427.52	3637.19
427.71	3693.37
427.90	3702.73
428.09	3831.46
428.28	3913.38
428.46	3885.29
428.65	3786.99
428.84	3918.06
429.03	3812.73
429.22	3866.56
429.40	3908.69
429.59	3845.50
429.78	3751.88
429.97	3714.43
430.16	3674.64
430.34	3845.50
430.53	3943.80
430.72	3962.53
430.91	3915.72
431.10	3920.40
431.28	4147.43
431.47	4229.35
431.66	4311.27
431.85	4156.79
432.03	4182.54
432.22	4404.89
432.41	4369.78
432.60	4262.12
432.79	4121.68
432.97	4360.42
433.16	4411.91
433.35	4360.42
433.54	4236.37
433.72	4341.69
433.91	4358.08
434.10	4442.34
434.28	4517.23
434.47	4479.79
434.66	4517.23
434.85	4641.28
435.03	4652.98
435.22	4507.87
435.41	4517.23
435.59	4683.41
435.78	4662.35
435.97	4706.82
436.16	4688.09
436.34	4709.16
436.53	4807.46
436.72	4830.87
436.90	4772.35
437.09	4826.18
437.28	4573.41
437.46	4786.40
437.65	4781.71
437.84	4882.36
438.02	4858.95
438.21	4910.44
438.40	4777.03
438.58	4910.44
438.77	4940.87
438.96	4973.64
439.14	5090.67
439.33	5085.98
439.52	5118.75
439.70	5130.45
439.89	5156.20
440.08	5193.65
440.26	5195.99
440.45	4978.32
440.63	5317.70
440.82	5481.53
441.01	5387.91
441.19	5416.00
441.38	5636.01
441.57	5483.88
441.75	5561.11
441.94	5645.37
442.12	5685.16
442.31	5820.91
442.50	5734.31
442.68	5680.48
442.87	5959.00
443.05	5755.38
443.24	5764.74
443.43	6026.88
443.61	5879.43
443.80	6054.97
443.98	5785.80
444.17	5736.65
444.35	5809.21
444.54	6043.26
444.73	5921.56
444.91	5778.78
445.10	5973.05
445.28	5916.87
445.47	6024.54
445.65	6031.56
445.84	5963.68
446.02	6012.84
446.21	5970.71
446.39	5834.96
446.58	6052.63
446.77	6026.88
446.95	5928.58
447.14	6155.61
447.32	6101.78
447.51	6136.88
447.69	6050.28
447.88	6076.03
448.06	5982.41
448.25	5959.00
448.43	6132.20
448.62	6160.29
448.80	6155.61
448.99	6176.67
449.17	6260.93
449.36	6202.42
449.54	6193.06
449.73	6352.21
449.91	6494.99
450.10	6621.38
450.28	6588.61
450.46	6434.13
450.65	6623.72
450.83	6525.41
451.02	6462.22
451.20	6607.33
451.39	6541.80
451.57	6366.26
451.76	6455.20
451.94	6513.71
452.13	6459.88
452.31	6509.03
452.49	6410.73
452.68	6579.25
452.86	6743.08
453.05	6614.35
453.23	6553.50
453.42	6457.54
453.60	6628.40
453.78	6705.63
453.97	6750.10
454.15	6768.83
454.34	6810.96
454.52	6979.48
454.70	6846.07
454.89	6874.15
455.07	6981.82
455.26	7061.40
455.44	7192.47
455.62	6949.05
455.81	7002.88
455.99	7068.42
456.17	7096.50
456.36	7185.44
456.54	7080.12
456.73	7236.94
456.91	7232.26
457.09	7555.25
457.28	7536.52
457.46	7456.95
457.64	7349.28
457.83	7323.54
458.01	7194.81
458.19	7557.59
458.38	7564.61
458.56	7758.88
458.74	7595.04
458.93	7396.09
459.11	7492.05
459.29	7632.49
459.48	7695.68
459.66	7499.08
459.84	7662.91
460.03	7639.51
460.21	7658.23
460.39	7833.77
460.57	7791.64
460.76	7803.35
460.94	7838.45
461.12	8044.42
461.31	7875.90
461.49	7817.39
461.67	7793.98
461.85	8072.51
462.04	8081.87
462.22	8505.51
462.40	8290.18
462.59	8166.13
462.77	8191.88
462.95	8315.92
463.13	8032.72
463.32	8135.70
463.50	8175.49
463.68	8243.37
463.86	8280.82
464.05	8119.32
464.23	8081.87
464.41	8315.92
464.59	8114.64
464.78	8241.03
464.96	8219.96
465.14	8215.28
465.32	8318.26
465.50	8344.01
465.69	8608.49
465.87	8358.05
466.05	8381.46
466.23	8329.97
466.41	8683.39
466.60	8697.43
466.78	8493.80
466.96	8475.08
467.14	8573.38
467.32	8578.06
467.51	8753.60
467.69	8386.14
467.87	8631.90
468.05	8706.79
468.23	8816.80
468.41	8587.43
468.60	8671.68
468.78	8833.18
468.96	8851.91
469.14	8894.04
469.32	9104.68
469.50	8695.09
469.69	8809.78
469.87	8982.98
470.05	9046.17
470.23	9048.51
470.41	9324.69
470.59	9109.36
470.77	9095.32
470.95	9238.09
471.14	9467.47
471.32	8994.68
471.50	9462.79
471.68	9341.08
471.86	9490.87
472.04	9329.38
472.22	10001.11
472.40	9525.98
472.58	9385.55
472.77	9638.33
472.95	9792.80
473.13	9841.95
473.31	9678.12
473.49	9748.33
473.67	9914.51
473.85	9701.52
474.03	9982.38
474.21	10036.22
474.39	10143.88
474.57	10211.76
474.75	10331.12
474.93	10370.91
475.12	10267.93
475.30	10239.84
475.48	10340.49
475.66	10300.70
475.84	10588.58
476.02	10520.71
476.20	10466.88
476.38	10581.56
476.56	10918.60
476.74	10813.28
476.92	10993.50
477.10	10813.28
477.28	11063.71
477.46	11110.52
477.64	11318.83
477.82	11309.47
478.00	11501.39
478.18	11452.24
478.36	11646.51
478.54	11648.85
478.72	11843.11
478.90	11892.26
479.08	12226.96
479.26	12257.39
479.44	12072.48
479.62	12100.57
479.80	12304.20
479.98	12301.86
480.16	12585.06
480.34	12343.99
480.52	12737.20
480.70	12784.01
480.88	12559.31
481.06	12847.20
481.24	12840.18
481.41	13102.32
481.59	13357.44
481.77	13406.59
481.95	13151.47
482.13	13219.35
482.31	13359.78
482.49	13696.82
482.67	13638.30
482.85	13703.84
483.03	14083.00
483.21	14040.87
483.39	13923.85
483.57	14335.78
483.74	14211.73
483.92	14342.80
484.10	14511.32
484.28	14754.74
484.46	15199.44
484.64	15126.88
484.82	15040.28
485.00	15143.27
485.18	15412.43
485.35	15344.55
485.53	15213.48
485.71	15318.81
485.89	15763.51
486.07	15503.71
486.25	15655.84
486.43	15594.99
486.61	15857.13
486.78	15861.81
486.96	16112.25
487.14	16402.47
487.32	16423.54
487.50	16720.79
487.68	16992.29
487.85	16964.20
488.03	17181.87
488.21	17135.06
488.39	17284.86
488.57	17436.99
488.75	17525.93
488.92	17757.64
489.10	18185.96
489.28	17987.02
489.46	18153.20
489.64	17996.38
489.81	18752.37
489.99	18565.13
490.17	18941.96
490.35	18803.86
490.53	18948.98
490.70	19077.71
490.88	19283.67
491.06	19372.61
491.24	19480.28
491.41	19623.05
491.59	19433.47
491.77	19538.79
491.95	19597.31
492.13	20074.77
492.30	20301.81
492.48	20271.38
492.66	20156.69
492.84	20306.49
493.01	20446.92
493.19	20500.75
493.37	20903.32
493.54	20943.11
493.72	21008.65
493.90	21223.98
494.08	21422.92
494.25	21502.50
494.43	21434.63
494.61	21614.85
494.79	21989.33
494.96	21603.14
495.14	21596.12
495.32	21869.97
495.49	22003.38
495.67	22317.01
495.85	22380.20
496.02	22541.70
496.20	22604.89
496.38	22766.39
496.55	22740.64
496.73	23255.56
496.91	23047.26
497.09	23103.43
497.26	23227.48
497.44	23339.82
497.62	23180.67
497.79	23618.35
497.97	23426.42
498.14	23695.58
498.32	23836.02
498.50	23878.15
498.67	24318.17
498.85	24201.14
499.03	24421.15
499.20	24566.26
499.38	24601.37
499.56	24594.35
499.73	24786.27
499.91	25001.60
500.08	24987.56
500.26	24746.48
500.44	25043.73
500.61	25048.41
500.79	24833.08
500.97	25305.87
501.14	25518.86
501.32	25467.37
501.49	25621.84
501.67	25373.75
501.84	25797.38
502.02	25516.52
502.20	25944.84
502.37	26001.01
502.55	26141.44
502.72	25907.39
502.90	26508.91
503.07	26218.68
503.25	26043.14
503.43	26651.68
503.60	26792.11
503.78	26890.41
503.95	26464.44
504.13	26831.90
504.30	27005.10
504.48	26836.58
504.65	26871.69
504.83	26920.84
505.01	27503.64
505.18	27056.59
505.36	27278.94
505.53	27534.06
505.71	27751.73
505.88	28166.01
506.06	27564.49
506.23	27852.38
506.41	27524.70
506.58	28285.37
506.76	27693.22
506.93	28154.30
507.11	28306.44
507.28	28053.66
507.46	28219.84
507.63	28329.84
507.81	28641.14
507.98	28121.54
508.16	28364.95
508.33	28580.28
508.50	29205.20
508.68	28999.24
508.85	28872.85
509.03	28957.11
509.20	29446.28
509.38	29146.69
509.55	29404.15
509.73	29057.75
509.90	29600.76
510.08	29387.77
510.25	29317.55
510.42	29844.17
510.60	29685.01
510.77	29523.52
510.95	30169.51
511.12	30087.59
511.30	29984.60
511.47	30319.30
511.64	30012.69
511.82	30459.73
511.99	30412.92
512.17	30651.66
512.34	30403.56
512.51	30429.30
512.69	30888.05
512.86	30677.40
513.04	31150.19
513.21	31391.26
513.38	31194.66
513.56	31192.32
513.73	30810.81
513.90	31330.41
514.08	31295.30
514.25	31386.58
514.43	31112.74
514.60	31599.57
514.77	31204.02
514.95	31967.04
515.12	31831.29
515.29	32016.19
515.47	31983.42
515.64	32077.04
515.81	31885.12
515.99	32215.13
516.16	32194.07
516.33	32081.72
516.51	32301.73
516.68	31740.00
516.85	31838.31
517.03	32074.70
517.20	32137.90
517.37	32332.16
517.54	32701.96
517.72	32217.47
517.89	32121.51
518.06	32224.50
518.24	32636.43
518.41	32510.04
518.58	32666.86
518.75	32697.28
518.93	33146.67
519.10	33071.77
519.27	33303.48
519.45	32985.17
519.62	32992.19
519.79	33551.58
519.96	33546.90
520.14	34033.73
520.31	33624.14
520.48	33799.68
520.65	33593.71
520.83	33977.56
521.00	33963.51
521.17	34120.33
521.34	34415.24
521.52	34087.56
521.69	34408.22
521.86	34693.76
522.03	34101.61
522.20	33855.85
522.38	34873.98
522.55	34775.68
522.72	34663.33
522.89	34707.80
523.07	34515.88
523.24	34632.91
523.41	34897.39
523.58	34630.57
523.75	35428.69
523.92	35117.40
524.10	35381.88
524.27	35339.75
524.44	35438.05
524.61	35768.07
524.78	35662.74
524.96	35093.99
525.13	35810.20
525.30	36187.02
525.47	35913.18
525.64	35707.21
525.81	36098.08
525.98	35625.29
526.16	35798.49
526.33	35580.82
526.50	35786.79
526.67	35545.72
526.84	35702.53
527.01	35758.70
527.18	36065.31
527.36	36154.26
527.53	36414.05
527.70	36701.94
527.87	36760.45
528.04	36385.97
528.21	36652.79
528.38	36505.34
528.55	36978.12
528.72	37076.43
528.89	36840.03
529.07	36648.11
529.24	36414.05
529.41	36657.47
529.58	36861.10
529.75	37181.75
529.92	37160.69
530.09	37471.98
530.26	37291.76
530.43	37532.83
530.60	36854.08
530.77	37581.98
530.94	37860.51
531.11	37617.09
531.28	37736.46
531.46	37521.13
531.63	37935.40
531.80	37610.07
531.97	37181.75
532.14	37766.88
532.31	37287.07
532.48	37514.11
532.65	37642.84
532.82	37553.90
532.99	38211.59
533.16	37612.41
533.33	37670.92
533.50	38352.02
533.67	38146.05
533.84	38169.46
534.01	38307.55
534.18	38284.14
534.35	38213.93
534.52	38352.02
534.69	38492.45
534.86	38637.56
535.03	38298.19
535.20	38464.36
535.37	39138.44
535.54	39112.69
535.71	38799.06
535.88	38480.75
536.05	39047.16
536.22	39042.48
536.38	38930.13
536.55	38904.38
536.72	38742.89
536.89	38880.98
537.06	38850.55
537.23	38850.55
537.40	38916.09
537.57	39129.08
537.74	39086.95
537.91	39728.25
538.08	39260.15
538.25	39501.22
538.42	39365.47
538.59	39491.86
538.75	39353.77
538.92	39798.47
539.09	39896.77
539.26	39297.59
539.43	39812.51
539.60	39466.11
539.77	39503.56
539.94	40037.20
540.11	39756.34
540.28	39449.73
540.44	39431.01
540.61	39732.93
540.78	40133.17
540.95	39777.40
541.12	39526.97
541.29	39632.29
541.46	39861.66
541.62	40348.50
541.79	40474.88
541.96	39576.12
542.13	39859.32
542.30	40088.70
542.47	40685.53
542.63	40411.69
542.80	40374.24
542.97	41446.21
543.14	40968.74
543.31	40416.37
543.48	40804.90
543.64	41591.32
543.81	40825.96
543.98	40952.35
544.15	41167.68
544.32	41570.25
544.48	41542.17
544.65	41212.15
544.82	41429.82
544.99	41060.02
545.16	41462.59
545.32	41043.63
545.49	41476.63
545.66	41518.76
545.83	41338.54
546.00	41778.56
546.16	41588.98
546.33	41308.11
546.50	40942.99
546.67	41539.83
546.83	41109.17
547.00	41371.31
547.17	41514.08
547.34	41528.13
547.50	41984.53
547.67	41848.78
547.84	41638.13
548.00	41790.27
548.17	41998.57
548.34	42014.96
548.51	42050.06
548.67	42082.83
548.84	41684.94
549.01	41888.57
549.18	42005.59
549.34	42459.66
549.51	42120.28
549.68	42333.27
549.84	42059.43
550.01	42454.98
550.18	42337.95
550.34	42099.22
550.51	42295.82
550.68	42319.23
550.84	42267.73
551.01	42321.57
551.18	42366.04
551.34	42890.32
551.51	42368.38
551.68	43005.00
551.84	42728.82
552.01	42550.94
552.18	42576.69
552.34	42462.00
552.51	42586.05
552.68	42887.98
552.84	42796.70
553.01	42801.38
553.18	42775.63
553.34	42497.11
553.51	42389.44
553.67	42885.64
553.84	43157.14
554.01	43227.35
554.17	42848.19
554.34	43723.55
554.51	43351.40
554.67	43112.67
554.84	43112.67
555.00	42960.53
555.17	43313.95
555.33	43161.82
555.50	43079.90
555.67	43185.22
555.83	42880.95
556.00	43070.54
556.16	43955.26
556.33	43580.78
556.50	43061.18
556.66	43241.40
556.83	43381.83
556.99	43632.27
557.16	43386.51
557.32	43351.40
557.49	43241.40
557.65	43203.95
557.82	43807.81
557.98	43599.50
558.15	43606.52
558.32	43896.75
558.48	43320.98
558.65	43414.60
558.81	43339.70
558.98	43508.22
559.14	43777.38
559.31	43461.41
559.47	43697.80
559.64	44154.21
559.80	44217.40
559.97	43800.79
560.13	43988.03
560.30	43566.73
560.46	44222.08
560.63	43875.68
560.79	43835.89
560.96	44376.56
561.12	43742.27
561.29	43929.51
561.45	43871.00
561.61	43924.83
561.78	43971.64
561.94	43821.85
562.11	43805.47
562.27	43990.37
562.44	43770.36
562.60	43777.38
562.77	44194.00
562.93	44392.94
563.10	44357.83
563.26	43934.20
563.42	44018.46
563.59	44189.31
563.75	44395.28
563.92	44336.77
564.08	44519.33
564.24	44619.97
564.41	44863.39
564.57	44292.30
564.74	44350.81
564.90	44233.78
565.07	44467.84
565.23	44334.43
565.39	44301.66
565.56	44732.32
565.72	44107.40
565.88	44076.97
566.05	43948.24
566.21	44189.31
566.38	44397.62
566.54	44444.43
566.70	44488.90
566.87	44528.69
567.03	44619.97
567.19	44821.26
567.36	44538.05
567.52	44240.81
567.68	44610.61
567.85	44156.55
568.01	44486.56
568.17	44142.50
568.34	44516.99
568.50	44250.17
568.66	44224.42
568.83	44456.14
568.99	44673.81
569.15	44659.76
569.32	44294.64
569.48	44339.11
569.64	44896.16
569.81	44608.27
569.97	44737.00
570.13	45024.89
570.30	43992.71
570.46	44423.37
570.62	44397.62
570.78	44402.30
570.95	44301.66
571.11	44685.51
571.27	44706.57
571.43	44385.92
571.60	44598.91
571.76	44399.96
571.92	44577.84
572.09	44516.99
572.25	44863.39
572.41	44744.02
572.57	44526.35
572.74	45347.88
572.90	44783.81
573.06	44825.94
573.22	44744.02
573.38	44390.60
573.55	44292.30
573.71	44992.12
573.87	44795.51
574.03	44650.40
574.20	45144.25
574.36	44767.43
574.52	45127.87
574.68	44549.76
574.84	44755.72
575.01	44987.44
575.17	44748.70
575.33	44706.57
575.49	44924.24
575.65	45443.84
575.82	45130.21
575.98	44847.00
576.14	45172.34
576.30	45024.89
576.46	44619.97
576.62	44680.83
576.79	45083.40
576.95	44348.47
577.11	45041.27
577.27	45109.14
577.43	44839.98
577.59	44559.12
577.75	44980.42
577.92	44350.81
578.08	45155.96
578.24	44465.50
578.40	44552.10
578.56	44868.07
578.72	44863.39
578.88	45319.79
579.04	45336.18
579.21	44605.93
579.37	44676.15
579.53	44638.70
579.69	44458.48
579.85	44942.97
580.01	45261.28
580.17	44800.19
580.33	45280.00
580.49	45198.09
580.65	45111.49
580.82	44800.19
580.98	44638.70
581.14	45130.21
581.30	44989.78
581.46	44872.75
581.62	44954.67
581.78	45170.00
581.94	45050.63
582.10	45088.08
582.26	44882.11
582.42	45097.44
582.58	45350.22
582.74	44769.77
582.90	44919.56
583.06	45422.78
583.22	45277.66
583.38	45045.95
583.54	45139.57
583.70	44964.03
583.86	45397.03
584.02	44828.28
584.18	44776.79
584.34	45303.41
584.50	45067.02
584.66	45170.00
584.82	44488.90
584.98	45153.62
585.14	44975.73
585.30	44832.96
585.46	45130.21
585.62	44982.76
585.78	44989.78
585.94	44739.34
586.10	45008.50
586.26	44467.84
586.42	44662.10
586.58	45055.31
586.74	45090.42
586.90	44762.75
587.06	44957.01
587.22	45158.30
587.38	44685.51
587.54	45420.44
587.70	45090.42
587.86	45146.59
588.02	44982.76
588.18	45251.92
588.34	45113.83
588.49	44720.62
588.65	44631.68
588.81	44788.49
588.97	44502.95
589.13	44690.19
589.29	44968.71
589.45	44940.63
589.61	45181.70
589.77	45111.49
589.93	45457.88
590.08	45340.86
590.24	45556.19
