SpectraSuite Data File
++++++++++++++++++++++++++++++++++++
Date: Fri Oct 25 11:25:06 EDT 2013
User: price-jones
Dark Spectrum Present: No
Reference Spectrum Present: No
Number of Sampled Component Spectra: 1
Spectrometers: USB2+H05261
Integration Time (usec): 100000 (USB2+H05261)
Spectra Averaged: 1 (USB2+H05261)
Boxcar Smoothing: 0 (USB2+H05261)
Correct for Electrical Dark: No (USB2+H05261)
Strobe/Lamp Enabled: No (USB2+H05261)
Correct for Detector Non-linearity: No (USB2+H05261)
Correct for Stray Light: No (USB2+H05261)
Number of Pixels in Processed Spectrum: 2048
>>>>>Begin Processed Spectral Data<<<<<
365.73	257.46
365.92	257.46
366.12	257.46
366.32	126.39
366.52	133.41
366.72	107.66
366.91	46.81
367.11	145.11
367.31	189.58
367.51	180.22
367.70	154.48
367.90	189.58
368.10	100.64
368.30	119.37
368.49	135.75
368.69	184.90
368.89	149.79
369.09	161.50
369.28	262.14
369.48	201.29
369.68	175.54
369.87	222.35
370.07	262.14
370.27	180.22
370.47	271.50
370.66	582.79
370.86	622.58
371.06	629.60
371.25	669.39
371.45	575.77
371.65	636.63
371.84	690.46
372.04	732.59
372.24	734.93
372.44	664.71
372.63	748.97
372.83	760.67
373.03	746.63
373.22	770.04
373.42	732.59
373.62	849.61
373.81	781.74
374.01	774.72
374.21	816.85
374.40	779.40
374.60	891.74
374.79	858.98
374.99	826.21
375.19	734.93
375.38	908.13
375.58	840.25
375.78	905.79
375.97	809.83
376.17	1015.79
376.37	795.78
376.56	884.72
376.76	922.17
376.95	840.25
377.15	903.45
377.35	924.51
377.54	894.08
377.74	889.40
377.93	917.49
378.13	978.34
378.33	873.02
378.52	973.66
378.72	954.94
378.91	903.45
379.11	938.55
379.31	877.70
379.50	973.66
379.70	1048.56
379.89	971.32
380.09	929.19
380.28	950.26
380.48	994.73
380.68	1039.20
380.87	994.73
381.07	924.51
381.26	1116.44
381.46	997.07
381.65	1111.75
381.85	1041.54
382.04	1041.54
382.24	1043.88
382.43	1008.77
382.63	1071.97
382.83	976.00
383.02	1088.35
383.22	1104.73
383.41	1034.52
383.61	1046.22
383.80	1170.27
384.00	1179.63
384.19	1095.37
384.39	1163.25
384.58	1123.46
384.78	1158.57
384.97	1167.93
385.17	1078.99
385.36	1174.95
385.56	1158.57
385.75	1226.44
385.95	1226.44
386.14	1188.99
386.34	1259.21
386.53	1219.42
386.72	1231.12
386.92	1231.12
387.11	1270.91
387.31	1224.10
387.50	1226.44
387.70	1249.85
387.89	1224.10
388.09	1390.28
388.28	1306.02
388.48	1266.23
388.67	1336.45
388.86	1177.29
389.06	1247.51
389.25	1371.55
389.45	1409.00
389.64	1331.76
389.84	1313.04
390.03	1369.21
390.22	1439.43
390.42	1329.42
390.61	1469.86
390.81	1397.30
391.00	1411.34
391.19	1427.73
391.39	1540.07
391.58	1526.03
391.78	1568.16
391.97	1629.01
392.16	1535.39
392.36	1540.07
392.55	1516.67
392.75	1619.65
392.94	1565.82
393.13	1561.14
393.33	1582.20
393.52	1486.24
393.71	1654.76
393.91	1563.48
394.10	1554.12
394.29	1554.12
394.49	1586.88
394.68	1661.78
394.88	1713.27
395.07	1771.79
395.26	1636.03
395.46	1610.29
395.65	1717.95
395.84	1675.82
396.04	1834.98
396.23	1715.61
396.42	1732.00
396.62	1809.23
396.81	1708.59
397.00	1813.92
397.19	1783.49
397.39	1881.79
397.58	1771.79
397.77	1820.94
397.97	1963.71
398.16	1888.81
398.35	1902.86
398.55	1947.33
398.74	1907.54
398.93	2071.37
399.12	1940.30
399.32	1952.01
399.51	1881.79
399.70	2066.69
399.90	1877.11
400.09	1900.52
400.28	2022.22
400.47	2001.16
400.67	2113.50
400.86	2099.46
401.05	2071.37
401.24	2087.76
401.44	2050.31
401.63	2066.69
401.82	2165.00
402.01	2169.68
402.21	2148.61
402.40	2246.91
402.59	2169.68
402.78	2277.34
402.97	2310.11
403.17	2345.22
403.36	2352.24
403.55	2200.10
403.74	2312.45
403.93	2305.43
404.13	2314.79
404.32	2307.77
404.51	2345.22
404.70	2340.54
404.89	2394.37
405.09	2445.86
405.28	2495.01
405.47	2436.50
405.66	2476.29
405.85	2455.22
406.05	2448.20
406.24	2558.21
406.43	2485.65
406.62	2555.86
406.81	2691.62
407.00	2586.29
407.20	2628.42
407.39	2649.49
407.58	2738.43
407.77	2745.45
407.96	2637.78
408.15	2764.17
408.34	2647.15
408.54	2649.49
408.73	2846.09
408.92	2890.56
409.11	2766.51
409.30	2888.22
409.49	2839.07
409.68	2913.97
409.87	2920.99
410.07	2930.35
410.26	2881.20
410.45	2949.08
410.64	3159.72
410.83	3082.49
411.02	3178.45
411.21	3171.43
411.40	3136.32
411.59	3169.09
411.78	3108.23
411.98	3178.45
412.17	3335.26
412.36	3400.80
412.55	3173.77
412.74	3438.25
412.93	3456.97
413.12	3279.09
413.31	3424.20
413.50	3463.99
413.69	3330.58
413.88	3536.55
414.07	3485.06
414.26	3611.45
414.45	3599.74
414.64	3632.51
414.83	3705.07
415.02	3826.78
415.22	3868.91
415.41	3892.31
415.60	3852.52
415.79	3880.61
415.98	3936.78
416.17	4049.13
416.36	3999.98
416.55	4016.36
416.74	4079.55
416.93	4154.45
417.12	4086.58
417.31	4133.39
417.50	4238.71
417.69	4264.46
417.88	4290.20
418.07	4187.22
418.26	4196.58
418.45	4313.61
418.64	4294.88
418.83	4341.69
419.02	4355.74
419.21	4388.50
419.39	4477.44
419.58	4482.13
419.77	4674.05
419.96	4559.36
420.15	4526.60
420.34	4545.32
420.53	4489.15
420.72	4711.50
420.91	4650.64
421.10	4716.18
421.29	4807.46
421.48	4713.84
421.67	4877.68
421.86	4690.43
422.05	4952.57
422.24	4865.97
422.43	4849.59
422.61	4924.49
422.80	4999.38
422.99	5039.17
423.18	4887.04
423.37	4912.78
423.56	4940.87
423.75	4784.06
423.94	4887.04
424.13	4793.42
424.32	4830.87
424.50	5039.17
424.69	4999.38
424.88	5144.50
425.07	4884.70
425.26	4964.28
425.45	4983.00
425.64	5048.54
425.83	4943.21
426.01	5111.73
426.20	5015.77
426.39	5088.32
426.58	4992.36
426.77	4884.70
426.96	5095.35
427.15	5158.54
427.33	5160.88
427.52	5151.52
427.71	5282.59
427.90	5181.95
428.09	5320.04
428.28	5252.16
428.46	5387.91
428.65	5401.96
428.84	5572.82
429.03	5652.39
429.22	5385.57
429.40	5467.49
429.59	5516.64
429.78	5167.90
429.97	5249.82
430.16	5383.23
430.34	5619.63
430.53	5612.60
430.72	5638.35
430.91	5486.22
431.10	5624.31
431.28	5717.93
431.47	5769.42
431.66	5914.53
431.85	5870.06
432.03	6045.60
432.22	5959.00
432.41	5921.56
432.60	5867.72
432.79	5893.47
432.97	5963.68
433.16	6015.18
433.35	5949.64
433.54	6038.58
433.72	6029.22
433.91	6104.12
434.10	5980.07
434.28	6132.20
434.47	6249.23
434.66	6190.72
434.85	6335.83
435.03	6277.32
435.22	6190.72
435.41	6389.66
435.59	6314.77
435.78	6303.06
435.97	6310.08
436.16	6567.54
436.34	6424.77
436.53	6509.03
436.72	6862.45
436.90	6305.40
437.09	6600.31
437.28	6441.15
437.46	6628.40
437.65	6710.32
437.84	6885.86
438.02	6829.68
438.21	6836.70
438.40	6525.41
438.58	7005.22
438.77	6981.82
438.96	6949.05
439.14	7021.61
439.33	7351.62
439.52	7180.76
439.70	7201.83
439.89	7342.26
440.08	7487.37
440.26	7332.90
440.45	7396.09
440.63	7534.18
440.82	7634.83
441.01	7524.82
441.19	7515.46
441.38	7630.15
441.57	7772.92
441.75	7709.72
441.94	8065.49
442.12	7801.01
442.31	7925.05
442.50	7969.52
442.68	8002.29
442.87	8006.97
443.05	8236.35
443.24	8098.25
443.43	8074.85
443.61	8081.87
443.80	8517.21
443.98	8091.23
444.17	7953.14
444.35	8353.37
444.54	8411.89
444.73	8472.74
444.91	8161.45
445.10	8367.42
445.28	8379.12
445.47	8294.86
445.65	8430.61
445.84	8456.36
446.02	8409.54
446.21	8496.14
446.39	8430.61
446.58	8594.45
446.77	8456.36
446.95	8147.40
447.14	8353.37
447.32	8692.75
447.51	8414.23
447.69	8437.63
447.88	8528.91
448.06	8500.83
448.25	8568.70
448.43	8477.42
448.62	8734.88
448.80	8507.85
448.99	8781.69
449.17	8805.10
449.36	8753.60
449.54	8781.69
449.73	8997.02
449.91	9111.71
450.10	8861.27
450.28	9142.13
450.46	8947.87
450.65	9128.09
450.83	9001.70
451.02	9029.79
451.20	9102.34
451.39	9029.79
451.57	9149.15
451.76	9076.60
451.94	9109.36
452.13	9280.22
452.31	9390.23
452.49	9202.99
452.68	9132.77
452.86	9341.08
453.05	9336.40
453.23	9671.09
453.42	9542.36
453.60	9343.42
453.78	9547.05
453.97	9397.25
454.15	9455.76
454.34	9383.21
454.52	9568.11
454.70	9813.87
454.89	9582.15
455.07	9633.64
455.26	9867.70
455.44	9898.13
455.62	9898.13
455.81	9870.04
455.99	9951.96
456.17	10092.39
456.36	10012.81
456.54	10284.31
456.73	10183.67
456.91	10338.15
457.09	10310.06
457.28	10572.20
457.46	10127.50
457.64	10654.12
457.83	10494.96
458.01	10448.15
458.19	10813.28
458.38	10501.98
458.56	10548.79
458.74	10527.73
458.93	10714.97
459.11	10717.31
459.29	10682.20
459.48	10757.10
459.66	10867.11
459.84	10881.15
460.03	11023.92
460.21	11033.29
460.39	11056.69
460.57	11108.18
460.76	10960.73
460.94	11131.59
461.12	11185.42
461.31	11115.20
461.49	11246.27
461.67	11073.07
461.85	11318.83
462.04	11220.53
462.22	11602.04
462.40	11585.65
462.59	11396.07
462.77	11604.38
462.95	11595.01
463.13	11456.92
463.32	11784.60
463.50	11674.59
463.68	11920.35
463.86	11625.44
464.05	11712.04
464.23	11695.66
464.41	12004.61
464.59	11646.51
464.78	12051.42
464.96	11878.22
465.14	11950.78
465.32	12299.52
465.50	12009.29
465.69	12067.80
465.87	12063.12
466.05	12266.75
466.23	12098.23
466.41	12107.59
466.60	12280.79
466.78	12135.68
466.96	12126.32
467.14	12343.99
467.32	12369.73
467.51	12482.08
467.69	11995.25
467.87	12535.91
468.05	12564.00
468.23	12346.33
468.41	12369.73
468.60	12669.32
468.78	12746.56
468.96	12610.81
469.14	12784.01
469.32	12919.76
469.50	12493.78
469.69	13022.74
469.87	13298.92
470.05	13221.69
470.23	13156.15
470.41	12830.82
470.59	13497.87
470.77	13266.16
470.95	13231.05
471.14	13415.95
471.32	12854.22
471.50	13518.93
471.68	13731.92
471.86	13380.84
472.04	13848.95
472.22	14036.19
472.40	13724.90
472.58	13600.85
472.77	14050.24
472.95	14214.07
473.13	14569.83
473.31	14281.95
473.49	14267.91
473.67	14038.53
473.85	14155.56
474.03	14443.45
474.21	14771.12
474.39	14846.02
474.57	14984.11
474.75	14808.57
474.93	14881.13
475.12	15042.62
475.30	15030.92
475.48	15000.49
475.66	15309.44
475.84	14883.47
476.02	15550.52
476.20	15459.24
476.38	15730.74
476.56	16086.50
476.74	16027.99
476.92	15920.32
477.10	15819.68
477.28	16016.29
477.46	16177.78
477.64	16489.07
477.82	16418.86
478.00	16812.07
478.18	16940.80
478.36	16830.79
478.54	17193.58
478.72	16999.31
478.90	17465.08
479.08	17439.33
479.26	17914.46
479.44	17720.20
479.62	17877.01
479.80	18111.07
479.98	18127.45
480.16	18906.85
480.34	18026.81
480.52	18750.03
480.70	18553.43
480.88	18677.48
481.06	18593.22
481.24	18572.15
481.41	18951.32
481.59	19501.34
481.77	19463.90
481.95	19508.37
482.13	19742.42
482.31	19662.84
482.49	20451.60
482.67	20067.75
482.85	20496.07
483.03	20575.65
483.21	20641.18
483.39	20814.38
483.57	20643.52
483.74	21120.99
483.92	21713.15
484.10	21408.88
484.28	21788.05
484.46	22068.91
484.64	22333.39
484.82	22036.14
485.00	22242.11
485.18	22555.74
485.35	22871.72
485.53	23023.85
485.71	23098.75
485.89	23583.24
486.07	23171.30
486.25	23604.30
486.43	23604.30
486.61	24095.82
486.78	24060.71
486.96	24180.07
487.14	24437.53
487.32	24545.20
487.50	24758.19
487.68	25111.61
487.85	25146.72
488.03	25369.07
488.21	25605.46
488.39	25858.24
488.57	26480.82
488.75	26291.24
488.92	26265.49
489.10	26717.22
489.28	26436.35
489.46	27101.06
489.64	27096.38
489.81	27590.24
489.99	27384.27
490.17	27871.10
490.35	27950.68
490.53	28205.80
490.70	27978.76
490.88	27615.98
491.06	28638.80
491.24	28819.02
491.41	29317.55
491.59	29294.14
491.77	29139.67
491.95	29846.51
492.13	29465.00
492.30	29813.74
492.48	30085.25
492.66	30225.68
492.84	30286.53
493.01	30555.69
493.19	30298.23
493.37	31232.11
493.54	31049.55
493.72	31487.23
493.90	31335.09
494.08	31597.23
494.25	31784.48
494.43	31936.61
494.61	32470.25
494.79	32542.81
494.96	32531.11
495.14	32720.69
495.32	33256.67
495.49	33312.84
495.67	33130.28
495.85	33713.08
496.02	33933.09
496.20	33862.87
496.38	34117.99
496.55	34043.09
496.73	34953.56
496.91	34401.19
497.09	34771.00
497.26	35091.65
497.44	34969.94
497.62	35136.12
497.79	35765.73
497.97	35398.26
498.14	35894.46
498.32	36364.90
498.50	36084.04
498.67	36229.15
498.85	36266.60
499.03	36500.65
499.20	36512.36
499.38	36854.08
499.56	37050.68
499.73	36900.89
499.91	37525.81
500.08	37783.27
500.26	37448.57
500.44	37404.10
500.61	37951.79
500.79	37757.52
500.97	37841.78
501.14	38485.43
501.32	38487.77
501.49	38604.80
501.67	38693.74
501.84	38934.81
502.02	38801.40
502.20	39138.44
502.37	38911.41
502.55	38864.60
502.72	39328.02
502.90	39587.82
503.07	39625.27
503.25	39828.90
503.43	39828.90
503.60	39871.03
503.78	40416.37
503.95	40201.04
504.13	40889.16
504.30	40458.50
504.48	40114.44
504.65	40891.50
504.83	41120.87
505.01	41361.95
505.18	41493.02
505.36	41390.03
505.53	41825.37
505.71	41614.72
505.88	41605.36
506.06	41277.69
506.23	42122.62
506.41	41544.51
506.58	41972.83
506.76	42230.29
506.93	42572.00
507.11	42108.58
507.28	42478.38
507.46	42431.57
507.63	42906.70
507.81	43269.48
507.98	42880.95
508.16	43002.66
508.33	43395.87
508.50	43690.78
508.68	43882.70
508.85	43873.34
509.03	44037.18
509.20	44051.22
509.38	44919.56
509.55	44425.71
509.73	44039.52
509.90	44910.20
510.08	44758.06
510.25	44818.92
510.42	44360.17
510.60	44928.92
510.77	45251.92
510.95	45525.76
511.12	44889.13
511.30	45525.76
511.47	45078.72
511.64	45413.41
511.82	45918.97
511.99	45605.34
512.17	45799.60
512.34	46012.59
512.51	46490.06
512.69	46050.04
512.86	46419.84
513.04	46670.28
513.21	46689.01
513.38	46773.27
513.56	46710.07
513.73	46656.24
513.90	47124.35
514.08	46672.62
514.25	47412.23
514.43	47196.90
514.60	47129.03
514.77	47473.09
514.95	47629.90
515.12	47449.68
515.29	47363.08
515.47	48081.63
515.64	48002.05
515.81	47803.10
515.99	48144.82
516.16	48048.86
516.33	48259.51
516.51	48591.86
516.68	48664.42
516.85	48266.53
517.03	48666.76
517.20	49043.59
517.37	48580.16
517.54	48980.39
517.72	48767.40
517.89	49064.65
518.06	49301.04
518.24	48863.36
518.41	49270.62
518.58	49499.99
518.75	49258.91
518.93	49567.87
519.10	49640.42
519.27	49720.00
519.45	49914.26
519.62	49771.49
519.79	50195.13
519.96	49783.19
520.14	50438.54
520.31	50220.87
520.48	50398.76
520.65	50064.06
520.83	50525.14
521.00	50597.70
521.17	50473.65
521.34	50497.06
521.52	50876.22
521.69	50908.99
521.86	50642.17
522.03	51253.05
522.20	51138.36
522.38	51248.37
522.55	51334.97
522.72	51435.61
522.89	51428.59
523.07	51440.29
523.24	51311.56
523.41	51702.43
523.58	51681.37
523.75	51859.25
523.92	51636.90
524.10	52158.84
524.27	52144.80
524.44	51941.17
524.61	52200.97
524.78	52207.99
524.96	52177.56
525.13	52453.75
525.30	52495.88
525.47	52425.66
525.64	52332.04
525.81	52444.38
525.98	52762.70
526.16	52451.41
526.33	52804.83
526.50	52875.04
526.67	52575.45
526.84	52896.11
527.01	53043.56
527.18	52999.09
527.36	53020.16
527.53	53095.05
527.70	53546.78
527.87	53240.17
528.04	53104.41
528.21	53366.55
528.38	53240.17
528.55	53544.44
528.72	53389.96
528.89	53251.87
529.07	53350.17
529.24	53521.03
529.41	53549.12
529.58	53478.90
529.75	53609.97
529.92	53682.53
530.09	53834.66
530.26	53776.15
530.43	54064.03
530.60	53820.62
530.77	54089.78
530.94	54246.60
531.11	53872.11
531.28	53961.05
531.46	54223.19
531.63	54143.61
531.80	54096.80
531.97	54368.30
532.14	54443.20
532.31	54721.72
532.48	54555.55
532.65	54623.42
532.82	54518.10
532.99	54424.48
533.16	54443.20
533.33	54803.64
533.50	54801.30
533.67	54885.56
533.84	54635.13
534.01	54677.25
534.18	55103.23
534.35	55496.44
534.52	55257.71
534.69	55311.54
534.86	55203.88
535.03	54798.96
535.20	55405.16
535.37	55407.50
535.54	55271.75
535.71	55253.03
535.88	55679.00
536.05	55594.74
536.22	55517.51
536.38	55526.87
536.55	55456.65
536.72	55599.43
536.89	55433.25
537.06	55524.53
537.23	55796.03
537.40	55735.18
537.57	55805.39
537.74	55959.87
537.91	56004.34
538.08	55791.35
538.25	55807.73
538.42	55936.46
538.59	55976.25
538.75	55728.16
538.92	56102.64
539.09	56175.20
539.26	55973.91
539.43	56222.01
539.60	56303.93
539.77	56079.24
539.94	56357.76
540.11	56231.37
540.28	56301.59
540.44	56460.74
540.61	56362.44
540.78	56177.54
540.95	56516.92
541.12	56285.20
541.29	56409.25
541.46	56643.30
541.62	56470.11
541.79	56772.03
541.96	56610.54
542.13	56498.19
542.30	56793.10
542.47	56788.42
542.63	56704.16
542.80	56582.45
542.97	57181.63
543.14	57127.80
543.31	57116.09
543.48	57378.23
543.64	57544.41
543.81	57237.80
543.98	57347.81
544.15	57078.64
544.32	57584.20
544.48	57680.16
544.65	57481.22
544.82	57446.11
544.99	57240.14
545.16	57542.07
545.32	57584.20
545.49	57652.08
545.66	57839.32
545.83	57411.00
546.00	57764.42
546.16	57677.82
546.33	57642.71
546.50	57499.94
546.67	57794.85
546.83	57448.45
547.00	57848.68
547.17	57616.97
547.34	57790.17
547.50	57829.96
547.67	57956.35
547.84	57867.40
548.00	58005.50
548.17	58274.66
548.34	57984.43
548.51	58181.04
548.67	58117.84
548.84	57944.64
549.01	58024.22
549.18	57904.85
549.34	58232.53
549.51	58403.39
549.68	58492.33
549.84	58508.71
550.01	58286.36
550.18	58342.53
550.34	58501.69
550.51	58520.41
550.68	58452.54
550.84	58206.78
551.01	58527.44
551.18	58396.37
551.34	58337.85
551.51	58480.63
551.68	58506.37
551.84	58354.24
552.01	58728.72
552.18	58695.95
552.34	58562.54
552.51	58625.74
552.68	58337.85
552.84	58801.28
553.01	58822.34
553.18	58805.96
553.34	58824.68
553.51	58838.73
553.67	58848.09
553.84	58930.01
554.01	58749.79
554.17	59049.38
554.34	59157.04
554.51	59138.32
554.67	59037.67
554.84	58941.71
555.00	58967.46
555.17	59131.29
555.33	59037.67
555.50	58930.01
555.67	59028.31
555.83	58997.88
556.00	59208.53
556.16	59377.05
556.33	59065.76
556.50	59194.49
556.66	59353.65
556.83	59124.27
556.99	59477.69
557.16	59618.13
557.32	59571.32
557.49	59536.21
557.65	59473.01
557.82	59372.37
557.98	59283.43
558.15	59430.88
558.32	59508.12
558.48	59402.80
558.65	59657.91
558.81	59568.97
558.98	59510.46
559.14	59433.22
559.31	59447.27
559.47	59643.87
559.64	59522.16
559.80	59742.17
559.97	59524.50
560.13	59496.42
560.30	59714.09
560.46	59898.99
560.63	59987.93
560.79	59779.62
560.96	59826.43
561.12	59915.37
561.29	59646.21
561.45	59955.16
561.61	59845.16
561.78	59882.61
561.94	59786.64
562.11	59697.70
562.27	59903.67
562.44	59784.30
562.60	60027.72
562.77	60179.85
562.93	59884.95
563.10	60041.76
563.26	60039.42
563.42	60142.41
563.59	59957.50
563.75	60107.30
563.92	60072.19
564.08	60149.43
564.24	60310.92
564.41	60193.90
564.57	59985.59
564.74	60023.04
564.90	60058.15
565.07	60093.25
565.23	60058.15
565.39	60144.75
565.56	60303.90
565.72	60126.02
565.88	60109.64
566.05	60004.31
566.21	60025.38
566.38	59903.67
566.54	60374.12
566.70	60355.39
566.87	60346.03
567.03	59987.93
567.19	60306.24
567.36	60336.67
567.52	60170.49
567.68	60559.02
567.85	60362.42
568.01	60561.36
568.17	60324.97
568.34	60530.93
568.50	60186.88
568.66	60252.41
568.83	60399.86
568.99	60196.24
569.15	60339.01
569.32	60451.36
569.48	60427.95
569.64	60388.16
569.81	60402.21
569.97	60268.79
570.13	60439.65
570.30	60320.29
570.46	60413.91
570.62	60533.28
570.78	60383.48
570.95	60477.10
571.11	60530.93
571.27	60334.33
571.43	60619.88
571.60	60603.49
571.76	60481.78
571.92	60446.68
572.09	60697.11
572.25	60411.57
572.41	60507.53
572.57	60512.21
572.74	60818.82
572.90	60432.63
573.06	60678.39
573.22	60725.20
573.38	60671.37
573.55	60645.62
573.71	60673.71
573.87	60814.14
574.03	60453.70
574.20	60772.01
574.36	60591.79
574.52	60722.86
574.68	60711.16
574.84	60757.97
575.01	60708.82
575.17	60626.90
575.33	60563.70
575.49	60601.15
575.65	60874.99
575.82	60865.63
575.98	60898.40
576.14	60762.65
576.30	60692.43
576.46	60774.35
576.62	60914.78
576.79	60760.31
576.95	60722.86
577.11	60886.70
577.27	60795.42
577.43	60870.31
577.59	60706.47
577.75	60678.39
577.92	60706.47
578.08	60764.99
578.24	60912.44
578.40	61071.60
578.56	60959.25
578.72	60657.32
578.88	60774.35
579.04	61034.15
579.21	60736.90
579.37	61038.83
579.53	61095.00
579.69	60493.49
579.85	60804.78
580.01	60797.76
580.17	60853.93
580.33	60725.20
580.49	60973.30
580.65	61041.17
580.82	60811.80
580.98	60931.17
581.14	60779.03
581.30	61003.72
581.46	60898.40
581.62	60856.27
581.78	60666.69
581.94	61010.74
582.10	61010.74
582.26	60804.78
582.42	60748.60
582.58	61010.74
582.74	60956.91
582.90	60877.33
583.06	60970.96
583.22	60795.42
583.38	60779.03
583.54	60942.87
583.70	61050.53
583.86	61097.34
584.02	60736.90
584.18	61181.60
584.34	61139.47
584.50	61069.26
584.66	60821.16
584.82	60692.43
584.98	61153.52
585.14	61024.79
585.30	61031.81
585.46	60933.51
585.62	61022.45
585.78	61073.94
585.94	60837.54
586.10	61003.72
586.26	61069.26
586.42	61015.43
586.58	61205.01
586.74	61069.26
586.90	60963.93
587.06	61006.06
587.22	61221.39
587.38	61214.37
587.54	60907.76
587.70	61111.39
587.86	61153.52
588.02	60954.57
588.18	61373.53
588.34	61031.81
588.49	61050.53
