SpectraSuite Data File
++++++++++++++++++++++++++++++++++++
Date: Fri Oct 25 10:43:58 EDT 2013
User: price-jones
Dark Spectrum Present: No
Reference Spectrum Present: No
Number of Sampled Component Spectra: 1
Spectrometers: USB2+H05261
Integration Time (usec): 100000 (USB2+H05261)
Spectra Averaged: 1 (USB2+H05261)
Boxcar Smoothing: 0 (USB2+H05261)
Correct for Electrical Dark: No (USB2+H05261)
Strobe/Lamp Enabled: No (USB2+H05261)
Correct for Detector Non-linearity: No (USB2+H05261)
Correct for Stray Light: No (USB2+H05261)
Number of Pixels in Processed Spectrum: 2048
>>>>>Begin Processed Spectral Data<<<<<
365.73	173.20
365.92	173.20
366.12	173.20
366.32	81.92
366.52	51.49
366.72	28.09
366.91	32.77
367.11	0.00
367.31	0.00
367.51	16.38
367.70	23.41
367.90	0.00
368.10	0.00
368.30	58.51
368.49	0.00
368.69	53.83
368.89	0.00
369.09	39.79
369.28	81.92
369.48	95.96
369.68	95.96
369.87	30.43
370.07	79.58
370.27	105.32
370.47	117.03
370.66	351.08
370.86	402.57
371.06	435.34
371.25	493.85
371.45	475.13
371.65	493.85
371.84	512.58
372.04	468.11
372.24	528.96
372.44	519.60
372.63	491.51
372.83	482.15
373.03	547.69
373.22	454.06
373.42	545.34
373.62	641.31
373.81	531.30
374.01	692.80
374.21	545.34
374.40	564.07
374.60	603.86
374.79	580.45
374.99	629.60
375.19	587.47
375.38	610.88
375.58	638.97
375.78	578.11
375.97	636.63
376.17	603.86
376.37	641.31
376.56	585.13
376.76	550.03
376.95	596.84
377.15	617.90
377.35	641.31
377.54	671.73
377.74	664.71
377.93	676.41
378.13	667.05
378.33	746.63
378.52	709.18
378.72	697.48
378.91	727.91
379.11	681.10
379.31	674.07
379.50	627.26
379.70	716.20
379.89	634.29
380.09	643.65
380.28	723.23
380.48	641.31
380.68	685.78
380.87	634.29
381.07	709.18
381.26	702.16
381.46	695.14
381.65	653.01
381.85	692.80
382.04	704.50
382.24	634.29
382.43	697.48
382.63	791.10
382.83	730.25
383.02	746.63
383.22	854.30
383.41	725.57
383.61	748.97
383.80	812.17
384.00	781.74
384.19	741.95
384.39	828.55
384.58	842.59
384.78	807.48
384.97	840.25
385.17	716.20
385.36	734.93
385.56	882.38
385.75	840.25
385.95	849.61
386.14	866.00
386.34	812.17
386.53	933.87
386.72	826.21
386.92	875.36
387.11	805.14
387.31	959.62
387.50	870.68
387.70	889.40
387.89	826.21
388.09	931.53
388.28	851.96
388.48	863.66
388.67	929.19
388.86	915.15
389.06	971.32
389.25	1022.81
389.45	976.00
389.64	980.68
389.84	985.37
390.03	1015.79
390.22	976.00
390.42	1050.90
390.61	964.30
390.81	1004.09
391.00	1048.56
391.19	1078.99
391.39	1123.46
391.58	1041.54
391.78	999.41
391.97	1114.10
392.16	980.68
392.36	1090.69
392.55	1025.15
392.75	1006.43
392.94	971.32
393.13	926.85
393.33	1050.90
393.52	1039.20
393.71	1144.52
393.91	1163.25
394.10	1104.73
394.29	1212.40
394.49	1256.87
394.68	1228.78
394.88	1238.14
395.07	1270.91
395.26	1270.91
395.46	1238.14
395.65	1186.65
395.84	1221.76
396.04	1247.51
396.23	1153.88
396.42	1205.38
396.62	1242.82
396.81	1198.35
397.00	1231.12
397.19	1280.27
397.39	1357.51
397.58	1446.45
397.77	1446.45
397.97	1453.47
398.16	1453.47
398.35	1441.77
398.55	1434.75
398.74	1441.77
398.93	1516.67
399.12	1479.22
399.32	1432.41
399.51	1490.92
399.70	1614.97
399.90	1516.67
400.09	1666.46
400.28	1708.59
400.47	1664.12
400.67	1729.66
400.86	1610.29
401.05	1659.44
401.24	1760.08
401.44	1739.02
401.63	1867.75
401.82	1746.04
402.01	1703.91
402.21	1668.80
402.40	1790.51
402.59	1727.32
402.78	1778.81
402.97	1802.21
403.17	1790.51
403.36	1813.92
403.55	1839.66
403.74	1926.26
403.93	1891.15
404.13	1874.77
404.32	1959.03
404.51	1853.70
404.70	1893.49
404.89	1919.24
405.09	1956.69
405.28	1963.71
405.47	1984.77
405.66	2022.22
405.85	1930.94
406.05	1919.24
406.24	2038.61
406.43	1954.35
406.62	2172.02
406.81	2071.37
407.00	2069.03
407.20	2057.33
407.39	2157.97
407.58	2083.08
407.77	2225.85
407.96	2263.30
408.15	2347.56
408.34	2172.02
408.54	2377.98
408.73	2396.71
408.92	2286.70
409.11	2389.69
409.30	2349.90
409.49	2225.85
409.68	2342.88
409.87	2303.09
410.07	2352.24
410.26	2415.43
410.45	2480.97
410.64	2532.46
410.83	2457.56
411.02	2534.80
411.21	2616.72
411.40	2609.70
411.59	2583.95
411.78	2679.91
411.98	2574.59
412.17	2775.88
412.36	2668.21
412.55	2726.72
412.74	2691.62
412.93	2703.32
413.12	2780.56
413.31	2909.29
413.50	2785.24
413.69	2935.03
413.88	3047.38
414.07	2902.26
414.26	2888.22
414.45	2953.76
414.64	2972.48
414.83	2928.01
415.02	3075.46
415.22	3141.00
415.41	3141.00
415.60	3136.32
415.79	3204.19
415.98	3164.40
416.17	3337.60
416.36	3241.64
416.55	3225.26
416.74	3267.39
416.93	3349.31
417.12	3300.16
417.31	3438.25
417.50	3393.78
417.69	3431.23
417.88	3468.67
418.07	3318.88
418.26	3440.59
418.45	3346.97
418.64	3618.47
418.83	3590.38
419.02	3599.74
419.21	3665.28
419.39	3597.40
419.58	3529.53
419.77	3599.74
419.96	3616.13
420.15	3801.03
420.34	3836.14
420.53	3845.50
420.72	3836.14
420.91	3822.09
421.10	3784.65
421.29	3906.35
421.48	3772.94
421.67	3786.99
421.86	3784.65
422.05	3878.27
422.24	3847.84
422.43	3784.65
422.61	3808.05
422.80	3962.53
422.99	3805.71
423.18	3892.31
423.37	4135.73
423.56	3960.19
423.75	3999.98
423.94	3911.04
424.13	3723.79
424.32	3791.67
424.50	4007.00
424.69	4030.40
424.88	4210.62
425.07	3976.57
425.26	3911.04
425.45	4124.02
425.64	4074.87
425.83	3896.99
426.01	4187.22
426.20	4046.79
426.39	4074.87
426.58	3892.31
426.77	3892.31
426.96	4170.83
427.15	4070.19
427.33	4114.66
427.52	4154.45
427.71	4149.77
427.90	4231.69
428.09	4187.22
428.28	4304.25
428.46	4325.31
428.65	4135.73
428.84	4219.99
429.03	4463.40
429.22	4285.52
429.40	4252.75
429.59	4046.79
429.78	4084.23
429.97	3957.85
430.16	4070.19
430.34	4175.52
430.53	4231.69
430.72	4166.15
430.91	4308.93
431.10	4447.02
431.28	4482.13
431.47	4662.35
431.66	4627.24
431.85	4683.41
432.03	4760.65
432.22	4683.41
432.41	4486.81
432.60	4746.61
432.79	4821.50
432.97	4884.70
433.16	4816.82
433.35	4505.53
433.54	4699.80
433.72	4709.16
433.91	4610.86
434.10	4861.29
434.28	4814.48
434.47	4894.06
434.66	4943.21
434.85	4884.70
435.03	5020.45
435.22	5062.58
435.41	5263.86
435.59	5177.26
435.78	5085.98
435.97	5130.45
436.16	5268.55
436.34	5219.39
436.53	5174.92
436.72	5378.55
436.90	4975.98
437.09	5256.84
437.28	5043.85
437.46	5100.03
437.65	5282.59
437.84	5153.86
438.02	5259.18
438.21	5263.86
438.40	5139.82
438.58	5336.42
438.77	5350.46
438.96	5495.58
439.14	5577.50
439.33	5638.35
439.52	5636.01
439.70	5734.31
439.89	5696.86
440.08	5748.36
440.26	5792.83
440.45	5734.31
440.63	5839.64
440.82	6125.18
441.01	6118.16
441.19	6010.50
441.38	6169.65
441.57	6115.82
441.75	6225.82
441.94	6335.83
442.12	6282.00
442.31	6434.13
442.50	6382.64
442.68	6487.96
442.87	6408.39
443.05	6450.52
443.24	6546.48
443.43	6576.91
443.61	6525.41
443.80	6700.95
443.98	6422.43
444.17	6317.11
444.35	6523.07
444.54	6668.19
444.73	6558.18
444.91	6619.04
445.10	6532.44
445.28	6689.25
445.47	6300.72
445.65	6480.94
445.84	6761.81
446.02	6712.66
446.21	6707.98
446.39	6654.14
446.58	6757.13
446.77	6757.13
446.95	6518.39
447.14	6635.42
447.32	6923.30
447.51	6766.49
447.69	6581.59
447.88	6761.81
448.06	6822.66
448.25	6731.38
448.43	7122.25
448.62	6855.43
448.80	6628.40
448.99	6925.65
449.17	6909.26
449.36	6911.60
449.54	6927.99
449.73	7220.55
449.91	7150.34
450.10	7267.36
450.28	7248.64
450.46	7323.54
450.65	7419.50
450.83	7187.79
451.02	7243.96
451.20	7321.20
451.39	7419.50
451.57	7405.46
451.76	7428.86
451.94	7370.35
452.13	7323.54
452.31	7365.67
452.49	7136.29
452.68	7258.00
452.86	7421.84
453.05	7459.29
453.23	7358.64
453.42	7356.30
453.60	7356.30
453.78	7592.70
453.97	7449.93
454.15	7595.04
454.34	7578.65
454.52	7674.62
454.70	7627.81
454.89	7606.74
455.07	7674.62
455.26	7868.88
455.44	7798.66
455.62	7817.39
455.81	7983.57
455.99	7960.16
456.17	7906.33
456.36	8077.19
456.54	8107.62
456.73	8011.65
456.91	8119.32
457.09	8250.39
457.28	8510.19
457.46	8217.62
457.64	8437.63
457.83	8198.90
458.01	8201.24
458.19	8311.24
458.38	8360.39
458.56	8418.91
458.74	8294.86
458.93	8264.43
459.11	8306.56
459.29	8456.36
459.48	8423.59
459.66	8395.50
459.84	8533.59
460.03	8627.21
460.21	8765.31
460.39	8610.83
460.57	8634.24
460.76	8652.96
460.94	8652.96
461.12	8709.13
461.31	8683.39
461.49	8734.88
461.67	8629.56
461.85	8816.80
462.04	8992.34
462.22	9029.79
462.40	9048.51
462.59	8819.14
462.77	9198.31
462.95	9142.13
463.13	8999.36
463.32	8966.59
463.50	9074.26
463.68	9032.13
463.86	9259.16
464.05	8968.93
464.23	9034.47
464.41	9231.07
464.59	8901.06
464.78	9298.95
464.96	9256.82
465.14	9135.11
465.32	9139.79
465.50	9214.69
465.69	9469.81
465.87	9334.06
466.05	9221.71
466.23	9287.25
466.41	9334.06
466.60	9327.03
466.78	9249.80
466.96	9511.94
467.14	9355.12
467.32	9469.81
467.51	9607.90
467.69	9334.06
467.87	9408.95
468.05	9535.34
468.23	9565.77
468.41	9619.60
468.60	9582.15
468.78	9687.48
468.96	9598.54
469.14	9671.09
469.32	9977.70
469.50	9572.79
469.69	9860.68
469.87	9898.13
470.05	9980.04
470.23	10003.45
470.41	10083.03
470.59	10244.52
470.77	10043.24
470.95	10022.17
471.14	10279.63
471.32	10024.51
471.50	10303.04
471.68	10188.35
471.86	10614.33
472.04	10511.35
472.22	10698.59
472.40	10384.96
472.58	10300.70
472.77	10619.01
472.95	10626.03
473.13	11044.99
473.31	10509.01
473.49	10602.63
473.67	10726.68
473.85	10960.73
474.03	10979.45
474.21	11246.27
474.39	11073.07
474.57	11276.70
474.75	11276.70
474.93	11286.06
475.12	11337.56
475.30	11550.54
475.48	11414.79
475.66	11379.68
475.84	11386.71
476.02	11573.95
476.20	11620.76
476.38	11674.59
476.56	11793.96
476.74	11941.41
476.92	11808.00
477.10	11969.50
477.28	12135.68
477.46	12229.30
477.64	12222.28
477.82	12568.68
478.00	12826.14
478.18	12552.29
478.36	12645.91
478.54	12968.91
478.72	12938.48
478.90	13057.85
479.08	13268.50
479.26	13390.20
479.44	13458.08
479.62	13362.12
479.80	13532.98
479.98	13652.34
480.16	13544.68
480.34	13706.18
480.52	13724.90
480.70	13853.63
480.88	13928.53
481.06	14099.39
481.24	14237.48
481.41	14202.37
481.59	14511.32
481.77	14651.75
481.95	14747.72
482.13	14902.19
482.31	14398.98
482.49	14991.13
482.67	15051.99
482.85	15279.02
483.03	15456.90
483.21	15274.34
483.39	15587.97
483.57	15325.83
483.74	15625.42
483.92	15681.59
484.10	15536.48
484.28	15723.72
484.46	16343.96
484.64	16460.99
484.82	16231.62
485.00	16058.42
485.18	16418.86
485.35	16418.86
485.53	16332.26
485.71	16035.01
485.89	16699.72
486.07	16594.40
486.25	16812.07
486.43	17245.07
486.61	17156.13
486.78	17291.88
486.96	17617.21
487.14	17972.97
487.32	17867.65
487.50	18232.77
487.68	18436.40
487.85	18539.38
488.03	18640.03
488.21	18862.38
488.39	18876.42
488.57	18822.59
488.75	19080.05
488.92	19206.44
489.10	19393.68
489.28	19463.90
489.46	19990.52
489.64	20350.96
489.81	20283.08
489.99	20350.96
490.17	20301.81
490.35	20514.80
490.53	20779.28
490.70	20727.78
490.88	20851.83
491.06	21205.25
491.24	20648.21
491.41	20891.62
491.59	20886.94
491.77	21001.63
491.95	21275.47
492.13	21383.13
492.30	21703.79
492.48	22024.44
492.66	22132.11
492.84	21923.80
493.01	22054.87
493.19	22087.64
493.37	22286.58
493.54	22642.34
493.72	22892.78
493.90	23396.00
494.08	23304.71
494.25	23466.21
494.43	23498.98
494.61	23744.73
494.79	23587.92
494.96	23782.18
495.14	23889.85
495.32	23990.49
495.49	23803.25
495.67	24116.88
495.85	24273.70
496.02	24425.83
496.20	24390.72
496.38	24676.27
496.55	24835.42
496.73	25415.88
496.91	25060.12
497.09	25373.75
497.26	25151.40
497.44	25638.23
497.62	25380.77
497.79	25469.71
497.97	25439.28
498.14	25820.79
498.32	25855.90
498.50	26017.40
498.67	26354.43
498.85	26349.75
499.03	26284.22
499.20	26710.19
499.38	26565.08
499.56	26752.32
499.73	26904.46
499.91	26841.26
500.08	26885.73
500.26	26742.96
500.44	27267.24
500.61	26911.48
500.79	26728.92
500.97	27084.68
501.14	27421.72
501.32	26991.06
501.49	26925.52
501.67	27126.81
501.84	27566.83
502.02	27552.79
502.20	27613.64
502.37	27999.83
502.55	28060.68
502.72	28313.46
502.90	28318.14
503.07	28238.56
503.25	28643.48
503.43	28002.17
503.60	27957.70
503.78	28496.02
503.95	28219.84
504.13	28636.45
504.30	28659.86
504.48	28720.71
504.65	29436.92
504.83	29151.37
505.01	29076.48
505.18	29556.28
505.36	29813.74
505.53	29961.20
505.71	29699.06
505.88	30047.80
506.06	29397.13
506.23	30445.69
506.41	29827.79
506.58	30082.91
506.76	30326.32
506.93	30403.56
507.11	30441.01
507.28	30424.62
507.46	30150.78
507.63	30246.74
507.81	30899.75
507.98	30366.11
508.16	30637.61
508.33	31030.82
508.50	30843.58
508.68	31215.72
508.85	31264.88
509.03	31175.94
509.20	31482.55
509.38	31646.38
509.55	31669.79
509.73	31798.52
509.90	31323.39
510.08	31606.59
510.25	31768.09
510.42	31784.48
510.60	32252.58
510.77	31992.78
510.95	32308.76
511.12	32224.50
511.30	32622.39
511.47	32924.32
511.64	32774.52
511.82	32748.78
511.99	32671.54
512.17	32828.35
512.34	32706.65
512.51	32655.15
512.69	33085.81
512.86	33170.07
513.04	33352.63
513.21	33195.82
513.38	32957.08
513.56	32793.25
513.73	32807.29
513.90	33457.96
514.08	33149.01
514.25	33549.24
514.43	33296.46
514.60	33614.77
514.77	34087.56
514.95	34375.45
515.12	34082.88
515.29	34176.50
515.47	34143.74
515.64	34632.91
515.81	34333.32
515.99	33888.62
516.16	34073.52
516.33	33832.44
516.51	33802.02
516.68	33509.45
516.85	33607.75
517.03	34017.35
517.20	34232.68
517.37	34780.36
517.54	35051.86
517.72	34464.39
517.89	34148.42
518.06	34586.10
518.24	34223.31
518.41	34412.90
518.58	34756.96
518.75	34871.64
518.93	35047.18
519.10	34520.56
519.27	35337.41
519.45	34749.93
519.62	35690.83
519.79	35789.13
519.96	35805.52
520.14	35583.16
520.31	35416.99
520.48	36205.75
520.65	35503.59
520.83	36074.68
521.00	35889.77
521.17	36191.70
521.34	36751.09
521.52	36568.53
521.69	36655.13
521.86	36753.43
522.03	36435.12
522.20	36767.48
522.38	36690.24
522.55	36868.12
522.72	36357.88
522.89	36484.27
523.07	37029.62
523.24	36891.52
523.41	37406.44
523.58	37134.94
523.75	37628.79
523.92	37446.23
524.10	37785.61
524.27	37530.49
524.44	37617.09
524.61	37429.85
524.78	37858.17
524.96	37584.32
525.13	37890.93
525.30	38197.54
525.47	38483.09
525.64	37837.10
525.81	38078.18
525.98	37830.08
526.16	37413.46
526.33	37532.83
526.50	38146.05
526.67	37479.00
526.84	37228.56
527.01	38064.13
527.18	37830.08
527.36	38410.53
527.53	38609.48
527.70	38857.57
527.87	38543.94
528.04	38291.16
528.21	38789.70
528.38	39000.35
528.55	39269.51
528.72	38948.85
528.89	39526.97
529.07	38763.95
529.24	39000.35
529.41	39271.85
529.58	38911.41
529.75	39257.81
529.92	39533.99
530.09	39541.01
530.26	39552.71
530.43	39416.96
530.60	39826.56
530.77	39222.70
530.94	39756.34
531.11	39613.57
531.28	39714.21
531.46	39807.83
531.63	39821.87
531.80	40100.40
531.97	39536.33
532.14	40163.59
532.31	39358.45
532.48	39569.10
532.65	39768.04
532.82	39974.01
532.99	39997.41
533.16	39899.11
533.33	40435.10
533.50	40299.34
533.67	40437.44
533.84	40179.98
534.01	40542.76
534.18	40397.65
534.35	41233.22
534.52	40479.57
534.69	41127.89
534.86	40907.88
535.03	41163.00
535.20	41233.22
535.37	41598.34
535.54	41036.61
535.71	40760.43
535.88	41462.59
536.05	41303.43
536.22	41219.17
536.38	40783.83
536.55	41043.63
536.72	41120.87
536.89	41368.97
537.06	41160.66
537.23	41413.44
537.40	41656.85
537.57	41736.43
537.74	41970.49
537.91	41785.58
538.08	41998.57
538.25	41350.24
538.42	41837.08
538.59	41689.62
538.75	41394.71
538.92	41923.68
539.09	41535.15
539.26	42010.28
539.43	41771.54
539.60	41823.03
539.77	41577.28
539.94	41696.64
540.11	41584.30
540.28	42108.58
540.44	42059.43
540.61	41546.85
540.78	41881.55
540.95	41507.06
541.12	41670.90
541.29	42169.43
541.46	42511.15
541.62	42256.03
541.79	42562.64
541.96	42349.65
542.13	42466.68
542.30	42178.79
542.47	42490.09
542.63	42403.49
542.80	42344.97
542.97	42550.94
543.14	42658.60
543.31	42745.20
543.48	42862.23
543.64	42990.96
543.81	43253.10
543.98	43264.80
544.15	42958.19
544.32	42934.79
544.48	43805.47
544.65	43239.06
544.82	43519.92
544.99	43068.20
545.16	43044.79
545.32	43217.99
545.49	43746.95
545.66	43849.94
545.83	43849.94
546.00	43667.37
546.16	43147.78
546.33	43866.32
546.50	43143.09
546.67	43531.62
546.83	43374.81
547.00	43243.74
547.17	43189.91
547.34	43400.55
547.50	43440.34
547.67	43856.96
547.84	44238.47
548.00	44210.38
548.17	44112.08
548.34	44142.50
548.51	44240.81
548.67	44051.22
548.84	44556.78
549.01	44055.90
549.18	44252.51
549.34	43894.41
549.51	44130.80
549.68	44306.34
549.84	44170.59
550.01	44531.03
550.18	44388.26
550.34	44217.40
550.51	44067.61
550.68	43878.02
550.84	44116.76
551.01	44093.35
551.18	44762.75
551.34	44311.02
551.51	44774.45
551.68	44776.79
551.84	44545.08
552.01	44608.27
552.18	44332.09
552.34	44697.21
552.51	44655.08
552.68	44694.87
552.84	44540.39
553.01	45059.99
553.18	44465.50
553.34	44971.05
553.51	44818.92
553.67	44945.31
553.84	45652.15
554.01	45214.47
554.17	45118.51
554.34	45427.46
554.51	45127.87
554.67	45261.28
554.84	45144.25
555.00	44982.76
555.17	45003.82
555.33	44870.41
555.50	45186.38
555.67	44856.37
555.83	44985.10
556.00	45268.30
556.16	45581.93
556.33	45212.13
556.50	45366.60
556.66	45006.16
556.83	45113.83
556.99	45280.00
557.16	45467.25
557.32	45525.76
557.49	45710.66
557.65	45251.92
557.82	45535.12
557.98	45797.26
558.15	45394.69
558.32	45537.46
558.48	45329.16
558.65	45137.23
558.81	45457.88
558.98	45570.23
559.14	45839.39
559.31	45457.88
559.47	45869.82
559.64	45551.51
559.80	45925.99
559.97	45610.02
560.13	45591.30
560.30	45595.98
560.46	45638.11
560.63	45911.95
560.79	45464.91
560.96	46066.42
561.12	45567.89
561.29	45612.36
561.45	45621.72
561.61	45841.73
561.78	45343.20
561.94	45326.81
562.11	45528.10
562.27	45710.66
562.44	45546.82
562.60	45968.12
562.77	45956.42
562.93	46024.29
563.10	46246.65
563.26	45427.46
563.42	45975.14
563.59	45954.08
563.75	45844.07
563.92	45867.48
564.08	46110.89
564.24	45888.54
564.41	45965.78
564.57	46040.68
564.74	45687.26
564.90	46045.36
565.07	45977.48
565.23	46490.06
565.39	46000.89
565.56	46031.32
565.72	45418.10
565.88	45925.99
566.05	45851.09
566.21	45851.09
566.38	46417.50
566.54	46164.73
566.70	46712.41
566.87	46555.60
567.03	46010.25
567.19	46546.23
567.36	46436.23
567.52	46277.07
567.68	46248.99
567.85	45944.72
568.01	46298.14
568.17	45794.92
568.34	46068.76
568.50	45979.82
568.66	46279.41
568.83	46155.36
568.99	46068.76
569.15	45794.92
569.32	46014.93
569.48	45705.98
569.64	46499.42
569.81	46609.43
569.97	45848.75
570.13	46506.44
570.30	46094.51
570.46	45778.54
570.62	45727.05
570.78	45722.37
570.95	46181.11
571.11	46117.92
571.27	45830.03
571.43	45965.78
571.60	46300.48
571.76	46017.27
571.92	46124.94
572.09	45979.82
572.25	45954.08
572.41	46478.36
572.57	46616.45
572.74	46831.78
572.90	46375.37
573.06	46532.19
573.22	46150.68
573.38	46611.77
573.55	46131.96
573.71	46630.49
573.87	46665.60
574.03	46452.61
574.20	46328.56
574.36	46646.88
574.52	46557.94
574.68	46227.92
574.84	46586.02
575.01	46412.82
575.17	46239.62
575.33	46150.68
575.49	46230.26
575.65	46726.46
575.82	46548.57
575.98	46712.41
576.14	46660.92
576.30	46632.83
576.46	46141.32
576.62	46281.75
576.79	45579.59
576.95	46024.29
577.11	46267.71
577.27	46155.36
577.43	46450.27
577.59	45991.53
577.75	45954.08
577.92	46178.77
578.08	46260.69
578.24	46216.22
578.40	46564.96
578.56	46450.27
578.72	46469.00
578.88	45958.76
579.04	46185.79
579.21	46363.67
579.37	46401.12
579.53	46204.52
579.69	46223.24
579.85	46354.31
580.01	46653.90
580.17	46106.21
580.33	46483.04
580.49	46438.57
580.65	46745.18
580.82	46190.47
580.98	46253.67
581.14	46096.85
581.30	46787.31
581.46	46129.62
581.62	46258.35
581.78	46628.15
581.94	46450.27
582.10	46548.57
582.26	46288.77
582.42	46138.98
582.58	46710.07
582.74	46375.37
582.90	46443.25
583.06	46443.25
583.22	46724.11
583.38	46642.20
583.54	46803.69
583.70	46616.45
583.86	46394.10
584.02	46328.56
584.18	46426.87
584.34	46447.93
584.50	46576.66
584.66	46309.84
584.82	46155.36
584.98	46855.18
585.14	46710.07
585.30	46527.51
585.46	46628.15
585.62	46227.92
585.78	46164.73
585.94	45794.92
586.10	46492.40
586.26	45935.35
586.42	46777.95
586.58	46859.87
586.74	46733.48
586.90	46604.75
587.06	46347.29
587.22	46600.07
587.38	46202.18
587.54	46520.49
587.70	46536.87
587.86	46618.79
588.02	46569.64
588.18	46597.73
588.34	46342.61
588.49	46113.23
588.65	45893.22
588.81	46342.61
588.97	46382.40
589.13	46012.59
589.29	46358.99
589.45	46483.04
589.61	46667.94
589.77	46466.66
589.93	46625.81
