SpectraSuite Data File
++++++++++++++++++++++++++++++++++++
Date: Fri Oct 25 10:48:14 EDT 2013
User: price-jones
Dark Spectrum Present: No
Reference Spectrum Present: No
Number of Sampled Component Spectra: 1
Spectrometers: USB2+H05261
Integration Time (usec): 100000 (USB2+H05261)
Spectra Averaged: 1 (USB2+H05261)
Boxcar Smoothing: 0 (USB2+H05261)
Correct for Electrical Dark: No (USB2+H05261)
Strobe/Lamp Enabled: No (USB2+H05261)
Correct for Detector Non-linearity: No (USB2+H05261)
Correct for Stray Light: No (USB2+H05261)
Number of Pixels in Processed Spectrum: 2048
>>>>>Begin Processed Spectral Data<<<<<
365.73	100.64
365.92	100.64
366.12	100.64
366.32	63.19
366.52	28.09
366.72	58.51
366.91	67.88
367.11	91.28
367.31	30.43
367.51	0.00
367.70	56.17
367.90	102.98
368.10	4.68
368.30	30.43
368.49	0.00
368.69	93.62
368.89	77.24
369.09	79.58
369.28	81.92
369.48	70.22
369.68	105.32
369.87	91.28
370.07	46.81
370.27	175.54
370.47	220.01
370.66	411.93
370.86	416.62
371.06	414.27
371.25	433.00
371.45	472.79
371.65	454.06
371.84	393.21
372.04	440.02
372.24	514.92
372.44	528.96
372.63	400.23
372.83	500.87
373.03	496.19
373.22	425.98
373.42	521.94
373.62	613.22
373.81	596.84
374.01	582.79
374.21	601.52
374.40	491.51
374.60	535.98
374.79	608.54
374.99	528.96
375.19	496.19
375.38	564.07
375.58	608.54
375.78	695.14
375.97	594.50
376.17	617.90
376.37	648.33
376.56	629.60
376.76	599.18
376.95	589.82
377.15	648.33
377.35	573.43
377.54	636.63
377.74	725.57
377.93	674.07
378.13	690.46
378.33	664.71
378.52	589.82
378.72	603.86
378.91	706.84
379.11	603.86
379.31	697.48
379.50	690.46
379.70	622.58
379.89	631.94
380.09	622.58
380.28	622.58
380.48	610.88
380.68	624.92
380.87	636.63
381.07	622.58
381.26	748.97
381.46	695.14
381.65	643.65
381.85	650.67
382.04	655.35
382.24	674.07
382.43	739.61
382.63	641.31
382.83	709.18
383.02	697.48
383.22	760.67
383.41	662.37
383.61	760.67
383.80	807.48
384.00	711.52
384.19	645.99
384.39	763.01
384.58	770.04
384.78	795.78
384.97	755.99
385.17	748.97
385.36	833.23
385.56	760.67
385.75	748.97
385.95	770.04
386.14	760.67
386.34	868.34
386.53	786.42
386.72	849.61
386.92	887.06
387.11	861.32
387.31	816.85
387.50	830.89
387.70	795.78
387.89	816.85
388.09	833.23
388.28	826.21
388.48	877.70
388.67	856.64
388.86	856.64
389.06	1013.45
389.25	847.27
389.45	959.62
389.64	898.77
389.84	957.28
390.03	964.30
390.22	933.87
390.42	997.07
390.61	947.92
390.81	868.34
391.00	938.55
391.19	945.58
391.39	985.37
391.58	985.37
391.78	1067.28
391.97	1015.79
392.16	947.92
392.36	987.71
392.55	1046.22
392.75	985.37
392.94	978.34
393.13	1046.22
393.33	954.94
393.52	938.55
393.71	1050.90
393.91	1123.46
394.10	1135.16
394.29	1097.71
394.49	1107.07
394.68	1196.01
394.88	1076.65
395.07	1139.84
395.26	1123.46
395.46	1174.95
395.65	1217.08
395.84	1090.69
396.04	1238.14
396.23	1214.74
396.42	1104.73
396.62	1163.25
396.81	1196.01
397.00	1139.84
397.19	1240.48
397.39	1224.10
397.58	1310.70
397.77	1301.34
397.97	1299.00
398.16	1324.74
398.35	1310.70
398.55	1313.04
398.74	1345.81
398.93	1413.68
399.12	1320.06
399.32	1373.89
399.51	1348.15
399.70	1453.47
399.90	1446.45
400.09	1390.28
400.28	1425.39
400.47	1439.43
400.67	1526.03
400.86	1497.94
401.05	1540.07
401.24	1474.54
401.44	1563.48
401.63	1514.33
401.82	1526.03
402.01	1535.39
402.21	1568.16
402.40	1540.07
402.59	1511.99
402.78	1607.95
402.97	1619.65
403.17	1675.82
403.36	1657.10
403.55	1701.57
403.74	1776.47
403.93	1607.95
404.13	1650.08
404.32	1720.29
404.51	1717.95
404.70	1713.27
404.89	1699.23
405.09	1675.82
405.28	1762.42
405.47	1781.15
405.66	1823.28
405.85	1881.79
406.05	1809.23
406.24	1741.36
406.43	1874.77
406.62	1937.96
406.81	1940.30
407.00	2017.54
407.20	1973.07
407.39	1928.60
407.58	1959.03
407.77	1966.05
407.96	2005.84
408.15	2064.35
408.34	2087.76
408.54	2134.57
408.73	1980.09
408.92	1987.11
409.11	2148.61
409.30	2097.12
409.49	2071.37
409.68	2132.23
409.87	2155.63
410.07	2186.06
410.26	2235.21
410.45	2239.89
410.64	2293.72
410.83	2249.25
411.02	2244.57
411.21	2366.28
411.40	2448.20
411.59	2333.51
411.78	2366.28
411.98	2392.03
412.17	2361.60
412.36	2408.41
412.55	2576.93
412.74	2462.24
412.93	2544.16
413.12	2406.07
413.31	2560.55
413.50	2696.30
413.69	2649.49
413.88	2703.32
414.07	2612.04
414.26	2696.30
414.45	2633.10
414.64	2640.12
414.83	2775.88
415.02	2782.90
415.22	2761.83
415.41	2848.43
415.60	2906.95
415.79	3000.57
415.98	3049.72
416.17	3002.91
416.36	2949.08
416.55	3045.04
416.74	2974.82
416.93	2981.84
417.12	3000.57
417.31	3026.31
417.50	3124.62
417.69	3150.36
417.88	3159.72
418.07	3098.87
418.26	3166.74
418.45	3131.64
418.64	3279.09
418.83	3274.41
419.02	3241.64
419.21	3297.81
419.39	3335.26
419.58	3337.60
419.77	3178.45
419.96	3349.31
420.15	3342.28
420.34	3269.73
420.53	3421.86
420.72	3344.63
420.91	3435.91
421.10	3499.10
421.29	3599.74
421.48	3485.06
421.67	3475.70
421.86	3433.57
422.05	3515.48
422.24	3625.49
422.43	3513.14
422.61	3468.67
422.80	3548.25
422.99	3597.40
423.18	3592.72
423.37	3648.90
423.56	3609.11
423.75	3566.98
423.94	3688.68
424.13	3363.35
424.32	3468.67
424.50	3672.30
424.69	3726.13
424.88	3644.21
425.07	3639.53
425.26	3590.38
425.45	3712.09
425.64	3679.32
425.83	3730.81
426.01	3775.28
426.20	3770.60
426.39	3676.98
426.58	3679.32
426.77	3613.79
426.96	3590.38
427.15	3765.92
427.33	3794.01
427.52	3758.90
427.71	3887.63
427.90	3777.62
428.09	3899.33
428.28	3742.52
428.46	3908.69
428.65	3929.76
428.84	3943.80
429.03	3969.55
429.22	3889.97
429.40	3836.14
429.59	3845.50
429.78	3630.17
429.97	3648.90
430.16	3824.44
430.34	4011.68
430.53	3786.99
430.72	3838.48
430.91	4002.32
431.10	3934.44
431.28	4088.92
431.47	4224.67
431.66	4400.21
431.85	4107.64
432.03	4418.93
432.22	4301.90
432.41	4187.22
432.60	4540.64
432.79	4360.42
432.97	4339.35
433.16	4348.72
433.35	4290.20
433.54	4444.68
433.72	4301.90
433.91	4341.69
434.10	4496.17
434.28	4458.72
434.47	4554.68
434.66	4358.08
434.85	4582.77
435.03	4601.49
435.22	4505.53
435.41	4828.53
435.59	4741.93
435.78	4638.94
435.97	4819.16
436.16	4849.59
436.34	4716.18
436.53	4746.61
436.72	4833.21
436.90	4936.19
437.09	4751.29
437.28	4664.69
437.46	4863.63
437.65	4887.04
437.84	4765.33
438.02	4608.51
438.21	4812.14
438.40	4910.44
438.58	4875.34
438.77	4912.78
438.96	5163.22
439.14	5151.52
439.33	5083.64
439.52	5114.07
439.70	5172.58
439.89	5181.95
440.08	5266.21
440.26	5357.49
440.45	5334.08
440.63	5327.06
440.82	5490.90
441.01	5565.79
441.19	5565.79
441.38	5504.94
441.57	5675.80
441.75	5734.31
441.94	5729.63
442.12	5837.30
442.31	5891.13
442.50	5844.32
442.68	5678.14
442.87	5813.89
443.05	5781.12
443.24	5940.28
443.43	5996.45
443.61	6022.20
443.80	6073.69
443.98	5713.25
444.17	5694.52
444.35	5849.00
444.54	5961.34
444.73	6012.84
444.91	5916.87
445.10	5874.74
445.28	5837.30
445.47	5956.66
445.65	5870.06
445.84	5959.00
446.02	6120.50
446.21	5928.58
446.39	5935.60
446.58	6080.71
446.77	5996.45
446.95	6061.99
447.14	6045.60
447.32	6080.71
447.51	6033.90
447.69	6090.07
447.88	6363.92
448.06	6387.32
448.25	6195.40
448.43	6211.78
448.62	6090.07
448.80	5951.98
448.99	6108.80
449.17	6422.43
449.36	6197.74
449.54	6396.68
449.73	6469.24
449.91	6520.73
450.10	6513.71
450.28	6640.10
450.46	6614.35
450.65	6647.12
450.83	6672.87
451.02	6642.44
451.20	6532.44
451.39	6836.70
451.57	6913.94
451.76	6675.21
451.94	6710.32
452.13	6698.61
452.31	6588.61
452.49	6722.02
452.68	6609.67
452.86	6731.38
453.05	6707.98
453.23	6609.67
453.42	6670.53
453.60	6813.30
453.78	6731.38
453.97	6848.41
454.15	6855.43
454.34	6890.54
454.52	6768.83
454.70	6820.32
454.89	6913.94
455.07	6869.47
455.26	7103.53
455.44	7021.61
455.62	7059.06
455.81	7115.23
455.99	7169.06
456.17	7155.02
456.36	7208.85
456.54	7372.69
456.73	7353.96
456.91	7428.86
457.09	7396.09
457.28	7487.37
457.46	7398.43
457.64	7655.89
457.83	7475.67
458.01	7435.88
458.19	7588.02
458.38	7489.71
458.56	7545.89
458.74	7449.93
458.93	7719.09
459.11	7513.12
459.29	7588.02
459.48	7564.61
459.66	7566.95
459.84	7761.22
460.03	7911.01
460.21	7812.71
460.39	7953.14
460.57	7815.05
460.76	7943.78
460.94	7887.61
461.12	8028.04
461.31	8002.29
461.49	7999.95
461.67	7866.54
461.85	8269.11
462.04	8133.36
462.22	8772.33
462.40	8229.32
462.59	8032.72
462.77	8334.65
462.95	8175.49
463.13	8212.94
463.32	8318.26
463.50	8327.63
463.68	8545.30
463.86	8374.44
464.05	8348.69
464.23	8318.26
464.41	8468.06
464.59	8334.65
464.78	8395.50
464.96	8514.87
465.14	8449.33
465.32	8456.36
465.50	8751.26
465.69	8582.74
465.87	8564.02
466.05	8353.37
466.23	8636.58
466.41	8585.08
466.60	8681.05
466.78	8390.82
466.96	8688.07
467.14	8505.51
467.32	8545.30
467.51	8596.79
467.69	8360.39
467.87	8643.60
468.05	8858.93
468.23	8812.12
468.41	8727.86
468.60	8695.09
468.78	9102.34
468.96	8877.65
469.14	8931.48
469.32	9085.96
469.50	8732.54
469.69	9088.30
469.87	9165.54
470.05	9151.49
470.23	9238.09
470.41	9062.55
470.59	9076.60
470.77	9095.32
470.95	9214.69
471.14	9294.27
471.32	9135.11
471.50	9509.60
471.68	9540.02
471.86	9565.77
472.04	9654.71
472.22	9650.03
472.40	9493.21
472.58	9582.15
472.77	9764.72
472.95	9713.22
473.13	10083.03
473.31	9776.42
473.49	9846.63
473.67	9916.85
473.85	10171.97
474.03	10118.14
474.21	10204.74
474.39	10228.14
474.57	10090.05
474.75	10380.28
474.93	10434.11
475.12	10265.59
475.30	10562.84
475.48	10368.57
475.66	10340.49
475.84	10354.53
476.02	10642.42
476.20	10721.99
476.38	10794.55
476.56	11014.56
476.74	11080.10
476.92	11019.24
477.10	11103.50
477.28	11166.70
477.46	11328.19
477.64	11403.09
477.82	11449.90
478.00	11761.19
478.18	11386.71
478.36	11705.02
478.54	11779.92
478.72	11852.47
478.90	12105.25
479.08	12182.49
479.26	12407.18
479.44	12273.77
479.62	12379.09
479.80	12524.21
479.98	12526.55
480.16	12407.18
480.34	12650.60
480.52	12849.54
480.70	12657.62
480.88	12606.13
481.06	12828.48
481.24	12788.69
481.41	13233.39
481.59	13355.10
481.77	13385.52
481.95	13659.37
482.13	13549.36
482.31	13525.96
482.49	13942.57
482.67	13802.14
482.85	13757.67
483.03	13909.80
483.21	14286.63
483.39	14338.12
483.57	14242.16
483.74	14457.49
483.92	14745.38
484.10	14553.45
484.28	14684.52
484.46	15260.29
484.64	15171.35
484.82	14895.17
485.00	15051.99
485.18	15531.80
485.35	15325.83
485.53	15335.19
485.71	15129.22
485.89	15529.45
486.07	15641.80
486.25	15695.63
486.43	15910.96
486.61	16105.23
486.78	16350.98
486.96	16243.32
487.14	16491.41
487.32	16861.22
487.50	16842.50
487.68	17069.53
487.85	17275.49
488.03	17263.79
488.21	17851.27
488.39	17191.23
488.57	17680.41
488.75	17884.03
488.92	18022.12
489.10	18270.22
489.28	17951.91
489.46	18604.92
489.64	18349.80
489.81	18817.91
489.99	19035.58
490.17	18778.12
490.35	19147.92
490.53	19136.22
490.70	19129.20
490.88	19171.33
491.06	19571.56
491.24	19367.93
491.41	19513.05
491.59	19503.68
491.77	19814.98
491.95	19960.09
492.13	20098.18
492.30	20208.19
492.48	20226.91
492.66	20133.29
492.84	20577.99
493.01	20835.45
493.19	20720.76
493.37	20961.84
493.54	21160.78
493.72	21174.83
493.90	21209.93
494.08	21394.84
494.25	21715.49
494.43	21809.11
494.61	21851.24
494.79	21902.73
494.96	22024.44
495.14	21722.51
495.32	22506.59
495.49	22384.88
495.67	22696.17
495.85	22527.66
496.02	22679.79
496.20	22885.76
496.38	23044.91
496.55	22789.80
496.73	23477.91
496.91	23307.05
497.09	23468.55
497.26	23475.57
497.44	23321.10
497.62	23548.13
497.79	23880.49
497.97	23742.39
498.14	23955.38
498.32	24245.61
498.50	24261.99
498.67	24208.16
498.85	24105.18
499.03	24662.22
499.20	24608.39
499.38	24643.50
499.56	24718.40
499.73	25083.52
499.91	25046.07
500.08	24809.68
500.26	24823.72
500.44	25057.78
500.61	25137.35
500.79	25228.63
500.97	25376.09
501.14	25579.71
501.32	25762.28
501.49	25680.36
501.67	25724.83
501.84	25703.76
502.02	25898.03
502.20	25893.35
502.37	26574.44
502.55	26169.53
502.72	26157.83
502.90	26630.62
503.07	26314.64
503.25	26298.26
503.43	26335.71
503.60	27063.61
503.78	26934.88
503.95	26574.44
504.13	27218.09
504.30	27007.44
504.48	26806.16
504.65	27325.75
504.83	27421.72
505.01	27218.09
505.18	27466.19
505.36	27557.47
505.53	28037.28
505.71	27859.40
505.88	27803.22
506.06	27833.65
506.23	27882.80
506.41	27700.24
506.58	28287.71
506.76	28290.06
506.93	28231.54
507.11	28453.89
507.28	28266.65
507.46	28299.42
507.63	28470.28
507.81	28711.35
507.98	28606.03
508.16	28601.35
508.33	28875.19
508.50	29242.65
508.68	29053.07
508.85	29195.84
509.03	29509.47
509.20	29387.77
509.38	29345.64
509.55	29504.79
509.73	29357.34
509.90	29404.15
510.08	29467.34
510.25	30096.95
510.42	29902.68
510.60	30029.07
510.77	30370.79
510.95	30279.51
511.12	30164.82
511.30	30352.07
511.47	30831.88
511.64	30747.62
511.82	30572.08
511.99	30581.44
512.17	30944.22
512.34	30672.72
512.51	31033.16
512.69	31395.95
512.86	30827.20
513.04	31442.76
513.21	31105.72
513.38	31054.23
513.56	31108.06
513.73	31468.50
513.90	31084.65
514.08	30883.37
514.25	31690.85
514.43	31470.84
514.60	31309.35
514.77	31885.12
514.95	31779.79
515.12	31990.44
515.29	31913.20
515.47	32458.55
515.64	32456.21
515.81	32390.67
515.99	32187.05
516.16	32137.90
516.33	32002.14
516.51	32084.06
516.68	32418.76
516.85	32039.59
517.03	32540.47
517.20	32425.78
517.37	32470.25
517.54	32788.56
517.72	32739.41
517.89	32128.53
518.06	32774.52
518.24	32783.88
518.41	32659.84
518.58	33057.73
518.75	32797.93
518.93	33319.87
519.10	32950.06
519.27	33521.15
519.45	33532.86
519.62	33579.67
519.79	33722.44
519.96	33933.09
520.14	33975.22
520.31	33509.45
520.48	33926.07
520.65	34082.88
520.83	34302.89
521.00	34005.64
521.17	34139.05
521.34	34672.70
521.52	34539.29
521.69	34532.26
521.86	34813.13
522.03	34707.80
522.20	35068.25
522.38	34740.57
522.55	34775.68
522.72	34464.39
522.89	34686.74
523.07	34756.96
523.24	34672.70
523.41	35089.31
523.58	35138.46
523.75	35295.28
523.92	35585.50
524.10	35882.75
524.27	35608.91
524.44	35480.18
524.61	35510.61
524.78	35304.64
524.96	35941.27
525.13	35868.71
525.30	35768.07
525.47	36051.27
525.64	35819.56
525.81	35924.88
525.98	35999.78
526.16	35857.01
526.33	35873.39
526.50	36060.63
526.67	35852.33
526.84	36128.51
527.01	35833.60
527.18	36081.70
527.36	36311.07
527.53	36807.26
527.70	36655.13
527.87	36381.29
528.04	36727.69
528.21	36603.64
528.38	36809.61
528.55	37174.73
528.72	36830.67
528.89	37574.96
529.07	37280.05
529.24	36687.90
529.41	36933.65
529.58	37184.09
529.75	36921.95
529.92	38003.28
530.09	37214.52
530.26	37549.21
530.43	37436.87
530.60	37298.78
530.77	37156.00
530.94	37357.29
531.11	37951.79
531.28	37549.21
531.46	37486.02
531.63	37944.76
531.80	37809.01
531.97	37301.12
532.14	37944.76
532.31	37624.11
532.48	38148.39
532.65	38443.30
532.82	37846.46
532.99	37792.63
533.16	37675.60
533.33	37745.82
533.50	38260.74
533.67	38068.81
533.84	38036.05
534.01	38143.71
534.18	38562.67
534.35	39012.05
534.52	38499.47
534.69	38698.42
534.86	38838.85
535.03	38199.88
535.20	38747.57
535.37	39349.09
535.54	39370.15
535.71	39150.14
535.88	39091.63
536.05	39119.71
536.22	39100.99
536.38	38909.07
536.55	39309.30
536.72	38939.49
536.89	38930.13
537.06	38969.92
537.23	39365.47
537.40	39122.05
537.57	39489.52
537.74	39721.23
537.91	40175.30
538.08	39367.81
538.25	39353.77
538.42	39594.84
538.59	39943.58
538.75	39496.54
538.92	39775.06
539.09	39674.42
539.26	39908.47
539.43	39859.32
539.60	39655.70
539.77	39772.72
539.94	39845.28
540.11	40020.82
540.28	39819.53
540.44	40404.67
540.61	40076.99
540.78	39718.89
540.95	40147.21
541.12	40037.20
541.29	39976.35
541.46	39852.30
541.62	40446.80
541.79	40477.22
541.96	39985.71
542.13	40512.33
542.30	40498.29
542.47	40847.03
542.63	40488.93
542.80	40769.79
542.97	40713.62
543.14	41270.67
543.31	40903.20
543.48	40931.29
543.64	41317.48
543.81	41619.41
543.98	41380.67
544.15	41251.94
544.32	41432.16
544.48	41846.44
544.65	41593.66
544.82	41483.66
544.99	40889.16
545.16	41387.69
545.32	41275.35
545.49	41930.70
545.66	41844.10
545.83	41790.27
546.00	41640.47
546.16	41598.34
546.33	41808.99
546.50	41385.35
546.67	41542.17
546.83	41027.25
547.00	41579.62
547.17	41553.87
547.34	41680.26
547.50	42007.94
547.67	41792.61
547.84	41804.31
548.00	42141.35
548.17	42174.11
548.34	42036.02
548.51	42281.78
548.67	42513.49
548.84	42274.76
549.01	42249.01
549.18	42529.87
549.34	42024.32
549.51	42646.90
549.68	42576.69
549.84	42462.00
550.01	42330.93
550.18	42447.96
550.34	42298.16
550.51	42494.77
550.68	42480.72
550.84	42316.89
551.01	42490.09
551.18	42897.34
551.34	42712.44
551.51	42513.49
551.68	42593.07
551.84	43009.68
552.01	42937.13
552.18	42976.92
552.34	42515.83
552.51	42887.98
552.68	42672.65
552.84	43124.37
553.01	43225.01
553.18	42995.64
553.34	43072.88
553.51	42927.77
553.67	42976.92
553.84	43428.64
554.01	43201.61
554.17	43124.37
554.34	43276.51
554.51	43501.20
554.67	43571.41
554.84	43590.14
555.00	42953.51
555.17	43096.28
555.33	43690.78
555.50	43550.35
555.67	43515.24
555.83	43402.89
556.00	43250.76
556.16	43849.94
556.33	43601.84
556.50	44004.41
556.66	43625.25
556.83	43473.11
556.99	43845.26
557.16	43611.20
557.32	43540.99
557.49	43770.36
557.65	43442.68
557.82	43814.83
557.98	43606.52
558.15	44313.36
558.32	43725.89
558.48	43590.14
558.65	44053.56
558.81	44002.07
558.98	43672.06
559.14	43866.32
559.31	43800.79
559.47	43838.23
559.64	43847.60
559.80	44287.62
559.97	43955.26
560.13	43810.15
560.30	43585.46
560.46	44060.58
560.63	43927.17
560.79	44137.82
560.96	44025.48
561.12	44465.50
561.29	44163.57
561.45	44233.78
561.61	44257.19
561.78	43828.87
561.94	43997.39
562.11	44208.04
562.27	43716.53
562.44	44088.67
562.60	44575.50
562.77	44615.29
562.93	44133.14
563.10	44002.07
563.26	43817.17
563.42	44294.64
563.59	44631.68
563.75	44285.28
563.92	44491.24
564.08	44669.12
564.24	44451.45
564.41	44336.77
564.57	44622.31
564.74	44453.79
564.90	44451.45
565.07	44416.35
565.23	44519.33
565.39	44053.56
565.56	44610.61
565.72	44458.48
565.88	44582.52
566.05	44294.64
566.21	44842.32
566.38	44346.13
566.54	44481.88
566.70	44835.30
566.87	45195.74
567.03	44371.88
567.19	45034.25
567.36	45226.17
567.52	44737.00
567.68	44512.31
567.85	44626.99
568.01	44615.29
568.17	44921.90
568.34	45361.92
568.50	44264.21
568.66	44694.87
568.83	45067.02
568.99	44184.63
569.15	44666.78
569.32	44587.21
569.48	44046.54
569.64	45055.31
569.81	44942.97
569.97	44910.20
570.13	44891.48
570.30	44811.90
570.46	44502.95
570.62	44648.06
570.78	44587.21
570.95	44608.27
571.11	44423.37
571.27	45010.84
571.43	44783.81
571.60	44816.58
571.76	44844.66
571.92	44390.60
572.09	44605.93
572.25	44868.07
572.41	45090.42
572.57	45074.04
572.74	45251.92
572.90	44629.34
573.06	45130.21
573.22	44854.03
573.38	45216.81
573.55	44744.02
573.71	45067.02
573.87	44875.09
574.03	44783.81
574.20	45102.12
574.36	44655.08
574.52	44741.68
574.68	45177.02
574.84	45078.72
575.01	44945.31
575.17	44762.75
575.33	44739.34
575.49	45088.08
575.65	45713.00
575.82	45464.91
575.98	44903.18
576.14	45088.08
576.30	45165.32
576.46	44662.10
576.62	44971.05
576.79	44535.71
576.95	44442.09
577.11	44907.86
577.27	44830.62
577.43	45312.77
577.59	44552.10
577.75	44804.88
577.92	44472.52
578.08	44741.68
578.24	44444.43
578.40	45099.78
578.56	44790.83
578.72	44903.18
578.88	45490.65
579.04	44999.14
579.21	45048.29
579.37	44769.77
579.53	45207.45
579.69	44596.57
579.85	45057.65
580.01	44835.30
580.17	45249.58
580.33	45385.33
580.49	44971.05
580.65	44919.56
580.82	45329.16
580.98	44729.98
581.14	44996.80
581.30	44992.12
581.46	45188.72
581.62	45092.76
581.78	44921.90
581.94	45387.67
582.10	44896.16
582.26	45354.90
582.42	45205.11
582.58	45165.32
582.74	45029.57
582.90	45338.52
583.06	45212.13
583.22	45193.40
583.38	45209.79
583.54	45502.35
583.70	45584.27
583.86	45137.23
584.02	45043.61
584.18	45188.72
584.34	45584.27
584.50	45359.58
584.66	45261.28
584.82	44540.39
584.98	45713.00
585.14	45188.72
585.30	44912.54
585.46	45392.35
585.62	45116.17
585.78	45357.24
585.94	44636.36
586.10	45130.21
586.26	45174.68
586.42	45282.34
586.58	45382.99
586.74	45525.76
586.90	45106.80
587.06	44999.14
587.22	45333.84
587.38	45160.64
587.54	45219.15
587.70	45567.89
587.86	45340.86
588.02	45354.90
588.18	45478.95
588.34	45167.66
588.49	45092.76
588.65	44945.31
588.81	44727.64
588.97	45134.89
589.13	45015.52
589.29	45123.19
589.45	45427.46
589.61	45511.72
589.77	45408.73
589.93	45467.25
590.08	45741.09
590.24	45336.18
