SpectraSuite Data File
++++++++++++++++++++++++++++++++++++
Date: Fri Oct 25 10:44:14 EDT 2013
User: price-jones
Dark Spectrum Present: No
Reference Spectrum Present: No
Number of Sampled Component Spectra: 1
Spectrometers: USB2+H05261
Integration Time (usec): 100000 (USB2+H05261)
Spectra Averaged: 1 (USB2+H05261)
Boxcar Smoothing: 0 (USB2+H05261)
Correct for Electrical Dark: No (USB2+H05261)
Strobe/Lamp Enabled: No (USB2+H05261)
Correct for Detector Non-linearity: No (USB2+H05261)
Correct for Stray Light: No (USB2+H05261)
Number of Pixels in Processed Spectrum: 2048
>>>>>Begin Processed Spectral Data<<<<<
365.73	198.95
365.92	198.95
366.12	198.95
366.32	51.49
366.52	0.00
366.72	63.19
366.91	18.72
367.11	0.00
367.31	0.00
367.51	0.00
367.70	65.54
367.90	60.85
368.10	0.00
368.30	0.00
368.49	81.92
368.69	25.75
368.89	4.68
369.09	86.60
369.28	9.36
369.48	51.49
369.68	46.81
369.87	56.17
370.07	46.81
370.27	84.26
370.47	154.48
370.66	407.25
370.86	486.83
371.06	479.81
371.25	512.58
371.45	428.32
371.65	435.34
371.84	437.68
372.04	444.70
372.24	552.37
372.44	435.34
372.63	561.73
372.83	477.47
373.03	468.11
373.22	496.19
373.42	454.06
373.62	538.32
373.81	486.83
374.01	561.73
374.21	575.77
374.40	538.32
374.60	538.32
374.79	575.77
374.99	554.71
375.19	575.77
375.38	484.49
375.58	547.69
375.78	571.09
375.97	575.77
376.17	636.63
376.37	585.13
376.56	545.34
376.76	594.50
376.95	627.26
377.15	709.18
377.35	638.97
377.54	674.07
377.74	638.97
377.93	657.69
378.13	763.01
378.33	657.69
378.52	685.78
378.72	594.50
378.91	674.07
379.11	648.33
379.31	566.41
379.50	561.73
379.70	655.35
379.89	683.44
380.09	629.60
380.28	624.92
380.48	674.07
380.68	655.35
380.87	641.31
381.07	770.04
381.26	697.48
381.46	746.63
381.65	727.91
381.85	760.67
382.04	746.63
382.24	667.05
382.43	634.29
382.63	634.29
382.83	699.82
383.02	746.63
383.22	777.06
383.41	723.23
383.61	702.16
383.80	791.10
384.00	709.18
384.19	765.36
384.39	802.80
384.58	770.04
384.78	816.85
384.97	821.53
385.17	863.66
385.36	819.19
385.56	805.14
385.75	814.51
385.95	856.64
386.14	798.12
386.34	880.04
386.53	830.89
386.72	938.55
386.92	903.45
387.11	877.70
387.31	875.36
387.50	823.87
387.70	877.70
387.89	861.32
388.09	842.59
388.28	933.87
388.48	858.98
388.67	882.38
388.86	854.30
389.06	950.26
389.25	980.68
389.45	915.15
389.64	894.08
389.84	1071.97
390.03	992.39
390.22	973.66
390.42	985.37
390.61	980.68
390.81	1004.09
391.00	1071.97
391.19	952.60
391.39	1039.20
391.58	1095.37
391.78	1083.67
391.97	1081.33
392.16	1034.52
392.36	1022.81
392.55	976.00
392.75	992.39
392.94	940.90
393.13	1027.50
393.33	910.47
393.52	1088.35
393.71	1137.50
393.91	1083.67
394.10	1090.69
394.29	1125.80
394.49	1200.69
394.68	1252.19
394.88	1277.93
395.07	1254.53
395.26	1252.19
395.46	1294.32
395.65	1259.21
395.84	1238.14
396.04	1212.40
396.23	1214.74
396.42	1090.69
396.62	1263.89
396.81	1254.53
397.00	1238.14
397.19	1151.54
397.39	1334.11
397.58	1383.26
397.77	1399.64
397.97	1357.51
398.16	1509.65
398.35	1500.28
398.55	1378.58
398.74	1446.45
398.93	1582.20
399.12	1533.05
399.32	1533.05
399.51	1514.33
399.70	1523.69
399.90	1462.83
400.09	1629.01
400.28	1577.52
400.47	1568.16
400.67	1636.03
400.86	1666.46
401.05	1668.80
401.24	1682.85
401.44	1722.63
401.63	1706.25
401.82	1617.31
402.01	1678.16
402.21	1825.62
402.40	1732.00
402.59	1633.69
402.78	1785.83
402.97	1631.35
403.17	1760.08
403.36	1767.10
403.55	1937.96
403.74	1937.96
403.93	1858.39
404.13	1837.32
404.32	1823.28
404.51	1858.39
404.70	1874.77
404.89	1806.89
405.09	1975.41
405.28	1802.21
405.47	1919.24
405.66	1846.68
405.85	1984.77
406.05	1909.88
406.24	2106.48
406.43	1937.96
406.62	2043.29
406.81	2087.76
407.00	2162.66
407.20	1952.01
407.39	2076.06
407.58	2122.87
407.77	2169.68
407.96	2087.76
408.15	2321.81
408.34	2289.04
408.54	2232.87
408.73	2265.64
408.92	2279.68
409.11	2338.20
409.30	2291.38
409.49	2239.89
409.68	2352.24
409.87	2410.75
410.07	2361.60
410.26	2394.37
410.45	2307.77
410.64	2335.85
410.83	2513.74
411.02	2483.31
411.21	2438.84
411.40	2628.42
411.59	2546.50
411.78	2623.74
411.98	2640.12
412.17	2586.29
412.36	2708.00
412.55	2789.92
412.74	2848.43
412.93	2881.20
413.12	2586.29
413.31	2967.80
413.50	2815.66
413.69	2906.95
413.88	2885.88
414.07	2920.99
414.26	2932.69
414.45	2930.35
414.64	2984.18
414.83	3047.38
415.02	2899.92
415.22	3030.99
415.41	3108.23
415.60	3082.49
415.79	3206.53
415.98	3337.60
416.17	3258.03
416.36	3124.62
416.55	3241.64
416.74	3293.13
416.93	3155.04
417.12	3351.65
417.31	3201.85
417.50	3288.45
417.69	3489.74
417.88	3414.84
418.07	3435.91
418.26	3379.73
418.45	3471.01
418.64	3559.95
418.83	3634.85
419.02	3611.45
419.21	3714.43
419.39	3637.19
419.58	3627.83
419.77	3510.80
419.96	3672.30
420.15	3695.71
420.34	3583.36
420.53	3679.32
420.72	3779.97
420.91	3801.03
421.10	3798.69
421.29	3686.34
421.48	3812.73
421.67	3817.41
421.86	3740.18
422.05	3833.80
422.24	3705.07
422.43	3847.84
422.61	3922.74
422.80	3801.03
422.99	3803.37
423.18	3882.95
423.37	4037.42
423.56	3908.69
423.75	3826.78
423.94	3831.46
424.13	3742.52
424.32	3712.09
424.50	3859.54
424.69	3981.25
424.88	3950.82
425.07	3782.31
425.26	3833.80
425.45	3936.78
425.64	3854.86
425.83	3913.38
426.01	3904.01
426.20	4070.19
426.39	4086.58
426.58	3988.27
426.77	4084.23
426.96	4046.79
427.15	3932.10
427.33	4081.89
427.52	4035.08
427.71	4035.08
427.90	4135.73
428.09	4168.49
428.28	4126.36
428.46	4163.81
428.65	4135.73
428.84	4121.68
429.03	4187.22
429.22	4112.32
429.40	4142.75
429.59	4109.98
429.78	3981.25
429.97	3990.61
430.16	4100.62
430.34	4266.80
430.53	4119.34
430.72	4098.28
430.91	4135.73
431.10	4339.35
431.28	4381.48
431.47	4589.79
431.66	4545.32
431.85	4561.70
432.03	4550.00
432.22	4791.08
432.41	4627.24
432.60	4610.86
432.79	4617.88
432.97	4805.12
433.16	4667.03
433.35	4636.60
433.54	4751.29
433.72	4765.33
433.91	4685.75
434.10	4847.25
434.28	4772.35
434.47	4826.18
434.66	4957.25
434.85	4812.14
435.03	5139.82
435.22	4985.34
435.41	5057.90
435.59	5139.82
435.78	4926.83
435.97	5261.52
436.16	5210.03
436.34	5128.11
436.53	5034.49
436.72	5165.56
436.90	4990.02
437.09	5013.43
437.28	5137.48
437.46	5188.97
437.65	5156.20
437.84	5149.18
438.02	5170.24
438.21	5263.86
438.40	5114.07
438.58	5263.86
438.77	5563.45
438.96	5549.41
439.14	5746.02
439.33	5661.76
439.52	5643.03
439.70	5675.80
439.89	5731.97
440.08	5633.67
440.26	5703.89
440.45	5547.07
440.63	5841.98
440.82	6022.20
441.01	5596.22
441.19	6026.88
441.38	6153.27
441.57	5942.62
441.75	6052.63
441.94	6176.67
442.12	6300.72
442.31	6265.61
442.50	6359.24
442.68	6204.76
442.87	6045.60
443.05	6321.79
443.24	6408.39
443.43	6434.13
443.61	6450.52
443.80	6452.86
443.98	6363.92
444.17	6282.00
444.35	6394.34
444.54	6651.80
444.73	6553.50
444.91	6478.60
445.10	6368.60
445.28	6466.90
445.47	6354.55
445.65	6237.53
445.84	6497.33
446.02	6551.16
446.21	6361.58
446.39	6483.28
446.58	6663.51
446.77	6597.97
446.95	6478.60
447.14	6574.56
447.32	6686.91
447.51	6609.67
447.69	6754.79
447.88	6719.68
448.06	6710.32
448.25	6745.42
448.43	6899.90
448.62	6766.49
448.80	6771.17
448.99	6693.93
449.17	6785.21
449.36	6991.18
449.54	6794.58
449.73	7040.33
449.91	7260.34
450.10	7108.21
450.28	7155.02
450.46	7272.04
450.65	7255.66
450.83	7349.28
451.02	7173.74
451.20	7281.41
451.39	7150.34
451.57	7133.95
451.76	7059.06
451.94	7236.94
452.13	7255.66
452.31	7290.77
452.49	7087.14
452.68	7080.12
452.86	7227.57
453.05	7199.49
453.23	7419.50
453.42	7227.57
453.60	7325.88
453.78	7400.77
453.97	7428.86
454.15	7426.52
454.34	7250.98
454.52	7602.06
454.70	7562.27
454.89	7531.84
455.07	7585.68
455.26	7674.62
455.44	7754.19
455.62	7639.51
455.81	7861.86
455.99	7838.45
456.17	7639.51
456.36	7964.84
456.54	8023.36
456.73	8063.15
456.91	8112.30
457.09	8002.29
457.28	8292.52
457.46	7929.74
457.64	8145.06
457.83	8287.84
458.01	8093.57
458.19	8135.70
458.38	8037.40
458.56	8318.26
458.74	8266.77
458.93	8114.64
459.11	8224.64
459.29	8339.33
459.48	8327.63
459.66	8161.45
459.84	8442.31
460.03	8528.91
460.21	8638.92
460.39	8442.31
460.57	8624.87
460.76	8383.80
460.94	8781.69
461.12	8697.43
461.31	8706.79
461.49	8498.49
461.67	8631.90
461.85	8800.41
462.04	8718.50
462.22	8987.66
462.40	9076.60
462.59	8943.19
462.77	8809.78
462.95	8837.86
463.13	8835.52
463.32	9053.19
463.50	8929.14
463.68	8889.35
463.86	8954.89
464.05	9121.07
464.23	8872.97
464.41	9160.86
464.59	8823.82
464.78	9191.28
464.96	9085.96
465.14	9207.67
465.32	9104.68
465.50	9224.05
465.69	9118.73
465.87	9263.84
466.05	9156.18
466.23	9174.90
466.41	9249.80
466.60	9448.74
466.78	9231.07
466.96	9186.60
467.14	9401.93
467.32	9479.17
467.51	9624.28
467.69	9160.86
467.87	9540.02
468.05	9589.17
468.23	9493.21
468.41	9362.14
468.60	9191.28
468.78	9458.10
468.96	9441.72
469.14	9745.99
469.32	9804.50
469.50	9605.56
469.69	9804.50
469.87	9659.39
470.05	9781.10
470.23	9851.31
470.41	9760.03
470.59	10111.11
470.77	9774.08
470.95	9888.76
471.14	9912.17
471.32	10003.45
471.50	10157.92
471.68	10038.56
471.86	10298.36
472.04	10555.82
472.22	10684.55
472.40	10391.98
472.58	10438.79
472.77	10328.78
472.95	10431.77
473.13	10733.70
473.31	10541.77
473.49	10579.22
473.67	10501.98
473.85	10621.35
474.03	10981.79
474.21	10979.45
474.39	11138.61
474.57	11126.91
474.75	11117.54
474.93	11047.33
475.12	11124.57
475.30	11286.06
475.48	11227.55
475.66	11171.38
475.84	11407.77
476.02	11274.36
476.20	11466.28
476.38	11332.87
476.56	11885.24
476.74	11754.17
476.92	11700.34
477.10	11714.38
477.28	12112.27
477.46	12025.67
477.64	12154.40
477.82	12313.56
478.00	12533.57
478.18	12585.06
478.36	12690.38
478.54	12688.04
478.72	12610.81
478.90	12889.33
479.08	13067.21
479.26	13198.28
479.44	13078.91
479.62	13406.59
479.80	13207.64
479.98	13317.65
480.16	13706.18
480.34	13694.47
480.52	13865.33
480.70	13715.54
480.88	13542.34
481.06	13991.72
481.24	13844.27
481.41	13825.54
481.59	14441.11
481.77	14157.90
481.95	14270.25
482.13	14780.48
482.31	14413.02
482.49	14846.02
482.67	15131.56
482.85	15169.01
483.03	15262.63
483.21	15218.16
483.39	15367.96
483.57	15349.23
483.74	15506.05
483.92	15536.48
484.10	15494.35
484.28	15784.57
484.46	15946.07
484.64	16404.81
484.82	15824.36
485.00	16219.91
485.18	16343.96
485.35	16418.86
485.53	15861.81
485.71	16116.93
485.89	16325.24
486.07	16060.76
486.25	16496.10
486.43	16730.15
486.61	17062.51
486.78	17303.58
486.96	17142.08
487.14	17757.64
487.32	17790.41
487.50	18111.07
487.68	18274.90
487.85	18679.82
488.03	18403.63
488.21	18625.98
488.39	18368.52
488.57	18347.46
488.75	18724.29
488.92	18813.23
489.10	19342.19
489.28	19096.43
489.46	19819.66
489.64	19953.07
489.81	20142.65
489.99	20332.23
490.17	19894.55
490.35	20533.52
490.53	20299.47
490.70	20472.67
490.88	20552.24
491.06	20690.34
491.24	20793.32
491.41	20570.97
491.59	20863.54
491.77	20697.36
491.95	21013.33
492.13	21483.78
492.30	21729.53
492.48	21266.11
492.66	22029.12
492.84	21720.17
493.01	22139.13
493.19	22143.81
493.37	22284.24
493.54	22106.36
493.72	22534.68
493.90	22581.49
494.08	22773.41
494.25	23227.48
494.43	23082.36
494.61	23775.16
494.79	23332.80
494.96	23552.81
495.14	23321.10
495.32	23564.51
495.49	23527.06
495.67	23726.01
495.85	24025.60
496.02	24140.29
496.20	24156.67
496.38	24254.97
496.55	24514.77
496.73	25095.22
496.91	24687.97
497.09	24966.49
497.26	25266.08
497.44	24795.64
497.62	25329.28
497.79	25509.50
497.97	24926.71
498.14	25188.85
498.32	25532.90
498.50	25827.81
498.67	26263.15
498.85	25844.20
499.03	26017.40
499.20	25937.82
499.38	25895.69
499.56	26237.41
499.73	26614.23
499.91	26206.98
500.08	26223.36
500.26	26331.03
500.44	26508.91
500.61	26609.55
500.79	26780.41
500.97	26848.29
501.14	27243.84
501.32	26916.16
501.49	27042.55
501.67	27285.97
501.84	27391.29
502.02	27578.53
502.20	27793.86
502.37	28123.88
502.55	27751.73
502.72	27831.31
502.90	28210.48
503.07	27756.41
503.25	28137.92
503.43	28002.17
503.60	28151.96
503.78	28060.68
503.95	28327.50
504.13	28503.04
504.30	28816.68
504.48	28416.44
504.65	28882.21
504.83	28641.14
505.01	29537.56
505.18	28767.52
505.36	29530.54
505.53	29280.10
505.71	29729.48
505.88	29584.37
506.06	29013.28
506.23	29708.42
506.41	29621.82
506.58	29818.42
506.76	29731.83
506.93	29902.68
507.11	29926.09
507.28	30122.69
507.46	29968.22
507.63	30157.80
507.81	30401.22
507.98	29982.26
508.16	30118.01
508.33	30368.45
508.50	30878.69
508.68	30581.44
508.85	31211.04
509.03	30986.35
509.20	31201.68
509.38	31124.44
509.55	31384.24
509.73	31292.96
509.90	31648.72
510.08	31407.65
510.25	31122.10
510.42	31564.46
510.60	31796.18
510.77	31812.56
510.95	31889.80
511.12	32189.39
511.30	32292.37
511.47	32273.65
511.64	32224.50
511.82	32732.39
511.99	31852.35
512.17	32109.81
512.34	32112.15
512.51	32421.10
512.69	32926.66
512.86	32332.16
513.04	32818.99
513.21	32587.28
513.38	32921.98
513.56	32828.35
513.73	32921.98
513.90	33106.88
514.08	33029.64
514.25	33034.32
514.43	32985.17
514.60	33254.33
514.77	33621.80
514.95	33420.51
515.12	33404.13
515.29	33312.84
515.47	34066.50
515.64	34223.31
515.81	33565.62
515.99	33570.30
516.16	33692.01
516.33	33277.74
516.51	33535.20
516.68	33418.17
516.85	33530.51
517.03	33244.97
517.20	34031.39
517.37	34003.30
517.54	34277.15
517.72	34462.05
517.89	33813.72
518.06	34050.11
518.24	33975.22
518.41	34183.52
518.58	34389.49
518.75	34742.91
518.93	34916.11
519.10	34330.98
519.27	35068.25
519.45	35154.85
519.62	34962.92
519.79	35484.86
519.96	35110.38
520.14	35381.88
520.31	35061.22
520.48	35505.93
520.65	35578.48
520.83	36105.10
521.00	36329.80
521.17	35723.60
521.34	36067.66
521.52	35892.12
521.69	36212.77
521.86	36126.17
522.03	36364.90
522.20	36318.09
522.38	36336.82
522.55	36556.83
522.72	36238.51
522.89	36477.25
523.07	37036.64
523.24	36718.32
523.41	36825.99
523.58	36926.63
523.75	37542.19
523.92	37118.56
524.10	37226.22
524.27	37212.18
524.44	37521.13
524.61	37160.69
524.78	37390.06
524.96	37219.20
525.13	37773.91
525.30	37394.74
525.47	38059.45
525.64	37240.26
525.81	37614.75
525.98	37289.42
526.16	37361.97
526.33	37603.05
526.50	37699.01
526.67	37172.39
526.84	37460.27
527.01	37345.59
527.18	37397.08
527.36	38099.24
527.53	38204.56
527.70	38513.52
527.87	38288.82
528.04	38387.13
528.21	38417.55
528.38	38614.16
528.55	38532.24
528.72	38752.25
528.89	38895.02
529.07	38628.20
529.24	38707.78
529.41	38623.52
529.58	38614.16
529.75	38611.82
529.92	39337.38
530.09	38937.15
530.26	39636.97
530.43	39077.58
530.60	39110.35
530.77	39337.38
530.94	39585.48
531.11	39648.68
531.28	39297.59
531.46	39381.85
531.63	39536.33
531.80	39335.04
531.97	39323.34
532.14	39409.94
532.31	38948.85
532.48	39445.05
532.65	39487.18
532.82	39955.29
532.99	40055.93
533.16	39421.64
533.33	39814.85
533.50	40612.98
533.67	39945.92
533.84	40165.93
534.01	40055.93
534.18	39934.22
534.35	40034.86
534.52	40320.41
534.69	40175.30
534.86	40645.74
535.03	40444.46
535.20	41027.25
535.37	40790.86
535.54	40868.09
535.71	40634.04
535.88	40432.75
536.05	40470.20
536.22	40690.21
536.38	40631.70
536.55	40708.94
536.72	41097.47
536.89	40774.47
537.06	40907.88
537.23	41244.92
537.40	41097.47
537.57	41071.72
537.74	41249.60
537.91	41205.13
538.08	41137.26
538.25	40807.24
538.42	41441.53
538.59	41413.44
538.75	41291.73
538.92	41034.27
539.09	41270.67
539.26	41773.88
539.43	41429.82
539.60	41434.50
539.77	41177.04
539.94	40917.25
540.11	41062.36
540.28	41687.28
540.44	41563.23
540.61	41617.07
540.78	41308.11
540.95	41914.31
541.12	41361.95
541.29	41251.94
541.46	41853.46
541.62	41961.12
541.79	42176.45
541.96	41413.44
542.13	41696.64
542.30	41977.51
542.47	42110.92
542.63	41984.53
542.80	42600.09
542.97	42471.36
543.14	42663.28
543.31	42822.44
543.48	42536.90
543.64	43014.37
543.81	42878.61
543.98	42831.80
544.15	43187.56
544.32	42923.08
544.48	43072.88
544.65	43131.39
544.82	42820.10
544.99	42436.25
545.16	42958.19
545.32	42902.02
545.49	43445.02
545.66	43452.05
545.83	43482.47
546.00	43318.64
546.16	43267.14
546.33	43463.75
546.50	42532.22
546.67	42831.80
546.83	43138.41
547.00	43288.21
547.17	43227.35
547.34	43278.85
547.50	43442.68
547.67	43384.17
547.84	43393.53
548.00	43889.73
548.17	43742.27
548.34	43686.10
548.51	44081.65
548.67	43969.30
548.84	43847.60
549.01	43828.87
549.18	43945.90
549.34	43461.41
549.51	44091.01
549.68	43871.00
549.84	44013.77
550.01	44308.68
550.18	43847.60
550.34	43753.97
550.51	44161.23
550.68	43957.60
550.84	43529.28
551.01	44353.15
551.18	44273.57
551.34	44222.08
551.51	44463.16
551.68	44397.62
551.84	44217.40
552.01	43878.02
552.18	43957.60
552.34	44034.84
552.51	44334.43
552.68	44308.68
552.84	44343.79
553.01	44421.03
553.18	44479.54
553.34	43997.39
553.51	43931.86
553.67	44566.14
553.84	44697.21
554.01	44404.64
554.17	44849.35
554.34	44411.67
554.51	44694.87
554.67	45226.17
554.84	45191.06
555.00	44961.69
555.17	44847.00
555.33	44538.05
555.50	44444.43
555.67	44514.65
555.83	44722.96
556.00	44725.30
556.16	45181.70
556.33	45162.98
556.50	44739.34
556.66	44458.48
556.83	44194.00
556.99	45219.15
557.16	45382.99
557.32	45492.99
557.49	45525.76
557.65	44821.26
557.82	45118.51
557.98	45305.75
558.15	45027.23
558.32	45160.64
558.48	45216.81
558.65	44999.14
558.81	44797.85
558.98	44608.27
559.14	44854.03
559.31	45120.85
559.47	45518.74
559.64	45764.49
559.80	45305.75
559.97	45303.41
560.13	44837.64
560.30	45104.46
560.46	45504.70
560.63	45640.45
560.79	45605.34
560.96	45251.92
561.12	45600.66
561.29	45048.29
561.45	45357.24
561.61	44999.14
561.78	45790.24
561.94	45198.09
562.11	45490.65
562.27	44938.29
562.44	45336.18
562.60	45123.19
562.77	45734.07
562.93	45507.04
563.10	45600.66
563.26	45240.21
563.42	45823.01
563.59	45312.77
563.75	45483.63
563.92	45769.18
564.08	45455.54
564.24	45801.94
564.41	45652.15
564.57	45373.63
564.74	45666.19
564.90	45933.01
565.07	45879.18
565.23	45687.26
565.39	45792.58
565.56	45322.13
565.72	45315.11
565.88	45722.37
566.05	45537.46
566.21	45521.08
566.38	45724.71
566.54	46031.32
566.70	46167.07
566.87	46010.25
567.03	45563.21
567.19	46349.63
567.36	45336.18
567.52	46117.92
567.68	46342.61
567.85	45727.05
568.01	45724.71
568.17	45406.39
568.34	45738.75
568.50	45773.86
568.66	46312.18
568.83	45942.38
568.99	45783.22
569.15	45844.07
569.32	46078.13
569.48	45502.35
569.64	46040.68
569.81	45579.59
569.97	46092.17
570.13	46024.29
570.30	45701.30
570.46	45567.89
570.62	45558.53
570.78	45621.72
570.95	45455.54
571.11	45642.79
571.27	45975.14
571.43	45785.56
571.60	45626.40
571.76	45991.53
571.92	46092.17
572.09	45532.78
572.25	45614.70
572.41	45610.02
572.57	46094.51
572.74	46199.83
572.90	46309.84
573.06	45998.55
573.22	46246.65
573.38	45872.16
573.55	45914.29
573.71	46525.17
573.87	46476.02
574.03	46129.62
574.20	45989.19
574.36	45652.15
574.52	46321.54
574.68	46260.69
574.84	46157.70
575.01	46284.09
575.17	45933.01
575.33	45535.12
575.49	45705.98
575.65	45865.14
575.82	46075.79
575.98	45984.51
576.14	46312.18
576.30	46143.66
576.46	46366.01
576.62	46143.66
576.79	46012.59
576.95	45825.35
577.11	46319.20
577.27	46036.00
577.43	45933.01
577.59	46075.79
577.75	45869.82
577.92	45736.41
578.08	45507.04
578.24	45958.76
578.40	45797.26
578.56	45949.40
578.72	46068.76
578.88	46431.55
579.04	46131.96
579.21	45937.69
579.37	46103.87
579.53	46476.02
579.69	45954.08
579.85	46384.74
580.01	46445.59
580.17	45942.38
580.33	46068.76
580.49	46218.56
580.65	45897.91
580.82	46031.32
580.98	46005.57
581.14	45755.13
581.30	46328.56
581.46	46529.85
581.62	46389.42
581.78	46199.83
581.94	46656.24
582.10	46150.68
582.26	45998.55
582.42	46330.90
582.58	46277.07
582.74	46146.00
582.90	46181.11
583.06	46571.98
583.22	46508.79
583.38	46155.36
583.54	46094.51
583.70	46438.57
583.86	46356.65
584.02	46120.26
584.18	46326.22
584.34	46351.97
584.50	46197.49
584.66	46307.50
584.82	46169.41
584.98	46651.56
585.14	46717.09
585.30	46384.74
585.46	46047.70
585.62	46146.00
585.78	46232.60
585.94	45984.51
586.10	46246.65
586.26	46124.94
586.42	46445.59
586.58	46263.03
586.74	46361.33
586.90	46143.66
587.06	46073.45
587.22	46576.66
587.38	45848.75
587.54	46263.03
587.70	46485.38
587.86	46284.09
588.02	46466.66
588.18	46274.73
588.34	46272.39
588.49	45895.56
588.65	45368.94
588.81	45684.92
588.97	45818.33
589.13	45815.99
589.29	45935.35
589.45	46204.52
589.61	46082.81
589.77	46216.22
589.93	46302.82
590.08	46511.13
