SpectraSuite Data File
++++++++++++++++++++++++++++++++++++
Date: Fri Oct 25 11:22:49 EDT 2013
User: price-jones
Dark Spectrum Present: No
Reference Spectrum Present: No
Number of Sampled Component Spectra: 1
Spectrometers: USB2+H05261
Integration Time (usec): 100000 (USB2+H05261)
Spectra Averaged: 1 (USB2+H05261)
Boxcar Smoothing: 0 (USB2+H05261)
Correct for Electrical Dark: No (USB2+H05261)
Strobe/Lamp Enabled: No (USB2+H05261)
Correct for Detector Non-linearity: No (USB2+H05261)
Correct for Stray Light: No (USB2+H05261)
Number of Pixels in Processed Spectrum: 2048
>>>>>Begin Processed Spectral Data<<<<<
365.73	231.71
365.92	231.71
366.12	231.71
366.32	107.66
366.52	182.56
366.72	74.90
366.91	175.54
367.11	63.19
367.31	21.06
367.51	112.35
367.70	217.67
367.90	131.07
368.10	142.77
368.30	191.92
368.49	131.07
368.69	205.97
368.89	140.43
369.09	166.18
369.28	138.09
369.48	149.79
369.68	238.73
369.87	114.69
370.07	182.56
370.27	227.03
370.47	290.23
370.66	594.50
370.86	589.82
371.06	716.20
371.25	709.18
371.45	601.52
371.65	681.10
371.84	636.63
372.04	716.20
372.24	718.54
372.44	699.82
372.63	760.67
372.83	755.99
373.03	648.33
373.22	713.86
373.42	741.95
373.62	739.61
373.81	777.06
374.01	781.74
374.21	753.65
374.40	791.10
374.60	734.93
374.79	840.25
374.99	840.25
375.19	800.46
375.38	798.12
375.58	880.04
375.78	819.19
375.97	826.21
376.17	854.30
376.37	772.38
376.56	819.19
376.76	844.93
376.95	873.02
377.15	1001.75
377.35	849.61
377.54	898.77
377.74	884.72
377.93	863.66
378.13	833.23
378.33	926.85
378.52	894.08
378.72	973.66
378.91	964.30
379.11	924.51
379.31	889.40
379.50	957.28
379.70	978.34
379.89	1025.15
380.09	924.51
380.28	976.00
380.48	1001.75
380.68	936.21
380.87	903.45
381.07	1001.75
381.26	1043.88
381.46	1095.37
381.65	936.21
381.85	985.37
382.04	1013.45
382.24	1118.78
382.43	1029.84
382.63	1043.88
382.83	1135.16
383.02	1109.41
383.22	1071.97
383.41	1111.75
383.61	1081.33
383.80	1081.33
384.00	1104.73
384.19	1046.22
384.39	1207.72
384.58	1135.16
384.78	1181.97
384.97	1149.20
385.17	1128.14
385.36	1151.54
385.56	1125.80
385.75	1198.35
385.95	1123.46
386.14	1259.21
386.34	1315.38
386.53	1207.72
386.72	1212.40
386.92	1193.67
387.11	1203.04
387.31	1200.69
387.50	1280.27
387.70	1200.69
387.89	1238.14
388.09	1282.61
388.28	1256.87
388.48	1233.46
388.67	1364.53
388.86	1329.42
389.06	1275.59
389.25	1362.19
389.45	1413.68
389.64	1235.80
389.84	1430.07
390.03	1425.39
390.22	1380.92
390.42	1369.21
390.61	1270.91
390.81	1373.89
391.00	1444.11
391.19	1444.11
391.39	1418.36
391.58	1465.18
391.78	1462.83
391.97	1483.90
392.16	1493.26
392.36	1502.62
392.55	1488.58
392.75	1486.24
392.94	1514.33
393.13	1561.14
393.33	1568.16
393.52	1472.20
393.71	1582.20
393.91	1565.82
394.10	1579.86
394.29	1586.88
394.49	1593.90
394.68	1652.42
394.88	1586.88
395.07	1619.65
395.26	1750.72
395.46	1661.78
395.65	1734.34
395.84	1743.70
396.04	1767.10
396.23	1783.49
396.42	1811.57
396.62	1788.17
396.81	1762.42
397.00	1806.89
397.19	1743.70
397.39	1762.42
397.58	1825.62
397.77	1734.34
397.97	1870.09
398.16	1914.56
398.35	1856.04
398.55	1851.36
398.74	1947.33
398.93	1973.07
399.12	1884.13
399.32	1853.70
399.51	1970.73
399.70	2031.58
399.90	2005.84
400.09	1982.43
400.28	2010.52
400.47	2132.23
400.67	1984.77
400.86	2069.03
401.05	2064.35
401.24	2181.38
401.44	2120.53
401.63	2132.23
401.82	2186.06
402.01	2078.40
402.21	2174.36
402.40	2183.72
402.59	2162.66
402.78	2242.23
402.97	2267.98
403.17	2324.15
403.36	2258.62
403.55	2347.56
403.74	2263.30
403.93	2335.85
404.13	2375.64
404.32	2443.52
404.51	2436.50
404.70	2487.99
404.89	2485.65
405.09	2476.29
405.28	2464.58
405.47	2504.37
405.66	2478.63
405.85	2487.99
406.05	2551.18
406.24	2558.21
406.43	2546.50
406.62	2642.46
406.81	2724.38
407.00	2605.02
407.20	2558.21
407.39	2771.19
407.58	2796.94
407.77	2656.51
407.96	2801.62
408.15	2754.81
408.34	2691.62
408.54	2930.35
408.73	2867.16
408.92	2803.96
409.11	2974.82
409.30	2803.96
409.49	2808.64
409.68	2991.20
409.87	2977.16
410.07	3056.74
410.26	3066.10
410.45	2946.73
410.64	3112.91
410.83	3016.95
411.02	3028.65
411.21	3227.60
411.40	3187.81
411.59	3194.83
411.78	3227.60
411.98	3267.39
412.17	3267.39
412.36	3229.94
412.55	3342.28
412.74	3351.65
412.93	3412.50
413.12	3251.00
413.31	3510.80
413.50	3574.00
413.69	3538.89
413.88	3637.19
414.07	3597.40
414.26	3684.00
414.45	3700.39
414.64	3700.39
414.83	3852.52
415.02	3772.94
415.22	3779.97
415.41	3882.95
415.60	3826.78
415.79	3894.65
415.98	3932.10
416.17	4053.81
416.36	3948.48
416.55	4007.00
416.74	4011.68
416.93	4077.21
417.12	4198.92
417.31	4124.02
417.50	4159.13
417.69	4283.18
417.88	4292.54
418.07	4255.09
418.26	4327.65
418.45	4337.01
418.64	4500.85
418.83	4369.78
419.02	4456.38
419.21	4542.98
419.39	4582.77
419.58	4411.91
419.77	4479.79
419.96	4713.84
420.15	4671.71
420.34	4596.81
420.53	4491.49
420.72	4610.86
420.91	4681.07
421.10	4702.14
421.29	4748.95
421.48	4779.37
421.67	4788.74
421.86	4741.93
422.05	4889.38
422.24	4854.27
422.43	4884.70
422.61	4819.16
422.80	4945.55
422.99	4917.47
423.18	5034.49
423.37	4961.94
423.56	4992.36
423.75	4861.29
423.94	4873.00
424.13	4678.73
424.32	4718.52
424.50	5050.88
424.69	5085.98
424.88	5130.45
425.07	5083.64
425.26	4873.00
425.45	5013.43
425.64	4847.25
425.83	5036.83
426.01	5013.43
426.20	5093.01
426.39	5081.30
426.58	4882.36
426.77	5062.58
426.96	5116.41
427.15	5111.73
427.33	5149.18
427.52	5095.35
427.71	5305.99
427.90	5226.42
428.09	5378.55
428.28	5331.74
428.46	5448.77
428.65	5369.19
428.84	5600.90
429.03	5521.32
429.22	5399.62
429.40	5369.19
429.59	5582.18
429.78	5458.13
429.97	5359.83
430.16	5504.94
430.34	5675.80
430.53	5551.75
430.72	5764.74
430.91	5657.07
431.10	5696.86
431.28	5860.70
431.47	5799.85
431.66	5799.85
431.85	5877.09
432.03	5947.30
432.22	6059.65
432.41	5991.77
432.60	6061.99
432.79	5891.13
432.97	6071.35
433.16	6155.61
433.35	6064.33
433.54	6174.33
433.72	6148.59
433.91	6087.73
434.10	6167.31
434.28	6113.48
434.47	6403.71
434.66	6282.00
434.85	6331.15
435.03	6387.32
435.22	6263.27
435.41	6462.22
435.59	6331.15
435.78	6539.46
435.97	6410.73
436.16	6483.28
436.34	6377.96
436.53	6452.86
436.72	6579.25
436.90	6452.86
437.09	6757.13
437.28	6516.05
437.46	6555.84
437.65	6328.81
437.84	6672.87
438.02	6724.36
438.21	6785.21
438.40	6633.08
438.58	6986.50
438.77	6963.09
438.96	6864.79
439.14	7112.89
439.33	7229.91
439.52	7145.66
439.70	7199.49
439.89	7269.70
440.08	7379.71
440.26	7463.97
440.45	7534.18
440.63	7541.21
440.82	7742.49
441.01	7562.27
441.19	7562.27
441.38	7702.70
441.57	7939.10
441.75	7838.45
441.94	7822.07
442.12	7880.58
442.31	7992.93
442.50	8093.57
442.68	8105.28
442.87	8030.38
443.05	8135.70
443.24	8189.53
443.43	8145.06
443.61	8166.13
443.80	8353.37
443.98	8013.99
444.17	7955.48
444.35	8259.75
444.54	8409.54
444.73	8369.76
444.91	8346.35
445.10	8248.05
445.28	8496.14
445.47	8395.50
445.65	8430.61
445.84	8573.38
446.02	8599.13
446.21	8456.36
446.39	8533.59
446.58	8564.02
446.77	8634.24
446.95	8243.37
447.14	8456.36
447.32	8540.61
447.51	8489.12
447.69	8390.82
447.88	8493.80
448.06	8463.38
448.25	8589.77
448.43	8755.94
448.62	8648.28
448.80	8641.26
448.99	8760.63
449.17	8828.50
449.36	8947.87
449.54	8973.61
449.73	8990.00
449.91	9191.28
450.10	8788.71
450.28	8929.14
450.46	9137.45
450.65	9067.24
450.83	9188.94
451.02	9165.54
451.20	9118.73
451.39	9366.82
451.57	9186.60
451.76	9172.56
451.94	9184.26
452.13	9535.34
452.31	9462.79
452.49	9329.38
452.68	9530.66
452.86	9338.74
453.05	9387.89
453.23	9568.11
453.42	9521.30
453.60	9385.55
453.78	9467.47
453.97	9371.50
454.15	9413.63
454.34	9694.50
454.52	9511.94
454.70	9521.30
454.89	9942.60
455.07	9830.25
455.26	9818.55
455.44	9764.72
455.62	9827.91
455.81	9839.61
455.99	9916.85
456.17	10277.29
456.36	10129.84
456.54	10333.47
456.73	10249.21
456.91	10499.64
457.09	10391.98
457.28	10558.16
457.46	10541.77
457.64	10684.55
457.83	10745.40
458.01	10607.31
458.19	10846.04
458.38	10644.76
458.56	10733.70
458.74	10773.49
458.93	10747.74
459.11	10602.63
459.29	10721.99
459.48	10951.37
459.66	10991.16
459.84	10698.59
460.03	11133.93
460.21	11007.54
460.39	10939.66
460.57	10846.04
460.76	11154.99
460.94	11201.80
461.12	11358.62
461.31	11225.21
461.49	11480.33
461.67	11124.57
461.85	11445.22
462.04	11555.22
462.22	11950.78
462.40	11550.54
462.59	11763.53
462.77	11606.72
462.95	11604.38
463.13	11585.65
463.32	11653.53
463.50	11728.42
463.68	11686.29
463.86	11929.71
464.05	11655.87
464.23	11831.41
464.41	11969.50
464.59	11719.06
464.78	12189.51
464.96	12079.50
465.14	11843.11
465.32	12297.17
465.50	12042.06
465.69	12189.51
465.87	12170.79
466.05	12320.58
466.23	12091.21
466.41	12341.64
466.60	12594.42
466.78	12266.75
466.96	12035.03
467.14	12271.43
467.32	12423.56
467.51	12484.42
467.69	12091.21
467.87	12341.64
468.05	12601.44
468.23	12285.47
468.41	12428.24
468.60	12648.26
468.78	12821.45
468.96	12718.47
469.14	12994.65
469.32	12959.55
469.50	12854.22
469.69	13280.20
469.87	13284.88
470.05	13441.70
470.23	13242.75
470.41	13046.15
470.59	13324.67
470.77	13408.93
470.95	13282.54
471.14	13654.69
471.32	13263.82
471.50	13830.23
471.68	13841.93
471.86	13834.91
472.04	13900.44
472.22	14171.94
472.40	13736.60
472.58	14190.67
472.77	14136.84
472.95	14361.53
473.13	14469.19
473.31	14487.92
473.49	14288.97
473.67	14354.51
473.85	14450.47
474.03	15061.35
474.21	14637.71
474.39	14696.22
474.57	14850.70
474.75	15012.20
474.93	15234.55
475.12	15129.22
475.30	15215.82
475.48	15236.89
475.66	15494.35
475.84	15384.34
476.02	15529.45
476.20	15613.71
476.38	15672.23
476.56	16039.69
476.74	15995.22
476.92	15822.02
477.10	15527.11
477.28	16217.57
477.46	16116.93
477.64	16641.21
477.82	16449.28
478.00	17252.09
478.18	17106.98
478.36	17025.06
478.54	17289.54
478.72	17305.92
478.90	17687.43
479.08	17837.22
479.26	17575.08
479.44	17811.48
479.62	18106.38
479.80	18171.92
479.98	18209.37
480.16	18794.50
480.34	18513.64
480.52	18700.88
480.70	18841.31
480.88	18700.88
481.06	18609.60
481.24	18857.70
481.41	19098.77
481.59	19599.65
481.77	19594.96
481.95	19662.84
482.13	19749.44
482.31	19899.23
482.49	20402.45
482.67	20322.87
482.85	20240.95
483.03	20702.04
483.21	20919.71
483.39	21081.21
483.57	21085.89
483.74	21385.47
483.92	21544.63
484.10	21259.09
484.28	21762.30
484.46	21788.05
484.64	22581.49
484.82	22359.14
485.00	22394.25
485.18	23047.26
485.35	23283.65
485.53	22562.76
485.71	23119.81
485.89	23709.63
486.07	23194.71
486.25	23311.74
486.43	23850.06
486.61	24006.87
486.78	24276.04
486.96	24362.64
487.14	24732.44
487.32	24421.15
487.50	25123.31
487.68	25177.14
487.85	25380.77
488.03	25752.91
488.21	25738.87
488.39	25935.48
488.57	26087.61
488.75	26602.53
488.92	26497.20
489.10	26789.77
489.28	26958.29
489.46	27587.89
489.64	27122.13
489.81	27482.57
489.99	27934.29
490.17	28044.30
490.35	28411.76
490.53	28229.20
490.70	28458.57
490.88	28357.93
491.06	29123.29
491.24	28683.27
491.41	29259.04
491.59	29610.12
491.77	29071.79
491.95	29619.48
492.13	29783.32
492.30	30178.87
492.48	30195.25
492.66	30305.26
492.84	30263.13
493.01	30574.42
493.19	31030.82
493.37	30831.88
493.54	31552.76
493.72	31782.13
493.90	31482.55
494.08	32011.51
494.25	31936.61
494.43	32151.94
494.61	32273.65
494.79	32762.82
494.96	32453.87
495.14	33017.94
495.32	33317.53
495.49	33448.60
495.67	33172.41
495.85	33354.97
496.02	34171.82
496.20	33986.92
496.38	34398.85
496.55	34469.07
496.73	35044.84
496.91	34761.64
497.09	35222.72
497.26	35131.44
497.44	35173.57
497.62	35171.23
497.79	36013.82
497.97	35976.37
498.14	36318.09
498.32	36109.78
498.50	36418.74
498.67	37144.30
498.85	36882.16
499.03	36964.08
499.20	37195.79
499.38	37212.18
499.56	37624.11
499.73	37666.24
499.91	37488.36
500.08	38319.25
500.26	37699.01
500.44	38190.52
500.61	38323.93
500.79	38087.54
500.97	38377.76
501.14	38834.17
501.32	39030.77
501.49	38686.71
501.67	38941.83
501.84	39414.62
502.02	38946.51
502.20	39372.49
502.37	39835.92
502.55	39833.58
502.72	39503.56
502.90	39686.12
503.07	39754.00
503.25	39856.98
503.43	39892.09
503.60	40449.14
503.78	40587.23
503.95	40140.19
504.13	40671.49
504.30	40933.63
504.48	40289.98
504.65	41097.47
504.83	40954.69
505.01	41511.74
505.18	41277.69
505.36	41544.51
505.53	41677.92
505.71	41904.95
505.88	42241.99
506.06	41839.42
506.23	42529.87
506.41	42003.25
506.58	42534.56
506.76	42227.95
506.93	42775.63
507.11	42204.54
507.28	42904.36
507.46	43171.18
507.63	43047.13
507.81	43606.52
507.98	43208.63
508.16	43421.62
508.33	43311.61
508.50	43840.57
508.68	44404.64
508.85	44257.19
509.03	43915.47
509.20	44018.46
509.38	44671.46
509.55	44449.11
509.73	45017.86
509.90	45081.06
510.08	44470.18
510.25	45078.72
510.42	45258.94
510.60	45216.81
510.77	45507.04
510.95	45340.86
511.12	45261.28
511.30	45556.19
511.47	45661.51
511.64	45893.22
511.82	45947.06
511.99	45799.60
512.17	46003.23
512.34	45921.31
512.51	46405.80
512.69	46447.93
512.86	46927.74
513.04	46990.94
513.21	46960.51
513.38	46857.52
513.56	47192.22
513.73	47250.74
513.90	47110.30
514.08	46993.28
514.25	47283.50
514.43	47381.80
514.60	47833.53
514.77	47571.39
514.95	47882.68
515.12	48086.31
515.29	47494.15
515.47	48163.54
515.64	48137.80
515.81	47941.19
515.99	48449.09
516.16	48488.88
516.33	48769.74
516.51	49055.29
516.68	48430.36
516.85	48814.21
517.03	48851.66
517.20	48987.41
517.37	49055.29
517.54	49247.21
517.72	49340.83
517.89	49240.19
518.06	49099.76
518.24	49364.24
518.41	49549.14
518.58	49645.10
518.75	49614.68
518.93	49710.64
519.10	49600.63
519.27	49720.00
519.45	49731.70
519.62	50209.17
519.79	49958.73
519.96	50160.02
520.14	50248.96
520.31	50389.39
520.48	50735.79
520.65	50115.55
520.83	50904.31
521.00	50892.61
521.17	50777.92
521.34	50527.48
521.52	50806.01
521.69	51262.41
521.86	51388.80
522.03	51276.46
522.20	51700.09
522.38	52058.20
522.55	51917.76
522.72	51585.41
522.89	51423.91
523.07	51573.70
523.24	51639.24
523.41	51955.21
523.58	51529.23
523.75	52030.11
523.92	51779.67
524.10	52542.69
524.27	52444.38
524.44	52353.10
524.61	52189.27
524.78	52463.11
524.96	52404.59
525.13	52680.78
525.30	52793.12
525.47	52992.07
525.64	52711.20
525.81	52816.53
525.98	52900.79
526.16	52910.15
526.33	52781.42
526.50	53263.57
526.67	53036.54
526.84	53183.99
527.01	53162.93
527.18	53158.25
527.36	53188.67
527.53	53109.10
527.70	53506.99
527.87	53570.18
528.04	53420.39
528.21	53907.22
528.38	53462.52
528.55	53483.58
528.72	53509.33
528.89	53595.93
529.07	53598.27
529.24	53668.48
529.41	54195.10
529.58	53825.30
529.75	53577.20
529.92	54057.01
530.09	53996.16
530.26	53874.45
530.43	54335.54
530.60	54071.06
530.77	54127.23
530.94	54417.46
531.11	54274.68
531.28	54344.90
531.46	54316.81
531.63	54457.24
531.80	54302.77
531.97	54574.27
532.14	54852.80
532.31	54585.97
532.48	54564.91
532.65	54695.98
532.82	54749.81
532.99	55009.61
533.16	54770.88
533.33	54805.98
533.50	55070.46
533.67	54915.99
533.84	54857.48
534.01	55084.51
534.18	55131.32
534.35	55538.57
534.52	55025.99
534.69	55372.39
534.86	55711.77
535.03	55119.62
535.20	55297.50
535.37	55243.66
535.54	55337.29
535.71	55405.16
535.88	55318.56
536.05	55426.23
536.22	55861.57
536.38	55845.18
536.55	55842.84
536.72	55721.13
536.89	55650.92
537.06	56046.47
537.23	55936.46
537.40	55910.72
537.57	55688.37
537.74	56006.68
537.91	56102.64
538.08	56273.50
538.25	55796.03
538.42	56266.48
538.59	56285.20
538.75	56086.26
538.92	56011.36
539.09	56243.07
539.26	56339.04
539.43	56381.16
539.60	56229.03
539.77	56198.60
539.94	56652.67
540.11	56545.00
540.28	56683.09
540.44	56655.01
540.61	56772.03
540.78	56299.25
540.95	56362.44
541.12	56498.19
541.29	56404.57
541.46	56741.61
541.62	56853.95
541.79	56772.03
541.96	56708.84
542.13	56587.13
542.30	56940.55
542.47	57031.83
542.63	56849.27
542.80	56853.95
542.97	57261.21
543.14	57190.99
543.31	57240.14
543.48	57240.14
543.64	57623.99
543.81	57504.62
543.98	57420.36
544.15	57544.41
544.32	57607.61
544.48	57628.67
544.65	57511.64
544.82	57638.03
544.99	57265.89
545.16	57495.26
545.32	57373.55
545.49	57921.24
545.66	57860.38
545.83	57902.51
546.00	58028.90
546.16	57593.56
546.33	57752.72
546.50	57771.44
546.67	57982.09
546.83	57661.44
547.00	58028.90
547.17	57986.77
547.34	58031.24
547.50	58218.49
547.67	58321.47
547.84	58155.29
548.00	58370.62
548.17	58300.40
548.34	58272.32
548.51	58403.39
548.67	58300.40
548.84	58291.04
549.01	58136.57
549.18	58506.37
549.34	58312.11
549.51	58625.74
549.68	58677.23
549.84	58599.99
550.01	58485.31
550.18	58410.41
550.34	58632.76
550.51	58796.60
550.68	58471.26
550.84	58478.28
551.01	58805.96
551.18	58576.59
551.34	58717.02
551.51	58686.59
551.68	58700.64
551.84	58656.17
552.01	58642.12
552.18	58656.17
552.34	58529.78
552.51	58770.85
552.68	58731.06
552.84	58539.14
553.01	59168.74
553.18	58890.22
553.34	59164.06
553.51	58908.94
553.67	58955.75
553.84	59086.82
554.01	59126.61
554.17	59065.76
554.34	59185.13
554.51	59068.10
554.67	59147.68
554.84	59143.00
555.00	59409.82
555.17	58981.50
555.33	59283.43
555.50	59147.68
555.67	59133.63
555.83	59082.14
556.00	59143.00
556.16	59543.23
556.33	59421.52
556.50	59484.72
556.66	59580.68
556.83	59215.55
556.99	59592.38
557.16	59489.40
557.32	59583.02
557.49	59707.07
557.65	59552.59
557.82	59491.74
557.98	59381.73
558.15	59718.77
558.32	59510.46
558.48	59711.75
558.65	59662.60
558.81	59798.35
558.98	59744.51
559.14	59812.39
559.31	59898.99
559.47	59917.71
559.64	59917.71
559.80	59915.37
559.97	59788.98
560.13	59891.97
560.30	59884.95
560.46	59819.41
560.63	59826.43
560.79	60006.65
560.96	59868.56
561.12	60013.68
561.29	59861.54
561.45	60102.62
561.61	59994.95
561.78	59896.65
561.94	60151.77
562.11	60011.34
562.27	60020.70
562.44	60336.67
562.60	60320.29
562.77	60135.38
562.93	59976.23
563.10	60221.98
563.26	60006.65
563.42	60240.71
563.59	59929.42
563.75	59999.63
563.92	60205.60
564.08	60229.01
564.24	60324.97
564.41	60348.37
564.57	60296.88
564.74	60072.19
564.90	60203.26
565.07	60034.74
565.23	60303.90
565.39	60261.77
565.56	60229.01
565.72	60240.71
565.88	60406.89
566.05	60292.20
566.21	60289.86
566.38	60470.08
566.54	60285.18
566.70	60580.09
566.87	60629.24
567.03	60231.35
567.19	60734.56
567.36	60535.62
567.52	60547.32
567.68	60636.26
567.85	60453.70
568.01	60514.55
568.17	60467.74
568.34	60596.47
568.50	60537.96
568.66	60530.93
568.83	60474.76
568.99	60467.74
569.15	60683.07
569.32	60650.30
569.48	60715.84
569.64	60575.40
569.81	60530.93
569.97	60460.72
570.13	60603.49
570.30	60399.86
570.46	60594.13
570.62	60793.07
570.78	60570.72
570.95	60687.75
571.11	60640.94
571.27	60647.96
571.43	60729.88
571.60	60807.12
571.76	60837.54
571.92	60814.14
572.09	60547.32
572.25	60736.90
572.41	60697.11
572.57	60863.29
572.74	60992.02
572.90	60617.53
573.06	60884.36
573.22	60797.76
573.38	60622.22
573.55	60748.60
573.71	60905.42
573.87	60664.35
574.03	60694.77
574.20	60989.68
574.36	60748.60
574.52	60673.71
574.68	60762.65
574.84	61017.77
575.01	61113.73
575.17	60828.18
575.33	60767.33
575.49	60933.51
575.65	60982.66
575.82	60870.31
575.98	60870.31
576.14	60956.91
576.30	60954.57
576.46	60987.34
576.62	60849.25
576.79	60910.10
576.95	60729.88
577.11	60896.06
577.27	61172.24
577.43	60917.12
577.59	60790.73
577.75	60860.95
577.92	60903.08
578.08	60764.99
578.24	60933.51
578.40	60994.36
578.56	61144.16
578.72	61183.94
578.88	61202.67
579.04	61155.86
579.21	61038.83
579.37	61085.64
579.53	61237.78
579.69	60945.21
579.85	60966.27
580.01	60973.30
580.17	60788.39
580.33	60982.66
580.49	61244.80
580.65	61052.87
580.82	60856.27
580.98	60917.12
581.14	60966.27
581.30	61048.19
581.46	61123.09
581.62	60989.68
581.78	61062.24
581.94	61167.56
582.10	61176.92
582.26	60992.02
582.42	61071.60
582.58	61106.71
582.74	61013.08
582.90	61092.66
583.06	60992.02
583.22	60889.04
583.38	61050.53
583.54	61317.35
583.70	61099.68
583.86	61216.71
584.02	60851.59
584.18	61195.65
584.34	61221.39
584.50	61331.40
584.66	61141.81
584.82	60846.91
584.98	61277.57
585.14	61064.58
585.30	61104.37
585.46	61010.74
585.62	61109.05
585.78	61471.83
585.94	61235.44
586.10	61188.63
586.26	61153.52
586.42	61315.01
586.58	61113.73
586.74	61050.53
586.90	60982.66
587.06	61286.93
587.22	61338.42
587.38	61235.44
587.54	61371.19
587.70	61490.55
587.86	61340.76
588.02	61132.45
588.18	61474.17
588.34	61244.80
588.49	61219.05
