SpectraSuite Data File
++++++++++++++++++++++++++++++++++++
Date: Fri Oct 25 10:48:05 EDT 2013
User: price-jones
Dark Spectrum Present: No
Reference Spectrum Present: No
Number of Sampled Component Spectra: 1
Spectrometers: USB2+H05261
Integration Time (usec): 100000 (USB2+H05261)
Spectra Averaged: 1 (USB2+H05261)
Boxcar Smoothing: 0 (USB2+H05261)
Correct for Electrical Dark: No (USB2+H05261)
Strobe/Lamp Enabled: No (USB2+H05261)
Correct for Detector Non-linearity: No (USB2+H05261)
Correct for Stray Light: No (USB2+H05261)
Number of Pixels in Processed Spectrum: 2048
>>>>>Begin Processed Spectral Data<<<<<
365.73	166.18
365.92	166.18
366.12	166.18
366.32	51.49
366.52	105.32
366.72	21.06
366.91	81.92
367.11	39.79
367.31	95.96
367.51	77.24
367.70	74.90
367.90	51.49
368.10	7.02
368.30	88.94
368.49	46.81
368.69	65.54
368.89	67.88
369.09	49.15
369.28	51.49
369.48	79.58
369.68	119.37
369.87	95.96
370.07	98.30
370.27	175.54
370.47	196.60
370.66	402.57
370.86	430.66
371.06	498.53
371.25	486.83
371.45	390.87
371.65	442.36
371.84	444.70
372.04	461.09
372.24	458.74
372.44	409.59
372.63	493.85
372.83	524.28
373.03	505.56
373.22	526.62
373.42	505.56
373.62	468.11
373.81	545.34
374.01	465.77
374.21	521.94
374.40	533.64
374.60	582.79
374.79	559.39
374.99	566.41
375.19	601.52
375.38	599.18
375.58	603.86
375.78	566.41
375.97	517.26
376.17	610.88
376.37	540.66
376.56	585.13
376.76	521.94
376.95	543.00
377.15	629.60
377.35	564.07
377.54	571.09
377.74	615.56
377.93	512.58
378.13	648.33
378.33	610.88
378.52	603.86
378.72	631.94
378.91	620.24
379.11	594.50
379.31	634.29
379.50	582.79
379.70	622.58
379.89	571.09
380.09	643.65
380.28	578.11
380.48	641.31
380.68	620.24
380.87	617.90
381.07	657.69
381.26	685.78
381.46	716.20
381.65	676.41
381.85	718.54
382.04	641.31
382.24	755.99
382.43	662.37
382.63	727.91
382.83	744.29
383.02	716.20
383.22	770.04
383.41	671.73
383.61	716.20
383.80	744.29
384.00	812.17
384.19	739.61
384.39	746.63
384.58	716.20
384.78	788.76
384.97	807.48
385.17	716.20
385.36	720.88
385.56	730.25
385.75	795.78
385.95	786.42
386.14	807.48
386.34	788.76
386.53	699.82
386.72	851.96
386.92	777.06
387.11	837.91
387.31	833.23
387.50	758.33
387.70	837.91
387.89	765.36
388.09	821.53
388.28	802.80
388.48	772.38
388.67	840.25
388.86	922.17
389.06	800.46
389.25	903.45
389.45	880.04
389.64	849.61
389.84	889.40
390.03	887.06
390.22	933.87
390.42	917.49
390.61	851.96
390.81	870.68
391.00	926.85
391.19	968.98
391.39	851.96
391.58	936.21
391.78	971.32
391.97	983.02
392.16	910.47
392.36	1025.15
392.55	933.87
392.75	940.90
392.94	947.92
393.13	968.98
393.33	917.49
393.52	936.21
393.71	1029.84
393.91	1060.26
394.10	1036.86
394.29	1004.09
394.49	1004.09
394.68	1135.16
394.88	1048.56
395.07	994.73
395.26	1053.24
395.46	1083.67
395.65	1034.52
395.84	1111.75
396.04	1181.97
396.23	1125.80
396.42	1170.27
396.62	1060.26
396.81	1062.60
397.00	1132.82
397.19	1153.88
397.39	1156.22
397.58	1231.12
397.77	1275.59
397.97	1252.19
398.16	1203.04
398.35	1221.76
398.55	1240.48
398.74	1303.68
398.93	1364.53
399.12	1247.51
399.32	1268.57
399.51	1315.38
399.70	1355.17
399.90	1320.06
400.09	1390.28
400.28	1376.24
400.47	1289.64
400.67	1418.36
400.86	1376.24
401.05	1394.96
401.24	1394.96
401.44	1568.16
401.63	1460.49
401.82	1493.26
402.01	1373.89
402.21	1462.83
402.40	1509.65
402.59	1533.05
402.78	1537.73
402.97	1528.37
403.17	1526.03
403.36	1577.52
403.55	1582.20
403.74	1523.69
403.93	1554.12
404.13	1666.46
404.32	1549.43
404.51	1568.16
404.70	1540.07
404.89	1610.29
405.09	1643.06
405.28	1706.25
405.47	1694.55
405.66	1762.42
405.85	1699.23
406.05	1694.55
406.24	1771.79
406.43	1666.46
406.62	1818.60
406.81	1736.68
407.00	1778.81
407.20	1781.15
407.39	1762.42
407.58	1818.60
407.77	1837.32
407.96	1942.64
408.15	1916.90
408.34	1863.07
408.54	1940.30
408.73	1944.99
408.92	1926.26
409.11	2038.61
409.30	1959.03
409.49	2015.20
409.68	1961.37
409.87	2045.63
410.07	2047.97
410.26	2160.31
410.45	2078.40
410.64	2181.38
410.83	2211.81
411.02	2113.50
411.21	2303.09
411.40	2183.72
411.59	2139.25
411.78	2179.04
411.98	2251.60
412.17	2307.77
412.36	2282.02
412.55	2380.32
412.74	2443.52
412.93	2495.01
413.12	2345.22
413.31	2462.24
413.50	2366.28
413.69	2427.14
413.88	2637.78
414.07	2469.27
414.26	2497.35
414.45	2565.23
414.64	2593.31
414.83	2612.04
415.02	2705.66
415.22	2686.94
415.41	2672.89
415.60	2696.30
415.79	2722.04
415.98	2773.53
416.17	2794.60
416.36	2834.39
416.55	2750.13
416.74	2827.37
416.93	2825.03
417.12	2937.37
417.31	2960.78
417.50	3045.04
417.69	2970.14
417.88	3000.57
418.07	2906.95
418.26	3002.91
418.45	3023.97
418.64	3045.04
418.83	3112.91
419.02	2984.18
419.21	3152.70
419.39	3185.47
419.58	3112.91
419.77	3176.11
419.96	3143.34
420.15	3272.07
420.34	3208.87
420.53	3229.94
420.72	3234.62
420.91	3232.28
421.10	3405.48
421.29	3452.29
421.48	3311.86
421.67	3510.80
421.86	3330.58
422.05	3311.86
422.24	3410.16
422.43	3325.90
422.61	3389.10
422.80	3489.74
422.99	3279.09
423.18	3566.98
423.37	3557.61
423.56	3466.33
423.75	3508.46
423.94	3412.50
424.13	3115.25
424.32	3307.18
424.50	3534.21
424.69	3524.85
424.88	3478.04
425.07	3356.33
425.26	3316.54
425.45	3426.54
425.64	3564.64
425.83	3487.40
426.01	3566.98
426.20	3431.23
426.39	3459.31
426.58	3449.95
426.77	3541.23
426.96	3623.15
427.15	3581.02
427.33	3714.43
427.52	3651.24
427.71	3627.83
427.90	3641.87
428.09	3686.34
428.28	3700.39
428.46	3693.37
428.65	3749.54
428.84	3749.54
429.03	3719.11
429.22	3597.40
429.40	3681.66
429.59	3655.92
429.78	3506.12
429.97	3541.23
430.16	3651.24
430.34	3691.02
430.53	3798.69
430.72	3786.99
430.91	3822.09
431.10	3852.52
431.28	3964.87
431.47	3981.25
431.66	4053.81
431.85	4028.06
432.03	4175.52
432.22	4276.16
432.41	4084.23
432.60	4032.74
432.79	4112.32
432.97	4018.70
433.16	4163.81
433.35	4166.15
433.54	4257.43
433.72	4159.13
433.91	4063.17
434.10	4173.18
434.28	4341.69
434.47	4304.25
434.66	4299.56
434.85	4409.57
435.03	4306.59
435.22	4142.75
435.41	4542.98
435.59	4554.68
435.78	4425.95
435.97	4538.30
436.16	4542.98
436.34	4545.32
436.53	4421.27
436.72	4587.45
436.90	4374.46
437.09	4507.87
437.28	4442.34
437.46	4507.87
437.65	4580.43
437.84	4573.41
438.02	4695.11
438.21	4559.36
438.40	4660.01
438.58	4578.09
438.77	4816.82
438.96	4725.54
439.14	4966.62
439.33	4828.53
439.52	4877.68
439.70	4875.34
439.89	5055.56
440.08	5149.18
440.26	5195.99
440.45	5074.28
440.63	5144.50
440.82	5163.22
441.01	5174.92
441.19	5254.50
441.38	5310.68
441.57	5369.19
441.75	5413.66
441.94	5708.57
442.12	5636.01
442.31	5565.79
442.50	5523.66
442.68	5565.79
442.87	5488.56
443.05	5537.71
443.24	5809.21
443.43	5668.78
443.61	5572.82
443.80	5631.33
443.98	5526.00
444.17	5373.87
444.35	5652.39
444.54	5795.17
444.73	5671.12
444.91	5769.42
445.10	5820.91
445.28	5600.90
445.47	5865.38
445.65	5750.70
445.84	5792.83
446.02	5804.53
446.21	5771.76
446.39	5778.78
446.58	5804.53
446.77	5884.11
446.95	5715.59
447.14	5923.90
447.32	5781.12
447.51	5959.00
447.69	5937.94
447.88	5973.05
448.06	6012.84
448.25	6061.99
448.43	6066.67
448.62	5933.26
448.80	5830.27
448.99	5825.59
449.17	5870.06
449.36	5937.94
449.54	6080.71
449.73	6188.38
449.91	6228.17
450.10	6258.59
450.28	6160.29
450.46	6370.94
450.65	6169.65
450.83	6225.82
451.02	6324.13
451.20	6464.56
451.39	6174.33
451.57	6272.64
451.76	6384.98
451.94	6253.91
452.13	6354.55
452.31	6176.67
452.49	6197.74
452.68	6480.94
452.86	6324.13
453.05	6403.71
453.23	6579.25
453.42	6375.62
453.60	6354.55
453.78	6553.50
453.97	6321.79
454.15	6239.87
454.34	6485.62
454.52	6604.99
454.70	6612.01
454.89	6768.83
455.07	6766.49
455.26	6759.47
455.44	6740.74
455.62	6820.32
455.81	6782.87
455.99	6885.86
456.17	6909.26
456.36	6796.92
456.54	6836.70
456.73	7101.19
456.91	7126.93
457.09	7016.93
457.28	7250.98
457.46	6960.75
457.64	7232.26
457.83	6946.71
458.01	7138.63
458.19	7213.53
458.38	7101.19
458.56	7346.94
458.74	7232.26
458.93	7363.33
459.11	7173.74
459.29	7562.27
459.48	7339.92
459.66	7281.41
459.84	7419.50
460.03	7438.22
460.21	7508.44
460.39	7527.16
460.57	7452.27
460.76	7466.31
460.94	7618.44
461.12	7630.15
461.31	7522.48
461.49	7578.65
461.67	7581.00
461.85	7798.66
462.04	7721.43
462.22	8070.17
462.40	7747.17
462.59	7836.11
462.77	7932.08
462.95	7964.84
463.13	7791.64
463.32	7831.43
463.50	7801.01
463.68	7936.76
463.86	7733.13
464.05	7871.22
464.23	7791.64
464.41	7950.80
464.59	8065.49
464.78	8086.55
464.96	8156.77
465.14	8138.04
465.32	7969.52
465.50	8180.17
465.69	8238.69
465.87	8234.00
466.05	8250.39
466.23	8105.28
466.41	8236.35
466.60	8423.59
466.78	8236.35
466.96	8353.37
467.14	8255.07
467.32	8306.56
467.51	8339.33
467.69	8191.88
467.87	8355.71
468.05	8596.79
468.23	8444.65
468.41	8362.73
468.60	8526.57
468.78	8624.87
468.96	8372.10
469.14	8613.17
469.32	8533.59
469.50	8493.80
469.69	8823.82
469.87	8856.59
470.05	8816.80
470.23	8732.54
470.41	8734.88
470.59	8844.88
470.77	8725.52
470.95	8882.33
471.14	9097.66
471.32	8938.51
471.50	9282.56
471.68	9111.71
471.86	9198.31
472.04	9142.13
472.22	9357.46
472.40	9280.22
472.58	9188.94
472.77	9322.35
472.95	9380.87
473.13	9652.37
473.31	9378.53
473.49	9273.20
473.67	9490.87
473.85	9610.24
474.03	9626.62
474.21	9881.74
474.39	9722.59
474.57	9767.06
474.75	9776.42
474.93	9921.53
475.12	9991.75
475.30	9916.85
475.48	9881.74
475.66	10134.52
475.84	10040.90
476.02	10230.48
476.20	10303.04
476.38	10377.94
476.56	10719.65
476.74	10403.68
476.92	10422.41
477.10	10548.79
477.28	10679.86
477.46	10644.76
477.64	10862.43
477.82	10913.92
478.00	11211.17
478.18	11091.80
478.36	11185.42
478.54	11272.02
478.72	11267.34
478.90	11419.47
479.08	11403.09
479.26	11719.06
479.44	11838.43
479.62	11817.36
479.80	11826.73
479.98	11803.32
480.16	12030.35
480.34	12098.23
480.52	12465.69
480.70	12248.02
480.88	12051.42
481.06	12386.12
481.24	12435.27
481.41	12519.53
481.59	12840.18
481.77	12816.77
481.95	12982.95
482.13	13057.85
482.31	13029.76
482.49	13490.85
482.67	13266.16
482.85	13270.84
483.03	13348.08
483.21	13778.73
483.39	13809.16
483.57	13781.07
483.74	14125.13
483.92	14256.20
484.10	13900.44
484.28	13935.55
484.46	14286.63
484.64	14420.04
484.82	14471.53
485.00	14588.56
485.18	14778.14
485.35	14916.23
485.53	14757.08
485.71	14661.12
485.89	15126.88
486.07	14916.23
486.25	15248.59
486.43	15414.77
486.61	15379.66
486.78	15550.52
486.96	15686.27
487.14	15740.10
487.32	15840.75
487.50	16035.01
487.68	16224.59
487.85	16442.26
488.03	16580.36
488.21	16987.61
488.39	16709.08
488.57	16975.91
488.75	17029.74
488.92	17114.00
489.10	17256.77
489.28	17481.46
489.46	17694.45
489.64	17486.14
489.81	17825.52
489.99	18164.90
490.17	17972.97
490.35	18324.05
490.53	18429.38
490.70	18693.86
490.88	18242.14
491.06	18789.82
491.24	18698.54
491.41	18902.17
491.59	19089.41
491.77	18845.99
491.95	18801.52
492.13	19377.30
492.30	19433.47
492.48	19449.85
492.66	19515.39
492.84	19419.42
493.01	20049.03
493.19	19491.98
493.37	20386.07
493.54	20208.19
493.72	20297.13
493.90	20552.24
494.08	20753.53
494.25	20950.14
494.43	21041.42
494.61	21301.22
494.79	21064.82
494.96	21064.82
495.14	21617.19
495.32	21432.29
495.49	21364.41
495.67	21774.00
495.85	21511.86
496.02	21886.35
496.20	21731.87
496.38	22012.74
496.55	22321.69
496.73	22696.17
496.91	22237.43
497.09	22712.56
497.26	22831.93
497.44	22560.42
497.62	22628.30
497.79	23016.83
497.97	22745.33
498.14	23370.25
498.32	23122.15
498.50	23456.85
498.67	23690.90
498.85	23644.09
499.03	23644.09
499.20	23538.77
499.38	23714.31
499.56	24084.11
499.73	24079.43
499.91	24350.93
500.08	24395.40
500.26	24100.50
500.44	24512.43
500.61	24280.72
500.79	24219.86
500.97	24599.03
501.14	25097.56
501.32	25017.99
501.49	24893.94
501.67	25039.05
501.84	24943.09
502.02	25034.37
502.20	25397.15
502.37	25455.67
502.55	25387.79
502.72	25476.73
502.90	25486.09
503.07	25324.60
503.25	25621.84
503.43	25385.45
503.60	25881.64
503.78	25928.45
503.95	25862.92
504.13	25907.39
504.30	26005.69
504.48	26256.13
504.65	26022.08
504.83	26576.78
505.01	26712.53
505.18	26670.40
505.36	26876.37
505.53	26593.17
505.71	27185.32
505.88	27491.93
506.06	26859.99
506.23	26852.97
506.41	26995.74
506.58	27145.53
506.76	27297.67
506.93	27377.25
507.11	27220.43
507.28	27639.39
507.46	27344.48
507.63	27510.66
507.81	27538.74
507.98	27798.54
508.16	28056.00
508.33	27997.49
508.50	27971.74
508.68	28493.68
508.85	28280.69
509.03	28591.98
509.20	28465.60
509.38	28503.04
509.55	28802.63
509.73	28559.22
509.90	28610.71
510.08	28437.51
510.25	28776.89
510.42	29343.30
510.60	29383.09
510.77	29488.41
510.95	29418.19
511.12	29053.07
511.30	29483.73
511.47	29532.88
511.64	29942.47
511.82	29572.67
511.99	29614.80
512.17	29832.47
512.34	29874.60
512.51	30115.67
512.69	30141.42
512.86	30401.22
513.04	30469.09
513.21	30113.33
513.38	30288.87
513.56	30431.65
513.73	30253.76
513.90	30785.07
514.08	30455.05
514.25	30855.28
514.43	30403.56
514.60	30562.72
514.77	30349.73
514.95	31007.42
515.12	30955.93
515.29	31159.55
515.47	31353.82
515.64	31372.54
515.81	31435.74
515.99	31365.52
516.16	30979.33
516.33	31337.43
516.51	31534.04
516.68	31545.74
516.85	31288.28
517.03	31536.38
517.20	31892.14
517.37	31559.78
517.54	32011.51
517.72	32088.74
517.89	32081.72
518.06	31917.89
518.24	31833.63
518.41	31920.23
518.58	32198.75
518.75	32198.75
518.93	32683.24
519.10	32584.94
519.27	32552.17
519.45	32397.70
519.62	32577.92
519.79	32875.16
519.96	32907.93
520.14	33359.66
520.31	32734.73
520.48	33301.14
520.65	32725.37
520.83	33109.22
521.00	33369.02
521.17	33118.58
521.34	33399.44
521.52	33582.01
521.69	33715.42
521.86	33481.36
522.03	33567.96
522.20	33413.49
522.38	34195.23
522.55	34328.64
522.72	33493.07
522.89	34176.50
523.07	33596.05
523.24	34050.11
523.41	34286.51
523.58	34125.01
523.75	34616.52
523.92	34274.80
524.10	34494.82
524.27	34733.55
524.44	34616.52
524.61	35030.80
524.78	34834.19
524.96	34960.58
525.13	35007.39
525.30	34892.71
525.47	35295.28
525.64	35204.00
525.81	35131.44
525.98	34899.73
526.16	34969.94
526.33	34773.34
526.50	35084.63
526.67	34962.92
526.84	35115.06
527.01	34726.53
527.18	35196.98
527.36	35648.70
527.53	35660.40
527.70	35922.54
527.87	36060.63
528.04	35508.27
528.21	35997.44
528.38	35786.79
528.55	35910.84
528.72	36212.77
528.89	36196.38
529.07	36027.87
529.24	35548.06
529.41	35887.43
529.58	36360.22
529.75	36135.53
529.92	36437.46
530.09	36446.82
530.26	36514.70
530.43	36666.83
530.60	36123.83
530.77	36318.09
530.94	36851.73
531.11	36856.42
531.28	37046.00
531.46	36907.91
531.63	36896.20
531.80	36786.20
531.97	37031.96
532.14	36905.57
532.31	36343.84
532.48	36931.31
532.65	37434.53
532.82	37352.61
532.99	37572.62
533.16	36919.61
533.33	37621.77
533.50	37387.72
533.67	37113.87
533.84	37022.59
534.01	37497.72
534.18	37668.58
534.35	37612.41
534.52	37633.47
534.69	38094.56
534.86	38202.22
535.03	37254.31
535.20	37886.25
535.37	37794.97
535.54	38185.84
535.71	37909.66
535.88	38155.41
536.05	37972.85
536.22	38155.41
536.38	37792.63
536.55	37874.55
536.72	38136.69
536.89	38094.56
537.06	38054.77
537.23	38506.49
537.40	38335.63
537.57	38492.45
537.74	38361.38
537.91	39164.18
538.08	38513.52
538.25	38403.51
538.42	38614.16
538.59	38588.41
538.75	38192.86
538.92	38539.26
539.09	39161.84
539.26	38586.07
539.43	39103.33
539.60	39274.19
539.77	38682.03
539.94	39103.33
540.11	38824.81
540.28	38808.42
540.44	39302.28
540.61	38902.04
540.78	38932.47
540.95	38871.62
541.12	39365.47
541.29	39122.05
541.46	39353.77
541.62	39236.74
541.79	39533.99
541.96	38880.98
542.13	39363.13
542.30	39651.02
542.47	40100.40
542.63	40034.86
542.80	39508.24
542.97	40278.28
543.14	40435.10
543.31	40102.74
543.48	39859.32
543.64	40470.20
543.81	40170.61
543.98	40247.85
544.15	40538.08
544.32	40484.25
544.48	40978.10
544.65	40219.77
544.82	40135.51
544.99	40732.34
545.16	40610.64
545.32	40669.15
545.49	40671.49
545.66	40942.99
545.83	40648.08
546.00	40732.34
546.16	40914.90
546.33	40451.48
546.50	40198.70
546.67	40528.72
546.83	39791.45
547.00	40809.58
547.17	40907.88
547.34	41228.54
547.50	40886.82
547.67	41284.71
547.84	41230.88
548.00	41378.33
548.17	41551.53
548.34	40851.71
548.51	41418.12
548.67	41170.02
548.84	42073.47
549.01	41177.04
549.18	40762.77
549.34	41708.35
549.51	41867.50
549.68	41481.31
549.84	41532.81
550.01	41677.92
550.18	41411.10
550.34	41586.64
550.51	41151.30
550.68	41418.12
550.84	41715.37
551.01	41588.98
551.18	41507.06
551.34	41808.99
551.51	42096.88
551.68	41675.58
551.84	42059.43
552.01	41640.47
552.18	42279.44
552.34	41474.29
552.51	42115.60
552.68	41921.34
552.84	42190.50
553.01	42183.48
553.18	42150.71
553.34	41495.36
553.51	41900.27
553.67	42010.28
553.84	42698.39
554.01	42471.36
554.17	42347.31
554.34	42766.27
554.51	42342.63
554.67	42246.67
554.84	42494.77
555.00	42567.32
555.17	42466.68
555.33	42808.40
555.50	42384.76
555.67	42394.12
555.83	42656.26
556.00	42377.74
556.16	42852.87
556.33	42792.01
556.50	42784.99
556.66	43171.18
556.83	42777.97
556.99	42476.04
557.16	42260.71
557.32	42831.80
557.49	42682.01
557.65	42714.78
557.82	42576.69
557.98	42351.99
558.15	43171.18
558.32	43005.00
558.48	43318.64
558.65	42548.60
558.81	43271.82
558.98	42934.79
559.14	43180.54
559.31	43112.67
559.47	43335.02
559.64	43395.87
559.80	43391.19
559.97	43030.75
560.13	42955.85
560.30	43117.35
560.46	43133.73
560.63	43143.09
560.79	43580.78
560.96	43555.03
561.12	43042.45
561.29	43674.40
561.45	42897.34
561.61	43358.42
561.78	43012.02
561.94	43082.24
562.11	42850.53
562.27	43267.14
562.44	43569.07
562.60	44114.42
562.77	43709.50
562.93	43852.28
563.10	43889.73
563.26	43199.27
563.42	43650.99
563.59	43639.29
563.75	43138.41
563.92	43749.29
564.08	43342.04
564.24	43707.16
564.41	43988.03
564.57	43915.47
564.74	43573.75
564.90	43393.53
565.07	43524.60
565.23	43639.29
565.39	43903.77
565.56	43866.32
565.72	43643.97
565.88	43552.69
566.05	43842.92
566.21	43812.49
566.38	43571.41
566.54	43915.47
566.70	43842.92
566.87	44498.26
567.03	43555.03
567.19	44238.47
567.36	43552.69
567.52	44098.03
567.68	43861.64
567.85	43676.74
568.01	43796.10
568.17	43868.66
568.34	44020.80
568.50	44170.59
568.66	44030.16
568.83	43786.74
568.99	43934.20
569.15	43550.35
569.32	43941.22
569.48	43672.06
569.64	43938.88
569.81	43803.13
569.97	44151.87
570.13	44170.59
570.30	43868.66
570.46	43669.72
570.62	44100.37
570.78	43875.68
570.95	43484.81
571.11	44112.08
571.27	44194.00
571.43	44208.04
571.60	44430.39
571.76	43758.66
571.92	44226.76
572.09	43791.42
572.25	43976.33
572.41	43798.44
572.57	44091.01
572.74	44498.26
572.90	44119.10
573.06	44301.66
573.22	44074.63
573.38	44123.78
573.55	43711.84
573.71	44346.13
573.87	43938.88
574.03	43693.12
574.20	44453.79
574.36	43924.83
574.52	44161.23
574.68	44261.87
574.84	44458.48
575.01	44030.16
575.17	44065.27
575.33	44055.90
575.49	44257.19
575.65	44563.80
575.82	44442.09
575.98	44226.76
576.14	44809.56
576.30	44437.41
576.46	44074.63
576.62	44051.22
576.79	43983.35
576.95	43573.75
577.11	44318.04
577.27	44224.42
577.43	44479.54
577.59	44229.10
577.75	44289.96
577.92	43924.83
578.08	44091.01
578.24	43812.49
578.40	44584.86
578.56	44376.56
578.72	44472.52
578.88	44449.11
579.04	44264.21
579.21	44226.76
579.37	44348.47
579.53	44549.76
579.69	43927.17
579.85	43997.39
580.01	44755.72
580.17	44484.22
580.33	44463.16
580.49	44198.68
580.65	44570.82
580.82	44355.49
580.98	44030.16
581.14	44137.82
581.30	44582.52
581.46	44154.21
581.62	44718.28
581.78	43917.81
581.94	44774.45
582.10	44179.95
582.26	44587.21
582.42	44671.46
582.58	44402.30
582.74	44025.48
582.90	44327.41
583.06	44381.24
583.22	44680.83
583.38	44898.50
583.54	44505.29
583.70	44582.52
583.86	44201.02
584.02	44158.89
584.18	44456.14
584.34	44706.57
584.50	44912.54
584.66	44233.78
584.82	44385.92
584.98	44596.57
585.14	44706.57
585.30	44460.82
585.46	44526.35
585.62	44357.83
585.78	43903.77
585.94	44355.49
586.10	44568.48
586.26	44191.65
586.42	44357.83
586.58	44495.92
586.74	44570.82
586.90	44189.31
587.06	44402.30
587.22	44428.05
587.38	44280.60
587.54	44847.00
587.70	45015.52
587.86	44453.79
588.02	44854.03
588.18	44699.55
588.34	44224.42
588.49	44210.38
588.65	44524.01
588.81	44222.08
588.97	44147.18
589.13	44325.07
589.29	44516.99
589.45	44421.03
589.61	44825.94
589.77	44811.90
589.93	44559.12
590.08	44832.96
590.24	45322.13
590.40	45031.91
