SpectraSuite Data File
++++++++++++++++++++++++++++++++++++
Date: Fri Oct 25 10:46:53 EDT 2013
User: price-jones
Dark Spectrum Present: No
Reference Spectrum Present: No
Number of Sampled Component Spectra: 1
Spectrometers: USB2+H05261
Integration Time (usec): 100000 (USB2+H05261)
Spectra Averaged: 1 (USB2+H05261)
Boxcar Smoothing: 0 (USB2+H05261)
Correct for Electrical Dark: No (USB2+H05261)
Strobe/Lamp Enabled: No (USB2+H05261)
Correct for Detector Non-linearity: No (USB2+H05261)
Correct for Stray Light: No (USB2+H05261)
Number of Pixels in Processed Spectrum: 2048
>>>>>Begin Processed Spectral Data<<<<<
365.73	149.79
365.92	149.79
366.12	149.79
366.32	16.38
366.52	0.00
366.72	100.64
366.91	72.56
367.11	67.88
367.31	0.00
367.51	79.58
367.70	9.36
367.90	107.66
368.10	46.81
368.30	9.36
368.49	0.00
368.69	18.72
368.89	95.96
369.09	74.90
369.28	51.49
369.48	117.03
369.68	81.92
369.87	25.75
370.07	51.49
370.27	107.66
370.47	217.67
370.66	409.59
370.86	456.40
371.06	498.53
371.25	472.79
371.45	477.47
371.65	428.32
371.84	479.81
372.04	461.09
372.24	535.98
372.44	528.96
372.63	500.87
372.83	613.22
373.03	440.02
373.22	433.00
373.42	484.49
373.62	528.96
373.81	589.82
374.01	629.60
374.21	688.12
374.40	641.31
374.60	517.26
374.79	608.54
374.99	475.13
375.19	533.64
375.38	606.20
375.58	608.54
375.78	622.58
375.97	629.60
376.17	678.76
376.37	622.58
376.56	657.69
376.76	564.07
376.95	615.56
377.15	674.07
377.35	631.94
377.54	603.86
377.74	648.33
377.93	599.18
378.13	688.12
378.33	702.16
378.52	755.99
378.72	695.14
378.91	748.97
379.11	643.65
379.31	592.16
379.50	669.39
379.70	737.27
379.89	765.36
380.09	697.48
380.28	730.25
380.48	699.82
380.68	695.14
380.87	648.33
381.07	727.91
381.26	704.50
381.46	587.47
381.65	695.14
381.85	734.93
382.04	660.03
382.24	678.76
382.43	653.01
382.63	716.20
382.83	662.37
383.02	791.10
383.22	772.38
383.41	723.23
383.61	795.78
383.80	774.72
384.00	809.83
384.19	777.06
384.39	798.12
384.58	805.14
384.78	856.64
384.97	774.72
385.17	741.95
385.36	835.57
385.56	784.08
385.75	828.55
385.95	809.83
386.14	809.83
386.34	814.51
386.53	870.68
386.72	844.93
386.92	971.32
387.11	880.04
387.31	922.17
387.50	812.17
387.70	858.98
387.89	947.92
388.09	929.19
388.28	905.79
388.48	936.21
388.67	936.21
388.86	912.81
389.06	931.53
389.25	966.64
389.45	922.17
389.64	957.28
389.84	1036.86
390.03	994.73
390.22	936.21
390.42	978.34
390.61	1013.45
390.81	997.07
391.00	1034.52
391.19	1062.60
391.39	1069.62
391.58	1057.92
391.78	985.37
391.97	1132.82
392.16	973.66
392.36	1050.90
392.55	1048.56
392.75	1043.88
392.94	1053.24
393.13	1008.77
393.33	1118.78
393.52	1036.86
393.71	1057.92
393.91	1053.24
394.10	1015.79
394.29	1170.27
394.49	1121.12
394.68	1203.04
394.88	1284.95
395.07	1289.64
395.26	1181.97
395.46	1221.76
395.65	1179.63
395.84	1263.89
396.04	1256.87
396.23	1231.12
396.42	1069.62
396.62	1252.19
396.81	1203.04
397.00	1219.42
397.19	1256.87
397.39	1357.51
397.58	1306.02
397.77	1252.19
397.97	1371.55
398.16	1380.92
398.35	1404.32
398.55	1397.30
398.74	1507.30
398.93	1479.22
399.12	1472.20
399.32	1483.90
399.51	1479.22
399.70	1488.58
399.90	1458.15
400.09	1497.94
400.28	1636.03
400.47	1453.47
400.67	1600.93
400.86	1530.71
401.05	1605.61
401.24	1589.22
401.44	1652.42
401.63	1596.25
401.82	1715.61
402.01	1582.20
402.21	1748.38
402.40	1722.63
402.59	1720.29
402.78	1689.87
402.97	1696.89
403.17	1776.47
403.36	1736.68
403.55	1703.91
403.74	1750.72
403.93	1785.83
404.13	1870.09
404.32	1799.87
404.51	1811.57
404.70	1872.43
404.89	1776.47
405.09	1879.45
405.28	1781.15
405.47	1916.90
405.66	1930.94
405.85	1961.37
406.05	2026.90
406.24	1961.37
406.43	1982.43
406.62	1973.07
406.81	2064.35
407.00	2146.27
407.20	1944.99
407.39	2012.86
407.58	2031.58
407.77	2139.25
407.96	2106.48
408.15	2179.04
408.34	2045.63
408.54	2202.44
408.73	2237.55
408.92	2146.27
409.11	2324.15
409.30	2200.10
409.49	2263.30
409.68	2237.55
409.87	2223.51
410.07	2289.04
410.26	2406.07
410.45	2319.47
410.64	2356.92
410.83	2436.50
411.02	2518.42
411.21	2473.95
411.40	2445.86
411.59	2490.33
411.78	2485.65
411.98	2562.89
412.17	2527.78
412.36	2626.08
412.55	2647.15
412.74	2640.12
412.93	2614.38
413.12	2677.57
413.31	2848.43
413.50	2766.51
413.69	2766.51
413.88	2911.63
414.07	2635.44
414.26	2888.22
414.45	2944.39
414.64	2855.45
414.83	2977.16
415.02	2981.84
415.22	3002.91
415.41	3098.87
415.60	3087.17
415.79	3087.17
415.98	3143.34
416.17	3117.59
416.36	3183.13
416.55	3288.45
416.74	3206.53
416.93	3157.38
417.12	3211.22
417.31	3215.90
417.50	3300.16
417.69	3431.23
417.88	3368.03
418.07	3318.88
418.26	3297.81
418.45	3330.58
418.64	3510.80
418.83	3456.97
419.02	3400.80
419.21	3506.12
419.39	3494.42
419.58	3435.91
419.77	3253.34
419.96	3616.13
420.15	3637.19
420.34	3655.92
420.53	3698.05
420.72	3578.68
420.91	3719.11
421.10	3740.18
421.29	3770.60
421.48	3674.64
421.67	3852.52
421.86	3693.37
422.05	3791.67
422.24	3630.17
422.43	3733.15
422.61	3817.41
422.80	3702.73
422.99	3791.67
423.18	3826.78
423.37	3866.56
423.56	3875.93
423.75	3695.71
423.94	3742.52
424.13	3588.04
424.32	3641.87
424.50	3871.25
424.69	3885.29
424.88	3882.95
425.07	3808.05
425.26	3829.12
425.45	3861.88
425.64	3840.82
425.83	3861.88
426.01	3988.27
426.20	3950.82
426.39	3889.97
426.58	3850.18
426.77	3822.09
426.96	3885.29
427.15	3892.31
427.33	3901.67
427.52	3911.04
427.71	3964.87
427.90	4051.47
428.09	4084.23
428.28	4037.42
428.46	4067.85
428.65	4067.85
428.84	4327.65
429.03	4210.62
429.22	4119.34
429.40	4053.81
429.59	4112.32
429.78	3880.61
429.97	3782.31
430.16	4058.49
430.34	4049.13
430.53	4124.02
430.72	4007.00
430.91	4219.99
431.10	4234.03
431.28	4341.69
431.47	4482.13
431.66	4613.20
431.85	4482.13
432.03	4477.44
432.22	4643.62
432.41	4500.85
432.60	4566.39
432.79	4589.79
432.97	4580.43
433.16	4669.37
433.35	4475.10
433.54	4657.67
433.72	4631.92
433.91	4486.81
434.10	4662.35
434.28	4690.43
434.47	4606.17
434.66	4678.73
434.85	4830.87
435.03	4952.57
435.22	4821.50
435.41	4908.10
435.59	4880.02
435.78	4950.23
435.97	4971.30
436.16	4870.65
436.34	4999.38
436.53	4990.02
436.72	5163.22
436.90	5163.22
437.09	5006.41
437.28	5041.51
437.46	5111.73
437.65	5083.64
437.84	4964.28
438.02	5036.83
438.21	5069.60
438.40	4898.74
438.58	5221.74
438.77	5198.33
438.96	5261.52
439.14	5444.09
439.33	5416.00
439.52	5474.51
439.70	5507.28
439.89	5516.64
440.08	5481.53
440.26	5722.61
440.45	5521.32
440.63	5673.46
440.82	5706.23
441.01	5776.44
441.19	5851.34
441.38	5973.05
441.57	5937.94
441.75	5994.11
441.94	6190.72
442.12	6209.44
442.31	6258.59
442.50	6150.93
442.68	6003.47
442.87	6111.14
443.05	6265.61
443.24	6164.97
443.43	6122.84
443.61	6134.54
443.80	6403.71
443.98	6143.91
444.17	6097.10
444.35	6305.40
444.54	6293.70
444.73	6415.41
444.91	6310.08
445.10	6232.85
445.28	6403.71
445.47	6164.97
445.65	6160.29
445.84	6427.11
446.02	6373.28
446.21	6408.39
446.39	6464.56
446.58	6628.40
446.77	6314.77
446.95	6370.94
447.14	6558.18
447.32	6663.51
447.51	6586.27
447.69	6356.90
447.88	6572.22
448.06	6562.86
448.25	6572.22
448.43	6633.08
448.62	6544.14
448.80	6560.52
448.99	6583.93
449.17	6803.94
449.36	6705.63
449.54	6850.75
449.73	6792.23
449.91	6993.52
450.10	6916.28
450.28	6906.92
450.46	6944.37
450.65	7110.55
450.83	7063.74
451.02	7178.42
451.20	7096.50
451.39	7220.55
451.57	7119.91
451.76	7007.56
451.94	7045.01
452.13	7040.33
452.31	7133.95
452.49	6890.54
452.68	7082.46
452.86	7070.76
453.05	7136.29
453.23	7358.64
453.42	7040.33
453.60	7197.15
453.78	7389.07
453.97	7042.67
454.15	7201.83
454.34	7066.08
454.52	7356.30
454.70	7288.43
454.89	7379.71
455.07	7243.96
455.26	7370.35
455.44	7344.60
455.62	7375.03
455.81	7606.74
455.99	7590.36
456.17	7442.90
456.36	7478.01
456.54	7749.51
456.73	7737.81
456.91	8098.25
457.09	7784.62
457.28	8065.49
457.46	7709.72
457.64	7927.39
457.83	7805.69
458.01	7723.77
458.19	8070.17
458.38	8025.70
458.56	7978.89
458.74	8056.12
458.93	8084.21
459.11	8156.77
459.29	8077.19
459.48	8180.17
459.66	8196.56
459.84	8222.30
460.03	8276.13
460.21	8252.73
460.39	8159.11
460.57	8439.97
460.76	8198.90
460.94	8498.49
461.12	8484.44
461.31	8344.01
461.49	8505.51
461.67	8383.80
461.85	8587.43
462.04	8334.65
462.22	8896.38
462.40	8774.67
462.59	8472.74
462.77	8662.32
462.95	8791.05
463.13	8538.27
463.32	8636.58
463.50	8957.23
463.68	8854.25
463.86	8725.52
464.05	8482.10
464.23	8723.18
464.41	9020.42
464.59	8645.94
464.78	8875.31
464.96	9034.47
465.14	8692.75
465.32	8875.31
465.50	9100.00
465.69	9018.08
465.87	9020.42
466.05	8978.30
466.23	8929.14
466.41	9081.28
466.60	9193.62
466.78	8903.40
466.96	9053.19
467.14	9069.58
467.32	9020.42
467.51	9198.31
467.69	9078.94
467.87	9205.33
468.05	9256.82
468.23	9149.15
468.41	9076.60
468.60	9380.87
468.78	9280.22
468.96	9020.42
469.14	9596.20
469.32	9617.26
469.50	9345.76
469.69	9518.96
469.87	9554.07
470.05	9547.05
470.23	9626.62
470.41	9654.71
470.59	9715.56
470.77	9572.79
470.95	9738.97
471.14	9895.78
471.32	9764.72
471.50	10092.39
471.68	9991.75
471.86	10333.47
472.04	9980.04
472.22	10162.61
472.40	10017.49
472.58	10169.63
472.77	10225.80
472.95	10384.96
473.13	10775.83
473.31	10207.08
473.49	10331.12
473.67	10520.71
473.85	10443.47
474.03	10668.16
474.21	10743.06
474.39	10693.91
474.57	10764.12
474.75	10846.04
474.93	11042.65
475.12	10857.75
475.30	11213.51
475.48	11009.88
475.66	11176.06
475.84	10934.98
476.02	11173.72
476.20	11297.77
476.38	11342.24
476.56	11515.44
476.74	11527.14
476.92	11442.88
477.10	11637.14
477.28	11719.06
477.46	11861.84
477.64	11978.86
477.82	12219.94
478.00	12355.69
478.18	12212.92
478.36	12135.68
478.54	12446.97
478.72	12334.62
478.90	12634.21
479.08	12723.15
479.26	12919.76
479.44	12872.95
479.62	12786.35
479.80	13118.70
479.98	12940.82
480.16	13446.38
480.34	13273.18
480.52	13603.19
480.70	13472.12
480.88	13165.51
481.06	13722.56
481.24	13720.22
481.41	13778.73
481.59	14303.01
481.77	14136.84
481.95	14050.24
482.13	14097.05
482.31	14181.31
482.49	14712.61
482.67	14441.11
482.85	14562.81
483.03	14647.07
483.21	14902.19
483.39	14930.28
483.57	15176.03
483.74	15154.97
483.92	15349.23
484.10	15222.84
484.28	15651.16
484.46	15679.25
484.64	16053.73
484.82	15953.09
485.00	15756.49
485.18	15962.45
485.35	16074.80
485.53	15981.18
485.71	16035.01
485.89	16166.08
486.07	16145.02
486.25	16458.65
486.43	16563.97
486.61	16688.02
486.78	16952.50
486.96	16966.54
487.14	17427.63
487.32	17542.32
487.50	17647.64
487.68	17905.10
487.85	18384.91
488.03	18366.18
488.21	18347.46
488.39	18207.03
488.57	18260.86
488.75	18405.97
488.92	18665.77
489.10	19112.81
489.28	19019.19
489.46	19204.10
489.64	19183.03
489.81	19573.90
489.99	19751.78
490.17	19819.66
490.35	20093.50
490.53	20009.24
490.70	19976.47
490.88	20327.55
491.06	20322.87
491.24	20402.45
491.41	20608.42
491.59	20423.51
491.77	20208.19
491.95	20870.56
492.13	21076.52
492.30	21462.71
492.48	21177.17
492.66	21586.76
492.84	21385.47
493.01	21748.26
493.19	21516.54
493.37	21881.67
493.54	22061.89
493.72	22258.49
493.90	22302.96
494.08	22183.60
494.25	22539.36
494.43	22569.79
494.61	22986.40
494.79	22824.90
494.96	23056.62
495.14	22906.82
495.32	23145.56
495.49	23349.18
495.67	23190.03
495.85	23452.17
496.02	23569.19
496.20	24109.86
496.38	23665.16
496.55	23976.45
496.73	24615.41
496.91	24474.98
497.09	24624.78
497.26	24882.24
497.44	24357.96
497.62	24627.12
497.79	25172.46
497.97	24617.75
498.14	25331.62
498.32	25270.76
498.50	25270.76
498.67	25701.42
498.85	25507.16
499.03	25635.89
499.20	25958.88
499.38	25888.67
499.56	25837.17
499.73	25902.71
499.91	26050.16
500.08	26239.75
500.26	25937.82
500.44	26448.05
500.61	26260.81
500.79	26412.95
500.97	26464.44
501.14	26946.59
501.32	27115.11
501.49	26590.83
501.67	26969.99
501.84	27159.58
502.02	26925.52
502.20	27669.81
502.37	27473.21
502.55	27482.57
502.72	27557.47
502.90	27920.25
503.07	27559.81
503.25	27714.28
503.43	27674.49
503.60	28201.11
503.78	27906.21
503.95	27597.26
504.13	28067.70
504.30	28353.25
504.48	28266.65
504.65	28582.62
504.83	28514.75
505.01	28643.48
505.18	28725.39
505.36	29338.62
505.53	29015.62
505.71	29453.30
505.88	28957.11
506.06	28884.55
506.23	29156.05
506.41	28994.56
506.58	29160.73
506.76	29544.58
506.93	29685.01
507.11	29827.79
507.28	30113.33
507.46	29745.87
507.63	29411.17
507.81	29780.98
507.98	29593.73
508.16	30068.86
508.33	29872.26
508.50	30494.84
508.68	30228.02
508.85	30604.84
509.03	30380.15
509.20	30745.28
509.38	30895.07
509.55	30628.25
509.73	30888.05
509.90	30691.44
510.08	30944.22
510.25	30654.00
510.42	30988.69
510.60	31426.37
510.77	31264.88
510.95	31655.75
511.12	31395.95
511.30	31339.77
511.47	31646.38
511.64	31976.40
511.82	32053.64
511.99	31428.71
512.17	31950.65
512.34	31725.96
512.51	32322.80
512.69	32084.06
512.86	32158.96
513.04	32596.64
513.21	32437.48
513.38	32453.87
513.56	32573.24
513.73	32081.72
513.90	32297.05
514.08	32575.58
514.25	32868.14
514.43	32966.45
514.60	32732.39
514.77	32893.89
514.95	33280.08
515.12	33095.18
515.29	33181.77
515.47	33418.17
515.64	33701.37
515.81	33294.12
515.99	33366.68
516.16	33329.23
516.33	33343.27
516.51	33385.40
516.68	32914.95
516.85	32692.60
517.03	33151.35
517.20	33881.60
517.37	33832.44
517.54	34223.31
517.72	34225.65
517.89	33626.48
518.06	33773.93
518.24	33979.90
518.41	34220.97
518.58	34239.70
518.75	34270.12
518.93	34391.83
519.10	34672.70
519.27	34653.97
519.45	34759.30
519.62	34845.90
519.79	35248.47
519.96	35086.97
520.14	35213.36
520.31	34937.18
520.48	35248.47
520.65	35218.04
520.83	35545.72
521.00	35489.54
521.17	35220.38
521.34	35468.48
521.52	35779.77
521.69	35842.96
521.86	35983.40
522.03	35777.43
522.20	35784.45
522.38	36290.01
522.55	36306.39
522.72	36105.10
522.89	35983.40
523.07	36484.27
523.24	36229.15
523.41	36495.97
523.58	36198.73
523.75	37020.25
523.92	36840.03
524.10	36943.02
524.27	37027.28
524.44	36540.44
524.61	37305.80
524.78	36800.24
524.96	37364.31
525.13	37240.26
525.30	37516.45
525.47	37837.10
525.64	37336.23
525.81	37420.48
525.98	37060.04
526.16	37113.87
526.33	36861.10
526.50	37408.78
526.67	37191.11
526.84	37193.45
527.01	36924.29
527.18	37874.55
527.36	37787.95
527.53	37600.71
527.70	38064.13
527.87	38199.88
528.04	38078.18
528.21	38139.03
528.38	37975.19
528.55	38045.41
528.72	38775.66
528.89	38604.80
529.07	38246.69
529.24	38389.47
529.41	38766.29
529.58	38272.44
529.75	38422.23
529.92	38649.27
530.09	38520.54
530.26	38976.94
530.43	38677.35
530.60	38763.95
530.77	38859.91
530.94	39138.44
531.11	38880.98
531.28	39063.54
531.46	38998.01
531.63	39381.85
531.80	39321.00
531.97	38960.56
532.14	39225.04
532.31	38614.16
532.48	39260.15
532.65	39269.51
532.82	39405.26
532.99	39461.43
533.16	39398.24
533.33	39529.31
533.50	40236.15
533.67	39531.65
533.84	39744.64
534.01	39590.16
534.18	39828.90
534.35	40175.30
534.52	39791.45
534.69	39744.64
534.86	40353.18
535.03	39892.09
535.20	40285.30
535.37	40271.26
535.54	40921.93
535.71	40463.18
535.88	40711.28
536.05	40479.57
536.22	40212.74
536.38	40669.15
536.55	40414.03
536.72	40739.36
536.89	39964.65
537.06	40552.12
537.23	40854.05
537.40	40760.43
537.57	40451.48
537.74	40697.24
537.91	40964.06
538.08	40945.33
538.25	40896.18
538.42	40861.07
538.59	41317.48
538.75	40896.18
538.92	41181.73
539.09	41043.63
539.26	40870.43
539.43	41282.37
539.60	41013.21
539.77	40968.74
539.94	41340.88
540.11	41434.50
540.28	40856.39
540.44	41191.09
540.61	41546.85
540.78	41153.64
540.95	41502.38
541.12	41397.06
541.29	41160.66
541.46	41261.30
541.62	41883.89
541.79	42192.84
541.96	41570.25
542.13	41340.88
542.30	41750.48
542.47	41771.54
542.63	41528.13
542.80	41801.97
542.97	42443.27
543.14	42321.57
543.31	42031.34
543.48	42459.66
543.64	43138.41
543.81	42564.98
543.98	42501.79
544.15	42227.95
544.32	42483.06
544.48	42836.48
544.65	42997.98
544.82	42845.85
544.99	42721.80
545.16	42740.52
545.32	42548.60
545.49	42965.21
545.66	42803.72
545.83	42930.11
546.00	43269.48
546.16	43147.78
546.33	42927.77
546.50	42506.47
546.67	42721.80
546.83	42279.44
547.00	43065.86
547.17	42562.64
547.34	42969.90
547.50	42955.85
547.67	43419.28
547.84	43428.64
548.00	43351.40
548.17	43084.58
548.34	43187.56
548.51	43470.77
548.67	43859.30
548.84	43402.89
549.01	43433.32
549.18	43470.77
549.34	43257.78
549.51	43636.95
549.68	43838.23
549.84	43831.21
550.01	43700.14
550.18	43800.79
550.34	43674.40
550.51	43442.68
550.68	43480.13
550.84	43423.96
551.01	43892.07
551.18	43772.70
551.34	44055.90
551.51	43966.96
551.68	44002.07
551.84	44336.77
552.01	43938.88
552.18	44177.61
552.34	43908.45
552.51	43768.02
552.68	44378.90
552.84	44378.90
553.01	44514.65
553.18	44238.47
553.34	44081.65
553.51	44072.29
553.67	44147.18
553.84	44666.78
554.01	44285.28
554.17	44793.17
554.34	44818.92
554.51	44608.27
554.67	44659.76
554.84	44336.77
555.00	44720.62
555.17	44638.70
555.33	44737.00
555.50	44294.64
555.67	44790.83
555.83	44355.49
556.00	44680.83
556.16	44875.09
556.33	44746.36
556.50	44041.86
556.66	45045.95
556.83	44453.79
556.99	45219.15
557.16	44823.60
557.32	45036.59
557.49	45031.91
557.65	45013.18
557.82	44636.36
557.98	44816.58
558.15	44830.62
558.32	44889.13
558.48	45088.08
558.65	45209.79
558.81	44832.96
558.98	44947.65
559.14	44919.56
559.31	44949.99
559.47	44746.36
559.64	45373.63
559.80	45404.05
559.97	45106.80
560.13	45031.91
560.30	44858.71
560.46	45415.76
560.63	45235.53
560.79	45170.00
560.96	45415.76
561.12	45621.72
561.29	45315.11
561.45	45200.43
561.61	45390.01
561.78	45418.10
561.94	45064.67
562.11	45228.51
562.27	44982.76
562.44	45223.83
562.60	45823.01
562.77	45270.64
562.93	45382.99
563.10	45846.41
563.26	45172.34
563.42	45500.01
563.59	45244.90
563.75	46209.20
563.92	45401.71
564.08	45771.52
564.24	45488.31
564.41	45352.56
564.57	45612.36
564.74	45834.71
564.90	45680.24
565.07	45736.41
565.23	45343.20
565.39	45633.42
565.56	45713.00
565.72	45399.37
565.88	45570.23
566.05	45553.85
566.21	45546.82
566.38	45504.70
566.54	45605.34
566.70	46113.23
566.87	45612.36
567.03	45155.96
567.19	46380.06
567.36	45565.55
567.52	45579.59
567.68	46117.92
567.85	45834.71
568.01	45834.71
568.17	45057.65
568.34	45911.95
568.50	45888.54
568.66	46391.76
568.83	46174.09
568.99	45401.71
569.15	45691.94
569.32	45937.69
569.48	45502.35
569.64	45954.08
569.81	45677.90
569.97	45652.15
570.13	45677.90
570.30	45591.30
570.46	45397.03
570.62	45586.61
570.78	45464.91
570.95	45778.54
571.11	46239.62
571.27	45425.12
571.43	46054.72
571.60	45993.87
571.76	45413.41
571.92	45794.92
572.09	46199.83
572.25	45783.22
572.41	45858.12
572.57	46040.68
572.74	46410.48
572.90	46260.69
573.06	45933.01
573.22	45544.48
573.38	46335.59
573.55	45478.95
573.71	46026.63
573.87	45977.48
574.03	45764.49
574.20	45907.27
574.36	45556.19
574.52	46202.18
574.68	46314.52
574.84	46459.63
575.01	45982.16
575.17	45874.50
575.33	45654.49
575.49	45837.05
575.65	46529.85
575.82	46230.26
575.98	45865.14
576.14	46387.08
576.30	46043.02
576.46	46295.80
576.62	45865.14
576.79	45956.42
576.95	45741.09
577.11	46153.02
577.27	45923.65
577.43	45963.44
577.59	45799.60
577.75	46431.55
577.92	45673.21
578.08	45996.21
578.24	45804.28
578.40	46073.45
578.56	46366.01
578.72	46115.58
578.88	46639.86
579.04	46150.68
579.21	45846.41
579.37	45736.41
579.53	46110.89
579.69	45694.28
579.85	45808.96
580.01	46302.82
580.17	46141.32
580.33	46358.99
580.49	46127.28
580.65	45879.18
580.82	45902.59
580.98	45876.84
581.14	46209.20
581.30	46387.08
581.46	45801.94
581.62	45979.82
581.78	46356.65
581.94	46553.26
582.10	45846.41
582.26	46115.58
582.42	46036.00
582.58	45897.91
582.74	46024.29
582.90	45996.21
583.06	46085.15
583.22	46244.30
583.38	46536.87
583.54	46459.63
583.70	46281.75
583.86	46021.95
584.02	46286.43
584.18	46686.67
584.34	46300.48
584.50	46120.26
584.66	46536.87
584.82	46176.43
584.98	46347.29
585.14	46057.06
585.30	46110.89
585.46	46302.82
585.62	46047.70
585.78	46050.04
585.94	45680.24
586.10	46436.23
586.26	46206.86
586.42	46672.62
586.58	46089.83
586.74	46057.06
586.90	46071.10
587.06	45897.91
587.22	46082.81
587.38	45921.31
587.54	46295.80
587.70	46567.30
587.86	46335.59
588.02	46363.67
588.18	46597.73
588.34	46272.39
588.49	46031.32
588.65	46085.15
588.81	46181.11
588.97	46096.85
589.13	45698.96
589.29	45991.53
589.45	45991.53
589.61	46204.52
589.77	46277.07
589.93	46274.73
590.08	46543.89
