SpectraSuite Data File
++++++++++++++++++++++++++++++++++++
Date: Fri Oct 25 11:26:22 EDT 2013
User: price-jones
Dark Spectrum Present: No
Reference Spectrum Present: No
Number of Sampled Component Spectra: 1
Spectrometers: USB2+H05261
Integration Time (usec): 100000 (USB2+H05261)
Spectra Averaged: 1 (USB2+H05261)
Boxcar Smoothing: 0 (USB2+H05261)
Correct for Electrical Dark: No (USB2+H05261)
Strobe/Lamp Enabled: No (USB2+H05261)
Correct for Detector Non-linearity: No (USB2+H05261)
Correct for Stray Light: No (USB2+H05261)
Number of Pixels in Processed Spectrum: 2048
>>>>>Begin Processed Spectral Data<<<<<
365.73	280.86
365.92	280.86
366.12	280.86
366.32	231.71
366.52	121.71
366.72	95.96
366.91	102.98
367.11	154.48
367.31	112.35
367.51	124.05
367.70	156.82
367.90	142.77
368.10	119.37
368.30	142.77
368.49	117.03
368.69	166.18
368.89	163.84
369.09	255.12
369.28	187.24
369.48	198.95
369.68	198.95
369.87	205.97
370.07	198.95
370.27	255.12
370.47	351.08
370.66	599.18
370.86	655.35
371.06	683.44
371.25	667.05
371.45	643.65
371.65	713.86
371.84	645.99
372.04	692.80
372.24	753.65
372.44	727.91
372.63	737.27
372.83	732.59
373.03	760.67
373.22	727.91
373.42	727.91
373.62	704.50
373.81	844.93
374.01	802.80
374.21	821.53
374.40	809.83
374.60	777.06
374.79	739.61
374.99	840.25
375.19	882.38
375.38	830.89
375.58	889.40
375.78	849.61
375.97	866.00
376.17	961.96
376.37	884.72
376.56	842.59
376.76	903.45
376.95	842.59
377.15	961.96
377.35	823.87
377.54	915.15
377.74	959.62
377.93	851.96
378.13	947.92
378.33	905.79
378.52	973.66
378.72	908.13
378.91	938.55
379.11	896.43
379.31	887.06
379.50	952.60
379.70	940.90
379.89	966.64
380.09	1027.50
380.28	999.41
380.48	971.32
380.68	947.92
380.87	1039.20
381.07	987.71
381.26	1053.24
381.46	1034.52
381.65	1029.84
381.85	992.39
382.04	1057.92
382.24	1064.94
382.43	1027.50
382.63	985.37
382.83	1062.60
383.02	1125.80
383.22	1013.45
383.41	1100.05
383.61	1088.35
383.80	1165.59
384.00	1086.01
384.19	1086.01
384.39	1151.54
384.58	1139.84
384.78	1149.20
384.97	1107.07
385.17	1121.12
385.36	1247.51
385.56	1191.33
385.75	1277.93
385.95	1118.78
386.14	1167.93
386.34	1160.91
386.53	1146.86
386.72	1144.52
386.92	1107.07
387.11	1179.63
387.31	1217.08
387.50	1235.80
387.70	1273.25
387.89	1291.98
388.09	1263.89
388.28	1254.53
388.48	1268.57
388.67	1357.51
388.86	1348.15
389.06	1259.21
389.25	1373.89
389.45	1364.53
389.64	1383.26
389.84	1383.26
390.03	1362.19
390.22	1387.94
390.42	1320.06
390.61	1460.49
390.81	1362.19
391.00	1416.02
391.19	1441.77
391.39	1460.49
391.58	1387.94
391.78	1476.88
391.97	1504.96
392.16	1451.13
392.36	1502.62
392.55	1579.86
392.75	1509.65
392.94	1507.30
393.13	1659.44
393.33	1526.03
393.52	1619.65
393.71	1540.07
393.91	1605.61
394.10	1542.41
394.29	1610.29
394.49	1699.23
394.68	1619.65
394.88	1640.72
395.07	1586.88
395.26	1624.33
395.46	1680.50
395.65	1720.29
395.84	1727.32
396.04	1680.50
396.23	1706.25
396.42	1743.70
396.62	1809.23
396.81	1830.30
397.00	1736.68
397.19	1722.63
397.39	1802.21
397.58	1755.40
397.77	1813.92
397.97	1830.30
398.16	1806.89
398.35	1926.26
398.55	1846.68
398.74	1823.28
398.93	1898.17
399.12	1952.01
399.32	1863.07
399.51	1952.01
399.70	2045.63
399.90	1977.75
400.09	2136.91
400.28	1952.01
400.47	1987.11
400.67	2141.59
400.86	2047.97
401.05	2052.65
401.24	2064.35
401.44	2097.12
401.63	2101.80
401.82	2050.31
402.01	2120.53
402.21	2094.78
402.40	2150.95
402.59	2155.63
402.78	2209.47
402.97	2298.41
403.17	2293.72
403.36	2188.40
403.55	2401.39
403.74	2403.73
403.93	2305.43
404.13	2300.75
404.32	2312.45
404.51	2385.01
404.70	2448.20
404.89	2347.56
405.09	2476.29
405.28	2469.27
405.47	2452.88
405.66	2513.74
405.85	2483.31
406.05	2523.10
406.24	2586.29
406.43	2616.72
406.62	2626.08
406.81	2670.55
407.00	2586.29
407.20	2553.52
407.39	2579.27
407.58	2649.49
407.77	2698.64
407.96	2724.38
408.15	2705.66
408.34	2647.15
408.54	2757.15
408.73	2818.00
408.92	2677.57
409.11	2857.79
409.30	2923.33
409.49	2839.07
409.68	2944.39
409.87	3040.36
410.07	2928.01
410.26	3112.91
410.45	2942.05
410.64	3007.59
410.83	3103.55
411.02	3082.49
411.21	3176.11
411.40	3007.59
411.59	3169.09
411.78	3265.05
411.98	3136.32
412.17	3353.99
412.36	3307.18
412.55	3330.58
412.74	3330.58
412.93	3391.44
413.12	3211.22
413.31	3400.80
413.50	3428.88
413.69	3588.04
413.88	3461.65
414.07	3543.57
414.26	3581.02
414.45	3653.58
414.64	3667.62
414.83	3747.20
415.02	3765.92
415.22	3899.33
415.41	3836.14
415.60	3796.35
415.79	3892.31
415.98	3908.69
416.17	3836.14
416.36	3918.06
416.55	3932.10
416.74	4121.68
416.93	4133.39
417.12	4053.81
417.31	4058.49
417.50	4194.24
417.69	4264.46
417.88	4208.28
418.07	4217.65
418.26	4290.20
418.45	4386.16
418.64	4535.96
418.83	4238.71
419.02	4468.08
419.21	4620.22
419.39	4465.74
419.58	4479.79
419.77	4397.87
419.96	4484.47
420.15	4538.30
420.34	4620.22
420.53	4468.08
420.72	4627.24
420.91	4744.27
421.10	4624.90
421.29	4844.91
421.48	4662.35
421.67	4631.92
421.86	4781.71
422.05	4837.89
422.24	4702.14
422.43	4870.65
422.61	4840.23
422.80	4861.29
422.99	5025.13
423.18	4901.08
423.37	4987.68
423.56	4844.91
423.75	4924.49
423.94	4793.42
424.13	4589.79
424.32	4613.20
424.50	5076.62
424.69	5018.11
424.88	5060.24
425.07	4868.31
425.26	4894.06
425.45	4954.91
425.64	4915.12
425.83	4987.68
426.01	4865.97
426.20	4931.51
426.39	5039.17
426.58	4943.21
426.77	4943.21
426.96	5013.43
427.15	4999.38
427.33	5212.37
427.52	5114.07
427.71	5156.20
427.90	5284.93
428.09	5392.59
428.28	5247.48
428.46	5224.08
428.65	5210.03
428.84	5343.44
429.03	5423.02
429.22	5364.51
429.40	5338.76
429.59	5397.28
429.78	5184.29
429.97	5198.33
430.16	5453.45
430.34	5572.82
430.53	5439.40
430.72	5687.50
430.91	5558.77
431.10	5598.56
431.28	5706.23
431.47	5816.23
431.66	5734.31
431.85	5750.70
432.03	5774.10
432.22	5996.45
432.41	5797.51
432.60	5706.23
432.79	5930.92
432.97	5935.60
433.16	5895.81
433.35	6129.86
433.54	6085.39
433.72	6010.50
433.91	5977.73
434.10	6186.04
434.28	6036.24
434.47	6092.41
434.66	6157.95
434.85	6106.46
435.03	6286.68
435.22	6085.39
435.41	6583.93
435.59	6157.95
435.78	6347.53
435.97	6506.69
436.16	6331.15
436.34	6370.94
436.53	6387.32
436.72	6511.37
436.90	6525.41
437.09	6595.63
437.28	6312.42
437.46	6471.58
437.65	6551.16
437.84	6520.73
438.02	6523.07
438.21	6595.63
438.40	6647.12
438.58	6930.33
438.77	6930.33
438.96	6897.56
439.14	7096.50
439.33	7019.27
439.52	7222.89
439.70	7082.46
439.89	7393.75
440.08	7276.73
440.26	7211.19
440.45	7332.90
440.63	7377.37
440.82	7522.48
441.01	7482.69
441.19	7529.50
441.38	7609.08
441.57	7758.88
441.75	7833.77
441.94	7927.39
442.12	7901.65
442.31	7885.26
442.50	8152.09
442.68	7871.22
442.87	8086.55
443.05	7953.14
443.24	8229.32
443.43	8116.98
443.61	8231.66
443.80	8407.20
443.98	8135.70
444.17	7864.20
444.35	8217.62
444.54	8145.06
444.73	8250.39
444.91	8327.63
445.10	8334.65
445.28	8393.16
445.47	8269.11
445.65	8234.00
445.84	8484.44
446.02	8388.48
446.21	8248.05
446.39	8416.57
446.58	8219.96
446.77	8311.24
446.95	8231.66
447.14	8552.32
447.32	8587.43
447.51	8444.65
447.69	8292.52
447.88	8425.93
448.06	8294.86
448.25	8554.66
448.43	8372.10
448.62	8496.14
448.80	8575.72
448.99	8573.38
449.17	8610.83
449.36	8458.70
449.54	8945.53
449.73	8847.22
449.91	8802.75
450.10	8741.90
450.28	8971.27
450.46	9076.60
450.65	8936.17
450.83	9074.26
451.02	8961.91
451.20	9085.96
451.39	9207.67
451.57	8985.32
451.76	9156.18
451.94	9193.62
452.13	9071.92
452.31	9289.59
452.49	9156.18
452.68	9310.65
452.86	9177.24
453.05	9415.98
453.23	9497.89
453.42	9179.58
453.60	9186.60
453.78	9483.85
453.97	9394.91
454.15	9430.02
454.34	9336.40
454.52	9504.92
454.70	9537.68
454.89	9708.54
455.07	9706.20
455.26	9678.12
455.44	9774.08
455.62	9813.87
455.81	9626.62
455.99	9973.02
456.17	9949.62
456.36	10043.24
456.54	10176.65
456.73	10141.54
456.91	10253.89
457.09	10260.91
457.28	10614.33
457.46	10139.20
457.64	10450.49
457.83	10558.16
458.01	10267.93
458.19	10574.54
458.38	10602.63
458.56	10691.57
458.74	10696.25
458.93	10686.89
459.11	10429.43
459.29	10628.37
459.48	10766.46
459.66	10710.29
459.84	10729.02
460.03	11026.26
460.21	10944.34
460.39	11105.84
460.57	10799.23
460.76	11187.76
460.94	10939.66
461.12	11173.72
461.31	10836.68
461.49	11023.92
461.67	10878.81
461.85	11225.21
462.04	11159.67
462.22	11573.95
462.40	11777.58
462.59	11435.86
462.77	11438.20
462.95	11379.68
463.13	11690.98
463.32	11648.85
463.50	11749.49
463.68	11749.49
463.86	11651.19
464.05	11768.21
464.23	11595.01
464.41	11995.25
464.59	11573.95
464.78	12077.16
464.96	11969.50
465.14	11758.85
465.32	11988.22
465.50	12088.87
465.69	12140.36
465.87	12023.33
466.05	12023.33
466.23	12112.27
466.41	12145.04
466.60	12592.08
466.78	12105.25
466.96	12123.98
467.14	12442.29
467.32	12154.40
467.51	12461.01
467.69	12065.46
467.87	12367.39
468.05	12669.32
468.23	12255.04
468.41	12451.65
468.60	12514.84
468.78	12449.31
468.96	12472.71
469.14	12627.19
469.32	12959.55
469.50	12374.41
469.69	12664.64
469.87	12933.80
470.05	12912.74
470.23	12957.21
470.41	12959.55
470.59	13048.49
470.77	13097.64
470.95	13277.86
471.14	13432.33
471.32	12821.45
471.50	13385.52
471.68	13577.45
471.86	13397.23
472.04	13387.86
472.22	13874.70
472.40	13607.87
472.58	13640.64
472.77	13888.74
472.95	14167.26
473.13	14750.06
473.31	13982.36
473.49	14129.81
473.67	14097.05
473.85	14363.87
474.03	14623.67
474.21	14209.39
474.39	14820.27
474.57	14551.11
474.75	14551.11
474.93	14747.72
475.12	14780.48
475.30	15005.17
475.48	14810.91
475.66	15119.86
475.84	15037.94
476.02	15274.34
476.20	15321.15
476.38	15559.88
476.56	16030.33
476.74	15943.73
476.92	15702.65
477.10	15843.09
477.28	16051.39
477.46	16315.87
477.64	16072.46
477.82	16592.06
478.00	16655.25
478.18	16451.63
478.36	16601.42
478.54	16868.24
478.72	17046.12
478.90	17331.67
479.08	17296.56
479.26	17568.06
479.44	17722.54
479.62	17514.23
479.80	17919.14
479.98	18171.92
480.16	18188.30
480.34	18115.75
480.52	18291.29
480.70	18593.22
480.88	18277.24
481.06	18459.81
481.24	18693.86
481.41	19257.93
481.59	18923.23
481.77	19213.46
481.95	19248.57
482.13	19524.75
482.31	19419.42
482.49	20107.54
482.67	20168.40
482.85	20315.85
483.03	20381.38
483.21	20451.60
483.39	21088.23
483.57	20755.87
483.74	21207.59
483.92	21001.63
484.10	20964.18
484.28	21326.96
484.46	21731.87
484.64	22141.47
484.82	21996.35
485.00	22363.82
485.18	22750.01
485.35	22698.52
485.53	22918.53
485.71	22904.48
485.89	23501.32
486.07	23276.63
486.25	23175.98
486.43	23372.59
486.61	23529.41
486.78	23697.92
486.96	23939.00
487.14	24304.12
487.32	24474.98
487.50	24723.08
487.68	24788.61
487.85	25022.67
488.03	25191.19
488.21	25675.68
488.39	25348.00
488.57	25642.91
488.75	26352.09
488.92	26089.95
489.10	26515.93
489.28	26366.13
489.46	27094.04
489.64	26857.65
489.81	27211.07
489.99	27358.52
490.17	27548.11
490.35	27964.72
490.53	27995.15
490.70	28400.06
490.88	28081.75
491.06	28421.13
491.24	28367.29
491.41	28718.37
491.59	29319.89
491.77	28912.64
491.95	29500.11
492.13	29469.69
492.30	30089.93
492.48	30008.01
492.66	30146.10
492.84	30038.44
493.01	30155.46
493.19	30443.35
493.37	30593.14
493.54	30661.02
493.72	31168.91
493.90	31173.60
494.08	31599.57
494.25	31548.08
494.43	31508.29
494.61	32034.91
494.79	32044.27
494.96	32266.63
495.14	32147.26
495.32	32973.47
495.49	32673.88
495.67	32748.78
495.85	33249.65
496.02	33745.84
496.20	33965.85
496.38	33996.28
496.55	33916.70
496.73	34794.40
496.91	34330.98
497.09	34572.05
497.26	34850.58
497.44	34817.81
497.62	35452.09
497.79	35524.65
497.97	35615.93
498.14	35452.09
498.32	35725.94
498.50	36088.72
498.67	36205.75
498.85	36065.31
499.03	36451.50
499.20	36357.88
499.38	36900.89
499.56	36411.71
499.73	36701.94
499.91	36811.95
500.08	37886.25
500.26	37085.79
500.44	37237.92
500.61	37631.13
500.79	37560.92
500.97	38115.62
501.14	38359.04
501.32	38211.59
501.49	38244.35
501.67	38330.95
501.84	38349.68
502.02	38508.83
502.20	38824.81
502.37	39002.69
502.55	38862.26
502.72	39122.05
502.90	39234.40
503.07	39688.46
503.25	39433.35
503.43	39484.84
503.60	39943.58
503.78	40030.18
503.95	39934.22
504.13	40163.59
504.30	40367.22
504.48	40601.27
504.65	40215.08
504.83	40847.03
505.01	40999.16
505.18	40739.36
505.36	41287.05
505.53	41127.89
505.71	41488.34
505.88	41406.42
506.06	41036.61
506.23	41504.72
506.41	41713.03
506.58	41619.41
506.76	41996.23
506.93	42263.05
507.11	42213.90
507.28	42190.50
507.46	42321.57
507.63	42508.81
507.81	42637.54
507.98	42389.44
508.16	43140.75
508.33	43423.96
508.50	43297.57
508.68	43576.09
508.85	43625.25
509.03	43196.93
509.20	43517.58
509.38	44212.72
509.55	44463.16
509.73	44201.02
509.90	44261.87
510.08	44289.96
510.25	44154.21
510.42	44325.07
510.60	44512.31
510.77	44491.24
510.95	44811.90
511.12	44924.24
511.30	45097.44
511.47	45350.22
511.64	45205.11
511.82	45670.87
511.99	45223.83
512.17	45656.83
512.34	45303.41
512.51	46164.73
512.69	46052.38
512.86	45907.27
513.04	46251.33
513.21	46410.48
513.38	46316.86
513.56	46869.23
513.73	46513.47
513.90	46616.45
514.08	46574.32
514.25	46864.55
514.43	47435.64
514.60	46937.10
514.77	47246.05
514.95	47863.96
515.12	47274.14
515.29	47136.05
515.47	47735.23
515.64	47608.84
515.81	47447.34
515.99	47543.30
516.16	47966.94
516.33	47927.15
516.51	48334.40
516.68	47943.53
516.85	48236.10
517.03	48243.12
517.20	48545.05
517.37	48753.36
517.54	48624.63
517.72	48568.46
517.89	49081.03
518.06	48907.83
518.24	48863.36
518.41	48949.96
518.58	49305.73
518.75	49116.14
518.93	49404.03
519.10	49024.86
519.27	49724.68
519.45	49331.47
519.62	49457.86
519.79	49867.45
519.96	49638.08
520.14	49830.01
520.31	49759.79
520.48	49848.73
520.65	49820.64
520.83	50454.93
521.00	50543.87
521.17	50555.57
521.34	50536.85
521.52	50908.99
521.69	50623.45
521.86	50803.67
522.03	51145.39
522.20	51145.39
522.38	51114.96
522.55	51107.94
522.72	51016.66
522.89	51007.29
523.07	51447.32
523.24	50894.95
523.41	51316.25
523.58	51011.98
523.75	51735.20
523.92	51545.62
524.10	51545.62
524.27	51709.46
524.44	51821.80
524.61	51852.23
524.78	52067.56
524.96	51859.25
525.13	52018.41
525.30	52151.82
525.47	52495.88
525.64	52287.57
525.81	52341.40
525.98	52287.57
526.16	52245.44
526.33	52598.86
526.50	52633.97
526.67	52559.07
526.84	52793.12
527.01	52554.39
527.18	52725.25
527.36	52769.72
527.53	53034.20
527.70	53373.58
527.87	53120.80
528.04	53036.54
528.21	53404.00
528.38	53226.12
528.55	53279.96
528.72	52889.09
528.89	53373.58
529.07	53336.13
529.24	53371.24
529.41	53595.93
529.58	53481.24
529.75	53315.06
529.92	53296.34
530.09	53567.84
530.26	53642.74
530.43	53811.26
530.60	53546.78
530.77	53607.63
530.94	53829.98
531.11	53525.71
531.28	54145.95
531.46	54099.14
531.63	53989.14
531.80	53682.53
531.97	53827.64
532.14	54019.56
532.31	53942.33
532.48	54445.54
532.65	54309.79
532.82	54155.32
532.99	54635.13
533.16	54309.79
533.33	54705.34
533.50	54693.64
533.67	54794.28
533.84	54377.67
534.01	54773.22
534.18	54703.00
534.35	55061.10
534.52	54817.69
534.69	55021.31
534.86	54915.99
535.03	54848.11
535.20	54962.80
535.37	55140.68
535.54	54990.89
535.71	54955.78
535.88	55215.58
536.05	55180.47
536.22	55161.75
536.38	55360.69
536.55	55388.78
536.72	55243.66
536.89	55021.31
537.06	55543.25
537.23	55569.00
537.40	55332.60
537.57	55798.37
537.74	55681.34
537.91	55784.33
538.08	55903.70
538.25	55416.86
538.42	55669.64
538.59	56175.20
538.75	55643.90
538.92	55856.88
539.09	56102.64
539.26	55730.50
539.43	56189.24
539.60	56130.73
539.77	56135.41
539.94	56100.30
540.11	56203.28
540.28	56053.49
540.44	56219.67
540.61	56119.02
540.78	56130.73
540.95	56200.94
541.12	56378.82
541.29	56245.41
541.46	56355.42
541.62	56299.25
541.79	56626.92
541.96	56299.25
542.13	56353.08
542.30	56341.38
542.47	56753.31
542.63	56502.87
542.80	56622.24
542.97	56973.32
543.14	57090.35
543.31	57020.13
543.48	56832.89
543.64	57296.31
543.81	57242.48
543.98	57160.56
544.15	57132.48
544.32	57212.06
544.48	57406.32
544.65	57179.29
544.82	57331.42
544.99	57223.76
545.16	57352.49
545.32	57153.54
545.49	57497.60
545.66	57771.44
545.83	57249.50
546.00	57698.89
546.16	57464.83
546.33	57457.81
546.50	57212.06
546.67	57537.39
546.83	57219.08
547.00	57539.73
547.17	57532.71
547.34	57649.74
547.50	57829.96
547.67	57895.49
547.84	57778.46
548.00	57733.99
548.17	57769.10
548.34	57855.70
548.51	57921.24
548.67	58052.31
548.84	57733.99
549.01	57961.03
549.18	57998.48
549.34	57822.93
549.51	58045.29
549.68	58045.29
549.84	58461.90
550.01	58150.61
550.18	57893.15
550.34	58363.60
550.51	58251.25
550.68	58117.84
550.84	58115.50
551.01	58298.06
551.18	58358.92
551.34	58267.64
551.51	58431.47
551.68	58508.71
551.84	58494.67
552.01	58082.73
552.18	58398.71
552.34	58337.85
552.51	58602.33
552.68	58424.45
552.84	58494.67
553.01	58913.62
553.18	58459.56
553.34	58702.98
553.51	58489.99
553.67	58691.27
553.84	58791.92
554.01	58644.46
554.17	58693.61
554.34	58773.19
554.51	58852.77
554.67	58979.16
554.84	58862.13
555.00	58717.02
555.17	58686.59
555.33	58777.87
555.50	58838.73
555.67	58969.80
555.83	58869.15
556.00	58728.72
556.16	59168.74
556.33	59100.87
556.50	59241.30
556.66	59175.76
556.83	59000.22
556.99	59276.41
557.16	59583.02
557.32	59222.58
557.49	59482.37
557.65	59091.51
557.82	59348.96
557.98	59138.32
558.15	59161.72
558.32	59517.48
558.48	59096.19
558.65	59433.22
558.81	59309.18
558.98	59274.07
559.14	59290.45
559.31	59215.55
559.47	59437.90
559.64	59470.67
559.80	59611.10
559.97	59449.61
560.13	59540.89
560.30	59379.39
560.46	59536.21
560.63	59650.89
560.79	59683.66
560.96	59629.83
561.12	59625.15
561.29	59627.49
561.45	59587.70
561.61	59643.87
561.78	59583.02
561.94	59566.63
562.11	59683.66
562.27	59777.28
562.44	59770.26
562.60	59824.09
562.77	59714.09
562.93	59723.45
563.10	59875.58
563.26	59796.01
563.42	59903.67
563.59	59852.18
563.75	59758.56
563.92	59826.43
564.08	59966.87
564.24	59966.87
564.41	59894.31
564.57	59971.55
564.74	59906.01
564.90	60072.19
565.07	59908.35
565.23	59994.95
565.39	59842.82
565.56	60102.62
565.72	60121.34
565.88	60151.77
566.05	59999.63
566.21	60116.66
566.38	60067.51
566.54	60079.21
566.70	60086.23
566.87	60259.43
567.03	60020.70
567.19	60067.51
567.36	60221.98
567.52	60095.60
567.68	60378.80
567.85	60133.04
568.01	60285.18
568.17	60217.30
568.34	60151.77
568.50	60299.22
568.66	60058.15
568.83	60245.39
568.99	60163.47
569.15	60135.38
569.32	60163.47
569.48	60114.32
569.64	60437.31
569.81	60207.94
569.97	60182.19
570.13	60369.44
570.30	60210.28
570.46	60329.65
570.62	60282.84
570.78	60252.41
570.95	60168.15
571.11	60523.91
571.27	60254.75
571.43	60353.05
571.60	60549.66
571.76	60434.97
571.92	60629.24
572.09	60327.31
572.25	60573.06
572.41	60273.48
572.57	60514.55
572.74	60441.99
572.90	60418.59
573.06	60397.52
573.22	60411.57
573.38	60544.98
573.55	60388.16
573.71	60774.35
573.87	60470.08
574.03	60423.27
574.20	60523.91
574.36	60395.18
574.52	60364.76
574.68	60463.06
574.84	60736.90
575.01	60654.98
575.17	60554.34
575.33	60463.06
575.49	60369.44
575.65	60605.83
575.82	60479.44
575.98	60530.93
576.14	60711.16
576.30	60640.94
576.46	60416.25
576.62	60552.00
576.79	60554.34
576.95	60577.75
577.11	60568.38
577.27	60509.87
577.43	60662.00
577.59	60636.26
577.75	60650.30
577.92	60645.62
578.08	60514.55
578.24	60577.75
578.40	60896.06
578.56	60680.73
578.72	60694.77
578.88	60706.47
579.04	60900.74
579.21	60559.02
579.37	60804.78
579.53	60889.04
579.69	60654.98
579.85	60645.62
580.01	60603.49
580.17	60411.57
580.33	60772.01
580.49	60821.16
580.65	60743.92
580.82	60760.31
580.98	60622.22
581.14	60821.16
581.30	60776.69
581.46	60624.56
581.62	60605.83
581.78	60772.01
581.94	60800.10
582.10	60629.24
582.26	60594.13
582.42	60617.53
582.58	61118.41
582.74	60867.97
582.90	60870.31
583.06	60802.44
583.22	60650.30
583.38	60809.46
583.54	60664.35
583.70	60781.37
583.86	60898.40
584.02	60743.92
584.18	60994.36
584.34	60779.03
584.50	60776.69
584.66	60760.31
584.82	60664.35
584.98	60842.23
585.14	60680.73
585.30	60507.53
585.46	60898.40
585.62	60867.97
585.78	60886.70
585.94	60732.22
586.10	60900.74
586.26	60870.31
586.42	60938.19
586.58	61006.06
586.74	60912.44
586.90	60870.31
587.06	60783.71
587.22	61020.11
587.38	60804.78
587.54	61003.72
587.70	61078.62
587.86	61050.53
588.02	60935.85
588.18	60985.00
588.34	60863.29
588.49	60910.10
