SpectraSuite Data File
++++++++++++++++++++++++++++++++++++
Date: Fri Oct 25 10:44:19 EDT 2013
User: price-jones
Dark Spectrum Present: No
Reference Spectrum Present: No
Number of Sampled Component Spectra: 1
Spectrometers: USB2+H05261
Integration Time (usec): 100000 (USB2+H05261)
Spectra Averaged: 1 (USB2+H05261)
Boxcar Smoothing: 0 (USB2+H05261)
Correct for Electrical Dark: No (USB2+H05261)
Strobe/Lamp Enabled: No (USB2+H05261)
Correct for Detector Non-linearity: No (USB2+H05261)
Correct for Stray Light: No (USB2+H05261)
Number of Pixels in Processed Spectrum: 2048
>>>>>Begin Processed Spectral Data<<<<<
365.73	147.45
365.92	147.45
366.12	147.45
366.32	70.22
366.52	14.04
366.72	65.54
366.91	58.51
367.11	0.00
367.31	2.34
367.51	0.00
367.70	0.00
367.90	53.83
368.10	63.19
368.30	112.35
368.49	70.22
368.69	65.54
368.89	79.58
369.09	35.11
369.28	65.54
369.48	77.24
369.68	105.32
369.87	23.41
370.07	112.35
370.27	63.19
370.47	241.08
370.66	341.72
370.86	482.15
371.06	418.96
371.25	468.11
371.45	416.62
371.65	465.77
371.84	447.04
372.04	507.90
372.24	491.51
372.44	496.19
372.63	531.30
372.83	505.56
373.03	465.77
373.22	540.66
373.42	535.98
373.62	571.09
373.81	496.19
374.01	559.39
374.21	552.37
374.40	601.52
374.60	526.62
374.79	575.77
374.99	510.24
375.19	543.00
375.38	657.69
375.58	592.16
375.78	622.58
375.97	589.82
376.17	575.77
376.37	662.37
376.56	744.29
376.76	634.29
376.95	624.92
377.15	592.16
377.35	620.24
377.54	709.18
377.74	608.54
377.93	636.63
378.13	634.29
378.33	697.48
378.52	624.92
378.72	627.26
378.91	620.24
379.11	617.90
379.31	603.86
379.50	674.07
379.70	702.16
379.89	690.46
380.09	699.82
380.28	748.97
380.48	795.78
380.68	716.20
380.87	739.61
381.07	713.86
381.26	702.16
381.46	671.73
381.65	746.63
381.85	704.50
382.04	723.23
382.24	681.10
382.43	669.39
382.63	681.10
382.83	798.12
383.02	685.78
383.22	709.18
383.41	725.57
383.61	816.85
383.80	772.38
384.00	723.23
384.19	896.43
384.39	791.10
384.58	854.30
384.78	788.76
384.97	873.02
385.17	744.29
385.36	863.66
385.56	741.95
385.75	777.06
385.95	695.14
386.14	952.60
386.34	826.21
386.53	840.25
386.72	830.89
386.92	894.08
387.11	880.04
387.31	873.02
387.50	840.25
387.70	947.92
387.89	898.77
388.09	1008.77
388.28	929.19
388.48	922.17
388.67	887.06
388.86	1027.50
389.06	1069.62
389.25	973.66
389.45	961.96
389.64	1022.81
389.84	1057.92
390.03	1064.94
390.22	1050.90
390.42	1074.31
390.61	997.07
390.81	1004.09
391.00	1086.01
391.19	1011.11
391.39	1111.75
391.58	1104.73
391.78	1050.90
391.97	1118.78
392.16	1076.65
392.36	1097.71
392.55	1083.67
392.75	987.71
392.94	983.02
393.13	1032.18
393.33	1090.69
393.52	1074.31
393.71	1121.12
393.91	1057.92
394.10	1170.27
394.29	1144.52
394.49	1177.29
394.68	1270.91
394.88	1160.91
395.07	1357.51
395.26	1261.55
395.46	1291.98
395.65	1224.10
395.84	1207.72
396.04	1401.98
396.23	1116.44
396.42	1191.33
396.62	1165.59
396.81	1310.70
397.00	1191.33
397.19	1310.70
397.39	1364.53
397.58	1425.39
397.77	1448.79
397.97	1458.15
398.16	1483.90
398.35	1514.33
398.55	1535.39
398.74	1523.69
398.93	1526.03
399.12	1561.14
399.32	1451.13
399.51	1535.39
399.70	1652.42
399.90	1591.56
400.09	1701.57
400.28	1750.72
400.47	1664.12
400.67	1715.61
400.86	1734.34
401.05	1762.42
401.24	1806.89
401.44	1816.26
401.63	1870.09
401.82	1732.00
402.01	1717.95
402.21	1755.40
402.40	1877.11
402.59	1820.94
402.78	1736.68
402.97	1783.49
403.17	1776.47
403.36	1834.98
403.55	1893.49
403.74	1879.45
403.93	1977.75
404.13	1856.04
404.32	1930.94
404.51	1923.92
404.70	2008.18
404.89	2003.50
405.09	1991.80
405.28	2078.40
405.47	1959.03
405.66	2099.46
405.85	2066.69
406.05	1994.14
406.24	2097.12
406.43	2211.81
406.62	2232.87
406.81	2160.31
407.00	2038.61
407.20	2050.31
407.39	2214.15
407.58	2197.76
407.77	2333.51
407.96	2225.85
408.15	2246.91
408.34	2256.28
408.54	2265.64
408.73	2394.37
408.92	2331.17
409.11	2431.82
409.30	2396.71
409.49	2338.20
409.68	2389.69
409.87	2321.81
410.07	2401.39
410.26	2354.58
410.45	2469.27
410.64	2490.33
410.83	2555.86
411.02	2663.53
411.21	2689.28
411.40	2752.47
411.59	2677.57
411.78	2708.00
411.98	2654.17
412.17	2595.65
412.36	2841.41
412.55	2736.09
412.74	2881.20
412.93	2745.45
413.12	2841.41
413.31	2979.50
413.50	2780.56
413.69	2888.22
413.88	3075.46
414.07	2958.44
414.26	2967.80
414.45	3030.99
414.64	3176.11
414.83	3136.32
415.02	3077.80
415.22	3190.15
415.41	3173.77
415.60	3136.32
415.79	3173.77
415.98	3286.11
416.17	3346.97
416.36	3262.71
416.55	3274.41
416.74	3304.84
416.93	3356.33
417.12	3361.01
417.31	3459.31
417.50	3463.99
417.69	3611.45
417.88	3585.70
418.07	3559.95
418.26	3538.89
418.45	3658.26
418.64	3651.24
418.83	3637.19
419.02	3623.15
419.21	3665.28
419.39	3681.66
419.58	3655.92
419.77	3627.83
419.96	3641.87
420.15	3803.37
420.34	3847.84
420.53	3887.63
420.72	3934.44
420.91	3960.19
421.10	4009.34
421.29	3948.48
421.48	3854.86
421.67	4065.51
421.86	3791.67
422.05	3948.48
422.24	3885.29
422.43	3749.54
422.61	3901.67
422.80	4072.53
422.99	4021.04
423.18	4086.58
423.37	4182.54
423.56	4004.66
423.75	4018.70
423.94	3983.59
424.13	3857.20
424.32	3964.87
424.50	4257.43
424.69	4100.62
424.88	4002.32
425.07	4060.83
425.26	4009.34
425.45	4124.02
425.64	4028.06
425.83	4159.13
426.01	4109.98
426.20	4070.19
426.39	4217.65
426.58	4112.32
426.77	4046.79
426.96	4077.21
427.15	4140.41
427.33	4234.03
427.52	4156.79
427.71	4386.16
427.90	4187.22
428.09	4180.20
428.28	4285.52
428.46	4255.09
428.65	4198.92
428.84	4479.79
429.03	4400.21
429.22	4170.83
429.40	4339.35
429.59	4198.92
429.78	3967.21
429.97	4049.13
430.16	4053.81
430.34	4386.16
430.53	4203.60
430.72	4259.78
430.91	4287.86
431.10	4559.36
431.28	4620.22
431.47	4882.36
431.66	4620.22
431.85	4674.05
432.03	4732.56
432.22	4737.24
432.41	4664.69
432.60	4690.43
432.79	4730.22
432.97	4828.53
433.16	4905.76
433.35	4786.40
433.54	4716.18
433.72	4746.61
433.91	4858.95
434.10	4959.60
434.28	4919.81
434.47	4940.87
434.66	4947.89
434.85	4950.23
435.03	4929.17
435.22	5116.41
435.41	5444.09
435.59	5158.54
435.78	5254.50
435.97	5210.03
436.16	5371.53
436.34	5284.93
436.53	5327.06
436.72	5458.13
436.90	5280.25
437.09	5364.51
437.28	5282.59
437.46	5357.49
437.65	5411.32
437.84	5521.32
438.02	5320.04
438.21	5188.97
438.40	5235.78
438.58	5413.66
438.77	5591.54
438.96	5577.50
439.14	5605.58
439.33	5919.21
439.52	5689.84
439.70	5874.74
439.89	5788.14
440.08	5827.93
440.26	5867.72
440.45	6080.71
440.63	5966.03
440.82	6057.31
441.01	6083.05
441.19	6169.65
441.38	6258.59
441.57	6256.25
441.75	6403.71
441.94	6450.52
442.12	6558.18
442.31	6541.80
442.50	6534.78
442.68	6410.73
442.87	6562.86
443.05	6614.35
443.24	6593.29
443.43	6616.69
443.61	6689.25
443.80	6764.15
443.98	6516.05
444.17	6345.19
444.35	6696.27
444.54	6813.30
444.73	6822.66
444.91	6703.29
445.10	6656.48
445.28	6789.89
445.47	6647.12
445.65	6663.51
445.84	6665.85
446.02	6773.51
446.21	6789.89
446.39	6738.40
446.58	6794.58
446.77	6902.24
446.95	6794.58
447.14	6949.05
447.32	6925.65
447.51	6930.33
447.69	6883.52
447.88	6906.92
448.06	6963.09
448.25	6895.22
448.43	6897.56
448.62	6860.11
448.80	6960.75
448.99	6890.54
449.17	7140.97
449.36	6920.96
449.54	7096.50
449.73	7279.07
449.91	7353.96
450.10	7236.94
450.28	7290.77
450.46	7370.35
450.65	7344.60
450.83	7562.27
451.02	7295.45
451.20	7403.11
451.39	7573.97
451.57	7431.20
451.76	7468.65
451.94	7272.04
452.13	7557.59
452.31	7407.80
452.49	7089.48
452.68	7470.99
452.86	7405.46
453.05	7522.48
453.23	7496.74
453.42	7452.27
453.60	7653.55
453.78	7712.07
453.97	7536.52
454.15	7681.64
454.34	7824.41
454.52	7971.86
454.70	7793.98
454.89	7833.77
455.07	7702.70
455.26	7971.86
455.44	8044.42
455.62	8074.85
455.81	8184.85
455.99	7920.37
456.17	8248.05
456.36	8011.65
456.54	8269.11
456.73	8222.30
456.91	8198.90
457.09	8297.20
457.28	8475.08
457.46	8210.60
457.64	8425.93
457.83	8234.00
458.01	8271.45
458.19	8358.05
458.38	8332.31
458.56	8636.58
458.74	8416.57
458.93	8393.16
459.11	8414.23
459.29	8514.87
459.48	8299.54
459.66	8449.33
459.84	8685.73
460.03	8830.84
460.21	8622.53
460.39	8800.41
460.57	8741.90
460.76	8877.65
460.94	9015.74
461.12	8847.22
461.31	9022.77
461.49	8910.42
461.67	8767.65
461.85	9025.11
462.04	9076.60
462.22	9348.10
462.40	9254.48
462.59	9006.38
462.77	9163.20
462.95	9172.56
463.13	9277.88
463.32	9261.50
463.50	9266.18
463.68	9266.18
463.86	9425.34
464.05	8954.89
464.23	9252.14
464.41	9200.65
464.59	8917.44
464.78	9418.32
464.96	9294.27
465.14	9263.84
465.32	9469.81
465.50	9584.49
465.69	9617.26
465.87	9380.87
466.05	9430.02
466.23	9441.72
466.41	9444.06
466.60	9816.21
466.78	9540.02
466.96	9511.94
467.14	9514.28
467.32	9811.53
467.51	9767.06
467.69	9755.35
467.87	9605.56
468.05	9790.46
468.23	9638.33
468.41	9497.89
468.60	9888.76
468.78	9961.32
468.96	9914.51
469.14	9984.73
469.32	10171.97
469.50	9565.77
469.69	9844.29
469.87	10080.69
470.05	10059.62
470.23	9956.64
470.41	10008.13
470.59	10225.80
470.77	10209.42
470.95	10190.69
471.14	10232.82
471.32	10244.52
471.50	10829.66
471.68	10455.17
471.86	10492.62
472.04	10768.80
472.22	10841.36
472.40	10693.91
472.58	10752.42
472.77	10530.07
472.95	10764.12
473.13	11267.34
473.31	11077.76
473.49	10799.23
473.67	10927.96
473.85	11007.54
474.03	11173.72
474.21	11147.97
474.39	11524.80
474.57	11267.34
474.75	11461.60
474.93	11639.48
475.12	11445.22
475.30	11604.38
475.48	11428.84
475.66	11538.84
475.84	11611.40
476.02	11887.58
476.20	11939.07
476.38	12030.35
476.56	12212.92
476.74	12006.95
476.92	12042.06
477.10	12241.00
477.28	12233.98
477.46	12423.56
477.64	12800.39
477.82	12870.61
478.00	13041.46
478.18	12989.97
478.36	12791.03
478.54	13020.40
478.72	13008.70
478.90	13121.04
479.08	13472.12
479.26	13750.65
479.44	13593.83
479.62	13696.82
479.80	13614.90
479.98	13717.88
480.16	14010.45
480.34	14017.47
480.52	14141.52
480.70	14370.89
480.88	14064.28
481.06	14417.70
481.24	14389.61
481.41	14576.86
481.59	14895.17
481.77	14623.67
481.95	14796.87
482.13	15016.88
482.31	14909.21
482.49	15468.60
482.67	15281.36
482.85	15468.60
483.03	15531.80
483.21	15625.42
483.39	15681.59
483.57	15707.34
483.74	15737.76
483.92	16065.44
484.10	15798.62
484.28	16042.03
484.46	16428.22
484.64	16730.15
484.82	16276.09
485.00	16858.88
485.18	16762.92
485.35	16840.15
485.53	16533.54
485.71	16659.93
485.89	16989.95
486.07	16926.75
486.25	17104.64
486.43	17268.47
486.61	17521.25
486.78	17837.22
486.96	17767.01
487.14	18300.65
487.32	18001.06
487.50	18473.85
487.68	18630.66
487.85	18679.82
488.03	18853.02
488.21	19150.26
488.39	18998.13
488.57	19161.97
488.75	19365.59
488.92	19852.42
489.10	19576.24
489.28	19924.98
489.46	20051.37
489.64	20093.50
489.81	20505.43
489.99	20610.76
490.17	20566.29
490.35	20954.82
490.53	21123.33
490.70	20814.38
490.88	21200.57
491.06	21680.38
491.24	21383.13
491.41	21329.30
491.59	21436.97
491.77	21259.09
491.95	21624.21
492.13	22260.84
492.30	21678.04
492.48	22249.13
492.66	22640.00
492.84	22544.04
493.01	22782.77
493.19	22672.77
493.37	22810.86
493.54	23108.11
493.72	23082.36
493.90	23454.51
494.08	23639.41
494.25	23728.35
494.43	23810.27
494.61	24151.99
494.79	24154.33
494.96	24032.62
495.14	23896.87
495.32	24472.64
495.49	24294.76
495.67	24315.83
495.85	24645.84
496.02	24835.42
496.20	24694.99
496.38	24950.11
496.55	25394.81
496.73	25872.28
496.91	25479.07
497.09	25631.21
497.26	25825.47
497.44	25940.16
497.62	25645.25
497.79	25764.62
497.97	25832.49
498.14	26174.21
498.32	26047.82
498.50	26181.23
498.67	26785.09
498.85	26801.47
499.03	27063.61
499.20	26918.50
499.38	26625.93
499.56	26810.84
499.73	27080.00
499.91	27147.87
500.08	27246.18
500.26	27112.77
500.44	27161.92
500.61	27388.95
500.79	27026.17
500.97	27332.78
501.14	27908.55
501.32	27538.74
501.49	27405.33
501.67	27852.38
501.84	28229.20
502.02	28353.25
502.20	27967.06
502.37	28510.07
502.55	28018.55
502.72	28664.54
502.90	28940.72
503.07	28725.39
503.25	28837.74
503.43	28793.27
503.60	28634.11
503.78	29046.05
503.95	28797.95
504.13	29076.48
504.30	29373.72
504.48	29713.10
504.65	29331.59
504.83	29916.73
505.01	29968.22
505.18	29696.72
505.36	30185.89
505.53	30134.40
505.71	30134.40
505.88	30555.69
506.06	30258.45
506.23	30333.34
506.41	30375.47
506.58	30431.65
506.76	30518.25
506.93	30504.20
507.11	30651.66
507.28	30504.20
507.46	30930.18
507.63	30656.34
507.81	30834.22
507.98	30740.60
508.16	31087.00
508.33	31058.91
508.50	31398.29
508.68	31538.72
508.85	31988.10
509.03	31625.32
509.20	32067.68
509.38	32023.21
509.55	31826.60
509.73	32011.51
509.90	32018.53
510.08	32173.00
510.25	32084.06
510.42	32189.39
510.60	32694.94
510.77	32769.84
510.95	32713.67
511.12	32460.89
511.30	32790.91
511.47	33031.98
511.64	32847.08
511.82	33612.43
511.99	32540.47
512.17	33373.70
512.34	32861.12
512.51	32989.85
512.69	33617.11
512.86	33329.23
513.04	33596.05
513.21	33394.76
513.38	33589.03
513.56	33638.18
513.73	33427.53
513.90	33645.20
514.08	33621.80
514.25	33652.22
514.43	33933.09
514.60	34338.00
514.77	34047.77
514.95	34450.35
515.12	34012.66
515.29	34225.65
515.47	35026.12
515.64	34969.94
515.81	34244.38
515.99	34588.44
516.16	34782.70
516.33	34660.99
516.51	34405.88
516.68	34110.97
516.85	34080.54
517.03	33895.64
517.20	34377.79
517.37	34693.76
517.54	34892.71
517.72	35002.71
517.89	34387.15
518.06	34864.62
518.24	35028.46
518.41	35388.90
518.58	34686.74
518.75	35400.60
518.93	35828.92
519.10	35536.35
519.27	36161.28
519.45	35950.63
519.62	36154.26
519.79	35988.08
519.96	36465.55
520.14	36404.69
520.31	35775.09
520.48	35871.05
520.65	36299.37
520.83	36657.47
521.00	37223.88
521.17	36105.10
521.34	36821.31
521.52	37172.39
521.69	36734.71
521.86	37404.10
522.03	36891.52
522.20	37060.04
522.38	36919.61
522.55	37226.22
522.72	37406.44
522.89	37146.64
523.07	37469.64
523.24	37294.10
523.41	37565.60
523.58	37523.47
523.75	38031.36
523.92	37820.72
524.10	38139.03
524.27	37876.89
524.44	37900.29
524.61	38213.93
524.78	38010.30
524.96	38019.66
525.13	38565.01
525.30	38181.16
525.47	38536.92
525.64	38586.07
525.81	38560.33
525.98	38335.63
526.16	38223.29
526.33	37809.01
526.50	38211.59
526.67	37982.21
526.84	38251.38
527.01	38178.82
527.18	38759.27
527.36	38761.61
527.53	38693.74
527.70	39220.36
527.87	39454.41
528.04	38682.03
528.21	39358.45
528.38	39555.05
528.55	39629.95
528.72	39744.64
528.89	39524.63
529.07	39517.60
529.24	39257.81
529.41	39210.99
529.58	39438.03
529.75	39847.62
529.92	39412.28
530.09	39873.37
530.26	40238.49
530.43	40240.83
530.60	40198.70
530.77	40179.98
530.94	40437.44
531.11	40002.10
531.28	40521.69
531.46	40685.53
531.63	40222.11
531.80	40184.66
531.97	40098.06
532.14	40119.12
532.31	40133.17
532.48	40112.10
532.65	40612.98
532.82	40034.86
532.99	40573.19
533.16	40622.34
533.33	40816.60
533.50	40840.01
533.67	40882.14
533.84	40722.98
534.01	40685.53
534.18	40641.06
534.35	41390.03
534.52	41125.55
534.69	40903.20
534.86	40868.09
535.03	40905.54
535.20	41633.45
535.37	41603.02
535.54	41820.69
535.71	41816.01
535.88	41420.46
536.05	41467.27
536.22	41830.05
536.38	41771.54
536.55	41689.62
536.72	41392.37
536.89	41549.19
537.06	41462.59
537.23	42103.90
537.40	41748.14
537.57	42155.39
537.74	41551.53
537.91	42330.93
538.08	41975.17
538.25	41766.86
538.42	42265.39
538.59	42075.81
538.75	41670.90
538.92	42548.60
539.09	42141.35
539.26	42064.11
539.43	41916.65
539.60	42258.37
539.77	42340.29
539.94	42340.29
540.11	42298.16
540.28	42506.47
540.44	42396.46
540.61	42522.85
540.78	42131.98
540.95	42143.69
541.12	42199.86
541.29	42593.07
541.46	42574.34
541.62	43152.46
541.79	42405.83
541.96	42241.99
542.13	42508.81
542.30	42363.70
542.47	42646.90
542.63	43208.63
542.80	42649.24
542.97	43650.99
543.14	43302.25
543.31	43620.56
543.48	43658.01
543.64	44027.82
543.81	44013.77
543.98	43786.74
544.15	43463.75
544.32	43349.06
544.48	44121.44
544.65	43875.68
544.82	43896.75
544.99	43735.25
545.16	43957.60
545.32	43650.99
545.49	43901.43
545.66	43957.60
545.83	44229.10
546.00	44100.37
546.16	43985.69
546.33	43674.40
546.50	43531.62
546.67	44027.82
546.83	43622.90
547.00	43847.60
547.17	44495.92
547.34	43950.58
547.50	44390.60
547.67	44680.83
547.84	43903.77
548.00	44748.70
548.17	44470.18
548.34	44301.66
548.51	44809.56
548.67	44126.12
548.84	44549.76
549.01	44498.26
549.18	44594.23
549.34	44486.56
549.51	44573.16
549.68	44570.82
549.84	44762.75
550.01	44664.44
550.18	44680.83
550.34	44910.20
550.51	44802.53
550.68	44795.51
550.84	44107.40
551.01	44966.37
551.18	44758.06
551.34	45041.27
551.51	44886.79
551.68	44959.35
551.84	45249.58
552.01	44505.29
552.18	44896.16
552.34	45003.82
552.51	44861.05
552.68	44914.88
552.84	45312.77
553.01	45235.53
553.18	45179.36
553.34	45233.19
553.51	45380.65
553.67	45399.37
553.84	45755.13
554.01	45607.68
554.17	45745.77
554.34	45127.87
554.51	45326.81
554.67	45631.08
554.84	45603.00
555.00	45312.77
555.17	45624.06
555.33	45406.39
555.50	45041.27
555.67	45078.72
555.83	45516.40
556.00	45509.38
556.16	46277.07
556.33	45535.12
556.50	45647.47
556.66	45705.98
556.83	45397.03
556.99	45373.63
557.16	46017.27
557.32	45713.00
557.49	45773.86
557.65	45708.32
557.82	45736.41
557.98	46188.13
558.15	45937.69
558.32	45698.96
558.48	45811.31
558.65	45731.73
558.81	45310.43
558.98	45397.03
559.14	46286.43
559.31	45771.52
559.47	45827.69
559.64	46375.37
559.80	46117.92
559.97	45935.35
560.13	45483.63
560.30	46064.08
560.46	46134.30
560.63	46188.13
560.79	46672.62
560.96	45855.78
561.12	46291.12
561.29	46099.19
561.45	46150.68
561.61	46082.81
561.78	46068.76
561.94	46370.69
562.11	46394.10
562.27	46295.80
562.44	46129.62
562.60	46248.99
562.77	46520.49
562.93	46309.84
563.10	46651.56
563.26	46281.75
563.42	46237.28
563.59	46244.30
563.75	46103.87
563.92	46710.07
564.08	46497.08
564.24	46541.55
564.41	46328.56
564.57	45888.54
564.74	46211.54
564.90	46389.42
565.07	46487.72
565.23	46370.69
565.39	46256.01
565.56	46185.79
565.72	45937.69
565.88	46492.40
566.05	46153.02
566.21	46286.43
566.38	46328.56
566.54	45900.25
566.70	46314.52
566.87	46850.50
567.03	46487.72
567.19	47086.90
567.36	46672.62
567.52	46576.66
567.68	46424.53
567.85	46492.40
568.01	46674.96
568.17	46899.65
568.34	46581.34
568.50	46279.41
568.66	46176.43
568.83	46590.70
568.99	46248.99
569.15	46110.89
569.32	46499.42
569.48	46529.85
569.64	46756.88
569.81	46927.74
569.97	46742.84
570.13	46429.21
570.30	46469.00
570.46	46562.62
570.62	45970.46
570.78	46197.49
570.95	45982.16
571.11	46876.25
571.27	46471.34
571.43	46752.20
571.60	46707.73
571.76	46440.91
571.92	47014.34
572.09	46536.87
572.25	46925.40
572.41	46476.02
572.57	46927.74
572.74	47075.19
572.90	46829.44
573.06	46780.29
573.22	46536.87
573.38	46747.52
573.55	46169.41
573.71	47140.73
573.87	46852.84
574.03	46370.69
574.20	46829.44
574.36	46375.37
574.52	46890.29
574.68	46667.94
574.84	46815.40
575.01	46836.46
575.17	46445.59
575.33	46632.83
575.49	46279.41
575.65	46944.12
575.82	46906.68
575.98	46717.09
576.14	46658.58
576.30	46637.51
576.46	46429.21
576.62	46782.63
576.79	46770.93
576.95	46672.62
577.11	46939.44
577.27	47093.92
577.43	47131.37
577.59	46892.63
577.75	46447.93
577.92	46136.64
578.08	46377.72
578.24	46450.27
578.40	46651.56
578.56	46305.16
578.72	46351.97
578.88	47042.43
579.04	46810.71
579.21	46754.54
579.37	46691.35
579.53	46674.96
579.69	46216.22
579.85	46604.75
580.01	47147.75
580.17	46569.64
580.33	46813.05
580.49	46576.66
580.65	47030.72
580.82	46834.12
580.98	47154.77
581.14	46632.83
581.30	46906.68
581.46	47086.90
581.62	46850.50
581.78	46890.29
581.94	46796.67
582.10	46614.11
582.26	47126.69
582.42	46513.47
582.58	46927.74
582.74	46562.62
582.90	46820.08
583.06	47110.30
583.22	46909.02
583.38	47182.86
583.54	47150.09
583.70	46939.44
583.86	46492.40
584.02	46590.70
584.18	46857.52
584.34	47007.32
584.50	46897.31
584.66	46567.30
584.82	46857.52
584.98	46700.71
585.14	46511.13
585.30	47110.30
585.46	46925.40
585.62	47004.98
585.78	46569.64
585.94	46323.88
586.10	46719.43
586.26	46841.14
586.42	46801.35
586.58	46944.12
586.74	46836.46
586.90	46527.51
587.06	46614.11
587.22	46981.57
587.38	46918.38
587.54	46990.94
587.70	47035.41
587.86	47117.32
588.02	46663.26
588.18	46660.92
588.34	46960.51
588.49	46103.87
588.65	45986.85
588.81	46387.08
588.97	46885.61
589.13	45989.19
589.29	46349.63
589.45	46653.90
589.61	46499.42
589.77	46995.62
