SpectraSuite Data File
++++++++++++++++++++++++++++++++++++
Date: Fri Oct 25 11:23:47 EDT 2013
User: price-jones
Dark Spectrum Present: No
Reference Spectrum Present: No
Number of Sampled Component Spectra: 1
Spectrometers: USB2+H05261
Integration Time (usec): 100000 (USB2+H05261)
Spectra Averaged: 1 (USB2+H05261)
Boxcar Smoothing: 0 (USB2+H05261)
Correct for Electrical Dark: No (USB2+H05261)
Strobe/Lamp Enabled: No (USB2+H05261)
Correct for Detector Non-linearity: No (USB2+H05261)
Correct for Stray Light: No (USB2+H05261)
Number of Pixels in Processed Spectrum: 2048
>>>>>Begin Processed Spectral Data<<<<<
365.73	208.31
365.92	208.31
366.12	208.31
366.32	159.16
366.52	58.51
366.72	149.79
366.91	177.88
367.11	126.39
367.31	77.24
367.51	91.28
367.70	91.28
367.90	84.26
368.10	95.96
368.30	142.77
368.49	142.77
368.69	166.18
368.89	84.26
369.09	156.82
369.28	215.33
369.48	142.77
369.68	175.54
369.87	196.60
370.07	194.26
370.27	187.24
370.47	292.57
370.66	594.50
370.86	622.58
371.06	660.03
371.25	763.01
371.45	650.67
371.65	641.31
371.84	685.78
372.04	720.88
372.24	784.08
372.44	655.35
372.63	709.18
372.83	805.14
373.03	744.29
373.22	695.14
373.42	744.29
373.62	739.61
373.81	814.51
374.01	847.27
374.21	805.14
374.40	849.61
374.60	807.48
374.79	896.43
374.99	781.74
375.19	842.59
375.38	793.44
375.58	765.36
375.78	884.72
375.97	861.32
376.17	884.72
376.37	856.64
376.56	917.49
376.76	884.72
376.95	849.61
377.15	870.68
377.35	983.02
377.54	889.40
377.74	945.58
377.93	887.06
378.13	950.26
378.33	990.05
378.52	926.85
378.72	910.47
378.91	940.90
379.11	990.05
379.31	1001.75
379.50	898.77
379.70	990.05
379.89	1001.75
380.09	987.71
380.28	931.53
380.48	966.64
380.68	1011.11
380.87	997.07
381.07	1067.28
381.26	1074.31
381.46	1001.75
381.65	1100.05
381.85	1074.31
382.04	1041.54
382.24	1064.94
382.43	1029.84
382.63	1039.20
382.83	1036.86
383.02	1158.57
383.22	1144.52
383.41	1057.92
383.61	1181.97
383.80	1174.95
384.00	1130.48
384.19	1144.52
384.39	1100.05
384.58	1137.50
384.78	1139.84
384.97	1205.38
385.17	1146.86
385.36	1233.46
385.56	1153.88
385.75	1179.63
385.95	1174.95
386.14	1196.01
386.34	1219.42
386.53	1207.72
386.72	1235.80
386.92	1245.16
387.11	1261.55
387.31	1214.74
387.50	1228.78
387.70	1242.82
387.89	1221.76
388.09	1203.04
388.28	1200.69
388.48	1263.89
388.67	1371.55
388.86	1334.11
389.06	1315.38
389.25	1385.60
389.45	1357.51
389.64	1371.55
389.84	1472.20
390.03	1306.02
390.22	1441.77
390.42	1394.96
390.61	1355.17
390.81	1366.87
391.00	1387.94
391.19	1430.07
391.39	1554.12
391.58	1432.41
391.78	1401.98
391.97	1420.71
392.16	1458.15
392.36	1535.39
392.55	1504.96
392.75	1600.93
392.94	1612.63
393.13	1558.80
393.33	1619.65
393.52	1610.29
393.71	1556.46
393.91	1575.18
394.10	1614.97
394.29	1540.07
394.49	1591.56
394.68	1638.38
394.88	1591.56
395.07	1647.74
395.26	1741.36
395.46	1724.97
395.65	1694.55
395.84	1769.44
396.04	1806.89
396.23	1823.28
396.42	1818.60
396.62	1806.89
396.81	1839.66
397.00	1760.08
397.19	1722.63
397.39	1870.09
397.58	1863.07
397.77	1849.02
397.97	1900.52
398.16	1874.77
398.35	1888.81
398.55	1881.79
398.74	1914.56
398.93	1994.14
399.12	2125.21
399.32	1858.39
399.51	1858.39
399.70	2008.18
399.90	2008.18
400.09	2026.90
400.28	2090.10
400.47	2045.63
400.67	2087.76
400.86	2008.18
401.05	2008.18
401.24	2179.04
401.44	2059.67
401.63	2134.57
401.82	2153.29
402.01	2097.12
402.21	2207.13
402.40	2193.08
402.59	2333.51
402.78	2169.68
402.97	2282.02
403.17	2289.04
403.36	2228.19
403.55	2331.17
403.74	2415.43
403.93	2246.91
404.13	2396.71
404.32	2303.09
404.51	2403.73
404.70	2450.54
404.89	2443.52
405.09	2464.58
405.28	2478.63
405.47	2612.04
405.66	2469.27
405.85	2567.57
406.05	2452.88
406.24	2633.10
406.43	2499.69
406.62	2715.02
406.81	2663.53
407.00	2597.99
407.20	2555.86
407.39	2595.65
407.58	2691.62
407.77	2733.75
407.96	2766.51
408.15	2862.48
408.34	2916.31
408.54	2827.37
408.73	2906.95
408.92	2935.03
409.11	2979.50
409.30	2899.92
409.49	2916.31
409.68	2981.84
409.87	2846.09
410.07	3028.65
410.26	2925.67
410.45	3052.06
410.64	3101.21
410.83	3159.72
411.02	3169.09
411.21	3243.98
411.40	3122.27
411.59	3265.05
411.78	3215.90
411.98	3145.68
412.17	3337.60
412.36	3262.71
412.55	3382.07
412.74	3323.56
412.93	3400.80
413.12	3424.20
413.31	3599.74
413.50	3538.89
413.69	3494.42
413.88	3599.74
414.07	3595.06
414.26	3595.06
414.45	3714.43
414.64	3714.43
414.83	3779.97
415.02	3796.35
415.22	3929.76
415.41	3953.16
415.60	3819.75
415.79	3822.09
415.98	3901.67
416.17	3932.10
416.36	4044.45
416.55	3861.88
416.74	3978.91
416.93	4093.60
417.12	4098.28
417.31	4266.80
417.50	4189.56
417.69	4198.92
417.88	4409.57
418.07	4269.14
418.26	4395.53
418.45	4454.04
418.64	4524.26
418.83	4395.53
419.02	4493.83
419.21	4582.77
419.39	4493.83
419.58	4451.70
419.77	4461.06
419.96	4807.46
420.15	4580.43
420.34	4493.83
420.53	4634.26
420.72	4603.83
420.91	4697.46
421.10	4730.22
421.29	4762.99
421.48	4620.22
421.67	4873.00
421.86	4807.46
422.05	4837.89
422.24	4770.01
422.43	4896.40
422.61	4840.23
422.80	4837.89
422.99	4938.53
423.18	4919.81
423.37	5032.15
423.56	5053.22
423.75	5008.75
423.94	4882.36
424.13	4617.88
424.32	4826.18
424.50	5081.30
424.69	4985.34
424.88	5015.77
425.07	5011.09
425.26	4919.81
425.45	5207.69
425.64	4922.15
425.83	4971.30
426.01	5160.88
426.20	5135.14
426.39	5128.11
426.58	5095.35
426.77	5195.99
426.96	5095.35
427.15	5104.71
427.33	5320.04
427.52	5088.32
427.71	5254.50
427.90	5397.28
428.09	5298.97
428.28	5394.93
428.46	5401.96
428.65	5397.28
428.84	5441.75
429.03	5535.37
429.22	5455.79
429.40	5607.92
429.59	5483.88
429.78	5427.70
429.97	5350.46
430.16	5521.32
430.34	5678.14
430.53	5589.20
430.72	5600.90
430.91	5722.61
431.10	5610.26
431.28	5746.02
431.47	5886.45
431.66	5872.40
431.85	5839.64
432.03	6069.01
432.22	6200.08
432.41	5912.19
432.60	5886.45
432.79	5961.34
432.97	5947.30
433.16	6129.86
433.35	5954.32
433.54	6015.18
433.72	6136.88
433.91	6190.72
434.10	6094.76
434.28	6256.25
434.47	6296.04
434.66	6345.19
434.85	6490.31
435.03	6279.66
435.22	6422.43
435.41	6457.54
435.59	6384.98
435.78	6562.86
435.97	6544.14
436.16	6590.95
436.34	6494.99
436.53	6719.68
436.72	6623.72
436.90	6640.10
437.09	6654.14
437.28	6490.31
437.46	6670.53
437.65	6658.82
437.84	6778.19
438.02	6780.53
438.21	6710.32
438.40	6808.62
438.58	7098.84
438.77	7148.00
438.96	6977.14
439.14	7162.04
439.33	7173.74
439.52	7260.34
439.70	7227.57
439.89	7346.94
440.08	7588.02
440.26	7478.01
440.45	7463.97
440.63	7494.40
440.82	7623.12
441.01	7599.72
441.19	7590.36
441.38	7620.78
441.57	7733.13
441.75	7981.23
441.94	7854.84
442.12	7983.57
442.31	8140.38
442.50	8102.93
442.68	7929.74
442.87	7861.86
443.05	8046.76
443.24	8393.16
443.43	8241.03
443.61	8264.43
443.80	8498.49
443.98	8140.38
444.17	7946.12
444.35	8262.09
444.54	8437.63
444.73	8414.23
444.91	8360.39
445.10	8390.82
445.28	8400.18
445.47	8297.20
445.65	8257.41
445.84	8648.28
446.02	8414.23
446.21	8360.39
446.39	8346.35
446.58	8706.79
446.77	8475.08
446.95	8397.84
447.14	8468.06
447.32	8571.04
447.51	8519.55
447.69	8365.07
447.88	8521.89
448.06	8573.38
448.25	8535.93
448.43	8503.17
448.62	8491.46
448.80	8528.91
448.99	8774.67
449.17	8662.32
449.36	8585.08
449.54	8779.35
449.73	9179.58
449.91	9217.03
450.10	8823.82
450.28	9114.05
450.46	9039.15
450.65	9210.01
450.83	9184.26
451.02	9200.65
451.20	9027.45
451.39	9177.24
451.57	9193.62
451.76	9221.71
451.94	9228.73
452.13	9392.57
452.31	9497.89
452.49	9214.69
452.68	9558.75
452.86	9266.18
453.05	9533.00
453.23	9554.07
453.42	9401.93
453.60	9502.58
453.78	9703.86
453.97	9488.53
454.15	9659.39
454.34	9671.09
454.52	9678.12
454.70	9673.43
454.89	9570.45
455.07	9937.91
455.26	9738.97
455.44	10076.01
455.62	10162.61
455.81	10087.71
455.99	10083.03
456.17	10087.71
456.36	10216.44
456.54	10232.82
456.73	10415.38
456.91	10684.55
457.09	10516.03
457.28	10616.67
457.46	10471.56
457.64	10686.89
457.83	10445.81
458.01	10480.92
458.19	10705.61
458.38	10359.21
458.56	10574.54
458.74	10771.15
458.93	10738.38
459.11	10712.63
459.29	10775.83
459.48	10806.25
459.66	10855.40
459.84	10904.56
460.03	11005.20
460.21	11103.50
460.39	11328.19
460.57	11087.12
460.76	11218.19
460.94	11330.53
461.12	11225.21
461.31	11375.00
461.49	11171.38
461.67	11115.20
461.85	11580.97
462.04	11220.53
462.22	11520.12
462.40	11639.48
462.59	11367.98
462.77	11522.46
462.95	11609.06
463.13	11662.89
463.32	11599.70
463.50	11707.36
463.68	12011.63
463.86	11932.05
464.05	11875.88
464.23	11845.45
464.41	11728.42
464.59	11803.32
464.78	12367.39
464.96	12056.10
465.14	11969.50
465.32	11997.59
465.50	12149.72
465.69	12231.64
465.87	12212.92
466.05	12219.94
466.23	12184.83
466.41	12308.88
466.60	12496.12
466.78	12358.03
466.96	12159.08
467.14	12196.53
467.32	12648.26
467.51	12580.38
467.69	12238.66
467.87	12737.20
468.05	12681.02
468.23	12306.54
468.41	12666.98
468.60	12643.57
468.78	13022.74
468.96	12716.13
469.14	13018.06
469.32	12985.29
469.50	12505.48
469.69	13254.45
469.87	13219.35
470.05	13383.18
470.23	13111.68
470.41	13057.85
470.59	13692.13
470.77	13254.45
470.95	13362.12
471.14	13490.85
471.32	13437.02
471.50	13706.18
471.68	13645.32
471.86	13703.84
472.04	13750.65
472.22	14087.68
472.40	13916.83
472.58	13830.23
472.77	14078.32
472.95	14267.91
473.13	14904.53
473.31	14281.95
473.49	14169.60
473.67	14031.51
473.85	14546.43
474.03	14640.05
474.21	14846.02
474.39	14539.41
474.57	14651.75
474.75	15138.58
474.93	15075.39
475.12	14920.92
475.30	15325.83
475.48	15126.88
475.66	15557.54
475.84	15410.09
476.02	15667.55
476.20	15730.74
476.38	15845.43
476.56	16383.75
476.74	15934.37
476.92	15770.53
477.10	15957.77
477.28	16390.77
477.46	16327.58
477.64	16374.39
477.82	16720.79
478.00	17296.56
478.18	16933.78
478.36	17198.26
478.54	17228.68
478.72	17172.51
478.90	17341.03
479.08	18026.81
479.26	17703.81
479.44	17900.42
479.62	18090.00
479.80	18085.32
479.98	18253.84
480.16	18995.79
480.34	18270.22
480.52	18885.78
480.70	18686.84
480.88	18640.03
481.06	18675.13
481.24	19087.07
481.41	19232.18
481.59	19461.55
481.77	19924.98
481.95	19810.29
482.13	19871.15
482.31	19740.08
482.49	20318.19
482.67	20130.95
482.85	20868.22
483.03	20762.89
483.21	21001.63
483.39	21142.06
483.57	21202.91
483.74	21568.04
483.92	21266.11
484.10	21261.43
484.28	21776.34
484.46	22066.57
484.64	22361.48
484.82	22422.33
485.00	22462.12
485.18	23159.60
485.35	23358.55
485.53	22616.60
485.71	23094.07
485.89	23791.55
486.07	23482.59
486.25	23777.50
486.43	23983.47
486.61	24208.16
486.78	24196.46
486.96	24264.33
487.14	24994.58
487.32	25076.50
487.50	25249.70
487.68	25055.43
487.85	25640.57
488.03	25525.88
488.21	25949.52
488.39	25876.96
488.57	26448.05
488.75	26342.73
488.92	26668.06
489.10	26754.66
489.28	27194.68
489.46	27592.58
489.64	27325.75
489.81	28182.39
489.99	27934.29
490.17	27924.93
490.35	28364.95
490.53	28601.35
490.70	28549.85
490.88	28477.30
491.06	28863.49
491.24	28854.12
491.41	28765.18
491.59	29249.67
491.77	29434.58
491.95	29738.85
492.13	30057.16
492.30	30408.24
492.48	30181.21
492.66	30293.55
492.84	30256.11
493.01	30745.28
493.19	30897.41
493.37	31489.57
493.54	31454.46
493.72	31531.70
493.90	31590.21
494.08	31688.51
494.25	32144.92
494.43	32498.34
494.61	32369.61
494.79	32701.96
494.96	33003.89
495.14	33006.23
495.32	33912.02
495.49	33890.96
495.67	33900.32
495.85	33469.66
496.02	33984.58
496.20	34387.15
496.38	34316.93
496.55	34555.67
496.73	35147.82
496.91	34962.92
497.09	35009.73
497.26	35271.87
497.44	35358.47
497.62	35648.70
497.79	36407.03
497.97	35819.56
498.14	36135.53
498.32	36332.14
498.50	36521.72
498.67	36987.49
498.85	36673.85
499.03	37076.43
499.20	37120.90
499.38	37420.48
499.56	37130.26
499.73	37448.57
499.91	37404.10
500.08	37816.04
500.26	37904.98
500.44	38017.32
500.61	38106.26
500.79	38054.77
500.97	38057.11
501.14	39225.04
501.32	38682.03
501.49	38728.84
501.67	38698.42
501.84	39175.89
502.02	39229.72
502.20	38902.04
502.37	39407.60
502.55	39449.73
502.72	39393.56
502.90	39615.91
503.07	39782.09
503.25	40446.80
503.43	40046.57
503.60	40385.94
503.78	40591.91
503.95	40598.93
504.13	40437.44
504.30	41029.59
504.48	40790.86
504.65	40849.37
504.83	41722.39
505.01	41628.77
505.18	41560.89
505.36	41965.81
505.53	41780.90
505.71	41860.48
505.88	42253.69
506.06	41933.04
506.23	42295.82
506.41	42415.19
506.58	42251.35
506.76	42660.94
506.93	43014.37
507.11	42714.78
507.28	42597.75
507.46	43210.97
507.63	43016.71
507.81	43655.67
507.98	43026.07
508.16	43590.14
508.33	44062.93
508.50	43384.17
508.68	44004.41
508.85	44502.95
509.03	44030.16
509.20	44315.70
509.38	44893.82
509.55	44762.75
509.73	44509.97
509.90	44905.52
510.08	44720.62
510.25	44711.25
510.42	45287.03
510.60	45216.81
510.77	45109.14
510.95	45645.13
511.12	45446.18
511.30	45481.29
511.47	46115.58
511.64	45942.38
511.82	46220.90
511.99	46162.39
512.17	45930.67
512.34	46319.20
512.51	46909.02
512.69	47063.49
512.86	46726.46
513.04	46677.30
513.21	46756.88
513.38	47093.92
513.56	47058.81
513.73	47327.97
513.90	47285.84
514.08	47189.88
514.25	47618.20
514.43	47538.62
514.60	47711.82
514.77	47777.36
514.95	48081.63
515.12	47742.25
515.29	47885.02
515.47	48383.55
515.64	48271.21
515.81	48313.34
515.99	48559.09
516.16	48320.36
516.33	48545.05
516.51	48891.45
516.68	48736.98
516.85	48762.72
517.03	48933.58
517.20	49298.70
517.37	49174.66
517.54	49059.97
517.72	49244.87
517.89	49155.93
518.06	49675.53
518.24	49708.30
518.41	49474.24
518.58	49867.45
518.75	49738.72
518.93	50082.78
519.10	49745.75
519.27	49869.79
519.45	50134.28
519.62	50309.82
519.79	50164.70
519.96	50265.34
520.14	50302.79
520.31	50323.86
520.48	50679.62
520.65	50361.31
520.83	51089.21
521.00	50536.85
521.17	51002.61
521.34	50782.60
521.52	50904.31
521.69	51210.92
521.86	51468.38
522.03	51519.87
522.20	51461.36
522.38	51622.86
522.55	51690.73
522.72	51576.04
522.89	51543.28
523.07	51917.76
523.24	51955.21
523.41	52219.69
523.58	51641.58
523.75	52039.47
523.92	51819.46
524.10	52140.11
524.27	52254.80
524.44	52538.01
524.61	52446.72
524.78	52369.49
524.96	52610.56
525.13	52428.00
525.30	52729.93
525.47	52612.90
525.64	52947.60
525.81	52959.30
525.98	52961.64
526.16	52683.12
526.33	52856.32
526.50	53289.32
526.67	52975.69
526.84	53291.66
527.01	53081.01
527.18	53174.63
527.36	53509.33
527.53	53272.93
527.70	53464.86
527.87	53387.62
528.04	53088.03
528.21	53722.32
528.38	53375.92
528.55	53738.70
528.72	53497.62
528.89	53939.99
529.07	53616.99
529.24	53537.41
529.41	54052.33
529.58	53654.44
529.75	54096.80
529.92	53902.54
530.09	54012.54
530.26	54089.78
530.43	54047.65
530.60	54101.48
530.77	53977.43
530.94	54335.54
531.11	54267.66
531.28	54412.77
531.46	54344.90
531.63	54773.22
531.80	54433.84
531.97	54658.53
532.14	54593.00
532.31	54773.22
532.48	54932.37
532.65	54815.35
532.82	54894.92
532.99	55002.59
533.16	54887.90
533.33	55103.23
533.50	55189.83
533.67	55011.95
533.84	54761.51
534.01	55096.21
534.18	55077.49
534.35	55299.84
534.52	55246.00
534.69	55229.62
534.86	55632.19
535.03	55192.17
535.20	55334.95
535.37	55508.14
535.54	55805.39
535.71	55304.52
535.88	55697.73
536.05	55728.16
536.22	55547.93
536.38	55723.47
536.55	55772.63
536.72	55718.79
536.89	55587.72
537.06	55948.17
537.23	55990.30
537.40	55664.96
537.57	56083.92
537.74	56266.48
537.91	56165.84
538.08	56226.69
538.25	55903.70
538.42	56266.48
538.59	56470.11
538.75	56060.51
538.92	56306.27
539.09	56133.07
539.26	56287.54
539.43	56425.64
539.60	56523.94
539.77	56353.08
539.94	56495.85
540.11	56364.78
540.28	56692.46
540.44	56647.99
540.61	56753.31
540.78	56608.20
540.95	56404.57
541.12	56891.40
541.29	56713.52
541.46	56435.00
541.62	56963.96
541.79	56942.89
541.96	56722.88
542.13	56722.88
542.30	56942.89
542.47	56872.68
542.63	57024.81
542.80	56956.94
542.97	57303.34
543.14	57415.68
543.31	57301.00
543.48	57425.04
543.64	57647.39
543.81	57357.17
543.98	57504.62
544.15	57521.01
544.32	57595.90
544.48	57914.22
544.65	57233.12
544.82	57560.79
544.99	57450.79
545.16	57818.25
545.32	57736.34
545.49	57851.02
545.66	57834.64
545.83	57865.06
546.00	57956.35
546.16	57799.53
546.33	57750.38
546.50	57722.29
546.67	57888.47
546.83	57530.37
547.00	57762.08
547.17	57689.52
547.34	57951.66
547.50	58117.84
547.67	58269.98
547.84	58319.13
548.00	58073.37
548.17	58417.43
548.34	58447.86
548.51	58382.32
548.67	58401.05
548.84	58138.91
549.01	58363.60
549.18	58169.33
549.34	58482.97
549.51	58576.59
549.68	58700.64
549.84	58569.57
550.01	58686.59
550.18	58644.46
550.34	58724.04
550.51	58740.42
550.68	58529.78
550.84	58487.65
551.01	58817.66
551.18	58679.57
551.34	58815.32
551.51	58784.90
551.68	58571.91
551.84	58773.19
552.01	58644.46
552.18	58878.52
552.34	58621.06
552.51	58738.08
552.68	58906.60
552.84	58878.52
553.01	59016.61
553.18	58953.41
553.34	59222.58
553.51	58787.24
553.67	58859.79
553.84	59290.45
554.01	59231.94
554.17	59009.59
554.34	59217.89
554.51	59166.40
554.67	59180.45
554.84	59189.81
555.00	59091.51
555.17	59199.17
555.33	59203.85
555.50	59091.51
555.67	59000.22
555.83	59061.08
556.00	59358.33
556.16	59529.19
556.33	59454.29
556.50	59337.26
556.66	59489.40
556.83	59215.55
556.99	59423.86
557.16	59650.89
557.32	59650.89
557.49	59817.07
557.65	59454.29
557.82	59559.61
557.98	59487.06
558.15	59482.37
558.32	59660.26
558.48	59517.48
558.65	59531.53
558.81	59709.41
558.98	59643.87
559.14	59828.77
559.31	59962.18
559.47	59739.83
559.64	59973.89
559.80	59833.46
559.97	59990.27
560.13	59863.88
560.30	59765.58
560.46	59828.77
560.63	59849.84
560.79	59875.58
560.96	60224.32
561.12	60156.45
561.29	60006.65
561.45	59896.65
561.61	60065.17
561.78	59985.59
561.94	60116.66
562.11	60090.91
562.27	60130.70
562.44	60144.75
562.60	60205.60
562.77	60076.87
562.93	59922.40
563.10	59913.03
563.26	60130.70
563.42	60341.35
563.59	60147.09
563.75	60111.98
563.92	60196.24
564.08	59938.78
564.24	60418.59
564.41	60207.94
564.57	60360.08
564.74	60500.51
564.90	60191.56
565.07	60348.37
565.23	60484.12
565.39	60165.81
565.56	60399.86
565.72	60301.56
565.88	60364.76
566.05	60252.41
566.21	60341.35
566.38	60383.48
566.54	60355.39
566.70	60673.71
566.87	60638.60
567.03	60313.26
567.19	60598.81
567.36	60385.82
567.52	60285.18
567.68	60584.77
567.85	60580.09
568.01	60718.18
568.17	60566.04
568.34	60425.61
568.50	60554.34
568.66	60273.48
568.83	60706.47
568.99	60584.77
569.15	60519.23
569.32	60573.06
569.48	60554.34
569.64	60521.57
569.81	60554.34
569.97	60704.13
570.13	60636.26
570.30	60437.31
570.46	60580.09
570.62	60507.53
570.78	60760.31
570.95	60701.79
571.11	60701.79
571.27	60903.08
571.43	60580.09
571.60	60821.16
571.76	60523.91
571.92	60907.76
572.09	60706.47
572.25	60701.79
572.41	60612.85
572.57	60619.88
572.74	60940.53
572.90	60846.91
573.06	60601.15
573.22	60760.31
573.38	60811.80
573.55	60647.96
573.71	61078.62
573.87	60907.76
574.03	60694.77
574.20	60757.97
574.36	60797.76
574.52	60786.05
574.68	60926.49
574.84	60837.54
575.01	61069.26
575.17	60837.54
575.33	60835.20
575.49	60900.74
575.65	60886.70
575.82	60982.66
575.98	60959.25
576.14	61233.10
576.30	60977.98
576.46	60783.71
576.62	60874.99
576.79	60963.93
576.95	60832.86
577.11	60968.61
577.27	61036.49
577.43	61076.28
577.59	60769.67
577.75	60952.23
577.92	61001.38
578.08	60882.02
578.24	61031.81
578.40	61251.82
578.56	61162.88
578.72	61174.58
578.88	60921.80
579.04	61244.80
579.21	61080.96
579.37	61289.27
579.53	61071.60
579.69	60753.29
579.85	61034.15
580.01	61139.47
580.17	60879.67
580.33	61062.24
580.49	61200.33
580.65	61165.22
580.82	61106.71
580.98	61045.85
581.14	60856.27
581.30	61090.32
581.46	61085.64
581.62	60896.06
581.78	61141.81
581.94	61095.00
582.10	61176.92
582.26	61130.11
582.42	61153.52
582.58	61055.21
582.74	60973.30
582.90	61064.58
583.06	61113.73
583.22	61073.94
583.38	61144.16
583.54	61071.60
583.70	61134.79
583.86	61179.26
584.02	60999.04
584.18	61261.18
584.34	61073.94
584.50	61123.09
584.66	61052.87
584.82	60963.93
584.98	61242.46
585.14	61188.63
585.30	61113.73
585.46	61010.74
585.62	61256.50
585.78	61347.78
585.94	60924.14
586.10	61200.33
586.26	61237.78
586.42	61247.14
586.58	61300.97
586.74	61179.26
586.90	61102.03
587.06	61038.83
587.22	61212.03
587.38	61228.41
587.54	61317.35
587.70	61483.53
587.86	61345.44
588.02	61389.91
588.18	61432.04
588.34	61212.03
588.49	61315.01
