SpectraSuite Data File
++++++++++++++++++++++++++++++++++++
Date: Fri Oct 25 10:43:13 EDT 2013
User: price-jones
Dark Spectrum Present: No
Reference Spectrum Present: No
Number of Sampled Component Spectra: 1
Spectrometers: USB2+H05261
Integration Time (usec): 100000 (USB2+H05261)
Spectra Averaged: 1 (USB2+H05261)
Boxcar Smoothing: 0 (USB2+H05261)
Correct for Electrical Dark: No (USB2+H05261)
Strobe/Lamp Enabled: No (USB2+H05261)
Correct for Detector Non-linearity: No (USB2+H05261)
Correct for Stray Light: No (USB2+H05261)
Number of Pixels in Processed Spectrum: 2048
>>>>>Begin Processed Spectral Data<<<<<
365.73	135.75
365.92	135.75
366.12	135.75
366.32	7.02
366.52	39.79
366.72	93.62
366.91	11.70
367.11	53.83
367.31	4.68
367.51	79.58
367.70	14.04
367.90	84.26
368.10	81.92
368.30	0.00
368.49	11.70
368.69	0.00
368.89	7.02
369.09	11.70
369.28	53.83
369.48	81.92
369.68	88.94
369.87	112.35
370.07	56.17
370.27	140.43
370.47	194.26
370.66	421.30
370.86	379.17
371.06	348.74
371.25	514.92
371.45	463.43
371.65	496.19
371.84	449.38
372.04	482.15
372.24	493.85
372.44	468.11
372.63	510.24
372.83	456.40
373.03	519.60
373.22	514.92
373.42	477.47
373.62	514.92
373.81	559.39
374.01	557.05
374.21	594.50
374.40	573.43
374.60	564.07
374.79	631.94
374.99	517.26
375.19	578.11
375.38	601.52
375.58	601.52
375.78	655.35
375.97	718.54
376.17	606.20
376.37	559.39
376.56	592.16
376.76	627.26
376.95	585.13
377.15	638.97
377.35	620.24
377.54	697.48
377.74	704.50
377.93	594.50
378.13	641.31
378.33	732.59
378.52	688.12
378.72	709.18
378.91	610.88
379.11	645.99
379.31	650.67
379.50	648.33
379.70	655.35
379.89	718.54
380.09	753.65
380.28	641.31
380.48	671.73
380.68	683.44
380.87	655.35
381.07	664.71
381.26	669.39
381.46	645.99
381.65	685.78
381.85	732.59
382.04	685.78
382.24	615.56
382.43	624.92
382.63	791.10
382.83	795.78
383.02	716.20
383.22	734.93
383.41	737.27
383.61	716.20
383.80	784.08
384.00	793.44
384.19	866.00
384.39	821.53
384.58	835.57
384.78	861.32
384.97	767.70
385.17	823.87
385.36	856.64
385.56	795.78
385.75	823.87
385.95	863.66
386.14	774.72
386.34	793.44
386.53	926.85
386.72	854.30
386.92	875.36
387.11	812.17
387.31	844.93
387.50	812.17
387.70	880.04
387.89	821.53
388.09	882.38
388.28	842.59
388.48	891.74
388.67	877.70
388.86	887.06
389.06	992.39
389.25	940.90
389.45	943.24
389.64	985.37
389.84	959.62
390.03	978.34
390.22	968.98
390.42	952.60
390.61	933.87
390.81	997.07
391.00	1029.84
391.19	1050.90
391.39	1018.13
391.58	1153.88
391.78	1071.97
391.97	1062.60
392.16	1015.79
392.36	1123.46
392.55	1109.41
392.75	1015.79
392.94	976.00
393.13	968.98
393.33	945.58
393.52	1050.90
393.71	1088.35
393.91	1078.99
394.10	1144.52
394.29	1165.59
394.49	1146.86
394.68	1181.97
394.88	1212.40
395.07	1212.40
395.26	1226.44
395.46	1238.14
395.65	1282.61
395.84	1231.12
396.04	1219.42
396.23	1153.88
396.42	1240.48
396.62	1149.20
396.81	1240.48
397.00	1224.10
397.19	1289.64
397.39	1296.66
397.58	1411.34
397.77	1343.47
397.97	1430.07
398.16	1472.20
398.35	1474.54
398.55	1460.49
398.74	1551.78
398.93	1654.76
399.12	1462.83
399.32	1584.54
399.51	1509.65
399.70	1507.30
399.90	1504.96
400.09	1504.96
400.28	1598.59
400.47	1586.88
400.67	1664.12
400.86	1666.46
401.05	1565.82
401.24	1626.67
401.44	1710.93
401.63	1661.78
401.82	1710.93
402.01	1605.61
402.21	1732.00
402.40	1706.25
402.59	1703.91
402.78	1741.36
402.97	1757.74
403.17	1827.96
403.36	1851.36
403.55	1853.70
403.74	1853.70
403.93	1881.79
404.13	1856.04
404.32	1893.49
404.51	1816.26
404.70	1860.73
404.89	2003.50
405.09	1865.41
405.28	1909.88
405.47	1937.96
405.66	1909.88
405.85	2092.44
406.05	2029.24
406.24	1963.71
406.43	1966.05
406.62	1949.67
406.81	2101.80
407.00	2176.70
407.20	1998.82
407.39	2057.33
407.58	2139.25
407.77	2169.68
407.96	2125.21
408.15	2186.06
408.34	2146.27
408.54	2284.36
408.73	2289.04
408.92	2260.96
409.11	2352.24
409.30	2296.07
409.49	2221.17
409.68	2207.13
409.87	2258.62
410.07	2275.00
410.26	2319.47
410.45	2424.80
410.64	2443.52
410.83	2527.78
411.02	2459.90
411.21	2654.17
411.40	2647.15
411.59	2544.16
411.78	2506.71
411.98	2569.91
412.17	2614.38
412.36	2719.70
412.55	2633.10
412.74	2672.89
412.93	2693.96
413.12	2719.70
413.31	2876.52
413.50	2771.19
413.69	2799.28
413.88	2928.01
414.07	2883.54
414.26	2860.13
414.45	2881.20
414.64	2850.77
414.83	3002.91
415.02	3014.61
415.22	3047.38
415.41	3098.87
415.60	2988.86
415.79	3281.43
415.98	3173.77
416.17	3236.96
416.36	3169.09
416.55	3321.22
416.74	3115.25
416.93	3300.16
417.12	3234.62
417.31	3274.41
417.50	3328.24
417.69	3489.74
417.88	3328.24
418.07	3281.43
418.26	3309.52
418.45	3494.42
418.64	3590.38
418.83	3382.07
419.02	3576.34
419.21	3550.59
419.39	3602.08
419.58	3471.01
419.77	3522.51
419.96	3653.58
420.15	3552.93
420.34	3510.80
420.53	3662.94
420.72	3927.42
420.91	3662.94
421.10	3756.56
421.29	3943.80
421.48	3791.67
421.67	3810.39
421.86	3754.22
422.05	3733.15
422.24	3728.47
422.43	3875.93
422.61	3857.20
422.80	3929.76
422.99	3922.74
423.18	3845.50
423.37	3901.67
423.56	3885.29
423.75	3833.80
423.94	3866.56
424.13	3747.20
424.32	3784.65
424.50	3978.91
424.69	3997.64
424.88	4044.45
425.07	3939.12
425.26	3850.18
425.45	3819.75
425.64	3815.07
425.83	3878.27
426.01	3908.69
426.20	3964.87
426.39	4021.04
426.58	3908.69
426.77	3896.99
426.96	3836.14
427.15	3922.74
427.33	4128.70
427.52	3946.14
427.71	4117.00
427.90	4091.26
428.09	4072.53
428.28	4093.60
428.46	4032.74
428.65	4060.83
428.84	4208.28
429.03	4301.90
429.22	3936.78
429.40	4028.06
429.59	4182.54
429.78	3871.25
429.97	3836.14
430.16	3969.55
430.34	4042.11
430.53	4112.32
430.72	4210.62
430.91	4208.28
431.10	4177.86
431.28	4458.72
431.47	4561.70
431.66	4493.83
431.85	4557.02
432.03	4449.36
432.22	4692.77
432.41	4657.67
432.60	4688.09
432.79	4624.90
432.97	4812.14
433.16	4699.80
433.35	4610.86
433.54	4547.66
433.72	4674.05
433.91	4667.03
434.10	4823.84
434.28	4711.50
434.47	4791.08
434.66	4992.36
434.85	4891.72
435.03	4968.96
435.22	4863.63
435.41	4851.93
435.59	4966.62
435.78	5114.07
435.97	5036.83
436.16	4973.64
436.34	5123.43
436.53	5135.14
436.72	5280.25
436.90	5207.69
437.09	5224.08
437.28	5226.42
437.46	5149.18
437.65	5142.16
437.84	5167.90
438.02	5097.69
438.21	5203.01
438.40	5104.71
438.58	5303.65
438.77	5341.10
438.96	5259.18
439.14	5469.83
439.33	5537.71
439.52	5633.67
439.70	5458.13
439.89	5406.64
440.08	5577.50
440.26	5664.10
440.45	5490.90
440.63	5797.51
440.82	5851.34
441.01	5994.11
441.19	6043.26
441.38	6019.86
441.57	6003.47
441.75	6174.33
441.94	6279.66
442.12	6237.53
442.31	6324.13
442.50	6256.25
442.68	6305.40
442.87	6392.00
443.05	6312.42
443.24	6354.55
443.43	6277.32
443.61	6417.75
443.80	6576.91
443.98	6305.40
444.17	6244.55
444.35	6445.84
444.54	6511.37
444.73	6621.38
444.91	6424.77
445.10	6457.54
445.28	6298.38
445.47	6296.04
445.65	6333.49
445.84	6518.39
446.02	6562.86
446.21	6494.99
446.39	6499.67
446.58	6715.00
446.77	6822.66
446.95	6483.28
447.14	6689.25
447.32	6609.67
447.51	6588.61
447.69	6572.22
447.88	6504.35
448.06	6597.97
448.25	6764.15
448.43	6712.66
448.62	6724.36
448.80	6614.35
448.99	6927.99
449.17	6967.77
449.36	6747.76
449.54	6927.99
449.73	7056.72
449.91	7080.12
450.10	6970.12
450.28	7091.82
450.46	7159.70
450.65	7229.91
450.83	7143.32
451.02	7201.83
451.20	7190.13
451.39	7229.91
451.57	7026.29
451.76	7131.61
451.94	7009.90
452.13	7077.78
452.31	7122.25
452.49	7089.48
452.68	7157.36
452.86	7110.55
453.05	7110.55
453.23	7288.43
453.42	7321.20
453.60	7152.68
453.78	7295.45
453.97	7351.62
454.15	7281.41
454.34	7258.00
454.52	7307.15
454.70	7459.29
454.89	7552.91
455.07	7522.48
455.26	7742.49
455.44	7662.91
455.62	7639.51
455.81	7707.38
455.99	7744.83
456.17	7805.69
456.36	7803.35
456.54	7772.92
456.73	8009.31
456.91	8030.38
457.09	8053.78
457.28	8105.28
457.46	7953.14
457.64	8161.45
457.83	8013.99
458.01	8035.06
458.19	7999.95
458.38	8084.21
458.56	8269.11
458.74	8175.49
458.93	8182.51
459.11	8383.80
459.29	8304.22
459.48	8461.04
459.66	8159.11
459.84	8297.20
460.03	8561.68
460.21	8449.33
460.39	8566.36
460.57	8390.82
460.76	8451.67
460.94	8557.00
461.12	8510.19
461.31	8671.68
461.49	8706.79
461.67	8695.09
461.85	8889.35
462.04	8748.92
462.22	9348.10
462.40	8931.48
462.59	8802.75
462.77	8968.93
462.95	8751.26
463.13	8755.94
463.32	8954.89
463.50	8933.82
463.68	8861.27
463.86	8936.17
464.05	8769.99
464.23	8896.38
464.41	9247.46
464.59	8730.20
464.78	8966.59
464.96	9125.75
465.14	9092.98
465.32	9067.24
465.50	9408.95
465.69	9312.99
465.87	9135.11
466.05	9095.32
466.23	9041.49
466.41	9104.68
466.60	9198.31
466.78	9076.60
466.96	9158.52
467.14	9186.60
467.32	9366.82
467.51	9238.09
467.69	9261.50
467.87	9364.48
468.05	9446.40
468.23	9275.54
468.41	9245.12
468.60	9530.66
468.78	9572.79
468.96	9261.50
469.14	9533.00
469.32	9619.60
469.50	9392.57
469.69	9577.47
469.87	9858.34
470.05	9703.86
470.23	9528.32
470.41	9792.80
470.59	9914.51
470.77	9626.62
470.95	9703.86
471.14	10036.22
471.32	9877.06
471.50	10181.33
471.68	10267.93
471.86	10200.05
472.04	10466.88
472.22	10509.01
472.40	10181.33
472.58	10246.87
472.77	10317.08
472.95	10499.64
473.13	10691.57
473.31	10333.47
473.49	10415.38
473.67	10530.07
473.85	10642.42
474.03	11040.31
474.21	10956.05
474.39	10874.13
474.57	10974.77
474.75	10946.69
474.93	11265.00
475.12	11208.83
475.30	11197.12
475.48	11070.73
475.66	11136.27
475.84	11190.10
476.02	11302.45
476.20	11492.03
476.38	11702.68
476.56	11496.71
476.74	11845.45
476.92	11808.00
477.10	11803.32
477.28	11875.88
477.46	11925.03
477.64	12032.69
477.82	12343.99
478.00	12383.77
478.18	12587.40
478.36	12346.33
478.54	12807.41
478.72	12610.81
478.90	12847.20
479.08	13022.74
479.26	12959.55
479.44	13193.60
479.62	13102.32
479.80	13390.20
479.98	13413.61
480.16	13776.39
480.34	13413.61
480.52	13633.62
480.70	13408.93
480.88	13441.70
481.06	13928.53
481.24	13893.42
481.41	14195.35
481.59	14398.98
481.77	14174.28
481.95	14420.04
482.13	14457.49
482.31	14415.36
482.49	15007.52
482.67	14647.07
482.85	15049.64
483.03	14930.28
483.21	15213.48
483.39	15433.49
483.57	15349.23
483.74	15169.01
483.92	15440.51
484.10	15515.41
484.28	15829.04
484.46	16020.97
484.64	16285.45
484.82	16051.39
485.00	16025.65
485.18	16245.66
485.35	16215.23
485.53	15948.41
485.71	15978.84
485.89	16142.67
486.07	16093.52
486.25	16690.36
486.43	16798.02
486.61	16908.03
486.78	16971.22
486.96	17188.89
487.14	17404.22
487.32	17369.12
487.50	17994.04
487.68	17865.31
487.85	18253.84
488.03	18317.03
488.21	18616.62
488.39	18190.64
488.57	18553.43
488.75	18621.30
488.92	18794.50
489.10	18913.87
489.28	19005.15
489.46	19316.44
489.64	19726.04
489.81	20027.96
489.99	20226.91
490.17	19831.36
490.35	20170.74
490.53	20367.34
490.70	20526.50
490.88	20482.03
491.06	20671.61
491.24	20496.07
491.41	20673.95
491.59	20992.26
491.77	20372.02
491.95	20739.49
492.13	21165.46
492.30	21631.23
492.48	21434.63
492.66	21509.52
492.84	21579.74
493.01	22178.92
493.19	21837.20
493.37	22038.48
493.54	22040.82
493.72	22216.36
493.90	22300.62
494.08	22672.77
494.25	22869.37
494.43	23073.00
494.61	23143.22
494.79	23274.29
494.96	23241.52
495.14	23264.92
495.32	23360.89
495.49	23620.69
495.67	23728.35
495.85	23798.57
496.02	23978.79
496.20	24030.28
496.38	24238.59
496.55	24294.76
496.73	24872.87
496.91	24521.79
497.09	24702.01
497.26	25127.99
497.44	24900.96
497.62	24952.45
497.79	25167.78
497.97	24917.34
498.14	25174.80
498.32	25422.90
498.50	25383.11
498.67	25769.30
498.85	25834.83
499.03	26298.26
499.20	26218.68
499.38	25776.32
499.56	26045.48
499.73	26359.11
499.91	26288.90
500.08	26092.29
500.26	26178.89
500.44	26607.21
500.61	26363.79
500.79	26188.25
500.97	26426.99
501.14	27372.57
501.32	27028.51
501.49	27005.10
501.67	26993.40
501.84	27056.59
502.02	27283.62
502.20	27454.48
502.37	27358.52
502.55	27590.24
502.72	27456.82
502.90	27981.10
503.07	27468.53
503.25	28098.13
503.43	28009.19
503.60	28025.57
503.78	28208.14
503.95	28128.56
504.13	28093.45
504.30	28453.89
504.48	28577.94
504.65	28479.64
504.83	28835.40
505.01	28617.73
505.18	28907.96
505.36	29174.78
505.53	29200.52
505.71	29549.26
505.88	29741.19
506.06	29479.05
506.23	29397.13
506.41	29495.43
506.58	29457.98
506.76	29834.81
506.93	29570.33
507.11	29748.21
507.28	30157.80
507.46	30061.84
507.63	29876.94
507.81	29813.74
507.98	29525.86
508.16	30115.67
508.33	30216.32
508.50	30574.42
508.68	30464.41
508.85	30836.56
509.03	30684.42
509.20	30801.45
509.38	31047.21
509.55	30988.69
509.73	31496.59
509.90	31339.77
510.08	31302.32
510.25	30981.67
510.42	31281.26
510.60	31377.22
510.77	31400.63
510.95	31735.32
511.12	31709.58
511.30	31894.48
511.47	31985.76
511.64	32173.00
511.82	32706.65
511.99	32023.21
512.17	31934.27
512.34	32301.73
512.51	32175.34
512.69	32371.95
512.86	32371.95
513.04	32718.35
513.21	32760.48
513.38	32711.33
513.56	32704.31
513.73	32720.69
513.90	32580.26
514.08	32458.55
514.25	32863.46
514.43	32964.10
514.60	32926.66
514.77	32638.77
514.95	33598.39
515.12	33579.67
515.29	33366.68
515.47	33670.95
515.64	33752.87
515.81	33883.94
515.99	33596.05
516.16	33530.51
516.33	33008.58
516.51	33383.06
516.68	33106.88
516.85	32903.25
517.03	33291.78
517.20	33993.94
517.37	34029.05
517.54	34171.82
517.72	33642.86
517.89	33544.56
518.06	34073.52
518.24	33778.61
518.41	34043.09
518.58	34391.83
518.75	34125.01
518.93	34323.96
519.10	34450.35
519.27	35012.07
519.45	34513.54
519.62	34969.94
519.79	35122.08
519.96	34909.09
520.14	35126.76
520.31	35023.78
520.48	35161.87
520.65	35187.61
520.83	36175.32
521.00	35557.42
521.17	35526.99
521.34	36229.15
521.52	35945.95
521.69	35765.73
521.86	35840.62
522.03	35817.22
522.20	35941.27
522.38	36318.09
522.55	36027.87
522.72	36034.89
522.89	36002.12
523.07	36645.77
523.24	36182.34
523.41	36715.98
523.58	36505.34
523.75	36669.17
523.92	37043.66
524.10	36793.22
524.27	36823.65
524.44	37008.55
524.61	37144.30
524.78	37050.68
524.96	37443.89
525.13	37219.20
525.30	37525.81
525.47	37528.15
525.64	37266.01
525.81	37493.04
525.98	37069.40
526.16	37022.59
526.33	36935.99
526.50	37329.20
526.67	37214.52
526.84	36945.36
527.01	37427.51
527.18	37186.43
527.36	37684.97
527.53	38157.75
527.70	38483.09
527.87	37982.21
528.04	37792.63
528.21	38150.73
528.38	38199.88
528.55	38756.93
528.72	38543.94
528.89	38796.72
529.07	38548.62
529.24	38220.95
529.41	38309.89
529.58	38277.12
529.75	38726.50
529.92	38672.67
530.09	38794.38
530.26	38932.47
530.43	38909.07
530.60	39009.71
530.77	38806.08
530.94	39152.48
531.11	39236.74
531.28	39037.80
531.46	39264.83
531.63	39302.28
531.80	39082.27
531.97	39335.04
532.14	39435.69
532.31	39023.75
532.48	38925.45
532.65	39477.82
532.82	39208.65
532.99	39154.82
533.16	39063.54
533.33	39861.66
533.50	39634.63
533.67	39775.06
533.84	39613.57
534.01	39676.76
534.18	39426.32
534.35	39622.93
534.52	39524.63
534.69	40360.20
534.86	40254.87
535.03	40032.52
535.20	40133.17
535.37	40477.22
535.54	40807.24
535.71	40191.68
535.88	40278.28
536.05	40301.68
536.22	40715.96
536.38	40545.10
536.55	40999.16
536.72	40694.89
536.89	40048.91
537.06	40456.16
537.23	40584.89
537.40	40538.08
537.57	40840.01
537.74	40706.60
537.91	40882.14
538.08	41155.98
538.25	40788.52
538.42	40868.09
538.59	41088.10
538.75	40641.06
538.92	41097.47
539.09	41298.75
539.26	41163.00
539.43	40842.35
539.60	40905.54
539.77	40870.43
539.94	40989.80
540.11	41043.63
540.28	41497.70
540.44	41514.08
540.61	40957.03
540.78	40935.97
540.95	41235.56
541.12	41340.88
541.29	41383.01
541.46	41469.61
541.62	41298.75
541.79	41502.38
541.96	41493.02
542.13	41312.80
542.30	41312.80
542.47	42026.66
542.63	41731.75
542.80	41656.85
542.97	42227.95
543.14	42637.54
543.31	42260.71
543.48	42129.64
543.64	42820.10
543.81	42609.45
543.98	42642.22
544.15	42550.94
544.32	42426.89
544.48	42684.35
544.65	43000.32
544.82	42614.13
544.99	42014.96
545.16	42541.58
545.32	42190.50
545.49	43182.88
545.66	42759.25
545.83	42895.00
546.00	43213.31
546.16	43236.72
546.33	42597.75
546.50	42218.58
546.67	43332.68
546.83	42497.11
547.00	43070.54
547.17	42382.42
547.34	43267.14
547.50	43311.61
547.67	43522.26
547.84	43220.33
548.00	43662.69
548.17	43407.58
548.34	43056.50
548.51	43538.65
548.67	43388.85
548.84	43440.34
549.01	43562.05
549.18	43189.91
549.34	43187.56
549.51	43632.27
549.68	43515.24
549.84	43686.10
550.01	43573.75
550.18	43079.90
550.34	43660.35
550.51	43655.67
550.68	43447.36
550.84	43196.93
551.01	43620.56
551.18	43428.64
551.34	43400.55
551.51	43959.94
551.68	43838.23
551.84	43854.62
552.01	43803.13
552.18	43959.94
552.34	43426.30
552.51	43873.34
552.68	43826.53
552.84	43789.08
553.01	44470.18
553.18	43936.54
553.34	43885.04
553.51	44091.01
553.67	43969.30
553.84	44423.37
554.01	44435.07
554.17	44385.92
554.34	44596.57
554.51	44343.79
554.67	44507.63
554.84	44292.30
555.00	44554.44
555.17	44486.56
555.33	44629.34
555.50	44849.35
555.67	44362.51
555.83	44381.24
556.00	44772.11
556.16	44781.47
556.33	44744.02
556.50	44559.12
556.66	44334.43
556.83	44083.99
556.99	44807.22
557.16	44697.21
557.32	44505.29
557.49	44898.50
557.65	44580.18
557.82	45083.40
557.98	44692.53
558.15	44961.69
558.32	44818.92
558.48	44535.71
558.65	44687.85
558.81	44507.63
558.98	44802.53
559.14	44311.02
559.31	44608.27
559.47	44524.01
559.64	45109.14
559.80	44765.09
559.97	44748.70
560.13	44240.81
560.30	44889.13
560.46	45057.65
560.63	44800.19
560.79	45418.10
560.96	44954.67
561.12	44893.82
561.29	44701.89
561.45	44935.95
561.61	44701.89
561.78	44706.57
561.94	44924.24
562.11	45008.50
562.27	45270.64
562.44	45254.26
562.60	45305.75
562.77	45034.25
562.93	45158.30
563.10	45455.54
563.26	44987.44
563.42	45469.59
563.59	45455.54
563.75	45146.59
563.92	45172.34
564.08	45598.32
564.24	45785.56
564.41	45352.56
564.57	45368.94
564.74	45097.44
564.90	44987.44
565.07	45179.36
565.23	45322.13
565.39	45263.62
565.56	45495.33
565.72	44980.42
565.88	45048.29
566.05	44802.53
566.21	45134.89
566.38	45397.03
566.54	45298.73
566.70	45549.17
566.87	45841.73
567.03	45729.39
567.19	45439.16
567.36	45523.42
567.52	45668.53
567.68	45476.61
567.85	45284.68
568.01	45558.53
568.17	45151.27
568.34	45703.64
568.50	45509.38
568.66	45251.92
568.83	45425.12
568.99	45034.25
569.15	45282.34
569.32	45081.06
569.48	45848.75
569.64	45457.88
569.81	45584.27
569.97	45366.60
570.13	45490.65
570.30	45382.99
570.46	45446.18
570.62	45191.06
570.78	45088.08
570.95	44854.03
571.11	45432.14
571.27	45633.42
571.43	45600.66
571.60	45617.04
571.76	45275.32
571.92	45509.38
572.09	45511.72
572.25	45457.88
572.41	45797.26
572.57	45563.21
572.74	45769.18
572.90	45684.92
573.06	46068.76
573.22	45794.92
573.38	45727.05
573.55	45942.38
573.71	45579.59
573.87	45593.64
574.03	45420.44
574.20	45865.14
574.36	45766.84
574.52	45523.42
574.68	45724.71
574.84	45633.42
575.01	45125.53
575.17	45404.05
575.33	45270.64
575.49	45612.36
575.65	45989.19
575.82	45743.43
575.98	45563.21
576.14	45860.46
576.30	45787.90
576.46	45661.51
576.62	45663.85
576.79	45701.30
576.95	45439.16
577.11	45832.37
577.27	45312.77
577.43	45668.53
577.59	45450.86
577.75	45783.22
577.92	45191.06
578.08	45223.83
578.24	45221.49
578.40	45509.38
578.56	45268.30
578.72	45481.29
578.88	45495.33
579.04	45773.86
579.21	45574.91
579.37	45755.13
579.53	45773.86
579.69	45530.44
579.85	46012.59
580.01	45673.21
580.17	45984.51
580.33	46101.53
580.49	46036.00
580.65	45570.23
580.82	45790.24
580.98	45851.09
581.14	45144.25
581.30	45778.54
581.46	45834.71
581.62	45949.40
581.78	45748.11
581.94	45933.01
582.10	45916.63
582.26	45743.43
582.42	45710.66
582.58	45397.03
582.74	45570.23
582.90	46064.08
583.06	46209.20
583.22	46082.81
583.38	46038.34
583.54	46043.02
583.70	45734.07
583.86	46057.06
584.02	45675.55
584.18	45918.97
584.34	45815.99
584.50	46174.09
584.66	46199.83
584.82	45588.95
584.98	46057.06
585.14	45918.97
585.30	45701.30
585.46	45757.47
585.62	45703.64
585.78	45572.57
585.94	45024.89
586.10	45865.14
586.26	45694.28
586.42	46277.07
586.58	46260.69
586.74	45963.44
586.90	45684.92
587.06	45624.06
587.22	46157.70
587.38	45724.71
587.54	45951.74
587.70	45937.69
587.86	46089.83
588.02	46021.95
588.18	45956.42
588.34	45553.85
588.49	45249.58
588.65	45137.23
588.81	45514.06
588.97	45509.38
589.13	45155.96
589.29	45680.24
589.45	45808.96
589.61	45598.32
589.77	45633.42
589.93	45595.98
590.08	46026.63
