SpectraSuite Data File
++++++++++++++++++++++++++++++++++++
Date: Fri Oct 25 11:25:21 EDT 2013
User: price-jones
Dark Spectrum Present: No
Reference Spectrum Present: No
Number of Sampled Component Spectra: 1
Spectrometers: USB2+H05261
Integration Time (usec): 100000 (USB2+H05261)
Spectra Averaged: 1 (USB2+H05261)
Boxcar Smoothing: 0 (USB2+H05261)
Correct for Electrical Dark: No (USB2+H05261)
Strobe/Lamp Enabled: No (USB2+H05261)
Correct for Detector Non-linearity: No (USB2+H05261)
Correct for Stray Light: No (USB2+H05261)
Number of Pixels in Processed Spectrum: 2048
>>>>>Begin Processed Spectral Data<<<<<
365.73	250.44
365.92	250.44
366.12	250.44
366.32	175.54
366.52	212.99
366.72	168.52
366.91	112.35
367.11	145.11
367.31	100.64
367.51	135.75
367.70	72.56
367.90	79.58
368.10	110.01
368.30	168.52
368.49	100.64
368.69	119.37
368.89	159.16
369.09	154.48
369.28	166.18
369.48	131.07
369.68	147.45
369.87	163.84
370.07	224.69
370.27	243.42
370.47	437.68
370.66	521.94
370.86	650.67
371.06	634.29
371.25	692.80
371.45	671.73
371.65	699.82
371.84	627.26
372.04	713.86
372.24	711.52
372.44	718.54
372.63	744.29
372.83	748.97
373.03	798.12
373.22	725.57
373.42	814.51
373.62	835.57
373.81	835.57
374.01	812.17
374.21	793.44
374.40	823.87
374.60	819.19
374.79	805.14
374.99	823.87
375.19	903.45
375.38	779.40
375.58	861.32
375.78	795.78
375.97	784.08
376.17	875.36
376.37	840.25
376.56	901.11
376.76	854.30
376.95	812.17
377.15	931.53
377.35	961.96
377.54	910.47
377.74	866.00
377.93	880.04
378.13	884.72
378.33	887.06
378.52	985.37
378.72	933.87
378.91	1001.75
379.11	931.53
379.31	891.74
379.50	910.47
379.70	959.62
379.89	971.32
380.09	990.05
380.28	1062.60
380.48	947.92
380.68	933.87
380.87	990.05
381.07	978.34
381.26	1018.13
381.46	947.92
381.65	1057.92
381.85	1032.18
382.04	1025.15
382.24	1064.94
382.43	1078.99
382.63	1018.13
382.83	1039.20
383.02	1116.44
383.22	1095.37
383.41	1137.50
383.61	1097.71
383.80	1184.31
384.00	1121.12
384.19	1032.18
384.39	1050.90
384.58	1111.75
384.78	1174.95
384.97	1167.93
385.17	1165.59
385.36	1149.20
385.56	1121.12
385.75	1174.95
385.95	1219.42
386.14	1135.16
386.34	1207.72
386.53	1256.87
386.72	1158.57
386.92	1191.33
387.11	1181.97
387.31	1296.66
387.50	1163.25
387.70	1252.19
387.89	1338.79
388.09	1207.72
388.28	1322.40
388.48	1277.93
388.67	1324.74
388.86	1270.91
389.06	1345.81
389.25	1352.83
389.45	1352.83
389.64	1240.48
389.84	1366.87
390.03	1352.83
390.22	1308.36
390.42	1394.96
390.61	1357.51
390.81	1352.83
391.00	1327.08
391.19	1392.62
391.39	1476.88
391.58	1476.88
391.78	1500.28
391.97	1535.39
392.16	1420.71
392.36	1514.33
392.55	1535.39
392.75	1476.88
392.94	1526.03
393.13	1640.72
393.33	1432.41
393.52	1542.41
393.71	1530.71
393.91	1577.52
394.10	1603.27
394.29	1554.12
394.49	1591.56
394.68	1610.29
394.88	1563.48
395.07	1687.53
395.26	1706.25
395.46	1645.40
395.65	1659.44
395.84	1717.95
396.04	1764.76
396.23	1788.17
396.42	1762.42
396.62	1757.74
396.81	1736.68
397.00	1781.15
397.19	1724.97
397.39	1722.63
397.58	1806.89
397.77	1736.68
397.97	1818.60
398.16	1797.53
398.35	1874.77
398.55	1750.72
398.74	1832.64
398.93	1846.68
399.12	1804.55
399.32	1799.87
399.51	1888.81
399.70	2059.67
399.90	2005.84
400.09	1996.48
400.28	2040.95
400.47	2064.35
400.67	2059.67
400.86	2080.74
401.05	2071.37
401.24	2062.01
401.44	2019.88
401.63	2050.31
401.82	2104.14
402.01	2157.97
402.21	2148.61
402.40	2104.14
402.59	2092.44
402.78	2181.38
402.97	2211.81
403.17	2275.00
403.36	2326.49
403.55	2340.54
403.74	2349.90
403.93	2244.57
404.13	2387.35
404.32	2420.11
404.51	2326.49
404.70	2445.86
404.89	2396.71
405.09	2586.29
405.28	2509.05
405.47	2368.62
405.66	2445.86
405.85	2525.44
406.05	2544.16
406.24	2511.39
406.43	2612.04
406.62	2576.93
406.81	2619.06
407.00	2539.48
407.20	2595.65
407.39	2628.42
407.58	2684.59
407.77	2738.43
407.96	2778.22
408.15	2743.11
408.34	2700.98
408.54	2764.17
408.73	2848.43
408.92	2719.70
409.11	2881.20
409.30	2911.63
409.49	2810.98
409.68	3047.38
409.87	2850.77
410.07	2939.71
410.26	2972.48
410.45	3035.67
410.64	3098.87
410.83	3038.02
411.02	3054.40
411.21	3173.77
411.40	3155.04
411.59	3330.58
411.78	3056.74
411.98	3201.85
412.17	3201.85
412.36	3288.45
412.55	3316.54
412.74	3412.50
412.93	3283.77
413.12	3361.01
413.31	3534.21
413.50	3398.46
413.69	3449.95
413.88	3634.85
414.07	3599.74
414.26	3588.04
414.45	3583.36
414.64	3623.15
414.83	3688.68
415.02	3749.54
415.22	3831.46
415.41	3777.62
415.60	3852.52
415.79	3861.88
415.98	4007.00
416.17	3894.65
416.36	3990.61
416.55	4051.47
416.74	4058.49
416.93	4028.06
417.12	4016.36
417.31	4093.60
417.50	4154.45
417.69	4236.37
417.88	4334.67
418.07	4262.12
418.26	4238.71
418.45	4241.05
418.64	4365.10
418.83	4353.40
419.02	4280.84
419.21	4402.55
419.39	4475.10
419.58	4449.36
419.77	4447.02
419.96	4437.66
420.15	4482.13
420.34	4526.60
420.53	4615.54
420.72	4873.00
420.91	4755.97
421.10	4828.53
421.29	4753.63
421.48	4535.96
421.67	4692.77
421.86	4798.10
422.05	4865.97
422.24	4737.24
422.43	4880.02
422.61	4877.68
422.80	4898.74
422.99	4746.61
423.18	4896.40
423.37	4943.21
423.56	4833.21
423.75	4870.65
423.94	4800.44
424.13	4592.13
424.32	4788.74
424.50	4950.23
424.69	5093.01
424.88	5095.35
425.07	5015.77
425.26	5109.39
425.45	5020.45
425.64	4924.49
425.83	5041.51
426.01	4880.02
426.20	5071.94
426.39	4912.78
426.58	4959.60
426.77	5074.28
426.96	5200.67
427.15	5085.98
427.33	5193.65
427.52	5142.16
427.71	5247.48
427.90	5270.89
428.09	5277.91
428.28	5174.92
428.46	5210.03
428.65	5338.76
428.84	5542.39
429.03	5514.30
429.22	5247.48
429.40	5383.23
429.59	5582.18
429.78	5219.39
429.97	5308.34
430.16	5331.74
430.34	5647.71
430.53	5628.99
430.72	5540.05
430.91	5556.43
431.10	5682.82
431.28	5727.29
431.47	5748.36
431.66	5769.42
431.85	5743.67
432.03	5930.92
432.22	5837.30
432.41	5914.53
432.60	5830.27
432.79	6005.81
432.97	5930.92
433.16	6033.90
433.35	5933.26
433.54	6094.76
433.72	6019.86
433.91	5998.79
434.10	6193.06
434.28	5998.79
434.47	6239.87
434.66	6214.12
434.85	6246.89
435.03	6216.46
435.22	6122.84
435.41	6532.44
435.59	6328.81
435.78	6333.49
435.97	6417.75
436.16	6279.66
436.34	6305.40
436.53	6480.94
436.72	6487.96
436.90	6534.78
437.09	6567.54
437.28	6457.54
437.46	6579.25
437.65	6829.68
437.84	6733.72
438.02	6745.42
438.21	6612.01
438.40	6679.89
438.58	7000.54
438.77	6913.94
438.96	7023.95
439.14	6874.15
439.33	7225.23
439.52	7164.38
439.70	7274.38
439.89	7386.73
440.08	7384.39
440.26	7260.34
440.45	7192.47
440.63	7405.46
440.82	7517.80
441.01	7424.18
441.19	7501.42
441.38	7728.45
441.57	7599.72
441.75	7693.34
441.94	8205.92
442.12	7978.89
442.31	8060.80
442.50	7889.95
442.68	7824.41
442.87	8135.70
443.05	7932.08
443.24	8098.25
443.43	7920.37
443.61	8107.62
443.80	8292.52
443.98	8056.12
444.17	7901.65
444.35	8201.24
444.54	8320.60
444.73	8224.64
444.91	8273.79
445.10	8390.82
445.28	8278.47
445.47	8095.91
445.65	8168.47
445.84	8353.37
446.02	8404.86
446.21	8351.03
446.39	8212.94
446.58	8320.60
446.77	8393.16
446.95	8311.24
447.14	8308.90
447.32	8329.97
447.51	8514.87
447.69	8446.99
447.88	8664.66
448.06	8318.26
448.25	8414.23
448.43	8678.71
448.62	8397.84
448.80	8428.27
448.99	8580.40
449.17	8697.43
449.36	8486.78
449.54	8795.73
449.73	9004.04
449.91	8849.57
450.10	8940.85
450.28	9224.05
450.46	8994.68
450.65	8882.33
450.83	9256.82
451.02	8966.59
451.20	9238.09
451.39	8933.82
451.57	9167.88
451.76	8798.07
451.94	9109.36
452.13	9217.03
452.31	9275.54
452.49	8950.21
452.68	9341.08
452.86	9212.35
453.05	9486.19
453.23	9490.87
453.42	9376.19
453.60	9387.89
453.78	9504.92
453.97	9469.81
454.15	9551.73
454.34	9256.82
454.52	9687.48
454.70	9598.54
454.89	9610.24
455.07	9444.06
455.26	9638.33
455.44	9762.37
455.62	9820.89
455.81	9764.72
455.99	9949.62
456.17	10281.97
456.36	9832.59
456.54	9909.83
456.73	10200.05
456.91	10328.78
457.09	10298.36
457.28	10443.47
457.46	10270.27
457.64	10204.74
457.83	10583.90
458.01	10326.44
458.19	10516.03
458.38	10576.88
458.56	10626.03
458.74	10640.08
458.93	10736.04
459.11	10750.08
459.29	10714.97
459.48	10822.64
459.66	10672.84
459.84	10729.02
460.03	10965.41
460.21	10874.13
460.39	10850.72
460.57	10960.73
460.76	11040.31
460.94	11239.25
461.12	11164.36
461.31	10874.13
461.49	11176.06
461.67	10974.77
461.85	11470.97
462.04	11211.17
462.22	11609.06
462.40	11700.34
462.59	11267.34
462.77	11477.99
462.95	11515.44
463.13	11236.91
463.32	11487.35
463.50	11737.79
463.68	11658.21
463.86	11782.26
464.05	11447.56
464.23	11578.63
464.41	11716.72
464.59	11625.44
464.78	11887.58
464.96	12126.32
465.14	11772.89
465.32	11960.14
465.50	11941.41
465.69	12173.13
465.87	12166.10
466.05	11967.16
466.23	12320.58
466.41	12020.99
466.60	12353.35
466.78	12030.35
466.96	12248.02
467.14	12170.79
467.32	12327.60
467.51	12388.46
467.69	12367.39
467.87	12306.54
468.05	12809.75
468.23	12266.75
468.41	12587.40
468.60	12510.16
468.78	12751.24
468.96	12416.54
469.14	12585.06
469.32	12776.98
469.50	12489.10
469.69	12863.58
469.87	12898.69
470.05	13121.04
470.23	13146.79
470.41	12938.48
470.59	12980.61
470.77	13153.81
470.95	13263.82
471.14	13252.11
471.32	13212.32
471.50	13408.93
471.68	13589.15
471.86	13696.82
472.04	13579.79
472.22	13902.78
472.40	13399.57
472.58	13689.79
472.77	13902.78
472.95	14265.57
473.13	14305.35
473.31	14085.34
473.49	14036.19
473.67	14101.73
473.85	14251.52
474.03	14448.13
474.21	14579.20
474.39	14558.13
474.57	14295.99
474.75	14977.09
474.93	15283.70
475.12	14967.73
475.30	15026.24
475.48	14881.13
475.66	14867.08
475.84	15101.14
476.02	15091.77
476.20	15641.80
476.38	15829.04
476.56	15791.59
476.74	16114.59
476.92	15829.04
477.10	15585.63
477.28	15824.36
477.46	16084.16
477.64	16531.20
477.82	16652.91
478.00	16924.41
478.18	16915.05
478.36	16966.54
478.54	17116.34
478.72	17006.33
478.90	17284.86
479.08	17153.79
479.26	17514.23
479.44	17497.84
479.62	17862.97
479.80	18012.76
479.98	18136.81
480.16	18651.73
480.34	18272.56
480.52	18628.32
480.70	18452.78
480.88	18342.78
481.06	18597.90
481.24	18803.86
481.41	18768.76
481.59	19276.65
481.77	19323.46
481.95	19161.97
482.13	19609.01
482.31	19573.90
482.49	20194.14
482.67	20168.40
482.85	20306.49
483.03	20505.43
483.21	20854.17
483.39	20851.83
483.57	20348.62
483.74	21179.51
483.92	21329.30
484.10	21151.42
484.28	21624.21
484.46	22106.36
484.64	22101.68
484.82	21930.82
485.00	22253.81
485.18	22525.32
485.35	22651.70
485.53	22775.75
485.71	23009.81
485.89	23342.16
486.07	22944.27
486.25	23225.14
486.43	23545.79
486.61	23620.69
486.78	23782.18
486.96	23917.93
487.14	24592.01
487.32	24503.07
487.50	24627.12
487.68	24884.58
487.85	24854.15
488.03	25472.05
488.21	25722.49
488.39	25577.37
488.57	25832.49
488.75	26384.86
488.92	26279.54
489.10	26588.49
489.28	26625.93
489.46	26782.75
489.64	27061.27
489.81	27545.76
489.99	27606.62
490.17	27494.27
490.35	28011.53
490.53	27843.01
490.70	27793.86
490.88	28109.83
491.06	28781.57
491.24	28748.80
491.41	29240.31
491.59	29350.32
491.77	29144.35
491.95	29350.32
492.13	29834.81
492.30	29661.61
492.48	29874.60
492.66	29993.97
492.84	30019.71
493.01	30464.41
493.19	30359.09
493.37	30878.69
493.54	30466.75
493.72	31365.52
493.90	31381.90
494.08	31564.46
494.25	31852.35
494.43	31952.99
494.61	32194.07
494.79	32474.93
494.96	32481.95
495.14	32713.67
495.32	32954.74
495.49	32732.39
495.67	33031.98
495.85	33046.02
496.02	33713.08
496.20	34038.41
496.38	33605.41
496.55	33696.69
496.73	34836.53
496.91	34485.45
497.09	34438.64
497.26	34586.10
497.44	34988.67
497.62	35070.59
497.79	35756.36
497.97	35431.03
498.14	36137.87
498.32	35810.20
498.50	36060.63
498.67	36325.11
498.85	36229.15
499.03	36290.01
499.20	36580.23
499.38	36381.29
499.56	36842.37
499.73	37167.71
499.91	36917.27
500.08	37387.72
500.26	37516.45
500.44	37614.75
500.61	37879.23
500.79	37446.23
500.97	38295.85
501.14	38080.52
501.32	38312.23
501.49	38721.82
501.67	38539.26
501.84	38815.44
502.02	38593.09
502.20	38824.81
502.37	39257.81
502.55	39117.37
502.72	39372.49
502.90	39262.49
503.07	38948.85
503.25	39360.79
503.43	39152.48
503.60	40219.77
503.78	40034.86
503.95	40231.47
504.13	40154.23
504.30	40362.54
504.48	40268.92
504.65	40678.51
504.83	40935.97
505.01	41214.49
505.18	40985.12
505.36	41212.15
505.53	40580.21
505.71	41368.97
505.88	41303.43
506.06	41244.92
506.23	41675.58
506.41	41352.58
506.58	41979.85
506.76	41722.39
506.93	41986.87
507.11	42415.19
507.28	42021.98
507.46	42557.96
507.63	42759.25
507.81	42754.57
507.98	42265.39
508.16	43255.44
508.33	42960.53
508.50	43150.12
508.68	43353.74
508.85	43693.12
509.03	43367.79
509.20	43540.99
509.38	44041.86
509.55	44217.40
509.73	44189.31
509.90	44711.25
510.08	44196.34
510.25	44463.16
510.42	44603.59
510.60	44355.49
510.77	45277.66
510.95	45202.77
511.12	45146.59
511.30	44875.09
511.47	45050.63
511.64	45581.93
511.82	45848.75
511.99	45139.57
512.17	45897.91
512.34	45600.66
512.51	45937.69
512.69	46492.40
512.86	46199.83
513.04	46183.45
513.21	46302.82
513.38	46356.65
513.56	46710.07
513.73	46204.52
513.90	46955.83
514.08	46663.26
514.25	46887.95
514.43	47103.28
514.60	47257.76
514.77	47047.11
514.95	47267.12
515.12	47084.56
515.29	47344.36
515.47	47746.93
515.64	47978.64
515.81	47838.21
515.99	47908.43
516.16	47995.03
516.33	48030.13
516.51	48318.02
516.68	48116.73
516.85	48123.75
517.03	48715.91
517.20	48664.42
517.37	48479.52
517.54	48868.05
517.72	48493.56
517.89	48786.13
518.06	49104.44
518.24	49092.74
518.41	48945.28
518.58	49188.70
518.75	48856.34
518.93	49626.38
519.10	49076.35
519.27	49783.19
519.45	49684.89
519.62	49375.94
519.79	49834.69
519.96	49521.05
520.14	49970.44
520.31	49748.09
520.48	50169.38
520.65	50117.89
520.83	50401.10
521.00	50471.31
521.17	50209.17
521.34	50220.87
521.52	50946.44
521.69	50424.50
521.86	51241.35
522.03	51075.17
522.20	50766.22
522.38	51065.81
522.55	51161.77
522.72	51105.60
522.89	51182.84
523.07	51187.52
523.24	51648.60
523.41	51466.04
523.58	51239.01
523.75	51618.17
523.92	51540.94
524.10	51896.70
524.27	51793.71
524.44	51917.76
524.61	51910.74
524.78	51679.03
524.96	52074.58
525.13	52097.98
525.30	51959.89
525.47	52168.20
525.64	52217.35
525.81	52420.98
525.98	52570.77
526.16	52528.64
526.33	52371.83
526.50	52825.89
526.67	52666.73
526.84	53003.77
527.01	52701.84
527.18	52357.78
527.36	52516.94
527.53	52699.50
527.70	53209.74
527.87	53113.78
528.04	53038.88
528.21	53286.98
528.38	53256.55
528.55	53167.61
528.72	53392.30
528.89	53359.53
529.07	53205.06
529.24	53235.48
529.41	53272.93
529.58	53389.96
529.75	53670.82
529.92	53724.66
530.09	53366.55
530.26	54038.29
530.43	54064.03
530.60	53951.69
530.77	53574.86
530.94	54054.67
531.11	53680.19
531.28	53923.60
531.46	53907.22
531.63	53996.16
531.80	54124.89
531.97	54288.73
532.14	53961.05
532.31	54293.41
532.48	54541.50
532.65	54216.17
532.82	54485.33
532.99	54550.87
533.16	54490.01
533.33	54564.91
533.50	54775.56
533.67	54571.93
533.84	54548.53
534.01	54906.63
534.18	54958.12
534.35	55309.20
534.52	54937.05
534.69	55023.65
534.86	55105.57
535.03	55079.83
535.20	55246.00
535.37	55035.36
535.54	55112.59
535.71	55070.46
535.88	55292.82
536.05	55224.94
536.22	55566.66
536.38	55587.72
536.55	55407.50
536.72	55451.97
536.89	55182.81
537.06	55590.06
537.23	55536.23
537.40	55447.29
537.57	55693.05
537.74	55512.83
537.91	55765.60
538.08	55922.42
538.25	55580.70
538.42	55723.47
538.59	56039.45
538.75	55796.03
538.92	55735.18
539.09	56165.84
539.26	55917.74
539.43	55901.36
539.60	56044.13
539.77	56186.90
539.94	56322.65
540.11	55978.59
540.28	56200.94
540.44	56294.56
540.61	56247.75
540.78	56137.75
540.95	56161.15
541.12	56381.16
541.29	56301.59
541.46	56545.00
541.62	56460.74
541.79	56563.73
541.96	56079.24
542.13	56346.06
542.30	56357.76
542.47	56846.93
542.63	56575.43
542.80	56598.83
542.97	56896.08
543.14	57151.20
543.31	56933.53
543.48	57249.50
543.64	57350.15
543.81	57120.77
543.98	56914.81
544.15	57244.82
544.32	57228.44
544.48	57600.58
544.65	57137.16
544.82	57364.19
544.99	57148.86
545.16	57282.27
545.32	57513.98
545.49	57701.23
545.66	57607.61
545.83	57324.40
546.00	57614.63
546.16	57642.71
546.33	57462.49
546.50	57403.98
546.67	57661.44
546.83	57378.23
547.00	57726.97
547.17	57556.11
547.34	57635.69
547.50	57771.44
547.67	57771.44
547.84	58073.37
548.00	57944.64
548.17	57935.28
548.34	57879.11
548.51	58150.61
548.67	58141.25
548.84	58014.86
549.01	57855.70
549.18	57879.11
549.34	58059.33
549.51	58185.72
549.68	58241.89
549.84	58108.48
550.01	58143.59
550.18	58202.10
550.34	58277.00
550.51	58419.77
550.68	58410.41
550.84	58164.65
551.01	58372.96
551.18	58342.53
551.34	58148.27
551.51	58471.26
551.68	58431.47
551.84	58454.88
552.01	58438.50
552.18	58623.40
552.34	58475.94
552.51	58314.45
552.68	58309.77
552.84	58646.80
553.01	58621.06
553.18	58419.77
553.34	58747.45
553.51	58625.74
553.67	58684.25
553.84	58913.62
554.01	58869.15
554.17	58904.26
554.34	58768.51
554.51	58555.52
554.67	58848.09
554.84	59150.02
555.00	58965.12
555.17	58791.92
555.33	59014.27
555.50	58789.58
555.67	58908.94
555.83	58852.77
556.00	59054.06
556.16	59018.95
556.33	59166.40
556.50	59068.10
556.66	59192.15
556.83	58951.07
556.99	59187.47
557.16	59241.30
557.32	59454.29
557.49	59222.58
557.65	59098.53
557.82	59222.58
557.98	59346.62
558.15	59255.34
558.32	59344.28
558.48	59180.45
558.65	59419.18
558.81	59494.08
558.98	59182.79
559.14	59334.92
559.31	59456.63
559.47	59503.44
559.64	59552.59
559.80	59449.61
559.97	59639.19
560.13	59440.24
560.30	59655.57
560.46	59571.32
560.63	59728.13
560.79	59728.13
560.96	59704.73
561.12	59622.81
561.29	59650.89
561.45	59784.30
561.61	59678.98
561.78	59545.57
561.94	59636.85
562.11	59641.53
562.27	59700.04
562.44	59887.29
562.60	59945.80
562.77	59763.24
562.93	59547.91
563.10	59824.09
563.26	59767.92
563.42	60140.07
563.59	59721.11
563.75	59969.21
563.92	59821.75
564.08	59732.81
564.24	60154.11
564.41	59887.29
564.57	59838.14
564.74	59948.14
564.90	59999.63
565.07	59908.35
565.23	59852.18
565.39	59950.48
565.56	60179.85
565.72	59964.52
565.88	60069.85
566.05	59973.89
566.21	59957.50
566.38	60247.73
566.54	60184.54
566.70	60172.83
566.87	60135.38
567.03	59868.56
567.19	60315.61
567.36	60254.75
567.52	60016.02
567.68	60423.27
567.85	60163.47
568.01	60463.06
568.17	60111.98
568.34	60144.75
568.50	60060.49
568.66	60308.58
568.83	60383.48
568.99	60217.30
569.15	60198.58
569.32	60470.08
569.48	60296.88
569.64	60528.59
569.81	60427.95
569.97	60214.96
570.13	60320.29
570.30	60200.92
570.46	60348.37
570.62	60409.23
570.78	60320.29
570.95	60238.37
571.11	60484.12
571.27	60334.33
571.43	60423.27
571.60	60500.51
571.76	60544.98
571.92	60687.75
572.09	60371.78
572.25	60657.32
572.41	60346.03
572.57	60626.90
572.74	60715.84
572.90	60418.59
573.06	60413.91
573.22	60514.55
573.38	60685.41
573.55	60619.88
573.71	60654.98
573.87	60573.06
574.03	60493.49
574.20	60566.04
574.36	60580.09
574.52	60622.22
574.68	60741.58
574.84	60598.81
575.01	60718.18
575.17	60470.08
575.33	60467.74
575.49	60493.49
575.65	60626.90
575.82	60793.07
575.98	60690.09
576.14	60898.40
576.30	60739.24
576.46	60622.22
576.62	60727.54
576.79	60619.88
576.95	60561.36
577.11	60734.56
577.27	60666.69
577.43	60832.86
577.59	60734.56
577.75	60626.90
577.92	60748.60
578.08	60699.45
578.24	60715.84
578.40	60931.17
578.56	60874.99
578.72	60626.90
578.88	60853.93
579.04	60802.44
579.21	60736.90
579.37	60839.89
579.53	60863.29
579.69	60460.72
579.85	60561.36
580.01	60573.06
580.17	60528.59
580.33	61013.08
580.49	60982.66
580.65	60804.78
580.82	60711.16
580.98	60521.57
581.14	60694.77
581.30	60933.51
581.46	60821.16
581.62	60846.91
581.78	60580.09
581.94	60622.22
582.10	60608.17
582.26	60786.05
582.42	60687.75
582.58	60727.54
582.74	60652.64
582.90	60860.95
583.06	60662.00
583.22	60587.11
583.38	60631.58
583.54	61020.11
583.70	60839.89
583.86	60779.03
584.02	60638.60
584.18	60935.85
584.34	60952.23
584.50	60669.03
584.66	60832.86
584.82	60636.26
584.98	60708.82
585.14	60839.89
585.30	60811.80
585.46	60996.70
585.62	61008.40
585.78	61151.18
585.94	60790.73
586.10	61013.08
586.26	60987.34
586.42	60966.27
586.58	61010.74
586.74	60999.04
586.90	60814.14
587.06	60816.48
587.22	60921.80
587.38	60865.63
587.54	61038.83
587.70	61212.03
587.86	60949.89
588.02	60898.40
588.18	60870.31
588.34	60830.52
588.49	60919.46
