SpectraSuite Data File
++++++++++++++++++++++++++++++++++++
Date: Fri Oct 25 11:33:42 EDT 2013
User: price-jones
Dark Spectrum Present: No
Reference Spectrum Present: No
Number of Sampled Component Spectra: 1
Spectrometers: USB2+H05261
Integration Time (usec): 100000 (USB2+H05261)
Spectra Averaged: 1 (USB2+H05261)
Boxcar Smoothing: 0 (USB2+H05261)
Correct for Electrical Dark: No (USB2+H05261)
Strobe/Lamp Enabled: No (USB2+H05261)
Correct for Detector Non-linearity: No (USB2+H05261)
Correct for Stray Light: No (USB2+H05261)
Number of Pixels in Processed Spectrum: 2048
>>>>>Begin Processed Spectral Data<<<<<
365.73	224.69
365.92	224.69
366.12	224.69
366.32	161.50
366.52	140.43
366.72	205.97
366.91	140.43
367.11	180.22
367.31	135.75
367.51	119.37
367.70	86.60
367.90	161.50
368.10	184.90
368.30	182.56
368.49	191.92
368.69	189.58
368.89	180.22
369.09	142.77
369.28	215.33
369.48	224.69
369.68	241.08
369.87	255.12
370.07	238.73
370.27	222.35
370.47	276.18
370.66	535.98
370.86	524.28
371.06	631.94
371.25	566.41
371.45	461.09
371.65	575.77
371.84	505.56
372.04	566.41
372.24	528.96
372.44	617.90
372.63	559.39
372.83	589.82
373.03	592.16
373.22	634.29
373.42	643.65
373.62	645.99
373.81	662.37
374.01	622.58
374.21	681.10
374.40	627.26
374.60	643.65
374.79	596.84
374.99	624.92
375.19	643.65
375.38	681.10
375.58	676.41
375.78	662.37
375.97	697.48
376.17	638.97
376.37	688.12
376.56	622.58
376.76	667.05
376.95	643.65
377.15	676.41
377.35	685.78
377.54	622.58
377.74	650.67
377.93	688.12
378.13	748.97
378.33	678.76
378.52	645.99
378.72	812.17
378.91	660.03
379.11	755.99
379.31	732.59
379.50	748.97
379.70	784.08
379.89	716.20
380.09	697.48
380.28	704.50
380.48	699.82
380.68	683.44
380.87	699.82
381.07	631.94
381.26	711.52
381.46	758.33
381.65	763.01
381.85	774.72
382.04	821.53
382.24	840.25
382.43	772.38
382.63	753.65
382.83	702.16
383.02	774.72
383.22	819.19
383.41	678.76
383.61	821.53
383.80	777.06
384.00	835.57
384.19	837.91
384.39	748.97
384.58	875.36
384.78	915.15
384.97	840.25
385.17	826.21
385.36	875.36
385.56	837.91
385.75	786.42
385.95	833.23
386.14	889.40
386.34	854.30
386.53	816.85
386.72	875.36
386.92	917.49
387.11	910.47
387.31	898.77
387.50	837.91
387.70	908.13
387.89	863.66
388.09	1041.54
388.28	866.00
388.48	844.93
388.67	978.34
388.86	922.17
389.06	926.85
389.25	936.21
389.45	957.28
389.64	922.17
389.84	964.30
390.03	1020.47
390.22	968.98
390.42	973.66
390.61	973.66
390.81	891.74
391.00	980.68
391.19	933.87
391.39	1011.11
391.58	1022.81
391.78	990.05
391.97	980.68
392.16	952.60
392.36	1102.39
392.55	1069.62
392.75	1041.54
392.94	1011.11
393.13	992.39
393.33	1011.11
393.52	1057.92
393.71	1158.57
393.91	1156.22
394.10	1123.46
394.29	1102.39
394.49	1090.69
394.68	1104.73
394.88	1125.80
395.07	1242.82
395.26	1181.97
395.46	1130.48
395.65	1114.10
395.84	1242.82
396.04	1184.31
396.23	1170.27
396.42	1226.44
396.62	1153.88
396.81	1207.72
397.00	1135.16
397.19	1320.06
397.39	1294.32
397.58	1245.16
397.77	1170.27
397.97	1238.14
398.16	1214.74
398.35	1198.35
398.55	1207.72
398.74	1249.85
398.93	1299.00
399.12	1313.04
399.32	1242.82
399.51	1317.72
399.70	1345.81
399.90	1357.51
400.09	1369.21
400.28	1434.75
400.47	1423.05
400.67	1481.56
400.86	1420.71
401.05	1289.64
401.24	1380.92
401.44	1462.83
401.63	1502.62
401.82	1509.65
402.01	1458.15
402.21	1467.52
402.40	1493.26
402.59	1540.07
402.78	1554.12
402.97	1526.03
403.17	1486.24
403.36	1544.75
403.55	1589.22
403.74	1556.46
403.93	1605.61
404.13	1614.97
404.32	1591.56
404.51	1479.22
404.70	1685.19
404.89	1703.91
405.09	1717.95
405.28	1717.95
405.47	1687.53
405.66	1729.66
405.85	1687.53
406.05	1732.00
406.24	1741.36
406.43	1806.89
406.62	1757.74
406.81	1830.30
407.00	1722.63
407.20	1797.53
407.39	1757.74
407.58	1823.28
407.77	1881.79
407.96	1872.43
408.15	1755.40
408.34	1891.15
408.54	1853.70
408.73	1944.99
408.92	1891.15
409.11	1933.28
409.30	2003.50
409.49	2071.37
409.68	1942.64
409.87	2087.76
410.07	1944.99
410.26	2094.78
410.45	1994.14
410.64	2099.46
410.83	2153.29
411.02	2083.08
411.21	2230.53
411.40	2204.78
411.59	2216.49
411.78	2064.35
411.98	2127.55
412.17	2118.18
412.36	2300.75
412.55	2251.60
412.74	2305.43
412.93	2321.81
413.12	2363.94
413.31	2441.18
413.50	2459.90
413.69	2427.14
413.88	2527.78
414.07	2429.48
414.26	2532.46
414.45	2509.05
414.64	2523.10
414.83	2537.14
415.02	2658.85
415.22	2757.15
415.41	2698.64
415.60	2715.02
415.79	2677.57
415.98	2703.32
416.17	2818.00
416.36	2743.11
416.55	2803.96
416.74	2832.05
416.93	2956.10
417.12	2825.03
417.31	2862.48
417.50	2895.24
417.69	2988.86
417.88	2878.86
418.07	2839.07
418.26	2942.05
418.45	3077.80
418.64	3077.80
418.83	3122.27
419.02	3075.46
419.21	3082.49
419.39	3208.87
419.58	3131.64
419.77	3084.83
419.96	3197.17
420.15	3206.53
420.34	3215.90
420.53	3171.43
420.72	3187.81
420.91	3330.58
421.10	3258.03
421.29	3361.01
421.48	3234.62
421.67	3403.14
421.86	3283.77
422.05	3279.09
422.24	3286.11
422.43	3424.20
422.61	3335.26
422.80	3384.41
422.99	3485.06
423.18	3459.31
423.37	3309.52
423.56	3417.18
423.75	3499.10
423.94	3243.98
424.13	3122.27
424.32	3346.97
424.50	3440.59
424.69	3581.02
424.88	3555.27
425.07	3412.50
425.26	3396.12
425.45	3475.70
425.64	3398.46
425.83	3419.52
426.01	3452.29
426.20	3400.80
426.39	3485.06
426.58	3475.70
426.77	3384.41
426.96	3550.59
427.15	3552.93
427.33	3604.42
427.52	3501.44
427.71	3637.19
427.90	3609.11
428.09	3655.92
428.28	3691.02
428.46	3709.75
428.65	3613.79
428.84	3749.54
429.03	3939.12
429.22	3709.75
429.40	3758.90
429.59	3831.46
429.78	3555.27
429.97	3698.05
430.16	3838.48
430.34	3904.01
430.53	4030.40
430.72	3946.14
430.91	3911.04
431.10	3957.85
431.28	4063.17
431.47	4067.85
431.66	3887.63
431.85	4028.06
432.03	4109.98
432.22	4152.11
432.41	4126.36
432.60	4177.86
432.79	4014.02
432.97	4168.49
433.16	4145.09
433.35	3960.19
433.54	4283.18
433.72	4142.75
433.91	4231.69
434.10	4393.19
434.28	4133.39
434.47	4128.70
434.66	4205.94
434.85	4428.29
435.03	4362.76
435.22	4379.14
435.41	4454.04
435.59	4329.99
435.78	4381.48
435.97	4400.21
436.16	4376.80
436.34	4360.42
436.53	4351.06
436.72	4652.98
436.90	4477.44
437.09	4524.26
437.28	4341.69
437.46	4573.41
437.65	4470.42
437.84	4697.46
438.02	4517.23
438.21	4535.96
438.40	4496.17
438.58	4788.74
438.77	4877.68
438.96	4751.29
439.14	4713.84
439.33	4868.31
439.52	5032.15
439.70	4868.31
439.89	4971.30
440.08	5097.69
440.26	4940.87
440.45	5034.49
440.63	5046.20
440.82	5195.99
441.01	5153.86
441.19	5247.48
441.38	5280.25
441.57	5238.12
441.75	5352.81
441.94	5507.28
442.12	5483.88
442.31	5481.53
442.50	5404.30
442.68	5369.19
442.87	5481.53
443.05	5432.38
443.24	5628.99
443.43	5664.10
443.61	5523.66
443.80	5628.99
443.98	5301.31
444.17	5345.78
444.35	5500.26
444.54	5755.38
444.73	5561.11
444.91	5659.42
445.10	5614.95
445.28	5628.99
445.47	5631.33
445.65	5636.01
445.84	5654.73
446.02	5872.40
446.21	5621.97
446.39	5673.46
446.58	5858.36
446.77	5790.49
446.95	5518.98
447.14	5727.29
447.32	5827.93
447.51	5680.48
447.69	5823.25
447.88	5867.72
448.06	5797.51
448.25	5614.95
448.43	5774.10
448.62	6017.52
448.80	5809.21
448.99	6024.54
449.17	5870.06
449.36	5783.46
449.54	6223.48
449.73	6094.76
449.91	6169.65
450.10	5994.11
450.28	6080.71
450.46	6176.67
450.65	6146.25
450.83	6216.46
451.02	6129.86
451.20	6146.25
451.39	6300.72
451.57	6310.08
451.76	6108.80
451.94	6244.55
452.13	6277.32
452.31	6169.65
452.49	6160.29
452.68	6305.40
452.86	6417.75
453.05	6487.96
453.23	6368.60
453.42	6347.53
453.60	6221.14
453.78	6422.43
453.97	6469.24
454.15	6452.86
454.34	6527.75
454.52	6661.16
454.70	6499.67
454.89	6672.87
455.07	6523.07
455.26	6782.87
455.44	6651.80
455.62	6869.47
455.81	6740.74
455.99	6813.30
456.17	6715.00
456.36	6792.23
456.54	6839.05
456.73	6960.75
456.91	6927.99
457.09	7040.33
457.28	7295.45
457.46	6993.52
457.64	7232.26
457.83	7052.03
458.01	6993.52
458.19	7185.44
458.38	7171.40
458.56	7150.34
458.74	7190.13
458.93	7281.41
459.11	7145.66
459.29	7272.04
459.48	7255.66
459.66	7382.05
459.84	7506.10
460.03	7372.69
460.21	7218.21
460.39	7304.81
460.57	7227.57
460.76	7445.24
460.94	7569.29
461.12	7438.22
461.31	7564.61
461.49	7431.20
461.67	7569.29
461.85	7840.79
462.04	7576.31
462.22	7946.12
462.40	7822.07
462.59	7754.19
462.77	7749.51
462.95	7758.88
463.13	7854.84
463.32	7859.52
463.50	7852.50
463.68	7983.57
463.86	7915.69
464.05	7960.16
464.23	7843.14
464.41	7978.89
464.59	7908.67
464.78	8203.58
464.96	7978.89
465.14	7868.88
465.32	8205.92
465.50	8025.70
465.69	8315.92
465.87	8030.38
466.05	8238.69
466.23	8088.89
466.41	8379.12
466.60	8381.46
466.78	8149.75
466.96	8341.67
467.14	8114.64
467.32	8411.89
467.51	8365.07
467.69	8180.17
467.87	8304.22
468.05	8402.52
468.23	8236.35
468.41	8351.03
468.60	8393.16
468.78	8566.36
468.96	8599.13
469.14	8493.80
469.32	8774.67
469.50	8533.59
469.69	8741.90
469.87	8751.26
470.05	8608.49
470.23	8631.90
470.41	8833.18
470.59	8821.48
470.77	8882.33
470.95	8730.20
471.14	8870.63
471.32	8894.04
471.50	9116.39
471.68	9111.71
471.86	9055.53
472.04	9252.14
472.22	9214.69
472.40	8894.04
472.58	9053.19
472.77	9341.08
472.95	9277.88
473.13	9657.05
473.31	9458.10
473.49	9483.85
473.67	9626.62
473.85	9605.56
474.03	9958.98
474.21	9778.76
474.39	9832.59
474.57	9802.16
474.75	10064.30
474.93	9937.91
475.12	9816.21
475.30	9956.64
475.48	9975.36
475.66	10115.80
475.84	10033.88
476.02	10209.42
476.20	10174.31
476.38	10513.69
476.56	10579.22
476.74	10511.35
476.92	10560.50
477.10	10499.64
477.28	10874.13
477.46	10764.12
477.64	10815.62
477.82	11002.86
478.00	11297.77
478.18	11124.57
478.36	11173.72
478.54	11370.32
478.72	11398.41
478.90	11627.78
479.08	11566.93
479.26	11808.00
479.44	11845.45
479.62	11829.07
479.80	11901.62
479.98	11920.35
480.16	12320.58
480.34	12095.89
480.52	12175.47
480.70	12294.83
480.88	12145.04
481.06	12498.46
481.24	12784.01
481.41	12575.70
481.59	12585.06
481.77	12952.52
481.95	12779.32
482.13	13034.44
482.31	12938.48
482.49	13446.38
482.67	13350.42
482.85	13652.34
483.03	13727.24
483.21	13638.30
483.39	13984.70
483.57	13813.84
483.74	13912.14
483.92	14026.83
484.10	13968.32
484.28	14298.33
484.46	14129.81
484.64	14930.28
484.82	14604.94
485.00	14511.32
485.18	15028.58
485.35	15098.80
485.53	14909.21
485.71	15091.77
485.89	15372.64
486.07	15634.78
486.25	15681.59
486.43	15768.19
486.61	15712.02
486.78	15915.64
486.96	15819.68
487.14	16070.12
487.32	16161.40
487.50	16475.03
487.68	16397.79
487.85	16374.39
488.03	16563.97
488.21	17046.12
488.39	16798.02
488.57	17193.58
488.75	17179.53
488.92	17502.53
489.10	17563.38
489.28	17626.57
489.46	17713.17
489.64	17972.97
489.81	18298.31
489.99	18347.46
490.17	18190.64
490.35	18401.29
490.53	18707.90
490.70	18551.09
490.88	18530.02
491.06	18911.53
491.24	18834.29
491.41	18956.00
491.59	19185.37
491.77	19009.83
491.95	19410.06
492.13	19400.70
492.30	19466.24
492.48	19587.94
492.66	19803.27
492.84	20119.24
493.01	20154.35
493.19	20049.03
493.37	20320.53
493.54	20702.04
493.72	20697.36
493.90	20828.43
494.08	21029.71
494.25	21048.44
494.43	21245.04
494.61	21022.69
494.79	21411.22
494.96	21296.53
495.14	21666.34
495.32	21766.98
495.49	21553.99
495.67	21944.86
495.85	21975.29
496.02	22162.53
496.20	22340.41
496.38	22335.73
496.55	22305.31
496.73	22860.01
496.91	22614.26
497.09	22824.90
497.26	22876.40
497.44	23257.90
497.62	23236.84
497.79	23660.48
497.97	23023.85
498.14	23370.25
498.32	23552.81
498.50	23807.93
498.67	23939.00
498.85	23730.69
499.03	24088.79
499.20	24341.57
499.38	24484.34
499.56	24699.67
499.73	24407.11
499.91	24610.73
500.08	24624.78
500.26	24861.17
500.44	24676.27
500.61	24929.05
500.79	24950.11
500.97	25111.61
501.14	25383.11
501.32	25696.74
501.49	25338.64
501.67	25392.47
501.84	25846.54
502.02	25525.88
502.20	25493.12
502.37	25830.15
502.55	25703.76
502.72	26169.53
502.90	25853.56
503.07	26031.44
503.25	25795.04
503.43	26115.70
503.60	26478.48
503.78	26595.51
503.95	26555.72
504.13	26625.93
504.30	26810.84
504.48	26637.64
504.65	26892.76
504.83	27276.60
505.01	26684.45
505.18	26993.40
505.36	27363.20
505.53	27316.39
505.71	27150.21
505.88	27555.13
506.06	27613.64
506.23	27639.39
506.41	27599.60
506.58	27475.55
506.76	27791.52
506.93	27967.06
507.11	28435.17
507.28	28437.51
507.46	28135.58
507.63	28123.88
507.81	28318.14
507.98	28510.07
508.16	28561.56
508.33	28442.19
508.50	28886.89
508.68	29057.75
508.85	28809.65
509.03	29172.44
509.20	29029.66
509.38	29387.77
509.55	29165.42
509.73	29434.58
509.90	29518.84
510.08	29209.89
510.25	29280.10
510.42	29886.30
510.60	30110.99
510.77	29876.94
510.95	30403.56
511.12	30022.05
511.30	29956.52
511.47	30340.36
511.64	30174.19
511.82	30391.86
511.99	30370.79
512.17	30445.69
512.34	30850.60
512.51	30735.92
512.69	30721.87
512.86	30796.77
513.04	30845.92
513.21	30864.64
513.38	30991.03
513.56	31346.79
513.73	31084.65
513.90	31428.71
514.08	30911.46
514.25	31627.66
514.43	31363.18
514.60	31765.75
514.77	31550.42
514.95	32063.00
515.12	31779.79
515.29	31810.22
515.47	32243.22
515.64	31948.31
515.81	31976.40
515.99	31906.18
516.16	32554.51
516.33	32297.05
516.51	32645.79
516.68	32577.92
516.85	32755.80
517.03	32814.31
517.20	32903.25
517.37	32830.69
517.54	33078.79
517.72	32933.68
517.89	33120.92
518.06	33497.75
518.24	32716.01
518.41	32797.93
518.58	33104.54
518.75	33015.60
518.93	33570.30
519.10	33329.23
519.27	33605.41
519.45	33364.34
519.62	33549.24
519.79	33832.44
519.96	33888.62
520.14	33696.69
520.31	33797.34
520.48	34139.05
520.65	34143.74
520.83	34504.18
521.00	34405.88
521.17	34532.26
521.34	34422.26
521.52	34707.80
521.69	34642.27
521.86	34747.59
522.03	34742.91
522.20	35206.34
522.38	34941.86
522.55	35110.38
522.72	35232.08
522.89	35147.82
523.07	35510.61
523.24	35407.62
523.41	35651.04
523.58	35426.35
523.75	35442.73
523.92	35253.15
524.10	35922.54
524.27	35580.82
524.44	35550.40
524.61	35590.19
524.78	35686.15
524.96	36041.91
525.13	36311.07
525.30	36301.71
525.47	36205.75
525.64	36341.50
525.81	36818.97
525.98	36701.94
526.16	36034.89
526.33	36315.75
526.50	36814.29
526.67	36187.02
526.84	36966.42
527.01	36563.85
527.18	37055.36
527.36	36868.12
527.53	36961.74
527.70	37284.73
527.87	37296.44
528.04	37111.53
528.21	37125.58
528.38	37525.81
528.55	37593.68
528.72	37193.45
528.89	36907.91
529.07	37343.25
529.24	37202.82
529.41	37624.11
529.58	37432.19
529.75	37336.23
529.92	37879.23
530.09	37930.72
530.26	37771.57
530.43	38178.82
530.60	37553.90
530.77	37738.80
530.94	38328.61
531.11	38019.66
531.28	38352.02
531.46	37813.70
531.63	38447.98
531.80	38160.09
531.97	38504.15
532.14	38401.17
532.31	38490.11
532.48	39124.40
532.65	38618.84
532.82	38529.90
532.99	38848.21
533.16	38653.95
533.33	39023.75
533.50	39026.09
533.67	38801.40
533.84	38862.26
534.01	39201.63
534.18	38962.90
534.35	39353.77
534.52	39295.25
534.69	39587.82
534.86	39693.15
535.03	39110.35
535.20	39538.67
535.37	39761.02
535.54	39938.90
535.71	39232.06
535.88	39896.77
536.05	39988.05
536.22	40219.77
536.38	40105.08
536.55	39704.85
536.72	39604.20
536.89	39288.23
537.06	39604.20
537.23	39868.69
537.40	40084.01
537.57	40016.14
537.74	40170.61
537.91	40151.89
538.08	39913.16
538.25	39908.47
538.42	40313.39
538.59	40421.05
538.75	40285.30
538.92	40435.10
539.09	40938.31
539.26	40802.56
539.43	40479.57
539.60	40760.43
539.77	40591.91
539.94	40964.06
540.11	40722.98
540.28	41074.06
540.44	40882.14
540.61	40491.27
540.78	40825.96
540.95	41397.06
541.12	40598.93
541.29	40865.75
541.46	40935.97
541.62	41237.90
541.79	40935.97
541.96	41118.53
542.13	41060.02
542.30	41186.41
542.47	41331.52
542.63	41228.54
542.80	41741.11
542.97	41656.85
543.14	42005.59
543.31	41450.89
543.48	41869.84
543.64	42085.17
543.81	42052.41
543.98	42134.32
544.15	42323.91
544.32	42211.56
544.48	42705.41
544.65	42494.77
544.82	42710.10
544.99	42176.45
545.16	42359.02
545.32	42630.52
545.49	42773.29
545.66	42658.60
545.83	42754.57
546.00	42527.53
546.16	42806.06
546.33	42670.31
546.50	42937.13
546.67	43070.54
546.83	42408.17
547.00	42543.92
547.17	42600.09
547.34	43056.50
547.50	43210.97
547.67	43665.03
547.84	43051.81
548.00	43248.42
548.17	43152.46
548.34	43496.52
548.51	43667.37
548.67	43627.59
548.84	43274.16
549.01	43328.00
549.18	43473.11
549.34	44006.75
549.51	43358.42
549.68	43618.22
549.84	43400.55
550.01	43290.55
550.18	43484.81
550.34	43400.55
550.51	43871.00
550.68	43775.04
550.84	43229.69
551.01	44027.82
551.18	43683.76
551.34	43828.87
551.51	43934.20
551.68	43917.81
551.84	43913.13
552.01	44119.10
552.18	43758.66
552.34	43978.67
552.51	43988.03
552.68	44072.29
552.84	44322.72
553.01	44313.36
553.18	44416.35
553.34	44360.17
553.51	44538.05
553.67	44201.02
553.84	44364.85
554.01	44493.58
554.17	44722.96
554.34	44645.72
554.51	44500.61
554.67	44299.32
554.84	44268.89
555.00	44821.26
555.17	44818.92
555.33	44629.34
555.50	44542.74
555.67	44729.98
555.83	44774.45
556.00	44919.56
556.16	45205.11
556.33	44987.44
556.50	44755.72
556.66	44985.10
556.83	44648.06
556.99	45291.71
557.16	45177.02
557.32	45301.07
557.49	45462.57
557.65	44985.10
557.82	45347.88
557.98	45275.32
558.15	44809.56
558.32	45141.91
558.48	45347.88
558.65	45530.44
558.81	44952.33
558.98	45500.01
559.14	44952.33
559.31	45181.70
559.47	45537.46
559.64	45780.88
559.80	45464.91
559.97	45429.80
560.13	45469.59
560.30	45209.79
560.46	45542.14
560.63	45776.20
560.79	45834.71
560.96	45478.95
561.12	45532.78
561.29	45764.49
561.45	46096.85
561.61	45918.97
561.78	45663.85
561.94	45633.42
562.11	45523.42
562.27	45799.60
562.44	45713.00
562.60	45815.99
562.77	45633.42
562.93	46007.91
563.10	46174.09
563.26	45862.80
563.42	46483.04
563.59	45872.16
563.75	46010.25
563.92	46305.16
564.08	46038.34
564.24	46213.88
564.41	46071.10
564.57	46000.89
564.74	46045.36
564.90	45869.82
565.07	46232.60
565.23	46452.61
565.39	45951.74
565.56	45949.40
565.72	46192.81
565.88	46087.49
566.05	46497.08
566.21	46483.04
566.38	45921.31
566.54	46323.88
566.70	46380.06
566.87	46471.34
567.03	46075.79
567.19	46117.92
567.36	46738.16
567.52	46550.91
567.68	46824.76
567.85	46218.56
568.01	46263.03
568.17	46349.63
568.34	46684.33
568.50	46653.90
568.66	45911.95
568.83	46307.50
568.99	46220.90
569.15	46525.17
569.32	46349.63
569.48	46574.32
569.64	46806.03
569.81	46450.27
569.97	46534.53
570.13	47082.22
570.30	46588.36
570.46	46677.30
570.62	46810.71
570.78	47049.45
570.95	46604.75
571.11	47000.30
571.27	46138.98
571.43	46696.03
571.60	46822.42
571.76	46293.46
571.92	46808.37
572.09	46368.35
572.25	46433.89
572.41	46794.33
572.57	46422.19
572.74	47089.24
572.90	46979.23
573.06	46686.67
573.22	47044.77
573.38	46876.25
573.55	46876.25
573.71	47426.28
573.87	47159.45
574.03	46965.19
574.20	47388.83
574.36	47105.62
574.52	47196.90
574.68	46756.88
574.84	46696.03
575.01	47215.63
575.17	47131.37
575.33	47248.39
575.49	47086.90
575.65	47000.30
575.82	47026.04
575.98	47112.64
576.14	47182.86
576.30	47276.48
576.46	47236.69
576.62	46775.61
576.79	47297.55
576.95	46876.25
577.11	47157.11
577.27	47250.74
577.43	47522.24
577.59	47210.95
577.75	46625.81
577.92	46775.61
578.08	47306.91
578.24	47498.83
578.40	47302.23
578.56	46855.18
578.72	47304.57
578.88	47648.63
579.04	47143.07
579.21	47274.14
579.37	47201.58
579.53	47285.84
579.69	47201.58
579.85	47189.88
580.01	47498.83
580.17	47236.69
580.33	47215.63
580.49	47501.17
580.65	47414.57
580.82	47281.16
580.98	47505.85
581.14	46960.51
581.30	47859.27
581.46	47199.24
581.62	47351.38
581.78	46904.34
581.94	47217.97
582.10	46969.87
582.26	47253.08
582.42	47274.14
582.58	47248.39
582.74	47618.20
582.90	47145.41
583.06	47840.55
583.22	47189.88
583.38	47409.89
583.54	47632.24
583.70	47550.32
583.86	47473.09
584.02	47152.43
584.18	47650.97
584.34	47264.78
584.50	47547.98
584.66	47646.29
584.82	47363.08
584.98	47704.80
585.14	47739.91
585.30	47489.47
585.46	47583.09
585.62	46710.07
585.78	47814.80
585.94	47299.89
586.10	47412.23
586.26	47358.40
586.42	47009.66
586.58	47459.04
586.74	47620.54
586.90	47714.16
587.06	47470.75
587.22	47824.17
587.38	47526.92
587.54	47777.36
587.70	47845.23
587.86	47442.66
588.02	47557.35
588.18	47608.84
588.34	47789.06
588.49	47161.79
588.65	47224.99
588.81	47810.12
588.97	47849.91
589.13	47711.82
589.29	47634.58
589.45	47810.12
589.61	47606.50
589.77	47494.15
589.93	47887.36
590.08	47868.64
