SpectraSuite Data File
++++++++++++++++++++++++++++++++++++
Date: Fri Oct 25 11:23:41 EDT 2013
User: price-jones
Dark Spectrum Present: No
Reference Spectrum Present: No
Number of Sampled Component Spectra: 1
Spectrometers: USB2+H05261
Integration Time (usec): 100000 (USB2+H05261)
Spectra Averaged: 1 (USB2+H05261)
Boxcar Smoothing: 0 (USB2+H05261)
Correct for Electrical Dark: No (USB2+H05261)
Strobe/Lamp Enabled: No (USB2+H05261)
Correct for Detector Non-linearity: No (USB2+H05261)
Correct for Stray Light: No (USB2+H05261)
Number of Pixels in Processed Spectrum: 2048
>>>>>Begin Processed Spectral Data<<<<<
365.73	250.44
365.92	250.44
366.12	250.44
366.32	161.50
366.52	95.96
366.72	191.92
366.91	187.24
367.11	91.28
367.31	70.22
367.51	161.50
367.70	170.86
367.90	133.41
368.10	124.05
368.30	149.79
368.49	70.22
368.69	177.88
368.89	203.63
369.09	114.69
369.28	138.09
369.48	121.71
369.68	203.63
369.87	182.56
370.07	201.29
370.27	255.12
370.47	320.65
370.66	594.50
370.86	641.31
371.06	662.37
371.25	641.31
371.45	594.50
371.65	664.71
371.84	587.47
372.04	734.93
372.24	692.80
372.44	706.84
372.63	653.01
372.83	711.52
373.03	690.46
373.22	723.23
373.42	737.27
373.62	816.85
373.81	856.64
374.01	812.17
374.21	760.67
374.40	807.48
374.60	833.23
374.79	863.66
374.99	802.80
375.19	833.23
375.38	851.96
375.58	861.32
375.78	873.02
375.97	821.53
376.17	915.15
376.37	772.38
376.56	805.14
376.76	849.61
376.95	901.11
377.15	868.34
377.35	924.51
377.54	976.00
377.74	889.40
377.93	858.98
378.13	966.64
378.33	901.11
378.52	968.98
378.72	954.94
378.91	938.55
379.11	873.02
379.31	908.13
379.50	924.51
379.70	945.58
379.89	987.71
380.09	931.53
380.28	966.64
380.48	1008.77
380.68	931.53
380.87	1055.58
381.07	999.41
381.26	1025.15
381.46	1001.75
381.65	1064.94
381.85	1067.28
382.04	992.39
382.24	1027.50
382.43	1074.31
382.63	1036.86
382.83	1057.92
383.02	1109.41
383.22	1074.31
383.41	1107.07
383.61	1128.14
383.80	1123.46
384.00	1039.20
384.19	1076.65
384.39	1149.20
384.58	1177.29
384.78	1163.25
384.97	1275.59
385.17	1093.03
385.36	1160.91
385.56	1191.33
385.75	1107.07
385.95	1118.78
386.14	1203.04
386.34	1214.74
386.53	1167.93
386.72	1174.95
386.92	1259.21
387.11	1249.85
387.31	1266.23
387.50	1256.87
387.70	1210.06
387.89	1221.76
388.09	1313.04
388.28	1308.36
388.48	1362.19
388.67	1308.36
388.86	1357.51
389.06	1317.72
389.25	1327.08
389.45	1331.76
389.64	1409.00
389.84	1373.89
390.03	1416.02
390.22	1308.36
390.42	1306.02
390.61	1404.32
390.81	1397.30
391.00	1439.43
391.19	1497.94
391.39	1427.73
391.58	1418.36
391.78	1434.75
391.97	1425.39
392.16	1460.49
392.36	1535.39
392.55	1565.82
392.75	1556.46
392.94	1584.54
393.13	1404.32
393.33	1488.58
393.52	1516.67
393.71	1486.24
393.91	1624.33
394.10	1575.18
394.29	1521.35
394.49	1605.61
394.68	1673.48
394.88	1743.70
395.07	1783.49
395.26	1741.36
395.46	1689.87
395.65	1739.02
395.84	1706.25
396.04	1760.08
396.23	1703.91
396.42	1692.21
396.62	1710.93
396.81	1790.51
397.00	1739.02
397.19	1858.39
397.39	1643.06
397.58	1872.43
397.77	1748.38
397.97	1790.51
398.16	1888.81
398.35	1825.62
398.55	1818.60
398.74	1827.96
398.93	1966.05
399.12	1905.20
399.32	1952.01
399.51	1947.33
399.70	1942.64
399.90	1872.43
400.09	1996.48
400.28	2090.10
400.47	1996.48
400.67	2069.03
400.86	2047.97
401.05	2113.50
401.24	2120.53
401.44	2062.01
401.63	2134.57
401.82	2122.87
402.01	2097.12
402.21	2181.38
402.40	2197.76
402.59	2080.74
402.78	2160.31
402.97	2218.83
403.17	2218.83
403.36	2232.87
403.55	2312.45
403.74	2394.37
403.93	2340.54
404.13	2387.35
404.32	2370.96
404.51	2422.45
404.70	2480.97
404.89	2347.56
405.09	2516.08
405.28	2497.35
405.47	2523.10
405.66	2417.77
405.85	2541.82
406.05	2518.42
406.24	2567.57
406.43	2686.94
406.62	2656.51
406.81	2719.70
407.00	2682.25
407.20	2551.18
407.39	2473.95
407.58	2698.64
407.77	2764.17
407.96	2789.92
408.15	2752.47
408.34	2832.05
408.54	2937.37
408.73	2885.88
408.92	2729.06
409.11	2771.19
409.30	2979.50
409.49	2862.48
409.68	2892.90
409.87	2981.84
410.07	3059.08
410.26	2970.14
410.45	2949.08
410.64	2974.82
410.83	3087.17
411.02	3215.90
411.21	3115.25
411.40	3133.98
411.59	3290.79
411.78	3222.92
411.98	3213.56
412.17	3293.13
412.36	3215.90
412.55	3368.03
412.74	3335.26
412.93	3452.29
413.12	3463.99
413.31	3646.55
413.50	3431.23
413.69	3564.64
413.88	3585.70
414.07	3559.95
414.26	3756.56
414.45	3625.49
414.64	3733.15
414.83	3719.11
415.02	3686.34
415.22	3850.18
415.41	3939.12
415.60	3838.48
415.79	3974.23
415.98	4009.34
416.17	3988.27
416.36	3927.42
416.55	3999.98
416.74	4117.00
416.93	4046.79
417.12	4175.52
417.31	4297.22
417.50	4023.38
417.69	4189.56
417.88	4269.14
418.07	4203.60
418.26	4344.03
418.45	4325.31
418.64	4442.34
418.83	4561.70
419.02	4507.87
419.21	4669.37
419.39	4519.57
419.58	4449.36
419.77	4458.72
419.96	4440.00
420.15	4568.73
420.34	4568.73
420.53	4767.67
420.72	4711.50
420.91	4765.33
421.10	4816.82
421.29	4786.40
421.48	4704.48
421.67	4833.21
421.86	4662.35
422.05	4910.44
422.24	4889.38
422.43	4868.31
422.61	4922.15
422.80	5032.15
422.99	4933.85
423.18	5057.90
423.37	4964.28
423.56	4994.70
423.75	4882.36
423.94	4903.42
424.13	4660.01
424.32	4737.24
424.50	5022.79
424.69	5078.96
424.88	5252.16
425.07	4994.70
425.26	5001.72
425.45	5102.37
425.64	4975.98
425.83	4992.36
426.01	5109.39
426.20	5111.73
426.39	5109.39
426.58	5167.90
426.77	5167.90
426.96	5184.29
427.15	5277.91
427.33	5226.42
427.52	5296.63
427.71	5341.10
427.90	5371.53
428.09	5385.57
428.28	5448.77
428.46	5526.00
428.65	5401.96
428.84	5586.86
429.03	5500.26
429.22	5345.78
429.40	5509.62
429.59	5427.70
429.78	5214.71
429.97	5343.44
430.16	5636.01
430.34	5673.46
430.53	5785.80
430.72	5565.79
430.91	5605.58
431.10	5818.57
431.28	5582.18
431.47	5762.40
431.66	5884.11
431.85	5757.72
432.03	5879.43
432.22	5846.66
432.41	5877.09
432.60	6050.28
432.79	5989.43
432.97	5846.66
433.16	5947.30
433.35	6054.97
433.54	6026.88
433.72	6160.29
433.91	6047.94
434.10	6094.76
434.28	6064.33
434.47	6214.12
434.66	6113.48
434.85	6436.47
435.03	6401.37
435.22	6345.19
435.41	6534.78
435.59	6476.26
435.78	6445.84
435.97	6443.49
436.16	6588.61
436.34	6604.99
436.53	6459.88
436.72	6658.82
436.90	6595.63
437.09	6569.88
437.28	6282.00
437.46	6782.87
437.65	6672.87
437.84	6834.36
438.02	6857.77
438.21	6890.54
438.40	6534.78
438.58	6981.82
438.77	7035.65
438.96	6927.99
439.14	7267.36
439.33	7176.08
439.52	7265.02
439.70	7136.29
439.89	7269.70
440.08	7351.62
440.26	7396.09
440.45	7433.54
440.63	7485.03
440.82	7597.38
441.01	7463.97
441.19	7620.78
441.38	7805.69
441.57	7695.68
441.75	7999.95
441.94	8004.63
442.12	7847.82
442.31	7922.71
442.50	8049.10
442.68	8074.85
442.87	8011.65
443.05	8161.45
443.24	8168.47
443.43	7992.93
443.61	8259.75
443.80	8589.77
443.98	8105.28
444.17	7964.84
444.35	8304.22
444.54	8528.91
444.73	8454.02
444.91	8177.83
445.10	8414.23
445.28	8411.89
445.47	8276.13
445.65	8386.14
445.84	8332.31
446.02	8355.71
446.21	8236.35
446.39	8531.25
446.58	8430.61
446.77	8465.72
446.95	8287.84
447.14	8482.10
447.32	8613.17
447.51	8531.25
447.69	8613.17
447.88	8451.67
448.06	8657.64
448.25	8554.66
448.43	8615.51
448.62	8613.17
448.80	8608.49
448.99	8683.39
449.17	8734.88
449.36	8739.56
449.54	8936.17
449.73	8840.20
449.91	9158.52
450.10	8882.33
450.28	9069.58
450.46	9097.66
450.65	9057.87
450.83	9027.45
451.02	9027.45
451.20	9118.73
451.39	9275.54
451.57	9233.41
451.76	9032.13
451.94	9104.68
452.13	9607.90
452.31	9383.21
452.49	9121.07
452.68	9261.50
452.86	9467.47
453.05	9324.69
453.23	9657.05
453.42	9348.10
453.60	9275.54
453.78	9647.69
453.97	9540.02
454.15	9474.49
454.34	9500.23
454.52	9809.19
454.70	9551.73
454.89	9738.97
455.07	9795.14
455.26	9888.76
455.44	10054.94
455.62	9926.21
455.81	10010.47
455.99	10090.05
456.17	9994.09
456.36	10003.45
456.54	10134.52
456.73	10274.95
456.91	10431.77
457.09	10523.05
457.28	10661.14
457.46	10429.43
457.64	10583.90
457.83	10656.46
458.01	10544.11
458.19	10885.83
458.38	10707.95
458.56	10846.04
458.74	10750.08
458.93	10768.80
459.11	10806.25
459.29	10890.51
459.48	10785.19
459.66	10743.06
459.84	10803.91
460.03	11014.56
460.21	11185.42
460.39	11040.31
460.57	10946.69
460.76	11152.65
460.94	11075.42
461.12	11117.54
461.31	11103.50
461.49	11145.63
461.67	11412.45
461.85	11707.36
462.04	11302.45
462.22	11576.29
462.40	11658.21
462.59	11660.55
462.77	11571.61
462.95	11557.57
463.13	11552.88
463.32	11681.61
463.50	11761.19
463.68	11967.16
463.86	12135.68
464.05	11616.08
464.23	11693.32
464.41	11913.33
464.59	11606.72
464.78	12266.75
464.96	11918.01
465.14	11847.79
465.32	12081.85
465.50	12091.21
465.69	12327.60
465.87	12123.98
466.05	12196.53
466.23	12386.12
466.41	11948.43
466.60	12535.91
466.78	12428.24
466.96	12376.75
467.14	12283.13
467.32	12376.75
467.51	12805.07
467.69	12035.03
467.87	12437.61
468.05	12718.47
468.23	12400.16
468.41	12690.38
468.60	12727.83
468.78	12980.61
468.96	12559.31
469.14	12870.61
469.32	13057.85
469.50	12704.43
469.69	13217.01
469.87	13025.08
470.05	13137.43
470.23	13341.05
470.41	12996.99
470.59	13465.10
470.77	13167.85
470.95	13198.28
471.14	13502.55
471.32	13179.56
471.50	13668.73
471.68	13748.31
471.86	13509.57
472.04	14050.24
472.22	14190.67
472.40	13736.60
472.58	13951.93
472.77	14024.49
472.95	14143.86
473.13	14422.38
473.31	14160.24
473.49	14190.67
473.67	14033.85
473.85	14398.98
474.03	14862.40
474.21	14567.49
474.39	14635.37
474.57	14780.48
474.75	14846.02
474.93	15061.35
475.12	15094.11
475.30	15236.89
475.48	15229.87
475.66	15241.57
475.84	15206.46
476.02	15484.98
476.20	15393.70
476.38	15819.68
476.56	16002.24
476.74	16027.99
476.92	15892.24
477.10	15929.69
477.28	16035.01
477.46	16145.02
477.64	16599.08
477.82	16374.39
478.00	16957.18
478.18	16692.70
478.36	17109.32
478.54	17240.39
478.72	17355.07
478.90	17383.16
479.08	17781.05
479.26	17741.26
479.44	17685.09
479.62	17930.84
479.80	17956.59
479.98	18375.55
480.16	18576.83
480.34	18202.35
480.52	18782.80
480.70	18831.95
480.88	18448.10
481.06	18710.24
481.24	19101.11
481.41	19206.44
481.59	19044.94
481.77	19543.47
481.95	19396.02
482.13	19749.44
482.31	19941.36
482.49	20219.89
482.67	20259.68
482.85	20346.28
483.03	20493.73
483.21	20919.71
483.39	20893.96
483.57	20865.88
483.74	21109.29
483.92	21088.23
484.10	21198.23
484.28	22040.82
484.46	22267.86
484.64	22544.04
484.82	22204.66
485.00	22284.24
485.18	22831.93
485.35	23105.77
485.53	22937.25
485.71	23098.75
485.89	23573.88
486.07	23007.47
486.25	23475.57
486.43	23384.29
486.61	23873.46
486.78	24060.71
486.96	24006.87
487.14	24673.93
487.32	24877.55
487.50	24861.17
487.68	25099.90
487.85	25565.67
488.03	25724.83
488.21	25778.66
488.39	25926.11
488.57	26665.72
488.75	26223.36
488.92	26562.74
489.10	26771.05
489.28	26658.70
489.46	26810.84
489.64	26979.36
489.81	27740.03
489.99	27775.14
490.17	27901.53
490.35	28367.29
490.53	28432.83
490.70	28369.63
490.88	28783.91
491.06	28996.90
491.24	28826.04
491.41	29092.86
491.59	29462.66
491.77	29359.68
491.95	29720.12
492.13	29944.81
492.30	29965.88
492.48	30075.88
492.66	30363.77
492.84	30136.74
493.01	30913.80
493.19	30452.71
493.37	31550.42
493.54	31180.62
493.72	31922.57
493.90	31248.49
494.08	32189.39
494.25	32381.31
494.43	32107.47
494.61	32566.21
494.79	32477.27
494.96	32818.99
495.14	32744.09
495.32	33092.83
495.49	33315.19
495.67	33102.20
495.85	33776.27
496.02	33633.50
496.20	33975.22
496.38	34031.39
496.55	34199.91
496.73	34717.17
496.91	34520.56
497.09	35466.14
497.26	34923.13
497.44	35353.79
497.62	35477.84
497.79	35498.91
497.97	35573.80
498.14	36540.44
498.32	36432.78
498.50	36140.21
498.67	36498.31
498.85	36559.17
499.03	37343.25
499.20	36774.50
499.38	37106.85
499.56	37067.06
499.73	36987.49
499.91	37495.38
500.08	37862.85
500.26	37490.70
500.44	37706.03
500.61	38202.22
500.79	37916.68
500.97	38792.04
501.14	38410.53
501.32	38738.21
501.49	38911.41
501.67	38974.60
501.84	39426.32
502.02	38845.87
502.20	38892.68
502.37	39203.97
502.55	39536.33
502.72	39735.27
502.90	39805.49
503.07	39669.74
503.25	40067.63
503.43	40133.17
503.60	40755.75
503.78	40432.75
503.95	40505.31
504.13	40566.16
504.30	41053.00
504.48	40486.59
504.65	41153.64
504.83	41439.18
505.01	41422.80
505.18	41425.14
505.36	41418.12
505.53	41612.38
505.71	41883.89
505.88	41993.89
506.06	41605.36
506.23	42368.38
506.41	42085.17
506.58	41911.97
506.76	42731.16
506.93	42815.42
507.11	42534.56
507.28	42836.48
507.46	42806.06
507.63	42862.23
507.81	43185.22
507.98	43433.32
508.16	43283.53
508.33	43466.09
508.50	43536.30
508.68	43559.71
508.85	44023.14
509.03	43999.73
509.20	44048.88
509.38	44477.20
509.55	44250.17
509.73	44793.17
509.90	44357.83
510.08	44341.45
510.25	45188.72
510.42	44662.10
510.60	45139.57
510.77	45251.92
510.95	45455.54
511.12	45551.51
511.30	45727.05
511.47	45691.94
511.64	45914.29
511.82	45986.85
511.99	45659.17
512.17	46103.87
512.34	46028.98
512.51	46358.99
512.69	46595.38
512.86	46803.69
513.04	46579.00
513.21	46731.14
513.38	46897.31
513.56	47117.32
513.73	46541.55
513.90	46759.22
514.08	47164.14
514.25	47028.38
514.43	47772.67
514.60	47833.53
514.77	47428.62
514.95	47807.78
515.12	47206.26
515.29	47903.74
515.47	48142.48
515.64	48500.58
515.81	48325.04
515.99	48659.74
516.16	48715.91
516.33	48217.38
516.51	48589.52
516.68	48437.39
516.85	48491.22
517.03	48921.88
517.20	49010.82
517.37	49151.25
517.54	48994.43
517.72	49134.87
517.89	49359.56
518.06	49581.91
518.24	49310.41
518.41	49521.05
518.58	49549.14
518.75	49565.52
518.93	49858.09
519.10	49778.51
519.27	49830.01
519.45	49799.58
519.62	49928.31
519.79	49745.75
519.96	49989.16
520.14	50445.57
520.31	50223.22
520.48	50438.54
520.65	50227.90
520.83	50941.76
521.00	50817.71
521.17	51063.47
521.34	50548.55
521.52	51063.47
521.69	50960.48
521.86	51171.13
522.03	50969.85
522.20	51501.15
522.38	51566.68
522.55	51547.96
522.72	51620.52
522.89	51482.42
523.07	52090.96
523.24	51650.94
523.41	51512.85
523.58	51519.87
523.75	52065.22
523.92	51814.78
524.10	52229.05
524.27	52154.16
524.44	52229.05
524.61	52088.62
524.78	52341.40
524.96	52065.22
525.13	52348.42
525.30	52308.63
525.47	52732.27
525.64	52594.18
525.81	52538.01
525.98	52842.27
526.16	52701.84
526.33	52809.51
526.50	52985.05
526.67	52917.17
526.84	53202.72
527.01	53069.31
527.18	53186.33
527.36	53036.54
527.53	52987.39
527.70	53429.75
527.87	53350.17
528.04	53474.22
528.21	53478.90
528.38	53380.60
528.55	53724.66
528.72	53574.86
528.89	53523.37
529.07	53366.55
529.24	53872.11
529.41	53771.47
529.58	53991.48
529.75	53717.64
529.92	54047.65
530.09	53647.42
530.26	53928.28
530.43	54005.52
530.60	53764.45
530.77	54122.55
530.94	54162.34
531.11	54227.87
531.28	54445.54
531.46	54274.68
531.63	54609.38
531.80	54679.60
531.97	54506.40
532.14	54777.90
532.31	54368.30
532.48	54578.95
532.65	54670.23
532.82	54387.03
532.99	54607.04
533.16	54618.74
533.33	54817.69
533.50	55196.85
533.67	54805.98
533.84	54672.57
534.01	54883.22
534.18	55011.95
534.35	55566.66
534.52	55236.64
534.69	55285.79
534.86	55346.65
535.03	55140.68
535.20	55381.76
535.37	55306.86
535.54	55405.16
535.71	55423.89
535.88	55435.59
536.05	55571.34
536.22	55955.19
536.38	55861.57
536.55	55758.58
536.72	55688.37
536.89	55388.78
537.06	55578.36
537.23	55924.76
537.40	55779.65
537.57	55805.39
537.74	55978.59
537.91	56210.31
538.08	56179.88
538.25	55959.87
538.42	56041.79
538.59	56168.18
538.75	56140.09
538.92	56065.19
539.09	56416.27
539.26	56353.08
539.43	56121.37
539.60	56257.12
539.77	56093.28
539.94	56755.65
540.11	56729.90
540.28	56587.13
540.44	56449.04
540.61	56694.80
540.78	56315.63
540.95	56559.05
541.12	56720.54
541.29	56329.67
541.46	56526.28
541.62	56647.99
541.79	56786.08
541.96	56509.89
542.13	56685.43
542.30	56741.61
542.47	56985.02
542.63	57111.41
542.80	57034.17
542.97	57364.19
543.14	56996.73
543.31	57240.14
543.48	57324.40
543.64	57488.24
543.81	57396.96
543.98	57408.66
544.15	57338.44
544.32	57626.33
544.48	57497.60
544.65	57293.97
544.82	57485.90
544.99	57301.00
545.16	57663.78
545.32	57446.11
545.49	57808.89
545.66	57954.00
545.83	57790.17
546.00	57820.59
546.16	57853.36
546.33	57705.91
546.50	57659.10
546.67	57909.53
546.83	57743.36
547.00	58024.22
547.17	57813.57
547.34	57918.90
547.50	58080.39
547.67	58164.65
547.84	58166.99
548.00	58312.11
548.17	58277.00
548.34	58356.58
548.51	58384.66
548.67	58279.34
548.84	58262.96
549.01	58021.88
549.18	58384.66
549.34	58272.32
549.51	58225.51
549.68	58461.90
549.84	58396.37
550.01	58583.61
550.18	58312.11
550.34	58567.23
550.51	58506.37
550.68	58724.04
550.84	58136.57
551.01	58691.27
551.18	58791.92
551.34	58831.71
551.51	58618.72
551.68	58508.71
551.84	58714.68
552.01	58590.63
552.18	58721.70
552.34	58801.28
552.51	58815.32
552.68	58742.77
552.84	58791.92
553.01	59068.10
553.18	58876.18
553.34	59110.23
553.51	58646.80
553.67	58820.00
553.84	58904.26
554.01	59206.19
554.17	59180.45
554.34	59086.82
554.51	58911.28
554.67	59370.03
554.84	59016.61
555.00	59131.29
555.17	59178.10
555.33	59196.83
555.50	59199.17
555.67	59297.47
555.83	59098.53
556.00	59061.08
556.16	59547.91
556.33	59288.11
556.50	59437.90
556.66	59470.67
556.83	59217.89
556.99	59650.89
557.16	59519.82
557.32	59863.88
557.49	59704.73
557.65	59599.40
557.82	59545.57
557.98	59587.70
558.15	59330.24
558.32	59716.43
558.48	59465.99
558.65	59540.89
558.81	59707.07
558.98	59606.42
559.14	59826.43
559.31	59859.20
559.47	59653.23
559.64	59945.80
559.80	59767.92
559.97	59915.37
560.13	59550.25
560.30	59889.63
560.46	59796.01
560.63	60032.40
560.79	59971.55
560.96	59990.27
561.12	59819.41
561.29	59702.38
561.45	59943.46
561.61	59798.35
561.78	59931.76
561.94	59887.29
562.11	59788.98
562.27	59910.69
562.44	60034.74
562.60	59936.44
562.77	60282.84
562.93	59983.25
563.10	60126.02
563.26	60044.10
563.42	60257.09
563.59	60154.11
563.75	60334.33
563.92	60128.36
564.08	60006.65
564.24	60149.43
564.41	60119.00
564.57	60453.70
564.74	60238.37
564.90	60109.64
565.07	60182.19
565.23	60076.87
565.39	60252.41
565.56	60369.44
565.72	60163.47
565.88	60285.18
566.05	60481.78
566.21	60355.39
566.38	60383.48
566.54	60310.92
566.70	60331.99
566.87	60470.08
567.03	60130.70
567.19	60736.90
567.36	60673.71
567.52	60313.26
567.68	60687.75
567.85	60523.91
568.01	60491.15
568.17	60486.46
568.34	60739.24
568.50	60554.34
568.66	60402.21
568.83	60582.43
568.99	60259.43
569.15	60409.23
569.32	60526.25
569.48	60470.08
569.64	60690.09
569.81	60584.77
569.97	60488.80
570.13	60573.06
570.30	60540.30
570.46	60491.15
570.62	60610.51
570.78	60690.09
570.95	60535.62
571.11	60697.11
571.27	60673.71
571.43	60549.66
571.60	60839.89
571.76	60584.77
571.92	60659.66
572.09	60596.47
572.25	60544.98
572.41	60612.85
572.57	60774.35
572.74	61034.15
572.90	60786.05
573.06	60748.60
573.22	60711.16
573.38	60809.46
573.55	60662.00
573.71	60874.99
573.87	60828.18
574.03	60659.66
574.20	60753.29
574.36	60851.59
574.52	60748.60
574.68	60870.31
574.84	61001.38
575.01	60926.49
575.17	60907.76
575.33	60914.78
575.49	60739.24
575.65	60783.71
575.82	60931.17
575.98	60732.22
576.14	60961.59
576.30	61109.05
576.46	60956.91
576.62	60818.82
576.79	60921.80
576.95	60662.00
577.11	61090.32
577.27	60889.04
577.43	60870.31
577.59	61031.81
577.75	60793.07
577.92	60781.37
578.08	60832.86
578.24	61069.26
578.40	61106.71
578.56	61057.56
578.72	60968.61
578.88	60928.83
579.04	61186.28
579.21	60968.61
579.37	61106.71
579.53	61193.31
579.69	60764.99
579.85	61158.20
580.01	60949.89
580.17	60739.24
580.33	61104.37
580.49	61162.88
580.65	61118.41
580.82	61097.34
580.98	60732.22
581.14	60877.33
581.30	61167.56
581.46	60994.36
581.62	61186.28
581.78	61006.06
581.94	61078.62
582.10	60992.02
582.26	60949.89
582.42	60935.85
582.58	60896.06
582.74	61095.00
582.90	61153.52
583.06	60980.32
583.22	60800.10
583.38	61052.87
583.54	61050.53
583.70	60989.68
583.86	61249.48
584.02	61141.81
584.18	61303.31
584.34	61015.43
584.50	61090.32
584.66	61064.58
584.82	60914.78
584.98	61340.76
585.14	61076.28
585.30	60776.69
585.46	60996.70
585.62	61045.85
585.78	61120.75
585.94	61055.21
586.10	61158.20
586.26	61261.18
586.42	61333.74
586.58	61226.07
586.74	61132.45
586.90	61153.52
587.06	61141.81
587.22	61418.00
587.38	61080.96
587.54	61254.16
587.70	61389.91
587.86	61200.33
588.02	61179.26
588.18	61240.12
588.34	61123.09
588.49	61099.68
