SpectraSuite Data File
++++++++++++++++++++++++++++++++++++
Date: Fri Oct 25 11:23:25 EDT 2013
User: price-jones
Dark Spectrum Present: No
Reference Spectrum Present: No
Number of Sampled Component Spectra: 1
Spectrometers: USB2+H05261
Integration Time (usec): 100000 (USB2+H05261)
Spectra Averaged: 1 (USB2+H05261)
Boxcar Smoothing: 0 (USB2+H05261)
Correct for Electrical Dark: No (USB2+H05261)
Strobe/Lamp Enabled: No (USB2+H05261)
Correct for Detector Non-linearity: No (USB2+H05261)
Correct for Stray Light: No (USB2+H05261)
Number of Pixels in Processed Spectrum: 2048
>>>>>Begin Processed Spectral Data<<<<<
365.73	264.48
365.92	264.48
366.12	264.48
366.32	161.50
366.52	105.32
366.72	114.69
366.91	9.36
367.11	39.79
367.31	163.84
367.51	114.69
367.70	121.71
367.90	156.82
368.10	91.28
368.30	126.39
368.49	128.73
368.69	152.13
368.89	142.77
369.09	201.29
369.28	156.82
369.48	133.41
369.68	212.99
369.87	145.11
370.07	198.95
370.27	299.59
370.47	341.72
370.66	582.79
370.86	606.20
371.06	669.39
371.25	730.25
371.45	683.44
371.65	692.80
371.84	697.48
372.04	629.60
372.24	748.97
372.44	685.78
372.63	744.29
372.83	751.31
373.03	770.04
373.22	730.25
373.42	699.82
373.62	699.82
373.81	791.10
374.01	753.65
374.21	802.80
374.40	819.19
374.60	821.53
374.79	807.48
374.99	840.25
375.19	795.78
375.38	840.25
375.58	812.17
375.78	875.36
375.97	779.40
376.17	826.21
376.37	849.61
376.56	863.66
376.76	788.76
376.95	873.02
377.15	1018.13
377.35	912.81
377.54	889.40
377.74	968.98
377.93	823.87
378.13	882.38
378.33	938.55
378.52	870.68
378.72	929.19
378.91	966.64
379.11	966.64
379.31	891.74
379.50	868.34
379.70	954.94
379.89	926.85
380.09	968.98
380.28	940.90
380.48	954.94
380.68	1013.45
380.87	990.05
381.07	1076.65
381.26	1067.28
381.46	959.62
381.65	1011.11
381.85	1060.26
382.04	1153.88
382.24	1029.84
382.43	1090.69
382.63	1050.90
382.83	1151.54
383.02	1062.60
383.22	1081.33
383.41	1132.82
383.61	1069.62
383.80	1069.62
384.00	1146.86
384.19	1111.75
384.39	1121.12
384.58	1048.56
384.78	1123.46
384.97	1219.42
385.17	1158.57
385.36	1064.94
385.56	1188.99
385.75	1177.29
385.95	1163.25
386.14	1193.67
386.34	1191.33
386.53	1214.74
386.72	1177.29
386.92	1151.54
387.11	1259.21
387.31	1345.81
387.50	1280.27
387.70	1228.78
387.89	1247.51
388.09	1266.23
388.28	1238.14
388.48	1188.99
388.67	1247.51
388.86	1299.00
389.06	1245.16
389.25	1348.15
389.45	1345.81
389.64	1348.15
389.84	1406.66
390.03	1425.39
390.22	1432.41
390.42	1376.24
390.61	1411.34
390.81	1437.09
391.00	1399.64
391.19	1425.39
391.39	1479.22
391.58	1488.58
391.78	1451.13
391.97	1425.39
392.16	1416.02
392.36	1598.59
392.55	1411.34
392.75	1528.37
392.94	1462.83
393.13	1474.54
393.33	1565.82
393.52	1610.29
393.71	1528.37
393.91	1633.69
394.10	1556.46
394.29	1584.54
394.49	1652.42
394.68	1572.84
394.88	1596.25
395.07	1706.25
395.26	1638.38
395.46	1664.12
395.65	1795.19
395.84	1603.27
396.04	1827.96
396.23	1685.19
396.42	1743.70
396.62	1802.21
396.81	1732.00
397.00	1734.34
397.19	1764.76
397.39	1783.49
397.58	1795.19
397.77	1802.21
397.97	1973.07
398.16	1825.62
398.35	1837.32
398.55	1760.08
398.74	1937.96
398.93	1984.77
399.12	1923.92
399.32	1851.36
399.51	1914.56
399.70	1982.43
399.90	1865.41
400.09	1996.48
400.28	2090.10
400.47	2099.46
400.67	2132.23
400.86	2125.21
401.05	2127.55
401.24	2085.42
401.44	2148.61
401.63	2181.38
401.82	2134.57
402.01	2019.88
402.21	2186.06
402.40	2253.94
402.59	2272.66
402.78	2296.07
402.97	2275.00
403.17	2277.34
403.36	2179.04
403.55	2277.34
403.74	2429.48
403.93	2335.85
404.13	2359.26
404.32	2380.32
404.51	2431.82
404.70	2476.29
404.89	2361.60
405.09	2469.27
405.28	2546.50
405.47	2518.42
405.66	2385.01
405.85	2406.07
406.05	2480.97
406.24	2537.14
406.43	2581.61
406.62	2710.34
406.81	2719.70
407.00	2586.29
407.20	2485.65
407.39	2612.04
407.58	2689.28
407.77	2715.02
407.96	2715.02
408.15	2855.45
408.34	2736.09
408.54	2836.73
408.73	2890.56
408.92	2874.18
409.11	2864.82
409.30	3019.29
409.49	2904.60
409.68	2958.44
409.87	2853.11
410.07	3033.33
410.26	3000.57
410.45	2949.08
410.64	3075.46
410.83	3096.53
411.02	3126.96
411.21	3171.43
411.40	3183.13
411.59	3197.17
411.78	3269.73
411.98	3222.92
412.17	3321.22
412.36	3199.51
412.55	3356.33
412.74	3318.88
412.93	3442.93
413.12	3351.65
413.31	3566.98
413.50	3461.65
413.69	3555.27
413.88	3576.34
414.07	3550.59
414.26	3581.02
414.45	3637.19
414.64	3742.52
414.83	3770.60
415.02	3789.33
415.22	3751.88
415.41	3861.88
415.60	3794.01
415.79	3840.82
415.98	4070.19
416.17	4025.72
416.36	3852.52
416.55	4063.17
416.74	4093.60
416.93	4166.15
417.12	4205.94
417.31	4135.73
417.50	4222.33
417.69	4294.88
417.88	4360.42
418.07	4257.43
418.26	4198.92
418.45	4313.61
418.64	4489.15
418.83	4344.03
419.02	4517.23
419.21	4498.51
419.39	4554.68
419.58	4547.66
419.77	4468.08
419.96	4688.09
420.15	4596.81
420.34	4645.96
420.53	4615.54
420.72	4800.44
420.91	4704.48
421.10	4851.93
421.29	4807.46
421.48	4688.09
421.67	4835.55
421.86	4858.95
422.05	4880.02
422.24	4830.87
422.43	4812.14
422.61	4943.21
422.80	4943.21
422.99	4884.70
423.18	5097.69
423.37	4985.34
423.56	4915.12
423.75	5001.72
423.94	4887.04
424.13	4660.01
424.32	4779.37
424.50	5081.30
424.69	5151.52
424.88	5188.97
425.07	4990.02
425.26	4999.38
425.45	4954.91
425.64	5018.11
425.83	4926.83
426.01	5048.54
426.20	5004.07
426.39	5055.56
426.58	4968.96
426.77	5090.67
426.96	5036.83
427.15	5156.20
427.33	5310.68
427.52	5118.75
427.71	5455.79
427.90	5273.23
428.09	5486.22
428.28	5177.26
428.46	5437.06
428.65	5523.66
428.84	5483.88
429.03	5380.89
429.22	5385.57
429.40	5614.95
429.59	5509.62
429.78	5366.85
429.97	5235.78
430.16	5465.15
430.34	5654.73
430.53	5589.20
430.72	5593.88
430.91	5682.82
431.10	5715.59
431.28	5774.10
431.47	5729.63
431.66	5823.25
431.85	5809.21
432.03	5921.56
432.22	5968.37
432.41	5865.38
432.60	6061.99
432.79	6071.35
432.97	6026.88
433.16	6120.50
433.35	5975.39
433.54	6146.25
433.72	6129.86
433.91	6094.76
434.10	6171.99
434.28	6118.16
434.47	6186.04
434.66	6263.27
434.85	6289.02
435.03	6307.74
435.22	6204.76
435.41	6445.84
435.59	6429.45
435.78	6441.15
435.97	6518.39
436.16	6459.88
436.34	6410.73
436.53	6677.55
436.72	6827.34
436.90	6583.93
437.09	6637.76
437.28	6520.73
437.46	6628.40
437.65	6523.07
437.84	6707.98
438.02	6731.38
438.21	6778.19
438.40	6670.53
438.58	6993.52
438.77	7037.99
438.96	7080.12
439.14	7232.26
439.33	7115.23
439.52	7190.13
439.70	7087.14
439.89	7382.05
440.08	7428.86
440.26	7276.73
440.45	7358.64
440.63	7625.47
440.82	7662.91
441.01	7517.80
441.19	7817.39
441.38	7674.62
441.57	7793.98
441.75	7871.22
441.94	7882.92
442.12	7906.33
442.31	8102.93
442.50	8409.54
442.68	7941.44
442.87	8163.79
443.05	8063.15
443.24	8182.51
443.43	8262.09
443.61	8163.79
443.80	8566.36
443.98	8100.59
444.17	7864.20
444.35	8077.19
444.54	8292.52
444.73	8451.67
444.91	8273.79
445.10	8379.12
445.28	8355.71
445.47	8367.42
445.65	8489.12
445.84	8400.18
446.02	8585.08
446.21	8393.16
446.39	8241.03
446.58	8439.97
446.77	8437.63
446.95	8362.73
447.14	8297.20
447.32	8629.56
447.51	8713.81
447.69	8559.34
447.88	8674.03
448.06	8367.42
448.25	8606.15
448.43	8458.70
448.62	8636.58
448.80	8631.90
448.99	8791.05
449.17	8671.68
449.36	8578.06
449.54	9011.06
449.73	9055.53
449.91	8982.98
450.10	9235.75
450.28	9018.08
450.46	9123.41
450.65	9102.34
450.83	8924.46
451.02	9116.39
451.20	9069.58
451.39	9088.30
451.57	9139.79
451.76	8954.89
451.94	9210.01
452.13	9404.27
452.31	9324.69
452.49	9167.88
452.68	9327.03
452.86	9149.15
453.05	9362.14
453.23	9486.19
453.42	9614.92
453.60	9373.85
453.78	9511.94
453.97	9551.73
454.15	9415.98
454.34	9542.36
454.52	9612.58
454.70	9678.12
454.89	9678.12
455.07	10017.49
455.26	9811.53
455.44	10059.62
455.62	10050.26
455.81	9919.19
455.99	10005.79
456.17	10186.01
456.36	10270.27
456.54	10113.45
456.73	10214.10
456.91	10490.28
457.09	10445.81
457.28	10560.50
457.46	10408.36
457.64	10640.08
457.83	10471.56
458.01	10544.11
458.19	10523.05
458.38	10654.12
458.56	10710.29
458.74	10846.04
458.93	10743.06
459.11	10761.78
459.29	10757.10
459.48	10953.71
459.66	10754.76
459.84	11227.55
460.03	11307.13
460.21	11176.06
460.39	10778.17
460.57	10927.96
460.76	11178.40
460.94	11367.98
461.12	11169.04
461.31	11194.78
461.49	11246.27
461.67	11527.14
461.85	11705.02
462.04	11342.24
462.22	11744.81
462.40	11695.66
462.59	11686.29
462.77	11667.57
462.95	11906.31
463.13	11595.01
463.32	11651.19
463.50	11791.62
463.68	11831.41
463.86	11913.33
464.05	12159.08
464.23	11908.65
464.41	12018.65
464.59	11772.89
464.78	12212.92
464.96	12035.03
465.14	11847.79
465.32	11934.39
465.50	12278.45
465.69	12051.42
465.87	12107.59
466.05	12063.12
466.23	12259.73
466.41	12311.22
466.60	12652.94
466.78	12126.32
466.96	12461.01
467.14	12259.73
467.32	12589.74
467.51	12472.71
467.69	12140.36
467.87	12643.57
468.05	12812.09
468.23	12540.59
468.41	12540.59
468.60	12709.11
468.78	12716.13
468.96	12727.83
469.14	13097.64
469.32	12734.85
469.50	12910.40
469.69	13123.38
469.87	13043.81
470.05	13277.86
470.23	13048.49
470.41	13263.82
470.59	13479.15
470.77	13366.80
470.95	13383.18
471.14	13556.38
471.32	13362.12
471.50	13624.26
471.68	13734.26
471.86	13940.23
472.04	13968.32
472.22	13935.55
472.40	13860.65
472.58	13975.34
472.77	14169.60
472.95	14242.16
473.13	14949.00
473.31	14106.41
473.49	14169.60
473.67	14272.59
473.85	14312.38
474.03	14539.41
474.21	14539.41
474.39	14752.40
474.57	14527.71
474.75	15009.86
474.93	15201.78
475.12	15070.71
475.30	15288.38
475.48	15047.30
475.66	15459.24
475.84	15374.98
476.02	15496.69
476.20	15604.35
476.38	15693.29
476.56	16046.71
476.74	16285.45
476.92	16002.24
477.10	16025.65
477.28	16030.33
477.46	16168.42
477.64	16489.07
477.82	16884.62
478.00	16945.48
478.18	17095.27
478.36	16861.22
478.54	17256.77
478.72	17280.18
478.90	17444.01
479.08	17671.04
479.26	17853.61
479.44	17699.13
479.62	17848.93
479.80	18118.09
479.98	18192.98
480.16	18719.60
480.34	18382.57
480.52	18604.92
480.70	18789.82
480.88	18546.40
481.06	18766.42
481.24	19115.16
481.41	19154.94
481.59	19784.55
481.77	19583.26
481.95	19721.35
482.13	19784.55
482.31	19782.21
482.49	20224.57
482.67	20535.86
482.85	20465.64
483.03	20631.82
483.21	20765.23
483.39	20968.86
483.57	21039.08
483.74	21549.31
483.92	21654.64
484.10	21539.95
484.28	21846.56
484.46	22415.31
484.64	22317.01
484.82	22080.61
485.00	22836.61
485.18	22752.35
485.35	23094.07
485.53	23115.13
485.71	23161.94
485.89	23517.70
486.07	23625.37
486.25	23466.21
486.43	23885.17
486.61	23948.36
486.78	24154.33
486.96	24154.33
487.14	24505.41
487.32	24524.13
487.50	24891.60
487.68	24924.36
487.85	25572.69
488.03	25479.07
488.21	26054.84
488.39	25972.92
488.57	26092.29
488.75	26508.91
488.92	26661.04
489.10	26930.20
489.28	27054.25
489.46	27164.26
489.64	27398.31
489.81	27772.80
489.99	27943.66
490.17	27875.78
490.35	28233.88
490.53	28334.53
490.70	28479.64
490.88	28563.90
491.06	28746.46
491.24	28615.39
491.41	29296.49
491.59	29635.86
491.77	29312.87
491.95	29956.52
492.13	29942.47
492.30	30307.60
492.48	30005.67
492.66	30338.02
492.84	30733.57
493.01	31007.42
493.19	30548.67
493.37	31133.81
493.54	31407.65
493.72	31971.72
493.90	31527.02
494.08	32224.50
494.25	32393.01
494.43	31981.08
494.61	32765.16
494.79	32861.12
494.96	32783.88
495.14	32774.52
495.32	33172.41
495.49	33380.72
495.67	33816.06
495.85	33869.89
496.02	33970.54
496.20	34251.40
496.38	34101.61
496.55	34078.20
496.73	34988.67
496.91	34822.49
497.09	34974.63
497.26	35136.12
497.44	35049.52
497.62	35400.60
497.79	35826.58
497.97	35737.64
498.14	36224.47
498.32	36048.93
498.50	36570.87
498.67	36547.47
498.85	36669.17
499.03	36601.30
499.20	36907.91
499.38	36847.05
499.56	37020.25
499.73	37383.04
499.91	37631.13
500.08	37801.99
500.26	37219.20
500.44	37745.82
500.61	37902.64
500.79	37804.33
500.97	38658.63
501.14	38785.02
501.32	38752.25
501.49	38696.08
501.67	39016.73
501.84	39161.84
502.02	39110.35
502.20	39601.86
502.37	39840.60
502.55	39482.50
502.72	39828.90
502.90	40016.14
503.07	39297.59
503.25	40025.50
503.43	39971.67
503.60	40306.37
503.78	40931.29
503.95	40524.04
504.13	40971.08
504.30	40369.56
504.48	40498.29
504.65	41254.28
504.83	41221.52
505.01	41310.46
505.18	41691.96
505.36	41436.84
505.53	41563.23
505.71	41923.68
505.88	42679.67
506.06	41942.40
506.23	42148.37
506.41	42536.90
506.58	42258.37
506.76	42483.06
506.93	43119.69
507.11	42712.44
507.28	42766.27
507.46	42951.17
507.63	43063.52
507.81	43358.42
507.98	42691.37
508.16	43356.08
508.33	43452.05
508.50	43548.01
508.68	43751.63
508.85	44161.23
509.03	44105.06
509.20	43758.66
509.38	44694.87
509.55	44708.91
509.73	44488.90
509.90	44697.21
510.08	44800.19
510.25	45256.60
510.42	45111.49
510.60	45085.74
510.77	45399.37
510.95	45790.24
511.12	45052.97
511.30	45427.46
511.47	45647.47
511.64	45645.13
511.82	46085.15
511.99	45823.01
512.17	46167.07
512.34	46174.09
512.51	46820.08
512.69	46777.95
512.86	46515.81
513.04	46925.40
513.21	46667.94
513.38	47070.51
513.56	47171.16
513.73	46806.03
513.90	47384.15
514.08	47051.79
514.25	47281.16
514.43	47564.37
514.60	47421.59
514.77	47767.99
514.95	48200.99
515.12	48142.48
515.29	48147.16
515.47	48128.44
515.64	48912.52
515.81	47985.66
515.99	48413.98
516.16	48612.93
516.33	48748.68
516.51	48797.83
516.68	48636.33
516.85	48570.80
517.03	49162.95
517.20	48964.01
517.37	48917.20
517.54	49282.32
517.72	49436.80
517.89	49249.55
518.06	49429.77
518.24	49528.08
518.41	49846.39
518.58	49635.74
518.75	49820.64
518.93	49876.82
519.10	49799.58
519.27	50042.99
519.45	49928.31
519.62	49907.24
519.79	49942.35
519.96	50127.25
520.14	50380.03
520.31	50157.68
520.48	50377.69
520.65	50415.14
520.83	50883.25
521.00	50897.29
521.17	50796.65
521.34	50590.68
521.52	50941.76
521.69	51028.36
521.86	51318.59
522.03	51206.24
522.20	51760.95
522.38	51592.43
522.55	51351.35
522.72	51664.99
522.89	51519.87
523.07	51910.74
523.24	51512.85
523.41	51725.84
523.58	51615.83
523.75	52069.90
523.92	51913.08
524.10	52060.54
524.27	52369.49
524.44	52086.28
524.61	52428.00
524.78	52418.64
524.96	52313.31
525.13	52320.34
525.30	52360.12
525.47	52416.30
525.64	52617.58
525.81	52891.43
525.98	53017.82
526.16	52790.78
526.33	52837.59
526.50	53212.08
526.67	52982.71
526.84	53069.31
527.01	53003.77
527.18	53237.83
527.36	53242.51
527.53	53301.02
527.70	53619.33
527.87	53511.67
528.04	53434.43
528.21	53631.04
528.38	53310.38
528.55	53860.41
528.72	53387.62
528.89	53514.01
529.07	53577.20
529.24	53705.93
529.41	53848.71
529.58	53722.32
529.75	53602.95
529.92	53757.42
530.09	53975.09
530.26	54038.29
530.43	54026.59
530.60	53827.64
530.77	54035.95
530.94	54365.96
531.11	54262.98
531.28	54281.70
531.46	54358.94
531.63	54438.52
531.80	54412.77
531.97	54658.53
532.14	54656.19
532.31	54761.51
532.48	54827.05
532.65	54798.96
532.82	54747.47
532.99	54880.88
533.16	54927.69
533.33	54979.18
533.50	54930.03
533.67	55065.78
533.84	54974.50
534.01	55065.78
534.18	55091.53
534.35	55646.24
534.52	55157.06
534.69	55470.70
534.86	55182.81
535.03	55339.63
535.20	55330.26
535.37	55437.93
535.54	55274.09
535.71	55444.95
535.88	55454.31
536.05	55845.18
536.22	55854.54
536.38	55856.88
536.55	55700.07
536.72	55838.16
536.89	55597.09
537.06	55934.12
537.23	56097.96
537.40	55608.79
537.57	55870.93
537.74	56060.51
537.91	56119.02
538.08	56112.00
538.25	55725.81
538.42	56184.56
538.59	56039.45
538.75	56310.95
538.92	56222.01
539.09	56409.25
539.26	56020.72
539.43	56231.37
539.60	56463.08
539.77	56507.55
539.94	56750.97
540.11	56559.05
540.28	56530.96
540.44	56453.72
540.61	56664.37
540.78	56491.17
540.95	56523.94
541.12	56722.88
541.29	56659.69
541.46	56608.20
541.62	56680.75
541.79	56748.63
541.96	56552.02
542.13	56795.44
542.30	56690.12
542.47	56961.62
542.63	57109.07
542.80	57020.13
542.97	57195.67
543.14	57654.42
543.31	57237.80
543.48	57319.72
543.64	57640.37
543.81	57535.05
543.98	57209.71
544.15	57542.07
544.32	57551.43
544.48	57937.62
544.65	57513.98
544.82	57687.18
544.99	57373.55
545.16	57712.93
545.32	57605.26
545.49	57736.34
545.66	57801.87
545.83	57839.32
546.00	57755.06
546.16	57975.07
546.33	57717.61
546.50	57736.34
546.67	57832.30
546.83	57619.31
547.00	57811.23
547.17	58042.95
547.34	57844.00
547.50	58071.03
547.67	58197.42
547.84	58024.22
548.00	58159.97
548.17	58391.68
548.34	58152.95
548.51	58443.18
548.67	58347.21
548.84	58258.27
549.01	58141.25
549.18	58351.90
549.34	58394.03
549.51	58550.84
549.68	58452.54
549.84	58487.65
550.01	58838.73
550.18	58532.12
550.34	58658.51
550.51	58815.32
550.68	58459.56
550.84	58319.13
551.01	58686.59
551.18	58812.98
551.34	58599.99
551.51	58707.66
551.68	58784.90
551.84	58742.77
552.01	58955.75
552.18	58958.09
552.34	58721.70
552.51	59002.56
552.68	58817.66
552.84	58934.69
553.01	59206.19
553.18	58852.77
553.34	59143.00
553.51	58958.09
553.67	59100.87
553.84	59243.64
554.01	59023.63
554.17	59000.22
554.34	59238.96
554.51	59082.14
554.67	59180.45
554.84	59061.08
555.00	59114.91
555.17	59320.88
555.33	59037.67
555.50	59021.29
555.67	59241.30
555.83	59105.55
556.00	59351.30
556.16	59456.63
556.33	59377.05
556.50	59377.05
556.66	59632.17
556.83	59089.16
556.99	59620.47
557.16	59678.98
557.32	59613.44
557.49	59578.34
557.65	59419.18
557.82	59676.64
557.98	59470.67
558.15	59512.80
558.32	59613.44
558.48	59622.81
558.65	59559.61
558.81	59405.14
558.98	59723.45
559.14	59870.90
559.31	59735.15
559.47	59877.93
559.64	59800.69
559.80	59985.59
559.97	59908.35
560.13	59903.67
560.30	59922.40
560.46	59711.75
560.63	59950.48
560.79	60086.23
560.96	60044.10
561.12	59980.91
561.29	59948.14
561.45	60184.54
561.61	59882.61
561.78	59877.93
561.94	59777.28
562.11	59894.31
562.27	59959.84
562.44	60088.57
562.60	60133.04
562.77	60205.60
562.93	59854.52
563.10	60226.66
563.26	60018.36
563.42	60184.54
563.59	60076.87
563.75	60175.17
563.92	60121.34
564.08	60158.79
564.24	60460.72
564.41	60348.37
564.57	60336.67
564.74	60339.01
564.90	60212.62
565.07	60420.93
565.23	60261.77
565.39	60299.22
565.56	60516.89
565.72	60292.20
565.88	60418.59
566.05	60133.04
566.21	60343.69
566.38	60458.38
566.54	60608.17
566.70	60505.19
566.87	60622.22
567.03	60233.69
567.19	60708.82
567.36	60619.88
567.52	60519.23
567.68	60704.13
567.85	60498.17
568.01	60676.05
568.17	60498.17
568.34	60640.94
568.50	60617.53
568.66	60278.16
568.83	60451.36
568.99	60580.09
569.15	60484.12
569.32	60711.16
569.48	60519.23
569.64	60659.66
569.81	60423.27
569.97	60444.33
570.13	60662.00
570.30	60434.97
570.46	60554.34
570.62	60720.52
570.78	60678.39
570.95	60755.63
571.11	60860.95
571.27	60573.06
571.43	60685.41
571.60	60867.97
571.76	60828.18
571.92	60903.08
572.09	60659.66
572.25	60612.85
572.41	60580.09
572.57	60570.72
572.74	61087.98
572.90	60970.96
573.06	60760.31
573.22	60603.49
573.38	60804.78
573.55	60940.53
573.71	61041.17
573.87	60617.53
574.03	60715.84
574.20	60757.97
574.36	60662.00
574.52	60739.24
574.68	60846.91
574.84	60795.42
575.01	61036.49
575.17	60860.95
575.33	60760.31
575.49	60725.20
575.65	61022.45
575.82	61048.19
575.98	61017.77
576.14	60987.34
576.30	61001.38
576.46	60919.46
576.62	60708.82
576.79	60760.31
576.95	60692.43
577.11	61113.73
577.27	60933.51
577.43	60814.14
577.59	60917.12
577.75	60816.48
577.92	60956.91
578.08	61127.77
578.24	60832.86
578.40	61010.74
578.56	61322.04
578.72	60669.03
578.88	61223.73
579.04	60954.57
579.21	61027.13
579.37	61223.73
579.53	61155.86
579.69	60832.86
579.85	60865.63
580.01	61031.81
580.17	61080.96
580.33	60966.27
580.49	61036.49
580.65	61118.41
580.82	60921.80
580.98	60823.50
581.14	61048.19
581.30	61279.91
581.46	61055.21
581.62	61219.05
581.78	60940.53
581.94	60772.01
582.10	61008.40
582.26	60977.98
582.42	60863.29
582.58	61263.52
582.74	61111.39
582.90	61031.81
583.06	60863.29
583.22	61043.51
583.38	61162.88
583.54	61188.63
583.70	61151.18
583.86	61169.90
584.02	60907.76
584.18	61057.56
584.34	61139.47
584.50	61251.82
584.66	60961.59
584.82	61095.00
584.98	61284.59
585.14	61118.41
585.30	60924.14
585.46	61181.60
585.62	61315.01
585.78	61155.86
585.94	60985.00
586.10	60987.34
586.26	61162.88
586.42	61162.88
586.58	61300.97
586.74	61300.97
586.90	61076.28
587.06	61223.73
587.22	61263.52
587.38	61361.82
587.54	61174.58
587.70	61291.61
587.86	61197.99
588.02	61212.03
588.18	61343.10
588.34	61209.69
588.49	61336.08
