SpectraSuite Data File
++++++++++++++++++++++++++++++++++++
Date: Fri Oct 25 10:48:06 EDT 2013
User: price-jones
Dark Spectrum Present: No
Reference Spectrum Present: No
Number of Sampled Component Spectra: 1
Spectrometers: USB2+H05261
Integration Time (usec): 100000 (USB2+H05261)
Spectra Averaged: 1 (USB2+H05261)
Boxcar Smoothing: 0 (USB2+H05261)
Correct for Electrical Dark: No (USB2+H05261)
Strobe/Lamp Enabled: No (USB2+H05261)
Correct for Detector Non-linearity: No (USB2+H05261)
Correct for Stray Light: No (USB2+H05261)
Number of Pixels in Processed Spectrum: 2048
>>>>>Begin Processed Spectral Data<<<<<
365.73	131.07
365.92	131.07
366.12	131.07
366.32	23.41
366.52	95.96
366.72	88.94
366.91	25.75
367.11	16.38
367.31	46.81
367.51	14.04
367.70	42.13
367.90	14.04
368.10	74.90
368.30	140.43
368.49	49.15
368.69	35.11
368.89	49.15
369.09	70.22
369.28	119.37
369.48	49.15
369.68	74.90
369.87	63.19
370.07	124.05
370.27	166.18
370.47	175.54
370.66	362.78
370.86	421.30
371.06	500.87
371.25	493.85
371.45	414.27
371.65	470.45
371.84	449.38
372.04	479.81
372.24	461.09
372.44	449.38
372.63	519.60
372.83	493.85
373.03	489.17
373.22	444.70
373.42	550.03
373.62	573.43
373.81	552.37
374.01	566.41
374.21	592.16
374.40	580.45
374.60	557.05
374.79	550.03
374.99	557.05
375.19	512.58
375.38	486.83
375.58	498.53
375.78	613.22
375.97	622.58
376.17	622.58
376.37	589.82
376.56	521.94
376.76	608.54
376.95	566.41
377.15	592.16
377.35	622.58
377.54	566.41
377.74	561.73
377.93	533.64
378.13	550.03
378.33	655.35
378.52	594.50
378.72	601.52
378.91	582.79
379.11	606.20
379.31	587.47
379.50	634.29
379.70	620.24
379.89	648.33
380.09	669.39
380.28	610.88
380.48	678.76
380.68	608.54
380.87	606.20
381.07	627.26
381.26	734.93
381.46	641.31
381.65	692.80
381.85	599.18
382.04	608.54
382.24	657.69
382.43	704.50
382.63	634.29
382.83	648.33
383.02	725.57
383.22	767.70
383.41	629.60
383.61	685.78
383.80	758.33
384.00	737.27
384.19	725.57
384.39	671.73
384.58	695.14
384.78	709.18
384.97	720.88
385.17	779.40
385.36	767.70
385.56	765.36
385.75	765.36
385.95	704.50
386.14	737.27
386.34	718.54
386.53	858.98
386.72	823.87
386.92	842.59
387.11	791.10
387.31	805.14
387.50	786.42
387.70	763.01
387.89	732.59
388.09	770.04
388.28	835.57
388.48	814.51
388.67	840.25
388.86	891.74
389.06	830.89
389.25	854.30
389.45	863.66
389.64	924.51
389.84	957.28
390.03	933.87
390.22	870.68
390.42	884.72
390.61	971.32
390.81	922.17
391.00	940.90
391.19	950.26
391.39	940.90
391.58	891.74
391.78	936.21
391.97	896.43
392.16	990.05
392.36	936.21
392.55	957.28
392.75	896.43
392.94	959.62
393.13	912.81
393.33	908.13
393.52	966.64
393.71	1020.47
393.91	1034.52
394.10	1029.84
394.29	952.60
394.49	1013.45
394.68	1086.01
394.88	1071.97
395.07	1165.59
395.26	1076.65
395.46	1093.03
395.65	1163.25
395.84	1116.44
396.04	1078.99
396.23	1116.44
396.42	1036.86
396.62	1118.78
396.81	1151.54
397.00	1146.86
397.19	1160.91
397.39	1144.52
397.58	1261.55
397.77	1277.93
397.97	1291.98
398.16	1188.99
398.35	1221.76
398.55	1224.10
398.74	1245.16
398.93	1259.21
399.12	1345.81
399.32	1284.95
399.51	1320.06
399.70	1383.26
399.90	1350.49
400.09	1383.26
400.28	1352.83
400.47	1362.19
400.67	1406.66
400.86	1409.00
401.05	1385.60
401.24	1399.64
401.44	1434.75
401.63	1418.36
401.82	1439.43
402.01	1530.71
402.21	1497.94
402.40	1579.86
402.59	1678.16
402.78	1593.90
402.97	1528.37
403.17	1591.56
403.36	1523.69
403.55	1495.60
403.74	1624.33
403.93	1509.65
404.13	1703.91
404.32	1638.38
404.51	1586.88
404.70	1563.48
404.89	1715.61
405.09	1785.83
405.28	1689.87
405.47	1717.95
405.66	1692.21
405.85	1647.74
406.05	1739.02
406.24	1851.36
406.43	1849.02
406.62	1921.58
406.81	1788.17
407.00	1739.02
407.20	1722.63
407.39	1727.32
407.58	1823.28
407.77	1916.90
407.96	1928.60
408.15	1860.73
408.34	1867.75
408.54	1914.56
408.73	1970.73
408.92	1998.82
409.11	1984.77
409.30	2012.86
409.49	2097.12
409.68	1970.73
409.87	2094.78
410.07	2057.33
410.26	2057.33
410.45	2073.71
410.64	2167.34
410.83	2097.12
411.02	2153.29
411.21	2246.91
411.40	2331.17
411.59	2242.23
411.78	2225.85
411.98	2244.57
412.17	2197.76
412.36	2272.66
412.55	2326.49
412.74	2450.54
412.93	2485.65
413.12	2326.49
413.31	2480.97
413.50	2380.32
413.69	2464.58
413.88	2588.63
414.07	2504.37
414.26	2464.58
414.45	2581.61
414.64	2612.04
414.83	2600.34
415.02	2633.10
415.22	2761.83
415.41	2780.56
415.60	2663.53
415.79	2761.83
415.98	2895.24
416.17	2799.28
416.36	2857.79
416.55	2832.05
416.74	2904.60
416.93	2963.12
417.12	2949.08
417.31	2892.90
417.50	2850.77
417.69	3096.53
417.88	2960.78
418.07	2965.46
418.26	2998.23
418.45	3030.99
418.64	3077.80
418.83	3246.32
419.02	3152.70
419.21	3152.70
419.39	3131.64
419.58	3152.70
419.77	3056.74
419.96	3236.96
420.15	3314.20
420.34	3248.66
420.53	3344.63
420.72	3396.12
420.91	3389.10
421.10	3431.23
421.29	3323.56
421.48	3307.18
421.67	3456.97
421.86	3295.47
422.05	3325.90
422.24	3302.50
422.43	3342.28
422.61	3288.45
422.80	3452.29
422.99	3522.51
423.18	3391.44
423.37	3508.46
423.56	3442.93
423.75	3550.59
423.94	3478.04
424.13	3281.43
424.32	3400.80
424.50	3501.44
424.69	3468.67
424.88	3623.15
425.07	3487.40
425.26	3351.65
425.45	3517.83
425.64	3499.10
425.83	3480.38
426.01	3534.21
426.20	3405.48
426.39	3524.85
426.58	3595.06
426.77	3461.65
426.96	3358.67
427.15	3485.06
427.33	3405.48
427.52	3552.93
427.71	3733.15
427.90	3655.92
428.09	3616.13
428.28	3648.90
428.46	3686.34
428.65	3662.94
428.84	3817.41
429.03	3768.26
429.22	3705.07
429.40	3756.56
429.59	3658.26
429.78	3733.15
429.97	3597.40
430.16	3686.34
430.34	3726.13
430.53	3838.48
430.72	3691.02
430.91	3861.88
431.10	3857.20
431.28	3978.91
431.47	4035.08
431.66	4042.11
431.85	3992.95
432.03	3967.21
432.22	4194.24
432.41	4138.07
432.60	4128.70
432.79	4201.26
432.97	4374.46
433.16	4229.35
433.35	4161.47
433.54	4236.37
433.72	4243.39
433.91	4334.67
434.10	4252.75
434.28	4138.07
434.47	4315.95
434.66	4402.55
434.85	4404.89
435.03	4236.37
435.22	4217.65
435.41	4489.15
435.59	4535.96
435.78	4458.72
435.97	4365.10
436.16	4395.53
436.34	4369.78
436.53	4573.41
436.72	4585.11
436.90	4498.51
437.09	4594.47
437.28	4482.13
437.46	4493.83
437.65	4559.36
437.84	4610.86
438.02	4521.92
438.21	4622.56
438.40	4564.04
438.58	4858.95
438.77	4718.52
438.96	4732.56
439.14	5041.51
439.33	4945.55
439.52	5008.75
439.70	4983.00
439.89	5022.79
440.08	5062.58
440.26	5130.45
440.45	5032.15
440.63	5203.01
440.82	5210.03
441.01	5210.03
441.19	5308.34
441.38	5334.08
441.57	5277.91
441.75	5453.45
441.94	5448.77
442.12	5399.62
442.31	5490.90
442.50	5458.13
442.68	5439.40
442.87	5453.45
443.05	5448.77
443.24	5664.10
443.43	5673.46
443.61	5572.82
443.80	5708.57
443.98	5437.06
444.17	5465.15
444.35	5617.29
444.54	5834.96
444.73	5750.70
444.91	5799.85
445.10	5598.56
445.28	5650.05
445.47	5755.38
445.65	5799.85
445.84	5804.53
446.02	5659.42
446.21	5858.36
446.39	5788.14
446.58	5820.91
446.77	5802.19
446.95	5774.10
447.14	5973.05
447.32	5921.56
447.51	5785.80
447.69	5621.97
447.88	5891.13
448.06	5951.98
448.25	5902.83
448.43	5881.77
448.62	6015.18
448.80	5841.98
448.99	5940.28
449.17	6061.99
449.36	5977.73
449.54	6267.95
449.73	6122.84
449.91	6064.33
450.10	6270.30
450.28	6253.91
450.46	6303.06
450.65	6235.19
450.83	6083.05
451.02	6127.52
451.20	6331.15
451.39	6253.91
451.57	6253.91
451.76	6223.48
451.94	6127.52
452.13	6494.99
452.31	6347.53
452.49	6328.81
452.68	6506.69
452.86	6307.74
453.05	6410.73
453.23	6651.80
453.42	6370.94
453.60	6359.24
453.78	6380.30
453.97	6487.96
454.15	6548.82
454.34	6396.68
454.52	6384.98
454.70	6525.41
454.89	6623.72
455.07	6686.91
455.26	6623.72
455.44	6745.42
455.62	6722.02
455.81	6750.10
455.99	6871.81
456.17	6707.98
456.36	6787.55
456.54	6986.50
456.73	7155.02
456.91	7293.11
457.09	7103.53
457.28	7152.68
457.46	7026.29
457.64	7199.49
457.83	7225.23
458.01	7171.40
458.19	7187.79
458.38	7178.42
458.56	7337.58
458.74	7267.36
458.93	7297.79
459.11	7258.00
459.29	7424.18
459.48	7386.73
459.66	7421.84
459.84	7375.03
460.03	7700.36
460.21	7543.55
460.39	7492.05
460.57	7609.08
460.76	7485.03
460.94	7618.44
461.12	7536.52
461.31	7733.13
461.49	7651.21
461.67	7840.79
461.85	7749.51
462.04	7854.84
462.22	8308.90
462.40	7878.24
462.59	7590.36
462.77	7812.71
462.95	7854.84
463.13	7695.68
463.32	8105.28
463.50	7803.35
463.68	8002.29
463.86	7880.58
464.05	7859.52
464.23	7824.41
464.41	8002.29
464.59	7859.52
464.78	8114.64
464.96	7969.52
465.14	7880.58
465.32	8079.53
465.50	8074.85
465.69	8311.24
465.87	8154.43
466.05	8285.50
466.23	8114.64
466.41	8168.47
466.60	8475.08
466.78	8166.13
466.96	8219.96
467.14	8304.22
467.32	8255.07
467.51	8484.44
467.69	8252.73
467.87	8341.67
468.05	8641.26
468.23	8245.71
468.41	8559.34
468.60	8423.59
468.78	8444.65
468.96	8645.94
469.14	8564.02
469.32	8758.28
469.50	8475.08
469.69	8650.62
469.87	8762.97
470.05	8868.29
470.23	8947.87
470.41	8877.65
470.59	8774.67
470.77	8870.63
470.95	8872.97
471.14	9118.73
471.32	8933.82
471.50	9114.05
471.68	9261.50
471.86	8978.30
472.04	9043.83
472.22	9397.25
472.40	9025.11
472.58	9245.12
472.77	9266.18
472.95	9465.13
473.13	9591.52
473.31	9444.06
473.49	9579.81
473.67	9427.68
473.85	9511.94
474.03	9760.03
474.21	9664.07
474.39	9802.16
474.57	9692.16
474.75	9685.14
474.93	9907.49
475.12	10171.97
475.30	10061.96
475.48	10099.41
475.66	10143.88
475.84	10235.16
476.02	10223.46
476.20	10066.64
476.38	10370.91
476.56	10775.83
476.74	10579.22
476.92	10403.68
477.10	10611.99
477.28	10761.78
477.46	10904.56
477.64	10862.43
477.82	10951.37
478.00	11426.50
478.18	11066.05
478.36	11274.36
478.54	11234.57
478.72	11477.99
478.90	11583.31
479.08	11616.08
479.26	11700.34
479.44	11901.62
479.62	11695.66
479.80	11843.11
479.98	12053.76
480.16	12030.35
480.34	12025.67
480.52	12379.09
480.70	12512.50
480.88	12123.98
481.06	12306.54
481.24	12299.52
481.41	12517.18
481.59	12791.03
481.77	12833.16
481.95	12982.95
482.13	13048.49
482.31	13198.28
482.49	13359.78
482.67	13319.99
482.85	13617.24
483.03	13432.33
483.21	13891.08
483.39	13790.44
483.57	13872.36
483.74	13987.04
483.92	14108.75
484.10	14003.43
484.28	14101.73
484.46	14286.63
484.64	14679.84
484.82	14431.74
485.00	14647.07
485.18	14513.66
485.35	14932.62
485.53	14815.59
485.71	14998.15
485.89	15115.18
486.07	15243.91
486.25	15454.56
486.43	15178.37
486.61	15550.52
486.78	15747.12
486.96	15723.72
487.14	15777.55
487.32	16100.55
487.50	16147.36
487.68	16374.39
487.85	16439.92
488.03	16489.07
488.21	16664.61
488.39	16842.50
488.57	16891.65
488.75	17118.68
488.92	17322.30
489.10	17504.87
489.28	17640.62
489.46	17530.61
489.64	17198.26
489.81	17987.02
489.99	18099.36
490.17	18197.67
490.35	18368.52
490.53	18132.13
490.70	18469.17
490.88	18515.98
491.06	18941.96
491.24	18684.50
491.41	18817.91
491.59	19087.07
491.77	18977.06
491.95	19307.08
492.13	19290.70
492.30	19669.86
492.48	19915.62
492.66	19658.16
492.84	19639.44
493.01	19920.30
493.19	19850.08
493.37	20205.84
493.54	20484.37
493.72	20601.40
493.90	20577.99
494.08	20613.10
494.25	20912.69
494.43	20779.28
494.61	21116.31
494.79	21071.84
494.96	21172.49
495.14	21469.73
495.32	21310.58
495.49	21170.15
495.67	21500.16
495.85	22064.23
496.02	21961.25
496.20	22307.65
496.38	21998.70
496.55	22192.96
496.73	22555.74
496.91	22197.64
497.09	22649.36
497.26	22827.24
497.44	22508.93
497.62	22878.74
497.79	22630.64
497.97	23234.50
498.14	23337.48
498.32	23463.87
498.50	23255.56
498.67	23393.65
498.85	23386.63
499.03	23840.70
499.20	23679.20
499.38	23674.52
499.56	23946.02
499.73	24123.90
499.91	24189.44
500.08	24474.98
500.26	23976.45
500.44	24407.11
500.61	24547.54
500.79	24004.53
500.97	24540.52
501.14	25198.21
501.32	24779.25
501.49	24683.29
501.67	24758.19
501.84	25125.65
502.02	25153.74
502.20	25462.69
502.37	25399.49
502.55	25362.04
502.72	25764.62
502.90	25621.84
503.07	25701.42
503.25	25776.32
503.43	25558.65
503.60	25965.90
503.78	25881.64
503.95	26237.41
504.13	26176.55
504.30	26529.97
504.48	25996.33
504.65	26206.98
504.83	26518.27
505.01	26792.11
505.18	26426.99
505.36	27042.55
505.53	26775.73
505.71	26892.76
505.88	27068.30
506.06	26733.60
506.23	27260.22
506.41	27262.56
506.58	27150.21
506.76	27388.95
506.93	27215.75
507.11	27330.44
507.28	27555.13
507.46	27618.32
507.63	27356.18
507.81	27716.62
507.98	27777.48
508.16	27803.22
508.33	27721.30
508.50	27946.00
508.68	27903.87
508.85	28442.19
509.03	28418.78
509.20	28786.25
509.38	28467.94
509.55	28662.20
509.73	28802.63
509.90	28774.55
510.08	28926.68
510.25	28772.21
510.42	28748.80
510.60	29111.58
510.77	29500.11
510.95	29315.21
511.12	29205.20
511.30	29481.39
511.47	29560.97
511.64	29780.98
511.82	29427.56
511.99	29467.34
512.17	30153.12
512.34	29663.95
512.51	30277.17
512.69	30253.76
512.86	29998.65
513.04	30265.47
513.21	30389.52
513.38	30260.79
513.56	30309.94
513.73	30033.75
513.90	30464.41
514.08	30471.43
514.25	30710.17
514.43	30328.66
514.60	30778.04
514.77	30820.17
514.95	30813.15
515.12	30897.41
515.29	30911.46
515.47	31257.85
515.64	31393.61
515.81	31117.42
515.99	31321.05
516.16	31330.41
516.33	31391.26
516.51	31552.76
516.68	31147.85
516.85	31147.85
517.03	31929.59
517.20	31840.65
517.37	31793.84
517.54	31658.09
517.72	31901.50
517.89	31697.88
518.06	31885.12
518.24	31789.16
518.41	31955.33
518.58	31997.46
518.75	32219.81
518.93	32285.35
519.10	32629.41
519.27	32650.47
519.45	32793.25
519.62	32774.52
519.79	32606.00
519.96	32713.67
520.14	33132.62
520.31	32547.49
520.48	32790.91
520.65	32957.08
520.83	33228.59
521.00	33420.51
521.17	33371.36
521.34	33507.11
521.52	33193.48
521.69	33790.31
521.86	33954.15
522.03	33977.56
522.20	33919.04
522.38	33977.56
522.55	33589.03
522.72	33961.17
522.89	33493.07
523.07	34429.28
523.24	34103.95
523.41	34401.19
523.58	33771.59
523.75	34548.65
523.92	34660.99
524.10	34878.66
524.27	34452.69
524.44	34824.83
524.61	34490.13
524.78	34883.34
524.96	34878.66
525.13	35075.27
525.30	35302.30
525.47	35445.07
525.64	35112.72
525.81	34962.92
525.98	34658.65
526.16	34911.43
526.33	35063.57
526.50	35419.33
526.67	34902.07
526.84	34787.38
527.01	35501.25
527.18	35253.15
527.36	35496.56
527.53	35452.09
527.70	36081.70
527.87	35990.42
528.04	35831.26
528.21	35629.98
528.38	35833.60
528.55	35964.67
528.72	35866.37
528.89	35978.72
529.07	36217.45
529.24	35903.82
529.41	36264.26
529.58	36210.43
529.75	36535.76
529.92	36297.03
530.09	36467.89
530.26	36795.56
530.43	36650.45
530.60	36545.12
530.77	36762.79
530.94	36704.28
531.11	36451.50
531.28	36940.68
531.46	37029.62
531.63	37104.51
531.80	36957.06
531.97	36868.12
532.14	36584.91
532.31	36921.95
532.48	36957.06
532.65	37865.19
532.82	37420.48
532.99	37525.81
533.16	37163.03
533.33	37869.87
533.50	37656.88
533.67	37539.85
533.84	37092.81
534.01	37432.19
534.18	37603.05
534.35	38101.58
534.52	37598.37
534.69	37876.89
534.86	37734.12
535.03	37401.76
535.20	37661.56
535.37	38045.41
535.54	38113.28
535.71	38014.98
535.88	38019.66
536.05	38117.96
536.22	37977.53
536.38	38195.20
536.55	38178.82
536.72	38293.50
536.89	38134.35
537.06	38089.88
537.23	38204.56
537.40	38204.56
537.57	38010.30
537.74	38349.68
537.91	38794.38
538.08	38459.68
538.25	38686.71
538.42	38637.56
538.59	38946.51
538.75	38506.49
538.92	39012.05
539.09	38932.47
539.26	38672.67
539.43	38682.03
539.60	39030.77
539.77	38803.74
539.94	38813.10
540.11	38911.41
540.28	38719.48
540.44	39049.50
540.61	38951.20
540.78	39271.85
540.95	39433.35
541.12	39058.86
541.29	39391.22
541.46	39168.87
541.62	39297.59
541.79	39629.95
541.96	39651.02
542.13	39580.80
542.30	39707.19
542.47	39651.02
542.63	40123.80
542.80	39952.94
542.97	40470.20
543.14	40308.71
543.31	40451.48
543.48	40020.82
543.64	40741.71
543.81	40201.04
543.98	40182.32
544.15	39828.90
544.32	40437.44
544.48	40631.70
544.65	40215.08
544.82	40294.66
544.99	40172.96
545.16	40360.20
545.32	40617.66
545.49	40418.71
545.66	40655.11
545.83	41123.21
546.00	40987.46
546.16	40718.30
546.33	40650.42
546.50	40392.97
546.67	40879.80
546.83	40659.79
547.00	40715.96
547.17	40858.73
547.34	40900.86
547.50	40694.89
547.67	41383.01
547.84	41593.66
548.00	41443.87
548.17	41242.58
548.34	41291.73
548.51	41315.14
548.67	41434.50
548.84	41507.06
549.01	41013.21
549.18	41291.73
549.34	41799.63
549.51	41500.04
549.68	41289.39
549.84	41970.49
550.01	41996.23
550.18	41888.57
550.34	41794.95
550.51	41563.23
550.68	41872.18
550.84	41137.26
551.01	41778.56
551.18	42012.62
551.34	42080.49
551.51	41970.49
551.68	41823.03
551.84	42134.32
552.01	41848.78
552.18	41816.01
552.34	41879.21
552.51	42263.05
552.68	41827.71
552.84	42328.59
553.01	42036.02
553.18	42239.65
553.34	42438.59
553.51	42061.77
553.67	42101.56
553.84	42473.70
554.01	42698.39
554.17	42855.21
554.34	42410.51
554.51	42099.22
554.67	43096.28
554.84	42356.67
555.00	42632.86
555.17	42375.40
555.33	42614.13
555.50	42403.49
555.67	42885.64
555.83	42225.60
556.00	42593.07
556.16	42941.81
556.33	43077.56
556.50	43068.20
556.66	42913.72
556.83	42607.11
556.99	42682.01
557.16	42789.67
557.32	42845.85
557.49	42756.91
557.65	42745.20
557.82	42918.40
557.98	42787.33
558.15	42696.05
558.32	43239.06
558.48	42864.57
558.65	43140.75
558.81	42700.73
558.98	43112.67
559.14	43234.38
559.31	42913.72
559.47	43360.76
559.64	43538.65
559.80	43395.87
559.97	43501.20
560.13	42799.04
560.30	43180.54
560.46	43217.99
560.63	43119.69
560.79	43054.15
560.96	43339.70
561.12	43433.32
561.29	43112.67
561.45	43005.00
561.61	43430.98
561.78	43484.81
561.94	43718.87
562.11	43161.82
562.27	43491.83
562.44	43271.82
562.60	43573.75
562.77	43667.37
562.93	43419.28
563.10	43480.13
563.26	43400.55
563.42	43643.97
563.59	43379.49
563.75	43386.51
563.92	43746.95
564.08	43856.96
564.24	43810.15
564.41	43903.77
564.57	43810.15
564.74	43819.51
564.90	43271.82
565.07	43831.21
565.23	43856.96
565.39	43524.60
565.56	44133.14
565.72	43629.93
565.88	43966.96
566.05	43833.55
566.21	44032.50
566.38	43646.31
566.54	43615.88
566.70	44116.76
566.87	44414.01
567.03	43669.72
567.19	44205.70
567.36	44069.95
567.52	43821.85
567.68	43718.87
567.85	43863.98
568.01	44062.93
568.17	44261.87
568.34	43899.09
568.50	44119.10
568.66	43611.20
568.83	44336.77
568.99	43753.97
569.15	43648.65
569.32	43995.05
569.48	43667.37
569.64	44184.63
569.81	44264.21
569.97	44095.69
570.13	44030.16
570.30	44147.18
570.46	43522.26
570.62	43868.66
570.78	43964.62
570.95	43892.07
571.11	44467.84
571.27	44161.23
571.43	43475.45
571.60	44252.51
571.76	44217.40
571.92	44058.24
572.09	44243.15
572.25	44098.03
572.41	43978.67
572.57	44378.90
572.74	44662.10
572.90	44011.43
573.06	44072.29
573.22	44318.04
573.38	44182.29
573.55	43704.82
573.71	44334.43
573.87	43824.19
574.03	43817.17
574.20	43847.60
574.36	43957.60
574.52	44350.81
574.68	44313.36
574.84	44673.81
575.01	44006.75
575.17	44254.85
575.33	43384.17
575.49	44086.33
575.65	44524.01
575.82	44222.08
575.98	43971.64
576.14	44769.77
576.30	44921.90
576.46	44191.65
576.62	44034.84
576.79	44334.43
576.95	43927.17
577.11	44350.81
577.27	44041.86
577.43	44566.14
577.59	44144.84
577.75	44385.92
577.92	44247.83
578.08	43920.15
578.24	43969.30
578.40	44079.31
578.56	44282.94
578.72	44362.51
578.88	44526.35
579.04	44664.44
579.21	44343.79
579.37	44694.87
579.53	44065.27
579.69	44519.33
579.85	44168.25
580.01	44697.21
580.17	44179.95
580.33	44701.89
580.49	44423.37
580.65	44381.24
580.82	44549.76
580.98	44357.83
581.14	44149.53
581.30	44371.88
581.46	44701.89
581.62	44832.96
581.78	44535.71
581.94	44762.75
582.10	44690.19
582.26	43973.98
582.42	44133.14
582.58	44531.03
582.74	44224.42
582.90	44306.34
583.06	44320.38
583.22	44486.56
583.38	44186.97
583.54	44102.71
583.70	44322.72
583.86	44772.11
584.02	44027.82
584.18	44584.86
584.34	44147.18
584.50	44458.48
584.66	44589.55
584.82	44622.31
584.98	44500.61
585.14	44484.22
585.30	44453.79
585.46	45057.65
585.62	44355.49
585.78	44467.84
585.94	44030.16
586.10	44734.66
586.26	44512.31
586.42	44758.06
586.58	44538.05
586.74	44493.58
586.90	44444.43
587.06	44479.54
587.22	44172.93
587.38	44456.14
587.54	44725.30
587.70	44655.08
587.86	44900.84
588.02	44458.48
588.18	45104.46
588.34	44577.84
588.49	44491.24
588.65	44011.43
588.81	44486.56
588.97	44605.93
589.13	44294.64
589.29	44156.55
589.45	44603.59
589.61	44575.50
589.77	44708.91
589.93	44601.25
590.08	45099.78
590.24	44636.36
