SpectraSuite Data File
++++++++++++++++++++++++++++++++++++
Date: Fri Oct 25 10:44:48 EDT 2013
User: price-jones
Dark Spectrum Present: No
Reference Spectrum Present: No
Number of Sampled Component Spectra: 1
Spectrometers: USB2+H05261
Integration Time (usec): 100000 (USB2+H05261)
Spectra Averaged: 1 (USB2+H05261)
Boxcar Smoothing: 0 (USB2+H05261)
Correct for Electrical Dark: No (USB2+H05261)
Strobe/Lamp Enabled: No (USB2+H05261)
Correct for Detector Non-linearity: No (USB2+H05261)
Correct for Stray Light: No (USB2+H05261)
Number of Pixels in Processed Spectrum: 2048
>>>>>Begin Processed Spectral Data<<<<<
365.73	84.26
365.92	84.26
366.12	84.26
366.32	51.49
366.52	60.85
366.72	2.34
366.91	58.51
367.11	60.85
367.31	0.00
367.51	117.03
367.70	11.70
367.90	60.85
368.10	0.00
368.30	30.43
368.49	32.77
368.69	23.41
368.89	65.54
369.09	21.06
369.28	67.88
369.48	0.00
369.68	63.19
369.87	112.35
370.07	53.83
370.27	119.37
370.47	205.97
370.66	327.68
370.86	430.66
371.06	437.68
371.25	423.64
371.45	477.47
371.65	409.59
371.84	500.87
372.04	421.30
372.24	421.30
372.44	498.53
372.63	465.77
372.83	468.11
373.03	449.38
373.22	451.72
373.42	430.66
373.62	528.96
373.81	543.00
374.01	500.87
374.21	571.09
374.40	514.92
374.60	507.90
374.79	521.94
374.99	596.84
375.19	500.87
375.38	550.03
375.58	533.64
375.78	580.45
375.97	571.09
376.17	648.33
376.37	566.41
376.56	543.00
376.76	585.13
376.95	552.37
377.15	561.73
377.35	641.31
377.54	582.79
377.74	603.86
377.93	624.92
378.13	662.37
378.33	596.84
378.52	566.41
378.72	641.31
378.91	657.69
379.11	594.50
379.31	608.54
379.50	624.92
379.70	629.60
379.89	685.78
380.09	634.29
380.28	617.90
380.48	702.16
380.68	638.97
380.87	629.60
381.07	629.60
381.26	695.14
381.46	685.78
381.65	664.71
381.85	631.94
382.04	695.14
382.24	681.10
382.43	716.20
382.63	741.95
382.83	688.12
383.02	716.20
383.22	660.03
383.41	636.63
383.61	758.33
383.80	720.88
384.00	777.06
384.19	702.16
384.39	763.01
384.58	758.33
384.78	695.14
384.97	758.33
385.17	758.33
385.36	688.12
385.56	758.33
385.75	814.51
385.95	847.27
386.14	777.06
386.34	788.76
386.53	746.63
386.72	772.38
386.92	802.80
387.11	802.80
387.31	861.32
387.50	809.83
387.70	826.21
387.89	758.33
388.09	819.19
388.28	800.46
388.48	826.21
388.67	861.32
388.86	805.14
389.06	870.68
389.25	929.19
389.45	849.61
389.64	938.55
389.84	903.45
390.03	950.26
390.22	912.81
390.42	875.36
390.61	924.51
390.81	896.43
391.00	1057.92
391.19	896.43
391.39	945.58
391.58	875.36
391.78	945.58
391.97	936.21
392.16	959.62
392.36	1001.75
392.55	990.05
392.75	903.45
392.94	945.58
393.13	980.68
393.33	903.45
393.52	933.87
393.71	994.73
393.91	1116.44
394.10	1055.58
394.29	1093.03
394.49	1100.05
394.68	1163.25
394.88	1160.91
395.07	1111.75
395.26	1088.35
395.46	1093.03
395.65	1043.88
395.84	1109.41
396.04	1137.50
396.23	1107.07
396.42	1055.58
396.62	1067.28
396.81	1226.44
397.00	1123.46
397.19	1128.14
397.39	1172.61
397.58	1214.74
397.77	1203.04
397.97	1219.42
398.16	1303.68
398.35	1345.81
398.55	1238.14
398.74	1369.21
398.93	1350.49
399.12	1308.36
399.32	1277.93
399.51	1369.21
399.70	1404.32
399.90	1315.38
400.09	1331.76
400.28	1413.68
400.47	1406.66
400.67	1493.26
400.86	1514.33
401.05	1423.05
401.24	1448.79
401.44	1469.86
401.63	1493.26
401.82	1535.39
402.01	1516.67
402.21	1540.07
402.40	1540.07
402.59	1526.03
402.78	1556.46
402.97	1526.03
403.17	1682.85
403.36	1523.69
403.55	1603.27
403.74	1638.38
403.93	1556.46
404.13	1614.97
404.32	1675.82
404.51	1696.89
404.70	1755.40
404.89	1614.97
405.09	1746.04
405.28	1685.19
405.47	1692.21
405.66	1846.68
405.85	1767.10
406.05	1729.66
406.24	1802.21
406.43	1795.19
406.62	1858.39
406.81	1893.49
407.00	1818.60
407.20	1809.23
407.39	1930.94
407.58	1966.05
407.77	1912.22
407.96	1914.56
408.15	1975.41
408.34	2052.65
408.54	1926.26
408.73	1912.22
408.92	1914.56
409.11	1989.46
409.30	2054.99
409.49	1977.75
409.68	2045.63
409.87	1949.67
410.07	2087.76
410.26	2038.61
410.45	2087.76
410.64	2073.71
410.83	2176.70
411.02	2251.60
411.21	2272.66
411.40	2265.64
411.59	2277.34
411.78	2338.20
411.98	2242.23
412.17	2291.38
412.36	2373.30
412.55	2441.18
412.74	2382.67
412.93	2471.61
413.12	2506.71
413.31	2513.74
413.50	2403.73
413.69	2574.59
413.88	2509.05
414.07	2562.89
414.26	2616.72
414.45	2670.55
414.64	2668.21
414.83	2679.91
415.02	2787.58
415.22	2834.39
415.41	2815.66
415.60	2757.15
415.79	2773.53
415.98	2932.69
416.17	2899.92
416.36	2911.63
416.55	2881.20
416.74	2899.92
416.93	2913.97
417.12	2906.95
417.31	3098.87
417.50	2988.86
417.69	3073.12
417.88	3066.10
418.07	2923.33
418.26	3131.64
418.45	3021.63
418.64	3232.28
418.83	3049.72
419.02	3126.96
419.21	3129.30
419.39	3232.28
419.58	3243.98
419.77	3234.62
419.96	3314.20
420.15	3384.41
420.34	3302.50
420.53	3272.07
420.72	3508.46
420.91	3351.65
421.10	3503.78
421.29	3342.28
421.48	3346.97
421.67	3508.46
421.86	3358.67
422.05	3365.69
422.24	3375.05
422.43	3377.39
422.61	3412.50
422.80	3566.98
422.99	3524.85
423.18	3651.24
423.37	3599.74
423.56	3616.13
423.75	3440.59
423.94	3566.98
424.13	3276.75
424.32	3480.38
424.50	3454.63
424.69	3480.38
424.88	3719.11
425.07	3555.27
425.26	3611.45
425.45	3508.46
425.64	3534.21
425.83	3482.72
426.01	3609.11
426.20	3655.92
426.39	3653.58
426.58	3421.86
426.77	3475.70
426.96	3543.57
427.15	3637.19
427.33	3789.33
427.52	3749.54
427.71	3623.15
427.90	3684.00
428.09	3857.20
428.28	3770.60
428.46	3831.46
428.65	3712.09
428.84	3775.28
429.03	3922.74
429.22	3688.68
429.40	3831.46
429.59	3829.12
429.78	3566.98
429.97	3585.70
430.16	3742.52
430.34	3765.92
430.53	3948.48
430.72	3915.72
430.91	3908.69
431.10	3999.98
431.28	3992.95
431.47	4198.92
431.66	4021.04
431.85	4070.19
432.03	4175.52
432.22	4231.69
432.41	4210.62
432.60	4278.50
432.79	4126.36
432.97	4236.37
433.16	4390.84
433.35	4227.01
433.54	4241.05
433.72	4222.33
433.91	4208.28
434.10	4332.33
434.28	4142.75
434.47	4311.27
434.66	4425.95
434.85	4299.56
435.03	4463.40
435.22	4514.89
435.41	4620.22
435.59	4496.17
435.78	4624.90
435.97	4573.41
436.16	4610.86
436.34	4667.03
436.53	4741.93
436.72	4660.01
436.90	4493.83
437.09	4498.51
437.28	4620.22
437.46	4861.29
437.65	4599.15
437.84	4734.90
438.02	4777.03
438.21	4713.84
438.40	4793.42
438.58	4847.25
438.77	4826.18
438.96	4959.60
439.14	4983.00
439.33	4912.78
439.52	5055.56
439.70	5057.90
439.89	5198.33
440.08	5160.88
440.26	5071.94
440.45	5008.75
440.63	5273.23
440.82	5535.37
441.01	5364.51
441.19	5373.87
441.38	5444.09
441.57	5357.49
441.75	5476.85
441.94	5713.25
442.12	5561.11
442.31	5774.10
442.50	5783.46
442.68	5516.64
442.87	5593.88
443.05	5680.48
443.24	5717.93
443.43	5680.48
443.61	5809.21
443.80	6008.16
443.98	5640.69
444.17	5654.73
444.35	5788.14
444.54	5926.24
444.73	5872.40
444.91	5933.26
445.10	5799.85
445.28	5944.96
445.47	5657.07
445.65	5893.47
445.84	5851.34
446.02	6024.54
446.21	5783.46
446.39	5830.27
446.58	5996.45
446.77	5977.73
446.95	5874.74
447.14	5973.05
447.32	6019.86
447.51	5886.45
447.69	5996.45
447.88	6071.35
448.06	5991.77
448.25	6017.52
448.43	6040.92
448.62	6052.63
448.80	5926.24
448.99	6122.84
449.17	6045.60
449.36	6066.67
449.54	6307.74
449.73	6310.08
449.91	6448.18
450.10	6408.39
450.28	6377.96
450.46	6377.96
450.65	6300.72
450.83	6359.24
451.02	6375.62
451.20	6604.99
451.39	6502.01
451.57	6544.14
451.76	6361.58
451.94	6420.09
452.13	6516.05
452.31	6363.92
452.49	6392.00
452.68	6614.35
452.86	6445.84
453.05	6722.02
453.23	6691.59
453.42	6602.65
453.60	6604.99
453.78	6715.00
453.97	6548.82
454.15	6640.10
454.34	6630.74
454.52	6747.76
454.70	6740.74
454.89	6871.81
455.07	6841.39
455.26	7037.99
455.44	6857.77
455.62	6939.69
455.81	6890.54
455.99	6981.82
456.17	7098.84
456.36	7014.59
456.54	7052.03
456.73	7248.64
456.91	7470.99
457.09	7316.51
457.28	7426.52
457.46	7150.34
457.64	7545.89
457.83	7211.19
458.01	7185.44
458.19	7435.88
458.38	7335.24
458.56	7461.63
458.74	7382.05
458.93	7351.62
459.11	7375.03
459.29	7370.35
459.48	7672.28
459.66	7595.04
459.84	7609.08
460.03	7796.32
460.21	7737.81
460.39	7573.97
460.57	7695.68
460.76	7625.47
460.94	7899.31
461.12	7859.52
461.31	8021.02
461.49	7836.11
461.67	7719.09
461.85	7953.14
462.04	8044.42
462.22	8063.15
462.40	8018.68
462.59	8013.99
462.77	7988.25
462.95	8191.88
463.13	8088.89
463.32	8184.85
463.50	8355.71
463.68	8063.15
463.86	8049.10
464.05	8107.62
464.23	8093.57
464.41	8234.00
464.59	8006.97
464.78	8166.13
464.96	8098.25
465.14	8065.49
465.32	8196.56
465.50	8355.71
465.69	8332.31
465.87	8306.56
466.05	8222.30
466.23	8245.71
466.41	8278.47
466.60	8430.61
466.78	8320.60
466.96	8407.20
467.14	8386.14
467.32	8472.74
467.51	8449.33
467.69	8432.95
467.87	8521.89
468.05	8472.74
468.23	8521.89
468.41	8479.76
468.60	8596.79
468.78	8683.39
468.96	8681.05
469.14	8578.06
469.32	8777.01
469.50	8425.93
469.69	8769.99
469.87	9076.60
470.05	8929.14
470.23	8828.50
470.41	9179.58
470.59	9259.16
470.77	8903.40
470.95	8903.40
471.14	9165.54
471.32	9205.33
471.50	9348.10
471.68	9308.31
471.86	9434.70
472.04	9488.53
472.22	9497.89
472.40	9334.06
472.58	9500.23
472.77	9572.79
472.95	9624.28
473.13	10012.81
473.31	9671.09
473.49	9689.82
473.67	9404.27
473.85	9708.54
474.03	9916.85
474.21	9914.51
474.39	9987.07
474.57	9966.00
474.75	10178.99
474.93	10087.71
475.12	9898.13
475.30	10314.74
475.48	10162.61
475.66	10223.46
475.84	10359.21
476.02	10509.01
476.20	10408.36
476.38	10483.26
476.56	10862.43
476.74	10824.98
476.92	10850.72
477.10	10899.87
477.28	11131.59
477.46	11075.42
477.64	10934.98
477.82	11403.09
478.00	11248.61
478.18	11356.28
478.36	11503.73
478.54	11674.59
478.72	11569.27
478.90	11592.67
479.08	11906.31
479.26	12091.21
479.44	12074.82
479.62	11817.36
479.80	12131.00
479.98	12187.17
480.16	12435.27
480.34	12421.22
480.52	12556.97
480.70	12648.26
480.88	12116.95
481.06	12418.88
481.24	12578.04
481.41	12989.97
481.59	12980.61
481.77	13249.77
481.95	12954.87
482.13	13584.47
482.31	13404.25
482.49	13540.00
482.67	13481.49
482.85	13568.09
483.03	13752.99
483.21	13933.21
483.39	14111.09
483.57	13853.63
483.74	14125.13
483.92	14523.02
484.10	14230.46
484.28	14293.65
484.46	14721.97
484.64	14899.85
484.82	14483.24
485.00	14890.49
485.18	14909.21
485.35	15166.67
485.53	14651.75
485.71	15159.65
485.89	15192.42
486.07	15360.94
486.25	15269.66
486.43	15510.73
486.61	15728.40
486.78	15936.71
486.96	15866.49
487.14	16273.74
487.32	16175.44
487.50	16507.80
487.68	16767.60
487.85	16882.28
488.03	16779.30
488.21	16814.41
488.39	17036.76
488.57	17104.64
488.75	17184.21
488.92	17570.40
489.10	17434.65
489.28	17816.16
489.46	17919.14
489.64	17928.50
489.81	18183.62
489.99	18600.24
490.17	18370.86
490.35	18588.53
490.53	18546.40
490.70	18904.51
490.88	18586.19
491.06	18672.79
491.24	19073.03
491.41	18827.27
491.59	19260.27
491.77	19239.20
491.95	19417.08
492.13	19758.80
492.30	19807.95
492.48	19831.36
492.66	19695.61
492.84	19894.55
493.01	20194.14
493.19	20357.98
493.37	20311.17
493.54	20561.61
493.72	20788.64
493.90	20989.92
494.08	21015.67
494.25	21195.89
494.43	21523.57
494.61	21214.62
494.79	21289.51
494.96	21170.15
495.14	21586.76
495.32	21614.85
495.49	21685.06
495.67	21982.31
495.85	22106.36
496.02	22340.41
496.20	22422.33
496.38	22499.57
496.55	22733.62
496.73	22642.34
496.91	22951.29
497.09	23330.46
497.26	23073.00
497.44	22951.29
497.62	23473.23
497.79	23417.06
497.97	23407.70
498.14	23379.61
498.32	23356.21
498.50	23620.69
498.67	24133.26
498.85	23772.82
499.03	24217.52
499.20	24013.90
499.38	23857.08
499.56	24128.58
499.73	24362.64
499.91	24444.56
500.08	24664.57
500.26	24526.47
500.44	24711.38
500.61	24753.51
500.79	24512.43
500.97	25153.74
501.14	25139.69
501.32	25256.72
501.49	25432.26
501.67	25516.52
501.84	25385.45
502.02	25340.98
502.20	25743.55
502.37	25715.47
502.55	25170.12
502.72	25898.03
502.90	25827.81
503.07	25696.74
503.25	26302.94
503.43	25816.11
503.60	26012.71
503.78	25996.33
503.95	26052.50
504.13	26471.46
504.30	26429.33
504.48	26831.90
504.65	26745.30
504.83	26834.24
505.01	26768.71
505.18	26677.43
505.36	27253.20
505.53	27644.07
505.71	27388.95
505.88	27281.28
506.06	27421.72
506.23	27484.91
506.41	27213.41
506.58	27833.65
506.76	27571.51
506.93	27672.15
507.11	27655.77
507.28	28086.43
507.46	27718.96
507.63	28191.75
507.81	27922.59
507.98	28142.60
508.16	28416.44
508.33	28301.76
508.50	28163.67
508.68	28659.86
508.85	28678.58
509.03	28617.73
509.20	28580.28
509.38	29219.25
509.55	28982.85
509.73	29333.93
509.90	28917.32
510.08	29017.96
510.25	28772.21
510.42	29490.75
510.60	29207.55
510.77	29362.02
510.95	29972.90
511.12	29619.48
511.30	29951.84
511.47	30176.53
511.64	30003.33
511.82	30139.08
511.99	30295.89
512.17	30110.99
512.34	30284.19
512.51	30314.62
512.69	30532.29
512.86	30237.38
513.04	30513.56
513.21	30899.75
513.38	30242.06
513.56	30546.33
513.73	30820.17
513.90	30506.54
514.08	30581.44
514.25	30972.31
514.43	30930.18
514.60	31297.64
514.77	31208.70
514.95	31426.37
515.12	31218.07
515.29	31150.19
515.47	31545.74
515.64	31742.35
515.81	31615.96
515.99	31763.41
516.16	32004.49
516.33	31512.97
516.51	31929.59
516.68	31257.85
516.85	31777.45
517.03	32037.25
517.20	31718.94
517.37	32311.10
517.54	31985.76
517.72	31756.39
517.89	32037.25
518.06	32065.34
518.24	32130.87
518.41	31999.80
518.58	32472.59
518.75	32411.74
518.93	32690.26
519.10	32517.06
519.27	33090.49
519.45	32669.20
519.62	32587.28
519.79	33373.70
519.96	32933.68
520.14	33132.62
520.31	33500.09
520.48	33261.35
520.65	33130.28
520.83	33682.65
521.00	33284.76
521.17	33329.23
521.34	33837.12
521.52	33738.82
521.69	33366.68
521.86	33968.19
522.03	33514.13
522.20	33970.54
522.38	34235.02
522.55	34223.31
522.72	34096.92
522.89	34155.44
523.07	34293.53
523.24	34073.52
523.41	35119.74
523.58	34422.26
523.75	34653.97
523.92	34459.71
524.10	35108.04
524.27	35044.84
524.44	35065.91
524.61	35281.24
524.78	35267.19
524.96	35168.89
525.13	35110.38
525.30	35311.66
525.47	35358.47
525.64	35534.01
525.81	35646.36
525.98	35211.02
526.16	35145.48
526.33	35260.17
526.50	35681.47
526.67	35557.42
526.84	35250.81
527.01	35299.96
527.18	36093.40
527.36	36149.57
527.53	36119.15
527.70	35887.43
527.87	36128.51
528.04	35828.92
528.21	35824.24
528.38	36126.17
528.55	36378.95
528.72	36334.48
528.89	36467.89
529.07	36238.51
529.24	36128.51
529.41	36304.05
529.58	36470.23
529.75	36304.05
529.92	36896.20
530.09	36683.22
530.26	36804.92
530.43	36720.66
530.60	36383.63
530.77	36617.68
530.94	36978.12
531.11	36701.94
531.28	37273.03
531.46	37027.28
531.63	37434.53
531.80	37404.10
531.97	37031.96
532.14	36683.22
532.31	37364.31
532.48	37443.89
532.65	37200.47
532.82	37425.17
532.99	37596.03
533.16	37329.20
533.33	37635.81
533.50	37855.82
533.67	37872.21
533.84	37890.93
534.01	37792.63
534.18	37912.00
534.35	37921.36
534.52	37736.46
534.69	38202.22
534.86	38515.86
535.03	37689.65
535.20	38574.37
535.37	38522.88
535.54	38665.65
535.71	38394.15
535.88	38380.10
536.05	38174.14
536.22	38429.26
536.38	38562.67
536.55	38457.34
536.72	38529.90
536.89	38686.71
537.06	38712.46
537.23	38658.63
537.40	38614.16
537.57	39152.48
537.74	39070.56
537.91	39091.63
538.08	39225.04
538.25	38501.81
538.42	39063.54
538.59	39044.82
538.75	38787.36
538.92	39466.11
539.09	38885.66
539.26	39292.91
539.43	39491.86
539.60	39281.21
539.77	38888.00
539.94	39388.88
540.11	39309.30
540.28	39573.78
540.44	39129.08
540.61	39047.16
540.78	39344.41
540.95	39360.79
541.12	39068.22
541.29	39793.79
541.46	39313.98
541.62	39168.87
541.79	39791.45
541.96	39466.11
542.13	39576.12
542.30	39835.92
542.47	39845.28
542.63	39871.03
542.80	40055.93
542.97	40451.48
543.14	40289.98
543.31	40266.58
543.48	40341.47
543.64	40797.88
543.81	40605.95
543.98	40610.64
544.15	40201.04
544.32	40552.12
544.48	40755.75
544.65	40825.96
544.82	40563.82
544.99	40456.16
545.16	40727.66
545.32	40591.91
545.49	41067.04
545.66	41338.54
545.83	41067.04
546.00	41163.00
546.16	41350.24
546.33	40950.01
546.50	40861.07
546.67	41013.21
546.83	40912.56
547.00	40835.33
547.17	40919.59
547.34	40727.66
547.50	41556.21
547.67	41553.87
547.84	41244.92
548.00	41397.06
548.17	41354.93
548.34	41713.03
548.51	41979.85
548.67	41806.65
548.84	41478.97
549.01	41488.34
549.18	41656.85
549.34	41837.08
549.51	41879.21
549.68	41263.64
549.84	41710.69
550.01	41963.46
550.18	41895.59
550.34	41893.25
550.51	42117.94
550.68	41862.82
550.84	41511.74
551.01	42066.45
551.18	42518.17
551.34	41633.45
551.51	41902.61
551.68	41900.27
551.84	42087.51
552.01	41792.61
552.18	42045.38
552.34	41605.36
552.51	42394.12
552.68	42305.18
552.84	42653.92
553.01	42026.66
553.18	42403.49
553.34	42227.95
553.51	42134.32
553.67	42499.45
553.84	42389.44
554.01	42504.13
554.17	42440.93
554.34	42562.64
554.51	42747.54
554.67	42829.46
554.84	42967.55
555.00	42642.22
555.17	42679.67
555.33	42703.07
555.50	42836.48
555.67	42937.13
555.83	42518.17
556.00	42506.47
556.16	42792.01
556.33	43398.21
556.50	43051.81
556.66	42951.17
556.83	42464.34
556.99	43234.38
557.16	43065.86
557.32	43028.41
557.49	43115.01
557.65	43164.16
557.82	43292.89
557.98	43005.00
558.15	43084.58
558.32	42972.24
558.48	43105.65
558.65	43063.52
558.81	42866.91
558.98	42906.70
559.14	42930.11
559.31	43119.69
559.47	43232.04
559.64	43459.07
559.80	43604.18
559.97	43501.20
560.13	43098.62
560.30	43175.86
560.46	43267.14
560.63	43667.37
560.79	43690.78
560.96	43391.19
561.12	43342.04
561.29	43548.01
561.45	43150.12
561.61	43257.78
561.78	43344.38
561.94	43400.55
562.11	43730.57
562.27	43234.38
562.44	43208.63
562.60	43697.80
562.77	43791.42
562.93	43573.75
563.10	43796.10
563.26	43037.77
563.42	43744.61
563.59	44039.52
563.75	43590.14
563.92	43662.69
564.08	44004.41
564.24	44081.65
564.41	43934.20
564.57	43545.67
564.74	43667.37
564.90	43679.08
565.07	43459.07
565.23	43969.30
565.39	43517.58
565.56	43882.70
565.72	43597.16
565.88	43587.80
566.05	43704.82
566.21	44201.02
566.38	43522.26
566.54	43885.04
566.70	44402.30
566.87	44046.54
567.03	44079.31
567.19	44184.63
567.36	44311.02
567.52	43793.76
567.68	44252.51
567.85	43995.05
568.01	43887.39
568.17	43611.20
568.34	44357.83
568.50	44076.97
568.66	44198.68
568.83	44430.39
568.99	43966.96
569.15	43599.50
569.32	43597.16
569.48	44210.38
569.64	44179.95
569.81	43931.86
569.97	44105.06
570.13	44390.60
570.30	43735.25
570.46	44151.87
570.62	44058.24
570.78	43887.39
570.95	43772.70
571.11	44594.23
571.27	44100.37
571.43	43969.30
571.60	44308.68
571.76	44013.77
571.92	44339.11
572.09	44196.34
572.25	43604.18
572.41	44048.88
572.57	44385.92
572.74	44601.25
572.90	44416.35
573.06	44341.45
573.22	44114.42
573.38	44189.31
573.55	43833.55
573.71	44201.02
573.87	43592.48
574.03	44189.31
574.20	44292.30
574.36	43784.40
574.52	44261.87
574.68	44184.63
574.84	44247.83
575.01	44350.81
575.17	43976.33
575.33	43627.59
575.49	43779.72
575.65	44343.79
575.82	44451.45
575.98	44186.97
576.14	44360.17
576.30	44086.33
576.46	44500.61
576.62	44460.82
576.79	44516.99
576.95	44296.98
577.11	44444.43
577.27	44404.64
577.43	44526.35
577.59	44622.31
577.75	44289.96
577.92	43739.93
578.08	43906.11
578.24	43995.05
578.40	44048.88
578.56	44467.84
578.72	44191.65
578.88	44828.28
579.04	44758.06
579.21	44580.18
579.37	44531.03
579.53	44378.90
579.69	44147.18
579.85	44037.18
580.01	44552.10
580.17	44261.87
580.33	44861.05
580.49	44652.74
580.65	44954.67
580.82	44596.57
580.98	44191.65
581.14	44367.20
581.30	44561.46
581.46	44828.28
581.62	44804.88
581.78	44107.40
581.94	44783.81
582.10	44194.00
582.26	43992.71
582.42	44622.31
582.58	44362.51
582.74	44238.47
582.90	44837.64
583.06	44893.82
583.22	44722.96
583.38	44549.76
583.54	44392.94
583.70	44390.60
583.86	44479.54
584.02	44144.84
584.18	44701.89
584.34	44809.56
584.50	44734.66
584.66	44311.02
584.82	44189.31
584.98	44774.45
585.14	44446.77
585.30	44509.97
585.46	44322.72
585.62	44563.80
585.78	44170.59
585.94	44151.87
586.10	44458.48
586.26	44404.64
586.42	44442.09
586.58	44772.11
586.74	44893.82
586.90	44030.16
587.06	44456.14
587.22	44416.35
587.38	44039.52
587.54	44556.78
587.70	44870.41
587.86	44729.98
588.02	44699.55
588.18	44865.73
588.34	44271.23
588.49	44034.84
588.65	44144.84
588.81	44334.43
588.97	44622.31
589.13	44795.51
589.29	44247.83
589.45	44659.76
589.61	44765.09
589.77	44236.12
589.93	44458.48
590.08	44610.61
590.24	44760.40
590.40	44758.06
