SpectraSuite Data File
++++++++++++++++++++++++++++++++++++
Date: Fri Oct 25 10:47:48 EDT 2013
User: price-jones
Dark Spectrum Present: No
Reference Spectrum Present: No
Number of Sampled Component Spectra: 1
Spectrometers: USB2+H05261
Integration Time (usec): 100000 (USB2+H05261)
Spectra Averaged: 1 (USB2+H05261)
Boxcar Smoothing: 0 (USB2+H05261)
Correct for Electrical Dark: No (USB2+H05261)
Strobe/Lamp Enabled: No (USB2+H05261)
Correct for Detector Non-linearity: No (USB2+H05261)
Correct for Stray Light: No (USB2+H05261)
Number of Pixels in Processed Spectrum: 2048
>>>>>Begin Processed Spectral Data<<<<<
365.73	201.29
365.92	201.29
366.12	201.29
366.32	53.83
366.52	46.81
366.72	147.45
366.91	49.15
367.11	60.85
367.31	0.00
367.51	7.02
367.70	18.72
367.90	21.06
368.10	30.43
368.30	60.85
368.49	42.13
368.69	65.54
368.89	18.72
369.09	53.83
369.28	60.85
369.48	79.58
369.68	70.22
369.87	177.88
370.07	175.54
370.27	142.77
370.47	201.29
370.66	332.36
370.86	414.27
371.06	470.45
371.25	449.38
371.45	484.49
371.65	440.02
371.84	416.62
372.04	411.93
372.24	456.40
372.44	514.92
372.63	510.24
372.83	524.28
373.03	451.72
373.22	442.36
373.42	468.11
373.62	533.64
373.81	472.79
374.01	528.96
374.21	465.77
374.40	540.66
374.60	521.94
374.79	571.09
374.99	557.05
375.19	596.84
375.38	557.05
375.58	643.65
375.78	564.07
375.97	594.50
376.17	683.44
376.37	643.65
376.56	533.64
376.76	552.37
376.95	554.71
377.15	704.50
377.35	648.33
377.54	571.09
377.74	524.28
377.93	615.56
378.13	648.33
378.33	648.33
378.52	587.47
378.72	575.77
378.91	636.63
379.11	599.18
379.31	596.84
379.50	615.56
379.70	587.47
379.89	676.41
380.09	645.99
380.28	648.33
380.48	716.20
380.68	636.63
380.87	613.22
381.07	690.46
381.26	601.52
381.46	634.29
381.65	643.65
381.85	624.92
382.04	674.07
382.24	695.14
382.43	627.26
382.63	683.44
382.83	713.86
383.02	746.63
383.22	699.82
383.41	732.59
383.61	699.82
383.80	716.20
384.00	716.20
384.19	690.46
384.39	767.70
384.58	779.40
384.78	802.80
384.97	741.95
385.17	807.48
385.36	802.80
385.56	779.40
385.75	763.01
385.95	734.93
386.14	777.06
386.34	770.04
386.53	847.27
386.72	755.99
386.92	837.91
387.11	821.53
387.31	877.70
387.50	760.67
387.70	868.34
387.89	891.74
388.09	791.10
388.28	814.51
388.48	781.74
388.67	887.06
388.86	844.93
389.06	875.36
389.25	954.94
389.45	945.58
389.64	884.72
389.84	997.07
390.03	994.73
390.22	891.74
390.42	805.14
390.61	947.92
390.81	898.77
391.00	894.08
391.19	983.02
391.39	973.66
391.58	912.81
391.78	908.13
391.97	999.41
392.16	976.00
392.36	1041.54
392.55	1081.33
392.75	933.87
392.94	1004.09
393.13	954.94
393.33	938.55
393.52	997.07
393.71	1034.52
393.91	1064.94
394.10	1093.03
394.29	1064.94
394.49	1102.39
394.68	1039.20
394.88	1088.35
395.07	1156.22
395.26	1116.44
395.46	1083.67
395.65	1071.97
395.84	1123.46
396.04	1132.82
396.23	1128.14
396.42	1123.46
396.62	1139.84
396.81	1158.57
397.00	1123.46
397.19	1179.63
397.39	1263.89
397.58	1270.91
397.77	1191.33
397.97	1259.21
398.16	1214.74
398.35	1308.36
398.55	1184.31
398.74	1266.23
398.93	1313.04
399.12	1324.74
399.32	1390.28
399.51	1294.32
399.70	1315.38
399.90	1299.00
400.09	1406.66
400.28	1493.26
400.47	1362.19
400.67	1458.15
400.86	1495.60
401.05	1500.28
401.24	1519.01
401.44	1502.62
401.63	1497.94
401.82	1467.52
402.01	1504.96
402.21	1481.56
402.40	1516.67
402.59	1514.33
402.78	1500.28
402.97	1650.08
403.17	1544.75
403.36	1610.29
403.55	1568.16
403.74	1664.12
403.93	1612.63
404.13	1750.72
404.32	1661.78
404.51	1631.35
404.70	1750.72
404.89	1685.19
405.09	1687.53
405.28	1694.55
405.47	1762.42
405.66	1856.04
405.85	1820.94
406.05	1696.89
406.24	1694.55
406.43	1795.19
406.62	1813.92
406.81	1949.67
407.00	1886.47
407.20	1746.04
407.39	1732.00
407.58	1813.92
407.77	2092.44
407.96	1860.73
408.15	2064.35
408.34	1912.22
408.54	1902.86
408.73	1837.32
408.92	2047.97
409.11	2047.97
409.30	2139.25
409.49	1959.03
409.68	1977.75
409.87	2001.16
410.07	2150.95
410.26	2069.03
410.45	2090.10
410.64	2223.51
410.83	2181.38
411.02	2246.91
411.21	2263.30
411.40	2289.04
411.59	2300.75
411.78	2289.04
411.98	2335.85
412.17	2356.92
412.36	2324.15
412.55	2427.14
412.74	2413.09
412.93	2516.08
413.12	2452.88
413.31	2537.14
413.50	2410.75
413.69	2527.78
413.88	2626.08
414.07	2502.03
414.26	2616.72
414.45	2626.08
414.64	2569.91
414.83	2665.87
415.02	2658.85
415.22	2726.72
415.41	2743.11
415.60	2799.28
415.79	2829.71
415.98	2764.17
416.17	2789.92
416.36	2825.03
416.55	2876.52
416.74	2979.50
416.93	2916.31
417.12	2942.05
417.31	2923.33
417.50	3021.63
417.69	3082.49
417.88	3157.38
418.07	3000.57
418.26	2902.26
418.45	3124.62
418.64	3370.37
418.83	3276.75
419.02	3122.27
419.21	3255.69
419.39	3169.09
419.58	3028.65
419.77	3232.28
419.96	3227.60
420.15	3185.47
420.34	3197.17
420.53	3251.00
420.72	3466.33
420.91	3316.54
421.10	3386.76
421.29	3489.74
421.48	3379.73
421.67	3515.48
421.86	3405.48
422.05	3389.10
422.24	3393.78
422.43	3445.27
422.61	3471.01
422.80	3517.83
422.99	3382.07
423.18	3609.11
423.37	3667.62
423.56	3571.66
423.75	3559.95
423.94	3482.72
424.13	3372.71
424.32	3330.58
424.50	3461.65
424.69	3604.42
424.88	3562.30
425.07	3581.02
425.26	3382.07
425.45	3634.85
425.64	3557.61
425.83	3515.48
426.01	3606.77
426.20	3571.66
426.39	3641.87
426.58	3499.10
426.77	3630.17
426.96	3515.48
427.15	3632.51
427.33	3555.27
427.52	3665.28
427.71	3707.41
427.90	3824.44
428.09	3726.13
428.28	3728.47
428.46	3786.99
428.65	3665.28
428.84	3735.50
429.03	3922.74
429.22	3700.39
429.40	3801.03
429.59	3691.02
429.78	3761.24
429.97	3625.49
430.16	3740.18
430.34	3747.20
430.53	3904.01
430.72	3831.46
430.91	3845.50
431.10	3936.78
431.28	4049.13
431.47	4187.22
431.66	4112.32
431.85	4257.43
432.03	4170.83
432.22	4269.14
432.41	4201.26
432.60	4308.93
432.79	4241.05
432.97	4145.09
433.16	4278.50
433.35	4154.45
433.54	4177.86
433.72	4236.37
433.91	4278.50
434.10	4227.01
434.28	4215.30
434.47	4367.44
434.66	4416.59
434.85	4390.84
435.03	4470.42
435.22	4620.22
435.41	4652.98
435.59	4512.55
435.78	4660.01
435.97	4568.73
436.16	4540.64
436.34	4678.73
436.53	4676.39
436.72	4802.78
436.90	4699.80
437.09	4638.94
437.28	4589.79
437.46	4854.27
437.65	4667.03
437.84	4755.97
438.02	4650.64
438.21	4613.20
438.40	4835.55
438.58	4748.95
438.77	4917.47
438.96	5015.77
439.14	4978.32
439.33	5074.28
439.52	5081.30
439.70	5195.99
439.89	4983.00
440.08	5193.65
440.26	5107.05
440.45	5027.47
440.63	5322.38
440.82	5479.19
441.01	5284.93
441.19	5439.40
441.38	5591.54
441.57	5394.93
441.75	5565.79
441.94	5528.35
442.12	5472.17
442.31	5657.07
442.50	5511.96
442.68	5596.22
442.87	5631.33
443.05	5591.54
443.24	5680.48
443.43	5706.23
443.61	5886.45
443.80	5989.43
443.98	5591.54
444.17	5565.79
444.35	5989.43
444.54	6127.52
444.73	5806.87
444.91	5818.57
445.10	5874.74
445.28	5797.51
445.47	5650.05
445.65	5818.57
445.84	5781.12
446.02	5982.41
446.21	5963.68
446.39	5785.80
446.58	5942.62
446.77	6010.50
446.95	5937.94
447.14	6061.99
447.32	6179.01
447.51	6001.13
447.69	6024.54
447.88	5930.92
448.06	5839.64
448.25	5951.98
448.43	5991.77
448.62	6129.86
448.80	6085.39
448.99	6169.65
449.17	6164.97
449.36	6258.59
449.54	6375.62
449.73	6207.10
449.91	6427.11
450.10	6298.38
450.28	6443.49
450.46	6431.79
450.65	6359.24
450.83	6562.86
451.02	6331.15
451.20	6389.66
451.39	6527.75
451.57	6560.52
451.76	6340.51
451.94	6480.94
452.13	6497.33
452.31	6387.32
452.49	6396.68
452.68	6462.22
452.86	6471.58
453.05	6572.22
453.23	6558.18
453.42	6480.94
453.60	6579.25
453.78	6747.76
453.97	6623.72
454.15	6588.61
454.34	6555.84
454.52	6527.75
454.70	6715.00
454.89	6890.54
455.07	6855.43
455.26	6771.17
455.44	7009.90
455.62	6829.68
455.81	7187.79
455.99	7246.30
456.17	6998.20
456.36	7052.03
456.54	7133.95
456.73	7077.78
456.91	7426.52
457.09	7157.36
457.28	7370.35
457.46	7344.60
457.64	7232.26
457.83	7133.95
458.01	7131.61
458.19	7482.69
458.38	7281.41
458.56	7344.60
458.74	7368.01
458.93	7344.60
459.11	7379.71
459.29	7372.69
459.48	7492.05
459.66	7674.62
459.84	7522.48
460.03	7700.36
460.21	7637.17
460.39	7763.56
460.57	7644.19
460.76	7625.47
460.94	7728.45
461.12	7779.94
461.31	7880.58
461.49	7681.64
461.67	7775.26
461.85	7960.16
462.04	7873.56
462.22	8374.44
462.40	8114.64
462.59	8121.66
462.77	7964.84
462.95	7978.89
463.13	7983.57
463.32	8079.53
463.50	8114.64
463.68	8285.50
463.86	8280.82
464.05	8074.85
464.23	8030.38
464.41	8264.43
464.59	8049.10
464.78	8334.65
464.96	8301.88
465.14	8002.29
465.32	8322.94
465.50	8468.06
465.69	8435.29
465.87	8252.73
466.05	8315.92
466.23	8194.22
466.41	8231.66
466.60	8400.18
466.78	8322.94
466.96	8351.03
467.14	8432.95
467.32	8554.66
467.51	8667.00
467.69	8365.07
467.87	8589.77
468.05	8610.83
468.23	8510.19
468.41	8634.24
468.60	8638.92
468.78	8823.82
468.96	8652.96
469.14	8964.25
469.32	8898.72
469.50	8592.11
469.69	8901.06
469.87	8917.44
470.05	8952.55
470.23	8765.31
470.41	9156.18
470.59	8999.36
470.77	9025.11
470.95	9036.81
471.14	9172.56
471.32	9160.86
471.50	9305.97
471.68	9144.47
471.86	9324.69
472.04	9287.25
472.22	9399.59
472.40	9205.33
472.58	9181.92
472.77	9607.90
472.95	9528.32
473.13	9909.83
473.31	9764.72
473.49	9521.30
473.67	9635.99
473.85	9778.76
474.03	9837.27
474.21	9825.57
474.39	10068.98
474.57	9820.89
474.75	10183.67
474.93	10148.56
475.12	10001.11
475.30	10298.36
475.48	10073.67
475.66	10457.51
475.84	10118.14
476.02	10499.64
476.20	10600.29
476.38	10764.12
476.56	10794.55
476.74	10672.84
476.92	10614.33
477.10	10764.12
477.28	10892.85
477.46	11012.22
477.64	11147.97
477.82	11335.21
478.00	11222.87
478.18	11382.03
478.36	11555.22
478.54	11372.66
478.72	11782.26
478.90	11698.00
479.08	11920.35
479.26	11997.59
479.44	12095.89
479.62	11918.01
479.80	11967.16
479.98	12142.70
480.16	12336.96
480.34	12381.43
480.52	12657.62
480.70	12496.12
480.88	12203.55
481.06	12575.70
481.24	12809.75
481.41	12807.41
481.59	13156.15
481.77	13282.54
481.95	13135.09
482.13	13317.65
482.31	13284.88
482.49	13467.44
482.67	13502.55
482.85	13401.91
483.03	13647.66
483.21	13776.39
483.39	14078.32
483.57	13879.38
483.74	14207.05
483.92	14319.40
484.10	14324.08
484.28	14597.92
484.46	14822.61
484.64	14991.13
484.82	14848.36
485.00	14932.62
485.18	15091.77
485.35	15068.37
485.53	14904.53
485.71	15105.82
485.89	15428.81
486.07	15342.21
486.25	15503.71
486.43	15625.42
486.61	15562.22
486.78	15950.75
486.96	16301.83
487.14	16238.64
487.32	16449.28
487.50	16409.50
487.68	16812.07
487.85	16943.14
488.03	17121.02
488.21	17039.10
488.39	17139.74
488.57	17226.34
488.75	17289.54
488.92	17638.28
489.10	17642.96
489.28	17717.86
489.46	17984.68
489.64	18108.72
489.81	18438.74
489.99	18431.72
490.17	18628.32
490.35	18635.35
490.53	18532.36
490.70	18679.82
490.88	18618.96
491.06	19206.44
491.24	19101.11
491.41	19314.10
491.59	19028.56
491.77	19112.81
491.95	19653.48
492.13	19798.59
492.30	19733.06
492.48	19971.79
492.66	19997.54
492.84	20063.07
493.01	20250.32
493.19	20365.00
493.37	20250.32
493.54	20725.44
493.72	20865.88
493.90	20744.17
494.08	21170.15
494.25	21303.56
494.43	21390.16
494.61	21551.65
494.79	22031.46
494.96	21668.68
495.14	21451.01
495.32	21968.27
495.49	21699.11
495.67	21923.80
495.85	22242.11
496.02	21947.20
496.20	22551.06
496.38	22614.26
496.55	22581.49
496.73	23274.29
496.91	23000.44
497.09	23094.07
497.26	23145.56
497.44	23044.91
497.62	23335.14
497.79	23447.49
497.97	23211.09
498.14	23421.74
498.32	23679.20
498.50	23585.58
498.67	24004.53
498.85	23908.57
499.03	24091.13
499.20	24119.22
499.38	24343.91
499.56	24912.66
499.73	24283.06
499.91	24409.45
500.08	24486.68
500.26	24524.13
500.44	24802.66
500.61	24603.71
500.79	24533.50
500.97	24720.74
501.14	25289.49
501.32	25205.23
501.49	25034.37
501.67	25287.15
501.84	25549.29
502.02	25432.26
502.20	25795.04
502.37	25944.84
502.55	25788.02
502.72	25846.54
502.90	26031.44
503.07	25970.58
503.25	26061.87
503.43	26092.29
503.60	26192.94
503.78	25998.67
503.95	26291.24
504.13	26672.74
504.30	26382.52
504.48	26338.05
504.65	26518.27
504.83	27297.67
505.01	27124.47
505.18	27021.48
505.36	27194.68
505.53	27150.21
505.71	27316.39
505.88	27410.01
506.06	27250.86
506.23	27592.58
506.41	27351.50
506.58	27723.65
506.76	27669.81
506.93	27796.20
507.11	27913.23
507.28	28161.33
507.46	27721.30
507.63	28137.92
507.81	28423.47
507.98	28067.70
508.16	28184.73
508.33	28584.96
508.50	28439.85
508.68	28421.13
508.85	28903.28
509.03	28861.15
509.20	28943.06
509.38	29266.06
509.55	29362.02
509.73	29039.03
509.90	29036.69
510.08	29249.67
510.25	29198.18
510.42	29544.58
510.60	29432.24
510.77	30038.44
510.95	29762.25
511.12	29724.80
511.30	29935.45
511.47	30085.25
511.64	30291.21
511.82	30092.27
511.99	30066.52
512.17	30380.15
512.34	30199.93
512.51	30504.20
512.69	30288.87
512.86	30698.47
513.04	30731.23
513.21	30639.95
513.38	30710.17
513.56	30335.68
513.73	30471.43
513.90	30888.05
514.08	30600.16
514.25	31007.42
514.43	31131.47
514.60	31117.42
514.77	31007.42
514.95	31248.49
515.12	31632.34
515.29	31388.92
515.47	31667.45
515.64	31772.77
515.81	31068.27
515.99	31604.25
516.16	31866.39
516.33	31784.48
516.51	32034.91
516.68	31461.48
516.85	31728.30
517.03	31962.36
517.20	31903.84
517.37	31924.91
517.54	32435.14
517.72	32016.19
517.89	31702.56
518.06	32006.83
518.24	31812.56
518.41	31885.12
518.58	32416.42
518.75	32294.71
518.93	32811.97
519.10	32826.01
519.27	32914.95
519.45	32985.17
519.62	33041.34
519.79	33237.95
519.96	33549.24
520.14	33359.66
520.31	33156.03
520.48	33717.76
520.65	33715.42
520.83	33701.37
521.00	33371.36
521.17	33677.97
521.34	33542.22
521.52	34253.74
521.69	34129.69
521.86	34022.03
522.03	34251.40
522.20	34155.44
522.38	34536.94
522.55	34504.18
522.72	34270.12
522.89	34307.57
523.07	34515.88
523.24	34579.07
523.41	34550.99
523.58	34773.34
523.75	34897.39
523.92	34878.66
524.10	35257.83
524.27	34787.38
524.44	35185.27
524.61	35164.21
524.78	35494.22
524.96	35543.38
525.13	35648.70
525.30	35042.50
525.47	35742.32
525.64	35723.60
525.81	35140.80
525.98	35501.25
526.16	35089.31
526.33	35414.65
526.50	35594.87
526.67	35112.72
526.84	35639.34
527.01	35564.44
527.18	35735.30
527.36	36086.38
527.53	36189.36
527.70	36545.12
527.87	36151.91
528.04	36067.66
528.21	35821.90
528.38	36273.62
528.55	36371.92
528.72	36395.33
528.89	36444.48
529.07	36282.98
529.24	36573.21
529.41	36886.84
529.58	36327.45
529.75	36463.21
529.92	37095.15
530.09	36797.90
530.26	37062.38
530.43	36814.29
530.60	37008.55
530.77	37240.26
530.94	37261.33
531.11	37092.81
531.28	37427.51
531.46	37291.76
531.63	37450.91
531.80	36828.33
531.97	37015.57
532.14	37315.16
532.31	37462.61
532.48	37312.82
532.65	37640.50
532.82	37596.03
532.99	37682.62
533.16	37380.70
533.33	37282.39
533.50	38237.33
533.67	38036.05
533.84	37752.84
534.01	38017.32
534.18	38003.28
534.35	38190.52
534.52	37937.74
534.69	37949.45
534.86	38139.03
535.03	38005.62
535.20	38712.46
535.37	38642.24
535.54	38857.57
535.71	37970.51
535.88	38464.36
536.05	38600.12
536.22	38728.84
536.38	38424.57
536.55	38288.82
536.72	38443.30
536.89	38429.26
537.06	38944.17
537.23	39133.76
537.40	38384.79
537.57	38480.75
537.74	38948.85
537.91	39021.41
538.08	38902.04
538.25	38899.70
538.42	39196.95
538.59	39126.74
538.75	38759.27
538.92	39608.89
539.09	39456.75
539.26	39065.88
539.43	39288.23
539.60	39138.44
539.77	39524.63
539.94	39480.16
540.11	39442.71
540.28	39491.86
540.44	39728.25
540.61	39379.51
540.78	39199.29
540.95	39466.11
541.12	39739.96
541.29	39690.80
541.46	39690.80
541.62	40025.50
541.79	40114.44
541.96	39557.39
542.13	39627.61
542.30	40091.04
542.47	40100.40
542.63	39941.24
542.80	39735.27
542.97	40362.54
543.14	41057.68
543.31	40357.86
543.48	40734.68
543.64	40781.49
543.81	40870.43
543.98	40488.93
544.15	40488.93
544.32	40980.44
544.48	40790.86
544.65	40854.05
544.82	41118.53
544.99	40683.19
545.16	41088.10
545.32	40589.57
545.49	41027.25
545.66	40919.59
545.83	40706.60
546.00	41118.53
546.16	41193.43
546.33	40931.29
546.50	40629.36
546.67	40982.78
546.83	41102.15
547.00	41036.61
547.17	41324.50
547.34	41111.51
547.50	41471.95
547.67	41415.78
547.84	41448.55
548.00	41640.47
548.17	41867.50
548.34	41574.94
548.51	41694.30
548.67	41593.66
548.84	41773.88
549.01	41628.77
549.18	41918.99
549.34	41933.04
549.51	42157.73
549.68	42050.06
549.84	42047.72
550.01	42155.39
550.18	41528.13
550.34	41797.29
550.51	42124.96
550.68	41893.25
550.84	42036.02
551.01	42300.50
551.18	42066.45
551.34	41958.78
551.51	42127.30
551.68	41659.20
551.84	42632.86
552.01	42391.78
552.18	42637.54
552.34	42506.47
552.51	42682.01
552.68	42026.66
552.84	42782.65
553.01	42548.60
553.18	42234.97
553.34	42457.32
553.51	42300.50
553.67	42073.47
553.84	42768.61
554.01	42979.26
554.17	42665.63
554.34	43068.20
554.51	42923.08
554.67	42983.94
554.84	43021.39
555.00	43093.94
555.17	42873.93
555.33	42719.46
555.50	43122.03
555.67	43084.58
555.83	42738.18
556.00	43281.19
556.16	43360.76
556.33	43154.80
556.50	43215.65
556.66	43412.26
556.83	43103.31
556.99	43208.63
557.16	43615.88
557.32	43171.18
557.49	43140.75
557.65	42834.14
557.82	43384.17
557.98	43166.50
558.15	43131.39
558.32	43271.82
558.48	43159.48
558.65	43311.61
558.81	43400.55
558.98	43227.35
559.14	43360.76
559.31	43777.38
559.47	43283.53
559.64	43578.43
559.80	43428.64
559.97	43681.42
560.13	43402.89
560.30	43374.81
560.46	43475.45
560.63	43522.26
560.79	43718.87
560.96	43901.43
561.12	43969.30
561.29	43845.26
561.45	43693.12
561.61	43524.60
561.78	43721.21
561.94	43517.58
562.11	43887.39
562.27	43622.90
562.44	43597.16
562.60	44006.75
562.77	44051.22
562.93	43880.36
563.10	43742.27
563.26	43718.87
563.42	43627.59
563.59	44128.46
563.75	43620.56
563.92	44177.61
564.08	44065.27
564.24	44245.49
564.41	44395.28
564.57	43658.01
564.74	44023.14
564.90	43863.98
565.07	44196.34
565.23	43578.43
565.39	43789.08
565.56	44140.16
565.72	44240.81
565.88	44210.38
566.05	43826.53
566.21	44013.77
566.38	43887.39
566.54	44191.65
566.70	44456.14
566.87	44704.23
567.03	44112.08
567.19	44786.15
567.36	44514.65
567.52	44289.96
567.68	44566.14
567.85	44088.67
568.01	44053.56
568.17	44437.41
568.34	44385.92
568.50	43899.09
568.66	44360.17
568.83	44261.87
568.99	43810.15
569.15	44336.77
569.32	44144.84
569.48	44158.89
569.64	44336.77
569.81	44641.04
569.97	44751.04
570.13	44154.21
570.30	43943.56
570.46	44135.48
570.62	44062.93
570.78	43985.69
570.95	44421.03
571.11	44814.24
571.27	44360.17
571.43	44729.98
571.60	44545.08
571.76	44250.17
571.92	44402.30
572.09	44395.28
572.25	44205.70
572.41	44577.84
572.57	44081.65
572.74	44772.11
572.90	44369.54
573.06	44278.25
573.22	44432.73
573.38	44514.65
573.55	44570.82
573.71	44334.43
573.87	44472.52
574.03	44294.64
574.20	44425.71
574.36	44802.53
574.52	44575.50
574.68	44671.46
574.84	44814.24
575.01	44563.80
575.17	44449.11
575.33	44554.44
575.49	44498.26
575.65	44793.17
575.82	44982.76
575.98	44423.37
576.14	44779.13
576.30	45057.65
576.46	44268.89
576.62	44374.22
576.79	44357.83
576.95	44465.50
577.11	44720.62
577.27	44854.03
577.43	44634.02
577.59	44858.71
577.75	44769.77
577.92	44617.63
578.08	44030.16
578.24	44355.49
578.40	44563.80
578.56	44657.42
578.72	45001.48
578.88	44830.62
579.04	44690.19
579.21	44844.66
579.37	44933.60
579.53	44662.10
579.69	43983.35
579.85	44769.77
580.01	44634.02
580.17	44676.15
580.33	44870.41
580.49	44580.18
580.65	44877.43
580.82	44673.81
580.98	44521.67
581.14	44573.16
581.30	44685.51
581.46	44692.53
581.62	44832.96
581.78	44626.99
581.94	45113.83
582.10	44559.12
582.26	44617.63
582.42	44463.16
582.58	44404.64
582.74	44144.84
582.90	44863.39
583.06	45020.20
583.22	45010.84
583.38	45209.79
583.54	44893.82
583.70	44626.99
583.86	44575.50
584.02	44514.65
584.18	44765.09
584.34	44694.87
584.50	44781.47
584.66	45076.38
584.82	44514.65
584.98	45120.85
585.14	44549.76
585.30	44839.98
585.46	44718.28
585.62	44554.44
585.78	44643.38
585.94	44254.85
586.10	44561.46
586.26	44626.99
586.42	44594.23
586.58	44968.71
586.74	45069.36
586.90	44847.00
587.06	44706.57
587.22	45069.36
587.38	44580.18
587.54	45118.51
587.70	44931.26
587.86	44905.52
588.02	44734.66
588.18	44832.96
588.34	44861.05
588.49	44493.58
588.65	44786.15
588.81	44367.20
588.97	44900.84
589.13	44652.74
589.29	44397.62
589.45	44650.40
589.61	44907.86
589.77	45263.62
589.93	45003.82
590.08	45303.41
590.24	45078.72
