SpectraSuite Data File
++++++++++++++++++++++++++++++++++++
Date: Fri Oct 25 10:44:31 EDT 2013
User: price-jones
Dark Spectrum Present: No
Reference Spectrum Present: No
Number of Sampled Component Spectra: 1
Spectrometers: USB2+H05261
Integration Time (usec): 100000 (USB2+H05261)
Spectra Averaged: 1 (USB2+H05261)
Boxcar Smoothing: 0 (USB2+H05261)
Correct for Electrical Dark: No (USB2+H05261)
Strobe/Lamp Enabled: No (USB2+H05261)
Correct for Detector Non-linearity: No (USB2+H05261)
Correct for Stray Light: No (USB2+H05261)
Number of Pixels in Processed Spectrum: 2048
>>>>>Begin Processed Spectral Data<<<<<
365.73	86.60
365.92	86.60
366.12	86.60
366.32	70.22
366.52	25.75
366.72	88.94
366.91	42.13
367.11	4.68
367.31	0.00
367.51	0.00
367.70	74.90
367.90	56.17
368.10	63.19
368.30	65.54
368.49	72.56
368.69	93.62
368.89	39.79
369.09	0.00
369.28	98.30
369.48	4.68
369.68	67.88
369.87	67.88
370.07	9.36
370.27	191.92
370.47	177.88
370.66	353.42
370.86	451.72
371.06	421.30
371.25	454.06
371.45	449.38
371.65	425.98
371.84	428.32
372.04	355.76
372.24	437.68
372.44	514.92
372.63	407.25
372.83	430.66
373.03	484.49
373.22	533.64
373.42	470.45
373.62	514.92
373.81	514.92
374.01	517.26
374.21	498.53
374.40	543.00
374.60	557.05
374.79	545.34
374.99	561.73
375.19	596.84
375.38	496.19
375.58	535.98
375.78	631.94
375.97	631.94
376.17	692.80
376.37	559.39
376.56	615.56
376.76	538.32
376.95	524.28
377.15	615.56
377.35	617.90
377.54	587.47
377.74	662.37
377.93	535.98
378.13	655.35
378.33	692.80
378.52	692.80
378.72	662.37
378.91	636.63
379.11	620.24
379.31	648.33
379.50	692.80
379.70	706.84
379.89	727.91
380.09	669.39
380.28	683.44
380.48	739.61
380.68	622.58
380.87	660.03
381.07	676.41
381.26	660.03
381.46	683.44
381.65	678.76
381.85	655.35
382.04	620.24
382.24	657.69
382.43	660.03
382.63	603.86
382.83	755.99
383.02	716.20
383.22	748.97
383.41	692.80
383.61	713.86
383.80	657.69
384.00	725.57
384.19	737.27
384.39	737.27
384.58	770.04
384.78	704.50
384.97	765.36
385.17	788.76
385.36	690.46
385.56	795.78
385.75	788.76
385.95	805.14
386.14	807.48
386.34	786.42
386.53	746.63
386.72	786.42
386.92	868.34
387.11	805.14
387.31	751.31
387.50	849.61
387.70	812.17
387.89	854.30
388.09	816.85
388.28	882.38
388.48	807.48
388.67	826.21
388.86	891.74
389.06	833.23
389.25	954.94
389.45	908.13
389.64	999.41
389.84	966.64
390.03	919.83
390.22	926.85
390.42	898.77
390.61	931.53
390.81	922.17
391.00	959.62
391.19	1050.90
391.39	1022.81
391.58	1046.22
391.78	976.00
391.97	964.30
392.16	980.68
392.36	1053.24
392.55	968.98
392.75	954.94
392.94	858.98
393.13	926.85
393.33	1032.18
393.52	964.30
393.71	940.90
393.91	1025.15
394.10	1027.50
394.29	987.71
394.49	1027.50
394.68	1100.05
394.88	1078.99
395.07	1095.37
395.26	1121.12
395.46	1076.65
395.65	1214.74
395.84	1217.08
396.04	1270.91
396.23	1163.25
396.42	1205.38
396.62	1116.44
396.81	1144.52
397.00	1247.51
397.19	1242.82
397.39	1221.76
397.58	1254.53
397.77	1359.85
397.97	1345.81
398.16	1315.38
398.35	1266.23
398.55	1240.48
398.74	1383.26
398.93	1359.85
399.12	1357.51
399.32	1394.96
399.51	1355.17
399.70	1469.86
399.90	1401.98
400.09	1390.28
400.28	1490.92
400.47	1423.05
400.67	1467.52
400.86	1483.90
401.05	1549.43
401.24	1600.93
401.44	1500.28
401.63	1549.43
401.82	1654.76
402.01	1572.84
402.21	1558.80
402.40	1598.59
402.59	1514.33
402.78	1565.82
402.97	1509.65
403.17	1638.38
403.36	1715.61
403.55	1626.67
403.74	1736.68
403.93	1668.80
404.13	1689.87
404.32	1760.08
404.51	1675.82
404.70	1753.06
404.89	1732.00
405.09	1739.02
405.28	1806.89
405.47	1877.11
405.66	1879.45
405.85	1739.02
406.05	1713.27
406.24	1900.52
406.43	1914.56
406.62	1769.44
406.81	1923.92
407.00	1942.64
407.20	1813.92
407.39	1973.07
407.58	1942.64
407.77	2005.84
407.96	2026.90
408.15	2005.84
408.34	2141.59
408.54	2200.10
408.73	2092.44
408.92	2090.10
409.11	2083.08
409.30	2040.95
409.49	2078.40
409.68	2057.33
409.87	2150.95
410.07	2099.46
410.26	2186.06
410.45	2162.66
410.64	2148.61
410.83	2260.96
411.02	2246.91
411.21	2345.22
411.40	2249.25
411.59	2368.62
411.78	2361.60
411.98	2289.04
412.17	2385.01
412.36	2382.67
412.55	2434.16
412.74	2499.69
412.93	2504.37
413.12	2473.95
413.31	2663.53
413.50	2640.12
413.69	2548.84
413.88	2644.81
414.07	2626.08
414.26	2698.64
414.45	2642.46
414.64	2738.43
414.83	2654.17
415.02	2881.20
415.22	2708.00
415.41	2808.64
415.60	2841.41
415.79	2881.20
415.98	3061.42
416.17	3038.02
416.36	3021.63
416.55	3009.93
416.74	3056.74
416.93	2972.48
417.12	3145.68
417.31	3131.64
417.50	3063.76
417.69	3131.64
417.88	3148.02
418.07	3211.22
418.26	3274.41
418.45	3258.03
418.64	3377.39
418.83	3290.79
419.02	3187.81
419.21	3318.88
419.39	3323.56
419.58	3185.47
419.77	3178.45
419.96	3384.41
420.15	3510.80
420.34	3375.05
420.53	3592.72
420.72	3499.10
420.91	3581.02
421.10	3555.27
421.29	3552.93
421.48	3482.72
421.67	3482.72
421.86	3447.61
422.05	3602.08
422.24	3463.99
422.43	3442.93
422.61	3585.70
422.80	3447.61
422.99	3571.66
423.18	3609.11
423.37	3667.62
423.56	3651.24
423.75	3562.30
423.94	3653.58
424.13	3368.03
424.32	3548.25
424.50	3735.50
424.69	3592.72
424.88	3655.92
425.07	3536.55
425.26	3531.87
425.45	3606.77
425.64	3843.16
425.83	3684.00
426.01	3691.02
426.20	3688.68
426.39	3751.88
426.58	3707.41
426.77	3754.22
426.96	3632.51
427.15	3749.54
427.33	3798.69
427.52	3913.38
427.71	3749.54
427.90	3775.28
428.09	3840.82
428.28	3740.18
428.46	3871.25
428.65	3913.38
428.84	3964.87
429.03	4011.68
429.22	3880.61
429.40	3845.50
429.59	3915.72
429.78	3826.78
429.97	3688.68
430.16	3815.07
430.34	3997.64
430.53	3915.72
430.72	4042.11
430.91	4016.36
431.10	4030.40
431.28	4131.05
431.47	4114.66
431.66	4369.78
431.85	4081.89
432.03	4227.01
432.22	4444.68
432.41	4231.69
432.60	4421.27
432.79	4369.78
432.97	4472.76
433.16	4402.55
433.35	4461.06
433.54	4458.72
433.72	4353.40
433.91	4465.74
434.10	4463.40
434.28	4578.09
434.47	4496.17
434.66	4603.83
434.85	4636.60
435.03	4610.86
435.22	4594.47
435.41	4816.82
435.59	4823.84
435.78	4709.16
435.97	4844.91
436.16	4805.12
436.34	4751.29
436.53	4720.86
436.72	4919.81
436.90	4755.97
437.09	4830.87
437.28	4774.69
437.46	4835.55
437.65	4903.42
437.84	4931.51
438.02	4786.40
438.21	4954.91
438.40	4873.00
438.58	4957.25
438.77	5055.56
438.96	5008.75
439.14	5074.28
439.33	5149.18
439.52	5350.46
439.70	5240.46
439.89	5348.12
440.08	5308.34
440.26	5322.38
440.45	5158.54
440.63	5418.34
440.82	5654.73
441.01	5404.30
441.19	5715.59
441.38	5699.20
441.57	5673.46
441.75	5802.19
441.94	5856.02
442.12	5717.93
442.31	5849.00
442.50	5856.02
442.68	6040.92
442.87	6040.92
443.05	5825.59
443.24	5989.43
443.43	5987.09
443.61	5947.30
443.80	5879.43
443.98	5816.23
444.17	5727.29
444.35	6045.60
444.54	6090.07
444.73	5926.24
444.91	6010.50
445.10	6232.85
445.28	6022.20
445.47	5816.23
445.65	6111.14
445.84	6143.91
446.02	6111.14
446.21	6179.01
446.39	5951.98
446.58	6050.28
446.77	6286.68
446.95	6092.41
447.14	6239.87
447.32	6392.00
447.51	6183.70
447.69	6272.64
447.88	6171.99
448.06	6314.77
448.25	6188.38
448.43	6258.59
448.62	6282.00
448.80	6169.65
448.99	6235.19
449.17	6272.64
449.36	6186.04
449.54	6396.68
449.73	6640.10
449.91	6546.48
450.10	6635.42
450.28	6642.44
450.46	6740.74
450.65	6649.46
450.83	6555.84
451.02	6663.51
451.20	6733.72
451.39	6792.23
451.57	6658.82
451.76	6525.41
451.94	6651.80
452.13	6686.91
452.31	6715.00
452.49	6651.80
452.68	6658.82
452.86	6595.63
453.05	6848.41
453.23	6752.45
453.42	6801.60
453.60	6874.15
453.78	6923.30
453.97	7002.88
454.15	6974.80
454.34	6817.98
454.52	6942.03
454.70	6778.19
454.89	7016.93
455.07	7183.10
455.26	7119.91
455.44	7358.64
455.62	7073.10
455.81	7218.21
455.99	7124.59
456.17	7297.79
456.36	7157.36
456.54	7248.64
456.73	7466.31
456.91	7524.82
457.09	7473.33
457.28	7721.43
457.46	7391.41
457.64	7410.14
457.83	7630.15
458.01	7492.05
458.19	7581.00
458.38	7407.80
458.56	7597.38
458.74	7588.02
458.93	7651.21
459.11	7796.32
459.29	7494.40
459.48	7791.64
459.66	7660.57
459.84	7878.24
460.03	7868.88
460.21	7960.16
460.39	7880.58
460.57	8091.23
460.76	7913.35
460.94	7978.89
461.12	7861.86
461.31	8215.28
461.49	8091.23
461.67	8056.12
461.85	8229.32
462.04	8266.77
462.22	8269.11
462.40	8208.26
462.59	8175.49
462.77	8126.34
462.95	8416.57
463.13	8327.63
463.32	8449.33
463.50	8461.04
463.68	8407.20
463.86	8322.94
464.05	8411.89
464.23	8259.75
464.41	8407.20
464.59	8297.20
464.78	8573.38
464.96	8559.34
465.14	8549.98
465.32	8575.72
465.50	8599.13
465.69	8542.96
465.87	8514.87
466.05	8414.23
466.23	8468.06
466.41	8657.64
466.60	8741.90
466.78	8702.11
466.96	8624.87
467.14	8603.81
467.32	8769.99
467.51	8767.65
467.69	8599.13
467.87	8868.29
468.05	9069.58
468.23	8695.09
468.41	8805.10
468.60	8997.02
468.78	8950.21
468.96	8905.74
469.14	9132.77
469.32	8992.34
469.50	8933.82
469.69	9317.67
469.87	9202.99
470.05	9242.78
470.23	9170.22
470.41	9032.13
470.59	9193.62
470.77	9167.88
470.95	9219.37
471.14	9394.91
471.32	9362.14
471.50	9327.03
471.68	9509.60
471.86	9598.54
472.04	9474.49
472.22	9799.82
472.40	9680.46
472.58	9706.20
472.77	9671.09
472.95	9902.81
473.13	10064.30
473.31	9879.40
473.49	9951.96
473.67	9909.83
473.85	10019.83
474.03	10228.14
474.21	10183.67
474.39	10331.12
474.57	10270.27
474.75	10352.19
474.93	10448.15
475.12	10436.45
475.30	10394.32
475.48	10558.16
475.66	10619.01
475.84	10679.86
476.02	10560.50
476.20	10579.22
476.38	10824.98
476.56	11073.07
476.74	11044.99
476.92	10946.69
477.10	10808.59
477.28	11290.74
477.46	11330.53
477.64	11367.98
477.82	11569.27
478.00	11632.46
478.18	11485.01
478.36	11861.84
478.54	11852.47
478.72	11953.12
478.90	12177.81
479.08	12028.01
479.26	12301.86
479.44	12329.94
479.62	12664.64
479.80	12556.97
479.98	12603.78
480.16	12788.69
480.34	12732.51
480.52	12688.04
480.70	12915.08
480.88	12695.07
481.06	12954.87
481.24	12989.97
481.41	13444.04
481.59	13174.88
481.77	13275.52
481.95	13446.38
482.13	13507.23
482.31	13804.48
482.49	13977.68
482.67	13872.36
482.85	14057.26
483.03	14120.45
483.21	14345.14
483.39	14312.38
483.57	14333.44
483.74	14398.98
483.92	14593.24
484.10	14530.05
484.28	14878.79
484.46	15094.11
484.64	15157.31
484.82	15199.44
485.00	15082.41
485.18	15569.24
485.35	15669.89
485.53	15386.68
485.71	15440.51
485.89	15824.36
486.07	15447.54
486.25	15812.66
486.43	16065.44
486.61	16133.31
486.78	16306.51
486.96	16147.36
487.14	16535.88
487.32	16589.72
487.50	16758.24
487.68	17186.55
487.85	17205.28
488.03	17355.07
488.21	17371.46
488.39	17633.60
488.57	17502.53
488.75	17589.13
488.92	17837.22
489.10	18073.62
489.28	18054.89
489.46	18370.86
489.64	18221.07
489.81	18490.23
489.99	18892.80
490.17	19091.75
490.35	19337.51
490.53	19035.58
490.70	19379.64
490.88	19396.02
491.06	19800.93
491.24	19229.84
491.41	19700.29
491.59	19632.41
491.77	19779.87
491.95	19922.64
492.13	20100.52
492.30	20589.69
492.48	20400.11
492.66	20648.21
492.84	20573.31
493.01	20847.15
493.19	20830.77
493.37	21029.71
493.54	21057.80
493.72	21057.80
493.90	21326.96
494.08	21214.62
494.25	21862.94
494.43	21736.56
494.61	22085.30
494.79	22012.74
494.96	21893.37
495.14	22197.64
495.32	22157.85
495.49	22436.38
495.67	22452.76
495.85	22363.82
496.02	22951.29
496.20	22955.97
496.38	23026.19
496.55	23325.78
496.73	23747.08
496.91	23300.03
497.09	23618.35
497.26	23627.71
497.44	23601.96
497.62	23527.06
497.79	24416.47
497.97	23723.67
498.14	23939.00
498.32	24659.88
498.50	24257.31
498.67	24563.92
498.85	24203.48
499.03	24308.80
499.20	25036.71
499.38	25198.21
499.56	24891.60
499.73	24978.20
499.91	25362.04
500.08	25446.30
500.26	25097.56
500.44	24786.27
500.61	24809.68
500.79	25064.80
500.97	25394.81
501.14	25689.72
501.32	25713.13
501.49	25570.35
501.67	25715.47
501.84	25933.14
502.02	26040.80
502.20	26103.99
502.37	26644.66
502.55	25895.69
502.72	26057.18
502.90	26946.59
503.07	26347.41
503.25	26698.49
503.43	26733.60
503.60	26888.07
503.78	26511.25
503.95	26771.05
504.13	26841.26
504.30	27335.12
504.48	27391.29
504.65	27651.09
504.83	27644.07
505.01	27285.97
505.18	27559.81
505.36	27843.01
505.53	27742.37
505.71	27814.93
505.88	27957.70
506.06	27953.02
506.23	28079.41
506.41	27990.47
506.58	28701.99
506.76	28173.03
506.93	28645.82
507.11	28467.94
507.28	28680.92
507.46	28575.60
507.63	28758.16
507.81	28840.08
507.98	28439.85
508.16	28968.81
508.33	29242.65
508.50	29207.55
508.68	29385.43
508.85	29738.85
509.03	29586.71
509.20	29575.01
509.38	29523.52
509.55	29624.16
509.73	29577.35
509.90	29986.94
510.08	29722.46
510.25	30139.08
510.42	30211.64
510.60	30047.80
510.77	30089.93
510.95	30136.74
511.12	30246.74
511.30	30672.72
511.47	30747.62
511.64	30796.77
511.82	30649.32
511.99	30789.75
512.17	30974.65
512.34	30511.22
512.51	31110.40
512.69	31096.36
512.86	31037.84
513.04	31435.74
513.21	31522.34
513.38	31318.71
513.56	31103.38
513.73	31290.62
513.90	31599.57
514.08	31351.48
514.25	31721.28
514.43	31475.52
514.60	31697.88
514.77	31866.39
514.95	31892.14
515.12	31967.04
515.29	31857.03
515.47	32048.96
515.64	32629.41
515.81	31852.35
515.99	32369.61
516.16	32416.42
516.33	32203.43
516.51	32350.88
516.68	32254.92
516.85	32191.73
517.03	32084.06
517.20	32795.59
517.37	32594.30
517.54	32795.59
517.72	32746.44
517.89	32535.79
518.06	32374.29
518.24	32662.18
518.41	32980.49
518.58	32842.40
518.75	33111.56
518.93	33425.19
519.10	33280.08
519.27	33472.00
519.45	33549.24
519.62	33783.29
519.79	33783.29
519.96	34235.02
520.14	33860.53
520.31	33614.77
520.48	33645.20
520.65	33642.86
520.83	33935.43
521.00	34197.57
521.17	34190.55
521.34	34122.67
521.52	34436.30
521.69	34342.68
521.86	34838.87
522.03	34422.26
522.20	34782.70
522.38	34616.52
522.55	34824.83
522.72	34885.68
522.89	34370.77
523.07	34806.11
523.24	34960.58
523.41	35552.74
523.58	35232.08
523.75	35674.45
523.92	35290.60
524.10	36402.35
524.27	35634.66
524.44	36140.21
524.61	35775.09
524.78	35758.70
524.96	35922.54
525.13	35831.26
525.30	35901.48
525.47	36163.62
525.64	36409.37
525.81	36135.53
525.98	36182.34
526.16	35967.01
526.33	36109.78
526.50	35901.48
526.67	35842.96
526.84	36070.00
527.01	36292.35
527.18	36491.29
527.36	36467.89
527.53	36587.25
527.70	36959.40
527.87	36821.31
528.04	36580.23
528.21	36952.38
528.38	36842.37
528.55	36945.36
528.72	37268.35
528.89	37427.51
529.07	36638.75
529.24	36861.10
529.41	37041.32
529.58	36982.80
529.75	36877.48
529.92	37184.09
530.09	37359.63
530.26	37780.93
530.43	37453.25
530.60	37565.60
530.77	37446.23
530.94	37640.50
531.11	37694.33
531.28	37612.41
531.46	38139.03
531.63	37947.11
531.80	37897.95
531.97	38066.47
532.14	38038.39
532.31	37794.97
532.48	37853.48
532.65	37963.49
532.82	37797.31
532.99	38382.45
533.16	38272.44
533.33	38185.84
533.50	38649.27
533.67	38508.83
533.84	38389.47
534.01	38382.45
534.18	38553.30
534.35	38958.22
534.52	38719.48
534.69	38787.36
534.86	38773.31
535.03	38541.60
535.20	39236.74
535.37	38913.75
535.54	39260.15
535.71	38581.39
535.88	39622.93
536.05	38850.55
536.22	39065.88
536.38	39063.54
536.55	39459.09
536.72	38855.23
536.89	38909.07
537.06	38888.00
537.23	39484.84
537.40	39173.55
537.57	39690.80
537.74	39515.26
537.91	39707.19
538.08	39562.08
538.25	39026.09
538.42	39208.65
538.59	39730.59
538.75	39393.56
538.92	40048.91
539.09	39271.85
539.26	39817.19
539.43	39887.41
539.60	39487.18
539.77	40451.48
539.94	40116.78
540.11	39461.43
540.28	40301.68
540.44	39601.86
540.61	39728.25
540.78	39871.03
540.95	40032.52
541.12	40224.45
541.29	40065.29
541.46	40109.76
541.62	40378.92
541.79	40458.50
541.96	40020.82
542.13	40439.78
542.30	40278.28
542.47	40762.77
542.63	41144.28
542.80	40140.19
542.97	41102.15
543.14	41132.57
543.31	41064.70
543.48	41053.00
543.64	41689.62
543.81	41509.40
543.98	41425.14
544.15	41163.00
544.32	41455.57
544.48	41532.81
544.65	41282.37
544.82	41490.68
544.99	41118.53
545.16	41659.20
545.32	41125.55
545.49	41563.23
545.66	41888.57
545.83	42096.88
546.00	41792.61
546.16	41687.28
546.33	41619.41
546.50	41394.71
546.67	42071.13
546.83	41588.98
547.00	41560.89
547.17	41333.86
547.34	41708.35
547.50	42150.71
547.67	41991.55
547.84	42057.09
548.00	41923.68
548.17	42504.13
548.34	42026.66
548.51	42155.39
548.67	41907.29
548.84	42075.81
549.01	42143.69
549.18	41928.36
549.34	42153.05
549.51	42511.15
549.68	42445.62
549.84	42445.62
550.01	42511.15
550.18	42206.88
550.34	42873.93
550.51	42656.26
550.68	42440.93
550.84	42911.38
551.01	42740.52
551.18	42848.19
551.34	42838.83
551.51	43075.22
551.68	43306.93
551.84	42721.80
552.01	42110.92
552.18	42824.78
552.34	42995.64
552.51	43096.28
552.68	42969.90
552.84	43194.59
553.01	43182.88
553.18	42862.23
553.34	43070.54
553.51	42670.31
553.67	42986.28
553.84	43367.79
554.01	42974.58
554.17	43255.44
554.34	43501.20
554.51	43096.28
554.67	43332.68
554.84	42742.86
555.00	42932.45
555.17	43400.55
555.33	43899.09
555.50	43201.61
555.67	43192.25
555.83	43566.73
556.00	43042.45
556.16	43966.96
556.33	43299.91
556.50	43241.40
556.66	43571.41
556.83	43421.62
556.99	43880.36
557.16	43391.19
557.32	44041.86
557.49	43592.48
557.65	43576.09
557.82	43665.03
557.98	43709.50
558.15	43653.33
558.32	44516.99
558.48	43517.58
558.65	43564.39
558.81	43604.18
558.98	44046.54
559.14	43377.15
559.31	43597.16
559.47	43861.64
559.64	44531.03
559.80	44105.06
559.97	44210.38
560.13	43494.18
560.30	43746.95
560.46	44109.74
560.63	43786.74
560.79	44423.37
560.96	43819.51
561.12	44336.77
561.29	43990.37
561.45	43810.15
561.61	44322.72
561.78	44034.84
561.94	44224.42
562.11	43988.03
562.27	44030.16
562.44	44046.54
562.60	44301.66
562.77	44357.83
562.93	44329.75
563.10	43737.59
563.26	43966.96
563.42	44467.84
563.59	44334.43
563.75	44343.79
563.92	44275.91
564.08	44170.59
564.24	44304.00
564.41	44692.53
564.57	44177.61
564.74	44334.43
564.90	44444.43
565.07	44491.24
565.23	44282.94
565.39	44079.31
565.56	44538.05
565.72	44053.56
565.88	44638.70
566.05	44357.83
566.21	44236.12
566.38	44446.77
566.54	44205.70
566.70	44692.53
566.87	44772.11
567.03	44472.52
567.19	44734.66
567.36	44844.66
567.52	44477.20
567.68	44971.05
567.85	44484.22
568.01	44423.37
568.17	44589.55
568.34	44285.28
568.50	44875.09
568.66	44587.21
568.83	44849.35
568.99	44325.07
569.15	44582.52
569.32	44311.02
569.48	44643.38
569.64	44678.49
569.81	44783.81
569.97	44460.82
570.13	44783.81
570.30	44531.03
570.46	44552.10
570.62	44507.63
570.78	44451.45
570.95	44390.60
571.11	44788.49
571.27	44432.73
571.43	44744.02
571.60	44605.93
571.76	44734.66
571.92	44858.71
572.09	44666.78
572.25	44584.86
572.41	44381.24
572.57	44814.24
572.74	44957.01
572.90	44851.69
573.06	44849.35
573.22	44779.13
573.38	44968.71
573.55	44531.03
573.71	45186.38
573.87	45010.84
574.03	44687.85
574.20	45008.50
574.36	45034.25
574.52	44783.81
574.68	44748.70
574.84	45078.72
575.01	44706.57
575.17	44729.98
575.33	44605.93
575.49	44971.05
575.65	45153.62
575.82	44898.50
575.98	44797.85
576.14	44938.29
576.30	45280.00
576.46	44657.42
576.62	44975.73
576.79	45029.57
576.95	44612.95
577.11	45067.02
577.27	44968.71
577.43	45249.58
577.59	44753.38
577.75	44486.56
577.92	44273.57
578.08	44720.62
578.24	44486.56
578.40	44825.94
578.56	44837.64
578.72	45064.67
578.88	44844.66
579.04	45319.79
579.21	45048.29
579.37	45212.13
579.53	44847.00
579.69	44566.14
579.85	44605.93
580.01	45612.36
580.17	45088.08
580.33	44854.03
580.49	44959.35
580.65	45364.26
580.82	44673.81
580.98	44587.21
581.14	45240.21
581.30	45184.04
581.46	45226.17
581.62	44804.88
581.78	44818.92
581.94	45338.52
582.10	44903.18
582.26	45076.38
582.42	44725.30
582.58	44938.29
582.74	44765.09
582.90	45338.52
583.06	45385.33
583.22	45209.79
583.38	45375.97
583.54	45441.50
583.70	45343.20
583.86	45301.07
584.02	44877.43
584.18	45368.94
584.34	45090.42
584.50	45170.00
584.66	45202.77
584.82	45221.49
584.98	45483.63
585.14	45291.71
585.30	45127.87
585.46	44898.50
585.62	44886.79
585.78	45184.04
585.94	44980.42
586.10	44942.97
586.26	45272.98
586.42	44910.20
586.58	45223.83
586.74	45216.81
586.90	45509.38
587.06	45024.89
587.22	45298.73
587.38	45031.91
587.54	45270.64
587.70	44900.84
587.86	45139.57
588.02	45247.24
588.18	45504.70
588.34	44982.76
588.49	45052.97
588.65	44657.42
588.81	44538.05
588.97	45179.36
589.13	44409.32
589.29	44584.86
589.45	44973.39
589.61	44903.18
589.77	45052.97
589.93	45057.65
590.08	45200.43
590.24	45701.30
