SpectraSuite Data File
++++++++++++++++++++++++++++++++++++
Date: Fri Oct 25 10:43:59 EDT 2013
User: price-jones
Dark Spectrum Present: No
Reference Spectrum Present: No
Number of Sampled Component Spectra: 1
Spectrometers: USB2+H05261
Integration Time (usec): 100000 (USB2+H05261)
Spectra Averaged: 1 (USB2+H05261)
Boxcar Smoothing: 0 (USB2+H05261)
Correct for Electrical Dark: No (USB2+H05261)
Strobe/Lamp Enabled: No (USB2+H05261)
Correct for Detector Non-linearity: No (USB2+H05261)
Correct for Stray Light: No (USB2+H05261)
Number of Pixels in Processed Spectrum: 2048
>>>>>Begin Processed Spectral Data<<<<<
365.73	212.99
365.92	212.99
366.12	212.99
366.32	0.00
366.52	0.00
366.72	46.81
366.91	7.02
367.11	86.60
367.31	0.00
367.51	30.43
367.70	74.90
367.90	4.68
368.10	56.17
368.30	11.70
368.49	0.00
368.69	56.17
368.89	35.11
369.09	51.49
369.28	72.56
369.48	25.75
369.68	126.39
369.87	86.60
370.07	173.20
370.27	67.88
370.47	156.82
370.66	421.30
370.86	440.02
371.06	458.74
371.25	444.70
371.45	397.89
371.65	440.02
371.84	451.72
372.04	454.06
372.24	486.83
372.44	482.15
372.63	491.51
372.83	493.85
373.03	484.49
373.22	503.22
373.42	580.45
373.62	587.47
373.81	554.71
374.01	545.34
374.21	531.30
374.40	493.85
374.60	503.22
374.79	512.58
374.99	638.97
375.19	578.11
375.38	582.79
375.58	624.92
375.78	660.03
375.97	617.90
376.17	643.65
376.37	613.22
376.56	566.41
376.76	566.41
376.95	578.11
377.15	678.76
377.35	615.56
377.54	582.79
377.74	634.29
377.93	617.90
378.13	641.31
378.33	699.82
378.52	674.07
378.72	746.63
378.91	697.48
379.11	671.73
379.31	674.07
379.50	526.62
379.70	676.41
379.89	732.59
380.09	631.94
380.28	688.12
380.48	709.18
380.68	645.99
380.87	692.80
381.07	739.61
381.26	800.46
381.46	720.88
381.65	653.01
381.85	634.29
382.04	718.54
382.24	706.84
382.43	645.99
382.63	645.99
382.83	730.25
383.02	674.07
383.22	753.65
383.41	704.50
383.61	727.91
383.80	837.91
384.00	781.74
384.19	746.63
384.39	805.14
384.58	807.48
384.78	842.59
384.97	851.96
385.17	805.14
385.36	854.30
385.56	922.17
385.75	842.59
385.95	849.61
386.14	737.27
386.34	800.46
386.53	842.59
386.72	868.34
386.92	894.08
387.11	884.72
387.31	849.61
387.50	875.36
387.70	835.57
387.89	912.81
388.09	887.06
388.28	905.79
388.48	964.30
388.67	1025.15
388.86	924.51
389.06	926.85
389.25	947.92
389.45	950.26
389.64	931.53
389.84	976.00
390.03	1020.47
390.22	1001.75
390.42	971.32
390.61	926.85
390.81	1046.22
391.00	936.21
391.19	1071.97
391.39	1111.75
391.58	1027.50
391.78	1029.84
391.97	1081.33
392.16	990.05
392.36	1114.10
392.55	1050.90
392.75	990.05
392.94	961.96
393.13	1022.81
393.33	1001.75
393.52	954.94
393.71	1107.07
393.91	1029.84
394.10	1139.84
394.29	1158.57
394.49	1174.95
394.68	1104.73
394.88	1261.55
395.07	1327.08
395.26	1249.85
395.46	1235.80
395.65	1338.79
395.84	1282.61
396.04	1259.21
396.23	1210.06
396.42	1100.05
396.62	1198.35
396.81	1240.48
397.00	1301.34
397.19	1196.01
397.39	1423.05
397.58	1409.00
397.77	1329.42
397.97	1404.32
398.16	1390.28
398.35	1495.60
398.55	1465.18
398.74	1533.05
398.93	1530.71
399.12	1577.52
399.32	1551.78
399.51	1519.01
399.70	1558.80
399.90	1668.80
400.09	1533.05
400.28	1607.95
400.47	1610.29
400.67	1650.08
400.86	1647.74
401.05	1638.38
401.24	1647.74
401.44	1739.02
401.63	1682.85
401.82	1790.51
402.01	1727.32
402.21	1708.59
402.40	1774.13
402.59	1832.64
402.78	1785.83
402.97	1781.15
403.17	1757.74
403.36	1853.70
403.55	1844.34
403.74	1858.39
403.93	1900.52
404.13	1781.15
404.32	1844.34
404.51	1926.26
404.70	1891.15
404.89	1872.43
405.09	1902.86
405.28	1928.60
405.47	1970.73
405.66	2076.06
405.85	2026.90
406.05	1959.03
406.24	1973.07
406.43	1961.37
406.62	2111.16
406.81	2113.50
407.00	2108.82
407.20	2033.93
407.39	2183.72
407.58	2193.08
407.77	2176.70
407.96	2174.36
408.15	2225.85
408.34	2223.51
408.54	2335.85
408.73	2312.45
408.92	2249.25
409.11	2286.70
409.30	2413.09
409.49	2277.34
409.68	2239.89
409.87	2169.68
410.07	2324.15
410.26	2326.49
410.45	2427.14
410.64	2417.77
410.83	2427.14
411.02	2520.76
411.21	2602.68
411.40	2574.59
411.59	2726.72
411.78	2609.70
411.98	2628.42
412.17	2595.65
412.36	2642.46
412.55	2750.13
412.74	2637.78
412.93	2829.71
413.12	2860.13
413.31	2991.20
413.50	2846.09
413.69	2771.19
413.88	2979.50
414.07	2834.39
414.26	2827.37
414.45	2979.50
414.64	2970.14
414.83	2998.23
415.02	3023.97
415.22	3164.40
415.41	3208.87
415.60	3236.96
415.79	3234.62
415.98	3162.06
416.17	3246.32
416.36	3248.66
416.55	3288.45
416.74	3393.78
416.93	3323.56
417.12	3304.84
417.31	3286.11
417.50	3421.86
417.69	3503.78
417.88	3447.61
418.07	3400.80
418.26	3499.10
418.45	3543.57
418.64	3693.37
418.83	3698.05
419.02	3562.30
419.21	3566.98
419.39	3595.06
419.58	3630.17
419.77	3604.42
419.96	3676.98
420.15	3801.03
420.34	3735.50
420.53	3763.58
420.72	3775.28
420.91	3819.75
421.10	3882.95
421.29	3967.21
421.48	3777.62
421.67	3871.25
421.86	3868.91
422.05	3822.09
422.24	3808.05
422.43	3719.11
422.61	3936.78
422.80	3861.88
422.99	4072.53
423.18	3901.67
423.37	4016.36
423.56	3962.53
423.75	3985.93
423.94	4004.66
424.13	3772.94
424.32	3875.93
424.50	4058.49
424.69	4121.68
424.88	4063.17
425.07	3957.85
425.26	3852.52
425.45	3932.10
425.64	4037.42
425.83	3896.99
426.01	3992.95
426.20	4081.89
426.39	4072.53
426.58	4007.00
426.77	4002.32
426.96	4044.45
427.15	3981.25
427.33	4121.68
427.52	4021.04
427.71	4138.07
427.90	4091.26
428.09	4189.56
428.28	4250.41
428.46	4105.30
428.65	4250.41
428.84	4334.67
429.03	4280.84
429.22	4102.96
429.40	4128.70
429.59	4098.28
429.78	3878.27
429.97	3840.82
430.16	4121.68
430.34	4208.28
430.53	4128.70
430.72	4173.18
430.91	4203.60
431.10	4241.05
431.28	4550.00
431.47	4676.39
431.66	4596.81
431.85	4587.45
432.03	4606.17
432.22	4723.20
432.41	4524.26
432.60	4723.20
432.79	4657.67
432.97	4748.95
433.16	4709.16
433.35	4744.27
433.54	4662.35
433.72	4704.48
433.91	4561.70
434.10	4720.86
434.28	4833.21
434.47	4837.89
434.66	4842.57
434.85	4924.49
435.03	5078.96
435.22	5004.07
435.41	5266.21
435.59	5158.54
435.78	5158.54
435.97	5207.69
436.16	5212.37
436.34	5280.25
436.53	4997.04
436.72	5397.28
436.90	5158.54
437.09	5254.50
437.28	5069.60
437.46	5245.14
437.65	5214.71
437.84	5298.97
438.02	5268.55
438.21	5235.78
438.40	5186.63
438.58	5418.34
438.77	5373.87
438.96	5355.15
439.14	5610.26
439.33	5626.65
439.52	5570.48
439.70	5701.54
439.89	5776.44
440.08	5764.74
440.26	5778.78
440.45	5806.87
440.63	5930.92
440.82	6209.44
441.01	5734.31
441.19	6246.89
441.38	6134.54
441.57	6164.97
441.75	6190.72
441.94	6408.39
442.12	6267.95
442.31	6413.07
442.50	6445.84
442.68	6326.47
442.87	6375.62
443.05	6466.90
443.24	6443.49
443.43	6544.14
443.61	6380.30
443.80	6569.88
443.98	6422.43
444.17	6352.21
444.35	6630.74
444.54	6537.12
444.73	6686.91
444.91	6560.52
445.10	6656.48
445.28	6408.39
445.47	6455.20
445.65	6530.09
445.84	6492.65
446.02	6597.97
446.21	6705.63
446.39	6642.44
446.58	6822.66
446.77	6677.55
446.95	6621.38
447.14	6813.30
447.32	6867.13
447.51	6834.36
447.69	6710.32
447.88	6869.47
448.06	6733.72
448.25	6712.66
448.43	6766.49
448.62	6883.52
448.80	6850.75
448.99	6923.30
449.17	6757.13
449.36	6750.10
449.54	7131.61
449.73	7302.47
449.91	7129.27
450.10	7138.63
450.28	7225.23
450.46	7318.86
450.65	7466.31
450.83	7077.78
451.02	7253.32
451.20	7339.92
451.39	7478.01
451.57	7234.60
451.76	7157.36
451.94	7339.92
452.13	7208.85
452.31	7318.86
452.49	7014.59
452.68	7372.69
452.86	7213.53
453.05	7412.48
453.23	7447.58
453.42	7368.01
453.60	7407.80
453.78	7382.05
453.97	7522.48
454.15	7379.71
454.34	7356.30
454.52	7480.35
454.70	7410.14
454.89	7637.17
455.07	7782.28
455.26	7845.48
455.44	7793.98
455.62	7939.10
455.81	7896.97
455.99	7859.52
456.17	7857.18
456.36	7819.73
456.54	8067.83
456.73	8156.77
456.91	8184.85
457.09	8163.79
457.28	8351.03
457.46	8114.64
457.64	8163.79
457.83	8329.97
458.01	8198.90
458.19	8365.07
458.38	8112.30
458.56	8461.04
458.74	8348.69
458.93	8278.47
459.11	8341.67
459.29	8215.28
459.48	8409.54
459.66	8479.76
459.84	8578.06
460.03	8587.43
460.21	8285.50
460.39	8533.59
460.57	8589.77
460.76	8435.29
460.94	8526.57
461.12	8674.03
461.31	8737.22
461.49	8697.43
461.67	8477.42
461.85	8861.27
462.04	8688.07
462.22	9006.38
462.40	8936.17
462.59	8891.70
462.77	8954.89
462.95	8959.57
463.13	9020.42
463.32	8887.01
463.50	9282.56
463.68	9233.41
463.86	9027.45
464.05	8973.61
464.23	9179.58
464.41	9284.91
464.59	8997.02
464.78	9022.77
464.96	9312.99
465.14	9149.15
465.32	9570.45
465.50	9469.81
465.69	9226.39
465.87	9139.79
466.05	9247.46
466.23	9350.44
466.41	9287.25
466.60	9275.54
466.78	9139.79
466.96	9544.70
467.14	9289.59
467.32	9603.22
467.51	9734.29
467.69	9408.95
467.87	9652.37
468.05	9434.70
468.23	9427.68
468.41	9528.32
468.60	9736.63
468.78	9724.93
468.96	9540.02
469.14	9802.16
469.32	9912.17
469.50	9586.83
469.69	9942.60
469.87	9973.02
470.05	9956.64
470.23	9846.63
470.41	9802.16
470.59	9977.70
470.77	9823.23
470.95	10118.14
471.14	10125.16
471.32	10104.09
471.50	10293.68
471.68	10506.66
471.86	10281.97
472.04	10197.71
472.22	10520.71
472.40	10326.44
472.58	10326.44
472.77	10808.59
472.95	10661.14
473.13	10822.64
473.31	10516.03
473.49	10565.18
473.67	10761.78
473.85	10878.81
474.03	11309.47
474.21	10944.34
474.39	11009.88
474.57	11084.78
474.75	10890.51
474.93	11082.44
475.12	11052.01
475.30	11358.62
475.48	11386.71
475.66	11674.59
475.84	11482.67
476.02	11400.75
476.20	11559.91
476.38	11623.10
476.56	12025.67
476.74	11941.41
476.92	11613.74
477.10	11985.88
477.28	12182.49
477.46	12077.16
477.64	12372.07
477.82	12624.85
478.00	12720.81
478.18	12800.39
478.36	12599.10
478.54	12886.99
478.72	12706.77
478.90	12936.14
479.08	12945.50
479.26	13296.58
479.44	13233.39
479.62	13205.30
479.80	13352.76
479.98	13785.76
480.16	13778.73
480.34	13696.82
480.52	14029.17
480.70	14033.85
480.88	14036.19
481.06	14267.91
481.24	14195.35
481.41	14539.41
481.59	14586.22
481.77	14539.41
481.95	14761.76
482.13	14829.63
482.31	14717.29
482.49	15059.01
482.67	14965.39
482.85	15232.21
483.03	15197.10
483.21	15185.40
483.39	15573.92
483.57	15431.15
483.74	15484.98
483.92	16039.69
484.10	15367.96
484.28	15723.72
484.46	16301.83
484.64	16547.59
484.82	16423.54
485.00	16133.31
485.18	16355.66
485.35	16779.30
485.53	16231.62
485.71	16137.99
485.89	16702.06
486.07	16514.82
486.25	16631.85
486.43	16992.29
486.61	17235.70
486.78	17198.26
486.96	17296.56
487.14	17987.02
487.32	17781.05
487.50	18253.84
487.68	18263.20
487.85	18410.65
488.03	18628.32
488.21	18682.16
488.39	18616.62
488.57	19007.49
488.75	18986.43
488.92	19241.54
489.10	19714.33
489.28	19695.61
489.46	20006.90
489.64	19674.54
489.81	20376.70
489.99	20428.20
490.17	20269.04
490.35	20629.48
490.53	20243.29
490.70	20673.95
490.88	20652.89
491.06	21212.28
491.24	20879.92
491.41	20812.04
491.59	20917.37
491.77	20851.83
491.95	21455.69
492.13	21624.21
492.30	21799.75
492.48	21795.07
492.66	22078.27
492.84	21891.03
493.01	21958.91
493.19	22024.44
493.37	22342.75
493.54	22548.72
493.72	22792.14
493.90	22703.20
494.08	23129.17
494.25	23571.54
494.43	23037.89
494.61	23288.33
494.79	23400.68
494.96	23367.91
495.14	23370.25
495.32	24247.95
495.49	23751.76
495.67	24107.52
495.85	24201.14
496.02	24514.77
496.20	24601.37
496.38	24790.95
496.55	24790.95
496.73	25003.94
496.91	25062.46
497.09	24655.20
497.26	25252.04
497.44	25142.03
497.62	25668.66
497.79	25605.46
497.97	25181.82
498.14	25715.47
498.32	25965.90
498.50	25891.01
498.67	26216.34
498.85	26082.93
499.03	26349.75
499.20	26398.90
499.38	26424.65
499.56	26794.45
499.73	26714.87
499.91	26698.49
500.08	26864.67
500.26	26499.55
500.44	26752.32
500.61	26850.63
500.79	26890.41
500.97	26852.97
501.14	27367.88
501.32	27498.95
501.49	27152.55
501.67	27101.06
501.84	27594.92
502.02	27885.14
502.20	27627.68
502.37	27838.33
502.55	28100.47
502.72	28671.56
502.90	28369.63
503.07	28276.01
503.25	28617.73
503.43	28161.33
503.60	28350.91
503.78	28549.85
503.95	28217.50
504.13	28753.48
504.30	28725.39
504.48	28912.64
504.65	28727.74
504.83	29228.61
505.01	29343.30
505.18	29266.06
505.36	29481.39
505.53	29745.87
505.71	29853.53
505.88	29977.58
506.06	29600.76
506.23	30033.75
506.41	29912.05
506.58	29949.50
506.76	29977.58
506.93	30375.47
507.11	30270.15
507.28	30279.51
507.46	30347.39
507.63	30211.64
507.81	30691.44
507.98	29928.43
508.16	30635.27
508.33	30986.35
508.50	30871.67
508.68	31164.23
508.85	31292.96
509.03	31194.66
509.20	30906.77
509.38	31604.25
509.55	31562.12
509.73	31702.56
509.90	31538.72
510.08	31227.43
510.25	31681.49
510.42	31646.38
510.60	31819.58
510.77	31831.29
510.95	32240.88
511.12	32287.69
511.30	32126.19
511.47	32554.51
511.64	32767.50
511.82	32435.14
511.99	32301.73
512.17	32814.31
512.34	32575.58
512.51	33174.75
512.69	32575.58
512.86	32739.41
513.04	33102.20
513.21	32954.74
513.38	33163.05
513.56	33034.32
513.73	32975.81
513.90	33024.96
514.08	33371.36
514.25	33336.25
514.43	33399.44
514.60	33378.38
514.77	33481.36
514.95	34169.48
515.12	33556.26
515.29	33916.70
515.47	34253.74
515.64	34213.95
515.81	34190.55
515.99	34089.90
516.16	33900.32
516.33	34103.95
516.51	34185.86
516.68	33663.93
516.85	33645.20
517.03	33982.24
517.20	34335.66
517.37	34607.16
517.54	34848.24
517.72	34188.21
517.89	34232.68
518.06	34548.65
518.24	34445.66
518.41	34731.21
518.58	34525.24
518.75	34913.77
518.93	35248.47
519.10	35225.06
519.27	35309.32
519.45	35391.24
519.62	35321.02
519.79	35424.01
519.96	35700.19
520.14	35737.64
520.31	35431.03
520.48	36011.48
520.65	35840.62
520.83	35807.86
521.00	36318.09
521.17	36177.66
521.34	36273.62
521.52	36411.71
521.69	36432.78
521.86	36552.15
522.03	36299.37
522.20	36573.21
522.38	36643.43
522.55	36624.70
522.72	36666.83
522.89	36624.70
523.07	37076.43
523.24	36409.37
523.41	37689.65
523.58	37352.61
523.75	37258.99
523.92	37305.80
524.10	37446.23
524.27	37432.19
524.44	37404.10
524.61	37577.30
524.78	37638.15
524.96	37413.46
525.13	37790.29
525.30	38106.26
525.47	38405.85
525.64	38103.92
525.81	37942.42
525.98	37404.10
526.16	37523.47
526.33	38005.62
526.50	37790.29
526.67	37766.88
526.84	37890.93
527.01	37195.79
527.18	38485.43
527.36	38237.33
527.53	38506.49
527.70	38700.76
527.87	38962.90
528.04	38742.89
528.21	38384.79
528.38	38618.84
528.55	39541.01
528.72	39089.29
528.89	39257.81
529.07	38986.30
529.24	38831.83
529.41	39433.35
529.58	38965.24
529.75	39278.87
529.92	39349.09
530.09	39295.25
530.26	39606.55
530.43	39400.58
530.60	39311.64
530.77	39398.24
530.94	39971.67
531.11	39559.73
531.28	39725.91
531.46	39938.90
531.63	39835.92
531.80	39966.99
531.97	39529.31
532.14	39452.07
532.31	39145.46
532.48	40100.40
532.65	40304.02
532.82	39922.52
532.99	40313.39
533.16	39594.84
533.33	40191.68
533.50	40367.22
533.67	40491.27
533.84	39913.16
534.01	40254.87
534.18	40268.92
534.35	40397.65
534.52	40477.22
534.69	40971.08
534.86	40814.26
535.03	40573.19
535.20	41289.39
535.37	40849.37
535.54	41069.38
535.71	40524.04
535.88	40617.66
536.05	40744.05
536.22	40727.66
536.38	40898.52
536.55	41287.05
536.72	41132.57
536.89	40961.72
537.06	40802.56
537.23	41560.89
537.40	41310.46
537.57	41401.74
537.74	41273.01
537.91	41825.37
538.08	41130.23
538.25	41219.17
538.42	41804.31
538.59	41584.30
538.75	41099.81
538.92	41560.89
539.09	42014.96
539.26	41869.84
539.43	41698.98
539.60	41375.99
539.77	41471.95
539.94	41940.06
540.11	41469.61
540.28	41528.13
540.44	41378.33
540.61	41600.68
540.78	41759.84
540.95	42052.41
541.12	41752.82
541.29	41837.08
541.46	41963.46
541.62	42003.25
541.79	42181.13
541.96	42026.66
542.13	42122.62
542.30	41682.60
542.47	42202.20
542.63	42045.38
542.80	42375.40
542.97	42843.51
543.14	43201.61
543.31	43084.58
543.48	43007.34
543.64	43035.43
543.81	43185.22
543.98	43220.33
544.15	42848.19
544.32	43213.31
544.48	43433.32
544.65	43543.33
544.82	43210.97
544.99	42932.45
545.16	43508.22
545.32	43203.95
545.49	44144.84
545.66	43629.93
545.83	43452.05
546.00	43295.23
546.16	43271.82
546.33	43466.09
546.50	43512.90
546.67	43943.56
546.83	43461.41
547.00	43463.75
547.17	43615.88
547.34	43583.12
547.50	43552.69
547.67	43398.21
547.84	43543.33
548.00	44083.99
548.17	43924.83
548.34	43739.93
548.51	44039.52
548.67	44142.50
548.84	44243.15
549.01	44266.55
549.18	43969.30
549.34	44191.65
549.51	44327.41
549.68	44011.43
549.84	44039.52
550.01	44369.54
550.18	44140.16
550.34	44034.84
550.51	44198.68
550.68	44081.65
550.84	44360.17
551.01	44622.31
551.18	44626.99
551.34	44573.16
551.51	44350.81
551.68	44528.69
551.84	44603.59
552.01	44755.72
552.18	45179.36
552.34	44348.47
552.51	44418.69
552.68	44456.14
552.84	44371.88
553.01	44720.62
553.18	44395.28
553.34	45088.08
553.51	44437.41
553.67	45130.21
553.84	44961.69
554.01	45186.38
554.17	44935.95
554.34	45003.82
554.51	44982.76
554.67	45205.11
554.84	45155.96
555.00	44999.14
555.17	44907.86
555.33	44760.40
555.50	44912.54
555.67	45090.42
555.83	44973.39
556.00	45177.02
556.16	45408.73
556.33	45329.16
556.50	45207.45
556.66	45237.87
556.83	44928.92
556.99	45614.70
557.16	45280.00
557.32	45532.78
557.49	45769.18
557.65	45200.43
557.82	45347.88
557.98	45605.34
558.15	45446.18
558.32	45167.66
558.48	44861.05
558.65	45160.64
558.81	45301.07
558.98	45544.48
559.14	45228.51
559.31	45209.79
559.47	45404.05
559.64	45247.24
559.80	45642.79
559.97	45563.21
560.13	45237.87
560.30	45333.84
560.46	45516.40
560.63	45713.00
560.79	45549.17
560.96	45886.20
561.12	45429.80
561.29	45399.37
561.45	45549.17
561.61	45703.64
561.78	45537.46
561.94	45315.11
562.11	45694.28
562.27	45673.21
562.44	45808.96
562.60	46199.83
562.77	45890.88
562.93	45827.69
563.10	45914.29
563.26	45694.28
563.42	46047.70
563.59	45460.23
563.75	45853.44
563.92	45876.84
564.08	45654.49
564.24	45914.29
564.41	45851.09
564.57	45724.71
564.74	45942.38
564.90	45694.28
565.07	46021.95
565.23	46483.04
565.39	46279.41
565.56	46014.93
565.72	45572.57
565.88	46087.49
566.05	46141.32
566.21	45677.90
566.38	45556.19
566.54	45851.09
566.70	46410.48
566.87	46527.51
567.03	46124.94
567.19	46433.89
567.36	46223.24
567.52	45382.99
567.68	46281.75
567.85	46209.20
568.01	46253.67
568.17	45808.96
568.34	46274.73
568.50	46129.62
568.66	46190.47
568.83	45813.65
568.99	46134.30
569.15	46216.22
569.32	46028.98
569.48	46197.49
569.64	46113.23
569.81	46312.18
569.97	45893.22
570.13	45979.82
570.30	45972.80
570.46	46057.06
570.62	45446.18
570.78	45925.99
570.95	46478.36
571.11	46045.36
571.27	45925.99
571.43	45645.13
571.60	45937.69
571.76	46131.96
571.92	46054.72
572.09	45982.16
572.25	46122.60
572.41	45979.82
572.57	46375.37
572.74	46426.87
572.90	46045.36
573.06	46422.19
573.22	46583.68
573.38	46295.80
573.55	46099.19
573.71	46571.98
573.87	46602.41
574.03	46445.59
574.20	46192.81
574.36	46127.28
574.52	46529.85
574.68	46211.54
574.84	46466.66
575.01	46031.32
575.17	46529.85
575.33	45947.06
575.49	45621.72
575.65	46260.69
575.82	46265.37
575.98	46373.03
576.14	46459.63
576.30	46330.90
576.46	46021.95
576.62	46401.12
576.79	46511.13
576.95	45965.78
577.11	46190.47
577.27	46263.03
577.43	46284.09
577.59	46251.33
577.75	46183.45
577.92	46253.67
578.08	45717.68
578.24	45909.61
578.40	46291.12
578.56	46801.35
578.72	46258.35
578.88	46279.41
579.04	46656.24
579.21	46017.27
579.37	46110.89
579.53	46429.21
579.69	46017.27
579.85	46237.28
580.01	46492.40
580.17	46571.98
580.33	46450.27
580.49	46148.34
580.65	46522.83
580.82	46541.55
580.98	46197.49
581.14	46075.79
581.30	46555.60
581.46	46541.55
581.62	46487.72
581.78	46164.73
581.94	46593.04
582.10	46480.70
582.26	46333.24
582.42	46574.32
582.58	46686.67
582.74	46494.74
582.90	46632.83
583.06	47049.45
583.22	46703.05
583.38	46646.88
583.54	46569.64
583.70	46686.67
583.86	46866.89
584.02	46096.85
584.18	46089.83
584.34	46625.81
584.50	46452.61
584.66	46569.64
584.82	45586.61
584.98	46248.99
585.14	46277.07
585.30	46382.40
585.46	46672.62
585.62	46447.93
585.78	46323.88
585.94	45949.40
586.10	46457.29
586.26	46660.92
586.42	46574.32
586.58	46735.82
586.74	46351.97
586.90	46218.56
587.06	46314.52
587.22	46522.83
587.38	46265.37
587.54	46728.80
587.70	46731.14
587.86	46466.66
588.02	46033.66
588.18	46784.97
588.34	46466.66
588.49	45710.66
588.65	45783.22
588.81	45963.44
588.97	45958.76
589.13	45600.66
589.29	46000.89
589.45	45916.63
589.61	46476.02
589.77	46684.33
589.93	46632.83
590.08	46174.09
