SpectraSuite Data File
++++++++++++++++++++++++++++++++++++
Date: Fri Oct 25 11:25:10 EDT 2013
User: price-jones
Dark Spectrum Present: No
Reference Spectrum Present: No
Number of Sampled Component Spectra: 1
Spectrometers: USB2+H05261
Integration Time (usec): 100000 (USB2+H05261)
Spectra Averaged: 1 (USB2+H05261)
Boxcar Smoothing: 0 (USB2+H05261)
Correct for Electrical Dark: No (USB2+H05261)
Strobe/Lamp Enabled: No (USB2+H05261)
Correct for Detector Non-linearity: No (USB2+H05261)
Correct for Stray Light: No (USB2+H05261)
Number of Pixels in Processed Spectrum: 2048
>>>>>Begin Processed Spectral Data<<<<<
365.73	250.44
365.92	250.44
366.12	250.44
366.32	152.13
366.52	114.69
366.72	212.99
366.91	74.90
367.11	84.26
367.31	177.88
367.51	156.82
367.70	140.43
367.90	124.05
368.10	72.56
368.30	65.54
368.49	114.69
368.69	241.08
368.89	114.69
369.09	67.88
369.28	243.42
369.48	126.39
369.68	196.60
369.87	133.41
370.07	135.75
370.27	217.67
370.47	311.29
370.66	573.43
370.86	624.92
371.06	648.33
371.25	760.67
371.45	561.73
371.65	594.50
371.84	608.54
372.04	699.82
372.24	774.72
372.44	758.33
372.63	662.37
372.83	716.20
373.03	655.35
373.22	784.08
373.42	751.31
373.62	767.70
373.81	798.12
374.01	737.27
374.21	774.72
374.40	767.70
374.60	758.33
374.79	702.16
374.99	851.96
375.19	833.23
375.38	807.48
375.58	755.99
375.78	809.83
375.97	828.55
376.17	873.02
376.37	844.93
376.56	880.04
376.76	884.72
376.95	814.51
377.15	816.85
377.35	912.81
377.54	901.11
377.74	912.81
377.93	884.72
378.13	880.04
378.33	919.83
378.52	926.85
378.72	968.98
378.91	1001.75
379.11	875.36
379.31	931.53
379.50	961.96
379.70	858.98
379.89	968.98
380.09	957.28
380.28	863.66
380.48	957.28
380.68	1013.45
380.87	976.00
381.07	1053.24
381.26	1027.50
381.46	980.68
381.65	1015.79
381.85	1071.97
382.04	1046.22
382.24	1039.20
382.43	1022.81
382.63	1093.03
382.83	1067.28
383.02	1046.22
383.22	1163.25
383.41	1034.52
383.61	1104.73
383.80	1100.05
384.00	1074.31
384.19	1163.25
384.39	1149.20
384.58	1158.57
384.78	1151.54
384.97	1144.52
385.17	1188.99
385.36	1217.08
385.56	1137.50
385.75	1198.35
385.95	1221.76
386.14	1214.74
386.34	1107.07
386.53	1203.04
386.72	1235.80
386.92	1313.04
387.11	1174.95
387.31	1252.19
387.50	1207.72
387.70	1203.04
387.89	1170.27
388.09	1296.66
388.28	1235.80
388.48	1256.87
388.67	1315.38
388.86	1301.34
389.06	1315.38
389.25	1409.00
389.45	1357.51
389.64	1263.89
389.84	1465.18
390.03	1364.53
390.22	1348.15
390.42	1362.19
390.61	1434.75
390.81	1420.71
391.00	1404.32
391.19	1488.58
391.39	1467.52
391.58	1441.77
391.78	1348.15
391.97	1425.39
392.16	1420.71
392.36	1444.11
392.55	1528.37
392.75	1591.56
392.94	1530.71
393.13	1460.49
393.33	1514.33
393.52	1544.75
393.71	1568.16
393.91	1657.10
394.10	1682.85
394.29	1507.30
394.49	1591.56
394.68	1617.31
394.88	1621.99
395.07	1701.57
395.26	1664.12
395.46	1724.97
395.65	1755.40
395.84	1638.38
396.04	1767.10
396.23	1724.97
396.42	1717.95
396.62	1722.63
396.81	1774.13
397.00	1741.36
397.19	1837.32
397.39	1820.94
397.58	1764.76
397.77	1783.49
397.97	1919.24
398.16	1802.21
398.35	1961.37
398.55	1816.26
398.74	1909.88
398.93	1877.11
399.12	1839.66
399.32	1944.99
399.51	1858.39
399.70	2047.97
399.90	1959.03
400.09	2045.63
400.28	2029.24
400.47	2094.78
400.67	2038.61
400.86	1961.37
401.05	2188.40
401.24	2087.76
401.44	2207.13
401.63	2202.44
401.82	2139.25
402.01	2129.89
402.21	2071.37
402.40	2244.57
402.59	2162.66
402.78	2120.53
402.97	2129.89
403.17	2256.28
403.36	2265.64
403.55	2246.91
403.74	2385.01
403.93	2335.85
404.13	2342.88
404.32	2373.30
404.51	2361.60
404.70	2324.15
404.89	2377.98
405.09	2417.77
405.28	2436.50
405.47	2429.48
405.66	2492.67
405.85	2492.67
406.05	2471.61
406.24	2387.35
406.43	2431.82
406.62	2630.76
406.81	2661.19
407.00	2469.27
407.20	2637.78
407.39	2605.02
407.58	2703.32
407.77	2710.34
407.96	2778.22
408.15	2616.72
408.34	2761.83
408.54	2766.51
408.73	2785.24
408.92	2726.72
409.11	2935.03
409.30	2890.56
409.49	2853.11
409.68	2750.13
409.87	2780.56
410.07	2860.13
410.26	2850.77
410.45	3131.64
410.64	2930.35
410.83	3045.04
411.02	3091.85
411.21	3229.94
411.40	3166.74
411.59	3187.81
411.78	3166.74
411.98	3222.92
412.17	3157.38
412.36	3276.75
412.55	3251.00
412.74	3316.54
412.93	3351.65
413.12	3229.94
413.31	3503.78
413.50	3421.86
413.69	3541.23
413.88	3543.57
414.07	3669.96
414.26	3644.21
414.45	3578.68
414.64	3716.77
414.83	3672.30
415.02	3618.47
415.22	3805.71
415.41	3765.92
415.60	3831.46
415.79	3967.21
415.98	3969.55
416.17	3957.85
416.36	3999.98
416.55	3943.80
416.74	3915.72
416.93	4063.17
417.12	4067.85
417.31	4077.21
417.50	4007.00
417.69	4203.60
417.88	4067.85
418.07	4271.48
418.26	4187.22
418.45	4386.16
418.64	4393.19
418.83	4372.12
419.02	4229.35
419.21	4587.45
419.39	4589.79
419.58	4440.00
419.77	4414.25
419.96	4503.19
420.15	4634.26
420.34	4493.83
420.53	4491.49
420.72	4610.86
420.91	4545.32
421.10	4699.80
421.29	4636.60
421.48	4627.24
421.67	4777.03
421.86	4798.10
422.05	4725.54
422.24	4762.99
422.43	4737.24
422.61	4847.25
422.80	4959.60
422.99	4758.31
423.18	4896.40
423.37	4957.25
423.56	4961.94
423.75	4971.30
423.94	4880.02
424.13	4622.56
424.32	4746.61
424.50	4980.66
424.69	5013.43
424.88	4983.00
425.07	4830.87
425.26	4849.59
425.45	4847.25
425.64	4793.42
425.83	4929.17
426.01	4842.57
426.20	4983.00
426.39	5130.45
426.58	5001.72
426.77	4926.83
426.96	5018.11
427.15	5069.60
427.33	5165.56
427.52	5228.76
427.71	5266.21
427.90	5322.38
428.09	5231.10
428.28	5308.34
428.46	5240.46
428.65	5268.55
428.84	5535.37
429.03	5401.96
429.22	5298.97
429.40	5437.06
429.59	5504.94
429.78	5294.29
429.97	5207.69
430.16	5413.66
430.34	5521.32
430.53	5675.80
430.72	5544.73
430.91	5444.09
431.10	5516.64
431.28	5687.50
431.47	5650.05
431.66	5841.98
431.85	5781.12
432.03	6019.86
432.22	5893.47
432.41	5900.49
432.60	5865.38
432.79	5863.04
432.97	5961.34
433.16	6069.01
433.35	5863.04
433.54	6036.24
433.72	6085.39
433.91	6010.50
434.10	6031.56
434.28	6066.67
434.47	6200.08
434.66	6085.39
434.85	6235.19
435.03	6237.53
435.22	6272.64
435.41	6342.85
435.59	6256.25
435.78	6303.06
435.97	6361.58
436.16	6263.27
436.34	6406.05
436.53	6380.30
436.72	6576.91
436.90	6415.41
437.09	6431.79
437.28	6429.45
437.46	6422.43
437.65	6581.59
437.84	6626.06
438.02	6633.08
438.21	6839.05
438.40	6670.53
438.58	6993.52
438.77	6974.80
438.96	6904.58
439.14	7033.31
439.33	7140.97
439.52	7136.29
439.70	7110.55
439.89	7152.68
440.08	7314.17
440.26	7403.11
440.45	7234.60
440.63	7463.97
440.82	7274.38
441.01	7609.08
441.19	7520.14
441.38	7583.34
441.57	7620.78
441.75	7627.81
441.94	7889.95
442.12	7665.25
442.31	8093.57
442.50	7843.14
442.68	7974.21
442.87	7985.91
443.05	8074.85
443.24	8021.02
443.43	8013.99
443.61	8105.28
443.80	8496.14
443.98	8112.30
444.17	7838.45
444.35	8159.11
444.54	8243.37
444.73	8292.52
444.91	8456.36
445.10	8510.19
445.28	8114.64
445.47	8112.30
445.65	8280.82
445.84	8299.54
446.02	8224.64
446.21	8360.39
446.39	8238.69
446.58	8425.93
446.77	8428.27
446.95	8238.69
447.14	8308.90
447.32	8528.91
447.51	8538.27
447.69	8549.98
447.88	8554.66
448.06	8409.54
448.25	8496.14
448.43	8566.36
448.62	8533.59
448.80	8566.36
448.99	8648.28
449.17	8631.90
449.36	8709.13
449.54	8753.60
449.73	9069.58
449.91	8936.17
450.10	9015.74
450.28	8903.40
450.46	9167.88
450.65	9121.07
450.83	9039.15
451.02	8774.67
451.20	9174.90
451.39	9020.42
451.57	9202.99
451.76	8990.00
451.94	8973.61
452.13	9308.31
452.31	9268.52
452.49	9116.39
452.68	9483.85
452.86	9256.82
453.05	9404.27
453.23	9277.88
453.42	9252.14
453.60	9226.39
453.78	9345.76
453.97	9226.39
454.15	9439.38
454.34	9472.15
454.52	9811.53
454.70	9437.04
454.89	9699.18
455.07	9764.72
455.26	9633.64
455.44	9858.34
455.62	9664.07
455.81	9745.99
455.99	9825.57
456.17	10068.98
456.36	10019.83
456.54	10122.82
456.73	10026.86
456.91	10314.74
457.09	10242.18
457.28	10363.89
457.46	10408.36
457.64	10438.79
457.83	10476.24
458.01	10260.91
458.19	10656.46
458.38	10300.70
458.56	10448.15
458.74	10640.08
458.93	10611.99
459.11	10801.57
459.29	10499.64
459.48	10696.25
459.66	10553.48
459.84	10817.96
460.03	10846.04
460.21	10813.28
460.39	10726.68
460.57	10768.80
460.76	10988.82
460.94	11126.91
461.12	11108.18
461.31	11035.63
461.49	10991.16
461.67	10998.18
461.85	11524.80
462.04	11255.64
462.22	11728.42
462.40	11438.20
462.59	11438.20
462.77	11393.73
462.95	11466.28
463.13	11590.33
463.32	11538.84
463.50	11705.02
463.68	11756.51
463.86	11716.72
464.05	11356.28
464.23	11550.54
464.41	11705.02
464.59	11726.08
464.78	11840.77
464.96	11964.82
465.14	11833.75
465.32	11768.21
465.50	11815.02
465.69	12147.38
465.87	12100.57
466.05	11880.56
466.23	11999.93
466.41	12138.02
466.60	12266.75
466.78	12018.65
466.96	12152.06
467.14	12123.98
467.32	12241.00
467.51	12437.61
467.69	12030.35
467.87	12634.21
468.05	12231.64
468.23	12128.66
468.41	12400.16
468.60	12446.97
468.78	12648.26
468.96	12613.15
469.14	12556.97
469.32	12807.41
469.50	12671.66
469.69	12959.55
469.87	12919.76
470.05	13034.44
470.23	13085.94
470.41	13064.87
470.59	13046.15
470.77	12882.31
470.95	13322.33
471.14	13544.68
471.32	13305.95
471.50	13565.74
471.68	13483.83
471.86	13680.43
472.04	13575.11
472.22	13933.21
472.40	13514.25
472.58	13729.58
472.77	13958.96
472.95	13905.12
473.13	14497.28
473.31	13968.32
473.49	13991.72
473.67	13914.48
473.85	13867.67
474.03	14415.36
474.21	14277.27
474.39	14534.73
474.57	14555.79
474.75	14588.56
474.93	14684.52
475.12	14773.46
475.30	15115.18
475.48	15147.95
475.66	14867.08
475.84	14862.40
476.02	15044.96
476.20	15044.96
476.38	15309.44
476.56	15756.49
476.74	15847.77
476.92	15756.49
477.10	15524.77
477.28	15878.19
477.46	15988.20
477.64	16212.89
477.82	16414.18
478.00	16929.09
478.18	16617.80
478.36	16842.50
478.54	16776.96
478.72	17273.15
478.90	17214.64
479.08	17238.05
479.26	17631.26
479.44	17535.29
479.62	17666.36
479.80	18143.83
479.98	17975.31
480.16	18464.49
480.34	18382.57
480.52	18349.80
480.70	18412.99
480.88	18146.17
481.06	18768.76
481.24	18682.16
481.41	18817.91
481.59	18974.72
481.77	19037.92
481.95	19461.55
482.13	19723.69
482.31	19124.52
482.49	20027.96
482.67	20109.88
482.85	20065.41
483.03	20566.29
483.21	20470.33
483.39	20561.61
483.57	20603.74
483.74	21099.93
483.92	21092.91
484.10	20783.96
484.28	21521.23
484.46	21935.50
484.64	22309.99
484.82	21722.51
485.00	21996.35
485.18	22551.06
485.35	22740.64
485.53	22742.99
485.71	23054.28
485.89	23309.40
486.07	23384.29
486.25	22874.06
486.43	23178.33
486.61	23573.88
486.78	23896.87
486.96	23976.45
487.14	24545.20
487.32	24306.46
487.50	24531.15
487.68	24353.27
487.85	24776.91
488.03	24961.81
488.21	25647.59
488.39	25472.05
488.57	25881.64
488.75	25797.38
488.92	26485.50
489.10	26548.70
489.28	26630.62
489.46	26965.31
489.64	26918.50
489.81	27728.33
489.99	27505.98
490.17	27513.00
490.35	28137.92
490.53	27960.04
490.70	27978.76
490.88	27943.66
491.06	29034.35
491.24	28341.55
491.41	28973.49
491.59	28872.85
491.77	29053.07
491.95	29202.86
492.13	29722.46
492.30	29762.25
492.48	29935.45
492.66	29589.05
492.84	29919.07
493.01	30553.35
493.19	30433.99
493.37	30714.85
493.54	30969.97
493.72	30991.03
493.90	31220.41
494.08	31199.34
494.25	31840.65
494.43	31857.03
494.61	31924.91
494.79	32297.05
494.96	31929.59
495.14	32699.62
495.32	32774.52
495.49	32786.22
495.67	32692.60
495.85	32650.47
496.02	33624.14
496.20	33699.03
496.38	33883.94
496.55	33752.87
496.73	34600.14
496.91	33895.64
497.09	34789.72
497.26	34866.96
497.44	34405.88
497.62	35138.46
497.79	35442.73
497.97	35302.30
498.14	35742.32
498.32	35573.80
498.50	35859.35
498.67	36400.01
498.85	36528.74
499.03	36634.06
499.20	36231.49
499.38	36411.71
499.56	36755.77
499.73	36570.87
499.91	37120.90
500.08	37296.44
500.26	37214.52
500.44	37331.54
500.61	37188.77
500.79	37610.07
500.97	38022.00
501.14	38181.16
501.32	38216.27
501.49	38124.99
501.67	38389.47
501.84	38342.66
502.02	38490.11
502.20	38567.35
502.37	39091.63
502.55	38836.51
502.72	39278.87
502.90	39180.57
503.07	38880.98
503.25	39503.56
503.43	39438.03
503.60	39681.44
503.78	40121.46
503.95	39522.29
504.13	40247.85
504.30	40451.48
504.48	40119.12
504.65	40018.48
504.83	40437.44
505.01	40732.34
505.18	40964.06
505.36	41289.39
505.53	40945.33
505.71	41198.11
505.88	41251.94
506.06	41170.02
506.23	41488.34
506.41	41317.48
506.58	41717.71
506.76	41923.68
506.93	41944.74
507.11	41869.84
507.28	42501.79
507.46	42122.62
507.63	42337.95
507.81	43115.01
507.98	42583.71
508.16	43164.16
508.33	42618.81
508.50	43124.37
508.68	43267.14
508.85	43618.22
509.03	43356.08
509.20	43555.03
509.38	43744.61
509.55	44069.95
509.73	43878.02
509.90	44399.96
510.08	44722.96
510.25	43976.33
510.42	44402.30
510.60	44788.49
510.77	44699.55
510.95	45254.26
511.12	44699.55
511.30	44722.96
511.47	45132.55
511.64	44907.86
511.82	45240.21
511.99	45357.24
512.17	45979.82
512.34	45034.25
512.51	46033.66
512.69	46199.83
512.86	46148.34
513.04	46153.02
513.21	46073.45
513.38	46541.55
513.56	46557.94
513.73	46658.58
513.90	47049.45
514.08	46735.82
514.25	47049.45
514.43	47185.20
514.60	47152.43
514.77	47093.92
514.95	47334.99
515.12	47353.72
515.29	47405.21
515.47	47583.09
515.64	47545.64
515.81	47590.11
515.99	47709.48
516.16	48212.70
516.33	48196.31
516.51	47906.08
516.68	48189.29
516.85	48147.16
517.03	48601.22
517.20	48779.10
517.37	48547.39
517.54	48355.47
517.72	48669.10
517.89	48690.16
518.06	48755.70
518.24	48999.12
518.41	49116.14
518.58	49141.89
518.75	49284.66
518.93	49050.61
519.10	49092.74
519.27	49432.11
519.45	49521.05
519.62	49558.50
519.79	49712.98
519.96	49792.56
520.14	49703.62
520.31	49893.20
520.48	50101.51
520.65	50134.28
520.83	50127.25
521.00	50255.98
521.17	50134.28
521.34	50153.00
521.52	50384.71
521.69	50239.60
521.86	50670.26
522.03	50754.52
522.20	50981.55
522.38	51133.68
522.55	50890.27
522.72	51089.21
522.89	50726.43
523.07	51384.12
523.24	51246.03
523.41	51363.06
523.58	51133.68
523.75	51613.49
523.92	51323.27
524.10	51697.75
524.27	51875.63
524.44	51863.93
524.61	51606.47
524.78	52027.77
524.96	51889.68
525.13	52154.16
525.30	52339.06
525.47	52065.22
525.64	52067.56
525.81	52280.55
525.98	52507.58
526.16	52186.92
526.33	52126.07
526.50	52645.67
526.67	52397.57
526.84	52680.78
527.01	52645.67
527.18	52481.83
527.36	52577.79
527.53	52877.38
527.70	52966.32
527.87	52835.25
528.04	52952.28
528.21	53104.41
528.38	53219.10
528.55	53432.09
528.72	53183.99
528.89	52856.32
529.07	52893.77
529.24	52905.47
529.41	53343.15
529.58	53343.15
529.75	53254.21
529.92	53703.59
530.09	53499.97
530.26	53565.50
530.43	53705.93
530.60	53411.02
530.77	53628.69
530.94	54019.56
531.11	53752.74
531.28	53846.36
531.46	54003.18
531.63	53979.78
531.80	53694.23
531.97	54192.76
532.14	54038.29
532.31	54136.59
532.48	54365.96
532.65	54415.11
532.82	54157.66
532.99	54454.90
533.16	54281.70
533.33	54944.08
533.50	54658.53
533.67	54602.36
533.84	54440.86
534.01	54979.18
534.18	54651.51
534.35	55082.17
534.52	54733.43
534.69	54803.64
534.86	55152.38
535.03	54508.74
535.20	54831.73
535.37	55047.06
535.54	55065.78
535.71	55049.40
535.88	55341.97
536.05	55339.63
536.22	55262.39
536.38	55405.16
536.55	55646.24
536.72	55398.14
536.89	55409.84
537.06	55302.18
537.23	55344.31
537.40	55220.26
537.57	55379.42
537.74	55594.74
537.91	55856.88
538.08	55835.82
538.25	55440.27
538.42	55697.73
538.59	56013.70
538.75	55545.59
538.92	55849.86
539.09	56126.05
539.26	55957.53
539.43	55866.25
539.60	56224.35
539.77	55950.51
539.94	56128.39
540.11	56189.24
540.28	56144.77
540.44	56210.31
540.61	56397.55
540.78	55955.19
540.95	56156.47
541.12	56149.45
541.29	56032.42
541.46	56449.04
541.62	56376.48
541.79	56271.16
541.96	56371.80
542.13	56282.86
542.30	56350.74
542.47	56563.73
542.63	56671.39
542.80	56612.88
542.97	56910.13
543.14	57237.80
543.31	56928.85
543.48	56879.70
543.64	57399.30
543.81	57183.97
543.98	57198.01
544.15	57102.05
544.32	57202.69
544.48	57212.06
544.65	57162.90
544.82	57256.53
544.99	57146.52
545.16	57116.09
545.32	57251.84
545.49	57574.84
545.66	57556.11
545.83	57340.78
546.00	57553.77
546.16	57279.93
546.33	57425.04
546.50	56978.00
546.67	57457.81
546.83	57216.74
547.00	57574.84
547.17	57453.13
547.34	57542.07
547.50	57705.91
547.67	57640.37
547.84	57769.10
548.00	57886.13
548.17	57970.39
548.34	57961.03
548.51	57839.32
548.67	58127.20
548.84	57872.09
549.01	57930.60
549.18	57993.79
549.34	58122.52
549.51	57687.18
549.68	58223.17
549.84	58195.08
550.01	58232.53
550.18	58181.04
550.34	58234.87
550.51	58157.63
550.68	58141.25
550.84	58234.87
551.01	58258.27
551.18	58080.39
551.34	58286.36
551.51	58403.39
551.68	58344.87
551.84	58408.07
552.01	58394.03
552.18	58464.24
552.34	58464.24
552.51	58298.06
552.68	58286.36
552.84	58569.57
553.01	58754.47
553.18	58541.48
553.34	58691.27
553.51	58721.70
553.67	58560.20
553.84	58763.83
554.01	58852.77
554.17	58841.07
554.34	58686.59
554.51	58724.04
554.67	58761.49
554.84	58887.88
555.00	58852.77
555.17	58812.98
555.33	58672.55
555.50	58759.15
555.67	58787.24
555.83	58836.39
556.00	58782.55
556.16	59185.13
556.33	59054.06
556.50	58939.37
556.66	59243.64
556.83	59068.10
556.99	59487.06
557.16	59470.67
557.32	59465.99
557.49	59330.24
557.65	59171.08
557.82	59168.74
557.98	59229.60
558.15	59199.17
558.32	59227.26
558.48	59166.40
558.65	59295.13
558.81	59278.75
558.98	59749.20
559.14	59346.62
559.31	59409.82
559.47	59573.66
559.64	59323.22
559.80	59554.93
559.97	59320.88
560.13	59330.24
560.30	59456.63
560.46	59473.01
560.63	59686.00
560.79	59707.07
560.96	59749.20
561.12	59622.81
561.29	59716.43
561.45	59746.86
561.61	59653.23
561.78	59608.76
561.94	59395.77
562.11	59657.91
562.27	59697.70
562.44	59697.70
562.60	59732.81
562.77	59910.69
562.93	59730.47
563.10	59936.44
563.26	59681.32
563.42	60013.68
563.59	59868.56
563.75	59737.49
563.92	59983.25
564.08	59817.07
564.24	59994.95
564.41	60119.00
564.57	60023.04
564.74	59964.52
564.90	59915.37
565.07	59751.54
565.23	59913.03
565.39	60004.31
565.56	60034.74
565.72	59957.50
565.88	59910.69
566.05	59800.69
566.21	60023.04
566.38	59861.54
566.54	60046.44
566.70	60189.22
566.87	60364.76
567.03	60079.21
567.19	60177.51
567.36	59852.18
567.52	60224.32
567.68	60238.37
567.85	60210.28
568.01	60388.16
568.17	60182.19
568.34	60177.51
568.50	60055.81
568.66	59971.55
568.83	60184.54
568.99	60182.19
569.15	60168.15
569.32	60388.16
569.48	60020.70
569.64	60231.35
569.81	60247.73
569.97	60058.15
570.13	60427.95
570.30	60226.66
570.46	60336.67
570.62	60381.14
570.78	60266.45
570.95	60299.22
571.11	60392.84
571.27	60444.33
571.43	60252.41
571.60	60254.75
571.76	60484.12
571.92	60427.95
572.09	60488.80
572.25	60439.65
572.41	60280.50
572.57	60498.17
572.74	60500.51
572.90	60367.10
573.06	60591.79
573.22	60343.69
573.38	60453.70
573.55	60596.47
573.71	60573.06
573.87	60519.23
574.03	60535.62
574.20	60355.39
574.36	60549.66
574.52	60540.30
574.68	60622.22
574.84	60488.80
575.01	60402.21
575.17	60502.85
575.33	60320.29
575.49	60406.89
575.65	60610.51
575.82	60654.98
575.98	60575.40
576.14	60589.45
576.30	60690.09
576.46	60594.13
576.62	60502.85
576.79	60519.23
576.95	60542.64
577.11	60514.55
577.27	60729.88
577.43	60631.58
577.59	60502.85
577.75	60374.12
577.92	60324.97
578.08	60568.38
578.24	60654.98
578.40	60797.76
578.56	60715.84
578.72	60587.11
578.88	60718.18
579.04	60828.18
579.21	60603.49
579.37	60837.54
579.53	60767.33
579.69	60498.17
579.85	60629.24
580.01	60512.21
580.17	60456.04
580.33	60732.22
580.49	60757.97
580.65	60610.51
580.82	60669.03
580.98	60603.49
581.14	60533.28
581.30	60743.92
581.46	60535.62
581.62	60694.77
581.78	60828.18
581.94	60882.02
582.10	60774.35
582.26	60835.20
582.42	60652.64
582.58	60732.22
582.74	60650.30
582.90	60753.29
583.06	60727.54
583.22	60554.34
583.38	60889.04
583.54	60917.12
583.70	60743.92
583.86	60999.04
584.02	60779.03
584.18	60713.50
584.34	60828.18
584.50	60809.46
584.66	60631.58
584.82	60554.34
584.98	60846.91
585.14	60825.84
585.30	60692.43
585.46	60828.18
585.62	60938.19
585.78	61024.79
585.94	60797.76
586.10	60757.97
586.26	60977.98
586.42	61043.51
586.58	61052.87
586.74	60842.23
586.90	60772.01
587.06	60615.19
587.22	61059.90
587.38	60748.60
587.54	60968.61
587.70	61041.17
587.86	60776.69
588.02	60954.57
588.18	60961.59
588.34	60856.27
588.49	60804.78
