SpectraSuite Data File
++++++++++++++++++++++++++++++++++++
Date: Fri Oct 25 11:33:57 EDT 2013
User: price-jones
Dark Spectrum Present: No
Reference Spectrum Present: No
Number of Sampled Component Spectra: 1
Spectrometers: USB2+H05261
Integration Time (usec): 100000 (USB2+H05261)
Spectra Averaged: 1 (USB2+H05261)
Boxcar Smoothing: 0 (USB2+H05261)
Correct for Electrical Dark: No (USB2+H05261)
Strobe/Lamp Enabled: No (USB2+H05261)
Correct for Detector Non-linearity: No (USB2+H05261)
Correct for Stray Light: No (USB2+H05261)
Number of Pixels in Processed Spectrum: 2048
>>>>>Begin Processed Spectral Data<<<<<
365.73	285.55
365.92	285.55
366.12	285.55
366.32	180.22
366.52	131.07
366.72	161.50
366.91	154.48
367.11	198.95
367.31	187.24
367.51	117.03
367.70	168.52
367.90	205.97
368.10	191.92
368.30	208.31
368.49	182.56
368.69	212.99
368.89	238.73
369.09	175.54
369.28	250.44
369.48	217.67
369.68	264.48
369.87	203.63
370.07	166.18
370.27	304.27
370.47	395.55
370.66	437.68
370.86	500.87
371.06	543.00
371.25	594.50
371.45	470.45
371.65	557.05
371.84	554.71
372.04	526.62
372.24	531.30
372.44	706.84
372.63	540.66
372.83	585.13
373.03	657.69
373.22	603.86
373.42	606.20
373.62	636.63
373.81	613.22
374.01	592.16
374.21	599.18
374.40	622.58
374.60	655.35
374.79	645.99
374.99	629.60
375.19	720.88
375.38	648.33
375.58	690.46
375.78	664.71
375.97	697.48
376.17	648.33
376.37	674.07
376.56	760.67
376.76	711.52
376.95	683.44
377.15	812.17
377.35	716.20
377.54	664.71
377.74	739.61
377.93	669.39
378.13	704.50
378.33	704.50
378.52	692.80
378.72	788.76
378.91	755.99
379.11	723.23
379.31	669.39
379.50	723.23
379.70	706.84
379.89	702.16
380.09	660.03
380.28	685.78
380.48	734.93
380.68	777.06
380.87	732.59
381.07	716.20
381.26	760.67
381.46	791.10
381.65	755.99
381.85	753.65
382.04	709.18
382.24	802.80
382.43	732.59
382.63	697.48
382.83	709.18
383.02	802.80
383.22	809.83
383.41	767.70
383.61	877.70
383.80	784.08
384.00	819.19
384.19	823.87
384.39	814.51
384.58	840.25
384.78	798.12
384.97	816.85
385.17	777.06
385.36	840.25
385.56	828.55
385.75	744.29
385.95	873.02
386.14	887.06
386.34	847.27
386.53	823.87
386.72	863.66
386.92	917.49
387.11	800.46
387.31	980.68
387.50	922.17
387.70	901.11
387.89	905.79
388.09	926.85
388.28	973.66
388.48	873.02
388.67	952.60
388.86	922.17
389.06	889.40
389.25	919.83
389.45	917.49
389.64	952.60
389.84	994.73
390.03	1008.77
390.22	983.02
390.42	931.53
390.61	968.98
390.81	1004.09
391.00	973.66
391.19	1022.81
391.39	1006.43
391.58	1001.75
391.78	978.34
391.97	994.73
392.16	985.37
392.36	1053.24
392.55	1006.43
392.75	1076.65
392.94	1036.86
393.13	1109.41
393.33	1064.94
393.52	1107.07
393.71	1071.97
393.91	1118.78
394.10	1088.35
394.29	1043.88
394.49	1156.22
394.68	1160.91
394.88	1041.54
395.07	1121.12
395.26	1200.69
395.46	1076.65
395.65	1203.04
395.84	1088.35
396.04	1212.40
396.23	1121.12
396.42	1172.61
396.62	1252.19
396.81	1221.76
397.00	1186.65
397.19	1224.10
397.39	1275.59
397.58	1313.04
397.77	1245.16
397.97	1254.53
398.16	1291.98
398.35	1231.12
398.55	1256.87
398.74	1261.55
398.93	1385.60
399.12	1273.25
399.32	1348.15
399.51	1369.21
399.70	1362.19
399.90	1390.28
400.09	1366.87
400.28	1406.66
400.47	1362.19
400.67	1409.00
400.86	1378.58
401.05	1401.98
401.24	1418.36
401.44	1476.88
401.63	1331.76
401.82	1406.66
402.01	1392.62
402.21	1420.71
402.40	1460.49
402.59	1462.83
402.78	1462.83
402.97	1537.73
403.17	1455.81
403.36	1617.31
403.55	1586.88
403.74	1561.14
403.93	1589.22
404.13	1598.59
404.32	1603.27
404.51	1526.03
404.70	1621.99
404.89	1657.10
405.09	1664.12
405.28	1600.93
405.47	1675.82
405.66	1739.02
405.85	1654.76
406.05	1767.10
406.24	1746.04
406.43	1893.49
406.62	1750.72
406.81	1720.29
407.00	1713.27
407.20	1741.36
407.39	1785.83
407.58	1863.07
407.77	1813.92
407.96	1926.26
408.15	1867.75
408.34	1926.26
408.54	1881.79
408.73	1921.58
408.92	1907.54
409.11	1902.86
409.30	1858.39
409.49	2008.18
409.68	1977.75
409.87	1856.04
410.07	2022.22
410.26	2017.54
410.45	2106.48
410.64	2066.69
410.83	2057.33
411.02	2150.95
411.21	2176.70
411.40	2118.18
411.59	2193.08
411.78	2193.08
411.98	2160.31
412.17	2258.62
412.36	2279.68
412.55	2340.54
412.74	2277.34
412.93	2319.47
413.12	2354.58
413.31	2523.10
413.50	2410.75
413.69	2504.37
413.88	2469.27
414.07	2417.77
414.26	2464.58
414.45	2413.09
414.64	2476.29
414.83	2572.25
415.02	2499.69
415.22	2637.78
415.41	2696.30
415.60	2633.10
415.79	2698.64
415.98	2626.08
416.17	2710.34
416.36	2719.70
416.55	2691.62
416.74	2677.57
416.93	2848.43
417.12	2822.69
417.31	2782.90
417.50	2928.01
417.69	2939.71
417.88	2944.39
418.07	2925.67
418.26	2869.50
418.45	2902.26
418.64	2995.89
418.83	2944.39
419.02	2939.71
419.21	3068.44
419.39	3026.31
419.58	3059.08
419.77	3059.08
419.96	3042.70
420.15	3194.83
420.34	3143.34
420.53	3103.55
420.72	3272.07
420.91	3166.74
421.10	3279.09
421.29	3241.64
421.48	3255.69
421.67	3243.98
421.86	3288.45
422.05	3220.58
422.24	3253.34
422.43	3276.75
422.61	3293.13
422.80	3536.55
422.99	3311.86
423.18	3393.78
423.37	3328.24
423.56	3339.94
423.75	3346.97
423.94	3309.52
424.13	3178.45
424.32	3283.77
424.50	3318.88
424.69	3452.29
424.88	3386.76
425.07	3372.71
425.26	3438.25
425.45	3358.67
425.64	3452.29
425.83	3321.22
426.01	3403.14
426.20	3482.72
426.39	3438.25
426.58	3428.88
426.77	3398.46
426.96	3496.76
427.15	3506.12
427.33	3602.08
427.52	3431.23
427.71	3686.34
427.90	3595.06
428.09	3531.87
428.28	3576.34
428.46	3712.09
428.65	3674.64
428.84	3637.19
429.03	3740.18
429.22	3721.45
429.40	3812.73
429.59	3653.58
429.78	3574.00
429.97	3688.68
430.16	3786.99
430.34	3770.60
430.53	3798.69
430.72	3775.28
430.91	3737.84
431.10	3779.97
431.28	3925.08
431.47	3845.50
431.66	3948.48
431.85	3854.86
432.03	3992.95
432.22	4175.52
432.41	4028.06
432.60	4070.19
432.79	3950.82
432.97	4128.70
433.16	3943.80
433.35	3974.23
433.54	4217.65
433.72	4271.48
433.91	4112.32
434.10	4079.55
434.28	4163.81
434.47	4234.03
434.66	4095.94
434.85	4290.20
435.03	4201.26
435.22	4245.73
435.41	4353.40
435.59	4273.82
435.78	4374.46
435.97	4383.82
436.16	4372.12
436.34	4255.09
436.53	4449.36
436.72	4498.51
436.90	4482.13
437.09	4484.47
437.28	4503.19
437.46	4622.56
437.65	4376.80
437.84	4620.22
438.02	4489.15
438.21	4645.96
438.40	4540.64
438.58	4671.71
438.77	4669.37
438.96	4819.16
439.14	4706.82
439.33	4905.76
439.52	4849.59
439.70	4910.44
439.89	4908.10
440.08	4870.65
440.26	4905.76
440.45	4994.70
440.63	4975.98
440.82	5027.47
441.01	5102.37
441.19	5123.43
441.38	5179.61
441.57	5221.74
441.75	5317.70
441.94	5282.59
442.12	5376.21
442.31	5259.18
442.50	5200.67
442.68	5359.83
442.87	5380.89
443.05	5411.32
443.24	5439.40
443.43	5504.94
443.61	5593.88
443.80	5769.42
443.98	5467.49
444.17	5383.23
444.35	5476.85
444.54	5764.74
444.73	5666.44
444.91	5540.05
445.10	5610.26
445.28	5542.39
445.47	5643.03
445.65	5610.26
445.84	5612.60
446.02	5731.97
446.21	5631.33
446.39	5584.52
446.58	5755.38
446.77	5647.71
446.95	5509.62
447.14	5654.73
447.32	5696.86
447.51	5584.52
447.69	5664.10
447.88	5750.70
448.06	5727.29
448.25	5736.65
448.43	5774.10
448.62	5675.80
448.80	5799.85
448.99	5973.05
449.17	5933.26
449.36	5722.61
449.54	5720.27
449.73	5771.76
449.91	6008.16
450.10	6024.54
450.28	5912.19
450.46	6148.59
450.65	6148.59
450.83	6104.12
451.02	6026.88
451.20	6101.78
451.39	6232.85
451.57	6094.76
451.76	6005.81
451.94	6148.59
452.13	6321.79
452.31	6277.32
452.49	6043.26
452.68	6289.02
452.86	6291.36
453.05	6384.98
453.23	6431.79
453.42	6160.29
453.60	6312.42
453.78	6452.86
453.97	6132.20
454.15	6155.61
454.34	6389.66
454.52	6434.13
454.70	6502.01
454.89	6583.93
455.07	6480.94
455.26	6438.81
455.44	6604.99
455.62	6766.49
455.81	6614.35
455.99	6682.23
456.17	6607.33
456.36	6693.93
456.54	6822.66
456.73	6839.05
456.91	7000.54
457.09	7005.22
457.28	7190.13
457.46	6916.28
457.64	7019.27
457.83	7073.10
458.01	6850.75
458.19	7091.82
458.38	7119.91
458.56	7082.46
458.74	7140.97
458.93	7117.57
459.11	7063.74
459.29	7222.89
459.48	7138.63
459.66	7201.83
459.84	7108.21
460.03	7426.52
460.21	7260.34
460.39	7304.81
460.57	7253.32
460.76	7456.95
460.94	7597.38
461.12	7564.61
461.31	7377.37
461.49	7365.67
461.67	7482.69
461.85	7686.32
462.04	7534.18
462.22	7981.23
462.40	7599.72
462.59	7595.04
462.77	7721.43
462.95	7850.16
463.13	7660.57
463.32	7606.74
463.50	7812.71
463.68	7740.15
463.86	7934.42
464.05	7932.08
464.23	7791.64
464.41	8006.97
464.59	7665.25
464.78	7801.01
464.96	8028.04
465.14	7892.29
465.32	8091.23
465.50	7878.24
465.69	8056.12
465.87	8147.40
466.05	8133.36
466.23	8112.30
466.41	8037.40
466.60	8278.47
466.78	8196.56
466.96	8161.45
467.14	8046.76
467.32	8278.47
467.51	8311.24
467.69	8102.93
467.87	8212.94
468.05	8369.76
468.23	8231.66
468.41	8140.38
468.60	8348.69
468.78	8376.78
468.96	8372.10
469.14	8613.17
469.32	8589.77
469.50	8379.12
469.69	8739.56
469.87	8671.68
470.05	8613.17
470.23	8606.15
470.41	8837.86
470.59	8748.92
470.77	8727.86
470.95	8596.79
471.14	9015.74
471.32	8716.16
471.50	8835.52
471.68	8982.98
471.86	9090.64
472.04	8936.17
472.22	9240.44
472.40	8908.08
472.58	9121.07
472.77	9170.22
472.95	9158.52
473.13	9521.30
473.31	9287.25
473.49	9399.59
473.67	9336.40
473.85	9483.85
474.03	9647.69
474.21	9493.21
474.39	9816.21
474.57	9507.26
474.75	9738.97
474.93	9755.35
475.12	9839.61
475.30	9832.59
475.48	9860.68
475.66	9975.36
475.84	10003.45
476.02	10134.52
476.20	10188.35
476.38	10263.25
476.56	10321.76
476.74	10377.94
476.92	10513.69
477.10	10359.21
477.28	10476.24
477.46	10499.64
477.64	10651.78
477.82	10635.39
478.00	11030.94
478.18	10960.73
478.36	11267.34
478.54	11382.03
478.72	11571.61
478.90	11403.09
479.08	11435.86
479.26	11435.86
479.44	11545.86
479.62	11620.76
479.80	11822.05
479.98	11784.60
480.16	12250.36
480.34	11875.88
480.52	12065.46
480.70	12088.87
480.88	11864.18
481.06	12170.79
481.24	12414.20
481.41	12578.04
481.59	12652.94
481.77	12732.51
481.95	12753.58
482.13	13013.38
482.31	12924.44
482.49	13219.35
482.67	13146.79
482.85	13401.91
483.03	13488.51
483.21	13785.76
483.39	13724.90
483.57	13518.93
483.74	13621.92
483.92	13942.57
484.10	13940.23
484.28	14001.08
484.46	14354.51
484.64	14651.75
484.82	14167.26
485.00	14501.96
485.18	14799.21
485.35	14693.88
485.53	14808.57
485.71	14913.89
485.89	15576.27
486.07	15229.87
486.25	15236.89
486.43	15363.28
486.61	15480.30
486.78	15653.50
486.96	15690.95
487.14	16203.53
487.32	15978.84
487.50	16116.93
487.68	16292.47
487.85	16381.41
488.03	16692.70
488.21	16819.09
488.39	16720.79
488.57	17074.21
488.75	16978.25
488.92	17341.03
489.10	17575.08
489.28	17298.90
489.46	17909.78
489.64	17706.15
489.81	17933.18
489.99	17834.88
490.17	18160.22
490.35	18497.25
490.53	18326.39
490.70	18492.57
490.88	18356.82
491.06	18827.27
491.24	18909.19
491.41	18848.33
491.59	19044.94
491.77	19332.82
491.95	19133.88
492.13	19332.82
492.30	19269.63
492.48	19552.84
492.66	19431.13
492.84	19386.66
493.01	19777.53
493.19	20074.77
493.37	20086.48
493.54	20236.27
493.72	20531.18
493.90	20285.42
494.08	20657.57
494.25	20482.03
494.43	20779.28
494.61	21027.37
494.79	21053.12
494.96	20821.41
495.14	21245.04
495.32	21263.77
495.49	21441.65
495.67	21462.71
495.85	21757.62
496.02	22097.00
496.20	22370.84
496.38	22324.03
496.55	22199.98
496.73	22834.27
496.91	22389.56
497.09	22192.96
497.26	22883.42
497.44	22691.49
497.62	22979.38
497.79	22977.04
497.97	23150.24
498.14	23386.63
498.32	23447.49
498.50	23424.08
498.67	23814.95
498.85	23489.62
499.03	23807.93
499.20	24025.60
499.38	24006.87
499.56	24261.99
499.73	24402.43
499.91	24240.93
500.08	24556.90
500.26	24107.52
500.44	24486.68
500.61	24156.67
500.79	24470.30
500.97	24868.19
501.14	25355.02
501.32	24697.33
501.49	25317.57
501.67	25006.28
501.84	25287.15
502.02	25041.39
502.20	25371.41
502.37	25481.41
502.55	25495.46
502.72	25731.85
502.90	25671.00
503.07	25369.07
503.25	25991.65
503.43	25565.67
503.60	26078.25
503.78	26169.53
503.95	25923.77
504.13	26333.37
504.30	26525.29
504.48	26642.32
504.65	26492.52
504.83	26529.97
505.01	26834.24
505.18	27168.94
505.36	27300.01
505.53	27248.52
505.71	27302.35
505.88	27023.83
506.06	26815.52
506.23	27323.41
506.41	27147.87
506.58	27384.27
506.76	27475.55
506.93	27608.96
507.11	27653.43
507.28	27604.28
507.46	27866.42
507.63	28182.39
507.81	28177.71
507.98	28189.41
508.16	28599.01
508.33	28428.15
508.50	28273.67
508.68	28320.48
508.85	28737.10
509.03	28561.56
509.20	28673.90
509.38	29226.27
509.55	28879.87
509.73	29226.27
509.90	29364.36
510.08	29174.78
510.25	29085.84
510.42	29055.41
510.60	29509.47
510.77	29612.46
510.95	29951.84
511.12	29919.07
511.30	29738.85
511.47	29762.25
511.64	29497.77
511.82	29956.52
511.99	30005.67
512.17	29970.56
512.34	30071.20
512.51	30019.71
512.69	30511.22
512.86	30338.02
513.04	30731.23
513.21	30614.21
513.38	30864.64
513.56	31007.42
513.73	30658.68
513.90	30932.52
514.08	30841.24
514.25	30850.60
514.43	31264.88
514.60	31704.90
514.77	31365.52
514.95	31573.83
515.12	31189.98
515.29	31452.12
515.47	31435.74
515.64	31857.03
515.81	31817.24
515.99	31838.31
516.16	32378.97
516.33	32077.04
516.51	32479.61
516.68	31880.44
516.85	32102.79
517.03	32816.65
517.20	32776.86
517.37	32568.55
517.54	32453.87
517.72	32362.59
517.89	32891.55
518.06	32701.96
518.24	32917.29
518.41	32580.26
518.58	32259.60
518.75	32423.44
518.93	33200.50
519.10	32606.00
519.27	33273.06
519.45	33160.71
519.62	33223.90
519.79	33275.40
519.96	33219.22
520.14	33015.60
520.31	33574.98
520.48	33598.39
520.65	33799.68
520.83	34015.01
521.00	34099.26
521.17	33975.22
521.34	34043.09
521.52	34045.43
521.69	34162.46
521.86	34485.45
522.03	34305.23
522.20	34473.75
522.38	34443.32
522.55	34649.29
522.72	34345.02
522.89	34281.83
523.07	35140.80
523.24	34941.86
523.41	35049.52
523.58	34850.58
523.75	35566.78
523.92	34850.58
524.10	35211.02
524.27	35629.98
524.44	35438.05
524.61	35585.50
524.78	35571.46
524.96	35798.49
525.13	35864.03
525.30	35784.45
525.47	35847.64
525.64	35550.40
525.81	35995.10
525.98	35889.77
526.16	35777.43
526.33	36112.13
526.50	36409.37
526.67	35922.54
526.84	36172.98
527.01	36320.43
527.18	36493.63
527.36	36751.09
527.53	36479.59
527.70	37163.03
527.87	36732.37
528.04	36172.98
528.21	36882.16
528.38	36854.08
528.55	37188.77
528.72	36671.51
528.89	37205.16
529.07	36935.99
529.24	37284.73
529.41	37118.56
529.58	37287.07
529.75	36830.67
529.92	37139.62
530.09	37457.93
530.26	37043.66
530.43	37546.87
530.60	36760.45
530.77	37057.70
530.94	37118.56
531.11	37338.57
531.28	37226.22
531.46	37528.15
531.63	37865.19
531.80	37233.24
531.97	37640.50
532.14	37823.06
532.31	38244.35
532.48	38286.48
532.65	38462.02
532.82	38073.49
532.99	38366.06
533.16	38005.62
533.33	38234.99
533.50	38707.78
533.67	38536.92
533.84	37970.51
534.01	38670.33
534.18	38398.83
534.35	38672.67
534.52	38405.85
534.69	38595.43
534.86	38813.10
535.03	38728.84
535.20	38597.77
535.37	38904.38
535.54	39105.67
535.71	38817.78
535.88	39051.84
536.05	39026.09
536.22	39187.59
536.38	39342.06
536.55	39449.73
536.72	39192.27
536.89	39592.50
537.06	39267.17
537.23	39669.74
537.40	39461.43
537.57	39285.89
537.74	39037.80
537.91	39896.77
538.08	39763.36
538.25	39744.64
538.42	39515.26
538.59	40034.86
538.75	40119.12
538.92	40126.14
539.09	39997.41
539.26	40182.32
539.43	40238.49
539.60	40364.88
539.77	40032.52
539.94	40425.73
540.11	40336.79
540.28	40781.49
540.44	40301.68
540.61	40315.73
540.78	40451.48
540.95	40517.01
541.12	40416.37
541.29	40257.21
541.46	40755.75
541.62	40575.53
541.79	41053.00
541.96	40744.05
542.13	40456.16
542.30	40900.86
542.47	41099.81
542.63	40730.00
542.80	40952.35
542.97	41315.14
543.14	41436.84
543.31	41273.01
543.48	41170.02
543.64	41722.39
543.81	41771.54
543.98	41759.84
544.15	41684.94
544.32	41429.82
544.48	41659.20
544.65	41537.49
544.82	41811.33
544.99	41923.68
545.16	41970.49
545.32	41748.14
545.49	42085.17
545.66	42337.95
545.83	41792.61
546.00	42457.32
546.16	42312.20
546.33	41722.39
546.50	41942.40
546.67	42518.17
546.83	41942.40
547.00	42483.06
547.17	42387.10
547.34	42377.74
547.50	42483.06
547.67	42756.91
547.84	42478.38
548.00	42815.42
548.17	43192.25
548.34	42852.87
548.51	43386.51
548.67	42768.61
548.84	42745.20
549.01	42696.05
549.18	42925.42
549.34	43210.97
549.51	43395.87
549.68	43487.15
549.84	42876.27
550.01	43276.51
550.18	42979.26
550.34	43122.03
550.51	43732.91
550.68	43470.77
550.84	43164.16
551.01	43737.59
551.18	43306.93
551.34	43138.41
551.51	43648.65
551.68	43433.32
551.84	43391.19
552.01	43253.10
552.18	43505.88
552.34	43285.87
552.51	43573.75
552.68	43690.78
552.84	43627.59
553.01	43578.43
553.18	43943.56
553.34	43693.12
553.51	43786.74
553.67	43831.21
553.84	44161.23
554.01	44119.10
554.17	44133.14
554.34	44425.71
554.51	44142.50
554.67	44294.64
554.84	44296.98
555.00	44212.72
555.17	44009.09
555.33	43915.47
555.50	44095.69
555.67	44065.27
555.83	44343.79
556.00	44172.93
556.16	44973.39
556.33	44493.58
556.50	44182.29
556.66	44179.95
556.83	44388.26
556.99	44509.97
557.16	44858.71
557.32	44720.62
557.49	44612.95
557.65	44898.50
557.82	44435.07
557.98	44959.35
558.15	44842.32
558.32	45212.13
558.48	44669.12
558.65	44559.12
558.81	44973.39
558.98	44657.42
559.14	44868.07
559.31	44662.10
559.47	44797.85
559.64	44851.69
559.80	44959.35
559.97	45265.96
560.13	44968.71
560.30	45099.78
560.46	45170.00
560.63	45212.13
560.79	45469.59
560.96	45209.79
561.12	45635.77
561.29	45312.77
561.45	45315.11
561.61	45521.08
561.78	45043.61
561.94	45104.46
562.11	45151.27
562.27	45446.18
562.44	45179.36
562.60	45148.93
562.77	45188.72
562.93	45013.18
563.10	45144.25
563.26	45294.05
563.42	45621.72
563.59	45420.44
563.75	45507.04
563.92	45408.73
564.08	45734.07
564.24	45282.34
564.41	45401.71
564.57	45425.12
564.74	45776.20
564.90	45162.98
565.07	45736.41
565.23	45633.42
565.39	46143.66
565.56	45996.21
565.72	45638.11
565.88	45652.15
566.05	45638.11
566.21	45886.20
566.38	45773.86
566.54	45633.42
566.70	46106.21
566.87	45752.79
567.03	45570.23
567.19	46218.56
567.36	45680.24
567.52	46040.68
567.68	46068.76
567.85	45979.82
568.01	46113.23
568.17	45471.93
568.34	46319.20
568.50	46078.13
568.66	45773.86
568.83	45975.14
568.99	45825.35
569.15	45914.29
569.32	45872.16
569.48	45996.21
569.64	46719.43
569.81	46167.07
569.97	46227.92
570.13	46220.90
570.30	46066.42
570.46	46050.04
570.62	46164.73
570.78	46129.62
570.95	46162.39
571.11	46433.89
571.27	46185.79
571.43	46335.59
571.60	45883.86
571.76	46298.14
571.92	46122.60
572.09	46150.68
572.25	45928.33
572.41	45989.19
572.57	46529.85
572.74	47049.45
572.90	46188.13
573.06	46593.04
573.22	46567.30
573.38	46625.81
573.55	46342.61
573.71	46831.78
573.87	46003.23
574.03	46684.33
574.20	46777.95
574.36	46602.41
574.52	46576.66
574.68	46628.15
574.84	46571.98
575.01	46728.80
575.17	46403.46
575.33	46710.07
575.49	46291.12
575.65	46497.08
575.82	46450.27
575.98	46373.03
576.14	46820.08
576.30	46719.43
576.46	46576.66
576.62	46344.95
576.79	46560.28
576.95	46314.52
577.11	46628.15
577.27	46377.72
577.43	46426.87
577.59	46663.26
577.75	46981.57
577.92	46614.11
578.08	46335.59
578.24	46899.65
578.40	47288.18
578.56	47044.77
578.72	46541.55
578.88	46953.49
579.04	46712.41
579.21	46827.10
579.37	46298.14
579.53	47037.75
579.69	46677.30
579.85	46862.21
580.01	46796.67
580.17	46983.91
580.33	46850.50
580.49	46852.84
580.65	46878.59
580.82	46855.18
580.98	46834.12
581.14	46511.13
581.30	46567.30
581.46	46497.08
581.62	46972.21
581.78	46389.42
581.94	46522.83
582.10	46724.11
582.26	47210.95
582.42	47173.50
582.58	46630.49
582.74	46864.55
582.90	46944.12
583.06	46433.89
583.22	46756.88
583.38	46756.88
583.54	47164.14
583.70	46887.95
583.86	46791.99
584.02	46710.07
584.18	47288.18
584.34	47033.07
584.50	46494.74
584.66	47065.83
584.82	46883.27
584.98	47407.55
585.14	47646.29
585.30	47014.34
585.46	46885.61
585.62	46639.86
585.78	46674.96
585.94	46871.57
586.10	47435.64
586.26	46754.54
586.42	46604.75
586.58	46937.10
586.74	46705.39
586.90	46857.52
587.06	46770.93
587.22	47147.75
587.38	46918.38
587.54	47161.79
587.70	47433.30
587.86	47026.04
588.02	47096.26
588.18	46742.84
588.34	46986.25
588.49	47288.18
588.65	46710.07
588.81	46995.62
588.97	47377.12
589.13	47049.45
589.29	47201.58
589.45	47206.26
589.61	47227.33
589.77	47304.57
589.93	47199.24
590.08	47154.77
