SpectraSuite Data File
++++++++++++++++++++++++++++++++++++
Date: Fri Oct 25 11:34:00 EDT 2013
User: price-jones
Dark Spectrum Present: No
Reference Spectrum Present: No
Number of Sampled Component Spectra: 1
Spectrometers: USB2+H05261
Integration Time (usec): 100000 (USB2+H05261)
Spectra Averaged: 1 (USB2+H05261)
Boxcar Smoothing: 0 (USB2+H05261)
Correct for Electrical Dark: No (USB2+H05261)
Strobe/Lamp Enabled: No (USB2+H05261)
Correct for Detector Non-linearity: No (USB2+H05261)
Correct for Stray Light: No (USB2+H05261)
Number of Pixels in Processed Spectrum: 2048
>>>>>Begin Processed Spectral Data<<<<<
365.73	259.80
365.92	259.80
366.12	259.80
366.32	234.05
366.52	201.29
366.72	238.73
366.91	170.86
367.11	159.16
367.31	140.43
367.51	222.35
367.70	145.11
367.90	191.92
368.10	145.11
368.30	149.79
368.49	161.50
368.69	198.95
368.89	234.05
369.09	224.69
369.28	126.39
369.48	236.39
369.68	191.92
369.87	189.58
370.07	264.48
370.27	259.80
370.47	306.61
370.66	512.58
370.86	545.34
371.06	521.94
371.25	557.05
371.45	505.56
371.65	592.16
371.84	538.32
372.04	470.45
372.24	543.00
372.44	627.26
372.63	681.10
372.83	587.47
373.03	514.92
373.22	561.73
373.42	608.54
373.62	709.18
373.81	613.22
374.01	683.44
374.21	685.78
374.40	629.60
374.60	681.10
374.79	629.60
374.99	615.56
375.19	617.90
375.38	674.07
375.58	631.94
375.78	631.94
375.97	683.44
376.17	683.44
376.37	681.10
376.56	667.05
376.76	688.12
376.95	704.50
377.15	660.03
377.35	697.48
377.54	641.31
377.74	631.94
377.93	634.29
378.13	655.35
378.33	664.71
378.52	660.03
378.72	791.10
378.91	709.18
379.11	730.25
379.31	671.73
379.50	667.05
379.70	730.25
379.89	800.46
380.09	709.18
380.28	702.16
380.48	763.01
380.68	730.25
380.87	730.25
381.07	795.78
381.26	770.04
381.46	800.46
381.65	716.20
381.85	795.78
382.04	798.12
382.24	807.48
382.43	744.29
382.63	802.80
382.83	774.72
383.02	781.74
383.22	877.70
383.41	765.36
383.61	807.48
383.80	837.91
384.00	770.04
384.19	856.64
384.39	807.48
384.58	805.14
384.78	812.17
384.97	758.33
385.17	800.46
385.36	746.63
385.56	828.55
385.75	781.74
385.95	828.55
386.14	903.45
386.34	910.47
386.53	823.87
386.72	915.15
386.92	961.96
387.11	816.85
387.31	931.53
387.50	908.13
387.70	894.08
387.89	983.02
388.09	919.83
388.28	896.43
388.48	915.15
388.67	936.21
388.86	924.51
389.06	919.83
389.25	938.55
389.45	964.30
389.64	933.87
389.84	933.87
390.03	978.34
390.22	961.96
390.42	1043.88
390.61	908.13
390.81	980.68
391.00	952.60
391.19	1041.54
391.39	947.92
391.58	992.39
391.78	1029.84
391.97	987.71
392.16	1008.77
392.36	1050.90
392.55	964.30
392.75	1118.78
392.94	994.73
393.13	1029.84
393.33	1034.52
393.52	1057.92
393.71	1097.71
393.91	992.39
394.10	1118.78
394.29	1109.41
394.49	1104.73
394.68	1109.41
394.88	1153.88
395.07	1160.91
395.26	1160.91
395.46	1114.10
395.65	1128.14
395.84	1107.07
396.04	1203.04
396.23	1200.69
396.42	1179.63
396.62	1170.27
396.81	1128.14
397.00	1256.87
397.19	1186.65
397.39	1219.42
397.58	1277.93
397.77	1144.52
397.97	1238.14
398.16	1329.42
398.35	1242.82
398.55	1277.93
398.74	1280.27
398.93	1254.53
399.12	1362.19
399.32	1303.68
399.51	1280.27
399.70	1327.08
399.90	1341.13
400.09	1364.53
400.28	1439.43
400.47	1406.66
400.67	1504.96
400.86	1455.81
401.05	1336.45
401.24	1404.32
401.44	1453.47
401.63	1544.75
401.82	1490.92
402.01	1409.00
402.21	1460.49
402.40	1497.94
402.59	1558.80
402.78	1476.88
402.97	1490.92
403.17	1568.16
403.36	1493.26
403.55	1593.90
403.74	1614.97
403.93	1673.48
404.13	1551.78
404.32	1586.88
404.51	1500.28
404.70	1666.46
404.89	1544.75
405.09	1710.93
405.28	1664.12
405.47	1675.82
405.66	1675.82
405.85	1703.91
406.05	1650.08
406.24	1675.82
406.43	1722.63
406.62	1748.38
406.81	1736.68
407.00	1746.04
407.20	1689.87
407.39	1727.32
407.58	1771.79
407.77	1790.51
407.96	1916.90
408.15	1898.17
408.34	1781.15
408.54	1874.77
408.73	1830.30
408.92	1870.09
409.11	1858.39
409.30	1956.69
409.49	1935.62
409.68	2001.16
409.87	1989.46
410.07	1996.48
410.26	1956.69
410.45	1987.11
410.64	2094.78
410.83	2099.46
411.02	1982.43
411.21	2174.36
411.40	2218.83
411.59	2136.91
411.78	2134.57
411.98	2211.81
412.17	2232.87
412.36	2291.38
412.55	2228.19
412.74	2307.77
412.93	2319.47
413.12	2307.77
413.31	2319.47
413.50	2319.47
413.69	2368.62
413.88	2424.80
414.07	2422.45
414.26	2495.01
414.45	2513.74
414.64	2537.14
414.83	2490.33
415.02	2485.65
415.22	2520.76
415.41	2661.19
415.60	2609.70
415.79	2588.63
415.98	2600.34
416.17	2658.85
416.36	2738.43
416.55	2689.28
416.74	2747.79
416.93	2860.13
417.12	2745.45
417.31	2885.88
417.50	2782.90
417.69	2946.73
417.88	3038.02
418.07	3000.57
418.26	2913.97
418.45	2930.35
418.64	3131.64
418.83	3105.89
419.02	2998.23
419.21	3002.91
419.39	3038.02
419.58	2972.48
419.77	3012.27
419.96	3176.11
420.15	3190.15
420.34	3180.79
420.53	3101.21
420.72	3180.79
420.91	3192.49
421.10	3316.54
421.29	3276.75
421.48	3199.51
421.67	3248.66
421.86	3211.22
422.05	3330.58
422.24	3300.16
422.43	3328.24
422.61	3351.65
422.80	3386.76
422.99	3356.33
423.18	3339.94
423.37	3456.97
423.56	3398.46
423.75	3332.92
423.94	3300.16
424.13	3096.53
424.32	3342.28
424.50	3361.01
424.69	3440.59
424.88	3585.70
425.07	3365.69
425.26	3330.58
425.45	3276.75
425.64	3398.46
425.83	3489.74
426.01	3515.48
426.20	3482.72
426.39	3452.29
426.58	3445.27
426.77	3531.87
426.96	3545.91
427.15	3527.19
427.33	3475.70
427.52	3545.91
427.71	3602.08
427.90	3684.00
428.09	3627.83
428.28	3648.90
428.46	3578.68
428.65	3578.68
428.84	3808.05
429.03	3768.26
429.22	3723.79
429.40	3634.85
429.59	3735.50
429.78	3576.34
429.97	3623.15
430.16	3709.75
430.34	3850.18
430.53	3941.46
430.72	3871.25
430.91	3819.75
431.10	3911.04
431.28	3817.41
431.47	3889.97
431.66	3957.85
431.85	3889.97
432.03	3932.10
432.22	4241.05
432.41	4098.28
432.60	4011.68
432.79	4093.60
432.97	4140.41
433.16	3955.51
433.35	4131.05
433.54	4124.02
433.72	4138.07
433.91	4217.65
434.10	4184.88
434.28	4121.68
434.47	4147.43
434.66	4259.78
434.85	4212.96
435.03	4355.74
435.22	4238.71
435.41	4210.62
435.59	4372.12
435.78	4470.42
435.97	4304.25
436.16	4348.72
436.34	4283.18
436.53	4472.76
436.72	4566.39
436.90	4414.25
437.09	4610.86
437.28	4477.44
437.46	4369.78
437.65	4491.49
437.84	4496.17
438.02	4535.96
438.21	4603.83
438.40	4550.00
438.58	4685.75
438.77	4699.80
438.96	4657.67
439.14	4786.40
439.33	4915.12
439.52	4751.29
439.70	4917.47
439.89	4971.30
440.08	5048.54
440.26	4985.34
440.45	4905.76
440.63	5022.79
440.82	5111.73
441.01	4891.72
441.19	5121.09
441.38	5121.09
441.57	5205.35
441.75	5174.92
441.94	5249.82
442.12	5210.03
442.31	5287.27
442.50	5387.91
442.68	5345.78
442.87	5420.68
443.05	5502.60
443.24	5509.62
443.43	5619.63
443.61	5418.34
443.80	5518.98
443.98	5350.46
444.17	5249.82
444.35	5551.75
444.54	5701.54
444.73	5570.48
444.91	5448.77
445.10	5556.43
445.28	5493.24
445.47	5575.16
445.65	5788.14
445.84	5680.48
446.02	5713.25
446.21	5584.52
446.39	5731.97
446.58	5748.36
446.77	5724.95
446.95	5657.07
447.14	5675.80
447.32	5734.31
447.51	5537.71
447.69	5860.70
447.88	5724.95
448.06	5612.60
448.25	5570.48
448.43	5729.63
448.62	5671.12
448.80	5715.59
448.99	5846.66
449.17	5895.81
449.36	5750.70
449.54	5860.70
449.73	5898.15
449.91	6097.10
450.10	6148.59
450.28	6066.67
450.46	6024.54
450.65	6113.48
450.83	6047.94
451.02	6066.67
451.20	6064.33
451.39	6246.89
451.57	6043.26
451.76	6179.01
451.94	6176.67
452.13	6143.91
452.31	6174.33
452.49	6069.01
452.68	6272.64
452.86	6317.11
453.05	6221.14
453.23	6373.28
453.42	6356.90
453.60	6260.93
453.78	6303.06
453.97	6335.83
454.15	6499.67
454.34	6183.70
454.52	6361.58
454.70	6382.64
454.89	6520.73
455.07	6473.92
455.26	6628.40
455.44	6686.91
455.62	6686.91
455.81	6604.99
455.99	6581.59
456.17	6686.91
456.36	6633.08
456.54	6743.08
456.73	6796.92
456.91	6970.12
457.09	7026.29
457.28	7091.82
457.46	6834.36
457.64	6920.96
457.83	6890.54
458.01	7016.93
458.19	7267.36
458.38	7040.33
458.56	7117.57
458.74	7026.29
458.93	7124.59
459.11	7171.40
459.29	7169.06
459.48	7152.68
459.66	7211.19
459.84	7288.43
460.03	7536.52
460.21	7368.01
460.39	7248.64
460.57	7344.60
460.76	7581.00
460.94	7440.56
461.12	7269.70
461.31	7276.73
461.49	7297.79
461.67	7342.26
461.85	7611.42
462.04	7473.33
462.22	7939.10
462.40	7655.89
462.59	7887.61
462.77	7550.57
462.95	7751.85
463.13	7700.36
463.32	7625.47
463.50	7803.35
463.68	7803.35
463.86	7927.39
464.05	7817.39
464.23	7742.49
464.41	7861.86
464.59	7885.26
464.78	8035.06
464.96	7819.73
465.14	7915.69
465.32	7985.91
465.50	7873.56
465.69	8215.28
465.87	8147.40
466.05	8049.10
466.23	8105.28
466.41	7992.93
466.60	8304.22
466.78	8121.66
466.96	8170.81
467.14	8269.11
467.32	8208.26
467.51	8423.59
467.69	8093.57
467.87	8168.47
468.05	8320.60
468.23	8315.92
468.41	8248.05
468.60	8175.49
468.78	8376.78
468.96	8280.82
469.14	8587.43
469.32	8589.77
469.50	8243.37
469.69	8456.36
469.87	8674.03
470.05	8830.84
470.23	8777.01
470.41	8807.44
470.59	8643.60
470.77	8655.30
470.95	8674.03
471.14	8870.63
471.32	8882.33
471.50	8990.00
471.68	8997.02
471.86	9078.94
472.04	9139.79
472.22	9085.96
472.40	9069.58
472.58	8997.02
472.77	9097.66
472.95	9350.44
473.13	9841.95
473.31	9226.39
473.49	9219.37
473.67	9390.23
473.85	9659.39
474.03	9472.15
474.21	9434.70
474.39	9514.28
474.57	9607.90
474.75	9860.68
474.93	9790.46
475.12	9825.57
475.30	9947.28
475.48	10097.07
475.66	10120.48
475.84	10057.28
476.02	10160.27
476.20	10068.98
476.38	10471.56
476.56	10373.25
476.74	10607.31
476.92	10403.68
477.10	10228.14
477.28	10630.71
477.46	10621.35
477.64	10574.54
477.82	10878.81
478.00	11206.48
478.18	10869.45
478.36	11037.97
478.54	11054.35
478.72	11131.59
478.90	10974.77
479.08	11623.10
479.26	11438.20
479.44	11534.16
479.62	11838.43
479.80	11712.04
479.98	11896.94
480.16	12180.15
480.34	12109.93
480.52	12271.43
480.70	12074.82
480.88	12053.76
481.06	12236.32
481.24	12245.68
481.41	12617.83
481.59	12587.40
481.77	12751.24
481.95	12840.18
482.13	12886.99
482.31	12765.28
482.49	13163.17
482.67	13067.21
482.85	13207.64
483.03	13451.06
483.21	13518.93
483.39	13680.43
483.57	13554.04
483.74	13750.65
483.92	13898.10
484.10	13930.87
484.28	14211.73
484.46	14438.76
484.64	14593.24
484.82	13846.61
485.00	14391.95
485.18	14572.18
485.35	14918.57
485.53	15077.73
485.71	15164.33
485.89	15105.82
486.07	15021.56
486.25	14944.32
486.43	15562.22
486.61	15194.76
486.78	15688.61
486.96	15742.44
487.14	15782.23
487.32	15925.00
487.50	16252.68
487.68	16477.37
487.85	16458.65
488.03	16519.50
488.21	16414.18
488.39	16669.30
488.57	16758.24
488.75	16975.91
488.92	16973.56
489.10	17355.07
489.28	17238.05
489.46	17668.70
489.64	17455.72
489.81	17975.31
489.99	17881.69
490.17	18293.63
490.35	18139.15
490.53	18272.56
490.70	18523.00
490.88	18738.33
491.06	18544.06
491.24	18806.20
491.41	18747.69
491.59	18871.74
491.77	18963.02
491.95	19119.84
492.13	19180.69
492.30	19405.38
492.48	19473.26
492.66	19503.68
492.84	19491.98
493.01	19763.48
493.19	20013.92
493.37	20011.58
493.54	20414.15
493.72	20252.66
493.90	20411.81
494.08	20444.58
494.25	20680.97
494.43	20744.17
494.61	20812.04
494.79	21324.62
494.96	21111.63
495.14	21228.66
495.32	21434.63
495.49	21514.20
495.67	21584.42
495.85	21493.14
496.02	21766.98
496.20	21963.59
496.38	21860.60
496.55	22288.92
496.73	22621.28
496.91	22405.95
497.09	22398.93
497.26	22677.45
497.44	22710.22
497.62	22679.79
497.79	23222.80
497.97	22878.74
498.14	23180.67
498.32	23578.56
498.50	23482.59
498.67	23730.69
498.85	23321.10
499.03	23543.45
499.20	23749.42
499.38	23791.55
499.56	23852.40
499.73	24081.77
499.91	24163.69
500.08	24451.58
500.26	24182.42
500.44	24435.19
500.61	24329.87
500.79	24346.25
500.97	24718.40
501.14	24978.20
501.32	25226.29
501.49	24758.19
501.67	25111.61
501.84	25071.82
502.02	25568.01
502.20	25326.94
502.37	25362.04
502.55	25233.32
502.72	25614.82
502.90	25673.34
503.07	25558.65
503.25	26111.02
503.43	25891.01
503.60	25961.22
503.78	25883.98
503.95	25876.96
504.13	26230.38
504.30	26426.99
504.48	26429.33
504.65	26588.49
504.83	26745.30
505.01	26801.47
505.18	26649.34
505.36	27159.58
505.53	26661.04
505.71	27239.15
505.88	26878.71
506.06	26862.33
506.23	27122.13
506.41	27143.19
506.58	27402.99
506.76	27515.34
506.93	27880.46
507.11	27571.51
507.28	27810.25
507.46	28006.85
507.63	28173.03
507.81	27929.61
507.98	28128.56
508.16	27831.31
508.33	28301.76
508.50	28329.84
508.68	28058.34
508.85	28601.35
509.03	28259.63
509.20	28723.05
509.38	28868.17
509.55	28936.04
509.73	28842.42
509.90	29032.00
510.08	28861.15
510.25	29085.84
510.42	29046.05
510.60	29134.99
510.77	29670.97
510.95	29745.87
511.12	29347.98
511.30	29401.81
511.47	29802.04
511.64	29663.95
511.82	29975.24
511.99	30026.73
512.17	29790.34
512.34	30209.29
512.51	30497.18
512.69	30281.85
512.86	30675.06
513.04	30242.06
513.21	30623.57
513.38	30820.17
513.56	31063.59
513.73	30410.58
513.90	30656.34
514.08	30822.51
514.25	30859.96
514.43	30794.43
514.60	31351.48
514.77	31274.24
514.95	31407.65
515.12	31395.95
515.29	31477.86
515.47	31426.37
515.64	31566.81
515.81	31311.69
515.99	31674.47
516.16	32257.26
516.33	31611.28
516.51	31978.74
516.68	32018.53
516.85	31903.84
517.03	32013.85
517.20	32086.40
517.37	32423.44
517.54	32168.32
517.72	32313.44
517.89	32608.34
518.06	32432.80
518.24	32343.86
518.41	32697.28
518.58	32978.15
518.75	32456.21
518.93	32716.01
519.10	33013.26
519.27	32954.74
519.45	33160.71
519.62	32891.55
519.79	33598.39
519.96	33340.93
520.14	33443.91
520.31	33242.63
520.48	33446.26
520.65	33757.55
520.83	33867.55
521.00	34066.50
521.17	33673.29
521.34	33755.21
521.52	34040.75
521.69	34038.41
521.86	34010.32
522.03	34312.25
522.20	34443.32
522.38	34532.26
522.55	34682.06
522.72	34572.05
522.89	34658.65
523.07	34574.39
523.24	34714.83
523.41	34785.04
523.58	34452.69
523.75	34927.81
523.92	34911.43
524.10	34836.53
524.27	35019.10
524.44	35419.33
524.61	35655.72
524.78	34869.30
524.96	35728.28
525.13	35828.92
525.30	35934.24
525.47	35899.14
525.64	35840.62
525.81	35627.63
525.98	35627.63
526.16	35833.60
526.33	35335.07
526.50	36079.36
526.67	36037.23
526.84	36292.35
527.01	36170.64
527.18	36175.32
527.36	36156.60
527.53	36355.54
527.70	36961.74
527.87	36704.28
528.04	36800.24
528.21	36547.47
528.38	36526.40
528.55	36996.85
528.72	36715.98
528.89	36928.97
529.07	36580.23
529.24	36685.56
529.41	36842.37
529.58	37226.22
529.75	37273.03
529.92	36999.19
530.09	37069.40
530.26	36914.93
530.43	37462.61
530.60	37305.80
530.77	37111.53
530.94	37289.42
531.11	37474.32
531.28	37205.16
531.46	37378.36
531.63	37731.78
531.80	37736.46
531.97	37790.29
532.14	37799.65
532.31	37691.99
532.48	38377.76
532.65	38227.97
532.82	38167.12
532.99	37951.79
533.16	37696.67
533.33	38347.34
533.50	38340.32
533.67	38501.81
533.84	38071.15
534.01	38316.91
534.18	38450.32
534.35	39023.75
534.52	38836.51
534.69	38569.69
534.86	38653.95
535.03	39065.88
535.20	38703.10
535.37	38990.98
535.54	39072.90
535.71	38946.51
535.88	39110.35
536.05	39321.00
536.22	39262.49
536.38	39103.33
536.55	39112.69
536.72	39044.82
536.89	39035.45
537.06	39431.01
537.23	39351.43
537.40	39435.69
537.57	39196.95
537.74	38951.20
537.91	39791.45
538.08	39798.47
538.25	39234.40
538.42	39136.10
538.59	40156.57
538.75	39828.90
538.92	40418.71
539.09	40067.63
539.26	39632.29
539.43	39978.69
539.60	40385.94
539.77	39775.06
539.94	40425.73
540.11	40172.96
540.28	40533.40
540.44	40149.55
540.61	40074.65
540.78	40032.52
540.95	39976.35
541.12	40179.98
541.29	40086.36
541.46	40367.22
541.62	40882.14
541.79	40992.14
541.96	40552.12
542.13	40463.18
542.30	40357.86
542.47	40842.35
542.63	40882.14
542.80	40783.83
542.97	41298.75
543.14	41514.08
543.31	41542.17
543.48	41099.81
543.64	41762.18
543.81	41734.09
543.98	41677.92
544.15	41682.60
544.32	41565.57
544.48	41741.11
544.65	41741.11
544.82	41949.42
544.99	41359.61
545.16	41647.49
545.32	41596.00
545.49	41853.46
545.66	42113.26
545.83	42246.67
546.00	42131.98
546.16	42263.05
546.33	41588.98
546.50	41916.65
546.67	42473.70
546.83	41537.49
547.00	41556.21
547.17	42117.94
547.34	41764.52
547.50	42249.01
547.67	42820.10
547.84	42462.00
548.00	42373.06
548.17	42682.01
548.34	42635.20
548.51	42843.51
548.67	42557.96
548.84	42880.95
549.01	43229.69
549.18	42672.65
549.34	42808.40
549.51	43283.53
549.68	42344.97
549.84	43030.75
550.01	43063.52
550.18	42974.58
550.34	43201.61
550.51	42845.85
550.68	43056.50
550.84	42834.14
551.01	43246.08
551.18	43157.14
551.34	42848.19
551.51	43578.43
551.68	43213.31
551.84	43405.23
552.01	43393.53
552.18	43299.91
552.34	43089.26
552.51	43475.45
552.68	43278.85
552.84	43672.06
553.01	43519.92
553.18	43356.08
553.34	43934.20
553.51	43278.85
553.67	43817.17
553.84	44186.97
554.01	43821.85
554.17	44243.15
554.34	43543.33
554.51	43957.60
554.67	44116.76
554.84	43917.81
555.00	44460.82
555.17	43976.33
555.33	44161.23
555.50	44072.29
555.67	44004.41
555.83	44091.01
556.00	43955.26
556.16	45050.63
556.33	44418.69
556.50	44638.70
556.66	44074.63
556.83	44027.82
556.99	44507.63
557.16	44421.03
557.32	44465.50
557.49	44591.89
557.65	44306.34
557.82	44622.31
557.98	44734.66
558.15	44844.66
558.32	44949.99
558.48	44409.32
558.65	44341.45
558.81	44472.52
558.98	44774.45
559.14	44921.90
559.31	44722.96
559.47	44495.92
559.64	45038.93
559.80	44652.74
559.97	44814.24
560.13	44734.66
560.30	44957.01
560.46	45191.06
560.63	44870.41
560.79	44949.99
560.96	45170.00
561.12	45347.88
561.29	45478.95
561.45	45125.53
561.61	45198.09
561.78	44839.98
561.94	44861.05
562.11	44994.46
562.27	44959.35
562.44	44966.37
562.60	45301.07
562.77	45312.77
562.93	45146.59
563.10	45659.17
563.26	45635.77
563.42	45495.33
563.59	45144.25
563.75	45488.31
563.92	45137.23
564.08	45504.70
564.24	45462.57
564.41	45144.25
564.57	45560.87
564.74	45401.71
564.90	45277.66
565.07	45556.19
565.23	45595.98
565.39	45368.94
565.56	46209.20
565.72	45427.46
565.88	45855.78
566.05	46033.66
566.21	45680.24
566.38	45268.30
566.54	45982.16
566.70	45572.57
566.87	46157.70
567.03	45743.43
567.19	45748.11
567.36	45528.10
567.52	46043.02
567.68	45944.72
567.85	45837.05
568.01	45741.09
568.17	45682.58
568.34	45567.89
568.50	45759.81
568.66	45645.13
568.83	45951.74
568.99	45972.80
569.15	45968.12
569.32	46005.57
569.48	45879.18
569.64	46092.17
569.81	45684.92
569.97	45893.22
570.13	46277.07
570.30	45958.76
570.46	46148.34
570.62	46241.96
570.78	46391.76
570.95	45965.78
571.11	46248.99
571.27	46141.32
571.43	45848.75
571.60	45848.75
571.76	45797.26
571.92	46143.66
572.09	46113.23
572.25	46241.96
572.41	46101.53
572.57	46298.14
572.74	46742.84
572.90	45989.19
573.06	46693.69
573.22	46307.50
573.38	46513.47
573.55	46527.51
573.71	46813.05
573.87	46412.82
574.03	46770.93
574.20	46752.20
574.36	46391.76
574.52	46452.61
574.68	46265.37
574.84	46532.19
575.01	46246.65
575.17	46323.88
575.33	46454.95
575.49	46335.59
575.65	46794.33
575.82	46728.80
575.98	46719.43
576.14	46644.54
576.30	46576.66
576.46	46197.49
576.62	46440.91
576.79	46422.19
576.95	45853.44
577.11	46291.12
577.27	46319.20
577.43	46789.65
577.59	46899.65
577.75	46220.90
577.92	46148.34
578.08	46131.96
578.24	46506.44
578.40	46651.56
578.56	46822.42
578.72	46712.41
578.88	46155.36
579.04	46490.06
579.21	46279.41
579.37	46590.70
579.53	46637.51
579.69	46550.91
579.85	46534.53
580.01	46609.43
580.17	46595.38
580.33	46707.73
580.49	46941.78
580.65	46361.33
580.82	46658.58
580.98	46293.46
581.14	46288.77
581.30	46595.38
581.46	46405.80
581.62	46611.77
581.78	46539.21
581.94	46394.10
582.10	46770.93
582.26	46876.25
582.42	46653.90
582.58	46911.36
582.74	46927.74
582.90	46696.03
583.06	46838.80
583.22	46480.70
583.38	46588.36
583.54	46569.64
583.70	46738.16
583.86	47114.98
584.02	46747.52
584.18	47538.62
584.34	46822.42
584.50	47206.26
584.66	47030.72
584.82	46763.90
584.98	47145.41
585.14	46738.16
585.30	46394.10
585.46	46916.04
585.62	46593.04
585.78	46822.42
585.94	46579.00
586.10	46527.51
586.26	46600.07
586.42	46838.80
586.58	46653.90
586.74	46763.90
586.90	46490.06
587.06	46806.03
587.22	47068.17
587.38	46754.54
587.54	46972.21
587.70	46653.90
587.86	47028.38
588.02	47173.50
588.18	47243.71
588.34	47082.22
588.49	46909.02
588.65	46419.84
588.81	46557.94
588.97	47150.09
589.13	46815.40
589.29	46864.55
589.45	47426.28
589.61	47009.66
589.77	46843.48
589.93	47040.09
590.08	47295.21
