SpectraSuite Data File
++++++++++++++++++++++++++++++++++++
Date: Fri Oct 25 11:22:37 EDT 2013
User: price-jones
Dark Spectrum Present: No
Reference Spectrum Present: No
Number of Sampled Component Spectra: 1
Spectrometers: USB2+H05261
Integration Time (usec): 100000 (USB2+H05261)
Spectra Averaged: 1 (USB2+H05261)
Boxcar Smoothing: 0 (USB2+H05261)
Correct for Electrical Dark: No (USB2+H05261)
Strobe/Lamp Enabled: No (USB2+H05261)
Correct for Detector Non-linearity: No (USB2+H05261)
Correct for Stray Light: No (USB2+H05261)
Number of Pixels in Processed Spectrum: 2048
>>>>>Begin Processed Spectral Data<<<<<
365.73	245.76
365.92	245.76
366.12	245.76
366.32	166.18
366.52	112.35
366.72	135.75
366.91	128.73
367.11	65.54
367.31	126.39
367.51	117.03
367.70	156.82
367.90	107.66
368.10	117.03
368.30	107.66
368.49	102.98
368.69	72.56
368.89	191.92
369.09	100.64
369.28	159.16
369.48	170.86
369.68	208.31
369.87	196.60
370.07	180.22
370.27	248.10
370.47	287.89
370.66	528.96
370.86	702.16
371.06	692.80
371.25	755.99
371.45	699.82
371.65	711.52
371.84	667.05
372.04	655.35
372.24	681.10
372.44	688.12
372.63	774.72
372.83	641.31
373.03	781.74
373.22	730.25
373.42	786.42
373.62	798.12
373.81	823.87
374.01	830.89
374.21	779.40
374.40	781.74
374.60	823.87
374.79	758.33
374.99	814.51
375.19	800.46
375.38	760.67
375.58	814.51
375.78	842.59
375.97	767.70
376.17	933.87
376.37	800.46
376.56	840.25
376.76	858.98
376.95	964.30
377.15	877.70
377.35	873.02
377.54	976.00
377.74	863.66
377.93	833.23
378.13	952.60
378.33	945.58
378.52	908.13
378.72	919.83
378.91	950.26
379.11	875.36
379.31	952.60
379.50	889.40
379.70	887.06
379.89	915.15
380.09	950.26
380.28	931.53
380.48	987.71
380.68	999.41
380.87	1046.22
381.07	1027.50
381.26	1034.52
381.46	1029.84
381.65	1060.26
381.85	994.73
382.04	1013.45
382.24	1041.54
382.43	1027.50
382.63	1128.14
382.83	999.41
383.02	1041.54
383.22	1109.41
383.41	1064.94
383.61	1095.37
383.80	1123.46
384.00	1142.18
384.19	1165.59
384.39	1109.41
384.58	1137.50
384.78	1123.46
384.97	1156.22
385.17	1198.35
385.36	1231.12
385.56	1207.72
385.75	1128.14
385.95	1188.99
386.14	1254.53
386.34	1156.22
386.53	1219.42
386.72	1188.99
386.92	1256.87
387.11	1238.14
387.31	1266.23
387.50	1291.98
387.70	1210.06
387.89	1247.51
388.09	1200.69
388.28	1284.95
388.48	1231.12
388.67	1320.06
388.86	1345.81
389.06	1291.98
389.25	1373.89
389.45	1355.17
389.64	1338.79
389.84	1383.26
390.03	1392.62
390.22	1357.51
390.42	1432.41
390.61	1322.40
390.81	1378.58
391.00	1406.66
391.19	1423.05
391.39	1465.18
391.58	1558.80
391.78	1554.12
391.97	1523.69
392.16	1434.75
392.36	1544.75
392.55	1516.67
392.75	1500.28
392.94	1626.67
393.13	1579.86
393.33	1509.65
393.52	1521.35
393.71	1551.78
393.91	1521.35
394.10	1636.03
394.29	1612.63
394.49	1521.35
394.68	1673.48
394.88	1715.61
395.07	1638.38
395.26	1631.35
395.46	1699.23
395.65	1682.85
395.84	1696.89
396.04	1834.98
396.23	1767.10
396.42	1734.34
396.62	1820.94
396.81	1753.06
397.00	1703.91
397.19	1696.89
397.39	1795.19
397.58	1860.73
397.77	1834.98
397.97	1827.96
398.16	1820.94
398.35	1900.52
398.55	1956.69
398.74	1799.87
398.93	1832.64
399.12	1909.88
399.32	1834.98
399.51	1970.73
399.70	2047.97
399.90	2026.90
400.09	2050.31
400.28	2010.52
400.47	2099.46
400.67	2172.02
400.86	2090.10
401.05	2157.97
401.24	2146.27
401.44	2134.57
401.63	2139.25
401.82	2179.04
402.01	2106.48
402.21	2275.00
402.40	2200.10
402.59	2197.76
402.78	2188.40
402.97	2197.76
403.17	2321.81
403.36	2361.60
403.55	2303.09
403.74	2361.60
403.93	2300.75
404.13	2448.20
404.32	2476.29
404.51	2312.45
404.70	2466.92
404.89	2438.84
405.09	2457.56
405.28	2487.99
405.47	2539.48
405.66	2443.52
405.85	2569.91
406.05	2541.82
406.24	2609.70
406.43	2504.37
406.62	2743.11
406.81	2633.10
407.00	2679.91
407.20	2548.84
407.39	2658.85
407.58	2787.58
407.77	2635.44
407.96	2677.57
408.15	2810.98
408.34	2787.58
408.54	2848.43
408.73	2918.65
408.92	2862.48
409.11	2951.42
409.30	3007.59
409.49	2902.26
409.68	2902.26
409.87	2832.05
410.07	3007.59
410.26	2916.31
410.45	2963.12
410.64	3061.42
410.83	3047.38
411.02	3190.15
411.21	3318.88
411.40	3248.66
411.59	3248.66
411.78	3201.85
411.98	3173.77
412.17	3215.90
412.36	3220.58
412.55	3431.23
412.74	3316.54
412.93	3389.10
413.12	3335.26
413.31	3461.65
413.50	3496.76
413.69	3644.21
413.88	3574.00
414.07	3581.02
414.26	3801.03
414.45	3637.19
414.64	3684.00
414.83	3648.90
415.02	3707.41
415.22	3768.26
415.41	3857.20
415.60	3873.59
415.79	3866.56
415.98	3997.64
416.17	4018.70
416.36	4070.19
416.55	4063.17
416.74	4102.96
416.93	3985.93
417.12	4086.58
417.31	4201.26
417.50	4063.17
417.69	4273.82
417.88	4386.16
418.07	4262.12
418.26	4287.86
418.45	4245.73
418.64	4636.60
418.83	4486.81
419.02	4402.55
419.21	4575.75
419.39	4592.13
419.58	4430.63
419.77	4559.36
419.96	4638.94
420.15	4545.32
420.34	4599.15
420.53	4716.18
420.72	4758.31
420.91	4784.06
421.10	4856.61
421.29	4681.07
421.48	4601.49
421.67	4816.82
421.86	4741.93
422.05	4910.44
422.24	4922.15
422.43	4990.02
422.61	5001.72
422.80	4945.55
422.99	4983.00
423.18	5081.30
423.37	5071.94
423.56	4990.02
423.75	5046.20
423.94	4915.12
424.13	4678.73
424.32	4821.50
424.50	5114.07
424.69	5139.82
424.88	5191.31
425.07	4973.64
425.26	4978.32
425.45	5184.29
425.64	5095.35
425.83	5011.09
426.01	5142.16
426.20	5102.37
426.39	5137.48
426.58	5130.45
426.77	5090.67
426.96	5125.77
427.15	5123.43
427.33	5181.95
427.52	5144.50
427.71	5331.74
427.90	5184.29
428.09	5210.03
428.28	5397.28
428.46	5453.45
428.65	5362.17
428.84	5500.26
429.03	5577.50
429.22	5416.00
429.40	5493.24
429.59	5392.59
429.78	5200.67
429.97	5397.28
430.16	5458.13
430.34	5675.80
430.53	5724.95
430.72	5778.78
430.91	5858.36
431.10	5799.85
431.28	5741.33
431.47	5987.09
431.66	5877.09
431.85	5834.96
432.03	5900.49
432.22	6043.26
432.41	6054.97
432.60	6106.46
432.79	6031.56
432.97	6017.52
433.16	6104.12
433.35	5980.07
433.54	5973.05
433.72	6300.72
433.91	6033.90
434.10	6340.51
434.28	6179.01
434.47	6218.80
434.66	6242.21
434.85	6216.46
435.03	6312.42
435.22	6319.45
435.41	6340.51
435.59	6478.60
435.78	6478.60
435.97	6427.11
436.16	6525.41
436.34	6516.05
436.53	6438.81
436.72	6780.53
436.90	6459.88
437.09	6642.44
437.28	6492.65
437.46	6586.27
437.65	6724.36
437.84	6848.41
438.02	6679.89
438.21	6794.58
438.40	6722.02
438.58	7248.64
438.77	7162.04
438.96	6986.50
439.14	7105.87
439.33	7368.01
439.52	7265.02
439.70	7417.16
439.89	7396.09
440.08	7269.70
440.26	7487.37
440.45	7442.90
440.63	7492.05
440.82	7887.61
441.01	7709.72
441.19	7765.90
441.38	7669.94
441.57	7641.85
441.75	7934.42
441.94	8006.97
442.12	8152.09
442.31	8196.56
442.50	8088.89
442.68	7836.11
442.87	8049.10
443.05	8124.00
443.24	8290.18
443.43	8081.87
443.61	8341.67
443.80	8702.11
443.98	8238.69
444.17	7911.01
444.35	8205.92
444.54	8463.38
444.73	8287.84
444.91	8435.29
445.10	8379.12
445.28	8430.61
445.47	8409.54
445.65	8517.21
445.84	8505.51
446.02	8671.68
446.21	8496.14
446.39	8217.62
446.58	8662.32
446.77	8435.29
446.95	8393.16
447.14	8505.51
447.32	8662.32
447.51	8491.46
447.69	8697.43
447.88	8730.20
448.06	8578.06
448.25	8519.55
448.43	8631.90
448.62	8774.67
448.80	8657.64
448.99	8716.16
449.17	8844.88
449.36	8606.15
449.54	8854.25
449.73	9158.52
449.91	8975.95
450.10	9139.79
450.28	9027.45
450.46	9177.24
450.65	9125.75
450.83	8968.93
451.02	9109.36
451.20	9451.08
451.39	9273.20
451.57	9053.19
451.76	9149.15
451.94	9455.76
452.13	9525.98
452.31	9474.49
452.49	9221.71
452.68	9343.42
452.86	9408.95
453.05	9612.58
453.23	9596.20
453.42	9212.35
453.60	9427.68
453.78	9666.41
453.97	9380.87
454.15	9685.14
454.34	9638.33
454.52	9860.68
454.70	9886.42
454.89	9760.03
455.07	9757.69
455.26	9872.38
455.44	10022.17
455.62	10141.54
455.81	10200.05
455.99	10024.51
456.17	10101.75
456.36	10267.93
456.54	10310.06
456.73	10223.46
456.91	10602.63
457.09	10562.84
457.28	10897.53
457.46	10483.26
457.64	10649.44
457.83	10693.91
458.01	10499.64
458.19	10771.15
458.38	10640.08
458.56	10747.74
458.74	10654.12
458.93	10663.48
459.11	10822.64
459.29	10878.81
459.48	10836.68
459.66	10944.34
459.84	11040.31
460.03	11084.78
460.21	11248.61
460.39	11166.70
460.57	11061.37
460.76	11183.08
460.94	11145.63
461.12	11295.43
461.31	11255.64
461.49	11290.74
461.67	11246.27
461.85	11440.54
462.04	11494.37
462.22	11992.90
462.40	11749.49
462.59	11714.38
462.77	11517.78
462.95	11735.45
463.13	11529.48
463.32	11936.73
463.50	11978.86
463.68	11978.86
463.86	11887.58
464.05	11686.29
464.23	11983.54
464.41	12100.57
464.59	11719.06
464.78	12067.80
464.96	12224.62
465.14	12013.97
465.32	12219.94
465.50	12241.00
465.69	12418.88
465.87	12346.33
466.05	12376.75
466.23	12533.57
466.41	12386.12
466.60	12641.23
466.78	12372.07
466.96	12407.18
467.14	12243.34
467.32	12549.95
467.51	12666.98
467.69	12166.10
467.87	12587.40
468.05	12784.01
468.23	12681.02
468.41	12498.46
468.60	12713.79
468.78	12947.84
468.96	12697.41
469.14	12938.48
469.32	13067.21
469.50	12662.30
469.69	13088.28
469.87	13364.46
470.05	13324.67
470.23	13458.08
470.41	13242.75
470.59	13338.71
470.77	13273.18
470.95	13603.19
471.14	13930.87
471.32	13341.05
471.50	13724.90
471.68	13614.90
471.86	13841.93
472.04	13846.61
472.22	14211.73
472.40	13806.82
472.58	13811.50
472.77	13937.89
472.95	14377.91
473.13	14518.34
473.31	14333.44
473.49	14324.08
473.67	14497.28
473.85	14225.78
474.03	14867.08
474.21	14876.44
474.39	15012.20
474.57	14686.86
474.75	15208.80
474.93	15274.34
475.12	15091.77
475.30	15260.29
475.48	15295.40
475.66	15264.97
475.84	15463.92
476.02	15531.80
476.20	15630.10
476.38	15908.62
476.56	16266.72
476.74	16168.42
476.92	16173.10
477.10	15822.02
477.28	16269.06
477.46	16299.49
477.64	16514.82
477.82	16854.20
478.00	17303.58
478.18	17050.80
478.36	17186.55
478.54	17111.66
478.72	17067.19
478.90	17500.19
479.08	18052.55
479.26	17982.34
479.44	17905.10
479.62	18185.96
479.80	18115.75
479.98	18579.17
480.16	18721.95
480.34	18597.90
480.52	18934.93
480.70	18862.38
480.88	18558.11
481.06	19014.51
481.24	19077.71
481.41	19489.64
481.59	19538.79
481.77	19569.22
481.95	20004.56
482.13	20086.48
482.31	20142.65
482.49	20390.75
482.67	20482.03
482.85	20402.45
483.03	20783.96
483.21	21174.83
483.39	21458.03
483.57	21212.28
483.74	21434.63
483.92	21671.02
484.10	21549.31
484.28	21851.24
484.46	22017.42
484.64	22600.21
484.82	22225.73
485.00	22401.27
485.18	22911.50
485.35	23274.29
485.53	23054.28
485.71	23442.81
485.89	23803.25
486.07	23683.88
486.25	23814.95
486.43	23751.76
486.61	23915.59
486.78	24128.58
486.96	24226.89
487.14	24702.01
487.32	24886.92
487.50	25149.06
487.68	25214.59
487.85	25699.08
488.03	25912.07
488.21	26132.08
488.39	26363.79
488.57	26038.46
488.75	26279.54
488.92	26672.74
489.10	26948.93
489.28	26810.84
489.46	27260.22
489.64	27222.77
489.81	28112.17
489.99	27871.10
490.17	28161.33
490.35	28430.49
490.53	28166.01
490.70	28666.88
490.88	28673.90
491.06	29125.63
491.24	28828.38
491.41	29509.47
491.59	29483.73
491.77	29369.04
491.95	29872.26
492.13	30143.76
492.30	29914.39
492.48	30368.45
492.66	30572.08
492.84	30696.13
493.01	31346.79
493.19	30834.22
493.37	31578.51
493.54	31576.17
493.72	31798.52
493.90	32032.57
494.08	32498.34
494.25	32563.87
494.43	32472.59
494.61	32474.93
494.79	32816.65
494.96	32678.56
495.14	33322.21
495.32	33579.67
495.49	33345.61
495.67	33553.92
495.85	33820.74
496.02	34031.39
496.20	34284.17
496.38	34459.71
496.55	34162.46
496.73	35498.91
496.91	34822.49
497.09	35175.91
497.26	35220.38
497.44	34939.52
497.62	35976.37
497.79	36266.60
497.97	35880.41
498.14	36622.36
498.32	36189.36
498.50	36772.16
498.67	36928.97
498.85	36910.25
499.03	37387.72
499.20	36758.11
499.38	37579.64
499.56	37851.14
499.73	37202.82
499.91	37661.56
500.08	38272.44
500.26	37776.25
500.44	38010.30
500.61	38387.13
500.79	38174.14
500.97	38775.66
501.14	38925.45
501.32	38948.85
501.49	39353.77
501.67	39234.40
501.84	39519.95
502.02	39056.52
502.20	39777.40
502.37	39262.49
502.55	39737.62
502.72	39990.39
502.90	39559.73
503.07	39922.52
503.25	40048.91
503.43	40421.05
503.60	40570.85
503.78	40617.66
503.95	40739.36
504.13	40561.48
504.30	40636.38
504.48	40751.07
504.65	41296.41
504.83	41392.37
505.01	41303.43
505.18	41832.39
505.36	42260.71
505.53	41862.82
505.71	41750.48
505.88	42054.75
506.06	41968.15
506.23	42389.44
506.41	42237.31
506.58	42586.05
506.76	42251.35
506.93	42848.19
507.11	43019.05
507.28	43005.00
507.46	42974.58
507.63	43597.16
507.81	43428.64
507.98	43035.43
508.16	43931.86
508.33	43548.01
508.50	43650.99
508.68	44046.54
508.85	44069.95
509.03	44067.61
509.20	44626.99
509.38	44839.98
509.55	45155.96
509.73	44802.53
509.90	45345.54
510.08	45373.63
510.25	45116.17
510.42	45420.44
510.60	45116.17
510.77	45813.65
510.95	45710.66
511.12	45677.90
511.30	45855.78
511.47	46040.68
511.64	46124.94
511.82	46260.69
511.99	45860.46
512.17	45933.01
512.34	46403.46
512.51	46642.20
512.69	46836.46
512.86	46923.06
513.04	47056.47
513.21	46894.97
513.38	47047.11
513.56	47587.77
513.73	47459.04
513.90	47370.10
514.08	47452.02
514.25	47608.84
514.43	47910.77
514.60	47732.89
514.77	47557.35
514.95	48093.33
515.12	47997.37
515.29	47648.63
515.47	48397.60
515.64	48825.92
515.81	48608.25
515.99	48802.51
516.16	48795.49
516.33	49015.50
516.51	49074.01
516.68	49074.01
516.85	48858.68
517.03	49282.32
517.20	49186.36
517.37	49717.66
517.54	48919.54
517.72	49275.30
517.89	49333.81
518.06	49675.53
518.24	49525.74
518.41	49612.34
518.58	49869.79
518.75	49743.41
518.93	50255.98
519.10	49860.43
519.27	50305.13
519.45	50024.27
519.62	50590.68
519.79	50370.67
519.96	50410.46
520.14	50370.67
520.31	50583.66
520.48	50955.80
520.65	50859.84
520.83	51089.21
521.00	51082.19
521.17	51257.73
521.34	50873.88
521.52	51026.02
521.69	51187.52
521.86	51393.48
522.03	51313.90
522.20	51503.49
522.38	51578.39
522.55	51798.40
522.72	51667.33
522.89	51723.50
523.07	52126.07
523.24	51770.31
523.41	52023.09
523.58	51983.30
523.75	52144.80
523.92	52453.75
524.10	52271.18
524.27	52334.38
524.44	52474.81
524.61	52594.18
524.78	52545.03
524.96	52858.66
525.13	52547.37
525.30	52624.60
525.47	52893.77
525.64	52853.98
525.81	52811.85
525.98	52933.56
526.16	53104.41
526.33	53099.73
526.50	53598.27
526.67	53139.52
526.84	53277.61
527.01	53034.20
527.18	53134.84
527.36	53413.37
527.53	53492.94
527.70	53654.44
527.87	53399.32
528.04	53347.83
528.21	53504.65
528.38	53525.71
528.55	53766.79
528.72	53666.14
528.89	54028.93
529.07	53757.42
529.24	53687.21
529.41	53956.37
529.58	53766.79
529.75	54167.02
529.92	54251.28
530.09	54012.54
530.26	54398.73
530.43	54454.90
530.60	54120.21
530.77	54396.39
530.94	54382.35
531.11	54431.50
531.28	54553.21
531.46	54571.93
531.63	54450.22
531.80	54705.34
531.97	54915.99
532.14	55002.59
532.31	54920.67
532.48	54897.27
532.65	55061.10
532.82	54827.05
532.99	55042.38
533.16	54829.39
533.33	55320.90
533.50	55058.76
533.67	54995.57
533.84	55054.08
534.01	55007.27
534.18	55089.19
534.35	55669.64
534.52	55468.36
534.69	55561.98
534.86	55416.86
535.03	55325.58
535.20	55611.13
535.37	55608.79
535.54	55639.22
535.71	55473.04
535.88	55650.92
536.05	55943.48
536.22	55667.30
536.38	55852.20
536.55	55931.78
536.72	56032.42
536.89	56081.58
537.06	55938.80
537.23	56062.85
537.40	55751.56
537.57	56041.79
537.74	56116.68
537.91	56095.62
538.08	56250.09
538.25	56282.86
538.42	56093.28
538.59	56271.16
538.75	56114.34
538.92	56423.29
539.09	56720.54
539.26	56259.46
539.43	56467.76
539.60	56463.08
539.77	56561.39
539.94	56750.97
540.11	56554.36
540.28	56788.42
540.44	56699.48
540.61	56811.82
540.78	56708.84
540.95	56800.12
541.12	56638.62
541.29	56741.61
541.46	56882.04
541.62	56788.42
541.79	56718.20
541.96	56795.44
542.13	56877.36
542.30	56839.91
542.47	57286.95
542.63	57139.50
542.80	57127.80
542.97	57317.38
543.14	57193.33
543.31	57310.36
543.48	57766.76
543.64	57794.85
543.81	57605.26
543.98	57563.14
544.15	57731.65
544.32	57776.12
544.48	57684.84
544.65	57598.24
544.82	57682.50
544.99	57635.69
545.16	57867.40
545.32	57773.78
545.49	58028.90
545.66	58031.24
545.83	57895.49
546.00	57951.66
546.16	57986.77
546.33	57855.70
546.50	57844.00
546.67	57797.19
546.83	57741.02
547.00	58141.25
547.17	58089.76
547.34	58003.16
547.50	58195.08
547.67	58347.21
547.84	58145.93
548.00	58375.30
548.17	58513.39
548.34	58269.98
548.51	58445.52
548.67	58541.48
548.84	58274.66
549.01	58450.20
549.18	58424.45
549.34	58527.44
549.51	58803.62
549.68	58452.54
549.84	58770.85
550.01	58801.28
550.18	58403.39
550.34	58761.49
550.51	58688.93
550.68	58667.87
550.84	58419.77
551.01	58822.34
551.18	58691.27
551.34	58880.86
551.51	58749.79
551.68	58805.96
551.84	58735.74
552.01	58731.06
552.18	58988.52
552.34	58777.87
552.51	58906.60
552.68	58805.96
552.84	58981.50
553.01	58974.48
553.18	59096.19
553.34	59154.70
553.51	58918.31
553.67	59061.08
553.84	59035.33
554.01	59341.94
554.17	59400.46
554.34	59243.64
554.51	59100.87
554.67	59475.35
554.84	59409.82
555.00	59433.22
555.17	59285.77
555.33	59304.49
555.50	59203.85
555.67	59234.28
555.83	59203.85
556.00	59547.91
556.16	59718.77
556.33	59622.81
556.50	59306.83
556.66	59723.45
556.83	59508.12
556.99	59618.13
557.16	59716.43
557.32	59833.46
557.49	59796.01
557.65	59669.62
557.82	59557.27
557.98	59517.48
558.15	59887.29
558.32	59662.60
558.48	59693.02
558.65	59861.54
558.81	59723.45
558.98	59828.77
559.14	59908.35
559.31	59969.21
559.47	59980.91
559.64	60025.38
559.80	59906.01
559.97	59929.42
560.13	59824.09
560.30	60196.24
560.46	59812.39
560.63	59943.46
560.79	60032.40
560.96	60355.39
561.12	60278.16
561.29	60039.42
561.45	60238.37
561.61	60041.76
561.78	60058.15
561.94	60151.77
562.11	59976.23
562.27	60097.94
562.44	60175.17
562.60	60315.61
562.77	60182.19
562.93	60388.16
563.10	60076.87
563.26	60140.07
563.42	60376.46
563.59	60261.77
563.75	60193.90
563.92	60191.56
564.08	60165.81
564.24	60486.46
564.41	60395.18
564.57	60484.12
564.74	60463.06
564.90	60346.03
565.07	60519.23
565.23	60617.53
565.39	60348.37
565.56	60507.53
565.72	60339.01
565.88	60647.96
566.05	60203.26
566.21	60369.44
566.38	60416.25
566.54	60556.68
566.70	60495.83
566.87	60643.28
567.03	60343.69
567.19	60889.04
567.36	60669.03
567.52	60472.42
567.68	60753.29
567.85	60755.63
568.01	60533.28
568.17	60638.60
568.34	60727.54
568.50	60645.62
568.66	60353.05
568.83	60629.24
568.99	60456.04
569.15	60713.50
569.32	60624.56
569.48	60577.75
569.64	60774.35
569.81	60725.20
569.97	60577.75
570.13	60563.70
570.30	60659.66
570.46	60856.27
570.62	60786.05
570.78	60690.09
570.95	60720.52
571.11	60985.00
571.27	60788.39
571.43	60652.64
571.60	60924.14
571.76	60935.85
571.92	60839.89
572.09	60931.17
572.25	60970.96
572.41	60671.37
572.57	60870.31
572.74	61010.74
572.90	60727.54
573.06	60809.46
573.22	60814.14
573.38	60910.10
573.55	60968.61
573.71	61055.21
573.87	60807.12
574.03	60809.46
574.20	60860.95
574.36	60750.94
574.52	61095.00
574.68	60860.95
574.84	61031.81
575.01	60860.95
575.17	60977.98
575.33	60945.21
575.49	60966.27
575.65	61099.68
575.82	61066.92
575.98	61087.98
576.14	61237.78
576.30	60977.98
576.46	61001.38
576.62	60872.65
576.79	60921.80
576.95	60931.17
577.11	61104.37
577.27	61109.05
577.43	61052.87
577.59	61022.45
577.75	61064.58
577.92	61041.17
578.08	60860.95
578.24	61027.13
578.40	61083.30
578.56	61228.41
578.72	61064.58
578.88	61151.18
579.04	61193.31
579.21	60956.91
579.37	61193.31
579.53	61286.93
579.69	60989.68
579.85	61008.40
580.01	61202.67
580.17	61158.20
580.33	60954.57
580.49	61237.78
580.65	61174.58
580.82	61010.74
580.98	60999.04
581.14	61085.64
581.30	61352.46
581.46	61102.03
581.62	61169.90
581.78	61207.35
581.94	61263.52
582.10	61207.35
582.26	61364.17
582.42	61265.86
582.58	61237.78
582.74	61214.37
582.90	61146.50
583.06	61153.52
583.22	61071.60
583.38	61212.03
583.54	61120.75
583.70	61354.80
583.86	61387.57
584.02	61118.41
584.18	61242.46
584.34	61497.58
584.50	61333.74
584.66	61387.57
584.82	61111.39
584.98	61406.30
585.14	61195.65
585.30	61090.32
585.46	61233.10
585.62	61186.28
585.78	61462.47
585.94	61073.94
586.10	61279.91
586.26	61425.02
586.42	61258.84
586.58	61410.98
586.74	61258.84
586.90	61116.07
587.06	61240.12
587.22	61579.49
587.38	61293.95
587.54	61375.87
587.70	61513.96
587.86	61249.48
588.02	61392.25
588.18	61509.28
588.34	61413.32
588.49	61340.76
