SpectraSuite Data File
++++++++++++++++++++++++++++++++++++
Date: Fri Oct 25 11:25:48 EDT 2013
User: price-jones
Dark Spectrum Present: No
Reference Spectrum Present: No
Number of Sampled Component Spectra: 1
Spectrometers: USB2+H05261
Integration Time (usec): 100000 (USB2+H05261)
Spectra Averaged: 1 (USB2+H05261)
Boxcar Smoothing: 0 (USB2+H05261)
Correct for Electrical Dark: No (USB2+H05261)
Strobe/Lamp Enabled: No (USB2+H05261)
Correct for Detector Non-linearity: No (USB2+H05261)
Correct for Stray Light: No (USB2+H05261)
Number of Pixels in Processed Spectrum: 2048
>>>>>Begin Processed Spectral Data<<<<<
365.73	220.01
365.92	220.01
366.12	220.01
366.32	145.11
366.52	152.13
366.72	100.64
366.91	173.20
367.11	98.30
367.31	133.41
367.51	105.32
367.70	107.66
367.90	119.37
368.10	107.66
368.30	156.82
368.49	140.43
368.69	128.73
368.89	159.16
369.09	88.94
369.28	175.54
369.48	177.88
369.68	201.29
369.87	224.69
370.07	248.10
370.27	238.73
370.47	362.78
370.66	620.24
370.86	617.90
371.06	678.76
371.25	727.91
371.45	669.39
371.65	657.69
371.84	629.60
372.04	655.35
372.24	730.25
372.44	723.23
372.63	699.82
372.83	697.48
373.03	751.31
373.22	741.95
373.42	791.10
373.62	781.74
373.81	751.31
374.01	819.19
374.21	777.06
374.40	772.38
374.60	847.27
374.79	844.93
374.99	802.80
375.19	816.85
375.38	851.96
375.58	835.57
375.78	873.02
375.97	772.38
376.17	835.57
376.37	922.17
376.56	961.96
376.76	805.14
376.95	896.43
377.15	926.85
377.35	809.83
377.54	971.32
377.74	929.19
377.93	887.06
378.13	936.21
378.33	931.53
378.52	847.27
378.72	945.58
378.91	957.28
379.11	884.72
379.31	884.72
379.50	945.58
379.70	1062.60
379.89	961.96
380.09	940.90
380.28	959.62
380.48	959.62
380.68	898.77
380.87	961.96
381.07	1029.84
381.26	1078.99
381.46	994.73
381.65	922.17
381.85	1069.62
382.04	1004.09
382.24	983.02
382.43	1100.05
382.63	1132.82
382.83	1081.33
383.02	1174.95
383.22	1153.88
383.41	1135.16
383.61	1046.22
383.80	1151.54
384.00	1139.84
384.19	1193.67
384.39	1172.61
384.58	1107.07
384.78	1200.69
384.97	1135.16
385.17	1163.25
385.36	1181.97
385.56	1181.97
385.75	1212.40
385.95	1261.55
386.14	1224.10
386.34	1242.82
386.53	1214.74
386.72	1172.61
386.92	1198.35
387.11	1249.85
387.31	1252.19
387.50	1226.44
387.70	1282.61
387.89	1282.61
388.09	1184.31
388.28	1357.51
388.48	1282.61
388.67	1263.89
388.86	1226.44
389.06	1299.00
389.25	1313.04
389.45	1331.76
389.64	1331.76
389.84	1275.59
390.03	1364.53
390.22	1490.92
390.42	1331.76
390.61	1451.13
390.81	1369.21
391.00	1441.77
391.19	1446.45
391.39	1383.26
391.58	1343.47
391.78	1383.26
391.97	1486.24
392.16	1526.03
392.36	1535.39
392.55	1453.47
392.75	1570.50
392.94	1577.52
393.13	1507.30
393.33	1572.84
393.52	1526.03
393.71	1614.97
393.91	1516.67
394.10	1511.99
394.29	1551.78
394.49	1722.63
394.68	1593.90
394.88	1661.78
395.07	1631.35
395.26	1741.36
395.46	1703.91
395.65	1675.82
395.84	1687.53
396.04	1823.28
396.23	1729.66
396.42	1743.70
396.62	1900.52
396.81	1760.08
397.00	1757.74
397.19	1823.28
397.39	1736.68
397.58	1701.57
397.77	1825.62
397.97	1825.62
398.16	1834.98
398.35	1799.87
398.55	1837.32
398.74	1879.45
398.93	2010.52
399.12	1818.60
399.32	1818.60
399.51	1909.88
399.70	2045.63
399.90	1961.37
400.09	1968.39
400.28	2001.16
400.47	1980.09
400.67	2113.50
400.86	2078.40
401.05	2054.99
401.24	2101.80
401.44	2083.08
401.63	2157.97
401.82	2246.91
402.01	2024.56
402.21	2211.81
402.40	2211.81
402.59	2181.38
402.78	2260.96
402.97	2239.89
403.17	2265.64
403.36	2120.53
403.55	2298.41
403.74	2394.37
403.93	2331.17
404.13	2338.20
404.32	2363.94
404.51	2282.02
404.70	2408.41
404.89	2396.71
405.09	2478.63
405.28	2502.03
405.47	2408.41
405.66	2448.20
405.85	2457.56
406.05	2462.24
406.24	2546.50
406.43	2679.91
406.62	2565.23
406.81	2637.78
407.00	2635.44
407.20	2654.17
407.39	2619.06
407.58	2717.36
407.77	2754.81
407.96	2614.38
408.15	2722.04
408.34	2740.77
408.54	2616.72
408.73	2827.37
408.92	2825.03
409.11	2846.09
409.30	2911.63
409.49	2885.88
409.68	2913.97
409.87	3035.67
410.07	2953.76
410.26	2902.26
410.45	2995.89
410.64	3000.57
410.83	3070.78
411.02	3148.02
411.21	3183.13
411.40	3096.53
411.59	3213.56
411.78	3122.27
411.98	3098.87
412.17	3232.28
412.36	3318.88
412.55	3328.24
412.74	3391.44
412.93	3513.14
413.12	3344.63
413.31	3482.72
413.50	3386.76
413.69	3468.67
413.88	3559.95
414.07	3517.83
414.26	3588.04
414.45	3728.47
414.64	3559.95
414.83	3684.00
415.02	3749.54
415.22	3693.37
415.41	3861.88
415.60	3768.26
415.79	3962.53
415.98	4011.68
416.17	3964.87
416.36	3899.33
416.55	3976.57
416.74	4056.15
416.93	3946.14
417.12	4037.42
417.31	4058.49
417.50	4217.65
417.69	4416.59
417.88	4315.95
418.07	4339.35
418.26	4360.42
418.45	4367.44
418.64	4428.29
418.83	4479.79
419.02	4482.13
419.21	4493.83
419.39	4582.77
419.58	4531.28
419.77	4449.36
419.96	4503.19
420.15	4521.92
420.34	4629.58
420.53	4559.36
420.72	4603.83
420.91	4732.56
421.10	4692.77
421.29	4741.93
421.48	4634.26
421.67	4821.50
421.86	4779.37
422.05	4788.74
422.24	4730.22
422.43	4912.78
422.61	4889.38
422.80	4975.98
422.99	4873.00
423.18	4870.65
423.37	4994.70
423.56	4924.49
423.75	4889.38
423.94	4894.06
424.13	4601.49
424.32	4765.33
424.50	4917.47
424.69	5078.96
424.88	5036.83
425.07	4950.23
425.26	5008.75
425.45	4889.38
425.64	4816.82
425.83	5139.82
426.01	4929.17
426.20	5179.61
426.39	5116.41
426.58	5039.17
426.77	4971.30
426.96	5109.39
427.15	5048.54
427.33	5219.39
427.52	5104.71
427.71	5029.81
427.90	5256.84
428.09	5240.46
428.28	5401.96
428.46	5310.68
428.65	5160.88
428.84	5406.64
429.03	5453.45
429.22	5327.06
429.40	5481.53
429.59	5387.91
429.78	5263.86
429.97	5242.80
430.16	5462.81
430.34	5544.73
430.53	5706.23
430.72	5731.97
430.91	5533.03
431.10	5556.43
431.28	5671.12
431.47	5783.46
431.66	5827.93
431.85	5748.36
432.03	5898.15
432.22	5823.25
432.41	5888.79
432.60	5769.42
432.79	5884.11
432.97	5816.23
433.16	5949.64
433.35	5944.96
433.54	6141.57
433.72	6155.61
433.91	5881.77
434.10	6162.63
434.28	6155.61
434.47	6251.57
434.66	6298.38
434.85	6291.36
435.03	6370.94
435.22	6244.55
435.41	6291.36
435.59	6326.47
435.78	6272.64
435.97	6483.28
436.16	6574.56
436.34	6576.91
436.53	6551.16
436.72	6619.04
436.90	6326.47
437.09	6534.78
437.28	6326.47
437.46	6682.23
437.65	6567.54
437.84	6705.63
438.02	6782.87
438.21	6715.00
438.40	6560.52
438.58	6897.56
438.77	7103.53
438.96	6862.45
439.14	7155.02
439.33	7040.33
439.52	7351.62
439.70	7159.70
439.89	7456.95
440.08	7428.86
440.26	7279.07
440.45	7473.33
440.63	7456.95
440.82	7496.74
441.01	7456.95
441.19	7536.52
441.38	7599.72
441.57	7534.18
441.75	7693.34
441.94	7810.37
442.12	7761.22
442.31	7974.21
442.50	7950.80
442.68	8079.53
442.87	8035.06
443.05	8109.96
443.24	8095.91
443.43	8100.59
443.61	8315.92
443.80	8318.26
443.98	8035.06
444.17	7852.50
444.35	8156.77
444.54	8344.01
444.73	8159.11
444.91	8393.16
445.10	8542.96
445.28	8479.76
445.47	8217.62
445.65	8411.89
445.84	8318.26
446.02	8273.79
446.21	8404.86
446.39	8329.97
446.58	8446.99
446.77	8264.43
446.95	8400.18
447.14	8287.84
447.32	8500.83
447.51	8423.59
447.69	8437.63
447.88	8547.64
448.06	8498.49
448.25	8404.86
448.43	8704.45
448.62	8599.13
448.80	8451.67
448.99	8692.75
449.17	8732.54
449.36	8402.52
449.54	8734.88
449.73	8894.04
449.91	8975.95
450.10	8847.22
450.28	8952.55
450.46	9139.79
450.65	8922.12
450.83	8964.25
451.02	9165.54
451.20	9135.11
451.39	9249.80
451.57	9048.51
451.76	9088.30
451.94	9132.77
452.13	9334.06
452.31	9200.65
452.49	8982.98
452.68	9259.16
452.86	9308.31
453.05	9474.49
453.23	9652.37
453.42	9247.46
453.60	9380.87
453.78	9486.19
453.97	9432.36
454.15	9451.08
454.34	9572.79
454.52	9635.99
454.70	9621.94
454.89	9540.02
455.07	9797.48
455.26	9902.81
455.44	9905.15
455.62	9792.80
455.81	9949.62
455.99	9724.93
456.17	9891.10
456.36	9895.78
456.54	9994.09
456.73	10057.28
456.91	10300.70
457.09	10441.13
457.28	10516.03
457.46	10307.72
457.64	10511.35
457.83	10691.57
458.01	10609.65
458.19	10736.04
458.38	10609.65
458.56	10740.72
458.74	10693.91
458.93	10619.01
459.11	10895.19
459.29	10743.06
459.48	10651.78
459.66	10878.81
459.84	10696.25
460.03	10881.15
460.21	10991.16
460.39	10834.34
460.57	10885.83
460.76	10899.87
460.94	11206.48
461.12	11187.76
461.31	11068.39
461.49	11199.46
461.67	11323.51
461.85	11438.20
462.04	11152.65
462.22	11632.46
462.40	11695.66
462.59	11377.34
462.77	11576.29
462.95	11641.82
463.13	11625.44
463.32	11543.52
463.50	11669.91
463.68	11817.36
463.86	11674.59
464.05	11506.07
464.23	11590.33
464.41	11740.13
464.59	11712.04
464.78	12025.67
464.96	12063.12
465.14	11742.47
465.32	12161.42
465.50	12105.25
465.69	12109.93
465.87	12189.51
466.05	12219.94
466.23	12149.72
466.41	12121.63
466.60	12343.99
466.78	11747.15
466.96	12189.51
467.14	12388.46
467.32	12133.34
467.51	12411.86
467.69	12018.65
467.87	12493.78
468.05	12521.87
468.23	12491.44
468.41	12425.90
468.60	12674.00
468.78	12676.34
468.96	12521.87
469.14	12812.09
469.32	12896.35
469.50	12489.10
469.69	12877.63
469.87	12741.88
470.05	13020.40
470.23	13029.76
470.41	13228.71
470.59	13399.57
470.77	13247.43
470.95	13062.53
471.14	13432.33
471.32	13195.94
471.50	13413.61
471.68	13444.04
471.86	13696.82
472.04	13783.41
472.22	13813.84
472.40	13764.69
472.58	13771.71
472.77	13884.06
472.95	14083.00
473.13	14548.77
473.31	14068.96
473.49	14267.91
473.67	14211.73
473.85	14061.94
474.03	14380.25
474.21	14604.94
474.39	14621.33
474.57	14609.62
474.75	14661.12
474.93	15075.39
475.12	15241.57
475.30	15009.86
475.48	15061.35
475.66	15075.39
475.84	15283.70
476.02	15386.68
476.20	14958.36
476.38	15428.81
476.56	16074.80
476.74	15997.56
476.92	15826.70
477.10	15594.99
477.28	16294.81
477.46	16180.12
477.64	16123.95
477.82	16212.89
478.00	16875.26
478.18	16690.36
478.36	16767.60
478.54	16669.30
478.72	17118.68
478.90	17338.69
479.08	17575.08
479.26	17476.78
479.44	17628.92
479.62	17942.55
479.80	18092.34
479.98	17923.82
480.16	18523.00
480.34	18490.23
480.52	18801.52
480.70	18342.78
480.88	18492.57
481.06	18511.30
481.24	18520.66
481.41	19019.19
481.59	19262.61
481.77	19199.41
481.95	19520.07
482.13	19499.00
482.31	19552.84
482.49	20259.68
482.67	20123.93
482.85	20346.28
483.03	20463.30
483.21	20723.10
483.39	20812.04
483.57	20879.92
483.74	20861.19
483.92	21219.30
484.10	21331.64
484.28	21706.13
484.46	21818.47
484.64	22061.89
484.82	21748.26
485.00	21982.31
485.18	22843.63
485.35	22831.93
485.53	22478.50
485.71	22860.01
485.89	23421.74
486.07	23105.77
486.25	23510.68
486.43	23545.79
486.61	23892.19
486.78	23644.09
486.96	24201.14
487.14	24376.68
487.32	24266.67
487.50	25046.07
487.68	24917.34
487.85	25364.39
488.03	25455.67
488.21	25640.57
488.39	25542.27
488.57	25825.47
488.75	25977.61
488.92	26551.04
489.10	26604.87
489.28	26654.02
489.46	26675.09
489.64	27007.44
489.81	27454.48
489.99	27508.32
490.17	27414.69
490.35	28367.29
490.53	28086.43
490.70	28341.55
490.88	28379.00
491.06	28903.28
491.24	28856.46
491.41	28879.87
491.59	29422.87
491.77	28968.81
491.95	29366.70
492.13	29738.85
492.30	29537.56
492.48	29965.88
492.66	29799.70
492.84	29942.47
493.01	30401.22
493.19	30548.67
493.37	30843.58
493.54	30874.01
493.72	31204.02
493.90	31445.10
494.08	31435.74
494.25	31866.39
494.43	31751.71
494.61	31985.76
494.79	32308.76
494.96	32095.77
495.14	32830.69
495.32	33022.62
495.49	32783.88
495.67	33287.10
495.85	33312.84
496.02	33586.69
496.20	34267.78
496.38	33811.38
496.55	33977.56
496.73	34852.92
496.91	34628.23
497.09	34625.89
497.26	34766.32
497.44	34841.21
497.62	35168.89
497.79	35765.73
497.97	35459.12
498.14	35557.42
498.32	36126.17
498.50	36240.86
498.67	36119.15
498.85	36102.76
499.03	36767.48
499.20	36741.73
499.38	36737.05
499.56	36744.07
499.73	37223.88
499.91	37251.97
500.08	37469.64
500.26	37193.45
500.44	37661.56
500.61	37591.34
500.79	37879.23
500.97	37787.95
501.14	38265.42
501.32	38108.60
501.49	38422.23
501.67	38522.88
501.84	39098.65
502.02	38623.52
502.20	38913.75
502.37	39269.51
502.55	39330.36
502.72	39751.66
502.90	39543.35
503.07	39290.57
503.25	40112.10
503.43	39934.22
503.60	39955.29
503.78	40189.34
503.95	39845.28
504.13	40027.84
504.30	40737.02
504.48	40383.60
504.65	40793.20
504.83	40584.89
505.01	41242.58
505.18	40886.82
505.36	41134.92
505.53	41163.00
505.71	41242.58
505.88	41586.64
506.06	41195.77
506.23	41701.32
506.41	41804.31
506.58	41968.15
506.76	41956.44
506.93	42183.48
507.11	42408.17
507.28	42487.74
507.46	42799.04
507.63	42593.07
507.81	42682.01
507.98	42756.91
508.16	43119.69
508.33	42974.58
508.50	43185.22
508.68	43601.84
508.85	43667.37
509.03	43915.47
509.20	44018.46
509.38	43861.64
509.55	44343.79
509.73	43931.86
509.90	44142.50
510.08	44210.38
510.25	44093.35
510.42	44760.40
510.60	44875.09
510.77	45378.31
510.95	45165.32
511.12	45305.75
511.30	45249.58
511.47	44928.92
511.64	45474.27
511.82	45879.18
511.99	45717.68
512.17	45397.03
512.34	45965.78
512.51	45738.75
512.69	46429.21
512.86	45972.80
513.04	46581.34
513.21	46660.92
513.38	46653.90
513.56	46653.90
513.73	46698.37
513.90	46834.12
514.08	46485.38
514.25	47072.85
514.43	47161.79
514.60	47711.82
514.77	47070.51
514.95	47620.54
515.12	47271.80
515.29	47503.51
515.47	47863.96
515.64	47803.10
515.81	47821.83
515.99	47915.45
516.16	48179.93
516.33	48222.06
516.51	48523.99
516.68	48196.31
516.85	48706.55
517.03	48582.50
517.20	49179.34
517.37	48570.80
517.54	48924.22
517.72	48807.19
517.89	48811.87
518.06	48767.40
518.24	49202.74
518.41	49443.82
518.58	49123.16
518.75	49052.95
518.93	49542.12
519.10	49322.11
519.27	49242.53
519.45	49221.47
519.62	49799.58
519.79	49429.77
519.96	49844.05
520.14	49698.94
520.31	50178.75
520.48	50302.79
520.65	50309.82
520.83	50181.09
521.00	50581.32
521.17	50127.25
521.34	50340.24
521.52	50600.04
521.69	50834.10
521.86	50581.32
522.03	50845.80
522.20	51257.73
522.38	51257.73
522.55	51428.59
522.72	51440.29
522.89	51051.76
523.07	51664.99
523.24	51721.16
523.41	51714.14
523.58	51475.40
523.75	51938.83
523.92	51503.49
524.10	51899.04
524.27	51906.06
524.44	51800.74
524.61	51992.66
524.78	52135.43
524.96	52006.70
525.13	52378.85
525.30	52545.03
525.47	52376.51
525.64	52552.05
525.81	52374.17
525.98	52673.76
526.16	52381.19
526.33	52514.60
526.50	52963.98
526.67	52828.23
526.84	53167.61
527.01	52912.49
527.18	52568.43
527.36	52832.91
527.53	53036.54
527.70	53357.19
527.87	53207.40
528.04	53144.20
528.21	53130.16
528.38	52900.79
528.55	53504.65
528.72	52947.60
528.89	53279.96
529.07	53420.39
529.24	53258.89
529.41	53525.71
529.58	53368.90
529.75	53626.35
529.92	53497.62
530.09	53537.41
530.26	54089.78
530.43	53916.58
530.60	53801.89
530.77	53832.32
530.94	53984.46
531.11	53928.28
531.28	53858.07
531.46	54262.98
531.63	54145.95
531.80	54298.09
531.97	54134.25
532.14	54284.04
532.31	54162.34
532.48	54440.86
532.65	54616.40
532.82	54438.52
532.99	54511.08
533.16	54426.82
533.33	54653.85
533.50	54834.07
533.67	54550.87
533.84	54513.42
534.01	54564.91
534.18	54773.22
534.35	55004.93
534.52	54948.76
534.69	54986.21
534.86	54789.60
535.03	55189.83
535.20	54920.67
535.37	55311.54
535.54	55154.72
535.71	55166.43
535.88	55498.78
536.05	55196.85
536.22	55447.29
536.38	55337.29
536.55	55498.78
536.72	55667.30
536.89	55407.50
537.06	55526.87
537.23	55676.66
537.40	55554.96
537.57	55714.11
537.74	55781.99
537.91	55917.74
538.08	55870.93
538.25	55543.25
538.42	55868.59
538.59	56107.32
538.75	55657.94
538.92	56112.00
539.09	56100.30
539.26	56095.62
539.43	56126.05
539.60	56039.45
539.77	56137.75
539.94	56395.21
540.11	56210.31
540.28	56329.67
540.44	56315.63
540.61	56292.22
540.78	56547.34
540.95	56385.85
541.12	56203.28
541.29	56376.48
541.46	56554.36
541.62	56563.73
541.79	56818.84
541.96	56086.26
542.13	56589.47
542.30	56540.32
542.47	56619.90
542.63	56818.84
542.80	56781.40
542.97	56978.00
543.14	57347.81
543.31	57207.37
543.48	57144.18
543.64	57263.55
543.81	57233.12
543.98	57148.86
544.15	57198.01
544.32	57336.10
544.48	57598.24
544.65	57134.82
544.82	57205.03
544.99	57291.63
545.16	57242.48
545.32	57549.09
545.49	57471.85
545.66	57635.69
545.83	57546.75
546.00	57511.64
546.16	57476.54
546.33	57497.60
546.50	57120.77
546.67	57649.74
546.83	57443.77
547.00	57530.37
547.17	57499.94
547.34	57736.34
547.50	57815.91
547.67	57984.43
547.84	58094.44
548.00	58040.60
548.17	58059.33
548.34	58085.07
548.51	58152.95
548.67	57984.43
548.84	57986.77
549.01	57872.09
549.18	58096.78
549.34	58206.78
549.51	58262.96
549.68	58216.14
549.84	58326.15
550.01	58354.24
550.18	58244.23
550.34	58461.90
550.51	58316.79
550.68	58258.27
550.84	58059.33
551.01	58333.17
551.18	58312.11
551.34	58106.14
551.51	58637.44
551.68	58595.31
551.84	58576.59
552.01	58576.59
552.18	58578.93
552.34	58281.68
552.51	58623.40
552.68	58513.39
552.84	58356.58
553.01	58738.08
553.18	58700.64
553.34	58623.40
553.51	58440.84
553.67	58770.85
553.84	58986.18
554.01	58710.00
554.17	58988.52
554.34	58864.47
554.51	58803.62
554.67	59206.19
554.84	58951.07
555.00	58883.20
555.17	58969.80
555.33	58969.80
555.50	58796.60
555.67	58845.75
555.83	58850.43
556.00	59105.55
556.16	59454.29
556.33	59285.77
556.50	59070.44
556.66	59318.54
556.83	59199.17
556.99	59341.94
557.16	59606.42
557.32	59444.93
557.49	59678.98
557.65	59512.80
557.82	59274.07
557.98	59419.18
558.15	59231.94
558.32	59353.65
558.48	59391.09
558.65	59426.20
558.81	59412.16
558.98	59395.77
559.14	59405.14
559.31	59576.00
559.47	59760.90
559.64	59564.29
559.80	59398.12
559.97	59571.32
560.13	59501.10
560.30	59718.77
560.46	59639.19
560.63	59889.63
560.79	59618.13
560.96	59824.09
561.12	59943.46
561.29	59508.12
561.45	59561.95
561.61	59700.04
561.78	59653.23
561.94	59763.24
562.11	59587.70
562.27	59678.98
562.44	59796.01
562.60	59938.78
562.77	59987.93
562.93	59678.98
563.10	59957.50
563.26	59709.41
563.42	60025.38
563.59	59887.29
563.75	59894.31
563.92	59929.42
564.08	59828.77
564.24	60196.24
564.41	60051.12
564.57	60095.60
564.74	60018.36
564.90	59924.74
565.07	60161.13
565.23	59983.25
565.39	59882.61
565.56	60301.56
565.72	59882.61
565.88	60130.70
566.05	60001.97
566.21	60144.75
566.38	60224.32
566.54	60055.81
566.70	60271.14
566.87	60280.50
567.03	59751.54
567.19	60374.12
567.36	60083.89
567.52	60299.22
567.68	60254.75
567.85	60243.05
568.01	60254.75
568.17	60303.90
568.34	60350.71
568.50	60336.67
568.66	60383.48
568.83	60418.59
568.99	60072.19
569.15	60177.51
569.32	60369.44
569.48	60306.24
569.64	60413.91
569.81	60350.71
569.97	60360.08
570.13	60423.27
570.30	60446.68
570.46	60470.08
570.62	60264.11
570.78	60432.63
570.95	60467.74
571.11	60619.88
571.27	60313.26
571.43	60374.12
571.60	60535.62
571.76	60296.88
571.92	60406.89
572.09	60458.38
572.25	60470.08
572.41	60493.49
572.57	60446.68
572.74	60619.88
572.90	60303.90
573.06	60617.53
573.22	60645.62
573.38	60364.76
573.55	60610.51
573.71	60743.92
573.87	60439.65
574.03	60638.60
574.20	60666.69
574.36	60378.80
574.52	60669.03
574.68	60500.51
574.84	60760.31
575.01	60741.58
575.17	60559.02
575.33	60470.08
575.49	60671.37
575.65	60530.93
575.82	60683.07
575.98	60701.79
576.14	60867.97
576.30	60762.65
576.46	60437.31
576.62	60666.69
576.79	60636.26
576.95	60622.22
577.11	60430.29
577.27	60853.93
577.43	60781.37
577.59	60662.00
577.75	60727.54
577.92	60484.12
578.08	60809.46
578.24	60662.00
578.40	60804.78
578.56	60788.39
578.72	60865.63
578.88	60769.67
579.04	61031.81
579.21	60830.52
579.37	60793.07
579.53	60987.34
579.69	60622.22
579.85	60608.17
580.01	60828.18
580.17	60399.86
580.33	60769.67
580.49	60746.26
580.65	60772.01
580.82	60835.20
580.98	60760.31
581.14	60640.94
581.30	61027.13
581.46	60711.16
581.62	60898.40
581.78	60645.62
581.94	60753.29
582.10	60865.63
582.26	60910.10
582.42	60757.97
582.58	60914.78
582.74	60720.52
582.90	60816.48
583.06	60743.92
583.22	60722.86
583.38	60914.78
583.54	60900.74
583.70	60898.40
583.86	61134.79
584.02	60858.61
584.18	61008.40
584.34	60968.61
584.50	61165.22
584.66	60844.57
584.82	60589.45
584.98	61146.50
585.14	61095.00
585.30	60874.99
585.46	61029.47
585.62	60867.97
585.78	61090.32
585.94	60654.98
586.10	61006.06
586.26	60954.57
586.42	61062.24
586.58	61064.58
586.74	61137.13
586.90	61041.17
587.06	60891.38
587.22	61162.88
587.38	60963.93
587.54	61167.56
587.70	61123.09
587.86	60935.85
588.02	60961.59
588.18	61076.28
588.34	61034.15
588.49	60931.17
