SpectraSuite Data File
++++++++++++++++++++++++++++++++++++
Date: Fri Oct 25 11:33:54 EDT 2013
User: price-jones
Dark Spectrum Present: No
Reference Spectrum Present: No
Number of Sampled Component Spectra: 1
Spectrometers: USB2+H05261
Integration Time (usec): 100000 (USB2+H05261)
Spectra Averaged: 1 (USB2+H05261)
Boxcar Smoothing: 0 (USB2+H05261)
Correct for Electrical Dark: No (USB2+H05261)
Strobe/Lamp Enabled: No (USB2+H05261)
Correct for Detector Non-linearity: No (USB2+H05261)
Correct for Stray Light: No (USB2+H05261)
Number of Pixels in Processed Spectrum: 2048
>>>>>Begin Processed Spectral Data<<<<<
365.73	318.31
365.92	318.31
366.12	318.31
366.32	201.29
366.52	131.07
366.72	210.65
366.91	117.03
367.11	138.09
367.31	102.98
367.51	173.20
367.70	222.35
367.90	229.37
368.10	194.26
368.30	191.92
368.49	205.97
368.69	128.73
368.89	187.24
369.09	177.88
369.28	177.88
369.48	229.37
369.68	205.97
369.87	292.57
370.07	210.65
370.27	280.86
370.47	308.95
370.66	444.70
370.86	498.53
371.06	538.32
371.25	540.66
371.45	535.98
371.65	547.69
371.84	510.24
372.04	526.62
372.24	554.71
372.44	599.18
372.63	545.34
372.83	636.63
373.03	631.94
373.22	624.92
373.42	671.73
373.62	550.03
373.81	599.18
374.01	648.33
374.21	592.16
374.40	617.90
374.60	732.59
374.79	603.86
374.99	643.65
375.19	641.31
375.38	657.69
375.58	601.52
375.78	723.23
375.97	681.10
376.17	657.69
376.37	699.82
376.56	664.71
376.76	692.80
376.95	716.20
377.15	674.07
377.35	650.67
377.54	730.25
377.74	608.54
377.93	617.90
378.13	683.44
378.33	706.84
378.52	638.97
378.72	695.14
378.91	798.12
379.11	727.91
379.31	678.76
379.50	746.63
379.70	720.88
379.89	770.04
380.09	622.58
380.28	674.07
380.48	706.84
380.68	655.35
380.87	641.31
381.07	688.12
381.26	880.04
381.46	814.51
381.65	713.86
381.85	807.48
382.04	793.44
382.24	739.61
382.43	774.72
382.63	699.82
382.83	802.80
383.02	814.51
383.22	767.70
383.41	793.44
383.61	863.66
383.80	884.72
384.00	833.23
384.19	777.06
384.39	856.64
384.58	765.36
384.78	823.87
384.97	835.57
385.17	849.61
385.36	847.27
385.56	868.34
385.75	795.78
385.95	823.87
386.14	847.27
386.34	760.67
386.53	807.48
386.72	863.66
386.92	866.00
387.11	873.02
387.31	898.77
387.50	873.02
387.70	858.98
387.89	840.25
388.09	875.36
388.28	858.98
388.48	908.13
388.67	950.26
388.86	938.55
389.06	882.38
389.25	961.96
389.45	1006.43
389.64	1006.43
389.84	931.53
390.03	947.92
390.22	924.51
390.42	954.94
390.61	933.87
390.81	943.24
391.00	1041.54
391.19	966.64
391.39	1006.43
391.58	947.92
391.78	1018.13
391.97	1022.81
392.16	1020.47
392.36	1139.84
392.55	1057.92
392.75	1008.77
392.94	999.41
393.13	1057.92
393.33	1053.24
393.52	1008.77
393.71	1100.05
393.91	1034.52
394.10	1081.33
394.29	1165.59
394.49	1029.84
394.68	1107.07
394.88	1095.37
395.07	1184.31
395.26	1219.42
395.46	1172.61
395.65	1200.69
395.84	1191.33
396.04	1214.74
396.23	1196.01
396.42	1153.88
396.62	1270.91
396.81	1186.65
397.00	1219.42
397.19	1273.25
397.39	1226.44
397.58	1252.19
397.77	1259.21
397.97	1280.27
398.16	1263.89
398.35	1313.04
398.55	1294.32
398.74	1327.08
398.93	1427.73
399.12	1310.70
399.32	1329.42
399.51	1373.89
399.70	1392.62
399.90	1338.79
400.09	1362.19
400.28	1352.83
400.47	1385.60
400.67	1430.07
400.86	1366.87
401.05	1406.66
401.24	1418.36
401.44	1488.58
401.63	1418.36
401.82	1479.22
402.01	1451.13
402.21	1446.45
402.40	1418.36
402.59	1465.18
402.78	1460.49
402.97	1544.75
403.17	1476.88
403.36	1406.66
403.55	1568.16
403.74	1593.90
403.93	1568.16
404.13	1600.93
404.32	1582.20
404.51	1540.07
404.70	1654.76
404.89	1739.02
405.09	1626.67
405.28	1706.25
405.47	1823.28
405.66	1687.53
405.85	1617.31
406.05	1797.53
406.24	1767.10
406.43	1699.23
406.62	1743.70
406.81	1776.47
407.00	1717.95
407.20	1708.59
407.39	1776.47
407.58	1769.44
407.77	1949.67
407.96	1933.28
408.15	1923.92
408.34	1797.53
408.54	1823.28
408.73	1879.45
408.92	1865.41
409.11	1933.28
409.30	1949.67
409.49	1996.48
409.68	1916.90
409.87	2062.01
410.07	2059.67
410.26	1973.07
410.45	2143.93
410.64	2066.69
410.83	2090.10
411.02	2190.74
411.21	2127.55
411.40	2143.93
411.59	2282.02
411.78	2200.10
411.98	2279.68
412.17	2209.47
412.36	2244.57
412.55	2356.92
412.74	2342.88
412.93	2249.25
413.12	2282.02
413.31	2457.56
413.50	2422.45
413.69	2324.15
413.88	2605.02
414.07	2518.42
414.26	2548.84
414.45	2539.48
414.64	2502.03
414.83	2637.78
415.02	2546.50
415.22	2642.46
415.41	2647.15
415.60	2717.36
415.79	2593.31
415.98	2860.13
416.17	2665.87
416.36	2743.11
416.55	2686.94
416.74	2785.24
416.93	2799.28
417.12	2848.43
417.31	2796.94
417.50	2853.11
417.69	2827.37
417.88	2846.09
418.07	2925.67
418.26	2813.32
418.45	2899.92
418.64	3042.70
418.83	3054.40
419.02	3101.21
419.21	3098.87
419.39	3021.63
419.58	3103.55
419.77	3040.36
419.96	3096.53
420.15	3194.83
420.34	3105.89
420.53	3169.09
420.72	3155.04
420.91	3241.64
421.10	3283.77
421.29	3328.24
421.48	3304.84
421.67	3262.71
421.86	3260.37
422.05	3283.77
422.24	3258.03
422.43	3302.50
422.61	3274.41
422.80	3272.07
422.99	3297.81
423.18	3421.86
423.37	3503.78
423.56	3412.50
423.75	3393.78
423.94	3424.20
424.13	3241.64
424.32	3389.10
424.50	3363.35
424.69	3452.29
424.88	3566.98
425.07	3421.86
425.26	3363.35
425.45	3463.99
425.64	3365.69
425.83	3445.27
426.01	3578.68
426.20	3398.46
426.39	3386.76
426.58	3344.63
426.77	3478.04
426.96	3405.48
427.15	3433.57
427.33	3456.97
427.52	3379.73
427.71	3599.74
427.90	3585.70
428.09	3641.87
428.28	3676.98
428.46	3604.42
428.65	3534.21
428.84	3747.20
429.03	3871.25
429.22	3662.94
429.40	3606.77
429.59	3691.02
429.78	3609.11
429.97	3684.00
430.16	3681.66
430.34	3805.71
430.53	3791.67
430.72	3871.25
430.91	3868.91
431.10	3756.56
431.28	3920.40
431.47	3894.65
431.66	4032.74
431.85	3894.65
432.03	3889.97
432.22	4152.11
432.41	4084.23
432.60	3950.82
432.79	3922.74
432.97	4152.11
433.16	4065.51
433.35	4100.62
433.54	4070.19
433.72	4236.37
433.91	4159.13
434.10	4189.56
434.28	4187.22
434.47	4245.73
434.66	4117.00
434.85	4280.84
435.03	4280.84
435.22	4294.88
435.41	4383.82
435.59	4414.25
435.78	4472.76
435.97	4299.56
436.16	4454.04
436.34	4376.80
436.53	4390.84
436.72	4482.13
436.90	4376.80
437.09	4631.92
437.28	4531.28
437.46	4554.68
437.65	4484.47
437.84	4496.17
438.02	4524.26
438.21	4510.21
438.40	4503.19
438.58	4770.01
438.77	4779.37
438.96	4723.20
439.14	4748.95
439.33	4880.02
439.52	4884.70
439.70	4968.96
439.89	4966.62
440.08	4922.15
440.26	4873.00
440.45	5064.92
440.63	5064.92
440.82	5125.77
441.01	5116.41
441.19	5163.22
441.38	5188.97
441.57	5263.86
441.75	5320.04
441.94	5329.40
442.12	5350.46
442.31	5327.06
442.50	5366.85
442.68	5401.96
442.87	5359.83
443.05	5465.15
443.24	5488.56
443.43	5493.24
443.61	5593.88
443.80	5607.92
443.98	5444.09
444.17	5406.64
444.35	5568.13
444.54	5593.88
444.73	5423.02
444.91	5612.60
445.10	5647.71
445.28	5425.36
445.47	5570.48
445.65	5528.35
445.84	5724.95
446.02	5778.78
446.21	5570.48
446.39	5502.60
446.58	5844.32
446.77	5713.25
446.95	5710.91
447.14	5738.99
447.32	5809.21
447.51	5795.17
447.69	5722.61
447.88	5738.99
448.06	5795.17
448.25	5736.65
448.43	5788.14
448.62	5809.21
448.80	5762.40
448.99	5778.78
449.17	5783.46
449.36	5914.53
449.54	5963.68
449.73	6038.58
449.91	6108.80
450.10	6012.84
450.28	6134.54
450.46	5937.94
450.65	5907.51
450.83	6218.80
451.02	6078.37
451.20	6314.77
451.39	6197.74
451.57	6050.28
451.76	6054.97
451.94	6209.44
452.13	6279.66
452.31	6200.08
452.49	6193.06
452.68	6274.98
452.86	6211.78
453.05	6490.31
453.23	6345.19
453.42	6342.85
453.60	6354.55
453.78	6466.90
453.97	6593.29
454.15	6455.20
454.34	6270.30
454.52	6373.28
454.70	6548.82
454.89	6719.68
455.07	6551.16
455.26	6441.15
455.44	6649.46
455.62	6693.93
455.81	6612.01
455.99	6846.07
456.17	6787.55
456.36	6583.93
456.54	6808.62
456.73	6892.88
456.91	7080.12
457.09	7026.29
457.28	7105.87
457.46	6939.69
457.64	7035.65
457.83	6920.96
458.01	7012.24
458.19	6984.16
458.38	6993.52
458.56	7309.49
458.74	7382.05
458.93	7246.30
459.11	7110.55
459.29	7110.55
459.48	7279.07
459.66	7213.53
459.84	7117.57
460.03	7201.83
460.21	7370.35
460.39	7117.57
460.57	7311.83
460.76	7400.77
460.94	7398.43
461.12	7281.41
461.31	7566.95
461.49	7403.11
461.67	7499.08
461.85	7702.70
462.04	7541.21
462.22	8081.87
462.40	7712.07
462.59	7595.04
462.77	7573.97
462.95	7871.22
463.13	7702.70
463.32	7782.28
463.50	7784.62
463.68	7808.03
463.86	7941.44
464.05	7857.18
464.23	7943.78
464.41	7808.03
464.59	7786.96
464.78	8135.70
464.96	7936.76
465.14	7786.96
465.32	7892.29
465.50	7988.25
465.69	8112.30
465.87	8028.04
466.05	8325.29
466.23	8177.83
466.41	8145.06
466.60	8287.84
466.78	8056.12
466.96	8049.10
467.14	8180.17
467.32	8435.29
467.51	8280.82
467.69	8011.65
467.87	8322.94
468.05	8348.69
468.23	8346.35
468.41	8472.74
468.60	8365.07
468.78	8542.96
468.96	8451.67
469.14	8528.91
469.32	8512.53
469.50	8535.93
469.69	8507.85
469.87	8753.60
470.05	8683.39
470.23	8608.49
470.41	8697.43
470.59	8842.54
470.77	8631.90
470.95	8709.13
471.14	8840.20
471.32	8755.94
471.50	9142.13
471.68	9139.79
471.86	8992.34
472.04	8947.87
472.22	9137.45
472.40	8856.59
472.58	9167.88
472.77	9097.66
472.95	9252.14
473.13	9469.81
473.31	9397.25
473.49	9380.87
473.67	9535.34
473.85	9479.17
474.03	9652.37
474.21	9509.60
474.39	9848.97
474.57	9874.72
474.75	10015.15
474.93	9912.17
475.12	9865.36
475.30	9933.23
475.48	9898.13
475.66	10146.22
475.84	9949.62
476.02	10022.17
476.20	10127.50
476.38	10291.34
476.56	10600.29
476.74	10356.87
476.92	10476.24
477.10	10537.09
477.28	10670.50
477.46	10759.44
477.64	10635.39
477.82	10785.19
478.00	10876.47
478.18	10885.83
478.36	11080.10
478.54	11246.27
478.72	11445.22
478.90	11337.56
479.08	11461.60
479.26	11454.58
479.44	11627.78
479.62	11800.98
479.80	11735.45
479.98	11957.80
480.16	12231.64
480.34	11892.26
480.52	12248.02
480.70	12327.60
480.88	12074.82
481.06	12446.97
481.24	12561.66
481.41	12514.84
481.59	12702.09
481.77	12615.49
481.95	12578.04
482.13	12922.10
482.31	12784.01
482.49	13280.20
482.67	13364.46
482.85	13556.38
483.03	13551.70
483.21	13832.57
483.39	13895.76
483.57	13661.71
483.74	13973.00
483.92	13795.12
484.10	14038.53
484.28	14366.21
484.46	14277.27
484.64	14822.61
484.82	14312.38
485.00	14614.30
485.18	14806.23
485.35	14855.38
485.53	14789.85
485.71	15129.22
485.89	15585.63
486.07	15164.33
486.25	15297.74
486.43	15309.44
486.61	15875.85
486.78	15791.59
486.96	15726.06
487.14	15999.90
487.32	16355.66
487.50	16294.81
487.68	16353.32
487.85	16018.63
488.03	16772.28
488.21	16875.26
488.39	16938.46
488.57	17053.14
488.75	16802.71
488.92	17303.58
489.10	17371.46
489.28	17568.06
489.46	17678.07
489.64	17500.19
489.81	18190.64
489.99	17914.46
490.17	18033.83
490.35	18422.36
490.53	18459.81
490.70	18452.78
490.88	18200.01
491.06	18731.31
491.24	18857.70
491.41	19173.67
491.59	18899.83
491.77	18918.55
491.95	19267.29
492.13	19653.48
492.30	19681.56
492.48	19765.82
492.66	19597.31
492.84	20236.27
493.01	20013.92
493.19	19878.17
493.37	20126.27
493.54	20472.67
493.72	20561.61
493.90	20442.24
494.08	20711.40
494.25	21151.42
494.43	20903.32
494.61	21001.63
494.79	20823.75
494.96	21270.79
495.14	21439.31
495.32	21570.38
495.49	21310.58
495.67	21486.12
495.85	21722.51
496.02	21902.73
496.20	22307.65
496.38	22211.68
496.55	22181.26
496.73	22595.53
496.91	22539.36
497.09	22672.77
497.26	22700.86
497.44	22607.23
497.62	22705.54
497.79	23290.67
497.97	23414.72
498.14	23428.76
498.32	23510.68
498.50	23601.96
498.67	23761.12
498.85	23857.08
499.03	23903.89
499.20	24077.09
499.38	24140.29
499.56	24044.32
499.73	24460.94
499.91	24432.85
500.08	24636.48
500.26	24306.46
500.44	24673.93
500.61	24812.02
500.79	24748.82
500.97	24734.78
501.14	24938.41
501.32	25013.31
501.49	25092.88
501.67	25153.74
501.84	25692.06
502.02	25113.95
502.20	25474.39
502.37	25380.77
502.55	25586.74
502.72	25736.53
502.90	26099.31
503.07	25867.60
503.25	25825.47
503.43	25806.75
503.60	26338.05
503.78	26324.01
503.95	26082.93
504.13	26167.19
504.30	26251.45
504.48	26567.42
504.65	26455.08
504.83	26899.78
505.01	27253.20
505.18	26700.83
505.36	27314.05
505.53	27143.19
505.71	26958.29
505.88	27487.25
506.06	27178.30
506.23	27370.22
506.41	27433.42
506.58	27524.70
506.76	27573.85
506.93	27730.67
507.11	27817.27
507.28	28067.70
507.46	28030.26
507.63	28154.30
507.81	28306.44
507.98	27789.18
508.16	28210.48
508.33	28278.35
508.50	28414.10
508.68	28638.80
508.85	28737.10
509.03	28701.99
509.20	28910.30
509.38	29261.38
509.55	29158.39
509.73	29125.63
509.90	29359.68
510.08	29537.56
510.25	29479.05
510.42	29329.25
510.60	29364.36
510.77	29731.83
510.95	29951.84
511.12	29649.91
511.30	29823.11
511.47	30155.46
511.64	29504.79
511.82	30015.03
511.99	30045.46
512.17	30078.22
512.34	30125.04
512.51	30705.49
512.69	30890.39
512.86	30583.78
513.04	30745.28
513.21	31000.40
513.38	31182.96
513.56	30691.44
513.73	30876.35
513.90	30761.66
514.08	30808.47
514.25	31285.94
514.43	31412.33
514.60	31704.90
514.77	31299.98
514.95	31278.92
515.12	31517.65
515.29	31501.27
515.47	31578.51
515.64	31868.73
515.81	31693.19
515.99	32266.63
516.16	32128.53
516.33	32006.83
516.51	32664.52
516.68	31976.40
516.85	32432.80
517.03	32823.67
517.20	32580.26
517.37	32364.93
517.54	32519.40
517.72	32500.68
517.89	32706.65
518.06	32879.85
518.24	32807.29
518.41	32725.37
518.58	32826.01
518.75	32645.79
518.93	33170.07
519.10	33125.60
519.27	33207.52
519.45	33116.24
519.62	33266.03
519.79	33497.75
519.96	33572.64
520.14	33869.89
520.31	33750.52
520.48	33820.74
520.65	33963.51
520.83	34092.24
521.00	33993.94
521.17	34206.93
521.34	33956.49
521.52	34391.83
521.69	34675.04
521.86	34433.96
522.03	34473.75
522.20	34412.90
522.38	35175.91
522.55	34735.89
522.72	34623.54
522.89	34831.85
523.07	35033.14
523.24	34981.65
523.41	35281.24
523.58	35072.93
523.75	35187.61
523.92	35211.02
524.10	35363.15
524.27	35501.25
524.44	35229.74
524.61	36046.59
524.78	35667.42
524.96	35812.54
525.13	36114.47
525.30	35943.61
525.47	35700.19
525.64	36037.23
525.81	36184.68
525.98	35924.88
526.16	36222.13
526.33	35974.03
526.50	36486.61
526.67	36318.09
526.84	36229.15
527.01	35995.10
527.18	36807.26
527.36	36505.34
527.53	36266.60
527.70	37099.83
527.87	37001.53
528.04	36800.24
528.21	36549.81
528.38	36488.95
528.55	37188.77
528.72	37017.91
528.89	37476.66
529.07	37006.21
529.24	37338.57
529.41	37214.52
529.58	37376.01
529.75	36950.04
529.92	37551.56
530.09	37216.86
530.26	37776.25
530.43	37331.54
530.60	37038.98
530.77	37750.50
530.94	37879.23
531.11	37696.67
531.28	37893.27
531.46	37818.38
531.63	37804.33
531.80	37998.60
531.97	37778.59
532.14	37841.78
532.31	38050.09
532.48	38206.90
532.65	38415.21
532.82	38337.98
532.99	38312.23
533.16	38155.41
533.33	38143.71
533.50	38326.27
533.67	38249.03
533.84	38075.84
534.01	38845.87
534.18	38663.31
534.35	38670.33
534.52	39122.05
534.69	39203.97
534.86	38906.73
535.03	39079.92
535.20	39002.69
535.37	39531.65
535.54	39332.70
535.71	39330.36
535.88	39335.04
536.05	39583.14
536.22	39608.89
536.38	39363.13
536.55	39407.60
536.72	39402.92
536.89	39508.24
537.06	39648.68
537.23	39828.90
537.40	39548.03
537.57	39449.73
537.74	39707.19
537.91	39831.24
538.08	39629.95
538.25	39143.12
538.42	39927.20
538.59	39714.21
538.75	40175.30
538.92	40348.50
539.09	40584.89
539.26	40294.66
539.43	40322.75
539.60	40561.48
539.77	40313.39
539.94	40509.99
540.11	40414.03
540.28	40676.17
540.44	40722.98
540.61	40247.85
540.78	40685.53
540.95	40414.03
541.12	40589.57
541.29	40425.73
541.46	40945.33
541.62	40851.71
541.79	40898.52
541.96	40474.88
542.13	40793.20
542.30	40882.14
542.47	41146.62
542.63	40814.26
542.80	41326.84
542.97	41762.18
543.14	41839.42
543.31	41677.92
543.48	41209.81
543.64	42218.58
543.81	42047.72
543.98	41808.99
544.15	41535.15
544.32	41773.88
544.48	42073.47
544.65	42000.91
544.82	41921.34
544.99	41834.74
545.16	42164.75
545.32	42120.28
545.49	42309.86
545.66	42586.05
545.83	42333.27
546.00	42344.97
546.16	41947.08
546.33	42106.24
546.50	42178.79
546.67	42614.13
546.83	42031.34
547.00	42195.18
547.17	42581.37
547.34	42462.00
547.50	42632.86
547.67	42684.35
547.84	42328.59
548.00	42724.14
548.17	43030.75
548.34	43124.37
548.51	43255.44
548.67	43037.77
548.84	42590.73
549.01	42817.76
549.18	42752.23
549.34	43569.07
549.51	43229.69
549.68	43447.36
549.84	43288.21
550.01	43033.09
550.18	43124.37
550.34	43164.16
550.51	43742.27
550.68	44168.25
550.84	42782.65
551.01	43871.00
551.18	43440.34
551.34	43660.35
551.51	43711.84
551.68	43398.21
551.84	43503.54
552.01	43374.81
552.18	43810.15
552.34	43419.28
552.51	44027.82
552.68	43545.67
552.84	43555.03
553.01	43995.05
553.18	44072.29
553.34	43763.34
553.51	43452.05
553.67	43805.47
553.84	44105.06
554.01	43702.48
554.17	44081.65
554.34	44470.18
554.51	44275.91
554.67	44580.18
554.84	44341.45
555.00	44362.51
555.17	43941.22
555.33	44397.62
555.50	44313.36
555.67	44219.74
555.83	44439.75
556.00	44617.63
556.16	44779.13
556.33	44678.49
556.50	44844.66
556.66	44676.15
556.83	44488.90
556.99	44561.46
557.16	44828.28
557.32	45052.97
557.49	44741.68
557.65	44772.11
557.82	44552.10
557.98	44917.22
558.15	45038.93
558.32	44917.22
558.48	44446.77
558.65	44926.58
558.81	44947.65
558.98	44837.64
559.14	44634.02
559.31	45233.19
559.47	45132.55
559.64	45453.20
559.80	45029.57
559.97	45303.41
560.13	44870.41
560.30	45048.29
560.46	45705.98
560.63	45603.00
560.79	45368.94
560.96	45708.32
561.12	45350.22
561.29	45488.31
561.45	45595.98
561.61	45179.36
561.78	45202.77
561.94	45085.74
562.11	45291.71
562.27	45853.44
562.44	45434.48
562.60	45284.68
562.77	45682.58
562.93	45694.28
563.10	45593.64
563.26	45537.46
563.42	46241.96
563.59	45469.59
563.75	45441.50
563.92	45652.15
564.08	45610.02
564.24	45790.24
564.41	45638.11
564.57	45811.31
564.74	45628.74
564.90	45317.45
565.07	45790.24
565.23	45656.83
565.39	46031.32
565.56	45713.00
565.72	46220.90
565.88	46059.40
566.05	45553.85
566.21	45794.92
566.38	46096.85
566.54	45827.69
566.70	45862.80
566.87	45982.16
567.03	45715.34
567.19	46412.82
567.36	46054.72
567.52	46108.55
567.68	46492.40
567.85	46344.95
568.01	46557.94
568.17	45837.05
568.34	46476.02
568.50	46302.82
568.66	45947.06
568.83	46178.77
568.99	46202.18
569.15	46424.53
569.32	46473.68
569.48	46244.30
569.64	46185.79
569.81	46469.00
569.97	46534.53
570.13	46417.50
570.30	45947.06
570.46	46103.87
570.62	46454.95
570.78	46391.76
570.95	46562.62
571.11	46656.24
571.27	46396.44
571.43	46209.20
571.60	46525.17
571.76	46082.81
571.92	46415.16
572.09	46293.46
572.25	46464.32
572.41	46405.80
572.57	46726.46
572.74	47077.54
572.90	46555.60
573.06	46686.67
573.22	46700.71
573.38	46515.81
573.55	46522.83
573.71	47147.75
573.87	46581.34
574.03	46265.37
574.20	47105.62
574.36	46862.21
574.52	46543.89
574.68	46663.26
574.84	46787.31
575.01	46714.75
575.17	46871.57
575.33	46724.11
575.49	46574.32
575.65	46733.48
575.82	47173.50
575.98	46333.24
576.14	47295.21
576.30	47180.52
576.46	46649.22
576.62	46590.70
576.79	46534.53
576.95	46656.24
577.11	46763.90
577.27	46258.35
577.43	46426.87
577.59	46703.05
577.75	46780.29
577.92	46651.56
578.08	46997.96
578.24	46749.86
578.40	47089.24
578.56	46962.85
578.72	46604.75
578.88	47140.73
579.04	46520.49
579.21	46979.23
579.37	46735.82
579.53	46834.12
579.69	46490.06
579.85	47019.02
580.01	46911.36
580.17	46822.42
580.33	46740.50
580.49	46909.02
580.65	47082.22
580.82	46609.43
580.98	46621.13
581.14	46501.76
581.30	47257.76
581.46	46810.71
581.62	46883.27
581.78	46979.23
581.94	46602.41
582.10	46791.99
582.26	46862.21
582.42	46815.40
582.58	47416.91
582.74	47086.90
582.90	46801.35
583.06	47063.49
583.22	46876.25
583.38	47133.71
583.54	47037.75
583.70	47000.30
583.86	47213.29
584.02	47274.14
584.18	47171.16
584.34	47023.70
584.50	47175.84
584.66	47058.81
584.82	46962.85
584.98	47557.35
585.14	47007.32
585.30	47105.62
585.46	47004.98
585.62	46777.95
585.78	47103.28
585.94	47033.07
586.10	47316.27
586.26	46625.81
586.42	47309.25
586.58	46794.33
586.74	47166.48
586.90	46953.49
587.06	47290.52
587.22	47224.99
587.38	47133.71
587.54	47028.38
587.70	47367.76
587.86	47278.82
588.02	46789.65
588.18	47082.22
588.34	46937.10
588.49	47311.59
588.65	46972.21
588.81	47334.99
588.97	47274.14
589.13	47344.36
589.29	47084.56
589.45	47828.85
589.61	47662.67
589.77	47498.83
589.93	47395.85
590.08	47519.90
