SpectraSuite Data File
++++++++++++++++++++++++++++++++++++
Date: Fri Oct 25 11:23:04 EDT 2013
User: price-jones
Dark Spectrum Present: No
Reference Spectrum Present: No
Number of Sampled Component Spectra: 1
Spectrometers: USB2+H05261
Integration Time (usec): 100000 (USB2+H05261)
Spectra Averaged: 1 (USB2+H05261)
Boxcar Smoothing: 0 (USB2+H05261)
Correct for Electrical Dark: No (USB2+H05261)
Strobe/Lamp Enabled: No (USB2+H05261)
Correct for Detector Non-linearity: No (USB2+H05261)
Correct for Stray Light: No (USB2+H05261)
Number of Pixels in Processed Spectrum: 2048
>>>>>Begin Processed Spectral Data<<<<<
365.73	241.08
365.92	241.08
366.12	241.08
366.32	149.79
366.52	154.48
366.72	128.73
366.91	100.64
367.11	102.98
367.31	147.45
367.51	124.05
367.70	119.37
367.90	102.98
368.10	117.03
368.30	86.60
368.49	84.26
368.69	152.13
368.89	198.95
369.09	131.07
369.28	107.66
369.48	177.88
369.68	194.26
369.87	194.26
370.07	187.24
370.27	196.60
370.47	313.63
370.66	517.26
370.86	589.82
371.06	660.03
371.25	688.12
371.45	557.05
371.65	664.71
371.84	730.25
372.04	622.58
372.24	713.86
372.44	643.65
372.63	770.04
372.83	641.31
373.03	774.72
373.22	753.65
373.42	777.06
373.62	751.31
373.81	798.12
374.01	814.51
374.21	826.21
374.40	795.78
374.60	837.91
374.79	819.19
374.99	821.53
375.19	866.00
375.38	837.91
375.58	868.34
375.78	880.04
375.97	753.65
376.17	805.14
376.37	791.10
376.56	844.93
376.76	889.40
376.95	854.30
377.15	840.25
377.35	903.45
377.54	842.59
377.74	922.17
377.93	875.36
378.13	812.17
378.33	945.58
378.52	938.55
378.72	903.45
378.91	938.55
379.11	891.74
379.31	812.17
379.50	966.64
379.70	999.41
379.89	1011.11
380.09	968.98
380.28	910.47
380.48	905.79
380.68	950.26
380.87	1008.77
381.07	1053.24
381.26	1008.77
381.46	943.24
381.65	1015.79
381.85	1069.62
382.04	1097.71
382.24	1004.09
382.43	1081.33
382.63	1090.69
382.83	1071.97
383.02	1097.71
383.22	1158.57
383.41	1020.47
383.61	1109.41
383.80	1231.12
384.00	1198.35
384.19	1146.86
384.39	1048.56
384.58	1163.25
384.78	1135.16
384.97	1130.48
385.17	1167.93
385.36	1142.18
385.56	1130.48
385.75	1165.59
385.95	1086.01
386.14	1231.12
386.34	1177.29
386.53	1144.52
386.72	1240.48
386.92	1270.91
387.11	1308.36
387.31	1224.10
387.50	1345.81
387.70	1226.44
387.89	1224.10
388.09	1277.93
388.28	1359.85
388.48	1196.01
388.67	1259.21
388.86	1275.59
389.06	1359.85
389.25	1273.25
389.45	1390.28
389.64	1322.40
389.84	1385.60
390.03	1423.05
390.22	1401.98
390.42	1373.89
390.61	1331.76
390.81	1359.85
391.00	1432.41
391.19	1521.35
391.39	1458.15
391.58	1568.16
391.78	1519.01
391.97	1348.15
392.16	1404.32
392.36	1523.69
392.55	1507.30
392.75	1565.82
392.94	1528.37
393.13	1479.22
393.33	1598.59
393.52	1469.86
393.71	1636.03
393.91	1467.52
394.10	1521.35
394.29	1514.33
394.49	1607.95
394.68	1706.25
394.88	1629.01
395.07	1713.27
395.26	1694.55
395.46	1757.74
395.65	1736.68
395.84	1776.47
396.04	1783.49
396.23	1753.06
396.42	1720.29
396.62	1762.42
396.81	1727.32
397.00	1771.79
397.19	1898.17
397.39	1895.83
397.58	1785.83
397.77	1767.10
397.97	1914.56
398.16	1781.15
398.35	1790.51
398.55	1778.81
398.74	1886.47
398.93	1968.39
399.12	1856.04
399.32	1987.11
399.51	1994.14
399.70	1949.67
399.90	2019.88
400.09	2101.80
400.28	2026.90
400.47	1940.30
400.67	2085.42
400.86	2080.74
401.05	2050.31
401.24	2038.61
401.44	2190.74
401.63	2099.46
401.82	2181.38
402.01	2073.71
402.21	2169.68
402.40	2230.53
402.59	2181.38
402.78	2148.61
402.97	2298.41
403.17	2298.41
403.36	2267.98
403.55	2289.04
403.74	2265.64
403.93	2399.05
404.13	2476.29
404.32	2520.76
404.51	2438.84
404.70	2370.96
404.89	2387.35
405.09	2518.42
405.28	2476.29
405.47	2373.30
405.66	2511.39
405.85	2537.14
406.05	2579.27
406.24	2539.48
406.43	2487.99
406.62	2588.63
406.81	2665.87
407.00	2527.78
407.20	2567.57
407.39	2658.85
407.58	2806.30
407.77	2719.70
407.96	2745.45
408.15	2775.88
408.34	2757.15
408.54	2876.52
408.73	2867.16
408.92	2820.35
409.11	2932.69
409.30	2820.35
409.49	2867.16
409.68	2998.23
409.87	2979.50
410.07	2916.31
410.26	3075.46
410.45	2995.89
410.64	3084.83
410.83	3197.17
411.02	3112.91
411.21	3220.58
411.40	3033.33
411.59	3260.37
411.78	3192.49
411.98	3248.66
412.17	3286.11
412.36	3382.07
412.55	3325.90
412.74	3314.20
412.93	3372.71
413.12	3337.60
413.31	3559.95
413.50	3559.95
413.69	3375.05
413.88	3508.46
414.07	3578.68
414.26	3620.81
414.45	3637.19
414.64	3735.50
414.83	3730.81
415.02	3786.99
415.22	3882.95
415.41	3864.22
415.60	3929.76
415.79	3971.89
415.98	3941.46
416.17	3948.48
416.36	4107.64
416.55	4007.00
416.74	4042.11
416.93	4049.13
417.12	4163.81
417.31	4259.78
417.50	4173.18
417.69	4409.57
417.88	4329.99
418.07	4290.20
418.26	4423.61
418.45	4329.99
418.64	4552.34
418.83	4442.34
419.02	4397.87
419.21	4622.56
419.39	4465.74
419.58	4486.81
419.77	4554.68
419.96	4568.73
420.15	4704.48
420.34	4638.94
420.53	4568.73
420.72	4589.79
420.91	4758.31
421.10	4938.53
421.29	4887.04
421.48	4823.84
421.67	4856.61
421.86	4704.48
422.05	4833.21
422.24	4975.98
422.43	4887.04
422.61	4868.31
422.80	4917.47
422.99	4814.48
423.18	4968.96
423.37	5055.56
423.56	5043.85
423.75	4926.83
423.94	4880.02
424.13	4685.75
424.32	4737.24
424.50	5006.41
424.69	5172.58
424.88	5060.24
425.07	5001.72
425.26	4959.60
425.45	4971.30
425.64	5011.09
425.83	4947.89
426.01	5128.11
426.20	5121.09
426.39	5123.43
426.58	5163.22
426.77	5193.65
426.96	5226.42
427.15	5015.77
427.33	5315.36
427.52	5146.84
427.71	5322.38
427.90	5235.78
428.09	5341.10
428.28	5411.32
428.46	5263.86
428.65	5589.20
428.84	5657.07
429.03	5603.24
429.22	5458.13
429.40	5579.84
429.59	5605.58
429.78	5371.53
429.97	5217.05
430.16	5584.52
430.34	5785.80
430.53	5717.93
430.72	5731.97
430.91	5638.35
431.10	5589.20
431.28	5743.67
431.47	5804.53
431.66	5989.43
431.85	5797.51
432.03	5898.15
432.22	6057.31
432.41	5902.83
432.60	6059.65
432.79	6139.23
432.97	6052.63
433.16	6083.05
433.35	6078.37
433.54	6221.14
433.72	6179.01
433.91	6263.27
434.10	6225.82
434.28	6218.80
434.47	6340.51
434.66	6286.68
434.85	6401.37
435.03	6401.37
435.22	6352.21
435.41	6637.76
435.59	6375.62
435.78	6621.38
435.97	6462.22
436.16	6548.82
436.34	6429.45
436.53	6462.22
436.72	6619.04
436.90	6595.63
437.09	6700.95
437.28	6506.69
437.46	6647.12
437.65	6668.19
437.84	6794.58
438.02	6766.49
438.21	6883.52
438.40	6759.47
438.58	6998.20
438.77	7054.37
438.96	6963.09
439.14	7304.81
439.33	7332.90
439.52	7218.21
439.70	7208.85
439.89	7515.46
440.08	7368.01
440.26	7440.56
440.45	7403.11
440.63	7597.38
440.82	7707.38
441.01	7520.14
441.19	7550.57
441.38	7831.43
441.57	7763.56
441.75	7981.23
441.94	8088.89
442.12	8168.47
442.31	7864.20
442.50	8212.94
442.68	8006.97
442.87	7948.46
443.05	8311.24
443.24	8201.24
443.43	8292.52
443.61	8180.17
443.80	8407.20
443.98	8114.64
444.17	7815.05
444.35	8344.01
444.54	8320.60
444.73	8308.90
444.91	8418.91
445.10	8318.26
445.28	8430.61
445.47	8365.07
445.65	8528.91
445.84	8493.80
446.02	8526.57
446.21	8409.54
446.39	8538.27
446.58	8538.27
446.77	8475.08
446.95	8147.40
447.14	8458.70
447.32	8596.79
447.51	8723.18
447.69	8655.30
447.88	8688.07
448.06	8477.42
448.25	8535.93
448.43	8784.03
448.62	8821.48
448.80	8664.66
448.99	8704.45
449.17	8849.57
449.36	8861.27
449.54	8889.35
449.73	9081.28
449.91	9158.52
450.10	8891.70
450.28	9310.65
450.46	9448.74
450.65	9172.56
450.83	8945.53
451.02	9149.15
451.20	9188.94
451.39	9282.56
451.57	9212.35
451.76	9371.50
451.94	9238.09
452.13	9626.62
452.31	9305.97
452.49	9317.67
452.68	9378.53
452.86	9298.95
453.05	9437.04
453.23	9720.24
453.42	9544.70
453.60	9383.21
453.78	9425.34
453.97	9507.26
454.15	9490.87
454.34	9776.42
454.52	10010.47
454.70	9881.74
454.89	9916.85
455.07	9809.19
455.26	9867.70
455.44	10031.54
455.62	10059.62
455.81	9893.44
455.99	10197.71
456.17	10017.49
456.36	10019.83
456.54	10354.53
456.73	10593.26
456.91	10497.30
457.09	10565.18
457.28	10572.20
457.46	10626.03
457.64	10644.76
457.83	10499.64
458.01	10604.97
458.19	10761.78
458.38	10548.79
458.56	10981.79
458.74	10843.70
458.93	10731.36
459.11	11199.46
459.29	10862.43
459.48	10909.24
459.66	10803.91
459.84	11122.23
460.03	11157.33
460.21	10998.18
460.39	11033.29
460.57	11183.08
460.76	11272.02
460.94	11555.22
461.12	11337.56
461.31	11054.35
461.49	11180.74
461.67	11269.68
461.85	11552.88
462.04	11468.62
462.22	11604.38
462.40	11712.04
462.59	11660.55
462.77	11419.47
462.95	11810.34
463.13	11716.72
463.32	11826.73
463.50	12070.14
463.68	11798.64
463.86	12095.89
464.05	11800.98
464.23	11857.15
464.41	11943.75
464.59	11698.00
464.78	11913.33
464.96	12123.98
465.14	11948.43
465.32	12170.79
465.50	12208.23
465.69	12421.22
465.87	12482.08
466.05	12020.99
466.23	12336.96
466.41	12208.23
466.60	12585.06
466.78	12084.19
466.96	12255.04
467.14	12372.07
467.32	12531.23
467.51	12613.15
467.69	12102.91
467.87	12521.87
468.05	12723.15
468.23	12681.02
468.41	12720.81
468.60	12758.26
468.78	12858.90
468.96	12564.00
469.14	12966.57
469.32	13142.11
469.50	12863.58
469.69	13074.23
469.87	13390.20
470.05	13310.63
470.23	13465.10
470.41	13280.20
470.59	13554.04
470.77	13551.70
470.95	13179.56
471.14	13476.80
471.32	13160.83
471.50	13708.52
471.68	13752.99
471.86	13788.10
472.04	13884.06
472.22	14211.73
472.40	13720.22
472.58	13895.76
472.77	14319.40
472.95	14211.73
473.13	14757.08
473.31	14171.94
473.49	14359.19
473.67	14057.26
473.85	14335.78
474.03	14782.82
474.21	14785.16
474.39	14895.17
474.57	14930.28
474.75	15225.18
474.93	14984.11
475.12	14951.34
475.30	15499.03
475.48	14970.07
475.66	15229.87
475.84	15248.59
476.02	15634.78
476.20	15524.77
476.38	15470.94
476.56	16257.36
476.74	16194.17
476.92	16035.01
477.10	16128.63
477.28	16184.80
477.46	16325.24
477.64	16753.55
477.82	16847.18
478.00	17043.78
478.18	17062.51
478.36	16989.95
478.54	17411.25
478.72	17525.93
478.90	17696.79
479.08	17659.34
479.26	17745.94
479.44	17825.52
479.62	17947.23
479.80	18310.01
479.98	18321.71
480.16	18881.10
480.34	18445.76
480.52	18808.54
480.70	18944.30
480.88	18408.31
481.06	19044.94
481.24	19241.54
481.41	19143.24
481.59	19634.75
481.77	19798.59
481.95	19817.32
482.13	19814.98
482.31	20018.60
482.49	20519.48
482.67	20072.43
482.85	20458.62
483.03	21085.89
483.21	21083.55
483.39	21146.74
483.57	21151.42
483.74	21188.87
483.92	21820.81
484.10	21240.36
484.28	21991.67
484.46	22417.65
484.64	22712.56
484.82	21928.48
485.00	22466.80
485.18	23250.88
485.35	23009.81
485.53	22986.40
485.71	23058.96
485.89	23920.28
486.07	23733.03
486.25	23939.00
486.43	23871.12
486.61	24304.12
486.78	24049.00
486.96	24573.28
487.14	24919.68
487.32	24758.19
487.50	25102.25
487.68	25397.15
487.85	25340.98
488.03	26017.40
488.21	26478.48
488.39	26302.94
488.57	26272.51
488.75	26637.64
488.92	26792.11
489.10	27005.10
489.28	27171.28
489.46	27395.97
489.64	27192.34
489.81	27805.56
489.99	27749.39
490.17	27896.85
490.35	28166.01
490.53	28503.04
490.70	28802.63
490.88	28980.51
491.06	29083.50
491.24	29057.75
491.41	29198.18
491.59	29612.46
491.77	29640.54
491.95	29930.77
492.13	29675.65
492.30	30455.05
492.48	30052.48
492.66	30321.64
492.84	30946.56
493.01	30941.88
493.19	30696.13
493.37	31211.04
493.54	31304.67
493.72	31901.50
493.90	31810.22
494.08	32397.70
494.25	32151.94
494.43	32474.93
494.61	32650.47
494.79	32708.99
494.96	32613.02
495.14	33347.95
495.32	33710.74
495.49	33530.51
495.67	33706.05
495.85	33701.37
496.02	34216.29
496.20	34457.37
496.38	34464.39
496.55	34417.58
496.73	35028.46
496.91	34913.77
497.09	35033.14
497.26	35091.65
497.44	35421.67
497.62	35440.39
497.79	36191.70
497.97	35866.37
498.14	36608.32
498.32	36821.31
498.50	36669.17
498.67	37076.43
498.85	37024.93
499.03	37038.98
499.20	37179.41
499.38	37097.49
499.56	37479.00
499.73	37579.64
499.91	37780.93
500.08	38270.10
500.26	37923.70
500.44	38284.14
500.61	38321.59
500.79	37986.89
500.97	38445.64
501.14	38810.76
501.32	38873.96
501.49	39349.09
501.67	38742.89
501.84	39508.24
502.02	38993.32
502.20	39672.08
502.37	39548.03
502.55	39093.97
502.72	39957.63
502.90	39721.23
503.07	39658.04
503.25	40353.18
503.43	39959.97
503.60	40280.62
503.78	40746.39
503.95	40692.55
504.13	41214.49
504.30	41078.74
504.48	40751.07
504.65	40931.29
504.83	41502.38
505.01	41633.45
505.18	41549.19
505.36	42225.60
505.53	41448.55
505.71	42113.26
505.88	42045.38
506.06	41963.46
506.23	42623.50
506.41	42623.50
506.58	42555.62
506.76	42646.90
506.93	42726.48
507.11	43040.11
507.28	43325.66
507.46	42906.70
507.63	43330.34
507.81	43704.82
507.98	43007.34
508.16	43831.21
508.33	43908.45
508.50	44158.89
508.68	44259.53
508.85	44215.06
509.03	44472.52
509.20	43931.86
509.38	44669.12
509.55	45003.82
509.73	44964.03
509.90	45228.51
510.08	44900.84
510.25	45200.43
510.42	44783.81
510.60	45813.65
510.77	45703.64
510.95	45801.94
511.12	45743.43
511.30	45933.01
511.47	45991.53
511.64	46064.08
511.82	46707.73
511.99	45900.25
512.17	46590.70
512.34	45972.80
512.51	46810.71
512.69	46806.03
512.86	46705.39
513.04	46986.25
513.21	46887.95
513.38	47129.03
513.56	47248.39
513.73	47175.84
513.90	47306.91
514.08	47461.38
514.25	48037.16
514.43	47868.64
514.60	47547.98
514.77	47599.47
514.95	47938.85
515.12	48027.79
515.29	47742.25
515.47	48287.59
515.64	48439.73
515.81	48161.20
515.99	48858.68
516.16	48797.83
516.33	48713.57
516.51	48973.37
516.68	49118.48
516.85	48893.79
517.03	49191.04
517.20	49790.22
517.37	49324.45
517.54	49551.48
517.72	49160.61
517.89	49371.26
518.06	49446.16
518.24	49755.11
518.41	49659.15
518.58	49879.16
518.75	49813.62
518.93	49872.14
519.10	49750.43
519.27	50309.82
519.45	50244.28
519.62	50365.99
519.79	50267.69
519.96	50253.64
520.14	50646.85
520.31	50220.87
520.48	50518.12
520.65	50834.10
520.83	50864.52
521.00	51173.47
521.17	50791.97
521.34	51096.24
521.52	50876.22
521.69	51033.04
521.86	51433.27
522.03	51423.91
522.20	51583.07
522.38	51828.82
522.55	51957.55
522.72	51512.85
522.89	51973.94
523.07	52154.16
523.24	51791.37
523.41	52229.05
523.58	51959.89
523.75	52151.82
523.92	52112.03
524.10	52245.44
524.27	52329.70
524.44	52350.76
524.61	52280.55
524.78	52563.75
524.96	52680.78
525.13	52420.98
525.30	52793.12
525.47	53062.29
525.64	52648.01
525.81	52851.64
525.98	52963.98
526.16	53146.54
526.33	53137.18
526.50	53504.65
526.67	52971.00
526.84	53354.85
527.01	53132.50
527.18	53247.19
527.36	53602.95
527.53	53385.28
527.70	53724.66
527.87	53776.15
528.04	53085.69
528.21	53947.01
528.38	53591.25
528.55	53944.67
528.72	53439.11
528.89	53624.01
529.07	53607.63
529.24	53951.69
529.41	54061.69
529.58	53998.50
529.75	54145.95
529.92	54089.78
530.09	54316.81
530.26	54045.31
530.43	54260.64
530.60	54277.02
530.77	54258.30
530.94	54560.23
531.11	54181.06
531.28	54590.66
531.46	54497.03
531.63	54447.88
531.80	54763.85
531.97	54555.55
532.14	54965.14
532.31	54841.09
532.48	54894.92
532.65	54955.78
532.82	54848.11
532.99	55138.34
533.16	54892.58
533.33	55021.31
533.50	55381.76
533.67	54983.86
533.84	55203.88
534.01	55192.17
534.18	55068.12
534.35	55688.37
534.52	55559.64
534.69	55496.44
534.86	55529.21
535.03	55461.33
535.20	55454.31
535.37	55557.30
535.54	55597.09
535.71	55454.31
535.88	55718.79
536.05	55749.22
536.22	55868.59
536.38	55737.52
536.55	55889.65
536.72	55908.38
536.89	55994.98
537.06	55882.63
537.23	56072.21
537.40	56006.68
537.57	55847.52
537.74	56140.09
537.91	56336.69
538.08	56172.86
538.25	56044.13
538.42	56137.75
538.59	56622.24
538.75	56069.87
538.92	56292.22
539.09	56690.12
539.26	56470.11
539.43	56566.07
539.60	56521.60
539.77	56460.74
539.94	56907.79
540.11	56306.27
540.28	56835.23
540.44	56608.20
540.61	56746.29
540.78	56713.52
540.95	56683.09
541.12	56905.44
541.29	56629.26
541.46	56837.57
541.62	56898.42
541.79	56886.72
541.96	56446.70
542.13	56865.66
542.30	56921.83
542.47	57195.67
542.63	57214.40
542.80	57160.56
542.97	57354.83
543.14	57448.45
543.31	57427.38
543.48	57347.81
543.64	57911.88
543.81	57703.57
543.98	57579.52
544.15	57673.14
544.32	57741.02
544.48	57783.15
544.65	57691.86
544.82	57635.69
544.99	57581.86
545.16	57736.34
545.32	57570.16
545.49	57918.90
545.66	58141.25
545.83	58085.07
546.00	58122.52
546.16	58113.16
546.33	57750.38
546.50	57652.08
546.67	57998.48
546.83	57755.06
547.00	58159.97
547.17	57921.24
547.34	58190.40
547.50	58064.01
547.67	58337.85
547.84	58169.33
548.00	58546.16
548.17	58499.35
548.34	58466.58
548.51	58489.99
548.67	58525.10
548.84	58394.03
549.01	58253.59
549.18	58511.05
549.34	58527.44
549.51	58529.78
549.68	58504.03
549.84	58695.95
550.01	58738.08
550.18	58595.31
550.34	58777.87
550.51	58829.37
550.68	58431.47
550.84	58429.13
551.01	58845.75
551.18	58843.41
551.34	58834.05
551.51	59061.08
551.68	58904.26
551.84	58990.86
552.01	58775.53
552.18	58789.58
552.34	58815.32
552.51	58974.48
552.68	58710.00
552.84	59040.01
553.01	59386.41
553.18	59168.74
553.34	59044.69
553.51	58981.50
553.67	59054.06
553.84	59185.13
554.01	59241.30
554.17	59159.38
554.34	59213.21
554.51	59192.15
554.67	59451.95
554.84	59201.51
555.00	59253.00
555.17	59557.27
555.33	59243.64
555.50	59203.85
555.67	59196.83
555.83	59379.39
556.00	59260.02
556.16	59690.68
556.33	59561.95
556.50	59346.62
556.66	59646.21
556.83	59297.47
556.99	59664.94
557.16	59714.09
557.32	59746.86
557.49	60067.51
557.65	59681.32
557.82	59728.13
557.98	59604.08
558.15	59854.52
558.32	59812.39
558.48	59700.04
558.65	59671.96
558.81	59627.49
558.98	59880.27
559.14	60083.89
559.31	59980.91
559.47	59667.28
559.64	60046.44
559.80	59906.01
559.97	60011.34
560.13	60123.68
560.30	59924.74
560.46	59737.49
560.63	59913.03
560.79	59948.14
560.96	60009.00
561.12	60179.85
561.29	60264.11
561.45	60097.94
561.61	60102.62
561.78	60032.40
561.94	60179.85
562.11	60041.76
562.27	60168.15
562.44	60114.32
562.60	60175.17
562.77	60100.28
562.93	60168.15
563.10	60378.80
563.26	60217.30
563.42	60495.83
563.59	60413.91
563.75	60322.63
563.92	60434.97
564.08	60179.85
564.24	60168.15
564.41	60355.39
564.57	60383.48
564.74	60418.59
564.90	60451.36
565.07	60240.71
565.23	60491.15
565.39	60406.89
565.56	60420.93
565.72	60449.02
565.88	60399.86
566.05	60413.91
566.21	60495.83
566.38	60697.11
566.54	60479.44
566.70	60537.96
566.87	60427.95
567.03	60425.61
567.19	60762.65
567.36	60491.15
567.52	60355.39
567.68	60828.18
567.85	60624.56
568.01	60549.66
568.17	60446.68
568.34	60552.00
568.50	60678.39
568.66	60439.65
568.83	60739.24
568.99	60601.15
569.15	60598.81
569.32	60645.62
569.48	60699.45
569.64	60776.69
569.81	60694.77
569.97	60643.28
570.13	60786.05
570.30	60671.37
570.46	60980.32
570.62	60844.57
570.78	60874.99
570.95	60837.54
571.11	60715.84
571.27	60729.88
571.43	60996.70
571.60	60945.21
571.76	60629.24
571.92	60825.84
572.09	60837.54
572.25	60760.31
572.41	60926.49
572.57	60926.49
572.74	61300.97
572.90	61008.40
573.06	60823.50
573.22	60949.89
573.38	60760.31
573.55	61038.83
573.71	61066.92
573.87	60858.61
574.03	60662.00
574.20	60931.17
574.36	60856.27
574.52	61057.56
574.68	60940.53
574.84	60973.30
575.01	60867.97
575.17	60900.74
575.33	61045.85
575.49	60690.09
575.65	61148.84
575.82	60959.25
575.98	60811.80
576.14	61172.24
576.30	60966.27
576.46	60905.42
576.62	60732.22
576.79	60884.36
576.95	61043.51
577.11	61130.11
577.27	61111.39
577.43	61073.94
577.59	60999.04
577.75	61102.03
577.92	60994.36
578.08	61092.66
578.24	60975.64
578.40	61102.03
578.56	61268.20
578.72	61008.40
578.88	61113.73
579.04	61209.69
579.21	61118.41
579.37	61027.13
579.53	61371.19
579.69	61001.38
579.85	61162.88
580.01	61120.75
580.17	61006.06
580.33	61104.37
580.49	61228.41
580.65	61087.98
580.82	60968.61
580.98	61223.73
581.14	61048.19
581.30	61219.05
581.46	61052.87
581.62	61160.54
581.78	61024.79
581.94	61298.63
582.10	61095.00
582.26	61090.32
582.42	61087.98
582.58	61195.65
582.74	61073.94
582.90	61008.40
583.06	61169.90
583.22	61045.85
583.38	61169.90
583.54	61197.99
583.70	61228.41
583.86	61319.70
584.02	61022.45
584.18	61378.21
584.34	61268.20
584.50	61235.44
584.66	61179.26
584.82	60996.70
584.98	61268.20
585.14	61340.76
585.30	61193.31
585.46	61425.02
585.62	61265.86
585.78	61457.79
585.94	61137.13
586.10	61162.88
586.26	61258.84
586.42	61244.80
586.58	61387.57
586.74	61354.80
586.90	61186.28
587.06	61310.33
587.22	61226.07
587.38	61256.50
587.54	61558.43
587.70	61399.27
587.86	61167.56
588.02	61469.49
588.18	61387.57
588.34	61443.74
