SpectraSuite Data File
++++++++++++++++++++++++++++++++++++
Date: Fri Oct 25 10:44:20 EDT 2013
User: price-jones
Dark Spectrum Present: No
Reference Spectrum Present: No
Number of Sampled Component Spectra: 1
Spectrometers: USB2+H05261
Integration Time (usec): 100000 (USB2+H05261)
Spectra Averaged: 1 (USB2+H05261)
Boxcar Smoothing: 0 (USB2+H05261)
Correct for Electrical Dark: No (USB2+H05261)
Strobe/Lamp Enabled: No (USB2+H05261)
Correct for Detector Non-linearity: No (USB2+H05261)
Correct for Stray Light: No (USB2+H05261)
Number of Pixels in Processed Spectrum: 2048
>>>>>Begin Processed Spectral Data<<<<<
365.73	86.60
365.92	86.60
366.12	86.60
366.32	67.88
366.52	67.88
366.72	84.26
366.91	0.00
367.11	21.06
367.31	0.00
367.51	0.00
367.70	21.06
367.90	39.79
368.10	46.81
368.30	46.81
368.49	30.43
368.69	53.83
368.89	63.19
369.09	32.77
369.28	44.47
369.48	0.00
369.68	84.26
369.87	112.35
370.07	63.19
370.27	152.13
370.47	163.84
370.66	372.15
370.86	416.62
371.06	463.43
371.25	411.93
371.45	449.38
371.65	477.47
371.84	444.70
372.04	472.79
372.24	524.28
372.44	528.96
372.63	475.13
372.83	510.24
373.03	554.71
373.22	482.15
373.42	543.00
373.62	566.41
373.81	582.79
374.01	566.41
374.21	660.03
374.40	543.00
374.60	599.18
374.79	589.82
374.99	599.18
375.19	627.26
375.38	594.50
375.58	643.65
375.78	704.50
375.97	580.45
376.17	734.93
376.37	592.16
376.56	631.94
376.76	685.78
376.95	634.29
377.15	636.63
377.35	706.84
377.54	716.20
377.74	727.91
377.93	676.41
378.13	557.05
378.33	638.97
378.52	704.50
378.72	774.72
378.91	688.12
379.11	608.54
379.31	622.58
379.50	608.54
379.70	713.86
379.89	725.57
380.09	667.05
380.28	716.20
380.48	788.76
380.68	751.31
380.87	678.76
381.07	681.10
381.26	737.27
381.46	685.78
381.65	704.50
381.85	702.16
382.04	683.44
382.24	746.63
382.43	697.48
382.63	697.48
382.83	692.80
383.02	737.27
383.22	725.57
383.41	795.78
383.61	802.80
383.80	861.32
384.00	830.89
384.19	765.36
384.39	725.57
384.58	875.36
384.78	866.00
384.97	800.46
385.17	873.02
385.36	835.57
385.56	882.38
385.75	868.34
385.95	903.45
386.14	887.06
386.34	830.89
386.53	894.08
386.72	912.81
386.92	912.81
387.11	945.58
387.31	957.28
387.50	898.77
387.70	891.74
387.89	884.72
388.09	826.21
388.28	910.47
388.48	924.51
388.67	1048.56
388.86	926.85
389.06	1004.09
389.25	976.00
389.45	997.07
389.64	1004.09
389.84	1055.58
390.03	1050.90
390.22	1004.09
390.42	1013.45
390.61	1076.65
390.81	1046.22
391.00	1062.60
391.19	1121.12
391.39	1053.24
391.58	1121.12
391.78	1090.69
391.97	1137.50
392.16	1048.56
392.36	1135.16
392.55	954.94
392.75	1041.54
392.94	990.05
393.13	1022.81
393.33	1013.45
393.52	1057.92
393.71	1137.50
393.91	1128.14
394.10	1205.38
394.29	1109.41
394.49	1231.12
394.68	1266.23
394.88	1275.59
395.07	1355.17
395.26	1198.35
395.46	1249.85
395.65	1345.81
395.84	1224.10
396.04	1273.25
396.23	1226.44
396.42	1203.04
396.62	1259.21
396.81	1284.95
397.00	1196.01
397.19	1266.23
397.39	1362.19
397.58	1390.28
397.77	1413.68
397.97	1500.28
398.16	1460.49
398.35	1547.09
398.55	1535.39
398.74	1589.22
398.93	1577.52
399.12	1579.86
399.32	1509.65
399.51	1666.46
399.70	1614.97
399.90	1633.69
400.09	1617.31
400.28	1579.86
400.47	1647.74
400.67	1689.87
400.86	1729.66
401.05	1741.36
401.24	1813.92
401.44	1701.57
401.63	1771.79
401.82	1809.23
402.01	1767.10
402.21	1774.13
402.40	1884.13
402.59	1909.88
402.78	1790.51
402.97	1846.68
403.17	1860.73
403.36	1912.22
403.55	1968.39
403.74	1881.79
403.93	2017.54
404.13	1935.62
404.32	1905.20
404.51	1949.67
404.70	2036.27
404.89	1832.64
405.09	2038.61
405.28	1968.39
405.47	2036.27
405.66	2197.76
405.85	1893.49
406.05	2099.46
406.24	2176.70
406.43	2104.14
406.62	2143.93
406.81	2286.70
407.00	2064.35
407.20	2146.27
407.39	2174.36
407.58	2129.89
407.77	2349.90
407.96	2310.11
408.15	2216.49
408.34	2307.77
408.54	2382.67
408.73	2413.09
408.92	2396.71
409.11	2305.43
409.30	2420.11
409.49	2354.58
409.68	2417.77
409.87	2436.50
410.07	2509.05
410.26	2417.77
410.45	2473.95
410.64	2623.74
410.83	2551.18
411.02	2719.70
411.21	2665.87
411.40	2635.44
411.59	2649.49
411.78	2757.15
411.98	2583.95
412.17	2813.32
412.36	2864.82
412.55	2853.11
412.74	2860.13
412.93	2864.82
413.12	2874.18
413.31	3009.93
413.50	2974.82
413.69	2951.42
413.88	3052.06
414.07	3094.19
414.26	3075.46
414.45	3138.66
414.64	3009.93
414.83	3194.83
415.02	3222.92
415.22	3169.09
415.41	3246.32
415.60	3201.85
415.79	3255.69
415.98	3386.76
416.17	3487.40
416.36	3297.81
416.55	3463.99
416.74	3337.60
416.93	3297.81
417.12	3550.59
417.31	3410.16
417.50	3368.03
417.69	3648.90
417.88	3566.98
418.07	3461.65
418.26	3588.04
418.45	3597.40
418.64	3740.18
418.83	3728.47
419.02	3705.07
419.21	3791.67
419.39	3686.34
419.58	3583.36
419.77	3693.37
419.96	3709.75
420.15	3901.67
420.34	3936.78
420.53	3831.46
420.72	3878.27
420.91	3913.38
421.10	3850.18
421.29	4053.81
421.48	3859.54
421.67	3918.06
421.86	4037.42
422.05	3941.46
422.24	3939.12
422.43	3950.82
422.61	4016.36
422.80	4030.40
422.99	4128.70
423.18	4072.53
423.37	4161.47
423.56	4049.13
423.75	4051.47
423.94	3960.19
424.13	3894.65
424.32	3906.35
424.50	4051.47
424.69	4149.77
424.88	4257.43
425.07	4124.02
425.26	4070.19
425.45	4032.74
425.64	4156.79
425.83	4138.07
426.01	4278.50
426.20	4194.24
426.39	4145.09
426.58	4070.19
426.77	4131.05
426.96	4161.47
427.15	4163.81
427.33	4217.65
427.52	4121.68
427.71	4182.54
427.90	4337.01
428.09	4341.69
428.28	4238.71
428.46	4248.07
428.65	4294.88
428.84	4390.84
429.03	4301.90
429.22	4222.33
429.40	4184.88
429.59	4250.41
429.78	4126.36
429.97	3950.82
430.16	4100.62
430.34	4287.86
430.53	4140.41
430.72	4313.61
430.91	4358.08
431.10	4458.72
431.28	4702.14
431.47	4755.97
431.66	4786.40
431.85	4697.46
432.03	4821.50
432.22	4901.08
432.41	4746.61
432.60	4849.59
432.79	4781.71
432.97	4924.49
433.16	4915.12
433.35	4856.61
433.54	4919.81
433.72	4844.91
433.91	4788.74
434.10	4835.55
434.28	5027.47
434.47	5078.96
434.66	4992.36
434.85	5160.88
435.03	5184.29
435.22	5081.30
435.41	5263.86
435.59	5153.86
435.78	5224.08
435.97	5259.18
436.16	5261.52
436.34	5320.04
436.53	5338.76
436.72	5420.68
436.90	5401.96
437.09	5380.89
437.28	5238.12
437.46	5619.63
437.65	5284.93
437.84	5425.36
438.02	5186.63
438.21	5401.96
438.40	5453.45
438.58	5479.19
438.77	5607.92
438.96	5687.50
439.14	5710.91
439.33	5771.76
439.52	5746.02
439.70	5830.27
439.89	5774.10
440.08	5949.64
440.26	5961.34
440.45	5961.34
440.63	6019.86
440.82	6157.95
441.01	5996.45
441.19	6087.73
441.38	6209.44
441.57	6384.98
441.75	6389.66
441.94	6452.86
442.12	6532.44
442.31	6726.70
442.50	6736.06
442.68	6555.84
442.87	6623.72
443.05	6579.25
443.24	6516.05
443.43	6684.57
443.61	6649.46
443.80	6768.83
443.98	6633.08
444.17	6459.88
444.35	6794.58
444.54	6850.75
444.73	6684.57
444.91	6710.32
445.10	6665.85
445.28	6733.72
445.47	6516.05
445.65	6630.74
445.84	6707.98
446.02	6764.15
446.21	6761.81
446.39	6649.46
446.58	6822.66
446.77	6867.13
446.95	6649.46
447.14	6869.47
447.32	7173.74
447.51	6853.09
447.69	6911.60
447.88	6881.18
448.06	6897.56
448.25	7061.40
448.43	7009.90
448.62	6841.39
448.80	7054.37
448.99	7152.68
449.17	7014.59
449.36	7073.10
449.54	7129.27
449.73	7262.68
449.91	7258.00
450.10	7597.38
450.28	7637.17
450.46	7559.93
450.65	7386.73
450.83	7384.39
451.02	7386.73
451.20	7637.17
451.39	7590.36
451.57	7506.10
451.76	7403.11
451.94	7349.28
452.13	7620.78
452.31	7363.33
452.49	7524.82
452.68	7311.83
452.86	7534.18
453.05	7513.12
453.23	7524.82
453.42	7562.27
453.60	7573.97
453.78	7693.34
453.97	7398.43
454.15	7728.45
454.34	7585.68
454.52	7756.54
454.70	7824.41
454.89	7623.12
455.07	7789.30
455.26	7859.52
455.44	8016.33
455.62	7974.21
455.81	7918.03
455.99	8018.68
456.17	7983.57
456.36	8196.56
456.54	8264.43
456.73	8243.37
456.91	8381.46
457.09	8348.69
457.28	8435.29
457.46	8238.69
457.64	8425.93
457.83	8355.71
458.01	8163.79
458.19	8746.58
458.38	8449.33
458.56	8535.93
458.74	8575.72
458.93	8435.29
459.11	8489.12
459.29	8627.21
459.48	8559.34
459.66	8559.34
459.84	8624.87
460.03	8835.52
460.21	8739.56
460.39	8805.10
460.57	8709.13
460.76	8891.70
460.94	8887.01
461.12	8947.87
461.31	8954.89
461.49	8784.03
461.67	9083.62
461.85	9130.43
462.04	9036.81
462.22	9320.01
462.40	9317.67
462.59	9172.56
462.77	9158.52
462.95	9245.12
463.13	9207.67
463.32	9104.68
463.50	9376.19
463.68	9404.27
463.86	9359.80
464.05	9294.27
464.23	9104.68
464.41	9444.06
464.59	9174.90
464.78	9425.34
464.96	9420.66
465.14	9144.47
465.32	9533.00
465.50	9378.53
465.69	9778.76
465.87	9591.52
466.05	9596.20
466.23	9525.98
466.41	9570.45
466.60	9650.03
466.78	9528.32
466.96	9460.45
467.14	9486.19
467.32	9877.06
467.51	9776.42
467.69	9654.71
467.87	9706.20
468.05	9839.61
468.23	9792.80
468.41	9738.97
468.60	9748.33
468.78	9900.47
468.96	9949.62
469.14	9970.68
469.32	10303.04
469.50	9717.90
469.69	10111.11
469.87	9949.62
470.05	10118.14
470.23	10047.92
470.41	10162.61
470.59	10141.54
470.77	10286.65
470.95	10232.82
471.14	10597.95
471.32	10345.17
471.50	10665.82
471.68	10658.80
471.86	10607.31
472.04	10827.32
472.22	10726.68
472.40	10504.32
472.58	10729.02
472.77	10902.22
472.95	10771.15
473.13	11391.39
473.31	11019.24
473.49	11026.26
473.67	11145.63
473.85	11030.94
474.03	11260.32
474.21	11215.85
474.39	11442.88
474.57	11335.21
474.75	11382.03
474.93	11428.84
475.12	11658.21
475.30	11623.10
475.48	11548.20
475.66	11913.33
475.84	11880.56
476.02	11789.28
476.20	11882.90
476.38	12231.64
476.56	12339.30
476.74	12283.13
476.92	12212.92
477.10	12287.81
477.28	12432.93
477.46	12566.34
477.64	12807.41
477.82	12711.45
478.00	12999.34
478.18	12908.05
478.36	12910.40
478.54	13181.90
478.72	13404.25
478.90	13242.75
479.08	13558.72
479.26	13614.90
479.44	13774.05
479.62	13706.18
479.80	13855.97
479.98	13933.21
480.16	13923.85
480.34	14080.66
480.52	14185.99
480.70	14389.61
480.88	14068.96
481.06	14303.01
481.24	14431.74
481.41	14637.71
481.59	14785.16
481.77	14995.81
481.95	15054.33
482.13	15143.27
482.31	15066.03
482.49	15456.90
482.67	15566.90
482.85	15737.76
483.03	15676.91
483.21	15936.71
483.39	15733.08
483.57	15840.75
483.74	15971.82
483.92	16140.33
484.10	16009.26
484.28	16535.88
484.46	16760.58
484.64	16762.92
484.82	16702.06
485.00	16961.86
485.18	17083.57
485.35	16781.64
485.53	16723.13
485.71	16559.29
485.89	16826.11
486.07	17057.82
486.25	17149.11
486.43	17507.21
486.61	17233.36
486.78	17685.09
486.96	17853.61
487.14	18267.88
487.32	18541.72
487.50	18595.56
487.68	18719.60
487.85	18998.13
488.03	19192.39
488.21	19073.03
488.39	19033.24
488.57	19145.58
488.75	18998.13
488.92	19964.77
489.10	20006.90
489.28	20247.97
489.46	20247.97
489.64	20271.38
489.81	20603.74
489.99	20526.50
490.17	20959.50
490.35	21109.29
490.53	21006.31
490.70	21341.00
490.88	21088.23
491.06	21734.21
491.24	21259.09
491.41	21273.13
491.59	21624.21
491.77	21280.15
491.95	21624.21
492.13	21961.25
492.30	22256.15
492.48	22071.25
492.66	22443.40
492.84	22408.29
493.01	22817.88
493.19	22745.33
493.37	23098.75
493.54	22616.60
493.72	23330.46
493.90	23236.84
494.08	23733.03
494.25	24070.07
494.43	23782.18
494.61	24294.76
494.79	24030.28
494.96	24032.62
495.14	24350.93
495.32	24673.93
495.49	24353.27
495.67	24390.72
495.85	24842.45
496.02	25266.08
496.20	25186.50
496.38	24999.26
496.55	25518.86
496.73	26005.69
496.91	25525.88
497.09	25970.58
497.26	25575.03
497.44	25944.84
497.62	25844.20
497.79	26146.12
497.97	25986.97
498.14	26068.89
498.32	26363.79
498.50	26270.17
498.67	26998.08
498.85	26614.23
499.03	26558.06
499.20	27047.23
499.38	27175.96
499.56	27349.16
499.73	27452.14
499.91	27393.63
500.08	27463.85
500.26	26916.16
500.44	27693.22
500.61	27264.90
500.79	27342.14
500.97	27749.39
501.14	28074.73
501.32	28161.33
501.49	27936.63
501.67	27796.20
501.84	28166.01
502.02	28294.74
502.20	28187.07
502.37	28786.25
502.55	28402.40
502.72	28587.30
502.90	28971.15
503.07	28713.69
503.25	29125.63
503.43	28313.46
503.60	28779.23
503.78	28936.04
503.95	28945.41
504.13	29102.22
504.30	29289.46
504.48	29394.79
504.65	29394.79
504.83	29771.61
505.01	30033.75
505.18	29963.54
505.36	30157.80
505.53	30466.75
505.71	30522.93
505.88	30345.05
506.06	30478.46
506.23	30504.20
506.41	30403.56
506.58	30703.15
506.76	30487.82
506.93	30913.80
507.11	30855.28
507.28	31002.74
507.46	30782.73
507.63	30972.31
507.81	30862.30
507.98	31194.66
508.16	31255.51
508.33	31260.20
508.50	31754.05
508.68	31859.37
508.85	32158.96
509.03	31852.35
509.20	32119.17
509.38	32297.05
509.55	31807.88
509.73	32224.50
509.90	32322.80
510.08	31999.80
510.25	32556.85
510.42	32531.11
510.60	32636.43
510.77	32535.79
510.95	33188.80
511.12	32503.02
511.30	33242.63
511.47	33146.67
511.64	33310.50
511.82	33504.77
511.99	33069.43
512.17	32790.91
512.34	32999.21
512.51	33193.48
512.69	33504.77
512.86	33584.35
513.04	33490.73
513.21	33787.97
513.38	33619.46
513.56	33804.36
513.73	33687.33
513.90	34260.76
514.08	33645.20
514.25	34368.43
514.43	33846.49
514.60	34110.97
514.77	34096.92
514.95	34546.31
515.12	34361.40
515.29	34822.49
515.47	35180.59
515.64	34714.83
515.81	34714.83
515.99	34785.04
516.16	34525.24
516.33	34485.45
516.51	34335.66
516.68	34546.31
516.85	34054.79
517.03	34675.04
517.20	34888.03
517.37	35173.57
517.54	35227.40
517.72	35299.96
517.89	34766.32
518.06	34391.83
518.24	34986.33
518.41	35208.68
518.58	35517.63
518.75	35419.33
518.93	35871.05
519.10	35571.46
519.27	35463.80
519.45	35880.41
519.62	36149.57
519.79	36392.99
519.96	36304.05
520.14	36357.88
520.31	35679.13
520.48	36329.80
520.65	36435.12
520.83	36987.49
521.00	37008.55
521.17	36823.65
521.34	37081.11
521.52	36503.00
521.69	37429.85
521.86	37228.56
522.03	36802.58
522.20	37053.02
522.38	36992.17
522.55	36896.20
522.72	37294.10
522.89	36980.46
523.07	37528.15
523.24	37727.10
523.41	37926.04
523.58	37645.18
523.75	37926.04
523.92	38539.26
524.10	38263.08
524.27	38052.43
524.44	37986.89
524.61	38469.04
524.78	38223.29
524.96	38447.98
525.13	38710.12
525.30	38211.59
525.47	38731.18
525.64	38403.51
525.81	38815.44
525.98	38541.60
526.16	38251.38
526.33	38082.86
526.50	38476.07
526.67	38199.88
526.84	38019.66
527.01	38447.98
527.18	38738.21
527.36	39084.61
527.53	39459.09
527.70	39494.20
527.87	39033.11
528.04	39386.54
528.21	39342.06
528.38	39253.12
528.55	39782.09
528.72	39910.82
528.89	40058.27
529.07	39964.65
529.24	39496.54
529.41	39739.96
529.58	39711.87
529.75	39372.49
529.92	40072.31
530.09	40128.48
530.26	39910.82
530.43	40339.13
530.60	39952.94
530.77	40346.15
530.94	40561.48
531.11	40362.54
531.28	40399.99
531.46	40360.20
531.63	40502.97
531.80	40559.14
531.97	39969.33
532.14	40814.26
532.31	40332.11
532.48	40353.18
532.65	40385.94
532.82	40407.01
532.99	40861.07
533.16	40863.41
533.33	40865.75
533.50	40868.09
533.67	41041.29
533.84	40584.89
534.01	41146.62
534.18	40664.47
534.35	41237.90
534.52	41408.76
534.69	41282.37
534.86	41446.21
535.03	41296.41
535.20	41724.73
535.37	42377.74
535.54	42380.08
535.71	41385.35
535.88	41996.23
536.05	41677.92
536.22	42040.70
536.38	41574.94
536.55	41710.69
536.72	41879.21
536.89	41521.10
537.06	41790.27
537.23	41776.22
537.40	41930.70
537.57	41776.22
537.74	42082.83
537.91	42218.58
538.08	42040.70
538.25	41727.07
538.42	42183.48
538.59	42272.42
538.75	41771.54
538.92	42326.25
539.09	42408.17
539.26	42576.69
539.43	42279.44
539.60	42155.39
539.77	41862.82
539.94	42377.74
540.11	41965.81
540.28	42227.95
540.44	42117.94
540.61	41923.68
540.78	42183.48
540.95	42106.24
541.12	42274.76
541.29	42852.87
541.46	42806.06
541.62	42761.59
541.79	43007.34
541.96	42288.80
542.13	42801.38
542.30	42548.60
542.47	42878.61
542.63	43058.84
542.80	43098.62
542.97	43393.53
543.14	43515.24
543.31	43157.14
543.48	43580.78
543.64	43775.04
543.81	43342.04
543.98	44004.41
544.15	43578.43
544.32	43564.39
544.48	44002.07
544.65	43871.00
544.82	43629.93
544.99	43440.34
545.16	44009.09
545.32	43672.06
545.49	44144.84
545.66	44348.47
545.83	44156.55
546.00	44374.22
546.16	44325.07
546.33	43922.49
546.50	43693.12
546.67	43973.98
546.83	44261.87
547.00	43995.05
547.17	44058.24
547.34	43679.08
547.50	44198.68
547.67	44016.11
547.84	43887.39
548.00	44458.48
548.17	44830.62
548.34	44348.47
548.51	44898.50
548.67	44858.71
548.84	44493.58
549.01	44732.32
549.18	44409.32
549.34	44608.27
549.51	44828.28
549.68	44409.32
549.84	44704.23
550.01	45038.93
550.18	44933.60
550.34	44975.73
550.51	44926.58
550.68	45130.21
550.84	44243.15
551.01	45251.92
551.18	45184.04
551.34	44989.78
551.51	45357.24
551.68	45233.19
551.84	45127.87
552.01	44608.27
552.18	45179.36
552.34	44732.32
552.51	45270.64
552.68	45038.93
552.84	45446.18
553.01	45476.61
553.18	45532.78
553.34	45455.54
553.51	44987.44
553.67	45191.06
553.84	45495.33
554.01	45794.92
554.17	45645.13
554.34	45413.41
554.51	45867.48
554.67	45918.97
554.84	45626.40
555.00	45577.25
555.17	45734.07
555.33	45979.82
555.50	45649.81
555.67	45586.61
555.83	46017.27
556.00	45790.24
556.16	46089.83
556.33	45748.11
556.50	45492.99
556.66	45813.65
556.83	45762.15
556.99	45635.77
557.16	46160.05
557.32	45958.76
557.49	45888.54
557.65	45769.18
557.82	45895.56
557.98	45984.51
558.15	45743.43
558.32	45879.18
558.48	45942.38
558.65	45708.32
558.81	46005.57
558.98	45780.88
559.14	46162.39
559.31	45911.95
559.47	46237.28
559.64	46110.89
559.80	45886.20
559.97	46153.02
560.13	45977.48
560.30	46253.67
560.46	46185.79
560.63	46162.39
560.79	46237.28
560.96	46277.07
561.12	46171.75
561.29	46354.31
561.45	46101.53
561.61	46356.65
561.78	46394.10
561.94	45879.18
562.11	46010.25
562.27	46153.02
562.44	46092.17
562.60	46307.50
562.77	46843.48
562.93	46239.62
563.10	46178.77
563.26	45909.61
563.42	46279.41
563.59	46333.24
563.75	46335.59
563.92	46873.91
564.08	46504.10
564.24	46520.49
564.41	46691.35
564.57	46295.80
564.74	46995.62
564.90	46248.99
565.07	46644.54
565.23	46007.91
565.39	46279.41
565.56	45991.53
565.72	46108.55
565.88	46405.80
566.05	46279.41
566.21	46351.97
566.38	46157.70
566.54	46506.44
566.70	46370.69
566.87	46899.65
567.03	46457.29
567.19	47201.58
567.36	46553.26
567.52	46852.84
567.68	46906.68
567.85	46967.53
568.01	46389.42
568.17	46529.85
568.34	46543.89
568.50	46857.52
568.66	46494.74
568.83	46534.53
568.99	46326.22
569.15	46333.24
569.32	47056.47
569.48	46469.00
569.64	46789.65
569.81	47012.00
569.97	46567.30
570.13	46487.72
570.30	46230.26
570.46	46234.94
570.62	46632.83
570.78	46579.00
570.95	46642.20
571.11	46869.23
571.27	46485.38
571.43	46342.61
571.60	46703.05
571.76	46307.50
571.92	46377.72
572.09	46466.66
572.25	46712.41
572.41	46674.96
572.57	46625.81
572.74	47386.49
572.90	46742.84
573.06	46548.57
573.22	47405.21
573.38	46873.91
573.55	46506.44
573.71	46995.62
573.87	46670.28
574.03	46726.46
574.20	46649.22
574.36	47000.30
574.52	46892.63
574.68	46518.15
574.84	46347.29
575.01	46763.90
575.17	46806.03
575.33	46754.54
575.49	46761.56
575.65	46911.36
575.82	47161.79
575.98	46541.55
576.14	47159.45
576.30	46890.29
576.46	46635.17
576.62	46525.17
576.79	46923.06
576.95	46667.94
577.11	46724.11
577.27	46822.42
577.43	47079.88
577.59	46733.48
577.75	46876.25
577.92	46129.62
578.08	46354.31
578.24	46625.81
578.40	46639.86
578.56	46841.14
578.72	46717.09
578.88	46864.55
579.04	46960.51
579.21	46557.94
579.37	46731.14
579.53	46862.21
579.69	46363.67
579.85	46595.38
580.01	46894.97
580.17	46993.28
580.33	46953.49
580.49	46920.72
580.65	47430.96
580.82	46918.38
580.98	46717.09
581.14	46866.89
581.30	47210.95
581.46	47180.52
581.62	47456.70
581.78	46997.96
581.94	46864.55
582.10	46602.41
582.26	46801.35
582.42	46719.43
582.58	47260.10
582.74	46796.67
582.90	46979.23
583.06	47126.69
583.22	46939.44
583.38	47208.61
583.54	47320.95
583.70	47416.91
583.86	46724.11
584.02	46609.43
584.18	46976.89
584.34	46962.85
584.50	47009.66
584.66	46724.11
584.82	47133.71
584.98	46974.55
585.14	47131.37
585.30	47023.70
585.46	47227.33
585.62	46625.81
585.78	46738.16
585.94	46504.10
586.10	46848.16
586.26	46925.40
586.42	46995.62
586.58	47288.18
586.74	47037.75
586.90	46866.89
587.06	47054.13
587.22	46969.87
587.38	46609.43
587.54	46993.28
587.70	47234.35
587.86	47295.21
588.02	46789.65
588.18	47054.13
588.34	46660.92
588.49	46944.12
588.65	46394.10
588.81	46433.89
588.97	46490.06
589.13	46380.06
589.29	46447.93
589.45	46639.86
589.61	46850.50
589.77	47267.12
589.93	47276.48
