SpectraSuite Data File
++++++++++++++++++++++++++++++++++++
Date: Fri Oct 25 10:48:07 EDT 2013
User: price-jones
Dark Spectrum Present: No
Reference Spectrum Present: No
Number of Sampled Component Spectra: 1
Spectrometers: USB2+H05261
Integration Time (usec): 100000 (USB2+H05261)
Spectra Averaged: 1 (USB2+H05261)
Boxcar Smoothing: 0 (USB2+H05261)
Correct for Electrical Dark: No (USB2+H05261)
Strobe/Lamp Enabled: No (USB2+H05261)
Correct for Detector Non-linearity: No (USB2+H05261)
Correct for Stray Light: No (USB2+H05261)
Number of Pixels in Processed Spectrum: 2048
>>>>>Begin Processed Spectral Data<<<<<
365.73	133.41
365.92	133.41
366.12	133.41
366.32	23.41
366.52	53.83
366.72	0.00
366.91	56.17
367.11	112.35
367.31	28.09
367.51	0.00
367.70	16.38
367.90	91.28
368.10	77.24
368.30	70.22
368.49	74.90
368.69	126.39
368.89	74.90
369.09	77.24
369.28	74.90
369.48	35.11
369.68	138.09
369.87	189.58
370.07	124.05
370.27	170.86
370.47	168.52
370.66	360.44
370.86	369.80
371.06	397.89
371.25	402.57
371.45	428.32
371.65	470.45
371.84	463.43
372.04	414.27
372.24	477.47
372.44	531.30
372.63	451.72
372.83	578.11
373.03	535.98
373.22	440.02
373.42	456.40
373.62	498.53
373.81	521.94
374.01	521.94
374.21	587.47
374.40	599.18
374.60	554.71
374.79	547.69
374.99	573.43
375.19	498.53
375.38	599.18
375.58	627.26
375.78	533.64
375.97	585.13
376.17	566.41
376.37	557.05
376.56	538.32
376.76	575.77
376.95	575.77
377.15	543.00
377.35	559.39
377.54	575.77
377.74	629.60
377.93	631.94
378.13	594.50
378.33	566.41
378.52	592.16
378.72	678.76
378.91	655.35
379.11	631.94
379.31	669.39
379.50	589.82
379.70	610.88
379.89	706.84
380.09	688.12
380.28	610.88
380.48	594.50
380.68	671.73
380.87	706.84
381.07	723.23
381.26	674.07
381.46	674.07
381.65	669.39
381.85	683.44
382.04	653.01
382.24	606.20
382.43	657.69
382.63	674.07
382.83	671.73
383.02	755.99
383.22	711.52
383.41	692.80
383.61	751.31
383.80	734.93
384.00	631.94
384.19	730.25
384.39	777.06
384.58	748.97
384.78	720.88
384.97	723.23
385.17	688.12
385.36	741.95
385.56	706.84
385.75	711.52
385.95	758.33
386.14	786.42
386.34	748.97
386.53	830.89
386.72	744.29
386.92	833.23
387.11	875.36
387.31	898.77
387.50	828.55
387.70	877.70
387.89	823.87
388.09	727.91
388.28	875.36
388.48	826.21
388.67	863.66
388.86	873.02
389.06	861.32
389.25	910.47
389.45	830.89
389.64	915.15
389.84	929.19
390.03	896.43
390.22	959.62
390.42	901.11
390.61	889.40
390.81	997.07
391.00	889.40
391.19	987.71
391.39	908.13
391.58	968.98
391.78	999.41
391.97	966.64
392.16	952.60
392.36	1022.81
392.55	936.21
392.75	901.11
392.94	961.96
393.13	954.94
393.33	999.41
393.52	964.30
393.71	1001.75
393.91	966.64
394.10	1043.88
394.29	1090.69
394.49	992.39
394.68	1090.69
394.88	1135.16
395.07	1102.39
395.26	1050.90
395.46	1123.46
395.65	1266.23
395.84	1100.05
396.04	1268.57
396.23	1130.48
396.42	1097.71
396.62	1102.39
396.81	1111.75
397.00	1109.41
397.19	1107.07
397.39	1184.31
397.58	1200.69
397.77	1259.21
397.97	1261.55
398.16	1310.70
398.35	1198.35
398.55	1310.70
398.74	1331.76
398.93	1329.42
399.12	1322.40
399.32	1268.57
399.51	1217.08
399.70	1348.15
399.90	1430.07
400.09	1291.98
400.28	1404.32
400.47	1315.38
400.67	1296.66
400.86	1444.11
401.05	1378.58
401.24	1423.05
401.44	1425.39
401.63	1467.52
401.82	1460.49
402.01	1462.83
402.21	1575.18
402.40	1561.14
402.59	1528.37
402.78	1561.14
402.97	1584.54
403.17	1537.73
403.36	1561.14
403.55	1502.62
403.74	1657.10
403.93	1671.14
404.13	1661.78
404.32	1446.45
404.51	1650.08
404.70	1636.03
404.89	1633.69
405.09	1696.89
405.28	1736.68
405.47	1666.46
405.66	1703.91
405.85	1734.34
406.05	1750.72
406.24	1732.00
406.43	1806.89
406.62	1748.38
406.81	1944.99
407.00	1764.76
407.20	1842.00
407.39	1806.89
407.58	1846.68
407.77	1902.86
407.96	1832.64
408.15	1933.28
408.34	1792.85
408.54	1893.49
408.73	1893.49
408.92	1902.86
409.11	2066.69
409.30	1989.46
409.49	1935.62
409.68	2017.54
409.87	1956.69
410.07	2062.01
410.26	1959.03
410.45	2099.46
410.64	2090.10
410.83	2101.80
411.02	2087.76
411.21	2200.10
411.40	2221.17
411.59	2303.09
411.78	2246.91
411.98	2207.13
412.17	2174.36
412.36	2345.22
412.55	2321.81
412.74	2370.96
412.93	2380.32
413.12	2340.54
413.31	2525.44
413.50	2480.97
413.69	2473.95
413.88	2544.16
414.07	2525.44
414.26	2541.82
414.45	2502.03
414.64	2663.53
414.83	2483.31
415.02	2621.40
415.22	2607.36
415.41	2700.98
415.60	2719.70
415.79	2754.81
415.98	2738.43
416.17	2761.83
416.36	2689.28
416.55	2834.39
416.74	2881.20
416.93	2834.39
417.12	2841.41
417.31	2892.90
417.50	3038.02
417.69	3080.14
417.88	2970.14
418.07	3000.57
418.26	3019.29
418.45	3009.93
418.64	3143.34
418.83	3098.87
419.02	2981.84
419.21	3150.36
419.39	3164.40
419.58	3052.06
419.77	3089.51
419.96	3208.87
420.15	3269.73
420.34	3173.77
420.53	3094.19
420.72	3232.28
420.91	3262.71
421.10	3293.13
421.29	3295.47
421.48	3339.94
421.67	3314.20
421.86	3304.84
422.05	3403.14
422.24	3276.75
422.43	3311.86
422.61	3405.48
422.80	3482.72
422.99	3569.32
423.18	3351.65
423.37	3578.68
423.56	3442.93
423.75	3478.04
423.94	3391.44
424.13	3173.77
424.32	3262.71
424.50	3400.80
424.69	3482.72
424.88	3751.88
425.07	3536.55
425.26	3304.84
425.45	3400.80
425.64	3482.72
425.83	3522.51
426.01	3564.64
426.20	3513.14
426.39	3583.36
426.58	3487.40
426.77	3449.95
426.96	3471.01
427.15	3433.57
427.33	3463.99
427.52	3578.68
427.71	3698.05
427.90	3735.50
428.09	3775.28
428.28	3691.02
428.46	3719.11
428.65	3705.07
428.84	3950.82
429.03	3836.14
429.22	3693.37
429.40	3810.39
429.59	3648.90
429.78	3513.14
429.97	3637.19
430.16	3686.34
430.34	3681.66
430.53	3829.12
430.72	3845.50
430.91	3871.25
431.10	3836.14
431.28	3990.61
431.47	4065.51
431.66	4114.66
431.85	3887.63
432.03	4053.81
432.22	4109.98
432.41	3995.29
432.60	4072.53
432.79	4121.68
432.97	4255.09
433.16	4238.71
433.35	4091.26
433.54	4126.36
433.72	4222.33
433.91	4219.99
434.10	4187.22
434.28	4418.93
434.47	4299.56
434.66	4353.40
434.85	4376.80
435.03	4444.68
435.22	4498.51
435.41	4451.70
435.59	4444.68
435.78	4627.24
435.97	4510.21
436.16	4423.61
436.34	4498.51
436.53	4531.28
436.72	4660.01
436.90	4421.27
437.09	4622.56
437.28	4503.19
437.46	4608.51
437.65	4690.43
437.84	4650.64
438.02	4713.84
438.21	4734.90
438.40	4566.39
438.58	4739.58
438.77	4809.80
438.96	4795.76
439.14	4873.00
439.33	5022.79
439.52	4933.85
439.70	4809.80
439.89	5027.47
440.08	5032.15
440.26	5057.90
440.45	5013.43
440.63	5071.94
440.82	5336.42
441.01	5280.25
441.19	5195.99
441.38	5263.86
441.57	5252.16
441.75	5275.57
441.94	5500.26
442.12	5451.11
442.31	5710.91
442.50	5603.24
442.68	5453.45
442.87	5568.13
443.05	5530.69
443.24	5720.27
443.43	5617.29
443.61	5654.73
443.80	5720.27
443.98	5579.84
444.17	5661.76
444.35	5603.24
444.54	5954.32
444.73	5706.23
444.91	5680.48
445.10	5591.54
445.28	5846.66
445.47	5666.44
445.65	5687.50
445.84	5738.99
446.02	5813.89
446.21	5781.12
446.39	5816.23
446.58	5951.98
446.77	5921.56
446.95	5678.14
447.14	5813.89
447.32	5968.37
447.51	5849.00
447.69	5764.74
447.88	5961.34
448.06	5926.24
448.25	5954.32
448.43	6008.16
448.62	5851.34
448.80	6050.28
448.99	5832.62
449.17	6005.81
449.36	5989.43
449.54	6120.50
449.73	6197.74
449.91	6127.52
450.10	6232.85
450.28	6429.45
450.46	6141.57
450.65	6361.58
450.83	6314.77
451.02	6317.11
451.20	6272.64
451.39	6277.32
451.57	6384.98
451.76	6195.40
451.94	6492.65
452.13	6480.94
452.31	6354.55
452.49	6298.38
452.68	6296.04
452.86	6345.19
453.05	6485.62
453.23	6394.34
453.42	6434.13
453.60	6445.84
453.78	6546.48
453.97	6452.86
454.15	6417.75
454.34	6497.33
454.52	6649.46
454.70	6551.16
454.89	6579.25
455.07	6579.25
455.26	6649.46
455.44	6782.87
455.62	6789.89
455.81	6663.51
455.99	6764.15
456.17	7073.10
456.36	6853.09
456.54	7133.95
456.73	7026.29
456.91	6995.86
457.09	7131.61
457.28	7157.36
457.46	7185.44
457.64	7049.69
457.83	7126.93
458.01	6918.62
458.19	7421.84
458.38	7152.68
458.56	7258.00
458.74	7386.73
458.93	7246.30
459.11	7398.43
459.29	7295.45
459.48	7384.39
459.66	7414.82
459.84	7433.54
460.03	7531.84
460.21	7480.35
460.39	7581.00
460.57	7485.03
460.76	7351.62
460.94	7442.90
461.12	7655.89
461.31	7681.64
461.49	7705.04
461.67	7599.72
461.85	7763.56
462.04	7798.66
462.22	8365.07
462.40	7864.20
462.59	7740.15
462.77	7829.09
462.95	7967.18
463.13	7892.29
463.32	7939.10
463.50	8006.97
463.68	8102.93
463.86	8042.08
464.05	7864.20
464.23	7824.41
464.41	7981.23
464.59	8009.31
464.78	8109.96
464.96	7939.10
465.14	7946.12
465.32	8173.15
465.50	8210.60
465.69	8205.92
465.87	8201.24
466.05	8273.79
466.23	8131.02
466.41	8065.49
466.60	8287.84
466.78	8311.24
466.96	8285.50
467.14	8074.85
467.32	8557.00
467.51	8526.57
467.69	8138.04
467.87	8348.69
468.05	8636.58
468.23	8468.06
468.41	8411.89
468.60	8552.32
468.78	8524.23
468.96	8547.64
469.14	8325.29
469.32	8781.69
469.50	8283.16
469.69	8711.47
469.87	8751.26
470.05	8688.07
470.23	8533.59
470.41	8814.46
470.59	8933.82
470.77	8596.79
470.95	8947.87
471.14	9081.28
471.32	8821.48
471.50	9205.33
471.68	9139.79
471.86	9280.22
472.04	9156.18
472.22	9373.85
472.40	9200.65
472.58	9132.77
472.77	9542.36
472.95	9448.74
473.13	9743.65
473.31	9376.19
473.49	9509.60
473.67	9591.52
473.85	9626.62
474.03	9872.38
474.21	9659.39
474.39	9802.16
474.57	9795.14
474.75	9982.38
474.93	9973.02
475.12	9863.02
475.30	10076.01
475.48	9657.05
475.66	10050.26
475.84	10181.33
476.02	10239.84
476.20	10342.83
476.38	10527.73
476.56	10448.15
476.74	10619.01
476.92	10415.38
477.10	10487.94
477.28	10862.43
477.46	10616.67
477.64	10923.28
477.82	11052.01
478.00	11302.45
478.18	11206.48
478.36	11138.61
478.54	11384.37
478.72	11384.37
478.90	11527.14
479.08	11576.29
479.26	11690.98
479.44	11611.40
479.62	11501.39
479.80	11838.43
479.98	11910.99
480.16	12238.66
480.34	12311.22
480.52	12449.31
480.70	12231.64
480.88	12011.63
481.06	12503.14
481.24	12568.68
481.41	12498.46
481.59	13020.40
481.77	12936.14
481.95	12950.18
482.13	12933.80
482.31	13043.81
482.49	13341.05
482.67	13132.75
482.85	13521.27
483.03	13549.36
483.21	13355.10
483.39	13488.51
483.57	13696.82
483.74	14003.43
483.92	14024.49
484.10	14181.31
484.28	14167.26
484.46	14314.72
484.64	14445.79
484.82	14319.40
485.00	14714.95
485.18	15047.30
485.35	15112.84
485.53	14817.93
485.71	14726.65
485.89	15344.55
486.07	15290.72
486.25	15145.61
486.43	15564.56
486.61	15503.71
486.78	15630.10
486.96	16072.46
487.14	16074.80
487.32	16123.95
487.50	16248.00
487.68	16418.86
487.85	16554.61
488.03	16779.30
488.21	16957.18
488.39	16753.55
488.57	16996.97
488.75	17202.94
488.92	17181.87
489.10	17280.18
489.28	17535.29
489.46	17668.70
489.64	17734.24
489.81	18052.55
489.99	17989.36
490.17	18583.85
490.35	18340.44
490.53	18225.75
490.70	18614.28
490.88	18651.73
491.06	18867.06
491.24	18878.76
491.41	18944.30
491.59	19054.30
491.77	18808.54
491.95	19206.44
492.13	19325.80
492.30	19468.58
492.48	19271.97
492.66	19421.77
492.84	19915.62
493.01	20128.61
493.19	19990.52
493.37	19976.47
493.54	20346.28
493.72	20156.69
493.90	20437.56
494.08	20587.35
494.25	20744.17
494.43	20992.26
494.61	20936.09
494.79	20877.58
494.96	21104.61
495.14	21385.47
495.32	21549.31
495.49	21425.26
495.67	21607.83
495.85	21750.60
496.02	22054.87
496.20	22071.25
496.38	21994.01
496.55	21970.61
496.73	22698.52
496.91	22553.40
497.09	22553.40
497.26	22792.14
497.44	22551.06
497.62	22733.62
497.79	23178.33
497.97	23124.49
498.14	23274.29
498.32	22979.38
498.50	23199.39
498.67	23658.14
498.85	23524.72
499.03	23679.20
499.20	23704.95
499.38	23793.89
499.56	24304.12
499.73	24046.66
499.91	24243.27
500.08	24175.39
500.26	24098.16
500.44	24243.27
500.61	24170.71
500.79	24198.80
500.97	24863.51
501.14	24790.95
501.32	24819.04
501.49	25060.12
501.67	24671.59
501.84	25083.52
502.02	24999.26
502.20	25373.75
502.37	25621.84
502.55	25626.53
502.72	25497.80
502.90	25832.49
503.07	25268.42
503.25	25678.02
503.43	25818.45
503.60	25876.96
503.78	25652.27
503.95	25933.14
504.13	26274.85
504.30	26167.19
504.48	25467.37
504.65	26771.05
504.83	26511.25
505.01	26822.54
505.18	26595.51
505.36	27054.25
505.53	26876.37
505.71	26721.90
505.88	27056.59
506.06	27103.40
506.23	27044.89
506.41	27190.00
506.58	27171.28
506.76	27042.55
506.93	27648.75
507.11	27496.61
507.28	27679.18
507.46	27447.46
507.63	27342.14
507.81	27901.53
507.98	27557.47
508.16	27786.84
508.33	27995.15
508.50	27885.14
508.68	28048.98
508.85	28638.80
509.03	28268.99
509.20	28779.23
509.38	28716.03
509.55	28741.78
509.73	28428.15
509.90	28685.61
510.08	28828.38
510.25	28863.49
510.42	28992.22
510.60	29076.48
510.77	29406.49
510.95	29392.45
511.12	29397.13
511.30	29469.69
511.47	29886.30
511.64	29919.07
511.82	29708.42
511.99	29750.55
512.17	30057.16
512.34	29687.36
512.51	29834.81
512.69	30015.03
512.86	30593.14
513.04	30602.50
513.21	30408.24
513.38	30125.04
513.56	30073.54
513.73	30291.21
513.90	30761.66
514.08	30562.72
514.25	30625.91
514.43	30511.22
514.60	30991.03
514.77	30625.91
514.95	31108.06
515.12	30796.77
515.29	31204.02
515.47	31608.93
515.64	31225.09
515.81	30965.29
515.99	31473.18
516.16	31564.46
516.33	31529.36
516.51	31644.04
516.68	31285.94
516.85	31377.22
517.03	31613.62
517.20	31606.59
517.37	31871.07
517.54	32215.13
517.72	31658.09
517.89	31842.99
518.06	31793.84
518.24	31889.80
518.41	31924.91
518.58	32004.49
518.75	32020.87
518.93	32556.85
519.10	32297.05
519.27	32559.19
519.45	32896.23
519.62	32458.55
519.79	32641.11
519.96	32924.32
520.14	32680.90
520.31	32989.85
520.48	32959.42
520.65	33008.58
520.83	33628.82
521.00	33172.41
521.17	33755.21
521.34	33464.98
521.52	33523.49
521.69	33645.20
521.86	33649.88
522.03	33975.22
522.20	34022.03
522.38	33944.79
522.55	33996.28
522.72	33956.49
522.89	34209.27
523.07	34007.98
523.24	33954.15
523.41	34022.03
523.58	33944.79
523.75	34754.61
523.92	34607.16
524.10	34581.42
524.27	34316.93
524.44	34422.26
524.61	34998.03
524.78	35145.48
524.96	34763.98
525.13	34895.05
525.30	35229.74
525.47	35171.23
525.64	35044.84
525.81	35103.35
525.98	35337.41
526.16	35232.08
526.33	35145.48
526.50	35505.93
526.67	35124.42
526.84	35637.00
527.01	34902.07
527.18	35349.11
527.36	35405.28
527.53	35875.73
527.70	36084.04
527.87	36055.95
528.04	35894.46
528.21	36151.91
528.38	36161.28
528.55	36093.40
528.72	35819.56
528.89	35821.90
529.07	35868.71
529.24	35992.76
529.41	36154.26
529.58	36100.42
529.75	36165.96
529.92	36360.22
530.09	36287.67
530.26	36304.05
530.43	36308.73
530.60	36421.08
530.77	36652.79
530.94	37048.34
531.11	36669.17
531.28	36568.53
531.46	36842.37
531.63	36879.82
531.80	36900.89
531.97	36758.11
532.14	36952.38
532.31	36893.86
532.48	36884.50
532.65	37226.22
532.82	36966.42
532.99	37663.90
533.16	37127.92
533.33	36968.76
533.50	37855.82
533.67	37771.57
533.84	37322.18
534.01	37347.93
534.18	37497.72
534.35	37764.54
534.52	38134.35
534.69	37537.51
534.86	37904.98
535.03	37626.45
535.20	37668.58
535.37	38234.99
535.54	38424.57
535.71	37762.20
535.88	38007.96
536.05	38054.77
536.22	38508.83
536.38	38143.71
536.55	38529.90
536.72	38272.44
536.89	38333.29
537.06	38345.00
537.23	38375.42
537.40	38527.56
537.57	38660.97
537.74	37982.21
537.91	38653.95
538.08	38714.80
538.25	38377.76
538.42	38394.15
538.59	39133.76
538.75	38361.38
538.92	38876.30
539.09	38869.28
539.26	39091.63
539.43	38899.70
539.60	39161.84
539.77	38590.75
539.94	38855.23
540.11	39012.05
540.28	39007.37
540.44	39250.78
540.61	39035.45
540.78	39178.23
540.95	39234.40
541.12	39035.45
541.29	39262.49
541.46	39515.26
541.62	39538.67
541.79	39459.09
541.96	39447.39
542.13	39707.19
542.30	39824.22
542.47	39800.81
542.63	39749.32
542.80	39739.96
542.97	40210.40
543.14	39995.07
543.31	39849.96
543.48	40128.48
543.64	40392.97
543.81	40416.37
543.98	40250.19
544.15	39976.35
544.32	40737.02
544.48	40809.58
544.65	40533.40
544.82	40421.05
544.99	40776.81
545.16	40381.26
545.32	40514.67
545.49	40999.16
545.66	40905.54
545.83	40999.16
546.00	41083.42
546.16	40933.63
546.33	40832.99
546.50	40362.54
546.67	40722.98
546.83	40357.86
547.00	40484.25
547.17	40545.10
547.34	40662.13
547.50	41235.56
547.67	40732.34
547.84	41221.52
548.00	41528.13
548.17	41523.44
548.34	41221.52
548.51	41467.27
548.67	41167.68
548.84	41574.94
549.01	40942.99
549.18	41656.85
549.34	41708.35
549.51	41509.40
549.68	41677.92
549.84	42131.98
550.01	41586.64
550.18	41324.50
550.34	41750.48
550.51	41425.14
550.68	41525.78
550.84	41319.82
551.01	41645.15
551.18	41191.09
551.34	41750.48
551.51	41738.77
551.68	42092.19
551.84	42183.48
552.01	41586.64
552.18	41741.11
552.34	41893.25
552.51	41970.49
552.68	42192.84
552.84	42031.34
553.01	42281.78
553.18	41848.78
553.34	41769.20
553.51	41750.48
553.67	42450.30
553.84	42440.93
554.01	42555.62
554.17	42494.77
554.34	42759.25
554.51	42637.54
554.67	42260.71
554.84	42794.36
555.00	42192.84
555.17	42431.57
555.33	42593.07
555.50	42490.09
555.67	42511.15
555.83	42698.39
556.00	42721.80
556.16	42850.53
556.33	42946.49
556.50	42794.36
556.66	42930.11
556.83	42548.60
556.99	42674.99
557.16	42808.40
557.32	43056.50
557.49	42581.37
557.65	42593.07
557.82	42705.41
557.98	42890.32
558.15	43201.61
558.32	43063.52
558.48	42974.58
558.65	43100.97
558.81	42967.55
558.98	43262.46
559.14	43351.40
559.31	43051.81
559.47	43206.29
559.64	43648.65
559.80	43372.47
559.97	43393.53
560.13	43290.55
560.30	43180.54
560.46	43304.59
560.63	43133.73
560.79	43260.12
560.96	43442.68
561.12	43430.98
561.29	43133.73
561.45	43489.49
561.61	43627.59
561.78	43313.95
561.94	42869.25
562.11	43370.13
562.27	43576.09
562.44	43398.21
562.60	43468.43
562.77	43697.80
562.93	43494.18
563.10	44083.99
563.26	43157.14
563.42	43636.95
563.59	43276.51
563.75	43353.74
563.92	43309.27
564.08	44053.56
564.24	43501.20
564.41	43899.09
564.57	43395.87
564.74	44034.84
564.90	44128.46
565.07	43751.63
565.23	43243.74
565.39	43725.89
565.56	44257.19
565.72	43997.39
565.88	43578.43
566.05	43571.41
566.21	43899.09
566.38	43660.35
566.54	44058.24
566.70	43763.34
566.87	44135.48
567.03	43882.70
567.19	44023.14
567.36	43927.17
567.52	43831.21
567.68	44158.89
567.85	43835.89
568.01	43777.38
568.17	43793.76
568.34	44203.36
568.50	43889.73
568.66	43707.16
568.83	44549.76
568.99	43880.36
569.15	44067.61
569.32	43587.80
569.48	43562.05
569.64	44013.77
569.81	44348.47
569.97	44463.16
570.13	43669.72
570.30	44044.20
570.46	44245.49
570.62	43704.82
570.78	44191.65
570.95	43885.04
571.11	44453.79
571.27	44215.06
571.43	44334.43
571.60	44287.62
571.76	43686.10
571.92	43845.26
572.09	44168.25
572.25	44205.70
572.41	44067.61
572.57	44580.18
572.74	44519.33
572.90	43957.60
573.06	43964.62
573.22	44343.79
573.38	44121.44
573.55	44046.54
573.71	44257.19
573.87	44322.72
574.03	43910.79
574.20	44215.06
574.36	44009.09
574.52	44392.94
574.68	44669.12
574.84	44577.84
575.01	44296.98
575.17	44250.17
575.33	44423.37
575.49	43983.35
575.65	44528.69
575.82	44275.91
575.98	44399.96
576.14	44608.27
576.30	44336.77
576.46	44027.82
576.62	44198.68
576.79	44278.25
576.95	44011.43
577.11	44219.74
577.27	44165.91
577.43	44339.11
577.59	44151.87
577.75	44208.04
577.92	43775.04
578.08	43868.66
578.24	44027.82
578.40	44034.84
578.56	44140.16
578.72	44203.36
578.88	44758.06
579.04	44491.24
579.21	44229.10
579.37	44399.96
579.53	43847.60
579.69	44098.03
579.85	44095.69
580.01	44715.93
580.17	44741.68
580.33	44486.56
580.49	44467.84
580.65	44587.21
580.82	44666.78
580.98	44367.20
581.14	44519.33
581.30	44858.71
581.46	44287.62
581.62	44488.90
581.78	44739.34
581.94	44935.95
582.10	44498.26
582.26	44591.89
582.42	44275.91
582.58	44481.88
582.74	44715.93
582.90	44189.31
583.06	44580.18
583.22	44786.15
583.38	44959.35
583.54	44322.72
583.70	44435.07
583.86	44329.75
584.02	44177.61
584.18	44643.38
584.34	44584.86
584.50	44765.09
584.66	44460.82
584.82	44568.48
584.98	44411.67
585.14	44786.15
585.30	44114.42
585.46	44210.38
585.62	44622.31
585.78	44446.77
585.94	44252.51
586.10	44294.64
586.26	44844.66
586.42	44678.49
586.58	44704.23
586.74	44392.94
586.90	44573.16
587.06	44423.37
587.22	44704.23
587.38	44545.08
587.54	45041.27
587.70	44783.81
587.86	44720.62
588.02	44666.78
588.18	45043.61
588.34	44399.96
588.49	44163.57
588.65	44198.68
588.81	44498.26
588.97	44219.74
589.13	44528.69
589.29	44135.48
589.45	44327.41
589.61	44987.44
589.77	44690.19
589.93	44924.24
590.08	44669.12
590.24	44800.19
