SpectraSuite Data File
++++++++++++++++++++++++++++++++++++
Date: Fri Oct 25 10:43:17 EDT 2013
User: price-jones
Dark Spectrum Present: No
Reference Spectrum Present: No
Number of Sampled Component Spectra: 1
Spectrometers: USB2+H05261
Integration Time (usec): 100000 (USB2+H05261)
Spectra Averaged: 1 (USB2+H05261)
Boxcar Smoothing: 0 (USB2+H05261)
Correct for Electrical Dark: No (USB2+H05261)
Strobe/Lamp Enabled: No (USB2+H05261)
Correct for Detector Non-linearity: No (USB2+H05261)
Correct for Stray Light: No (USB2+H05261)
Number of Pixels in Processed Spectrum: 2048
>>>>>Begin Processed Spectral Data<<<<<
365.73	177.88
365.92	177.88
366.12	177.88
366.32	49.15
366.52	14.04
366.72	39.79
366.91	0.00
367.11	0.00
367.31	0.00
367.51	39.79
367.70	0.00
367.90	25.75
368.10	2.34
368.30	39.79
368.49	0.00
368.69	51.49
368.89	49.15
369.09	18.72
369.28	7.02
369.48	81.92
369.68	35.11
369.87	37.45
370.07	56.17
370.27	147.45
370.47	166.18
370.66	374.49
370.86	416.62
371.06	379.17
371.25	475.13
371.45	454.06
371.65	470.45
371.84	454.06
372.04	484.49
372.24	538.32
372.44	519.60
372.63	517.26
372.83	500.87
373.03	414.27
373.22	526.62
373.42	475.13
373.62	489.17
373.81	484.49
374.01	498.53
374.21	528.96
374.40	519.60
374.60	559.39
374.79	606.20
374.99	538.32
375.19	552.37
375.38	674.07
375.58	631.94
375.78	578.11
375.97	645.99
376.17	603.86
376.37	648.33
376.56	669.39
376.76	617.90
376.95	599.18
377.15	608.54
377.35	655.35
377.54	664.71
377.74	655.35
377.93	697.48
378.13	662.37
378.33	770.04
378.52	664.71
378.72	688.12
378.91	615.56
379.11	606.20
379.31	634.29
379.50	617.90
379.70	706.84
379.89	603.86
380.09	681.10
380.28	645.99
380.48	706.84
380.68	734.93
380.87	592.16
381.07	746.63
381.26	634.29
381.46	645.99
381.65	676.41
381.85	688.12
382.04	636.63
382.24	758.33
382.43	688.12
382.63	613.22
382.83	648.33
383.02	751.31
383.22	765.36
383.41	622.58
383.61	737.27
383.80	758.33
384.00	718.54
384.19	744.29
384.39	816.85
384.58	732.59
384.78	720.88
384.97	805.14
385.17	823.87
385.36	753.65
385.56	744.29
385.75	777.06
385.95	826.21
386.14	910.47
386.34	823.87
386.53	816.85
386.72	830.89
386.92	866.00
387.11	842.59
387.31	809.83
387.50	840.25
387.70	896.43
387.89	826.21
388.09	856.64
388.28	896.43
388.48	894.08
388.67	926.85
388.86	945.58
389.06	912.81
389.25	910.47
389.45	1027.50
389.64	896.43
389.84	961.96
390.03	940.90
390.22	966.64
390.42	940.90
390.61	971.32
390.81	1069.62
391.00	973.66
391.19	1121.12
391.39	1050.90
391.58	985.37
391.78	1083.67
391.97	1081.33
392.16	1018.13
392.36	1041.54
392.55	1013.45
392.75	1050.90
392.94	943.24
393.13	971.32
393.33	1004.09
393.52	1090.69
393.71	1167.93
393.91	1179.63
394.10	1093.03
394.29	980.68
394.49	1123.46
394.68	1193.67
394.88	1247.51
395.07	1219.42
395.26	1149.20
395.46	1228.78
395.65	1254.53
395.84	1289.64
396.04	1299.00
396.23	1160.91
396.42	1090.69
396.62	1086.01
396.81	1184.31
397.00	1226.44
397.19	1306.02
397.39	1270.91
397.58	1385.60
397.77	1444.11
397.97	1507.30
398.16	1486.24
398.35	1432.41
398.55	1446.45
398.74	1474.54
398.93	1607.95
399.12	1554.12
399.32	1570.50
399.51	1432.41
399.70	1526.03
399.90	1488.58
400.09	1551.78
400.28	1582.20
400.47	1610.29
400.67	1607.95
400.86	1671.14
401.05	1699.23
401.24	1657.10
401.44	1694.55
401.63	1680.50
401.82	1626.67
402.01	1614.97
402.21	1675.82
402.40	1701.57
402.59	1792.85
402.78	1727.32
402.97	1776.47
403.17	1675.82
403.36	1816.26
403.55	1755.40
403.74	1884.13
403.93	1781.15
404.13	1860.73
404.32	1846.68
404.51	1870.09
404.70	1912.22
404.89	1797.53
405.09	1898.17
405.28	2059.67
405.47	1984.77
405.66	2062.01
405.85	1912.22
406.05	2106.48
406.24	1970.73
406.43	1975.41
406.62	2029.24
406.81	2165.00
407.00	2094.78
407.20	1952.01
407.39	2003.50
407.58	2064.35
407.77	2122.87
407.96	2139.25
408.15	2169.68
408.34	2188.40
408.54	2349.90
408.73	2218.83
408.92	2228.19
409.11	2338.20
409.30	2284.36
409.49	2342.88
409.68	2253.94
409.87	2221.17
410.07	2326.49
410.26	2272.66
410.45	2375.64
410.64	2436.50
410.83	2443.52
411.02	2485.65
411.21	2630.76
411.40	2452.88
411.59	2607.36
411.78	2553.52
411.98	2612.04
412.17	2623.74
412.36	2607.36
412.55	2764.17
412.74	2752.47
412.93	2689.28
413.12	2736.09
413.31	2881.20
413.50	2785.24
413.69	2897.58
413.88	2874.18
414.07	2892.90
414.26	2909.29
414.45	2937.37
414.64	2963.12
414.83	2946.73
415.02	3103.55
415.22	3070.78
415.41	3073.12
415.60	3155.04
415.79	3082.49
415.98	3150.36
416.17	3190.15
416.36	3150.36
416.55	3152.70
416.74	3346.97
416.93	3178.45
417.12	3274.41
417.31	3318.88
417.50	3180.79
417.69	3358.67
417.88	3466.33
418.07	3396.12
418.26	3400.80
418.45	3492.08
418.64	3637.19
418.83	3569.32
419.02	3566.98
419.21	3613.79
419.39	3475.70
419.58	3442.93
419.77	3461.65
419.96	3522.51
420.15	3637.19
420.34	3616.13
420.53	3639.53
420.72	3744.86
420.91	3791.67
421.10	3686.34
421.29	3934.44
421.48	3695.71
421.67	3819.75
421.86	3735.50
422.05	3770.60
422.24	3644.21
422.43	3770.60
422.61	3794.01
422.80	3985.93
422.99	3843.16
423.18	3953.16
423.37	3988.27
423.56	4004.66
423.75	3861.88
423.94	3889.97
424.13	3845.50
424.32	3840.82
424.50	3913.38
424.69	3971.89
424.88	3932.10
425.07	3889.97
425.26	3969.55
425.45	3894.65
425.64	3918.06
425.83	3929.76
426.01	4100.62
426.20	4102.96
426.39	3969.55
426.58	3894.65
426.77	4014.02
426.96	3997.64
427.15	4004.66
427.33	4032.74
427.52	4126.36
427.71	4135.73
427.90	4004.66
428.09	4168.49
428.28	4084.23
428.46	4212.96
428.65	4131.05
428.84	4273.82
429.03	4332.33
429.22	3964.87
429.40	4229.35
429.59	4051.47
429.78	4025.72
429.97	3899.33
430.16	4058.49
430.34	4109.98
430.53	4210.62
430.72	4227.01
430.91	4224.67
431.10	4219.99
431.28	4484.47
431.47	4512.55
431.66	4596.81
431.85	4451.70
432.03	4514.89
432.22	4521.92
432.41	4624.90
432.60	4734.90
432.79	4557.02
432.97	4641.28
433.16	4704.48
433.35	4662.35
433.54	4557.02
433.72	4697.46
433.91	4652.98
434.10	4638.94
434.28	4828.53
434.47	4711.50
434.66	4807.46
434.85	4992.36
435.03	5067.26
435.22	4957.25
435.41	5057.90
435.59	4997.04
435.78	5018.11
435.97	5118.75
436.16	5081.30
436.34	5137.48
436.53	5132.79
436.72	5210.03
436.90	5032.15
437.09	5135.14
437.28	5050.88
437.46	5139.82
437.65	5139.82
437.84	5308.34
438.02	5029.81
438.21	5195.99
438.40	5207.69
438.58	5387.91
438.77	5203.01
438.96	5329.40
439.14	5413.66
439.33	5685.16
439.52	5535.37
439.70	5734.31
439.89	5551.75
440.08	5776.44
440.26	5708.57
440.45	5734.31
440.63	5879.43
440.82	5870.06
441.01	5891.13
441.19	5914.53
441.38	6092.41
441.57	6097.10
441.75	6167.31
441.94	6155.61
442.12	6284.34
442.31	6392.00
442.50	6427.11
442.68	6286.68
442.87	6359.24
443.05	6326.47
443.24	6466.90
443.43	6422.43
443.61	6410.73
443.80	6593.29
443.98	6373.28
444.17	6230.51
444.35	6476.26
444.54	6616.69
444.73	6520.73
444.91	6277.32
445.10	6483.28
445.28	6466.90
445.47	6497.33
445.65	6340.51
445.84	6394.34
446.02	6689.25
446.21	6415.41
446.39	6352.21
446.58	6572.22
446.77	6527.75
446.95	6445.84
447.14	6537.12
447.32	6825.00
447.51	6672.87
447.69	6691.59
447.88	6604.99
448.06	6686.91
448.25	6647.12
448.43	7002.88
448.62	6644.78
448.80	6801.60
448.99	6670.53
449.17	6539.46
449.36	7047.35
449.54	6974.80
449.73	7009.90
449.91	7164.38
450.10	7023.95
450.28	7129.27
450.46	7131.61
450.65	7353.96
450.83	7302.47
451.02	7068.42
451.20	7070.76
451.39	7241.62
451.57	7260.34
451.76	6995.86
451.94	7215.87
452.13	7344.60
452.31	7140.97
452.49	7007.56
452.68	7279.07
452.86	7169.06
453.05	7199.49
453.23	7295.45
453.42	7274.38
453.60	7349.28
453.78	7304.81
453.97	7274.38
454.15	7232.26
454.34	7339.92
454.52	7499.08
454.70	7524.82
454.89	7527.16
455.07	7419.50
455.26	7473.33
455.44	7733.13
455.62	7566.95
455.81	7674.62
455.99	7808.03
456.17	7824.41
456.36	7754.19
456.54	7808.03
456.73	7798.66
456.91	8016.33
457.09	7983.57
457.28	8187.19
457.46	7943.78
457.64	8098.25
457.83	8030.38
458.01	8006.97
458.19	8175.49
458.38	8152.09
458.56	8351.03
458.74	8198.90
458.93	8215.28
459.11	8088.89
459.29	8114.64
459.48	8276.13
459.66	8432.95
459.84	8358.05
460.03	8393.16
460.21	8514.87
460.39	8671.68
460.57	8472.74
460.76	8418.91
460.94	8578.06
461.12	8727.86
461.31	8552.32
461.49	8428.27
461.67	8395.50
461.85	8872.97
462.04	8826.16
462.22	9090.64
462.40	8781.69
462.59	8753.60
462.77	8720.84
462.95	8798.07
463.13	8961.91
463.32	8945.53
463.50	9039.15
463.68	8856.59
463.86	8898.72
464.05	8828.50
464.23	8835.52
464.41	8954.89
464.59	8865.95
464.78	9163.20
464.96	9200.65
465.14	9008.72
465.32	9100.00
465.50	9088.30
465.69	9212.35
465.87	9027.45
466.05	9130.43
466.23	9118.73
466.41	9029.79
466.60	9327.03
466.78	9100.00
466.96	9184.26
467.14	9277.88
467.32	9205.33
467.51	9357.46
467.69	9139.79
467.87	9315.33
468.05	9308.31
468.23	9366.82
468.41	9600.88
468.60	9303.63
468.78	9540.02
468.96	9415.98
469.14	9839.61
469.32	9858.34
469.50	9287.25
469.69	9682.80
469.87	9753.01
470.05	9685.14
470.23	9708.54
470.41	9736.63
470.59	9832.59
470.77	9760.03
470.95	9764.72
471.14	10071.33
471.32	10043.24
471.50	10097.07
471.68	10186.01
471.86	10356.87
472.04	10178.99
472.22	10457.51
472.40	10286.65
472.58	10232.82
472.77	10497.30
472.95	10668.16
473.13	10824.98
473.31	10427.09
473.49	10499.64
473.67	10429.43
473.85	10773.49
474.03	10920.94
474.21	10745.40
474.39	10909.24
474.57	11117.54
474.75	11061.37
474.93	11204.14
475.12	11162.01
475.30	11187.76
475.48	11162.01
475.66	11122.23
475.84	11325.85
476.02	11302.45
476.20	11597.35
476.38	11609.06
476.56	11707.36
476.74	11524.80
476.92	11557.57
477.10	11747.15
477.28	12023.33
477.46	11889.92
477.64	12175.47
477.82	12367.39
478.00	12624.85
478.18	12168.45
478.36	12407.18
478.54	12556.97
478.72	12526.55
478.90	12837.84
479.08	12910.40
479.26	12947.84
479.44	12964.23
479.62	13158.49
479.80	13317.65
479.98	13575.11
480.16	13556.38
480.34	13474.46
480.52	13495.53
480.70	13694.47
480.88	13645.32
481.06	13921.51
481.24	14057.26
481.41	14169.60
481.59	14335.78
481.77	14253.86
481.95	14363.87
482.13	14377.91
482.31	14441.11
482.49	14600.26
482.67	14953.68
482.85	14773.46
483.03	15033.26
483.21	15225.18
483.39	15178.37
483.57	14977.09
483.74	15300.08
483.92	15625.42
484.10	15267.31
484.28	15838.41
484.46	16128.63
484.64	16266.72
484.82	15960.11
485.00	16013.95
485.18	16322.90
485.35	16367.37
485.53	16070.12
485.71	16208.21
485.89	16175.44
486.07	16659.93
486.25	16463.33
486.43	16767.60
486.61	16795.68
486.78	17114.00
486.96	17549.34
487.14	17699.13
487.32	17528.27
487.50	17937.87
487.68	17951.91
487.85	18066.60
488.03	18134.47
488.21	18726.63
488.39	18597.90
488.57	18752.37
488.75	18731.31
488.92	19084.73
489.10	19534.11
489.28	19403.04
489.46	19309.42
489.64	19484.96
489.81	19826.68
489.99	19924.98
490.17	19967.11
490.35	20144.99
490.53	20505.43
490.70	20184.78
490.88	20212.87
491.06	20762.89
491.24	20498.41
491.41	20697.36
491.59	20779.28
491.77	20437.56
491.95	20830.77
492.13	21233.34
492.30	21451.01
492.48	21392.50
492.66	21748.26
492.84	21956.57
493.01	21811.45
493.19	21811.45
493.37	22270.20
493.54	22047.85
493.72	22214.02
493.90	22391.91
494.08	22785.12
494.25	22569.79
494.43	23040.23
494.61	23360.89
494.79	23403.02
494.96	23742.39
495.14	23318.76
495.32	23445.15
495.49	23433.44
495.67	23580.90
495.85	24128.58
496.02	24006.87
496.20	24247.95
496.38	24077.09
496.55	24292.42
496.73	24940.75
496.91	24421.15
497.09	24606.05
497.26	25062.46
497.44	24849.47
497.62	25095.22
497.79	25280.13
497.97	25043.73
498.14	25481.41
498.32	25446.30
498.50	25603.12
498.67	25785.68
498.85	25984.63
499.03	26169.53
499.20	25745.89
499.38	26352.09
499.56	26031.44
499.73	25965.90
499.91	26527.63
500.08	26658.70
500.26	26134.42
500.44	26342.73
500.61	26504.23
500.79	26398.90
500.97	27012.12
501.14	27325.75
501.32	27150.21
501.49	26576.78
501.67	26429.33
501.84	27204.05
502.02	27421.72
502.20	27723.65
502.37	27843.01
502.55	27641.73
502.72	27803.22
502.90	27913.23
503.07	27786.84
503.25	27672.15
503.43	27920.25
503.60	27913.23
503.78	28191.75
503.95	28142.60
504.13	28379.00
504.30	28636.45
504.48	28460.91
504.65	28872.85
504.83	28383.68
505.01	28945.41
505.18	28816.68
505.36	29144.35
505.53	29841.83
505.71	29509.47
505.88	29743.53
506.06	29408.83
506.23	29404.15
506.41	29284.78
506.58	29745.87
506.76	29638.20
506.93	29642.88
507.11	29329.25
507.28	30064.18
507.46	29802.04
507.63	29474.37
507.81	29965.88
507.98	29532.88
508.16	30293.55
508.33	30408.24
508.50	30579.10
508.68	30532.29
508.85	31068.27
509.03	30696.13
509.20	30902.09
509.38	30916.14
509.55	30991.03
509.73	30986.35
509.90	30991.03
510.08	31419.35
510.25	31215.72
510.42	31594.89
510.60	31803.20
510.77	31847.67
510.95	32067.68
511.12	31592.55
511.30	31409.99
511.47	31812.56
511.64	32369.61
511.82	32442.17
511.99	31744.69
512.17	31990.44
512.34	31812.56
512.51	32556.85
512.69	32416.42
512.86	32465.57
513.04	32732.39
513.21	33132.62
513.38	32854.10
513.56	32493.66
513.73	32556.85
513.90	32788.56
514.08	32680.90
514.25	32868.14
514.43	32978.15
514.60	32996.87
514.77	33216.88
514.95	33338.59
515.12	33266.03
515.29	33095.18
515.47	33626.48
515.64	33890.96
515.81	33645.20
515.99	33890.96
516.16	33846.49
516.33	33090.49
516.51	33385.40
516.68	33132.62
516.85	33336.25
517.03	33366.68
517.20	33287.10
517.37	34136.71
517.54	33935.43
517.72	34059.48
517.89	33404.13
518.06	33715.42
518.24	34094.58
518.41	34146.08
518.58	34178.84
518.75	34593.12
518.93	34459.71
519.10	34646.95
519.27	34710.14
519.45	34558.01
519.62	35108.04
519.79	35243.79
519.96	35431.03
520.14	35416.99
520.31	34904.41
520.48	35407.62
520.65	35204.00
520.83	35878.07
521.00	35480.18
521.17	35548.06
521.34	35744.66
521.52	35597.21
521.69	35697.85
521.86	35732.96
522.03	36357.88
522.20	36264.26
522.38	36147.23
522.55	36481.93
522.72	36140.21
522.89	36119.15
523.07	36734.71
523.24	36535.76
523.41	36776.84
523.58	36779.18
523.75	36837.69
523.92	37326.86
524.10	37312.82
524.27	36650.45
524.44	37095.15
524.61	36928.97
524.78	37160.69
524.96	37109.19
525.13	37296.44
525.30	37483.68
525.47	37689.65
525.64	37336.23
525.81	37638.15
525.98	37385.38
526.16	37036.64
526.33	36814.29
526.50	37380.70
526.67	36762.79
526.84	37067.06
527.01	37111.53
527.18	37743.48
527.36	38012.64
527.53	37787.95
527.70	38684.37
527.87	38199.88
528.04	38073.49
528.21	38246.69
528.38	38440.96
528.55	38726.50
528.72	38497.13
528.89	38998.01
529.07	38426.92
529.24	38199.88
529.41	38391.81
529.58	38377.76
529.75	38710.12
529.92	38897.36
530.09	38899.70
530.26	39187.59
530.43	38916.09
530.60	38672.67
530.77	39243.76
530.94	39203.97
531.11	38944.17
531.28	39297.59
531.46	39065.88
531.63	39372.49
531.80	38913.75
531.97	39311.64
532.14	39157.16
532.31	38904.38
532.48	38990.98
532.65	39459.09
532.82	39182.91
532.99	39384.19
533.16	39569.10
533.33	39941.24
533.50	39697.83
533.67	39803.15
533.84	39501.22
534.01	39501.22
534.18	39826.56
534.35	40334.45
534.52	40126.14
534.69	39693.15
534.86	40329.77
535.03	40318.07
535.20	40430.41
535.37	40580.21
535.54	40020.82
535.71	40299.34
535.88	40589.57
536.05	40311.05
536.22	40367.22
536.38	40325.09
536.55	40322.75
536.72	40215.08
536.89	40203.38
537.06	40025.50
537.23	40641.06
537.40	40818.94
537.57	40685.53
537.74	40617.66
537.91	41008.53
538.08	41048.32
538.25	40601.27
538.42	41165.34
538.59	41036.61
538.75	41092.79
538.92	40926.61
539.09	40945.33
539.26	41008.53
539.43	41322.16
539.60	41471.95
539.77	41078.74
539.94	40774.47
540.11	41029.59
540.28	41244.92
540.44	41244.92
540.61	41200.45
540.78	41081.08
540.95	41195.77
541.12	41221.52
541.29	41137.26
541.46	41158.32
541.62	41682.60
541.79	41731.75
541.96	41205.13
542.13	41041.29
542.30	41914.31
542.47	41352.58
542.63	41640.47
542.80	42134.32
542.97	42335.61
543.14	42588.39
543.31	42309.86
543.48	42483.06
543.64	42401.14
543.81	42632.86
543.98	42546.26
544.15	42499.45
544.32	42471.36
544.48	42948.83
544.65	42916.06
544.82	42572.00
544.99	42281.78
545.16	42618.81
545.32	42761.59
545.49	42965.21
545.66	43047.13
545.83	42628.18
546.00	42927.77
546.16	42752.23
546.33	42817.76
546.50	43005.00
546.67	43061.18
546.83	42508.81
547.00	42817.76
547.17	42623.50
547.34	42557.96
547.50	42859.89
547.67	43056.50
547.84	43042.45
548.00	43484.81
548.17	43187.56
548.34	43344.38
548.51	43658.01
548.67	43466.09
548.84	43695.46
549.01	43196.93
549.18	43278.85
549.34	43632.27
549.51	43435.66
549.68	43810.15
549.84	43552.69
550.01	43763.34
550.18	43761.00
550.34	43122.03
550.51	44039.52
550.68	43337.36
550.84	43442.68
551.01	43845.26
551.18	43449.70
551.34	43744.61
551.51	43587.80
551.68	44208.04
551.84	43852.28
552.01	43578.43
552.18	43538.65
552.34	43592.48
552.51	43784.40
552.68	44257.19
552.84	43723.55
553.01	44329.75
553.18	44165.91
553.34	44065.27
553.51	43634.61
553.67	44245.49
553.84	44535.71
554.01	44453.79
554.17	44725.30
554.34	44589.55
554.51	44201.02
554.67	44285.28
554.84	44526.35
555.00	44311.02
555.17	44158.89
555.33	44289.96
555.50	44233.78
555.67	44247.83
555.83	44528.69
556.00	44549.76
556.16	44559.12
556.33	44301.66
556.50	44699.55
556.66	44666.78
556.83	44367.20
556.99	44486.56
557.16	44542.74
557.32	44732.32
557.49	45326.81
557.65	44615.29
557.82	44645.72
557.98	44793.17
558.15	44737.00
558.32	45006.16
558.48	44636.36
558.65	44765.09
558.81	44591.89
558.98	44825.94
559.14	44296.98
559.31	44751.04
559.47	44987.44
559.64	44690.19
559.80	45233.19
559.97	44828.28
560.13	44580.18
560.30	44900.84
560.46	44879.77
560.63	45017.86
560.79	44891.48
560.96	45476.61
561.12	45010.84
561.29	44898.50
561.45	44526.35
561.61	45205.11
561.78	44634.02
561.94	44664.44
562.11	45034.25
562.27	45226.17
562.44	45034.25
562.60	45401.71
562.77	45301.07
562.93	45233.19
563.10	45263.62
563.26	45043.61
563.42	45324.47
563.59	45090.42
563.75	45478.95
563.92	45043.61
564.08	45546.82
564.24	45544.48
564.41	45254.26
564.57	45556.19
564.74	44896.16
564.90	45331.50
565.07	45413.41
565.23	45130.21
565.39	44949.99
565.56	45230.85
565.72	45034.25
565.88	45099.78
566.05	45127.87
566.21	45036.59
566.38	45354.90
566.54	45717.68
566.70	45837.05
566.87	45766.84
567.03	45600.66
567.19	45982.16
567.36	45359.58
567.52	45544.48
567.68	45572.57
567.85	45179.36
568.01	45471.93
568.17	45691.94
568.34	45956.42
568.50	45521.08
568.66	45015.52
568.83	45635.77
568.99	45027.23
569.15	45483.63
569.32	45530.44
569.48	45390.01
569.64	45715.34
569.81	45895.56
569.97	45610.02
570.13	45748.11
570.30	45336.18
570.46	45310.43
570.62	45160.64
570.78	45310.43
570.95	45017.86
571.11	45642.79
571.27	45439.16
571.43	45329.16
571.60	45565.55
571.76	45436.82
571.92	45535.12
572.09	45991.53
572.25	45951.74
572.41	45776.20
572.57	46234.94
572.74	45886.20
572.90	45701.30
573.06	46211.54
573.22	45425.12
573.38	45867.48
573.55	45890.88
573.71	46007.91
573.87	45879.18
574.03	45633.42
574.20	45607.68
574.36	45483.63
574.52	46010.25
574.68	45172.34
574.84	45614.70
575.01	45713.00
575.17	45567.89
575.33	45296.39
575.49	45244.90
575.65	45743.43
575.82	46185.79
575.98	45450.86
576.14	46277.07
576.30	45457.88
576.46	45380.65
576.62	45680.24
576.79	45961.10
576.95	45326.81
577.11	45544.48
577.27	45766.84
577.43	45766.84
577.59	45485.97
577.75	45731.73
577.92	45120.85
578.08	45338.52
578.24	45811.31
578.40	45516.40
578.56	45579.59
578.72	45778.54
578.88	45844.07
579.04	45935.35
579.21	45523.42
579.37	45598.32
579.53	45411.07
579.69	45457.88
579.85	45584.27
580.01	45837.05
580.17	46028.98
580.33	45736.41
580.49	46178.77
580.65	45687.26
580.82	45703.64
580.98	45542.14
581.14	45715.34
581.30	45883.86
581.46	45364.26
581.62	45993.87
581.78	45720.02
581.94	45993.87
582.10	45876.84
582.26	46028.98
582.42	45972.80
582.58	45851.09
582.74	45631.08
582.90	45694.28
583.06	46138.98
583.22	45544.48
583.38	45996.21
583.54	45977.48
583.70	46010.25
583.86	46167.07
584.02	45366.60
584.18	45918.97
584.34	45818.33
584.50	45670.87
584.66	45886.20
584.82	45724.71
584.98	45792.58
585.14	45680.24
585.30	45586.61
585.46	45911.95
585.62	45333.84
585.78	46024.29
585.94	45553.85
586.10	45839.39
586.26	45591.30
586.42	46115.58
586.58	45844.07
586.74	46059.40
586.90	45532.78
587.06	45652.15
587.22	46115.58
587.38	45684.92
587.54	45743.43
587.70	46033.66
587.86	45698.96
588.02	46078.13
588.18	45996.21
588.34	45684.92
588.49	45567.89
588.65	45397.03
588.81	45289.37
588.97	45528.10
589.13	45617.04
589.29	46007.91
589.45	45476.61
589.61	45359.58
589.77	46052.38
589.93	46059.40
590.08	46026.63
