SpectraSuite Data File
++++++++++++++++++++++++++++++++++++
Date: Fri Oct 25 10:43:27 EDT 2013
User: price-jones
Dark Spectrum Present: No
Reference Spectrum Present: No
Number of Sampled Component Spectra: 1
Spectrometers: USB2+H05261
Integration Time (usec): 100000 (USB2+H05261)
Spectra Averaged: 1 (USB2+H05261)
Boxcar Smoothing: 0 (USB2+H05261)
Correct for Electrical Dark: No (USB2+H05261)
Strobe/Lamp Enabled: No (USB2+H05261)
Correct for Detector Non-linearity: No (USB2+H05261)
Correct for Stray Light: No (USB2+H05261)
Number of Pixels in Processed Spectrum: 2048
>>>>>Begin Processed Spectral Data<<<<<
365.73	135.75
365.92	135.75
366.12	135.75
366.32	46.81
366.52	0.00
366.72	88.94
366.91	0.00
367.11	11.70
367.31	0.00
367.51	39.79
367.70	58.51
367.90	23.41
368.10	0.00
368.30	74.90
368.49	0.00
368.69	86.60
368.89	39.79
369.09	0.00
369.28	37.45
369.48	25.75
369.68	65.54
369.87	70.22
370.07	112.35
370.27	128.73
370.47	208.31
370.66	332.36
370.86	383.85
371.06	451.72
371.25	498.53
371.45	477.47
371.65	435.34
371.84	428.32
372.04	456.40
372.24	482.15
372.44	561.73
372.63	521.94
372.83	540.66
373.03	486.83
373.22	491.51
373.42	514.92
373.62	528.96
373.81	479.81
374.01	545.34
374.21	543.00
374.40	594.50
374.60	559.39
374.79	543.00
374.99	580.45
375.19	535.98
375.38	550.03
375.58	578.11
375.78	610.88
375.97	557.05
376.17	608.54
376.37	608.54
376.56	723.23
376.76	620.24
376.95	610.88
377.15	582.79
377.35	674.07
377.54	650.67
377.74	631.94
377.93	657.69
378.13	650.67
378.33	713.86
378.52	688.12
378.72	664.71
378.91	706.84
379.11	636.63
379.31	629.60
379.50	585.13
379.70	629.60
379.89	685.78
380.09	636.63
380.28	732.59
380.48	681.10
380.68	678.76
380.87	812.17
381.07	784.08
381.26	779.40
381.46	730.25
381.65	676.41
381.85	662.37
382.04	678.76
382.24	615.56
382.43	681.10
382.63	648.33
382.83	653.01
383.02	711.52
383.22	695.14
383.41	648.33
383.61	669.39
383.80	681.10
384.00	798.12
384.19	856.64
384.39	795.78
384.58	821.53
384.78	875.36
384.97	798.12
385.17	800.46
385.36	737.27
385.56	755.99
385.75	800.46
385.95	812.17
386.14	894.08
386.34	863.66
386.53	798.12
386.72	748.97
386.92	840.25
387.11	734.93
387.31	781.74
387.50	798.12
387.70	786.42
387.89	851.96
388.09	868.34
388.28	807.48
388.48	835.57
388.67	917.49
388.86	973.66
389.06	936.21
389.25	945.58
389.45	976.00
389.64	971.32
389.84	994.73
390.03	957.28
390.22	1008.77
390.42	992.39
390.61	961.96
390.81	994.73
391.00	1130.48
391.19	1036.86
391.39	992.39
391.58	1029.84
391.78	973.66
391.97	1083.67
392.16	990.05
392.36	1013.45
392.55	1043.88
392.75	1036.86
392.94	1008.77
393.13	966.64
393.33	964.30
393.52	1006.43
393.71	1067.28
393.91	1083.67
394.10	1121.12
394.29	1231.12
394.49	1116.44
394.68	1125.80
394.88	1240.48
395.07	1177.29
395.26	1270.91
395.46	1188.99
395.65	1245.16
395.84	1172.61
396.04	1231.12
396.23	1111.75
396.42	1114.10
396.62	1149.20
396.81	1282.61
397.00	1242.82
397.19	1177.29
397.39	1282.61
397.58	1366.87
397.77	1327.08
397.97	1371.55
398.16	1331.76
398.35	1448.79
398.55	1446.45
398.74	1399.64
398.93	1530.71
399.12	1535.39
399.32	1383.26
399.51	1540.07
399.70	1614.97
399.90	1570.50
400.09	1533.05
400.28	1514.33
400.47	1572.84
400.67	1621.99
400.86	1612.63
401.05	1544.75
401.24	1621.99
401.44	1652.42
401.63	1633.69
401.82	1605.61
402.01	1729.66
402.21	1746.04
402.40	1757.74
402.59	1788.17
402.78	1703.91
402.97	1792.85
403.17	1720.29
403.36	1839.66
403.55	1715.61
403.74	1664.12
403.93	1898.17
404.13	1881.79
404.32	1720.29
404.51	1837.32
404.70	1753.06
404.89	1860.73
405.09	1909.88
405.28	1989.46
405.47	1849.02
405.66	1884.13
405.85	1895.83
406.05	1937.96
406.24	1902.86
406.43	1923.92
406.62	2008.18
406.81	2174.36
407.00	2012.86
407.20	2036.27
407.39	1984.77
407.58	2094.78
407.77	2125.21
407.96	2263.30
408.15	2083.08
408.34	2120.53
408.54	2249.25
408.73	2235.21
408.92	2251.60
409.11	2221.17
409.30	2333.51
409.49	2237.55
409.68	2202.44
409.87	2253.94
410.07	2333.51
410.26	2256.28
410.45	2431.82
410.64	2394.37
410.83	2457.56
411.02	2509.05
411.21	2518.42
411.40	2567.57
411.59	2579.27
411.78	2619.06
411.98	2572.25
412.17	2551.18
412.36	2677.57
412.55	2621.40
412.74	2630.76
412.93	2534.80
413.12	2651.83
413.31	2850.77
413.50	2829.71
413.69	2850.77
413.88	2846.09
414.07	2871.84
414.26	2937.37
414.45	2935.03
414.64	2871.84
414.83	2909.29
415.02	3014.61
415.22	3061.42
415.41	3049.72
415.60	3061.42
415.79	3155.04
415.98	3227.60
416.17	3108.23
416.36	3094.19
416.55	3171.43
416.74	3155.04
416.93	3239.30
417.12	3187.81
417.31	3323.56
417.50	3258.03
417.69	3414.84
417.88	3529.53
418.07	3281.43
418.26	3192.49
418.45	3368.03
418.64	3623.15
418.83	3426.54
419.02	3524.85
419.21	3543.57
419.39	3463.99
419.58	3431.23
419.77	3515.48
419.96	3466.33
420.15	3492.08
420.34	3562.30
420.53	3681.66
420.72	3740.18
420.91	3667.62
421.10	3889.97
421.29	3796.35
421.48	3606.77
421.67	3815.07
421.86	3667.62
422.05	3709.75
422.24	3648.90
422.43	3772.94
422.61	3630.17
422.80	3946.14
422.99	3873.59
423.18	3721.45
423.37	4095.94
423.56	3836.14
423.75	3840.82
423.94	3812.73
424.13	3602.08
424.32	3770.60
424.50	3964.87
424.69	3911.04
424.88	3892.31
425.07	3679.32
425.26	3768.26
425.45	3925.08
425.64	3777.62
425.83	3981.25
426.01	4056.15
426.20	4051.47
426.39	3936.78
426.58	4095.94
426.77	3946.14
426.96	3946.14
427.15	3798.69
427.33	3983.59
427.52	3932.10
427.71	4016.36
427.90	4156.79
428.09	3997.64
428.28	4149.77
428.46	4191.90
428.65	4077.21
428.84	4077.21
429.03	4091.26
429.22	4070.19
429.40	4142.75
429.59	3936.78
429.78	4007.00
429.97	3880.61
430.16	4126.36
430.34	4072.53
430.53	4166.15
430.72	4149.77
430.91	4147.43
431.10	4208.28
431.28	4463.40
431.47	4407.23
431.66	4491.49
431.85	4470.42
432.03	4416.59
432.22	4416.59
432.41	4564.04
432.60	4482.13
432.79	4734.90
432.97	4692.77
433.16	4660.01
433.35	4489.15
433.54	4683.41
433.72	4657.67
433.91	4564.04
434.10	4732.56
434.28	4662.35
434.47	4781.71
434.66	4793.42
434.85	4840.23
435.03	4875.34
435.22	4905.76
435.41	5090.67
435.59	4964.28
435.78	4943.21
435.97	5008.75
436.16	5078.96
436.34	5008.75
436.53	5004.07
436.72	5144.50
436.90	4985.34
437.09	4987.68
437.28	4865.97
437.46	5146.84
437.65	5165.56
437.84	5100.03
438.02	5029.81
438.21	5158.54
438.40	4990.02
438.58	5418.34
438.77	5313.02
438.96	5359.83
439.14	5490.90
439.33	5544.73
439.52	5657.07
439.70	5509.62
439.89	5584.52
440.08	5621.97
440.26	5671.12
440.45	5636.01
440.63	5493.24
440.82	5813.89
441.01	5715.59
441.19	5774.10
441.38	5839.64
441.57	5884.11
441.75	6083.05
441.94	6127.52
442.12	6209.44
442.31	6085.39
442.50	6265.61
442.68	6204.76
442.87	6150.93
443.05	6242.21
443.24	6370.94
443.43	6300.72
443.61	6347.53
443.80	6548.82
443.98	6228.17
444.17	6099.44
444.35	6319.45
444.54	6502.01
444.73	6392.00
444.91	6251.57
445.10	6384.98
445.28	6186.04
445.47	6326.47
445.65	6415.41
445.84	6406.05
446.02	6424.77
446.21	6375.62
446.39	6359.24
446.58	6693.93
446.77	6406.05
446.95	6389.66
447.14	6745.42
447.32	6787.55
447.51	6693.93
447.69	6597.97
447.88	6607.33
448.06	6705.63
448.25	6537.12
448.43	6579.25
448.62	6715.00
448.80	6593.29
448.99	6895.22
449.17	6623.72
449.36	6614.35
449.54	6885.86
449.73	6984.16
449.91	6951.39
450.10	7030.97
450.28	7211.19
450.46	7084.80
450.65	7145.66
450.83	7131.61
451.02	6981.82
451.20	7250.98
451.39	7138.63
451.57	7082.46
451.76	7082.46
451.94	7063.74
452.13	7066.08
452.31	7066.08
452.49	7056.72
452.68	6916.28
452.86	6974.80
453.05	7194.81
453.23	7213.53
453.42	7061.40
453.60	7133.95
453.78	7211.19
453.97	7398.43
454.15	7372.69
454.34	7253.32
454.52	7466.31
454.70	7288.43
454.89	7353.96
455.07	7424.18
455.26	7517.80
455.44	7583.34
455.62	7646.53
455.81	7496.74
455.99	7616.10
456.17	7646.53
456.36	7761.22
456.54	7939.10
456.73	7691.00
456.91	8149.75
457.09	7873.56
457.28	8126.34
457.46	7903.99
457.64	8032.72
457.83	8011.65
458.01	7854.84
458.19	8112.30
458.38	8112.30
458.56	8021.02
458.74	8037.40
458.93	7953.14
459.11	8046.76
459.29	8196.56
459.48	8264.43
459.66	8348.69
459.84	8184.85
460.03	8269.11
460.21	8442.31
460.39	8297.20
460.57	8334.65
460.76	8287.84
460.94	8397.84
461.12	8535.93
461.31	8760.63
461.49	8561.68
461.67	8388.48
461.85	8690.41
462.04	8655.30
462.22	9076.60
462.40	8636.58
462.59	8702.11
462.77	8699.77
462.95	8779.35
463.13	8812.12
463.32	8788.71
463.50	8879.99
463.68	8898.72
463.86	9015.74
464.05	8706.79
464.23	8730.20
464.41	9048.51
464.59	8592.11
464.78	8947.87
464.96	9156.18
465.14	8959.57
465.32	9280.22
465.50	9151.49
465.69	9287.25
465.87	9039.15
466.05	9123.41
466.23	9083.62
466.41	8968.93
466.60	9280.22
466.78	9114.05
466.96	9027.45
467.14	9317.67
467.32	9277.88
467.51	9427.68
467.69	8959.57
467.87	9423.00
468.05	9544.70
468.23	9270.86
468.41	9123.41
468.60	9273.20
468.78	9451.08
468.96	9481.51
469.14	9362.14
469.32	9551.73
469.50	9219.37
469.69	9533.00
469.87	9671.09
470.05	9603.22
470.23	9509.60
470.41	9589.17
470.59	9682.80
470.77	9659.39
470.95	9860.68
471.14	9841.95
471.32	9856.00
471.50	10113.45
471.68	10052.60
471.86	10235.16
472.04	10588.58
472.22	10307.72
472.40	10099.41
472.58	10207.08
472.77	10345.17
472.95	10403.68
473.13	10654.12
473.31	10394.32
473.49	10354.53
473.67	10317.08
473.85	10654.12
474.03	10548.79
474.21	10672.84
474.39	10885.83
474.57	10827.32
474.75	10834.34
474.93	11026.26
475.12	11192.44
475.30	10993.50
475.48	10899.87
475.66	11077.76
475.84	11274.36
476.02	11332.87
476.20	11101.16
476.38	11440.54
476.56	11702.68
476.74	11459.26
476.92	11431.18
477.10	11531.82
477.28	11754.17
477.46	11985.88
477.64	11915.67
477.82	12290.15
478.00	12226.96
478.18	12191.85
478.36	12538.25
478.54	12451.65
478.72	12727.83
478.90	12858.90
479.08	12531.23
479.26	13088.28
479.44	13095.30
479.62	12945.50
479.80	13144.45
479.98	13174.88
480.16	13366.80
480.34	13408.93
480.52	13523.62
480.70	13521.27
480.88	13514.25
481.06	13380.84
481.24	13406.59
481.41	13823.20
481.59	14232.80
481.77	14019.81
481.95	14314.72
482.13	14321.74
482.31	14394.29
482.49	14588.56
482.67	14588.56
482.85	14494.94
483.03	14759.42
483.21	14906.87
483.39	14888.15
483.57	15051.99
483.74	15129.22
483.92	15061.35
484.10	15248.59
484.28	15569.24
484.46	15854.79
484.64	16053.73
484.82	15681.59
485.00	15791.59
485.18	16210.55
485.35	16236.30
485.53	16077.14
485.71	16154.38
485.89	16093.52
486.07	16170.76
486.25	16262.04
486.43	16641.21
486.61	16865.90
486.78	17167.83
486.96	16943.14
487.14	17376.14
487.32	17184.21
487.50	17788.07
487.68	17640.62
487.85	17961.27
488.03	18218.73
488.21	18197.67
488.39	18185.96
488.57	18160.22
488.75	18295.97
488.92	18710.24
489.10	18958.34
489.28	19012.17
489.46	19157.28
489.64	19091.75
489.81	19667.52
489.99	20058.39
490.17	19967.11
490.35	20137.97
490.53	19908.60
490.70	20112.22
490.88	20332.23
491.06	20451.60
491.24	20278.40
491.41	20290.10
491.59	20271.38
491.77	20142.65
491.95	20526.50
492.13	20900.98
492.30	21434.63
492.48	21277.81
492.66	21589.10
492.84	21795.07
493.01	21600.80
493.19	21556.33
493.37	21940.18
493.54	22001.04
493.72	22148.49
493.90	22218.71
494.08	22635.32
494.25	22469.14
494.43	22883.42
494.61	23089.38
494.79	23075.34
494.96	23042.57
495.14	23087.04
495.32	23262.58
495.49	23536.43
495.67	23391.31
495.85	23475.57
496.02	23770.48
496.20	23740.05
496.38	24297.10
496.55	23903.89
496.73	24765.21
496.91	24788.61
497.09	24802.66
497.26	24807.34
497.44	24451.58
497.62	24723.08
497.79	25041.39
497.97	24746.48
498.14	24886.92
498.32	25139.69
498.50	25261.40
498.67	25579.71
498.85	25528.22
499.03	25685.04
499.20	26094.63
499.38	25851.22
499.56	26036.12
499.73	25965.90
499.91	26192.94
500.08	26300.60
500.26	26480.82
500.44	26384.86
500.61	26075.91
500.79	25518.86
500.97	26562.74
501.14	26761.69
501.32	26733.60
501.49	26506.57
501.67	26532.31
501.84	26874.03
502.02	27377.25
502.20	27330.44
502.37	27407.67
502.55	27442.78
502.72	27379.59
502.90	27477.89
503.07	27480.23
503.25	27730.67
503.43	27620.66
503.60	27772.80
503.78	27988.13
503.95	27995.15
504.13	28217.50
504.30	28182.39
504.48	28116.86
504.65	28364.95
504.83	28308.78
505.01	29024.98
505.18	28666.88
505.36	28982.85
505.53	28704.33
505.71	29186.48
505.88	28950.09
506.06	28797.95
506.23	29233.29
506.41	29252.02
506.58	29631.18
506.76	29371.38
506.93	30094.61
507.11	29174.78
507.28	29387.77
507.46	29603.10
507.63	29572.67
507.81	29668.63
507.98	29469.69
508.16	30213.98
508.33	29743.53
508.50	30471.43
508.68	30817.83
508.85	30717.19
509.03	30422.28
509.20	30714.85
509.38	30672.72
509.55	30677.40
509.73	30902.09
509.90	31234.45
510.08	30937.20
510.25	30813.15
510.42	30747.62
510.60	31288.28
510.77	31440.42
510.95	31669.79
511.12	31180.62
511.30	31566.81
511.47	31934.27
511.64	31489.57
511.82	32257.26
511.99	31627.66
512.17	32058.32
512.34	31772.77
512.51	32198.75
512.69	32140.24
512.86	31983.42
513.04	32315.78
513.21	32732.39
513.38	32409.40
513.56	32449.19
513.73	32699.62
513.90	32671.54
514.08	32694.94
514.25	32549.83
514.43	32676.22
514.60	32814.31
514.77	32608.34
514.95	33043.68
515.12	32875.16
515.29	33120.92
515.47	33200.50
515.64	33614.77
515.81	33420.51
515.99	33268.37
516.16	33764.57
516.33	33443.91
516.51	32929.00
516.68	32723.03
516.85	32528.77
517.03	33165.39
517.20	33631.16
517.37	33689.67
517.54	33916.70
517.72	33970.54
517.89	33516.47
518.06	33369.02
518.24	33556.26
518.41	33851.17
518.58	34164.80
518.75	34092.24
518.93	34291.19
519.10	34499.50
519.27	34438.64
519.45	34586.10
519.62	34670.36
519.79	34972.28
519.96	34848.24
520.14	34913.77
520.31	34508.86
520.48	34714.83
520.65	34845.90
520.83	35370.18
521.00	35447.41
521.17	35086.97
521.34	35618.27
521.52	35718.92
521.69	35613.59
521.86	35784.45
522.03	35662.74
522.20	35632.32
522.38	35683.81
522.55	35992.76
522.72	36046.59
522.89	35601.89
523.07	36025.53
523.24	36041.91
523.41	36872.80
523.58	36402.35
523.75	36800.24
523.92	36802.58
524.10	36718.32
524.27	36634.06
524.44	36418.74
524.61	36711.30
524.78	36692.58
524.96	37006.21
525.13	36776.84
525.30	37223.88
525.47	36870.46
525.64	37242.60
525.81	36921.95
525.98	37383.04
526.16	37359.63
526.33	36985.15
526.50	37420.48
526.67	36917.27
526.84	36528.74
527.01	36903.23
527.18	37104.51
527.36	37869.87
527.53	37579.64
527.70	38213.93
527.87	37897.95
528.04	38022.00
528.21	37715.39
528.38	38211.59
528.55	38525.22
528.72	38550.96
528.89	38745.23
529.07	37940.08
529.24	37930.72
529.41	38033.71
529.58	38188.18
529.75	38567.35
529.92	38539.26
530.09	38527.56
530.26	38352.02
530.43	38962.90
530.60	38391.81
530.77	38827.15
530.94	38944.17
531.11	38813.10
531.28	39068.22
531.46	39154.82
531.63	39117.37
531.80	39131.42
531.97	39379.51
532.14	38682.03
532.31	38623.52
532.48	39103.33
532.65	38717.14
532.82	38616.50
532.99	39288.23
533.16	39438.03
533.33	39555.05
533.50	39730.59
533.67	39620.59
533.84	39255.46
534.01	39576.12
534.18	39569.10
534.35	39763.36
534.52	39646.33
534.69	40037.20
534.86	39945.92
535.03	40102.74
535.20	40362.54
535.37	39871.03
535.54	40680.85
535.71	40460.84
535.88	40137.85
536.05	40414.03
536.22	40430.41
536.38	40580.21
536.55	39992.73
536.72	40407.01
536.89	39604.20
537.06	39880.39
537.23	40488.93
537.40	40608.29
537.57	40931.29
537.74	40725.32
537.91	41408.76
538.08	40526.38
538.25	40769.79
538.42	40858.73
538.59	41209.81
538.75	40823.62
538.92	40650.42
539.09	41013.21
539.26	40940.65
539.43	40577.87
539.60	40767.45
539.77	40430.41
539.94	40758.09
540.11	40737.02
540.28	41099.81
540.44	41422.80
540.61	40832.99
540.78	40872.78
540.95	40685.53
541.12	40720.64
541.29	40964.06
541.46	41727.07
541.62	41242.58
541.79	41436.84
541.96	41144.28
542.13	41481.31
542.30	41500.04
542.47	41556.21
542.63	40891.50
542.80	41563.23
542.97	42047.72
543.14	41874.52
543.31	42314.55
543.48	41933.04
543.64	42319.23
543.81	42443.27
543.98	41794.95
544.15	41914.31
544.32	42436.25
544.48	42712.44
544.65	42043.04
544.82	42550.94
544.99	42284.12
545.16	42429.23
545.32	42377.74
545.49	42829.46
545.66	42906.70
545.83	42590.73
546.00	42843.51
546.16	42623.50
546.33	42679.67
546.50	42256.03
546.67	42735.84
546.83	42408.17
547.00	42593.07
547.17	42653.92
547.34	42447.96
547.50	42763.93
547.67	43374.81
547.84	43089.26
548.00	42857.55
548.17	43299.91
548.34	42885.64
548.51	43248.42
548.67	43889.73
548.84	43330.34
549.01	43215.65
549.18	42962.87
549.34	43019.05
549.51	43342.04
549.68	43519.92
549.84	43152.46
550.01	43791.42
550.18	42927.77
550.34	43454.39
550.51	43271.82
550.68	43562.05
550.84	43239.06
551.01	43569.07
551.18	43459.07
551.34	43491.83
551.51	43784.40
551.68	43805.47
551.84	43863.98
552.01	43606.52
552.18	43838.23
552.34	43405.23
552.51	43819.51
552.68	43480.13
552.84	43871.00
553.01	43906.11
553.18	43894.41
553.34	44069.95
553.51	44083.99
553.67	44446.77
553.84	44355.49
554.01	44271.23
554.17	44612.95
554.34	44030.16
554.51	44046.54
554.67	44158.89
554.84	44376.56
555.00	43922.49
555.17	43650.99
555.33	44458.48
555.50	44191.65
555.67	44149.53
555.83	43969.30
556.00	44229.10
556.16	44746.36
556.33	44032.50
556.50	44289.96
556.66	44397.62
556.83	44158.89
556.99	44126.12
557.16	44411.67
557.32	44844.66
557.49	44884.45
557.65	44456.14
557.82	43894.41
557.98	44706.57
558.15	44498.26
558.32	44751.04
558.48	44135.48
558.65	44491.24
558.81	44100.37
558.98	44498.26
559.14	44767.43
559.31	44437.41
559.47	44638.70
559.64	44563.80
559.80	45116.17
559.97	44961.69
560.13	44247.83
560.30	45125.53
560.46	44994.46
560.63	45106.80
560.79	45130.21
560.96	45242.56
561.12	44711.25
561.29	44802.53
561.45	44961.69
561.61	44542.74
561.78	44877.43
561.94	44783.81
562.11	45219.15
562.27	44795.51
562.44	44713.59
562.60	45364.26
562.77	44837.64
562.93	45261.28
563.10	45443.84
563.26	44966.37
563.42	45347.88
563.59	44645.72
563.75	45144.25
563.92	45427.46
564.08	45116.17
564.24	45485.97
564.41	44917.22
564.57	45031.91
564.74	44884.45
564.90	45237.87
565.07	45258.94
565.23	45387.67
565.39	45418.10
565.56	45127.87
565.72	45038.93
565.88	44996.80
566.05	45038.93
566.21	45038.93
566.38	45057.65
566.54	45230.85
566.70	45446.18
566.87	45535.12
567.03	45074.04
567.19	45972.80
567.36	45708.32
567.52	45614.70
567.68	45411.07
567.85	45277.66
568.01	44842.32
568.17	45228.51
568.34	45277.66
568.50	45464.91
568.66	45125.53
568.83	45558.53
568.99	45401.71
569.15	45329.16
569.32	45523.42
569.48	45172.34
569.64	45539.80
569.81	44992.12
569.97	44926.58
570.13	45574.91
570.30	44622.31
570.46	44968.71
570.62	45132.55
570.78	45134.89
570.95	45041.27
571.11	45422.78
571.27	44708.91
571.43	45212.13
571.60	45212.13
571.76	45563.21
571.92	45352.56
572.09	45368.94
572.25	45600.66
572.41	45324.47
572.57	45467.25
572.74	45914.29
572.90	45336.18
573.06	45687.26
573.22	45673.21
573.38	45261.28
573.55	45511.72
573.71	46099.19
573.87	45834.71
574.03	45530.44
574.20	45551.51
574.36	45549.17
574.52	45668.53
574.68	45710.66
574.84	45429.80
575.01	45469.59
575.17	45881.52
575.33	45347.88
575.49	45535.12
575.65	45703.64
575.82	45581.93
575.98	45577.25
576.14	45823.01
576.30	45977.48
576.46	45797.26
576.62	45516.40
576.79	45525.76
576.95	45212.13
577.11	45490.65
577.27	45741.09
577.43	45460.23
577.59	45223.83
577.75	45289.37
577.92	45429.80
578.08	45354.90
578.24	45272.98
578.40	45422.78
578.56	45673.21
578.72	45752.79
578.88	45755.13
579.04	45752.79
579.21	45345.54
579.37	45401.71
579.53	45839.39
579.69	45111.49
579.85	45275.32
580.01	45476.61
580.17	45603.00
580.33	45659.17
580.49	45567.89
580.65	45439.16
580.82	45815.99
580.98	45640.45
581.14	45240.21
581.30	45661.51
581.46	45546.82
581.62	45610.02
581.78	45909.61
581.94	46057.06
582.10	45574.91
582.26	45198.09
582.42	45612.36
582.58	45818.33
582.74	45542.14
582.90	45815.99
583.06	45792.58
583.22	45703.64
583.38	45961.10
583.54	45933.01
583.70	46131.96
583.86	46054.72
584.02	45588.95
584.18	45600.66
584.34	45750.45
584.50	45619.38
584.66	45752.79
584.82	45633.42
584.98	46092.17
585.14	45785.56
585.30	45684.92
585.46	45687.26
585.62	45324.47
585.78	45436.82
585.94	45359.58
586.10	45565.55
586.26	45331.50
586.42	45565.55
586.58	45305.75
586.74	45727.05
586.90	45574.91
587.06	45984.51
587.22	45827.69
587.38	45785.56
587.54	45375.97
587.70	45961.10
587.86	45490.65
588.02	45792.58
588.18	45879.18
588.34	45837.05
588.49	45106.80
588.65	45240.21
588.81	45118.51
588.97	45378.31
589.13	45404.05
589.29	45481.29
589.45	45710.66
589.61	45392.35
589.77	45925.99
589.93	46064.08
590.08	46087.49
