SpectraSuite Data File
++++++++++++++++++++++++++++++++++++
Date: Fri Oct 25 11:26:26 EDT 2013
User: price-jones
Dark Spectrum Present: No
Reference Spectrum Present: No
Number of Sampled Component Spectra: 1
Spectrometers: USB2+H05261
Integration Time (usec): 100000 (USB2+H05261)
Spectra Averaged: 1 (USB2+H05261)
Boxcar Smoothing: 0 (USB2+H05261)
Correct for Electrical Dark: No (USB2+H05261)
Strobe/Lamp Enabled: No (USB2+H05261)
Correct for Detector Non-linearity: No (USB2+H05261)
Correct for Stray Light: No (USB2+H05261)
Number of Pixels in Processed Spectrum: 2048
>>>>>Begin Processed Spectral Data<<<<<
365.73	208.31
365.92	208.31
366.12	208.31
366.32	161.50
366.52	170.86
366.72	187.24
366.91	147.45
367.11	142.77
367.31	107.66
367.51	98.30
367.70	142.77
367.90	194.26
368.10	131.07
368.30	128.73
368.49	91.28
368.69	133.41
368.89	112.35
369.09	159.16
369.28	147.45
369.48	201.29
369.68	168.52
369.87	250.44
370.07	236.39
370.27	203.63
370.47	250.44
370.66	594.50
370.86	601.52
371.06	599.18
371.25	737.27
371.45	664.71
371.65	760.67
371.84	711.52
372.04	650.67
372.24	669.39
372.44	725.57
372.63	739.61
372.83	812.17
373.03	779.40
373.22	702.16
373.42	781.74
373.62	730.25
373.81	744.29
374.01	894.08
374.21	784.08
374.40	847.27
374.60	770.04
374.79	784.08
374.99	781.74
375.19	828.55
375.38	849.61
375.58	861.32
375.78	917.49
375.97	903.45
376.17	910.47
376.37	868.34
376.56	912.81
376.76	856.64
376.95	922.17
377.15	889.40
377.35	866.00
377.54	994.73
377.74	887.06
377.93	968.98
378.13	919.83
378.33	887.06
378.52	917.49
378.72	910.47
378.91	959.62
379.11	929.19
379.31	973.66
379.50	973.66
379.70	997.07
379.89	926.85
380.09	966.64
380.28	903.45
380.48	868.34
380.68	1029.84
380.87	1027.50
381.07	1064.94
381.26	1039.20
381.46	980.68
381.65	957.28
381.85	999.41
382.04	1062.60
382.24	1025.15
382.43	1027.50
382.63	1043.88
382.83	1062.60
383.02	1139.84
383.22	1121.12
383.41	1071.97
383.61	1107.07
383.80	1121.12
384.00	1149.20
384.19	1191.33
384.39	1027.50
384.58	1121.12
384.78	1177.29
384.97	1069.62
385.17	1167.93
385.36	1139.84
385.56	1196.01
385.75	1109.41
385.95	1217.08
386.14	1275.59
386.34	1149.20
386.53	1193.67
386.72	1184.31
386.92	1109.41
387.11	1177.29
387.31	1256.87
387.50	1289.64
387.70	1200.69
387.89	1273.25
388.09	1273.25
388.28	1329.42
388.48	1336.45
388.67	1355.17
388.86	1273.25
389.06	1275.59
389.25	1357.51
389.45	1313.04
389.64	1378.58
389.84	1364.53
390.03	1336.45
390.22	1329.42
390.42	1322.40
390.61	1493.26
390.81	1348.15
391.00	1425.39
391.19	1519.01
391.39	1369.21
391.58	1467.52
391.78	1399.64
391.97	1526.03
392.16	1472.20
392.36	1619.65
392.55	1493.26
392.75	1511.99
392.94	1420.71
393.13	1474.54
393.33	1502.62
393.52	1572.84
393.71	1636.03
393.91	1579.86
394.10	1476.88
394.29	1629.01
394.49	1537.73
394.68	1593.90
394.88	1621.99
395.07	1685.19
395.26	1678.16
395.46	1664.12
395.65	1736.68
395.84	1673.48
396.04	1771.79
396.23	1727.32
396.42	1799.87
396.62	1732.00
396.81	1834.98
397.00	1685.19
397.19	1741.36
397.39	1717.95
397.58	1771.79
397.77	1769.44
397.97	1748.38
398.16	1898.17
398.35	1963.71
398.55	1856.04
398.74	1849.02
398.93	1905.20
399.12	1996.48
399.32	1928.60
399.51	2019.88
399.70	1980.09
399.90	1912.22
400.09	2031.58
400.28	2094.78
400.47	1994.14
400.67	2078.40
400.86	1987.11
401.05	2078.40
401.24	2101.80
401.44	2083.08
401.63	2097.12
401.82	2160.31
402.01	2200.10
402.21	2200.10
402.40	2129.89
402.59	2193.08
402.78	2202.44
402.97	2289.04
403.17	2176.70
403.36	2279.68
403.55	2375.64
403.74	2293.72
403.93	2253.94
404.13	2305.43
404.32	2354.58
404.51	2359.26
404.70	2466.92
404.89	2495.01
405.09	2424.80
405.28	2408.41
405.47	2443.52
405.66	2424.80
405.85	2525.44
406.05	2476.29
406.24	2586.29
406.43	2588.63
406.62	2696.30
406.81	2731.41
407.00	2537.14
407.20	2635.44
407.39	2656.51
407.58	2757.15
407.77	2640.12
407.96	2796.94
408.15	2775.88
408.34	2703.32
408.54	2782.90
408.73	2792.26
408.92	2829.71
409.11	2937.37
409.30	2864.82
409.49	2963.12
409.68	2970.14
409.87	2925.67
410.07	2965.46
410.26	2925.67
410.45	2860.13
410.64	3021.63
410.83	3122.27
411.02	3066.10
411.21	3155.04
411.40	3112.91
411.59	3019.29
411.78	3059.08
411.98	3082.49
412.17	3302.50
412.36	3199.51
412.55	3290.79
412.74	3375.05
412.93	3398.46
413.12	3363.35
413.31	3478.04
413.50	3419.52
413.69	3494.42
413.88	3571.66
414.07	3552.93
414.26	3646.55
414.45	3688.68
414.64	3543.57
414.83	3768.26
415.02	3801.03
415.22	3688.68
415.41	3768.26
415.60	3838.48
415.79	4053.81
415.98	3779.97
416.17	3962.53
416.36	3922.74
416.55	3995.29
416.74	4177.86
416.93	4105.30
417.12	4112.32
417.31	4081.89
417.50	4173.18
417.69	4435.32
417.88	4374.46
418.07	4212.96
418.26	4264.46
418.45	4229.35
418.64	4550.00
418.83	4421.27
419.02	4327.65
419.21	4519.57
419.39	4489.15
419.58	4432.97
419.77	4339.35
419.96	4620.22
420.15	4573.41
420.34	4512.55
420.53	4568.73
420.72	4526.60
420.91	4683.41
421.10	4699.80
421.29	4765.33
421.48	4678.73
421.67	4695.11
421.86	4830.87
422.05	4723.20
422.24	4723.20
422.43	4877.68
422.61	4784.06
422.80	4938.53
422.99	4863.63
423.18	4781.71
423.37	4847.25
423.56	4924.49
423.75	4936.19
423.94	4873.00
424.13	4645.96
424.32	4711.50
424.50	4985.34
424.69	5048.54
424.88	4975.98
425.07	4800.44
425.26	4798.10
425.45	4758.31
425.64	4851.93
425.83	4961.94
426.01	5036.83
426.20	5062.58
426.39	5071.94
426.58	4961.94
426.77	4994.70
426.96	5067.26
427.15	5050.88
427.33	5004.07
427.52	5163.22
427.71	5188.97
427.90	5210.03
428.09	5401.96
428.28	5362.17
428.46	5376.21
428.65	5352.81
428.84	5493.24
429.03	5406.64
429.22	5455.79
429.40	5420.68
429.59	5233.44
429.78	5352.81
429.97	5210.03
430.16	5460.47
430.34	5465.15
430.53	5603.24
430.72	5530.69
430.91	5689.84
431.10	5518.98
431.28	5746.02
431.47	5643.03
431.66	5933.26
431.85	5703.89
432.03	5968.37
432.22	5902.83
432.41	5870.06
432.60	5792.83
432.79	5893.47
432.97	5937.94
433.16	6026.88
433.35	6033.90
433.54	6083.05
433.72	6169.65
433.91	6141.57
434.10	6204.76
434.28	5940.28
434.47	6258.59
434.66	6188.38
434.85	6193.06
435.03	6221.14
435.22	6150.93
435.41	6307.74
435.59	6375.62
435.78	6310.08
435.97	6333.49
436.16	6450.52
436.34	6282.00
436.53	6483.28
436.72	6672.87
436.90	6328.81
437.09	6452.86
437.28	6504.35
437.46	6583.93
437.65	6541.80
437.84	6715.00
438.02	6637.76
438.21	6661.16
438.40	6621.38
438.58	6977.14
438.77	6974.80
438.96	6930.33
439.14	6960.75
439.33	7171.40
439.52	7159.70
439.70	7140.97
439.89	7438.22
440.08	7482.69
440.26	7351.62
440.45	7323.54
440.63	7522.48
440.82	7527.16
441.01	7309.49
441.19	7634.83
441.38	7775.26
441.57	7698.02
441.75	7871.22
441.94	7882.92
442.12	8145.06
442.31	7824.41
442.50	7845.48
442.68	8004.63
442.87	8121.66
443.05	8234.00
443.24	8231.66
443.43	8023.36
443.61	8053.78
443.80	8454.02
443.98	8044.42
444.17	7824.41
444.35	8170.81
444.54	8159.11
444.73	8259.75
444.91	8119.32
445.10	8203.58
445.28	8215.28
445.47	8219.96
445.65	8264.43
445.84	8517.21
446.02	8519.55
446.21	8266.77
446.39	8194.22
446.58	8442.31
446.77	8407.20
446.95	8025.70
447.14	8351.03
447.32	8561.68
447.51	8540.61
447.69	8528.91
447.88	8374.44
448.06	8491.46
448.25	8582.74
448.43	8386.14
448.62	8507.85
448.80	8332.31
448.99	8297.20
449.17	8603.81
449.36	8383.80
449.54	8791.05
449.73	9097.66
449.91	9205.33
450.10	8795.73
450.28	9118.73
450.46	8877.65
450.65	8917.44
450.83	8882.33
451.02	8945.53
451.20	9100.00
451.39	9268.52
451.57	9345.76
451.76	8985.32
451.94	9198.31
452.13	9240.44
452.31	9362.14
452.49	9041.49
452.68	9607.90
452.86	9378.53
453.05	9397.25
453.23	9493.21
453.42	9195.96
453.60	9289.59
453.78	9451.08
453.97	9476.83
454.15	9420.66
454.34	9437.04
454.52	9612.58
454.70	9600.88
454.89	9591.52
455.07	9619.60
455.26	9715.56
455.44	9757.69
455.62	9811.53
455.81	9858.34
455.99	9937.91
456.17	10078.35
456.36	9970.68
456.54	9851.31
456.73	10232.82
456.91	10340.49
457.09	10471.56
457.28	10445.81
457.46	10300.70
457.64	10485.60
457.83	10270.27
458.01	10211.76
458.19	10670.50
458.38	10338.15
458.56	10689.23
458.74	10719.65
458.93	10569.86
459.11	10534.75
459.29	10691.57
459.48	10937.32
459.66	10839.02
459.84	10672.84
460.03	10981.79
460.21	10860.09
460.39	10766.46
460.57	10881.15
460.76	11026.26
460.94	11129.25
461.12	11096.48
461.31	10949.03
461.49	10946.69
461.67	10899.87
461.85	11428.84
462.04	11342.24
462.22	11480.33
462.40	11550.54
462.59	11508.41
462.77	11375.00
462.95	11445.22
463.13	11573.95
463.32	11375.00
463.50	11618.42
463.68	11651.19
463.86	11819.71
464.05	11714.38
464.23	11545.86
464.41	11782.26
464.59	11733.11
464.78	12217.60
464.96	12016.31
465.14	11817.36
465.32	11878.22
465.50	11873.54
465.69	12074.82
465.87	12201.21
466.05	12018.65
466.23	11985.88
466.41	12208.23
466.60	12166.10
466.78	11990.56
466.96	11936.73
467.14	12149.72
467.32	12313.56
467.51	12463.35
467.69	12116.95
467.87	12311.22
468.05	12784.01
468.23	12388.46
468.41	12250.36
468.60	12498.46
468.78	12695.07
468.96	12444.63
469.14	12479.74
469.32	12994.65
469.50	12699.75
469.69	12781.67
469.87	13273.18
470.05	13135.09
470.23	13284.88
470.41	13198.28
470.59	13334.03
470.77	13064.87
470.95	13219.35
471.14	13650.00
471.32	13315.31
471.50	13268.50
471.68	13619.58
471.86	13383.18
472.04	13411.27
472.22	13902.78
472.40	13561.06
472.58	13729.58
472.77	13886.40
472.95	14038.53
473.13	14466.85
473.31	13614.90
473.49	14193.01
473.67	13958.96
473.85	14441.11
474.03	14548.77
474.21	14356.85
474.39	14604.94
474.57	14761.76
474.75	14902.19
474.93	14932.62
475.12	14689.20
475.30	14984.11
475.48	14813.25
475.66	14963.04
475.84	15178.37
476.02	15222.84
476.20	15325.83
476.38	15536.48
476.56	16039.69
476.74	15927.35
476.92	15667.55
477.10	15555.20
477.28	16198.85
477.46	15997.56
477.64	16142.67
477.82	16585.04
478.00	16943.14
478.18	16690.36
478.36	16954.84
478.54	17097.61
478.72	17046.12
478.90	17324.65
479.08	17334.01
479.26	17759.98
479.44	17776.37
479.62	17972.97
479.80	17944.89
479.98	18305.33
480.16	18134.47
480.34	17919.14
480.52	18373.21
480.70	18349.80
480.88	18501.93
481.06	18405.97
481.24	18768.76
481.41	19019.19
481.59	19349.21
481.77	19381.98
481.95	19508.37
482.13	19697.95
482.31	19372.61
482.49	20013.92
482.67	20182.44
482.85	20334.57
483.03	20512.46
483.21	20664.59
483.39	20760.55
483.57	20652.89
483.74	20961.84
483.92	21535.27
484.10	20980.56
484.28	21642.93
484.46	21844.22
484.64	22298.28
484.82	21867.63
485.00	22211.68
485.18	22593.19
485.35	22930.23
485.53	22499.57
485.71	22799.16
485.89	23648.77
486.07	23330.46
486.25	23000.44
486.43	23323.44
486.61	23536.43
486.78	23735.37
486.96	23885.17
487.14	24339.23
487.32	24203.48
487.50	24599.03
487.68	24980.54
487.85	24968.84
488.03	25584.40
488.21	25811.43
488.39	25495.46
488.57	26139.10
488.75	26036.12
488.92	26288.90
489.10	26277.19
489.28	26820.20
489.46	26892.76
489.64	26939.57
489.81	27784.50
489.99	27285.97
490.17	27264.90
490.35	27625.34
490.53	27868.76
490.70	28423.47
490.88	27974.08
491.06	28996.90
491.24	28648.16
491.41	28755.82
491.59	28954.77
491.77	29244.99
491.95	29567.99
492.13	29619.48
492.30	29518.84
492.48	29729.48
492.66	30120.35
492.84	29923.75
493.01	30665.70
493.19	30143.76
493.37	31077.63
493.54	31117.42
493.72	31164.23
493.90	31030.82
494.08	31634.68
494.25	31744.69
494.43	31686.17
494.61	31950.65
494.79	32109.81
494.96	32378.97
495.14	32690.26
495.32	32891.55
495.49	32842.40
495.67	33118.58
495.85	33413.49
496.02	33783.29
496.20	33694.35
496.38	33940.11
496.55	34024.37
496.73	34721.85
496.91	34567.37
497.09	34705.46
497.26	34581.42
497.44	34763.98
497.62	35152.51
497.79	35672.10
497.97	35473.16
498.14	35587.85
498.32	35564.44
498.50	36205.75
498.67	36341.50
498.85	36395.33
499.03	36507.68
499.20	36102.76
499.38	36701.94
499.56	36652.79
499.73	36683.22
499.91	37031.96
500.08	37460.27
500.26	36966.42
500.44	37493.04
500.61	37408.78
500.79	37141.96
500.97	37715.39
501.14	38792.04
501.32	38141.37
501.49	38190.52
501.67	38550.96
501.84	38555.64
502.02	38600.12
502.20	38391.81
502.37	38698.42
502.55	39068.22
502.72	39166.52
502.90	39744.64
503.07	39236.74
503.25	39456.75
503.43	39421.64
503.60	39746.98
503.78	39871.03
503.95	39957.63
504.13	39908.47
504.30	40634.04
504.48	40126.14
504.65	40297.00
504.83	40713.62
505.01	41036.61
505.18	41071.72
505.36	41186.41
505.53	41233.22
505.71	41563.23
505.88	41546.85
506.06	40957.03
506.23	41516.42
506.41	41511.74
506.58	41851.12
506.76	42103.90
506.93	42211.56
507.11	42036.02
507.28	42131.98
507.46	42181.13
507.63	42616.47
507.81	42794.36
507.98	42581.37
508.16	42899.68
508.33	42962.87
508.50	43309.27
508.68	43583.12
508.85	43508.22
509.03	43337.36
509.20	43613.54
509.38	44055.90
509.55	44348.47
509.73	43971.64
509.90	44458.48
510.08	44233.78
510.25	44287.62
510.42	44250.17
510.60	44884.45
510.77	44811.90
510.95	44704.23
511.12	44837.64
511.30	44748.70
511.47	45090.42
511.64	45331.50
511.82	45034.25
511.99	45488.31
512.17	45329.16
512.34	45247.24
512.51	46028.98
512.69	45937.69
512.86	46108.55
513.04	46323.88
513.21	46344.95
513.38	46316.86
513.56	46714.75
513.73	46506.44
513.90	47269.46
514.08	46916.04
514.25	46803.69
514.43	47264.78
514.60	47302.23
514.77	47267.12
514.95	47409.89
515.12	47117.32
515.29	47103.28
515.47	47615.86
515.64	47887.36
515.81	47540.96
515.99	48025.45
516.16	48205.67
516.33	48397.60
516.51	48428.02
516.68	48474.84
516.85	48442.07
517.03	48690.16
517.20	48156.52
517.37	48779.10
517.54	48559.09
517.72	48240.78
517.89	48584.84
518.06	48758.04
518.24	48971.03
518.41	49111.46
518.58	49467.22
518.75	49027.20
518.93	49289.34
519.10	49296.36
519.27	49359.56
519.45	49549.14
519.62	49401.69
519.79	49792.56
519.96	50153.00
520.14	49930.65
520.31	49773.83
520.48	50045.33
520.65	50038.31
520.83	50478.33
521.00	50363.65
521.17	50113.21
521.34	50167.04
521.52	50733.45
521.69	50567.27
521.86	50602.38
522.03	50824.73
522.20	50923.04
522.38	51049.42
522.55	51121.98
522.72	51161.77
522.89	50904.31
523.07	51604.13
523.24	51367.74
523.41	51536.26
523.58	51454.34
523.75	51950.53
523.92	51297.52
524.10	51552.64
524.27	52107.35
524.44	51543.28
524.61	51924.78
524.78	51992.66
524.96	52198.63
525.13	51934.15
525.30	52219.69
525.47	52189.27
525.64	52322.68
525.81	52556.73
525.98	52687.80
526.16	52374.17
526.33	52355.44
526.50	52835.25
526.67	52573.11
526.84	52746.31
527.01	52587.16
527.18	52470.13
527.36	52753.33
527.53	53017.82
527.70	53066.97
527.87	53055.26
528.04	52603.54
528.21	53347.83
528.38	53389.96
528.55	53434.43
528.72	53223.78
528.89	53359.53
529.07	53301.02
529.24	52952.28
529.41	53616.99
529.58	53446.13
529.75	53544.44
529.92	53420.39
530.09	53670.82
530.26	53717.64
530.43	53947.01
530.60	53626.35
530.77	53584.22
530.94	53635.72
531.11	53902.54
531.28	53949.35
531.46	53954.03
531.63	54064.03
531.80	54085.10
531.97	54431.50
532.14	54021.90
532.31	54087.44
532.48	54223.19
532.65	54410.43
532.82	54253.62
532.99	54384.69
533.16	54342.56
533.33	54511.08
533.50	54885.56
533.67	54618.74
533.84	54684.28
534.01	54747.47
534.18	54859.82
534.35	54878.54
534.52	54796.62
534.69	54892.58
534.86	55014.29
535.03	54887.90
535.20	55009.61
535.37	55189.83
535.54	55152.38
535.71	55011.95
535.88	54796.62
536.05	55292.82
536.22	55257.71
536.38	55402.82
536.55	55430.91
536.72	55330.26
536.89	55274.09
537.06	55269.41
537.23	55545.59
537.40	55339.63
537.57	55248.35
537.74	55688.37
537.91	55894.33
538.08	55657.94
538.25	55477.72
538.42	55742.20
538.59	55798.37
538.75	55573.68
538.92	55962.21
539.09	55910.72
539.26	56086.26
539.43	55964.55
539.60	56039.45
539.77	56238.39
539.94	56430.32
540.11	56203.28
540.28	56100.30
540.44	56100.30
540.61	56364.78
540.78	56156.47
540.95	56104.98
541.12	56186.90
541.29	56191.58
541.46	56273.50
541.62	56364.78
541.79	56502.87
541.96	56233.71
542.13	56495.85
542.30	56355.42
542.47	56846.93
542.63	56797.78
542.80	56631.60
542.97	56856.29
543.14	56931.19
543.31	56900.76
543.48	56886.72
543.64	57322.06
543.81	57190.99
543.98	57088.01
544.15	57303.34
544.32	57249.50
544.48	57574.84
544.65	57268.23
544.82	57432.07
544.99	57345.47
545.16	57237.80
545.32	56982.68
545.49	57385.25
545.66	57574.84
545.83	57539.73
546.00	57570.16
546.16	57528.03
546.33	57439.09
546.50	57345.47
546.67	57579.52
546.83	57326.74
547.00	57778.46
547.17	57565.48
547.34	57659.10
547.50	57731.65
547.67	57778.46
547.84	57935.28
548.00	57935.28
548.17	58066.35
548.34	58031.24
548.51	58143.59
548.67	58024.22
548.84	57961.03
549.01	57944.64
549.18	57991.45
549.34	58230.19
549.51	58120.18
549.68	58241.89
549.84	58183.38
550.01	58225.51
550.18	58169.33
550.34	57989.11
550.51	58382.32
550.68	58049.97
550.84	57979.75
551.01	58457.22
551.18	58457.22
551.34	58347.21
551.51	58431.47
551.68	58391.68
551.84	58216.14
552.01	58396.37
552.18	58625.74
552.34	58227.85
552.51	58632.76
552.68	58354.24
552.84	58508.71
553.01	58775.53
553.18	58574.25
553.34	58749.79
553.51	58747.45
553.67	58614.04
553.84	58768.51
554.01	58705.32
554.17	58665.53
554.34	58887.88
554.51	58827.02
554.67	58962.78
554.84	58918.31
555.00	58705.32
555.17	58946.39
555.33	58827.02
555.50	58848.09
555.67	58681.91
555.83	58822.34
556.00	59044.69
556.16	59299.81
556.33	58941.71
556.50	58852.77
556.66	59143.00
556.83	58808.30
556.99	59234.28
557.16	59409.82
557.32	59302.15
557.49	59491.74
557.65	59224.92
557.82	59147.68
557.98	59075.12
558.15	59512.80
558.32	59503.44
558.48	59260.02
558.65	59374.71
558.81	59388.75
558.98	59388.75
559.14	59451.95
559.31	59405.14
559.47	59653.23
559.64	59477.69
559.80	59615.79
559.97	59554.93
560.13	59337.26
560.30	59503.44
560.46	59421.52
560.63	59625.15
560.79	59587.70
560.96	59866.22
561.12	59660.26
561.29	59653.23
561.45	59700.04
561.61	59599.40
561.78	59627.49
561.94	59657.91
562.11	59508.12
562.27	59781.96
562.44	59824.09
562.60	59870.90
562.77	59826.43
562.93	59650.89
563.10	59929.42
563.26	59884.95
563.42	59936.44
563.59	59875.58
563.75	59716.43
563.92	59807.71
564.08	59863.88
564.24	59959.84
564.41	60027.72
564.57	59903.67
564.74	60231.35
564.90	59812.39
565.07	59999.63
565.23	59847.50
565.39	59898.99
565.56	60027.72
565.72	59924.74
565.88	60107.30
566.05	60067.51
566.21	60097.94
566.38	60030.06
566.54	60317.95
566.70	60161.13
566.87	60119.00
567.03	59931.76
567.19	60381.14
567.36	60016.02
567.52	60172.83
567.68	60395.18
567.85	60126.02
568.01	60463.06
568.17	60240.71
568.34	60301.56
568.50	60086.23
568.66	60104.96
568.83	60353.05
568.99	60109.64
569.15	60320.29
569.32	60186.88
569.48	60369.44
569.64	60423.27
569.81	60250.07
569.97	60198.58
570.13	60282.84
570.30	60198.58
570.46	60273.48
570.62	60287.52
570.78	60119.00
570.95	60479.44
571.11	60409.23
571.27	60313.26
571.43	60254.75
571.60	60537.96
571.76	60434.97
571.92	60285.18
572.09	60554.34
572.25	60348.37
572.41	60542.64
572.57	60434.97
572.74	60601.15
572.90	60210.28
573.06	60357.74
573.22	60331.99
573.38	60456.04
573.55	60430.29
573.71	60631.58
573.87	60554.34
574.03	60360.08
574.20	60526.25
574.36	60413.91
574.52	60568.38
574.68	60725.20
574.84	60846.91
575.01	60746.26
575.17	60547.32
575.33	60505.19
575.49	60502.85
575.65	60465.40
575.82	60664.35
575.98	60725.20
576.14	60853.93
576.30	60692.43
576.46	60479.44
576.62	60568.38
576.79	60392.84
576.95	60594.13
577.11	60652.64
577.27	60889.04
577.43	60835.20
577.59	60718.18
577.75	60650.30
577.92	60535.62
578.08	60631.58
578.24	60631.58
578.40	60804.78
578.56	60853.93
578.72	60591.79
578.88	60900.74
579.04	60722.86
579.21	60528.59
579.37	60711.16
579.53	60750.94
579.69	60631.58
579.85	60566.04
580.01	60594.13
580.17	60577.75
580.33	60633.92
580.49	60832.86
580.65	61031.81
580.82	60552.00
580.98	60825.84
581.14	60622.22
581.30	60987.34
581.46	60807.12
581.62	60858.61
581.78	60734.56
581.94	60741.58
582.10	60839.89
582.26	60725.20
582.42	60676.05
582.58	60914.78
582.74	60781.37
582.90	60711.16
583.06	60837.54
583.22	60762.65
583.38	60818.82
583.54	60832.86
583.70	60851.59
583.86	60811.80
584.02	60844.57
584.18	60683.07
584.34	60882.02
584.50	60823.50
584.66	60790.73
584.82	60718.18
584.98	61064.58
585.14	60870.31
585.30	60795.42
585.46	60863.29
585.62	60846.91
585.78	60870.31
585.94	60687.75
586.10	60837.54
586.26	60863.29
586.42	60860.95
586.58	61052.87
586.74	60891.38
586.90	60959.25
587.06	60891.38
587.22	61043.51
587.38	60942.87
587.54	61099.68
587.70	60961.59
587.86	60928.83
588.02	60849.25
588.18	61087.98
588.34	60659.66
588.49	60917.12
