SpectraSuite Data File
++++++++++++++++++++++++++++++++++++
Date: Fri Oct 25 10:48:36 EDT 2013
User: price-jones
Dark Spectrum Present: No
Reference Spectrum Present: No
Number of Sampled Component Spectra: 1
Spectrometers: USB2+H05261
Integration Time (usec): 100000 (USB2+H05261)
Spectra Averaged: 1 (USB2+H05261)
Boxcar Smoothing: 0 (USB2+H05261)
Correct for Electrical Dark: No (USB2+H05261)
Strobe/Lamp Enabled: No (USB2+H05261)
Correct for Detector Non-linearity: No (USB2+H05261)
Correct for Stray Light: No (USB2+H05261)
Number of Pixels in Processed Spectrum: 2048
>>>>>Begin Processed Spectral Data<<<<<
365.73	114.69
365.92	114.69
366.12	114.69
366.32	30.43
366.52	7.02
366.72	93.62
366.91	16.38
367.11	44.47
367.31	56.17
367.51	23.41
367.70	0.00
367.90	86.60
368.10	0.00
368.30	56.17
368.49	25.75
368.69	124.05
368.89	58.51
369.09	0.00
369.28	124.05
369.48	93.62
369.68	84.26
369.87	135.75
370.07	114.69
370.27	208.31
370.47	271.50
370.66	425.98
370.86	454.06
371.06	491.51
371.25	512.58
371.45	486.83
371.65	524.28
371.84	496.19
372.04	503.22
372.24	519.60
372.44	489.17
372.63	566.41
372.83	638.97
373.03	521.94
373.22	596.84
373.42	510.24
373.62	514.92
373.81	528.96
374.01	512.58
374.21	648.33
374.40	587.47
374.60	636.63
374.79	622.58
374.99	547.69
375.19	545.34
375.38	678.76
375.58	594.50
375.78	631.94
375.97	725.57
376.17	732.59
376.37	648.33
376.56	636.63
376.76	617.90
376.95	615.56
377.15	674.07
377.35	664.71
377.54	660.03
377.74	603.86
377.93	725.57
378.13	650.67
378.33	732.59
378.52	622.58
378.72	662.37
378.91	688.12
379.11	676.41
379.31	697.48
379.50	723.23
379.70	716.20
379.89	791.10
380.09	713.86
380.28	802.80
380.48	699.82
380.68	648.33
380.87	697.48
381.07	786.42
381.26	767.70
381.46	720.88
381.65	751.31
381.85	676.41
382.04	695.14
382.24	772.38
382.43	741.95
382.63	748.97
382.83	767.70
383.02	784.08
383.22	753.65
383.41	772.38
383.61	690.46
383.80	744.29
384.00	812.17
384.19	873.02
384.39	894.08
384.58	798.12
384.78	880.04
384.97	938.55
385.17	858.98
385.36	805.14
385.56	774.72
385.75	814.51
385.95	898.77
386.14	793.44
386.34	842.59
386.53	823.87
386.72	837.91
386.92	957.28
387.11	861.32
387.31	990.05
387.50	870.68
387.70	947.92
387.89	957.28
388.09	924.51
388.28	858.98
388.48	901.11
388.67	1022.81
388.86	978.34
389.06	978.34
389.25	997.07
389.45	980.68
389.64	1083.67
389.84	1083.67
390.03	1081.33
390.22	1081.33
390.42	1097.71
390.61	1121.12
390.81	1090.69
391.00	1055.58
391.19	1053.24
391.39	1076.65
391.58	1104.73
391.78	1128.14
391.97	1055.58
392.16	1057.92
392.36	1125.80
392.55	1039.20
392.75	1081.33
392.94	1111.75
393.13	1022.81
393.33	1015.79
393.52	1055.58
393.71	1174.95
393.91	1125.80
394.10	1270.91
394.29	1151.54
394.49	1221.76
394.68	1273.25
394.88	1327.08
395.07	1355.17
395.26	1294.32
395.46	1299.00
395.65	1299.00
395.84	1282.61
396.04	1366.87
396.23	1238.14
396.42	1181.97
396.62	1280.27
396.81	1301.34
397.00	1355.17
397.19	1315.38
397.39	1380.92
397.58	1540.07
397.77	1523.69
397.97	1556.46
398.16	1472.20
398.35	1544.75
398.55	1540.07
398.74	1563.48
398.93	1624.33
399.12	1572.84
399.32	1565.82
399.51	1572.84
399.70	1633.69
399.90	1582.20
400.09	1708.59
400.28	1643.06
400.47	1783.49
400.67	1734.34
400.86	1701.57
401.05	1802.21
401.24	1753.06
401.44	1842.00
401.63	1783.49
401.82	1764.76
402.01	1799.87
402.21	1792.85
402.40	1919.24
402.59	1839.66
402.78	1877.11
402.97	1816.26
403.17	1874.77
403.36	1914.56
403.55	2029.24
403.74	1895.83
403.93	2001.16
404.13	1905.20
404.32	1914.56
404.51	1959.03
404.70	1984.77
404.89	2064.35
405.09	2115.84
405.28	2092.44
405.47	2017.54
405.66	2099.46
405.85	2092.44
406.05	2097.12
406.24	2050.31
406.43	2263.30
406.62	2225.85
406.81	2300.75
407.00	2176.70
407.20	2211.81
407.39	2029.24
407.58	2211.81
407.77	2225.85
407.96	2366.28
408.15	2340.54
408.34	2389.69
408.54	2258.62
408.73	2373.30
408.92	2415.43
409.11	2403.73
409.30	2349.90
409.49	2413.09
409.68	2387.35
409.87	2354.58
410.07	2520.76
410.26	2539.48
410.45	2495.01
410.64	2513.74
410.83	2541.82
411.02	2663.53
411.21	2759.49
411.40	2712.68
411.59	2672.89
411.78	2691.62
411.98	2684.59
412.17	2719.70
412.36	2904.60
412.55	2848.43
412.74	2939.71
412.93	2874.18
413.12	2860.13
413.31	3075.46
413.50	2916.31
413.69	2928.01
413.88	2984.18
414.07	2972.48
414.26	3028.65
414.45	3171.43
414.64	3145.68
414.83	3141.00
415.02	3091.85
415.22	3311.86
415.41	3286.11
415.60	3274.41
415.79	3389.10
415.98	3323.56
416.17	3393.78
416.36	3351.65
416.55	3419.52
416.74	3400.80
416.93	3461.65
417.12	3543.57
417.31	3459.31
417.50	3499.10
417.69	3684.00
417.88	3658.26
418.07	3604.42
418.26	3522.51
418.45	3442.93
418.64	3693.37
418.83	3662.94
419.02	3737.84
419.21	3660.60
419.39	3789.33
419.58	3702.73
419.77	3684.00
419.96	3777.62
420.15	3887.63
420.34	3878.27
420.53	3981.25
420.72	4065.51
420.91	3929.76
421.10	4011.68
421.29	4194.24
421.48	4091.26
421.67	3990.61
421.86	3889.97
422.05	4007.00
422.24	3871.25
422.43	3990.61
422.61	3936.78
422.80	4051.47
422.99	4084.23
423.18	4102.96
423.37	4149.77
423.56	4124.02
423.75	4105.30
423.94	4095.94
424.13	3765.92
424.32	3925.08
424.50	4259.78
424.69	4187.22
424.88	4205.94
425.07	4079.55
425.26	4131.05
425.45	4126.36
425.64	4114.66
425.83	4084.23
426.01	4170.83
426.20	4140.41
426.39	4112.32
426.58	4259.78
426.77	3990.61
426.96	4109.98
427.15	4236.37
427.33	4198.92
427.52	4248.07
427.71	4463.40
427.90	4259.78
428.09	4334.67
428.28	4304.25
428.46	4519.57
428.65	4421.27
428.84	4479.79
429.03	4521.92
429.22	4241.05
429.40	4238.71
429.59	4306.59
429.78	4081.89
429.97	4145.09
430.16	4191.90
430.34	4173.18
430.53	4311.27
430.72	4376.80
430.91	4528.94
431.10	4465.74
431.28	4620.22
431.47	4898.74
431.66	4957.25
431.85	4723.20
432.03	4744.27
432.22	4980.66
432.41	4781.71
432.60	4690.43
432.79	4887.04
432.97	4903.42
433.16	4980.66
433.35	4851.93
433.54	4884.70
433.72	4830.87
433.91	4816.82
434.10	4978.32
434.28	5022.79
434.47	4980.66
434.66	5050.88
434.85	5167.90
435.03	5114.07
435.22	5191.31
435.41	5420.68
435.59	5329.40
435.78	5284.93
435.97	5329.40
436.16	5357.49
436.34	5315.36
436.53	5497.92
436.72	5563.45
436.90	5308.34
437.09	5469.83
437.28	5385.57
437.46	5371.53
437.65	5425.36
437.84	5551.75
438.02	5434.72
438.21	5514.30
438.40	5352.81
438.58	5596.22
438.77	5675.80
438.96	5682.82
439.14	5703.89
439.33	5710.91
439.52	5788.14
439.70	5823.25
439.89	5966.03
440.08	6017.52
440.26	5984.75
440.45	5982.41
440.63	6193.06
440.82	6270.30
441.01	6069.01
441.19	6193.06
441.38	6284.34
441.57	6429.45
441.75	6373.28
441.94	6476.26
442.12	6459.88
442.31	6527.75
442.50	6651.80
442.68	6513.71
442.87	6597.97
443.05	6555.84
443.24	6710.32
443.43	6581.59
443.61	6883.52
443.80	6911.60
443.98	6647.12
444.17	6593.29
444.35	6661.16
444.54	6817.98
444.73	6909.26
444.91	6864.79
445.10	6848.41
445.28	6595.63
445.47	6640.10
445.65	6803.94
445.84	6792.23
446.02	6789.89
446.21	6963.09
446.39	7002.88
446.58	6930.33
446.77	6909.26
446.95	6874.15
447.14	6991.18
447.32	6960.75
447.51	7040.33
447.69	7059.06
447.88	7091.82
448.06	6904.58
448.25	6986.50
448.43	6876.49
448.62	7052.03
448.80	7014.59
448.99	7122.25
449.17	7234.60
449.36	7047.35
449.54	7428.86
449.73	7382.05
449.91	7442.90
450.10	7520.14
450.28	7541.21
450.46	7548.23
450.65	7555.25
450.83	7669.94
451.02	7592.70
451.20	7609.08
451.39	7405.46
451.57	7384.39
451.76	7407.80
451.94	7555.25
452.13	7499.08
452.31	7470.99
452.49	7410.14
452.68	7662.91
452.86	7431.20
453.05	7651.21
453.23	7634.83
453.42	7569.29
453.60	7639.51
453.78	7527.16
453.97	7693.34
454.15	7681.64
454.34	7805.69
454.52	7545.89
454.70	7763.56
454.89	7892.29
455.07	8109.96
455.26	8002.29
455.44	8081.87
455.62	8053.78
455.81	7981.23
455.99	7997.61
456.17	8065.49
456.36	8018.68
456.54	8276.13
456.73	8196.56
456.91	8489.12
457.09	8699.77
457.28	8685.73
457.46	8355.71
457.64	8458.70
457.83	8554.66
458.01	8423.59
458.19	8631.90
458.38	8388.48
458.56	8643.60
458.74	8535.93
458.93	8486.78
459.11	8519.55
459.29	8667.00
459.48	8634.24
459.66	8723.18
459.84	8716.16
460.03	8816.80
460.21	8800.41
460.39	8795.73
460.57	8732.54
460.76	8842.54
460.94	9092.98
461.12	9146.81
461.31	9036.81
461.49	8990.00
461.67	8737.22
461.85	9221.71
462.04	9090.64
462.22	9884.08
462.40	9521.30
462.59	9259.16
462.77	9465.13
462.95	9228.73
463.13	9221.71
463.32	9266.18
463.50	9345.76
463.68	9540.02
463.86	9392.57
464.05	9275.54
464.23	9277.88
464.41	9430.02
464.59	9139.79
464.78	9671.09
464.96	9621.94
465.14	9327.03
465.32	9462.79
465.50	9769.40
465.69	9673.43
465.87	9441.72
466.05	9610.24
466.23	9408.95
466.41	9652.37
466.60	9767.06
466.78	9645.35
466.96	9406.61
467.14	9479.17
467.32	9788.12
467.51	9954.30
467.69	9633.64
467.87	9680.46
468.05	9874.72
468.23	9827.91
468.41	9841.95
468.60	10017.49
468.78	10200.05
468.96	9933.23
469.14	9998.77
469.32	10136.86
469.50	9895.78
469.69	10120.48
469.87	10242.18
470.05	10279.63
470.23	10113.45
470.41	10223.46
470.59	10331.12
470.77	10352.19
470.95	10513.69
471.14	10394.32
471.32	10427.09
471.50	10803.91
471.68	10574.54
471.86	10822.64
472.04	10836.68
472.22	11059.03
472.40	10773.49
472.58	10789.87
472.77	11040.31
472.95	10885.83
473.13	11119.89
473.31	10981.79
473.49	10979.45
473.67	11204.14
473.85	11192.44
474.03	11435.86
474.21	11304.79
474.39	11389.05
474.57	11445.22
474.75	11627.78
474.93	11396.07
475.12	11492.03
475.30	11737.79
475.48	11517.78
475.66	11786.94
475.84	11765.87
476.02	11861.84
476.20	11651.19
476.38	12285.47
476.56	12116.95
476.74	12278.45
476.92	12233.98
477.10	12334.62
477.28	12725.49
477.46	12606.13
477.64	12659.96
477.82	12816.77
478.00	13078.91
478.18	12919.76
478.36	13018.06
478.54	13114.02
478.72	13224.03
478.90	13329.35
479.08	13727.24
479.26	13624.26
479.44	13877.04
479.62	13811.50
479.80	13862.99
479.98	13879.38
480.16	14139.18
480.34	14010.45
480.52	14326.42
480.70	14427.06
480.88	14237.48
481.06	14314.72
481.24	14555.79
481.41	14541.75
481.59	14974.75
481.77	15014.54
481.95	15199.44
482.13	14984.11
482.31	15056.67
482.49	15536.48
482.67	15510.73
482.85	15602.01
483.03	15819.68
483.21	15779.89
483.39	16170.76
483.57	16159.06
483.74	16056.08
483.92	16306.51
484.10	16145.02
484.28	16367.37
484.46	16732.49
484.64	16802.71
484.82	16596.74
485.00	16812.07
485.18	17085.91
485.35	17188.89
485.53	16996.97
485.71	16734.83
485.89	16964.20
486.07	17067.19
486.25	17254.43
486.43	17535.29
486.61	18059.57
486.78	17853.61
486.96	17869.99
487.14	18216.39
487.32	18682.16
487.50	18792.16
487.68	18951.32
487.85	19222.82
488.03	19241.54
488.21	19367.93
488.39	19215.80
488.57	19431.13
488.75	19410.06
488.92	19665.18
489.10	19901.58
489.28	20238.61
489.46	20554.58
489.64	20362.66
489.81	20982.90
489.99	20884.60
490.17	20936.09
490.35	21202.91
490.53	20891.62
490.70	21310.58
490.88	21415.90
491.06	21575.06
491.24	21411.22
491.41	21247.38
491.59	21804.43
491.77	21605.49
491.95	22045.51
492.13	22108.70
492.30	22342.75
492.48	22558.08
492.66	22808.52
492.84	22871.72
493.01	22845.97
493.19	22778.09
493.37	22963.00
493.54	23391.31
493.72	23229.82
493.90	23608.98
494.08	23927.30
494.25	23791.55
494.43	24285.40
494.61	24318.17
494.79	24238.59
494.96	24173.05
495.14	24395.40
495.32	24414.13
495.49	24474.98
495.67	24709.04
495.85	24622.44
496.02	24847.13
496.20	24945.43
496.38	25474.39
496.55	25350.34
496.73	26258.47
496.91	25584.40
497.09	26075.91
497.26	26106.34
497.44	25905.05
497.62	25942.50
497.79	26139.10
497.97	26082.93
498.14	26707.85
498.32	26426.99
498.50	26993.40
498.67	26906.80
498.85	26918.50
499.03	27538.74
499.20	26801.47
499.38	27363.20
499.56	27564.49
499.73	27257.88
499.91	27758.75
500.08	27290.65
500.26	27496.61
500.44	27255.54
500.61	28074.73
500.79	27597.26
500.97	27903.87
501.14	28297.08
501.32	28355.59
501.49	28102.81
501.67	28053.66
501.84	27976.42
502.02	28334.53
502.20	28809.65
502.37	28828.38
502.55	28847.10
502.72	28816.68
502.90	28975.83
503.07	29373.72
503.25	29331.59
503.43	28978.17
503.60	29104.56
503.78	29240.31
503.95	29022.64
504.13	29713.10
504.30	29673.31
504.48	29727.14
504.65	29804.38
504.83	30316.96
505.01	30614.21
505.18	30047.80
505.36	30876.35
505.53	30576.76
505.71	30939.54
505.88	31328.07
506.06	30511.22
506.23	30866.98
506.41	30448.03
506.58	31122.10
506.76	30654.00
506.93	30976.99
507.11	30857.62
507.28	31288.28
507.46	30909.11
507.63	31175.94
507.81	31758.73
507.98	31129.12
508.16	31679.15
508.33	31599.57
508.50	32280.67
508.68	31978.74
508.85	32013.85
509.03	32142.58
509.20	32133.21
509.38	32491.32
509.55	32435.14
509.73	32491.32
509.90	32297.05
510.08	32374.29
510.25	32746.44
510.42	32940.70
510.60	32826.01
510.77	33106.88
510.95	33102.20
511.12	33111.56
511.30	33677.97
511.47	33427.53
511.64	33663.93
511.82	33427.53
511.99	33385.40
512.17	33766.91
512.34	33385.40
512.51	34057.14
512.69	33610.09
512.86	33858.19
513.04	34323.96
513.21	33848.83
513.38	34132.03
513.56	34160.12
513.73	33797.34
513.90	33933.09
514.08	33968.19
514.25	34160.12
514.43	34525.24
514.60	34232.68
514.77	35086.97
514.95	34969.94
515.12	34452.69
515.29	34995.69
515.47	35068.25
515.64	35065.91
515.81	34822.49
515.99	35063.57
516.16	34958.24
516.33	34869.30
516.51	34593.12
516.68	34476.09
516.85	34389.49
517.03	34841.21
517.20	34883.34
517.37	35166.55
517.54	35718.92
517.72	35590.19
517.89	35236.77
518.06	35709.55
518.24	35660.40
518.41	35550.40
518.58	35639.34
518.75	35555.08
518.93	36062.97
519.10	35878.07
519.27	36694.92
519.45	35875.73
519.62	36765.14
519.79	36423.42
519.96	36526.40
520.14	36690.24
520.31	36467.89
520.48	36952.38
520.65	36704.28
520.83	37364.31
521.00	37120.90
521.17	37165.37
521.34	37266.01
521.52	37364.31
521.69	37368.99
521.86	37605.39
522.03	37596.03
522.20	37687.31
522.38	37343.25
522.55	37696.67
522.72	37383.04
522.89	37619.43
523.07	37986.89
523.24	37673.26
523.41	38005.62
523.58	37862.85
523.75	38616.50
523.92	38644.59
524.10	38602.46
524.27	38871.62
524.44	38466.70
524.61	38520.54
524.78	38913.75
524.96	38944.17
525.13	38866.94
525.30	38988.64
525.47	38855.23
525.64	39084.61
525.81	38745.23
525.98	38600.12
526.16	38134.35
526.33	38597.77
526.50	38745.23
526.67	38335.63
526.84	38731.18
527.01	38808.42
527.18	38607.14
527.36	39009.71
527.53	39761.02
527.70	39962.31
527.87	39662.72
528.04	39784.43
528.21	39709.53
528.38	39761.02
528.55	39711.87
528.72	40135.51
528.89	40343.81
529.07	40196.36
529.24	40002.10
529.41	39920.18
529.58	40170.61
529.75	40009.12
529.92	40374.24
530.09	40044.23
530.26	40603.61
530.43	40355.52
530.60	40285.30
530.77	40741.71
530.94	40697.24
531.11	40580.21
531.28	40964.06
531.46	40879.80
531.63	40893.84
531.80	40622.34
531.97	40713.62
532.14	40521.69
532.31	40364.88
532.48	40858.73
532.65	41078.74
532.82	40891.50
532.99	41167.68
533.16	40804.90
533.33	41284.71
533.50	41874.52
533.67	41502.38
533.84	41186.41
534.01	41258.96
534.18	41174.70
534.35	42164.75
534.52	41244.92
534.69	41757.50
534.86	42061.77
535.03	41486.00
535.20	41944.74
535.37	42078.15
535.54	42492.43
535.71	41846.44
535.88	41762.18
536.05	42103.90
536.22	42185.82
536.38	42249.01
536.55	41926.02
536.72	41933.04
536.89	41645.15
537.06	42014.96
537.23	41907.29
537.40	41748.14
537.57	42431.57
537.74	42370.72
537.91	42534.56
538.08	42679.67
538.25	42621.16
538.42	42511.15
538.59	42684.35
538.75	42525.19
538.92	42508.81
539.09	42239.65
539.26	42728.82
539.43	42927.77
539.60	42623.50
539.77	42609.45
539.94	43210.97
540.11	42628.18
540.28	42646.90
540.44	42478.38
540.61	42609.45
540.78	43147.78
540.95	43136.07
541.12	43140.75
541.29	42965.21
541.46	43138.41
541.62	43714.19
541.79	43592.48
541.96	43044.79
542.13	43278.85
542.30	43082.24
542.47	43433.32
542.63	43346.72
542.80	43421.62
542.97	44411.67
543.14	43896.75
543.31	43908.45
543.48	44098.03
543.64	44360.17
543.81	44334.43
543.98	44346.13
544.15	43896.75
544.32	44027.82
544.48	44306.34
544.65	44280.60
544.82	44392.94
544.99	43461.41
545.16	44257.19
545.32	44320.38
545.49	44545.08
545.66	44954.67
545.83	44367.20
546.00	44484.22
546.16	44449.11
546.33	44406.98
546.50	43941.22
546.67	44893.82
546.83	44294.64
547.00	44652.74
547.17	44369.54
547.34	44720.62
547.50	44528.69
547.67	44725.30
547.84	44722.96
548.00	44685.51
548.17	44971.05
548.34	44947.65
548.51	45373.63
548.67	45303.41
548.84	45324.47
549.01	45167.66
549.18	44758.06
549.34	44980.42
549.51	45186.38
549.68	45092.76
549.84	45153.62
550.01	45469.59
550.18	44978.07
550.34	45462.57
550.51	45296.39
550.68	45476.61
550.84	45162.98
551.01	45588.95
551.18	45799.60
551.34	45296.39
551.51	45724.71
551.68	45675.55
551.84	45649.81
552.01	45546.82
552.18	45464.91
552.34	45411.07
552.51	45263.62
552.68	45631.08
552.84	45736.41
553.01	46148.34
553.18	45717.68
553.34	45923.65
553.51	45624.06
553.67	45715.34
553.84	45979.82
554.01	46134.30
554.17	45914.29
554.34	46293.46
554.51	45876.84
554.67	46192.81
554.84	45925.99
555.00	46075.79
555.17	45918.97
555.33	46071.10
555.50	46340.27
555.67	46197.49
555.83	46410.48
556.00	46312.18
556.16	46373.03
556.33	46419.84
556.50	46185.79
556.66	46377.72
556.83	46094.51
556.99	46499.42
557.16	46461.97
557.32	46211.54
557.49	46602.41
557.65	46237.28
557.82	46490.06
557.98	46548.57
558.15	46534.53
558.32	46232.60
558.48	46265.37
558.65	46358.99
558.81	46450.27
558.98	46277.07
559.14	46644.54
559.31	46267.71
559.47	46770.93
559.64	46773.27
559.80	47084.56
559.97	46721.77
560.13	46527.51
560.30	46724.11
560.46	46667.94
560.63	46958.17
560.79	47054.13
560.96	46897.31
561.12	46820.08
561.29	46859.87
561.45	46852.84
561.61	46782.63
561.78	46660.92
561.94	46810.71
562.11	46913.70
562.27	46579.00
562.44	46955.83
562.60	46717.09
562.77	47168.82
562.93	46665.60
563.10	46834.12
563.26	46600.07
563.42	46951.15
563.59	46829.44
563.75	46866.89
563.92	46965.19
564.08	47023.70
564.24	47124.35
564.41	47236.69
564.57	47023.70
564.74	47559.69
564.90	46714.75
565.07	46923.06
565.23	46993.28
565.39	47004.98
565.56	47164.14
565.72	46787.31
565.88	47114.98
566.05	47023.70
566.21	46902.00
566.38	47044.77
566.54	46841.14
566.70	47166.48
566.87	47370.10
567.03	47290.52
567.19	47540.96
567.36	47159.45
567.52	46909.02
567.68	47426.28
567.85	46955.83
568.01	47131.37
568.17	47082.22
568.34	47196.90
568.50	46829.44
568.66	46941.78
568.83	47096.26
568.99	46710.07
569.15	47054.13
569.32	47119.66
569.48	46550.91
569.64	47372.44
569.81	47023.70
569.97	47285.84
570.13	47061.15
570.30	47105.62
570.46	46469.00
570.62	46990.94
570.78	46761.56
570.95	47110.30
571.11	47564.37
571.27	46862.21
571.43	47288.18
571.60	47466.06
571.76	47297.55
571.92	47421.59
572.09	47538.62
572.25	47248.39
572.41	47241.37
572.57	47206.26
572.74	47571.39
572.90	47407.55
573.06	47400.53
573.22	47473.09
573.38	47409.89
573.55	47114.98
573.71	47079.88
573.87	47494.15
574.03	47334.99
574.20	47152.43
574.36	47246.05
574.52	47529.26
574.68	47372.44
574.84	47253.08
575.01	47311.59
575.17	47168.82
575.33	47079.88
575.49	46791.99
575.65	47566.71
575.82	47562.03
575.98	47370.10
576.14	47480.11
576.30	47332.65
576.46	47157.11
576.62	47199.24
576.79	47077.54
576.95	47166.48
577.11	47136.05
577.27	47372.44
577.43	47416.91
577.59	47449.68
577.75	46944.12
577.92	46880.93
578.08	47367.76
578.24	46976.89
578.40	47283.50
578.56	47562.03
578.72	46887.95
578.88	47695.44
579.04	47398.19
579.21	47253.08
579.37	47194.56
579.53	47374.78
579.69	47138.39
579.85	47248.39
580.01	47786.72
580.17	47760.97
580.33	47482.45
580.49	47540.96
580.65	47175.84
580.82	47510.53
580.98	47838.21
581.14	47276.48
581.30	47447.34
581.46	47494.15
581.62	47332.65
581.78	47416.91
581.94	47796.08
582.10	47826.51
582.26	47845.23
582.42	47196.90
582.58	47482.45
582.74	46923.06
582.90	47601.82
583.06	47650.97
583.22	47498.83
583.38	47489.47
583.54	47728.20
583.70	47299.89
583.86	47143.07
584.02	47384.15
584.18	47721.18
584.34	47725.86
584.50	47569.05
584.66	47421.59
584.82	47180.52
584.98	47402.87
585.14	47775.02
585.30	47421.59
585.46	47480.11
585.62	47250.74
585.78	47442.66
585.94	47026.04
586.10	47473.09
586.26	47131.37
586.42	47569.05
586.58	47555.00
586.74	47690.76
586.90	47629.90
587.06	47157.11
587.22	47739.91
587.38	47732.89
587.54	47880.34
587.70	47491.81
587.86	47739.91
588.02	47426.28
588.18	47409.89
588.34	47098.60
588.49	47112.64
588.65	46894.97
588.81	47040.09
588.97	47086.90
589.13	46553.26
589.29	47054.13
589.45	47349.04
589.61	47105.62
589.77	47540.96
