SpectraSuite Data File
++++++++++++++++++++++++++++++++++++
Date: Fri Oct 25 11:23:38 EDT 2013
User: price-jones
Dark Spectrum Present: No
Reference Spectrum Present: No
Number of Sampled Component Spectra: 1
Spectrometers: USB2+H05261
Integration Time (usec): 100000 (USB2+H05261)
Spectra Averaged: 1 (USB2+H05261)
Boxcar Smoothing: 0 (USB2+H05261)
Correct for Electrical Dark: No (USB2+H05261)
Strobe/Lamp Enabled: No (USB2+H05261)
Correct for Detector Non-linearity: No (USB2+H05261)
Correct for Stray Light: No (USB2+H05261)
Number of Pixels in Processed Spectrum: 2048
>>>>>Begin Processed Spectral Data<<<<<
365.73	287.89
365.92	287.89
366.12	287.89
366.32	107.66
366.52	187.24
366.72	128.73
366.91	112.35
367.11	79.58
367.31	93.62
367.51	93.62
367.70	72.56
367.90	138.09
368.10	147.45
368.30	72.56
368.49	121.71
368.69	114.69
368.89	147.45
369.09	121.71
369.28	119.37
369.48	168.52
369.68	203.63
369.87	215.33
370.07	159.16
370.27	252.78
370.47	299.59
370.66	669.39
370.86	571.09
371.06	622.58
371.25	678.76
371.45	667.05
371.65	655.35
371.84	627.26
372.04	678.76
372.24	748.97
372.44	655.35
372.63	704.50
372.83	784.08
373.03	741.95
373.22	751.31
373.42	739.61
373.62	702.16
373.81	800.46
374.01	884.72
374.21	737.27
374.40	847.27
374.60	737.27
374.79	786.42
374.99	875.36
375.19	823.87
375.38	924.51
375.58	837.91
375.78	873.02
375.97	887.06
376.17	884.72
376.37	856.64
376.56	863.66
376.76	898.77
376.95	858.98
377.15	945.58
377.35	891.74
377.54	940.90
377.74	896.43
377.93	880.04
378.13	894.08
378.33	833.23
378.52	844.93
378.72	880.04
378.91	997.07
379.11	889.40
379.31	915.15
379.50	992.39
379.70	952.60
379.89	959.62
380.09	1011.11
380.28	940.90
380.48	961.96
380.68	1022.81
380.87	985.37
381.07	978.34
381.26	997.07
381.46	994.73
381.65	1090.69
381.85	992.39
382.04	1020.47
382.24	1076.65
382.43	1069.62
382.63	1076.65
382.83	994.73
383.02	1076.65
383.22	1048.56
383.41	1008.77
383.61	1083.67
383.80	1139.84
384.00	1069.62
384.19	1053.24
384.39	1142.18
384.58	1156.22
384.78	1184.31
384.97	1137.50
385.17	1205.38
385.36	1165.59
385.56	1149.20
385.75	1076.65
385.95	1179.63
386.14	1139.84
386.34	1193.67
386.53	1249.85
386.72	1226.44
386.92	1280.27
387.11	1327.08
387.31	1324.74
387.50	1287.29
387.70	1268.57
387.89	1219.42
388.09	1149.20
388.28	1289.64
388.48	1233.46
388.67	1249.85
388.86	1308.36
389.06	1327.08
389.25	1357.51
389.45	1242.82
389.64	1287.29
389.84	1355.17
390.03	1399.64
390.22	1399.64
390.42	1441.77
390.61	1317.72
390.81	1331.76
391.00	1399.64
391.19	1432.41
391.39	1448.79
391.58	1486.24
391.78	1411.34
391.97	1465.18
392.16	1521.35
392.36	1448.79
392.55	1591.56
392.75	1540.07
392.94	1486.24
393.13	1551.78
393.33	1523.69
393.52	1540.07
393.71	1638.38
393.91	1589.22
394.10	1563.48
394.29	1617.31
394.49	1570.50
394.68	1619.65
394.88	1593.90
395.07	1612.63
395.26	1706.25
395.46	1673.48
395.65	1799.87
395.84	1689.87
396.04	1706.25
396.23	1792.85
396.42	1743.70
396.62	1743.70
396.81	1797.53
397.00	1713.27
397.19	1806.89
397.39	1792.85
397.58	1736.68
397.77	1748.38
397.97	1774.13
398.16	1830.30
398.35	1884.13
398.55	1893.49
398.74	1921.58
398.93	1973.07
399.12	1853.70
399.32	1944.99
399.51	1961.37
399.70	1968.39
399.90	2024.56
400.09	2019.88
400.28	2111.16
400.47	2069.03
400.67	2129.89
400.86	2129.89
401.05	2057.33
401.24	2085.42
401.44	2136.91
401.63	2181.38
401.82	2153.29
402.01	2188.40
402.21	2111.16
402.40	2181.38
402.59	2157.97
402.78	2242.23
402.97	2303.09
403.17	2207.13
403.36	2239.89
403.55	2373.30
403.74	2263.30
403.93	2406.07
404.13	2326.49
404.32	2352.24
404.51	2431.82
404.70	2370.96
404.89	2354.58
405.09	2462.24
405.28	2450.54
405.47	2490.33
405.66	2422.45
405.85	2450.54
406.05	2546.50
406.24	2502.03
406.43	2595.65
406.62	2630.76
406.81	2651.83
407.00	2621.40
407.20	2600.34
407.39	2574.59
407.58	2640.12
407.77	2747.79
407.96	2885.88
408.15	2672.89
408.34	2827.37
408.54	2719.70
408.73	2810.98
408.92	2839.07
409.11	2841.41
409.30	2829.71
409.49	2932.69
409.68	3052.06
409.87	2932.69
410.07	2953.76
410.26	2995.89
410.45	2808.64
410.64	3035.67
410.83	3075.46
411.02	3171.43
411.21	3152.70
411.40	3152.70
411.59	3094.19
411.78	3185.47
411.98	3255.69
412.17	3272.07
412.36	3241.64
412.55	3302.50
412.74	3403.14
412.93	3520.17
413.12	3358.67
413.31	3555.27
413.50	3595.06
413.69	3555.27
413.88	3637.19
414.07	3536.55
414.26	3672.30
414.45	3602.08
414.64	3667.62
414.83	3632.51
415.02	3772.94
415.22	3843.16
415.41	3779.97
415.60	3939.12
415.79	3857.20
415.98	3920.40
416.17	3920.40
416.36	3852.52
416.55	3880.61
416.74	4044.45
416.93	3992.95
417.12	4117.00
417.31	4177.86
417.50	4227.01
417.69	4339.35
417.88	4140.41
418.07	4299.56
418.26	4355.74
418.45	4409.57
418.64	4507.87
418.83	4432.97
419.02	4472.76
419.21	4514.89
419.39	4596.81
419.58	4327.65
419.77	4423.61
419.96	4688.09
420.15	4561.70
420.34	4615.54
420.53	4627.24
420.72	4741.93
420.91	4688.09
421.10	4718.52
421.29	4861.29
421.48	4760.65
421.67	4711.50
421.86	4849.59
422.05	4727.88
422.24	4777.03
422.43	4926.83
422.61	4936.19
422.80	4835.55
422.99	5055.56
423.18	4910.44
423.37	5083.64
423.56	4891.72
423.75	4877.68
423.94	4856.61
424.13	4734.90
424.32	4692.77
424.50	5025.13
424.69	5095.35
424.88	5135.14
425.07	4929.17
425.26	4985.34
425.45	5008.75
425.64	4936.19
425.83	5139.82
426.01	5121.09
426.20	5036.83
426.39	4992.36
426.58	4947.89
426.77	5039.17
426.96	5109.39
427.15	5114.07
427.33	5282.59
427.52	5254.50
427.71	5320.04
427.90	5324.72
428.09	5308.34
428.28	5359.83
428.46	5331.74
428.65	5275.57
428.84	5575.16
429.03	5682.82
429.22	5338.76
429.40	5509.62
429.59	5654.73
429.78	5387.91
429.97	5263.86
430.16	5575.16
430.34	5633.67
430.53	5755.38
430.72	5673.46
430.91	5556.43
431.10	5678.14
431.28	5701.54
431.47	5748.36
431.66	5816.23
431.85	5799.85
432.03	5991.77
432.22	6043.26
432.41	5947.30
432.60	5818.57
432.79	5884.11
432.97	5973.05
433.16	5982.41
433.35	5914.53
433.54	5874.74
433.72	6076.03
433.91	6085.39
434.10	6127.52
434.28	6036.24
434.47	5989.43
434.66	6298.38
434.85	6148.59
435.03	6331.15
435.22	6399.02
435.41	6555.84
435.59	6375.62
435.78	6434.13
435.97	6588.61
436.16	6380.30
436.34	6478.60
436.53	6363.92
436.72	6733.72
436.90	6597.97
437.09	6712.66
437.28	6389.66
437.46	6560.52
437.65	6722.02
437.84	6684.57
438.02	6684.57
438.21	6782.87
438.40	6635.42
438.58	6815.64
438.77	7014.59
438.96	6937.35
439.14	7094.16
439.33	7133.95
439.52	7243.96
439.70	7178.42
439.89	7269.70
440.08	7452.27
440.26	7309.49
440.45	7304.81
440.63	7552.91
440.82	7536.52
441.01	7456.95
441.19	7793.98
441.38	7829.09
441.57	7616.10
441.75	7712.07
441.94	7887.61
442.12	7964.84
442.31	8044.42
442.50	8175.49
442.68	8006.97
442.87	8030.38
443.05	7992.93
443.24	8308.90
443.43	8182.51
443.61	8025.70
443.80	8320.60
443.98	7859.52
444.17	7918.03
444.35	8152.09
444.54	8517.21
444.73	8154.43
444.91	8191.88
445.10	8528.91
445.28	8339.33
445.47	8257.41
445.65	8477.42
445.84	8355.71
446.02	8498.49
446.21	8423.59
446.39	8215.28
446.58	8409.54
446.77	8386.14
446.95	8245.71
447.14	8458.70
447.32	8629.56
447.51	8219.96
447.69	8428.27
447.88	8540.61
448.06	8500.83
448.25	8620.19
448.43	8547.64
448.62	8498.49
448.80	8554.66
448.99	8765.31
449.17	8617.85
449.36	8760.63
449.54	8861.27
449.73	8861.27
449.91	9015.74
450.10	8915.10
450.28	9174.90
450.46	9025.11
450.65	9006.38
450.83	9160.86
451.02	9050.85
451.20	9118.73
451.39	8978.30
451.57	9029.79
451.76	9142.13
451.94	9172.56
452.13	9378.53
452.31	9352.78
452.49	9235.75
452.68	9444.06
452.86	9495.55
453.05	9451.08
453.23	9277.88
453.42	9460.45
453.60	9158.52
453.78	9554.07
453.97	9390.23
454.15	9551.73
454.34	9493.21
454.52	9652.37
454.70	9767.06
454.89	9767.06
455.07	9760.03
455.26	9816.21
455.44	9914.51
455.62	9914.51
455.81	9954.30
455.99	9823.23
456.17	10134.52
456.36	10141.54
456.54	10186.01
456.73	10406.02
456.91	10511.35
457.09	10272.61
457.28	10511.35
457.46	10471.56
457.64	10640.08
457.83	10590.92
458.01	10520.71
458.19	10541.77
458.38	10530.07
458.56	10731.36
458.74	10607.31
458.93	10750.08
459.11	10663.48
459.29	10801.57
459.48	10909.24
459.66	10892.85
459.84	10874.13
460.03	11281.38
460.21	10717.31
460.39	11110.52
460.57	11304.79
460.76	11199.46
460.94	11302.45
461.12	11136.27
461.31	11023.92
461.49	11190.10
461.67	11087.12
461.85	11159.67
462.04	11431.18
462.22	11438.20
462.40	11496.71
462.59	11293.08
462.77	11459.26
462.95	11674.59
463.13	11421.81
463.32	11580.97
463.50	11833.75
463.68	11810.34
463.86	11864.18
464.05	11676.93
464.23	11665.23
464.41	11906.31
464.59	11915.67
464.78	12004.61
464.96	11915.67
465.14	11894.60
465.32	11779.92
465.50	12119.29
465.69	12145.04
465.87	12210.57
466.05	12140.36
466.23	12393.14
466.41	12142.70
466.60	12365.05
466.78	12175.47
466.96	12142.70
467.14	12540.59
467.32	12348.67
467.51	12732.51
467.69	12175.47
467.87	12442.29
468.05	12486.76
468.23	12442.29
468.41	12292.49
468.60	12652.94
468.78	12765.28
468.96	12704.43
469.14	12627.19
469.32	12908.05
469.50	12659.96
469.69	12975.93
469.87	13135.09
470.05	13139.77
470.23	13156.15
470.41	13371.48
470.59	13411.27
470.77	12950.18
470.95	13296.58
471.14	13472.12
471.32	13200.62
471.50	13661.71
471.68	13792.78
471.86	13722.56
472.04	13724.90
472.22	14153.22
472.40	13961.30
472.58	13767.03
472.77	14230.46
472.95	14431.74
473.13	14492.60
473.31	14321.74
473.49	14286.63
473.67	14106.41
473.85	14384.93
474.03	14541.75
474.21	14633.03
474.39	14778.14
474.57	14534.73
474.75	15152.63
474.93	15021.56
475.12	14839.00
475.30	15220.50
475.48	14941.98
475.66	15126.88
475.84	14918.57
476.02	15187.74
476.20	15412.43
476.38	15679.25
476.56	15929.69
476.74	15728.40
476.92	15829.04
477.10	15889.90
477.28	16159.06
477.46	16255.02
477.64	16252.68
477.82	16585.04
478.00	16807.39
478.18	16912.71
478.36	16861.22
478.54	17025.06
478.72	17336.35
478.90	17348.05
479.08	17488.48
479.26	17699.13
479.44	17741.26
479.62	17692.11
479.80	17909.78
479.98	18342.78
480.16	18600.24
480.34	18586.19
480.52	18410.65
480.70	18527.68
480.88	18483.21
481.06	18871.74
481.24	18817.91
481.41	19080.05
481.59	19403.04
481.77	19489.64
481.95	19276.65
482.13	19866.47
482.31	19494.32
482.49	20130.95
482.67	20163.72
482.85	20538.20
483.03	20594.37
483.21	21003.97
483.39	20615.44
483.57	20891.62
483.74	21238.02
483.92	21453.35
484.10	21357.39
484.28	21678.04
484.46	22270.20
484.64	22452.76
484.82	21954.22
485.00	22480.85
485.18	22546.38
485.35	23168.96
485.53	22754.69
485.71	22897.46
485.89	23534.09
486.07	23353.87
486.25	23335.14
486.43	23356.21
486.61	23946.02
486.78	23772.82
486.96	24224.54
487.14	24456.26
487.32	24699.67
487.50	24807.34
487.68	24790.95
487.85	25209.91
488.03	25923.77
488.21	25706.10
488.39	25907.39
488.57	26012.71
488.75	26307.62
488.92	26595.51
489.10	26972.33
489.28	27021.48
489.46	26995.74
489.64	26972.33
489.81	27447.46
489.99	27779.82
490.17	27683.86
490.35	27962.38
490.53	28379.00
490.70	28491.34
490.88	28264.31
491.06	29085.84
491.24	28830.72
491.41	29207.55
491.59	29310.53
491.77	29514.16
491.95	29893.32
492.13	29450.96
492.30	30150.78
492.48	30120.35
492.66	30476.12
492.84	30291.21
493.01	31089.34
493.19	30221.00
493.37	31103.38
493.54	31304.67
493.72	31426.37
493.90	31613.62
494.08	31866.39
494.25	32044.27
494.43	31878.10
494.61	32474.93
494.79	32669.20
494.96	32355.57
495.14	32837.72
495.32	33149.01
495.49	33205.18
495.67	33528.17
495.85	33720.10
496.02	33881.60
496.20	34239.70
496.38	34141.39
496.55	34401.19
496.73	34869.30
496.91	34888.03
497.09	34628.23
497.26	35086.97
497.44	34888.03
497.62	35372.52
497.79	35964.67
497.97	35480.18
498.14	36168.30
498.32	36306.39
498.50	35882.75
498.67	36744.07
498.85	36706.62
499.03	37036.64
499.20	36655.13
499.38	37191.11
499.56	36868.12
499.73	37151.32
499.91	37514.11
500.08	37455.59
500.26	37432.19
500.44	37612.41
500.61	37858.17
500.79	37846.46
500.97	38419.89
501.14	38560.33
501.32	38422.23
501.49	38555.64
501.67	38778.00
501.84	39452.07
502.02	39510.58
502.20	39065.88
502.37	39484.84
502.55	39026.09
502.72	39159.50
502.90	39796.13
503.07	39449.73
503.25	39945.92
503.43	39873.37
503.60	39697.83
503.78	40161.25
503.95	40591.91
504.13	40472.54
504.30	40802.56
504.48	40484.25
504.65	41029.59
504.83	41160.66
505.01	41553.87
505.18	41291.73
505.36	41621.75
505.53	41469.61
505.71	41577.28
505.88	41645.15
506.06	41670.90
506.23	41989.21
506.41	41930.70
506.58	42281.78
506.76	42288.80
506.93	42873.93
507.11	42337.95
507.28	42586.05
507.46	42784.99
507.63	43288.21
507.81	43227.35
507.98	42789.67
508.16	43416.94
508.33	43718.87
508.50	43716.53
508.68	43796.10
508.85	44196.34
509.03	43789.08
509.20	44369.54
509.38	43901.43
509.55	44491.24
509.73	44442.09
509.90	44662.10
510.08	44987.44
510.25	44671.46
510.42	44828.28
510.60	44540.39
510.77	45059.99
510.95	45436.82
511.12	44629.34
511.30	45291.71
511.47	45492.99
511.64	45902.59
511.82	45801.94
511.99	45572.57
512.17	46230.26
512.34	46017.27
512.51	46548.57
512.69	46511.13
512.86	46333.24
513.04	46857.52
513.21	46660.92
513.38	47004.98
513.56	46710.07
513.73	46560.28
513.90	47091.58
514.08	46883.27
514.25	47346.70
514.43	47559.69
514.60	47447.34
514.77	47365.42
514.95	47718.84
515.12	47580.75
515.29	47845.23
515.47	48020.77
515.64	48516.96
515.81	48463.13
515.99	48205.67
516.16	48552.07
516.33	48243.12
516.51	48889.11
516.68	48229.08
516.85	48381.21
517.03	48713.57
517.20	48715.91
517.37	48624.63
517.54	48687.82
517.72	49055.29
517.89	49013.16
518.06	49338.49
518.24	49287.00
518.41	49404.03
518.58	49757.45
518.75	49167.63
518.93	49844.05
519.10	49052.95
519.27	50012.57
519.45	50244.28
519.62	50122.57
519.79	49806.60
519.96	50007.89
520.14	50031.29
520.31	49996.18
520.48	50174.06
520.65	50492.38
520.83	50457.27
521.00	50705.37
521.17	50518.12
521.34	50724.09
521.52	51168.79
521.69	50937.08
521.86	51215.60
522.03	51344.33
522.20	51484.76
522.38	51456.68
522.55	51482.42
522.72	51517.53
522.89	51316.25
523.07	51374.76
523.24	51594.77
523.41	51805.42
523.58	51388.80
523.75	52027.77
523.92	51906.06
524.10	52030.11
524.27	52053.51
524.44	52060.54
524.61	52224.37
524.78	52086.28
524.96	52254.80
525.13	52439.70
525.30	52540.35
525.47	52624.60
525.64	52903.13
525.81	52673.76
525.98	52561.41
526.16	52779.08
526.33	52704.18
526.50	53036.54
526.67	52886.74
526.84	52966.32
527.01	52839.93
527.18	53055.26
527.36	53329.11
527.53	53382.94
527.70	53322.08
527.87	53366.55
528.04	53202.72
528.21	53286.98
528.38	53333.79
528.55	53549.12
528.72	53289.32
528.89	53322.08
529.07	53382.94
529.24	53284.64
529.41	53801.89
529.58	53729.34
529.75	53722.32
529.92	53586.57
530.09	54061.69
530.26	53607.63
530.43	53951.69
530.60	53741.04
530.77	53975.09
530.94	54368.30
531.11	53801.89
531.28	54593.00
531.46	54134.25
531.63	54457.24
531.80	54384.69
531.97	54347.24
532.14	54548.53
532.31	54511.08
532.48	54602.36
532.65	54695.98
532.82	54602.36
532.99	54646.83
533.16	54597.68
533.33	55098.55
533.50	54878.54
533.67	54850.45
533.84	54749.81
534.01	54604.70
534.18	55133.66
534.35	55391.12
534.52	55248.35
534.69	55152.38
534.86	55030.68
535.03	55269.41
535.20	55262.39
535.37	55414.52
535.54	55463.67
535.71	55332.60
535.88	55393.46
536.05	55503.46
536.22	55627.51
536.38	55901.36
536.55	55721.13
536.72	55643.90
536.89	55501.12
537.06	55828.80
537.23	55746.88
537.40	55730.50
537.57	55664.96
537.74	55980.93
537.91	56055.83
538.08	55697.73
538.25	55744.54
538.42	55884.97
538.59	56182.22
538.75	55938.80
538.92	56172.86
539.09	56196.26
539.26	56100.30
539.43	56093.28
539.60	56423.29
539.77	56350.74
539.94	56336.69
540.11	56442.02
540.28	56451.38
540.44	56472.45
540.61	56200.94
540.78	56793.10
540.95	56495.85
541.12	56488.83
541.29	56502.87
541.46	56491.17
541.62	56456.06
541.79	56584.79
541.96	56294.56
542.13	56636.28
542.30	56547.34
542.47	56802.46
542.63	56877.36
542.80	56924.17
542.97	57031.83
543.14	57181.63
543.31	57132.48
543.48	57275.25
543.64	57286.95
543.81	57373.55
543.98	57359.51
544.15	57551.43
544.32	57530.37
544.48	57490.58
544.65	57434.41
544.82	57389.94
544.99	57378.23
545.16	57506.96
545.32	57200.35
545.49	57626.33
545.66	57675.48
545.83	57820.59
546.00	57897.83
546.16	57619.31
546.33	57790.17
546.50	57593.56
546.67	57836.98
546.83	57616.97
547.00	57841.66
547.17	57738.68
547.34	57996.13
547.50	58007.84
547.67	58129.54
547.84	57963.37
548.00	58237.21
548.17	58131.89
548.34	58075.71
548.51	58232.53
548.67	58293.38
548.84	58145.93
549.01	58010.18
549.18	58363.60
549.34	58169.33
549.51	58312.11
549.68	58410.41
549.84	58230.19
550.01	58384.66
550.18	58440.84
550.34	58445.52
550.51	58557.86
550.68	58473.60
550.84	58281.68
551.01	58827.02
551.18	58658.51
551.34	58539.14
551.51	58478.28
551.68	58487.65
551.84	58543.82
552.01	58401.05
552.18	58866.81
552.34	58656.17
552.51	58983.84
552.68	58618.72
552.84	58824.68
553.01	58913.62
553.18	58763.83
553.34	58962.78
553.51	58494.67
553.67	59028.31
553.84	59105.55
554.01	59011.93
554.17	58955.75
554.34	59058.74
554.51	59014.27
554.67	59096.19
554.84	58958.09
555.00	59159.38
555.17	58986.18
555.33	59231.94
555.50	58911.28
555.67	59000.22
555.83	59353.65
556.00	59114.91
556.16	59524.50
556.33	59465.99
556.50	59271.73
556.66	59327.90
556.83	59269.39
556.99	59454.29
557.16	59702.38
557.32	59498.76
557.49	59433.22
557.65	59444.93
557.82	59313.86
557.98	59353.65
558.15	59355.99
558.32	59515.14
558.48	59185.13
558.65	59688.34
558.81	59662.60
558.98	59407.48
559.14	59559.61
559.31	59709.41
559.47	59749.20
559.64	59781.96
559.80	59744.51
559.97	59763.24
560.13	59639.19
560.30	59650.89
560.46	59583.02
560.63	59784.30
560.79	59952.82
560.96	59852.18
561.12	59824.09
561.29	59798.35
561.45	60055.81
561.61	59976.23
561.78	59936.44
561.94	59674.30
562.11	59653.23
562.27	59896.65
562.44	59938.78
562.60	59992.61
562.77	60285.18
562.93	59632.17
563.10	60198.58
563.26	59718.77
563.42	60067.51
563.59	59929.42
563.75	60069.85
563.92	60069.85
564.08	59929.42
564.24	60224.32
564.41	60168.15
564.57	60067.51
564.74	60147.09
564.90	60282.84
565.07	60189.22
565.23	60170.49
565.39	60243.05
565.56	60142.41
565.72	60039.42
565.88	60214.96
566.05	60214.96
566.21	60210.28
566.38	60289.86
566.54	60233.69
566.70	60278.16
566.87	60413.91
567.03	60418.59
567.19	60559.02
567.36	60458.38
567.52	60264.11
567.68	60704.13
567.85	60456.04
568.01	60430.29
568.17	60591.79
568.34	60495.83
568.50	60420.93
568.66	60233.69
568.83	60395.18
568.99	60437.31
569.15	60514.55
569.32	60367.10
569.48	60601.15
569.64	60512.21
569.81	60383.48
569.97	60243.05
570.13	60474.76
570.30	60296.88
570.46	60479.44
570.62	60514.55
570.78	60566.04
570.95	60355.39
571.11	60584.77
571.27	60383.48
571.43	60580.09
571.60	60809.46
571.76	60500.51
571.92	60669.03
572.09	60678.39
572.25	60633.92
572.41	60666.69
572.57	60650.30
572.74	60942.87
572.90	60556.68
573.06	60729.88
573.22	60453.70
573.38	60699.45
573.55	60650.30
573.71	60882.02
573.87	60509.87
574.03	60563.70
574.20	60650.30
574.36	60612.85
574.52	60605.83
574.68	60739.24
574.84	60657.32
575.01	60809.46
575.17	60664.35
575.33	60610.51
575.49	60589.45
575.65	60828.18
575.82	60781.37
575.98	60678.39
576.14	60952.23
576.30	60938.19
576.46	60856.27
576.62	60809.46
576.79	60786.05
576.95	60636.26
577.11	60844.57
577.27	61001.38
577.43	60870.31
577.59	60860.95
577.75	60793.07
577.92	60711.16
578.08	60830.52
578.24	60912.44
578.40	61092.66
578.56	61024.79
578.72	60973.30
578.88	61212.03
579.04	61085.64
579.21	60954.57
579.37	61055.21
579.53	60940.53
579.69	60863.29
579.85	60938.19
580.01	60956.91
580.17	60844.57
580.33	60917.12
580.49	60977.98
580.65	60903.08
580.82	61013.08
580.98	60802.44
581.14	60856.27
581.30	60910.10
581.46	60921.80
581.62	61106.71
581.78	60989.68
581.94	61062.24
582.10	60877.33
582.26	60898.40
582.42	61050.53
582.58	60921.80
582.74	60945.21
582.90	60917.12
583.06	60963.93
583.22	60853.93
583.38	60872.65
583.54	61141.81
583.70	60874.99
583.86	61139.47
584.02	60783.71
584.18	61169.90
584.34	61214.37
584.50	61221.39
584.66	61090.32
584.82	60867.97
584.98	61139.47
585.14	60945.21
585.30	60935.85
585.46	61132.45
585.62	61141.81
585.78	61017.77
585.94	60879.67
586.10	60732.22
586.26	61174.58
586.42	61118.41
586.58	61190.97
586.74	61099.68
586.90	60910.10
587.06	60830.52
587.22	61123.09
587.38	61041.17
587.54	61179.26
587.70	61174.58
587.86	61289.27
588.02	61099.68
588.18	61181.60
588.34	61055.21
588.49	61013.08
