SpectraSuite Data File
++++++++++++++++++++++++++++++++++++
Date: Fri Oct 25 11:22:48 EDT 2013
User: price-jones
Dark Spectrum Present: No
Reference Spectrum Present: No
Number of Sampled Component Spectra: 1
Spectrometers: USB2+H05261
Integration Time (usec): 100000 (USB2+H05261)
Spectra Averaged: 1 (USB2+H05261)
Boxcar Smoothing: 0 (USB2+H05261)
Correct for Electrical Dark: No (USB2+H05261)
Strobe/Lamp Enabled: No (USB2+H05261)
Correct for Detector Non-linearity: No (USB2+H05261)
Correct for Stray Light: No (USB2+H05261)
Number of Pixels in Processed Spectrum: 2048
>>>>>Begin Processed Spectral Data<<<<<
365.73	170.86
365.92	170.86
366.12	170.86
366.32	105.32
366.52	180.22
366.72	205.97
366.91	112.35
367.11	107.66
367.31	152.13
367.51	184.90
367.70	102.98
367.90	205.97
368.10	128.73
368.30	124.05
368.49	91.28
368.69	117.03
368.89	133.41
369.09	117.03
369.28	168.52
369.48	159.16
369.68	159.16
369.87	149.79
370.07	201.29
370.27	180.22
370.47	325.33
370.66	617.90
370.86	608.54
371.06	613.22
371.25	730.25
371.45	603.86
371.65	704.50
371.84	669.39
372.04	660.03
372.24	613.22
372.44	674.07
372.63	713.86
372.83	720.88
373.03	737.27
373.22	746.63
373.42	720.88
373.62	800.46
373.81	793.44
374.01	793.44
374.21	807.48
374.40	788.76
374.60	774.72
374.79	788.76
374.99	866.00
375.19	903.45
375.38	774.72
375.58	770.04
375.78	877.70
375.97	889.40
376.17	926.85
376.37	828.55
376.56	880.04
376.76	908.13
376.95	870.68
377.15	873.02
377.35	819.19
377.54	901.11
377.74	851.96
377.93	868.34
378.13	931.53
378.33	882.38
378.52	912.81
378.72	966.64
378.91	870.68
379.11	931.53
379.31	926.85
379.50	905.79
379.70	959.62
379.89	1015.79
380.09	926.85
380.28	940.90
380.48	961.96
380.68	1076.65
380.87	943.24
381.07	987.71
381.26	1004.09
381.46	1013.45
381.65	1015.79
381.85	1001.75
382.04	1027.50
382.24	1060.26
382.43	1081.33
382.63	1076.65
382.83	1036.86
383.02	1160.91
383.22	1090.69
383.41	1083.67
383.61	1160.91
383.80	1109.41
384.00	990.05
384.19	1153.88
384.39	1186.65
384.58	1076.65
384.78	1177.29
384.97	1165.59
385.17	1095.37
385.36	1137.50
385.56	1128.14
385.75	1205.38
385.95	1128.14
386.14	1207.72
386.34	1151.54
386.53	1207.72
386.72	1174.95
386.92	1320.06
387.11	1226.44
387.31	1289.64
387.50	1329.42
387.70	1191.33
387.89	1254.53
388.09	1327.08
388.28	1291.98
388.48	1233.46
388.67	1235.80
388.86	1329.42
389.06	1357.51
389.25	1336.45
389.45	1306.02
389.64	1310.70
389.84	1373.89
390.03	1399.64
390.22	1348.15
390.42	1397.30
390.61	1341.13
390.81	1308.36
391.00	1479.22
391.19	1474.54
391.39	1467.52
391.58	1411.34
391.78	1476.88
391.97	1430.07
392.16	1418.36
392.36	1575.18
392.55	1437.09
392.75	1526.03
392.94	1540.07
393.13	1493.26
393.33	1528.37
393.52	1549.43
393.71	1528.37
393.91	1537.73
394.10	1549.43
394.29	1551.78
394.49	1526.03
394.68	1668.80
394.88	1640.72
395.07	1640.72
395.26	1640.72
395.46	1692.21
395.65	1724.97
395.84	1769.44
396.04	1827.96
396.23	1776.47
396.42	1724.97
396.62	1767.10
396.81	1741.36
397.00	1912.22
397.19	1739.02
397.39	1893.49
397.58	1769.44
397.77	1839.66
397.97	1806.89
398.16	1813.92
398.35	1926.26
398.55	1856.04
398.74	1881.79
398.93	1879.45
399.12	1877.11
399.32	1823.28
399.51	1870.09
399.70	1973.07
399.90	1966.05
400.09	2054.99
400.28	2076.06
400.47	2015.20
400.67	2101.80
400.86	2010.52
401.05	2143.93
401.24	2097.12
401.44	2134.57
401.63	2162.66
401.82	2188.40
402.01	2073.71
402.21	1996.48
402.40	2230.53
402.59	2214.15
402.78	2225.85
402.97	2218.83
403.17	2279.68
403.36	2359.26
403.55	2202.44
403.74	2303.09
403.93	2359.26
404.13	2377.98
404.32	2284.36
404.51	2368.62
404.70	2389.69
404.89	2326.49
405.09	2504.37
405.28	2551.18
405.47	2420.11
405.66	2532.46
405.85	2513.74
406.05	2513.74
406.24	2520.76
406.43	2630.76
406.62	2595.65
406.81	2619.06
407.00	2513.74
407.20	2513.74
407.39	2602.68
407.58	2628.42
407.77	2773.53
407.96	2736.09
408.15	2810.98
408.34	2696.30
408.54	2787.58
408.73	2771.19
408.92	2881.20
409.11	2981.84
409.30	2960.78
409.49	2906.95
409.68	2867.16
409.87	2939.71
410.07	2951.42
410.26	2993.55
410.45	2977.16
410.64	3169.09
410.83	3159.72
411.02	3103.55
411.21	3150.36
411.40	3028.65
411.59	3232.28
411.78	3213.56
411.98	3131.64
412.17	3234.62
412.36	3323.56
412.55	3410.16
412.74	3265.05
412.93	3466.33
413.12	3325.90
413.31	3599.74
413.50	3435.91
413.69	3473.36
413.88	3672.30
414.07	3569.32
414.26	3667.62
414.45	3684.00
414.64	3623.15
414.83	3644.21
415.02	3782.31
415.22	3810.39
415.41	3866.56
415.60	3840.82
415.79	3824.44
415.98	4086.58
416.17	3969.55
416.36	4018.70
416.55	4051.47
416.74	4072.53
416.93	4046.79
417.12	4121.68
417.31	4074.87
417.50	4205.94
417.69	4400.21
417.88	4376.80
418.07	4257.43
418.26	4224.67
418.45	4386.16
418.64	4477.44
418.83	4369.78
419.02	4365.10
419.21	4449.36
419.39	4554.68
419.58	4592.13
419.77	4355.74
419.96	4482.13
420.15	4648.30
420.34	4512.55
420.53	4645.96
420.72	4629.58
420.91	4585.11
421.10	4657.67
421.29	4655.33
421.48	4765.33
421.67	4704.48
421.86	4966.62
422.05	4786.40
422.24	4835.55
422.43	4954.91
422.61	4952.57
422.80	4940.87
422.99	4894.06
423.18	5163.22
423.37	5004.07
423.56	4959.60
423.75	5008.75
423.94	4833.21
424.13	4526.60
424.32	4678.73
424.50	4779.37
424.69	5060.24
424.88	5132.79
425.07	4912.78
425.26	4826.18
425.45	5046.20
425.64	4802.78
425.83	4901.08
426.01	5242.80
426.20	4959.60
426.39	4971.30
426.58	5121.09
426.77	5088.32
426.96	5195.99
427.15	5114.07
427.33	5200.67
427.52	5277.91
427.71	5198.33
427.90	5195.99
428.09	5549.41
428.28	5371.53
428.46	5404.30
428.65	5296.63
428.84	5551.75
429.03	5490.90
429.22	5387.91
429.40	5509.62
429.59	5392.59
429.78	5334.08
429.97	5256.84
430.16	5444.09
430.34	5554.09
430.53	5769.42
430.72	5533.03
430.91	5692.18
431.10	5701.54
431.28	5598.56
431.47	5853.68
431.66	5837.30
431.85	5731.97
432.03	5830.27
432.22	5975.39
432.41	5748.36
432.60	5823.25
432.79	5980.07
432.97	5898.15
433.16	5942.62
433.35	6139.23
433.54	6033.90
433.72	6186.04
433.91	6069.01
434.10	6200.08
434.28	6235.19
434.47	6211.78
434.66	6333.49
434.85	6228.17
435.03	6277.32
435.22	6155.61
435.41	6333.49
435.59	6366.26
435.78	6560.52
435.97	6551.16
436.16	6314.77
436.34	6359.24
436.53	6399.02
436.72	6572.22
436.90	6581.59
437.09	6794.58
437.28	6544.14
437.46	6621.38
437.65	6722.02
437.84	6691.59
438.02	6689.25
438.21	6789.89
438.40	6736.06
438.58	6951.39
438.77	7005.22
438.96	7012.24
439.14	6977.14
439.33	7148.00
439.52	7332.90
439.70	7049.69
439.89	7379.71
440.08	7187.79
440.26	7414.82
440.45	7325.88
440.63	7616.10
440.82	7571.63
441.01	7391.41
441.19	7709.72
441.38	7639.51
441.57	7737.81
441.75	7901.65
441.94	7974.21
442.12	7992.93
442.31	8018.68
442.50	8135.70
442.68	8098.25
442.87	8168.47
443.05	7990.59
443.24	8379.12
443.43	8248.05
443.61	8259.75
443.80	8568.70
443.98	8159.11
444.17	8051.44
444.35	8269.11
444.54	8154.43
444.73	8379.12
444.91	8311.24
445.10	8210.60
445.28	8372.10
445.47	8210.60
445.65	8308.90
445.84	8477.42
446.02	8439.97
446.21	8559.34
446.39	8224.64
446.58	8585.08
446.77	8505.51
446.95	8226.98
447.14	8383.80
447.32	8470.40
447.51	8566.36
447.69	8489.12
447.88	8571.04
448.06	8580.40
448.25	8444.65
448.43	8580.40
448.62	8571.04
448.80	8800.41
448.99	8814.46
449.17	8723.18
449.36	8720.84
449.54	8872.97
449.73	8933.82
449.91	9022.77
450.10	9067.24
450.28	9291.93
450.46	9088.30
450.65	9053.19
450.83	9163.20
451.02	9135.11
451.20	9336.40
451.39	9273.20
451.57	9018.08
451.76	9018.08
451.94	9247.46
452.13	9430.02
452.31	9305.97
452.49	9231.07
452.68	9324.69
452.86	9437.04
453.05	9673.43
453.23	9387.89
453.42	9383.21
453.60	9432.36
453.78	9582.15
453.97	9448.74
454.15	9446.40
454.34	9392.57
454.52	9476.83
454.70	9554.07
454.89	10052.60
455.07	9778.76
455.26	9797.48
455.44	9757.69
455.62	9753.01
455.81	9935.57
455.99	10054.94
456.17	10143.88
456.36	9853.66
456.54	10139.20
456.73	10417.72
456.91	10420.06
457.09	10471.56
457.28	10595.61
457.46	10356.87
457.64	10513.69
457.83	10637.73
458.01	10354.53
458.19	10710.29
458.38	10520.71
458.56	10782.85
458.74	10604.97
458.93	10789.87
459.11	10750.08
459.29	10995.84
459.48	10841.36
459.66	10815.62
459.84	10977.11
460.03	11159.67
460.21	11098.82
460.39	11052.01
460.57	11101.16
460.76	11157.33
460.94	11314.15
461.12	11328.19
461.31	11117.54
461.49	11126.91
461.67	11269.68
461.85	11318.83
462.04	11297.77
462.22	11775.24
462.40	11620.76
462.59	11599.70
462.77	11440.54
462.95	11602.04
463.13	11712.04
463.32	11550.54
463.50	11768.21
463.68	11889.92
463.86	11770.55
464.05	11625.44
464.23	11705.02
464.41	11810.34
464.59	11730.76
464.78	12095.89
464.96	12222.28
465.14	12016.31
465.32	12308.88
465.50	12278.45
465.69	12205.89
465.87	12189.51
466.05	12210.57
466.23	12383.77
466.41	12402.50
466.60	12318.24
466.78	12067.80
466.96	12020.99
467.14	12229.30
467.32	12306.54
467.51	12432.93
467.69	12327.60
467.87	12683.36
468.05	12624.85
468.23	12496.12
468.41	12353.35
468.60	12631.87
468.78	12695.07
468.96	12784.01
469.14	12784.01
469.32	12786.35
469.50	12634.21
469.69	12865.92
469.87	13247.43
470.05	13081.25
470.23	13202.96
470.41	13280.20
470.59	13411.27
470.77	13226.37
470.95	13380.84
471.14	13509.57
471.32	13310.63
471.50	13603.19
471.68	13476.80
471.86	13577.45
472.04	13668.73
472.22	14284.29
472.40	13694.47
472.58	13909.80
472.77	14066.62
472.95	14052.58
473.13	14518.34
473.31	14099.39
473.49	14387.27
473.67	14246.84
473.85	14555.79
474.03	14616.65
474.21	14544.09
474.39	14796.87
474.57	14850.70
474.75	14750.06
474.93	15068.37
475.12	14874.10
475.30	15138.58
475.48	15154.97
475.66	15080.07
475.84	15304.76
476.02	15440.51
476.20	15660.52
476.38	15658.18
476.56	16009.26
476.74	16149.70
476.92	15946.07
477.10	15861.81
477.28	16004.58
477.46	16205.87
477.64	16535.88
477.82	16652.91
478.00	16989.95
478.18	16938.46
478.36	17191.23
478.54	17200.60
478.72	17401.88
478.90	17685.09
479.08	17645.30
479.26	17511.89
479.44	17790.41
479.62	17998.72
479.80	18099.36
479.98	18361.50
480.16	18853.02
480.34	18787.48
480.52	18726.63
480.70	18724.29
480.88	18501.93
481.06	18836.63
481.24	19026.21
481.41	19271.97
481.59	19098.77
481.77	19463.90
481.95	19445.17
482.13	19978.81
482.31	19534.11
482.49	20606.08
482.67	20278.40
482.85	20144.99
483.03	20922.05
483.21	20807.36
483.39	21113.97
483.57	20971.20
483.74	21043.76
483.92	21371.43
484.10	21287.17
484.28	22061.89
484.46	22015.08
484.64	22141.47
484.82	21949.54
485.00	22354.46
485.18	22953.63
485.35	22801.50
485.53	22836.61
485.71	23101.09
485.89	23517.70
486.07	22902.14
486.25	23445.15
486.43	23770.48
486.61	23885.17
486.78	24257.31
486.96	24009.22
487.14	24709.04
487.32	24552.22
487.50	25013.31
487.68	25003.94
487.85	25525.88
488.03	25851.22
488.21	25710.78
488.39	25731.85
488.57	26431.67
488.75	26242.09
488.92	26581.46
489.10	26913.82
489.28	27002.76
489.46	26885.73
489.64	26941.91
489.81	28002.17
489.99	27688.54
490.17	27599.60
490.35	28346.23
490.53	28095.79
490.70	28287.71
490.88	28180.05
491.06	28884.55
491.24	28954.77
491.41	29209.89
491.59	29244.99
491.77	29329.25
491.95	29532.88
492.13	30008.01
492.30	29780.98
492.48	30342.70
492.66	30256.11
492.84	30284.19
493.01	30962.95
493.19	30918.48
493.37	31304.67
493.54	31140.83
493.72	31590.21
493.90	31428.71
494.08	31627.66
494.25	31960.02
494.43	32205.77
494.61	32582.60
494.79	32503.02
494.96	32332.16
495.14	32641.11
495.32	33294.12
495.49	33134.96
495.67	33654.56
495.85	33731.80
496.02	34040.75
496.20	34181.18
496.38	34223.31
496.55	34323.96
496.73	34946.54
496.91	34719.51
497.09	34803.77
497.26	35351.45
497.44	34916.11
497.62	35424.01
497.79	35583.16
497.97	35515.29
498.14	36315.75
498.32	36367.24
498.50	35894.46
498.67	36601.30
498.85	36444.48
499.03	36814.29
499.20	36950.04
499.38	36828.33
499.56	37516.45
499.73	37343.25
499.91	37177.07
500.08	37661.56
500.26	37446.23
500.44	37787.95
500.61	38024.34
500.79	37572.62
500.97	38164.78
501.14	38731.18
501.32	38487.77
501.49	38630.54
501.67	38726.50
501.84	39356.11
502.02	39405.26
502.20	38857.57
502.37	39220.36
502.55	40121.46
502.72	39777.40
502.90	39459.09
503.07	39793.79
503.25	39915.50
503.43	39681.44
503.60	40294.66
503.78	40282.96
503.95	40549.78
504.13	40797.88
504.30	40442.12
504.48	40404.67
504.65	41581.96
504.83	41528.13
505.01	41668.56
505.18	41464.93
505.36	41600.68
505.53	41284.71
505.71	41914.31
505.88	42017.30
506.06	41808.99
506.23	42307.52
506.41	41818.35
506.58	42260.71
506.76	42410.51
506.93	42340.29
507.11	42724.14
507.28	42876.27
507.46	43145.44
507.63	42983.94
507.81	43440.34
507.98	43042.45
508.16	43501.20
508.33	43789.08
508.50	43882.70
508.68	43295.23
508.85	44238.47
509.03	43988.03
509.20	44259.53
509.38	44055.90
509.55	44416.35
509.73	44439.75
509.90	44921.90
510.08	44612.95
510.25	45069.36
510.42	45088.08
510.60	44954.67
510.77	45214.47
510.95	45219.15
511.12	45191.06
511.30	45399.37
511.47	45811.31
511.64	45834.71
511.82	45701.30
511.99	45790.24
512.17	46021.95
512.34	45883.86
512.51	46747.52
512.69	46452.61
512.86	46609.43
513.04	46536.87
513.21	46829.44
513.38	46796.67
513.56	47110.30
513.73	46607.09
513.90	46913.70
514.08	47138.39
514.25	47175.84
514.43	47538.62
514.60	47758.63
514.77	47700.12
514.95	47784.38
515.12	47339.68
515.29	47529.26
515.47	48098.01
515.64	48133.12
515.81	48027.79
515.99	48306.32
516.16	48402.28
516.33	48704.21
516.51	48701.87
516.68	48783.79
516.85	48645.69
517.03	48685.48
517.20	49031.88
517.37	48795.49
517.54	48987.41
517.72	48987.41
517.89	49436.80
518.06	49322.11
518.24	49448.50
518.41	49277.64
518.58	49542.12
518.75	49745.75
518.93	49883.84
519.10	49434.45
519.27	49958.73
519.45	49818.30
519.62	50113.21
519.79	50326.20
519.96	50131.93
520.14	50464.29
520.31	50312.16
520.48	50377.69
520.65	50667.92
520.83	50787.28
521.00	50960.48
521.17	50485.36
521.34	50742.81
521.52	50843.46
521.69	50803.67
521.86	51208.58
522.03	51014.32
522.20	51587.75
522.38	51728.18
522.55	51531.57
522.72	51290.50
522.89	51377.10
523.07	51505.83
523.24	51782.01
523.41	51973.94
523.58	51533.92
523.75	51929.47
523.92	52079.26
524.10	52109.69
524.27	51831.16
524.44	52189.27
524.61	51941.17
524.78	52404.59
524.96	52313.31
525.13	52505.24
525.30	52594.18
525.47	52680.78
525.64	52334.38
525.81	52882.06
525.98	52596.52
526.16	52722.91
526.33	52538.01
526.50	52992.07
526.67	53195.70
526.84	53010.79
527.01	52863.34
527.18	52861.00
527.36	52966.32
527.53	53329.11
527.70	53420.39
527.87	53411.02
528.04	53050.58
528.21	53429.75
528.38	53380.60
528.55	53464.86
528.72	53516.35
528.89	53415.71
529.07	53579.54
529.24	53375.92
529.41	53675.51
529.58	53972.75
529.75	53605.29
529.92	53837.00
530.09	53785.51
530.26	53888.49
530.43	54291.07
530.60	53935.30
530.77	54042.97
530.94	54312.13
531.11	53958.71
531.28	54155.32
531.46	54277.02
531.63	54447.88
531.80	54499.37
531.97	54571.93
532.14	54635.13
532.31	54237.23
532.48	54578.95
532.65	55004.93
532.82	54607.04
532.99	54789.60
533.16	54532.14
533.33	55051.74
533.50	55121.96
533.67	54691.30
533.84	54925.35
534.01	55089.19
534.18	54927.69
534.35	55379.42
534.52	55241.32
534.69	55477.72
534.86	55168.77
535.03	55192.17
535.20	55292.82
535.37	55407.50
535.54	55201.53
535.71	55468.36
535.88	55648.58
536.05	55346.65
536.22	55693.05
536.38	55693.05
536.55	55554.96
536.72	55533.89
536.89	55693.05
537.06	55826.46
537.23	55927.10
537.40	55882.63
537.57	55774.97
537.74	55859.23
537.91	56142.43
538.08	56226.69
538.25	55826.46
538.42	55980.93
538.59	56266.48
538.75	56025.40
538.92	55959.87
539.09	56287.54
539.26	56189.24
539.43	56062.85
539.60	55999.66
539.77	56245.41
539.94	56486.49
540.11	56353.08
540.28	56402.23
540.44	56566.07
540.61	56671.39
540.78	56395.21
540.95	56336.69
541.12	56530.96
541.29	56624.58
541.46	56662.03
541.62	56584.79
541.79	56882.04
541.96	56591.81
542.13	56725.22
542.30	56907.79
542.47	57181.63
542.63	56975.66
542.80	56853.95
542.97	57118.43
543.14	57148.86
543.31	57584.20
543.48	57034.17
543.64	57481.22
543.81	57418.02
543.98	57326.74
544.15	57509.30
544.32	57642.71
544.48	57570.16
544.65	57563.14
544.82	57544.41
544.99	57240.14
545.16	57633.35
545.32	57453.13
545.49	57773.78
545.66	57956.35
545.83	57549.09
546.00	57858.04
546.16	57771.44
546.33	57553.77
546.50	57696.55
546.67	57822.93
546.83	57645.05
547.00	58071.03
547.17	57883.79
547.34	57942.30
547.50	58040.60
547.67	58166.99
547.84	58136.57
548.00	58120.18
548.17	58340.19
548.34	58279.34
548.51	58176.36
548.67	58426.79
548.84	58225.51
549.01	58021.88
549.18	58209.12
549.34	58202.10
549.51	58550.84
549.68	58379.98
549.84	58342.53
550.01	58356.58
550.18	58401.05
550.34	58403.39
550.51	58784.90
550.68	58419.77
550.84	58614.04
551.01	58646.80
551.18	58642.12
551.34	58789.58
551.51	58740.42
551.68	58738.08
551.84	58433.81
552.01	58597.65
552.18	58747.45
552.34	58534.46
552.51	58855.11
552.68	58721.70
552.84	58756.81
553.01	58831.71
553.18	58820.00
553.34	58920.65
553.51	58812.98
553.67	58965.12
553.84	59096.19
554.01	58897.24
554.17	58876.18
554.34	59075.12
554.51	59150.02
554.67	59068.10
554.84	59016.61
555.00	59203.85
555.17	58897.24
555.33	59262.36
555.50	59058.74
555.67	59164.06
555.83	59131.29
556.00	59056.40
556.16	59435.56
556.33	59372.37
556.50	59306.83
556.66	59463.65
556.83	59124.27
556.99	59503.44
557.16	59594.72
557.32	59601.74
557.49	59714.09
557.65	59508.12
557.82	59395.77
557.98	59590.04
558.15	59449.61
558.32	59594.72
558.48	59210.87
558.65	59587.70
558.81	59531.53
558.98	59344.28
559.14	59625.15
559.31	59786.64
559.47	59835.80
559.64	59845.16
559.80	59856.86
559.97	59723.45
560.13	59557.27
560.30	59686.00
560.46	59765.58
560.63	59821.75
560.79	59788.98
560.96	59990.27
561.12	59969.21
561.29	59793.67
561.45	59952.82
561.61	59840.48
561.78	59800.69
561.94	59948.14
562.11	59868.56
562.27	60079.21
562.44	59913.03
562.60	59985.59
562.77	60111.98
562.93	60016.02
563.10	60100.28
563.26	60140.07
563.42	60261.77
563.59	60079.21
563.75	60250.07
563.92	60151.77
564.08	60137.72
564.24	60257.09
564.41	60158.79
564.57	60381.14
564.74	60374.12
564.90	60114.32
565.07	60285.18
565.23	60287.52
565.39	60172.83
565.56	60266.45
565.72	60205.60
565.88	60193.90
566.05	60177.51
566.21	60179.85
566.38	60278.16
566.54	60584.77
566.70	60549.66
566.87	60411.57
567.03	60374.12
567.19	60477.10
567.36	60425.61
567.52	60282.84
567.68	60612.85
567.85	60310.92
568.01	60439.65
568.17	60425.61
568.34	60488.80
568.50	60460.72
568.66	60385.82
568.83	60477.10
568.99	60310.92
569.15	60526.25
569.32	60289.86
569.48	60315.61
569.64	60514.55
569.81	60540.30
569.97	60353.05
570.13	60552.00
570.30	60554.34
570.46	60669.03
570.62	60573.06
570.78	60755.63
570.95	60516.89
571.11	60713.50
571.27	60444.33
571.43	60694.77
571.60	60879.67
571.76	60680.73
571.92	60680.73
572.09	60687.75
572.25	60807.12
572.41	60434.97
572.57	60582.43
572.74	60764.99
572.90	60774.35
573.06	60690.09
573.22	60704.13
573.38	60626.90
573.55	60694.77
573.71	60910.10
573.87	60690.09
574.03	60629.24
574.20	60729.88
574.36	60580.09
574.52	60715.84
574.68	60659.66
574.84	61010.74
575.01	60800.10
575.17	60921.80
575.33	60647.96
575.49	60807.12
575.65	60797.76
575.82	60830.52
575.98	60769.67
576.14	61001.38
576.30	61048.19
576.46	60788.39
576.62	60870.31
576.79	60739.24
576.95	60678.39
577.11	60982.66
577.27	61052.87
577.43	60945.21
577.59	60732.22
577.75	60743.92
577.92	60844.57
578.08	60797.76
578.24	60961.59
578.40	60968.61
578.56	61038.83
578.72	60954.57
578.88	61059.90
579.04	61062.24
579.21	61036.49
579.37	61148.84
579.53	61179.26
579.69	60961.59
579.85	60870.31
580.01	61034.15
580.17	60741.58
580.33	61059.90
580.49	61055.21
580.65	60959.25
580.82	60872.65
580.98	61029.47
581.14	60891.38
581.30	61221.39
581.46	60947.55
581.62	61151.18
581.78	60851.59
581.94	60996.70
582.10	60870.31
582.26	61052.87
582.42	61141.81
582.58	61097.34
582.74	60896.06
582.90	61052.87
583.06	61064.58
583.22	60818.82
583.38	60945.21
583.54	60973.30
583.70	61034.15
583.86	61085.64
584.02	60865.63
584.18	61181.60
584.34	61172.24
584.50	60949.89
584.66	61120.75
584.82	60748.60
584.98	61226.07
585.14	61186.28
585.30	61043.51
585.46	61202.67
585.62	61160.54
585.78	61240.12
585.94	61123.09
586.10	61123.09
586.26	61265.86
586.42	61268.20
586.58	61242.46
586.74	61071.60
586.90	61123.09
587.06	61148.84
587.22	61153.52
587.38	61080.96
587.54	61315.01
587.70	61310.33
587.86	61109.05
588.02	61233.10
588.18	61137.13
588.34	61303.31
588.49	61090.32
