SpectraSuite Data File
++++++++++++++++++++++++++++++++++++
Date: Fri Oct 25 11:26:25 EDT 2013
User: price-jones
Dark Spectrum Present: No
Reference Spectrum Present: No
Number of Sampled Component Spectra: 1
Spectrometers: USB2+H05261
Integration Time (usec): 100000 (USB2+H05261)
Spectra Averaged: 1 (USB2+H05261)
Boxcar Smoothing: 0 (USB2+H05261)
Correct for Electrical Dark: No (USB2+H05261)
Strobe/Lamp Enabled: No (USB2+H05261)
Correct for Detector Non-linearity: No (USB2+H05261)
Correct for Stray Light: No (USB2+H05261)
Number of Pixels in Processed Spectrum: 2048
>>>>>Begin Processed Spectral Data<<<<<
365.73	243.42
365.92	243.42
366.12	243.42
366.32	210.65
366.52	168.52
366.72	152.13
366.91	72.56
367.11	117.03
367.31	182.56
367.51	177.88
367.70	166.18
367.90	170.86
368.10	147.45
368.30	149.79
368.49	93.62
368.69	177.88
368.89	166.18
369.09	126.39
369.28	168.52
369.48	184.90
369.68	238.73
369.87	215.33
370.07	236.39
370.27	238.73
370.47	315.97
370.66	603.86
370.86	653.01
371.06	613.22
371.25	671.73
371.45	636.63
371.65	683.44
371.84	711.52
372.04	706.84
372.24	739.61
372.44	765.36
372.63	812.17
372.83	770.04
373.03	805.14
373.22	779.40
373.42	800.46
373.62	809.83
373.81	734.93
374.01	779.40
374.21	748.97
374.40	821.53
374.60	903.45
374.79	821.53
374.99	887.06
375.19	840.25
375.38	844.93
375.58	917.49
375.78	915.15
375.97	774.72
376.17	856.64
376.37	826.21
376.56	929.19
376.76	851.96
376.95	744.29
377.15	898.77
377.35	889.40
377.54	952.60
377.74	870.68
377.93	873.02
378.13	889.40
378.33	1018.13
378.52	866.00
378.72	938.55
378.91	947.92
379.11	912.81
379.31	980.68
379.50	905.79
379.70	1011.11
379.89	950.26
380.09	938.55
380.28	926.85
380.48	1057.92
380.68	915.15
380.87	999.41
381.07	1025.15
381.26	1095.37
381.46	1025.15
381.65	1046.22
381.85	1006.43
382.04	1006.43
382.24	1050.90
382.43	1036.86
382.63	1050.90
382.83	1100.05
383.02	1041.54
383.22	1050.90
383.41	1064.94
383.61	1104.73
383.80	1093.03
384.00	1114.10
384.19	1128.14
384.39	1219.42
384.58	1193.67
384.78	1172.61
384.97	1118.78
385.17	1203.04
385.36	1181.97
385.56	1163.25
385.75	1165.59
385.95	1224.10
386.14	1228.78
386.34	1196.01
386.53	1221.76
386.72	1111.75
386.92	1252.19
387.11	1247.51
387.31	1256.87
387.50	1320.06
387.70	1233.46
387.89	1221.76
388.09	1226.44
388.28	1280.27
388.48	1341.13
388.67	1299.00
388.86	1277.93
389.06	1313.04
389.25	1336.45
389.45	1324.74
389.64	1394.96
389.84	1359.85
390.03	1385.60
390.22	1315.38
390.42	1409.00
390.61	1334.11
390.81	1371.55
391.00	1439.43
391.19	1406.66
391.39	1425.39
391.58	1401.98
391.78	1462.83
391.97	1519.01
392.16	1514.33
392.36	1535.39
392.55	1528.37
392.75	1593.90
392.94	1460.49
393.13	1556.46
393.33	1493.26
393.52	1544.75
393.71	1579.86
393.91	1600.93
394.10	1535.39
394.29	1568.16
394.49	1504.96
394.68	1647.74
394.88	1638.38
395.07	1689.87
395.26	1661.78
395.46	1767.10
395.65	1675.82
395.84	1710.93
396.04	1799.87
396.23	1652.42
396.42	1778.81
396.62	1797.53
396.81	1734.34
397.00	1795.19
397.19	1757.74
397.39	1818.60
397.58	1834.98
397.77	1851.36
397.97	1898.17
398.16	1844.34
398.35	1870.09
398.55	1818.60
398.74	1832.64
398.93	2019.88
399.12	1963.71
399.32	1853.70
399.51	1916.90
399.70	1987.11
399.90	1905.20
400.09	2005.84
400.28	2012.86
400.47	2076.06
400.67	2204.78
400.86	2069.03
401.05	1947.33
401.24	2045.63
401.44	2085.42
401.63	2129.89
401.82	2092.44
402.01	2139.25
402.21	2183.72
402.40	2221.17
402.59	2153.29
402.78	2150.95
402.97	2195.42
403.17	2263.30
403.36	2310.11
403.55	2399.05
403.74	2359.26
403.93	2312.45
404.13	2349.90
404.32	2340.54
404.51	2291.38
404.70	2324.15
404.89	2366.28
405.09	2471.61
405.28	2530.12
405.47	2600.34
405.66	2420.11
405.85	2483.31
406.05	2476.29
406.24	2619.06
406.43	2530.12
406.62	2572.25
406.81	2623.74
407.00	2595.65
407.20	2579.27
407.39	2560.55
407.58	2637.78
407.77	2670.55
407.96	2717.36
408.15	2775.88
408.34	2684.59
408.54	2803.96
408.73	2794.60
408.92	2733.75
409.11	2871.84
409.30	2885.88
409.49	2855.45
409.68	2846.09
409.87	2848.43
410.07	3007.59
410.26	2986.52
410.45	3082.49
410.64	3105.89
410.83	2984.18
411.02	3129.30
411.21	3208.87
411.40	3155.04
411.59	3194.83
411.78	3243.98
411.98	3150.36
412.17	3194.83
412.36	3318.88
412.55	3236.96
412.74	3386.76
412.93	3370.37
413.12	3503.78
413.31	3574.00
413.50	3478.04
413.69	3468.67
413.88	3566.98
414.07	3611.45
414.26	3562.30
414.45	3627.83
414.64	3609.11
414.83	3754.22
415.02	3756.56
415.22	3777.62
415.41	3925.08
415.60	3904.01
415.79	3765.92
415.98	4011.68
416.17	4025.72
416.36	3852.52
416.55	4035.08
416.74	4058.49
416.93	3985.93
417.12	4147.43
417.31	4149.77
417.50	4222.33
417.69	4292.54
417.88	4212.96
418.07	4283.18
418.26	4351.06
418.45	4264.46
418.64	4557.02
418.83	4362.76
419.02	4432.97
419.21	4547.66
419.39	4557.02
419.58	4507.87
419.77	4423.61
419.96	4461.06
420.15	4484.47
420.34	4538.30
420.53	4648.30
420.72	4636.60
420.91	4676.39
421.10	4608.51
421.29	4798.10
421.48	4706.82
421.67	4718.52
421.86	4716.18
422.05	4830.87
422.24	4798.10
422.43	4865.97
422.61	4891.72
422.80	4910.44
422.99	4739.58
423.18	4983.00
423.37	4919.81
423.56	4975.98
423.75	4912.78
423.94	4842.57
424.13	4573.41
424.32	4765.33
424.50	4915.12
424.69	5095.35
424.88	5139.82
425.07	5109.39
425.26	4924.49
425.45	4873.00
425.64	4931.51
425.83	5025.13
426.01	5027.47
426.20	4950.23
426.39	4964.28
426.58	5139.82
426.77	5116.41
426.96	5071.94
427.15	5025.13
427.33	5104.71
427.52	5184.29
427.71	5130.45
427.90	5142.16
428.09	5259.18
428.28	5226.42
428.46	5418.34
428.65	5331.74
428.84	5490.90
429.03	5465.15
429.22	5301.31
429.40	5500.26
429.59	5399.62
429.78	5343.44
429.97	5226.42
430.16	5390.25
430.34	5547.07
430.53	5540.05
430.72	5563.45
430.91	5694.52
431.10	5432.38
431.28	5746.02
431.47	5593.88
431.66	5731.97
431.85	5673.46
432.03	5717.93
432.22	5879.43
432.41	5987.09
432.60	5930.92
432.79	5891.13
432.97	5846.66
433.16	5949.64
433.35	5804.53
433.54	5970.71
433.72	5980.07
433.91	6017.52
434.10	6221.14
434.28	6080.71
434.47	6232.85
434.66	6406.05
434.85	6183.70
435.03	6282.00
435.22	6139.23
435.41	6394.34
435.59	6232.85
435.78	6396.68
435.97	6445.84
436.16	6246.89
436.34	6303.06
436.53	6532.44
436.72	6574.56
436.90	6349.87
437.09	6780.53
437.28	6403.71
437.46	6654.14
437.65	6649.46
437.84	6909.26
438.02	6679.89
438.21	6825.00
438.40	6792.23
438.58	6846.07
438.77	6958.41
438.96	6953.73
439.14	7016.93
439.33	7129.27
439.52	7110.55
439.70	6991.18
439.89	7300.13
440.08	7258.00
440.26	7372.69
440.45	7314.17
440.63	7438.22
440.82	7552.91
441.01	7665.25
441.19	7501.42
441.38	7674.62
441.57	7817.39
441.75	7679.30
441.94	7918.03
442.12	8018.68
442.31	7992.93
442.50	8109.96
442.68	7744.83
442.87	8004.63
443.05	7995.27
443.24	8320.60
443.43	7983.57
443.61	7932.08
443.80	8278.47
443.98	7983.57
444.17	7758.88
444.35	7976.55
444.54	8386.14
444.73	8437.63
444.91	8154.43
445.10	8418.91
445.28	8072.51
445.47	8283.16
445.65	8194.22
445.84	8416.57
446.02	8482.10
446.21	8381.46
446.39	8400.18
446.58	8430.61
446.77	8465.72
446.95	8411.89
447.14	8365.07
447.32	8498.49
447.51	8421.25
447.69	8472.74
447.88	8568.70
448.06	8620.19
448.25	8435.29
448.43	8404.86
448.62	8535.93
448.80	8601.47
448.99	8557.00
449.17	8702.11
449.36	8650.62
449.54	8650.62
449.73	8973.61
449.91	8849.57
450.10	8884.67
450.28	9111.71
450.46	9214.69
450.65	9013.40
450.83	9043.83
451.02	9011.06
451.20	9235.75
451.39	9217.03
451.57	9163.20
451.76	8978.30
451.94	9015.74
452.13	9139.79
452.31	9144.47
452.49	9036.81
452.68	9287.25
452.86	9312.99
453.05	9329.38
453.23	9312.99
453.42	9320.01
453.60	9231.07
453.78	9511.94
453.97	9465.13
454.15	9591.52
454.34	9413.63
454.52	9628.96
454.70	9631.30
454.89	9914.51
455.07	9525.98
455.26	9811.53
455.44	9900.47
455.62	9621.94
455.81	10005.79
455.99	9872.38
456.17	10001.11
456.36	9921.53
456.54	10118.14
456.73	10232.82
456.91	10480.92
457.09	10331.12
457.28	10656.46
457.46	10246.87
457.64	10548.79
457.83	10476.24
458.01	10228.14
458.19	10932.64
458.38	10361.55
458.56	10546.45
458.74	10656.46
458.93	10485.60
459.11	10640.08
459.29	10677.52
459.48	10665.82
459.66	10778.17
459.84	10766.46
460.03	10864.77
460.21	11082.44
460.39	10750.08
460.57	10890.51
460.76	11054.35
460.94	11138.61
461.12	10806.25
461.31	11033.29
461.49	11180.74
461.67	11007.54
461.85	11253.30
462.04	11365.64
462.22	11964.82
462.40	11452.24
462.59	11325.85
462.77	11405.43
462.95	11501.39
463.13	11480.33
463.32	11662.89
463.50	11660.55
463.68	11871.20
463.86	11892.26
464.05	11688.64
464.23	11735.45
464.41	11791.62
464.59	11651.19
464.78	11908.65
464.96	12266.75
465.14	11777.58
465.32	12070.14
465.50	12070.14
465.69	11875.88
465.87	12180.15
466.05	12063.12
466.23	12123.98
466.41	12180.15
466.60	12402.50
466.78	11964.82
466.96	12138.02
467.14	12133.34
467.32	12313.56
467.51	12528.89
467.69	12168.45
467.87	12208.23
468.05	12374.41
468.23	12201.21
468.41	12369.73
468.60	12573.36
468.78	12947.84
468.96	12173.13
469.14	12709.11
469.32	12809.75
469.50	12498.46
469.69	13046.15
469.87	13121.04
470.05	12903.37
470.23	13181.90
470.41	13078.91
470.59	13343.39
470.77	13118.70
470.95	13373.82
471.14	13394.89
471.32	13022.74
471.50	13661.71
471.68	13373.82
471.86	13319.99
472.04	13605.53
472.22	13884.06
472.40	13493.19
472.58	13547.02
472.77	13919.17
472.95	13905.12
473.13	14506.64
473.31	13928.53
473.49	14216.41
473.67	14087.68
473.85	14415.36
474.03	14600.26
474.21	14431.74
474.39	14583.88
474.57	14663.46
474.75	14738.35
474.93	14918.57
475.12	14698.56
475.30	15084.75
475.48	14878.79
475.66	14951.34
475.84	14972.41
476.02	15353.91
476.20	15253.27
476.38	15683.93
476.56	15754.15
476.74	15885.22
476.92	15847.77
477.10	15756.49
477.28	16168.42
477.46	16325.24
477.64	16173.10
477.82	16266.72
478.00	16828.45
478.18	16484.39
478.36	17139.74
478.54	16861.22
478.72	17008.67
478.90	17195.92
479.08	17392.52
479.26	17668.70
479.44	17699.13
479.62	17853.61
479.80	17923.82
479.98	18005.74
480.16	18480.87
480.34	18178.94
480.52	18387.25
480.70	18593.22
480.88	18441.08
481.06	18504.28
481.24	18724.29
481.41	19206.44
481.59	19316.44
481.77	19351.55
481.95	19316.44
482.13	19379.64
482.31	19714.33
482.49	20077.12
482.67	19941.36
482.85	20231.59
483.03	20528.84
483.21	20645.87
483.39	20992.26
483.57	20655.23
483.74	21081.21
483.92	21139.72
484.10	21095.25
484.28	21668.68
484.46	21891.03
484.64	22005.72
484.82	21881.67
485.00	22104.02
485.18	22567.45
485.35	22672.77
485.53	22642.34
485.71	22965.34
485.89	23396.00
486.07	23122.15
486.25	23281.31
486.43	23667.50
486.61	23728.35
486.78	23864.10
486.96	23978.79
487.14	24336.89
487.32	24210.50
487.50	24980.54
487.68	24673.93
487.85	25151.40
488.03	25378.43
488.21	25905.05
488.39	25628.87
488.57	25626.53
488.75	26057.18
488.92	26293.58
489.10	26745.30
489.28	26630.62
489.46	27023.83
489.64	27255.54
489.81	27239.15
489.99	27342.14
490.17	27400.65
490.35	28273.67
490.53	27798.54
490.70	28173.03
490.88	28362.61
491.06	28386.02
491.24	28360.27
491.41	29015.62
491.59	28975.83
491.77	29455.64
491.95	29467.34
492.13	29652.25
492.30	29413.51
492.48	30167.16
492.66	29993.97
492.84	30059.50
493.01	30274.83
493.19	30206.95
493.37	31136.15
493.54	31189.98
493.72	31264.88
493.90	31314.03
494.08	31534.04
494.25	31597.23
494.43	32168.32
494.61	31882.78
494.79	32133.21
494.96	32002.14
495.14	32350.88
495.32	33062.41
495.49	33031.98
495.67	33214.54
495.85	33378.38
496.02	33605.41
496.20	33446.26
496.38	33996.28
496.55	33907.34
496.73	34476.09
496.91	34361.40
497.09	34352.04
497.26	34689.08
497.44	34625.89
497.62	35079.95
497.79	35697.85
497.97	35395.92
498.14	35569.12
498.32	35981.06
498.50	35688.49
498.67	36383.63
498.85	35913.18
499.03	36397.67
499.20	36610.66
499.38	37003.87
499.56	36907.91
499.73	36957.06
499.91	36931.31
500.08	37284.73
500.26	37242.60
500.44	37287.07
500.61	37612.41
500.79	37432.19
500.97	38319.25
501.14	38251.38
501.32	38218.61
501.49	38359.04
501.67	38335.63
501.84	38632.88
502.02	38625.86
502.20	39028.43
502.37	39126.74
502.55	38932.47
502.72	39234.40
502.90	39138.44
503.07	39643.99
503.25	39552.71
503.43	39173.55
503.60	39796.13
503.78	40236.15
503.95	40222.11
504.13	40367.22
504.30	40507.65
504.48	40399.99
504.65	40519.35
504.83	40442.12
505.01	41446.21
505.18	40889.16
505.36	41209.81
505.53	40933.63
505.71	41481.31
505.88	41923.68
506.06	41361.95
506.23	41593.66
506.41	41787.92
506.58	41666.22
506.76	41869.84
506.93	42122.62
507.11	41663.88
507.28	42274.76
507.46	42609.45
507.63	42646.90
507.81	42777.97
507.98	43042.45
508.16	42920.74
508.33	43386.51
508.50	43005.00
508.68	43658.01
508.85	43632.27
509.03	43660.35
509.20	43943.56
509.38	44289.96
509.55	44147.18
509.73	44062.93
509.90	44388.26
510.08	43632.27
510.25	44322.72
510.42	44622.31
510.60	44601.25
510.77	44954.67
510.95	45048.29
511.12	44849.35
511.30	45223.83
511.47	45174.68
511.64	45247.24
511.82	45930.67
511.99	45226.17
512.17	45476.61
512.34	45968.12
512.51	46216.22
512.69	46494.74
512.86	46225.58
513.04	46450.27
513.21	45834.71
513.38	46232.60
513.56	46752.20
513.73	46213.88
513.90	46766.24
514.08	46941.78
514.25	47049.45
514.43	47236.69
514.60	47042.43
514.77	46976.89
514.95	47543.30
515.12	47585.43
515.29	47079.88
515.47	47735.23
515.64	47999.71
515.81	47379.46
515.99	48224.40
516.16	48051.20
516.33	48130.78
516.51	48435.05
516.68	48406.96
516.85	48327.38
517.03	48615.27
517.20	48741.66
517.37	48699.53
517.54	48849.32
517.72	48552.07
517.89	49095.08
518.06	48961.67
518.24	48956.99
518.41	49308.07
518.58	49034.22
518.75	49120.82
518.93	49331.47
519.10	49343.17
519.27	49120.82
519.45	49565.52
519.62	49673.19
519.79	49677.87
519.96	49804.26
520.14	49797.24
520.31	49818.30
520.48	50117.89
520.65	49886.18
520.83	50244.28
521.00	50178.75
521.17	50213.85
521.34	50703.03
521.52	50475.99
521.69	50328.54
521.86	50932.40
522.03	50688.98
522.20	51030.70
522.38	51164.11
522.55	51220.28
522.72	51327.95
522.89	50927.72
523.07	51618.17
523.24	51447.32
523.41	51356.03
523.58	51203.90
523.75	51885.00
523.92	51922.44
524.10	51695.41
524.27	51772.65
524.44	51924.78
524.61	51882.66
524.78	52016.07
524.96	52123.73
525.13	51924.78
525.30	52215.01
525.47	51966.91
525.64	52306.29
525.81	52416.30
525.98	52552.05
526.16	52273.52
526.33	52437.36
526.50	52788.44
526.67	52383.53
526.84	52652.69
527.01	52748.65
527.18	52430.34
527.36	52687.80
527.53	52938.24
527.70	53282.30
527.87	53160.59
528.04	52945.26
528.21	53382.94
528.38	53275.27
528.55	53256.55
528.72	53284.64
528.89	53113.78
529.07	53631.04
529.24	53359.53
529.41	53563.16
529.58	53497.62
529.75	53333.79
529.92	53609.97
530.09	53846.36
530.26	53600.61
530.43	54005.52
530.60	53579.54
530.77	53642.74
530.94	53820.62
531.11	53822.96
531.28	54040.63
531.46	53961.05
531.63	53956.37
531.80	53895.52
531.97	54115.53
532.14	54316.81
532.31	54522.78
532.48	54160.00
532.65	54553.21
532.82	54660.87
532.99	54396.39
533.16	54468.95
533.33	54555.55
533.50	54705.34
533.67	54651.51
533.84	54518.10
534.01	54550.87
534.18	54822.37
534.35	55412.18
534.52	55028.34
534.69	55182.81
534.86	54901.95
535.03	54784.92
535.20	54955.78
535.37	55173.45
535.54	55189.83
535.71	54901.95
535.88	55091.53
536.05	55309.20
536.22	55332.60
536.38	55370.05
536.55	55569.00
536.72	55395.80
536.89	55550.27
537.06	55395.80
537.23	55693.05
537.40	55594.74
537.57	55540.91
537.74	55557.30
537.91	55884.97
538.08	55622.83
538.25	55517.51
538.42	55805.39
538.59	56154.13
538.75	55601.77
538.92	56023.06
539.09	56135.41
539.26	56025.40
539.43	55950.51
539.60	56252.44
539.77	55990.30
539.94	56172.86
540.11	56196.26
540.28	56158.81
540.44	56123.71
540.61	56133.07
540.78	55950.51
540.95	56214.99
541.12	56280.52
541.29	56119.02
541.46	56362.44
541.62	56523.94
541.79	56385.85
541.96	56369.46
542.13	56437.34
542.30	56512.23
542.47	56853.95
542.63	56896.08
542.80	56790.76
542.97	57010.77
543.14	57235.46
543.31	56956.94
543.48	57153.54
543.64	57251.84
543.81	57394.62
543.98	57301.00
544.15	57336.10
544.32	57120.77
544.48	57408.66
544.65	57333.76
544.82	57228.44
544.99	57104.39
545.16	57415.68
545.32	57137.16
545.49	57764.42
545.66	57567.82
545.83	57275.25
546.00	57605.26
546.16	57415.68
546.33	57551.43
546.50	57361.85
546.67	57549.09
546.83	57230.78
547.00	57560.79
547.17	57572.50
547.34	57659.10
547.50	57914.22
547.67	57951.66
547.84	57766.76
548.00	57970.39
548.17	57968.05
548.34	57949.32
548.51	58078.05
548.67	58174.02
548.84	58007.84
549.01	57883.79
549.18	57729.31
549.34	58218.49
549.51	58220.83
549.68	58260.62
549.84	58007.84
550.01	58368.28
550.18	57979.75
550.34	58246.57
550.51	58372.96
550.68	58260.62
550.84	58129.54
551.01	58410.41
551.18	58225.51
551.34	58265.30
551.51	58632.76
551.68	58499.35
551.84	58475.94
552.01	58239.55
552.18	58637.44
552.34	58152.95
552.51	58485.31
552.68	58454.88
552.84	58464.24
553.01	58688.93
553.18	58742.77
553.34	58754.47
553.51	58398.71
553.67	58810.64
553.84	58848.09
554.01	58841.07
554.17	58728.72
554.34	58850.43
554.51	58686.59
554.67	59056.40
554.84	58808.30
555.00	58820.00
555.17	58796.60
555.33	59009.59
555.50	58387.00
555.67	58864.47
555.83	58941.71
556.00	58869.15
556.16	59131.29
556.33	59236.62
556.50	59058.74
556.66	59192.15
556.83	58969.80
556.99	59082.14
557.16	59274.07
557.32	59316.20
557.49	59674.30
557.65	59091.51
557.82	59311.52
557.98	59288.11
558.15	59276.41
558.32	59372.37
558.48	59325.56
558.65	59484.72
558.81	59571.32
558.98	59351.30
559.14	59409.82
559.31	59458.97
559.47	59458.97
559.64	59664.94
559.80	59746.86
559.97	59632.17
560.13	59395.77
560.30	59681.32
560.46	59568.97
560.63	59723.45
560.79	59674.30
560.96	59840.48
561.12	59695.36
561.29	59753.88
561.45	59650.89
561.61	59880.27
561.78	59547.91
561.94	59536.21
562.11	59606.42
562.27	59667.28
562.44	59648.55
562.60	59906.01
562.77	60032.40
562.93	59601.74
563.10	59695.36
563.26	59660.26
563.42	59887.29
563.59	59779.62
563.75	59760.90
563.92	59861.54
564.08	59920.05
564.24	60009.00
564.41	59917.71
564.57	59896.65
564.74	59990.27
564.90	59962.18
565.07	59894.31
565.23	60074.53
565.39	59945.80
565.56	60161.13
565.72	60149.43
565.88	60170.49
566.05	59957.50
566.21	59924.74
566.38	60210.28
566.54	60062.83
566.70	60278.16
566.87	60182.19
567.03	60090.91
567.19	60346.03
567.36	60102.62
567.52	60090.91
567.68	60378.80
567.85	60456.04
568.01	60147.09
568.17	60039.42
568.34	60231.35
568.50	60076.87
568.66	60051.12
568.83	60381.14
568.99	60221.98
569.15	60149.43
569.32	60243.05
569.48	60243.05
569.64	60434.97
569.81	60364.76
569.97	60214.96
570.13	60334.33
570.30	60116.66
570.46	60287.52
570.62	60348.37
570.78	60205.60
570.95	60458.38
571.11	60542.64
571.27	60233.69
571.43	60336.67
571.60	60601.15
571.76	60488.80
571.92	60505.19
572.09	60486.46
572.25	60493.49
572.41	60367.10
572.57	60601.15
572.74	60779.03
572.90	60259.43
573.06	60437.31
573.22	60320.29
573.38	60540.30
573.55	60568.38
573.71	60631.58
573.87	60678.39
574.03	60535.62
574.20	60685.41
574.36	60502.85
574.52	60732.22
574.68	60561.36
574.84	60793.07
575.01	60505.19
575.17	60537.96
575.33	60694.77
575.49	60481.78
575.65	60669.03
575.82	60654.98
575.98	60739.24
576.14	60919.46
576.30	60818.82
576.46	60676.05
576.62	60392.84
576.79	60598.81
576.95	60355.39
577.11	60671.37
577.27	60652.64
577.43	60811.80
577.59	60664.35
577.75	60645.62
577.92	60552.00
578.08	60638.60
578.24	60582.43
578.40	60704.13
578.56	61048.19
578.72	60636.26
578.88	60804.78
579.04	60863.29
579.21	60589.45
579.37	60718.18
579.53	60896.06
579.69	60547.32
579.85	60617.53
580.01	60821.16
580.17	60608.17
580.33	60809.46
580.49	60704.13
580.65	60851.59
580.82	60779.03
580.98	60830.52
581.14	60556.68
581.30	60767.33
581.46	60949.89
581.62	60914.78
581.78	60640.94
581.94	60722.86
582.10	60846.91
582.26	60741.58
582.42	60844.57
582.58	60741.58
582.74	60629.24
582.90	60940.53
583.06	60776.69
583.22	60640.94
583.38	60699.45
583.54	60694.77
583.70	60865.63
583.86	60935.85
584.02	60676.05
584.18	60900.74
584.34	61020.11
584.50	60757.97
584.66	60708.82
584.82	60764.99
584.98	60980.32
585.14	60804.78
585.30	60830.52
585.46	60884.36
585.62	60823.50
585.78	60837.54
585.94	60619.88
586.10	61003.72
586.26	60961.59
586.42	60886.70
586.58	60896.06
586.74	60821.16
586.90	60891.38
587.06	60935.85
587.22	60996.70
587.38	60781.37
587.54	61001.38
587.70	61010.74
587.86	60910.10
588.02	60849.25
588.18	61038.83
588.34	60985.00
588.49	60858.61
