SpectraSuite Data File
++++++++++++++++++++++++++++++++++++
Date: Fri Oct 25 11:33:54 EDT 2013
User: price-jones
Dark Spectrum Present: No
Reference Spectrum Present: No
Number of Sampled Component Spectra: 1
Spectrometers: USB2+H05261
Integration Time (usec): 100000 (USB2+H05261)
Spectra Averaged: 1 (USB2+H05261)
Boxcar Smoothing: 0 (USB2+H05261)
Correct for Electrical Dark: No (USB2+H05261)
Strobe/Lamp Enabled: No (USB2+H05261)
Correct for Detector Non-linearity: No (USB2+H05261)
Correct for Stray Light: No (USB2+H05261)
Number of Pixels in Processed Spectrum: 2048
>>>>>Begin Processed Spectral Data<<<<<
365.73	294.91
365.92	294.91
366.12	294.91
366.32	173.20
366.52	145.11
366.72	222.35
366.91	203.63
367.11	142.77
367.31	121.71
367.51	119.37
367.70	154.48
367.90	156.82
368.10	170.86
368.30	198.95
368.49	154.48
368.69	154.48
368.89	198.95
369.09	212.99
369.28	177.88
369.48	220.01
369.68	194.26
369.87	156.82
370.07	227.03
370.27	222.35
370.47	311.29
370.66	449.38
370.86	507.90
371.06	535.98
371.25	479.81
371.45	517.26
371.65	566.41
371.84	566.41
372.04	433.00
372.24	500.87
372.44	524.28
372.63	550.03
372.83	601.52
373.03	624.92
373.22	617.90
373.42	571.09
373.62	589.82
373.81	622.58
374.01	552.37
374.21	599.18
374.40	741.95
374.60	669.39
374.79	624.92
374.99	596.84
375.19	603.86
375.38	699.82
375.58	540.66
375.78	697.48
375.97	732.59
376.17	734.93
376.37	692.80
376.56	634.29
376.76	709.18
376.95	730.25
377.15	744.29
377.35	610.88
377.54	709.18
377.74	692.80
377.93	753.65
378.13	753.65
378.33	716.20
378.52	737.27
378.72	784.08
378.91	720.88
379.11	713.86
379.31	699.82
379.50	585.13
379.70	828.55
379.89	753.65
380.09	704.50
380.28	763.01
380.48	725.57
380.68	727.91
380.87	767.70
381.07	805.14
381.26	880.04
381.46	718.54
381.65	802.80
381.85	784.08
382.04	650.67
382.24	805.14
382.43	725.57
382.63	784.08
382.83	816.85
383.02	774.72
383.22	821.53
383.41	833.23
383.61	734.93
383.80	840.25
384.00	772.38
384.19	877.70
384.39	830.89
384.58	772.38
384.78	842.59
384.97	835.57
385.17	800.46
385.36	798.12
385.56	835.57
385.75	877.70
385.95	819.19
386.14	884.72
386.34	821.53
386.53	868.34
386.72	908.13
386.92	933.87
387.11	880.04
387.31	931.53
387.50	837.91
387.70	880.04
387.89	877.70
388.09	842.59
388.28	1004.09
388.48	929.19
388.67	880.04
388.86	978.34
389.06	945.58
389.25	992.39
389.45	842.59
389.64	1004.09
389.84	1048.56
390.03	952.60
390.22	954.94
390.42	1001.75
390.61	957.28
390.81	961.96
391.00	1039.20
391.19	1011.11
391.39	1081.33
391.58	983.02
391.78	1088.35
391.97	1071.97
392.16	1006.43
392.36	1067.28
392.55	1043.88
392.75	1032.18
392.94	1053.24
393.13	976.00
393.33	1102.39
393.52	1015.79
393.71	1123.46
393.91	1064.94
394.10	1025.15
394.29	1102.39
394.49	1109.41
394.68	1088.35
394.88	1067.28
395.07	1118.78
395.26	1086.01
395.46	1144.52
395.65	1149.20
395.84	1165.59
396.04	1153.88
396.23	1114.10
396.42	1149.20
396.62	1158.57
396.81	1259.21
397.00	1212.40
397.19	1151.54
397.39	1259.21
397.58	1205.38
397.77	1160.91
397.97	1357.51
398.16	1247.51
398.35	1385.60
398.55	1203.04
398.74	1313.04
398.93	1287.29
399.12	1397.30
399.32	1331.76
399.51	1277.93
399.70	1350.49
399.90	1343.47
400.09	1387.94
400.28	1366.87
400.47	1371.55
400.67	1315.38
400.86	1465.18
401.05	1430.07
401.24	1504.96
401.44	1455.81
401.63	1401.98
401.82	1390.28
402.01	1444.11
402.21	1507.30
402.40	1579.86
402.59	1474.54
402.78	1490.92
402.97	1483.90
403.17	1465.18
403.36	1488.58
403.55	1467.52
403.74	1523.69
403.93	1521.35
404.13	1565.82
404.32	1533.05
404.51	1600.93
404.70	1650.08
404.89	1607.95
405.09	1696.89
405.28	1689.87
405.47	1631.35
405.66	1767.10
405.85	1696.89
406.05	1785.83
406.24	1762.42
406.43	1774.13
406.62	1858.39
406.81	1827.96
407.00	1757.74
407.20	1776.47
407.39	1867.75
407.58	1732.00
407.77	1844.34
407.96	1818.60
408.15	1860.73
408.34	1834.98
408.54	1916.90
408.73	1949.67
408.92	1923.92
409.11	1944.99
409.30	1909.88
409.49	1991.80
409.68	1996.48
409.87	2165.00
410.07	2003.50
410.26	1998.82
410.45	1989.46
410.64	2134.57
410.83	2101.80
411.02	2054.99
411.21	2099.46
411.40	2136.91
411.59	2183.72
411.78	2195.42
411.98	2143.93
412.17	2214.15
412.36	2216.49
412.55	2277.34
412.74	2363.94
412.93	2335.85
413.12	2349.90
413.31	2466.92
413.50	2359.26
413.69	2450.54
413.88	2438.84
414.07	2431.82
414.26	2502.03
414.45	2630.76
414.64	2558.21
414.83	2471.61
415.02	2527.78
415.22	2525.44
415.41	2665.87
415.60	2616.72
415.79	2630.76
415.98	2616.72
416.17	2710.34
416.36	2693.96
416.55	2768.85
416.74	2808.64
416.93	2839.07
417.12	2939.71
417.31	2822.69
417.50	2913.97
417.69	2937.37
417.88	2904.60
418.07	2963.12
418.26	2925.67
418.45	2923.33
418.64	3145.68
418.83	2963.12
419.02	2925.67
419.21	3056.74
419.39	3145.68
419.58	3070.78
419.77	3108.23
419.96	3150.36
420.15	3225.26
420.34	3126.96
420.53	3211.22
420.72	3082.49
420.91	3110.57
421.10	3049.72
421.29	3389.10
421.48	3215.90
421.67	3328.24
421.86	3302.50
422.05	3328.24
422.24	3297.81
422.43	3260.37
422.61	3361.01
422.80	3389.10
422.99	3337.60
423.18	3379.73
423.37	3485.06
423.56	3351.65
423.75	3424.20
423.94	3311.86
424.13	3138.66
424.32	3321.22
424.50	3433.57
424.69	3534.21
424.88	3426.54
425.07	3410.16
425.26	3309.52
425.45	3410.16
425.64	3478.04
425.83	3346.97
426.01	3529.53
426.20	3482.72
426.39	3426.54
426.58	3405.48
426.77	3417.18
426.96	3478.04
427.15	3590.38
427.33	3492.08
427.52	3459.31
427.71	3698.05
427.90	3529.53
428.09	3592.72
428.28	3637.19
428.46	3599.74
428.65	3684.00
428.84	3808.05
429.03	3735.50
429.22	3604.42
429.40	3796.35
429.59	3702.73
429.78	3655.92
429.97	3604.42
430.16	3695.71
430.34	3775.28
430.53	3772.94
430.72	3829.12
430.91	3861.88
431.10	3899.33
431.28	3957.85
431.47	3936.78
431.66	3971.89
431.85	3932.10
432.03	4114.66
432.22	4100.62
432.41	3798.69
432.60	4098.28
432.79	4095.94
432.97	4149.77
433.16	4107.64
433.35	4025.72
433.54	3997.64
433.72	4248.07
433.91	4093.60
434.10	4201.26
434.28	4112.32
434.47	4189.56
434.66	4203.60
434.85	4327.65
435.03	4308.93
435.22	4306.59
435.41	4414.25
435.59	4353.40
435.78	4243.39
435.97	4400.21
436.16	4308.93
436.34	4437.66
436.53	4461.06
436.72	4566.39
436.90	4423.61
437.09	4484.47
437.28	4542.98
437.46	4482.13
437.65	4685.75
437.84	4606.17
438.02	4482.13
438.21	4697.46
438.40	4517.23
438.58	4678.73
438.77	4734.90
438.96	4627.24
439.14	4760.65
439.33	4861.29
439.52	4985.34
439.70	4858.95
439.89	4915.12
440.08	4964.28
440.26	4987.68
440.45	4908.10
440.63	5107.05
440.82	5217.05
441.01	4938.53
441.19	5331.74
441.38	5165.56
441.57	5139.82
441.75	5238.12
441.94	5364.51
442.12	5411.32
442.31	5390.25
442.50	5568.13
442.68	5366.85
442.87	5416.00
443.05	5500.26
443.24	5469.83
443.43	5408.98
443.61	5530.69
443.80	5495.58
443.98	5397.28
444.17	5341.10
444.35	5575.16
444.54	5664.10
444.73	5582.18
444.91	5448.77
445.10	5715.59
445.28	5673.46
445.47	5561.11
445.65	5542.39
445.84	5579.84
446.02	5682.82
446.21	5664.10
446.39	5645.37
446.58	5818.57
446.77	5755.38
446.95	5689.84
447.14	5678.14
447.32	5598.56
447.51	5521.32
447.69	5558.77
447.88	5657.07
448.06	5893.47
448.25	5757.72
448.43	5806.87
448.62	5830.27
448.80	5841.98
448.99	5865.38
449.17	5640.69
449.36	5844.32
449.54	5870.06
449.73	5926.24
449.91	6047.94
450.10	5891.13
450.28	6104.12
450.46	6057.31
450.65	6282.00
450.83	6169.65
451.02	5973.05
451.20	6218.80
451.39	6345.19
451.57	6017.52
451.76	5954.32
451.94	6202.42
452.13	6352.21
452.31	6256.25
452.49	6209.44
452.68	6251.57
452.86	6160.29
453.05	6345.19
453.23	6235.19
453.42	6258.59
453.60	6384.98
453.78	6382.64
453.97	6274.98
454.15	6389.66
454.34	6244.55
454.52	6588.61
454.70	6340.51
454.89	6516.05
455.07	6525.41
455.26	6698.61
455.44	6684.57
455.62	6649.46
455.81	6686.91
455.99	6651.80
456.17	6810.96
456.36	6672.87
456.54	6754.79
456.73	6764.15
456.91	6913.94
457.09	7016.93
457.28	7204.17
457.46	6977.14
457.64	6986.50
457.83	7007.56
458.01	6860.11
458.19	7159.70
458.38	6913.94
458.56	7129.27
458.74	7082.46
458.93	7136.29
459.11	7232.26
459.29	7164.38
459.48	6981.82
459.66	7265.02
459.84	7239.28
460.03	7424.18
460.21	7211.19
460.39	7288.43
460.57	7295.45
460.76	7494.40
460.94	7403.11
461.12	7524.82
461.31	7461.63
461.49	7480.35
461.67	7440.56
461.85	7634.83
462.04	7543.55
462.22	7962.50
462.40	7838.45
462.59	7693.34
462.77	7360.98
462.95	7740.15
463.13	7564.61
463.32	7878.24
463.50	7761.22
463.68	7838.45
463.86	7833.77
464.05	7796.32
464.23	7665.25
464.41	8044.42
464.59	7913.35
464.78	7955.48
464.96	8067.83
465.14	7939.10
465.32	8060.80
465.50	8006.97
465.69	8025.70
465.87	8229.32
466.05	8182.51
466.23	8128.68
466.41	7983.57
466.60	8336.99
466.78	8163.79
466.96	8241.03
467.14	8053.78
467.32	8203.58
467.51	8409.54
467.69	8093.57
467.87	8093.57
468.05	8299.54
468.23	8269.11
468.41	8236.35
468.60	8252.73
468.78	8606.15
468.96	8393.16
469.14	8643.60
469.32	8676.37
469.50	8561.68
469.69	8676.37
469.87	8781.69
470.05	8716.16
470.23	8830.84
470.41	8833.18
470.59	8833.18
470.77	8791.05
470.95	8844.88
471.14	9085.96
471.32	8706.79
471.50	9167.88
471.68	8990.00
471.86	9177.24
472.04	9011.06
472.22	9308.31
472.40	9226.39
472.58	9020.42
472.77	9214.69
472.95	9483.85
473.13	9680.46
473.31	9167.88
473.49	9451.08
473.67	9385.55
473.85	9486.19
474.03	9521.30
474.21	9628.96
474.39	9806.84
474.57	9984.73
474.75	9722.59
474.93	10012.81
475.12	9921.53
475.30	9865.36
475.48	10010.47
475.66	10134.52
475.84	9942.60
476.02	10036.22
476.20	10111.11
476.38	10403.68
476.56	10373.25
476.74	10581.56
476.92	10298.36
477.10	10420.06
477.28	10649.44
477.46	10459.85
477.64	10719.65
477.82	11061.37
478.00	11117.54
478.18	11110.52
478.36	10888.17
478.54	11110.52
478.72	11183.08
478.90	11503.73
479.08	11531.82
479.26	11815.02
479.44	11485.01
479.62	11861.84
479.80	11789.28
479.98	11957.80
480.16	12175.47
480.34	12049.08
480.52	12362.71
480.70	12236.32
480.88	12025.67
481.06	12336.96
481.24	12461.01
481.41	12519.53
481.59	12634.21
481.77	12788.69
481.95	12737.20
482.13	12931.46
482.31	12968.91
482.49	13128.06
482.67	13144.45
482.85	13130.41
483.03	13329.35
483.21	13795.12
483.39	13893.42
483.57	13755.33
483.74	13748.31
483.92	13975.34
484.10	14108.75
484.28	14005.77
484.46	14445.79
484.64	14551.11
484.82	14363.87
485.00	14506.64
485.18	14836.66
485.35	14911.55
485.53	14916.23
485.71	15063.69
485.89	15056.67
486.07	15204.12
486.25	15279.02
486.43	15576.27
486.61	15700.31
486.78	15655.84
486.96	16042.03
487.14	16166.08
487.32	16037.35
487.50	16023.31
487.68	16318.22
487.85	16465.67
488.03	16755.90
488.21	16615.46
488.39	16809.73
488.57	17085.91
488.75	17151.45
488.92	17179.53
489.10	17252.09
489.28	17675.73
489.46	17483.80
489.64	17795.09
489.81	17937.87
489.99	17909.78
490.17	18281.92
490.35	18633.00
490.53	18221.07
490.70	18539.38
490.88	18265.54
491.06	18544.06
491.24	18932.59
491.41	18845.99
491.59	19269.63
491.77	18892.80
491.95	19435.81
492.13	19438.15
492.30	19550.49
492.48	19585.60
492.66	19601.99
492.84	19920.30
493.01	19758.80
493.19	20023.28
493.37	20229.25
493.54	20467.98
493.72	20505.43
493.90	20479.69
494.08	20552.24
494.25	20767.57
494.43	20854.17
494.61	21268.45
494.79	21561.02
494.96	20861.19
495.14	21294.19
495.32	21579.74
495.49	21642.93
495.67	21865.28
495.85	21869.97
496.02	22087.64
496.20	22324.03
496.38	22017.42
496.55	22363.82
496.73	22665.75
496.91	22691.49
497.09	22710.22
497.26	22684.47
497.44	22726.60
497.62	23023.85
497.79	23475.57
497.97	23112.79
498.14	23473.23
498.32	23789.20
498.50	23501.32
498.67	23592.60
498.85	23784.52
499.03	24100.50
499.20	23920.28
499.38	24130.92
499.56	24215.18
499.73	24404.77
499.91	24210.50
500.08	24664.57
500.26	24500.73
500.44	24680.95
500.61	24634.14
500.79	24957.13
500.97	24858.83
501.14	25184.16
501.32	24837.76
501.49	24964.15
501.67	25425.24
501.84	25422.90
502.02	25390.13
502.20	25399.49
502.37	25462.69
502.55	25404.17
502.72	25626.53
502.90	26017.40
503.07	25823.13
503.25	26092.29
503.43	25673.34
503.60	26204.64
503.78	26434.01
503.95	26164.85
504.13	26822.54
504.30	26586.15
504.48	26438.69
504.65	26544.02
504.83	26874.03
505.01	26319.32
505.18	26937.23
505.36	27517.68
505.53	26752.32
505.71	26965.31
505.88	27325.75
506.06	27346.82
506.23	27426.40
506.41	27543.42
506.58	27349.16
506.76	27725.99
506.93	27934.29
507.11	27901.53
507.28	27896.85
507.46	28151.96
507.63	28013.87
507.81	28390.70
507.98	27906.21
508.16	28353.25
508.33	28727.74
508.50	28166.01
508.68	28683.27
508.85	28821.36
509.03	28503.04
509.20	29109.24
509.38	29085.84
509.55	28893.91
509.73	29207.55
509.90	29336.27
510.08	29296.49
510.25	29123.29
510.42	29865.24
510.60	29652.25
510.77	29773.95
510.95	29818.42
511.12	29708.42
511.30	29773.95
511.47	29844.17
511.64	30122.69
511.82	30211.64
511.99	30017.37
512.17	30209.29
512.34	30408.24
512.51	30466.75
512.69	30511.22
512.86	30536.97
513.04	30785.07
513.21	30604.84
513.38	30834.22
513.56	31241.47
513.73	30923.16
513.90	30710.17
514.08	30850.60
514.25	31445.10
514.43	31243.81
514.60	31356.16
514.77	31084.65
514.95	31487.23
515.12	31512.97
515.29	31793.84
515.47	32088.74
515.64	31782.13
515.81	32121.51
515.99	31936.61
516.16	32430.46
516.33	31576.17
516.51	32341.52
516.68	31908.52
516.85	32222.16
517.03	32842.40
517.20	32261.94
517.37	32236.20
517.54	32713.67
517.72	32772.18
517.89	32500.68
518.06	32755.80
518.24	33003.89
518.41	32863.46
518.58	32758.14
518.75	32978.15
518.93	33223.90
519.10	32694.94
519.27	33158.37
519.45	33223.90
519.62	33521.15
519.79	33677.97
519.96	33631.16
520.14	33839.47
520.31	33446.26
520.48	33722.44
520.65	33804.36
520.83	34174.16
521.00	34150.76
521.17	34033.73
521.34	34057.14
521.52	33982.24
521.69	34127.35
521.86	34139.05
522.03	34698.44
522.20	35049.52
522.38	35166.55
522.55	34831.85
522.72	34649.29
522.89	34962.92
523.07	35108.04
523.24	35012.07
523.41	35178.25
523.58	34866.96
523.75	35473.16
523.92	35484.86
524.10	35524.65
524.27	35440.39
524.44	35353.79
524.61	35491.88
524.78	35381.88
524.96	35927.22
525.13	35667.42
525.30	35941.27
525.47	36030.21
525.64	35826.58
525.81	36313.41
525.98	36123.83
526.16	36133.19
526.33	36044.25
526.50	36449.16
526.67	35936.59
526.84	36226.81
527.01	36318.09
527.18	36627.04
527.36	36439.80
527.53	36423.42
527.70	37148.98
527.87	37270.69
528.04	36538.10
528.21	36620.02
528.38	36861.10
528.55	36914.93
528.72	36842.37
528.89	37104.51
529.07	36870.46
529.24	36992.17
529.41	37029.62
529.58	36961.74
529.75	37467.30
529.92	37207.50
530.09	37603.05
530.26	37034.30
530.43	37638.15
530.60	37308.14
530.77	37294.10
530.94	37546.87
531.11	37352.61
531.28	37603.05
531.46	37799.65
531.63	38096.90
531.80	37991.58
531.97	37979.87
532.14	38082.86
532.31	37724.75
532.48	38565.01
532.65	38525.22
532.82	38389.47
532.99	38319.25
533.16	38504.15
533.33	38705.44
533.50	38579.05
533.67	38469.04
533.84	38206.90
534.01	39098.65
534.18	38731.18
534.35	38850.55
534.52	39040.14
534.69	39435.69
534.86	38763.95
535.03	38808.42
535.20	39309.30
535.37	39428.66
535.54	39381.85
535.71	39222.70
535.88	39421.64
536.05	39622.93
536.22	39337.38
536.38	39419.30
536.55	39571.44
536.72	39299.94
536.89	39271.85
537.06	39372.49
537.23	39995.07
537.40	39480.16
537.57	39735.27
537.74	39777.40
537.91	40046.57
538.08	39739.96
538.25	39952.94
538.42	39880.39
538.59	40175.30
538.75	40172.96
538.92	39964.65
539.09	40245.51
539.26	40165.93
539.43	40151.89
539.60	40542.76
539.77	40294.66
539.94	40650.42
540.11	40556.80
540.28	40577.87
540.44	40198.70
540.61	40683.19
540.78	40385.94
540.95	40559.14
541.12	40662.13
541.29	40854.05
541.46	40854.05
541.62	40566.16
541.79	40973.42
541.96	40753.41
542.13	40409.35
542.30	40526.38
542.47	40914.90
542.63	41556.21
542.80	41099.81
542.97	41081.08
543.14	41249.60
543.31	41518.76
543.48	41448.55
543.64	42085.17
543.81	41755.16
543.98	41486.00
544.15	41581.96
544.32	41961.12
544.48	42185.82
544.65	42124.96
544.82	42284.12
544.99	41909.63
545.16	41862.82
545.32	41673.24
545.49	42202.20
545.66	42660.94
545.83	42162.41
546.00	42078.15
546.16	42183.48
546.33	42073.47
546.50	42092.19
546.67	42920.74
546.83	41794.95
547.00	41965.81
547.17	41923.68
547.34	42541.58
547.50	42656.26
547.67	43063.52
547.84	42642.22
548.00	43051.81
548.17	43180.54
548.34	42831.80
548.51	42864.57
548.67	43365.45
548.84	43049.47
549.01	42899.68
549.18	43316.29
549.34	42927.77
549.51	43217.99
549.68	42749.88
549.84	43281.19
550.01	43363.11
550.18	42969.90
550.34	43473.11
550.51	43466.09
550.68	43318.64
550.84	43421.62
551.01	43718.87
551.18	43246.08
551.34	43154.80
551.51	43861.64
551.68	43583.12
551.84	43395.87
552.01	43339.70
552.18	43573.75
552.34	43349.06
552.51	43585.46
552.68	43840.57
552.84	43562.05
553.01	43915.47
553.18	43594.82
553.34	44304.00
553.51	43688.44
553.67	44074.63
553.84	44161.23
554.01	43751.63
554.17	43859.30
554.34	44322.72
554.51	43812.49
554.67	44072.29
554.84	44767.43
555.00	44273.57
555.17	44285.28
555.33	44252.51
555.50	44369.54
555.67	44025.48
555.83	44280.60
556.00	44631.68
556.16	44795.51
556.33	44402.30
556.50	44634.02
556.66	45132.55
556.83	44318.04
556.99	44729.98
557.16	44889.13
557.32	44790.83
557.49	45228.51
557.65	44711.25
557.82	44734.66
557.98	44634.02
558.15	44821.26
558.32	44907.86
558.48	44776.79
558.65	44828.28
558.81	44589.55
558.98	45048.29
559.14	44638.70
559.31	44671.46
559.47	44952.33
559.64	45123.19
559.80	45069.36
559.97	45085.74
560.13	45099.78
560.30	45336.18
560.46	45385.33
560.63	45268.30
560.79	45478.95
560.96	45710.66
561.12	45567.89
561.29	45450.86
561.45	45242.56
561.61	45317.45
561.78	45174.68
561.94	45511.72
562.11	45490.65
562.27	45687.26
562.44	45502.35
562.60	45876.84
562.77	45366.60
562.93	45275.32
563.10	45652.15
563.26	45560.87
563.42	46370.69
563.59	45525.76
563.75	45617.04
563.92	45443.84
564.08	45354.90
564.24	45741.09
564.41	45588.95
564.57	45481.29
564.74	45631.08
564.90	45511.72
565.07	45605.34
565.23	45804.28
565.39	46195.15
565.56	46108.55
565.72	45921.31
565.88	45916.63
566.05	45507.04
566.21	45673.21
566.38	45429.80
566.54	46131.96
566.70	46143.66
566.87	45944.72
567.03	45799.60
567.19	45970.46
567.36	46050.04
567.52	46181.11
567.68	46096.85
567.85	46256.01
568.01	46220.90
568.17	46293.46
568.34	46373.03
568.50	45993.87
568.66	46028.98
568.83	45883.86
568.99	46370.69
569.15	46443.25
569.32	45925.99
569.48	45942.38
569.64	46384.74
569.81	46644.54
569.97	46211.54
570.13	46731.14
570.30	46178.77
570.46	45993.87
570.62	45940.04
570.78	46131.96
570.95	46206.86
571.11	46925.40
571.27	46653.90
571.43	45989.19
571.60	46302.82
571.76	45874.50
571.92	46426.87
572.09	46504.10
572.25	46230.26
572.41	46263.03
572.57	46485.38
572.74	46944.12
572.90	46513.47
573.06	46817.74
573.22	46377.72
573.38	46658.58
573.55	46520.49
573.71	47079.88
573.87	46738.16
574.03	46569.64
574.20	47107.96
574.36	46696.03
574.52	46707.73
574.68	47091.58
574.84	46983.91
575.01	46920.72
575.17	47049.45
575.33	46483.04
575.49	46747.52
575.65	47185.20
575.82	46288.77
575.98	46473.68
576.14	47208.61
576.30	46822.42
576.46	46698.37
576.62	46815.40
576.79	46990.94
576.95	45998.55
577.11	46389.42
577.27	46824.76
577.43	46920.72
577.59	46511.13
577.75	46782.63
577.92	46309.84
578.08	46803.69
578.24	46932.42
578.40	46871.57
578.56	47309.25
578.72	46899.65
578.88	46880.93
579.04	46607.09
579.21	47056.47
579.37	46932.42
579.53	46883.27
579.69	46796.67
579.85	46597.73
580.01	46777.95
580.17	46623.47
580.33	47040.09
580.49	46515.81
580.65	47051.79
580.82	46684.33
580.98	46401.12
581.14	46628.15
581.30	47456.70
581.46	46979.23
581.62	46522.83
581.78	46852.84
581.94	46937.10
582.10	46925.40
582.26	47159.45
582.42	46813.05
582.58	46902.00
582.74	47248.39
582.90	46799.01
583.06	47105.62
583.22	47051.79
583.38	46899.65
583.54	47253.08
583.70	47159.45
583.86	47040.09
584.02	46864.55
584.18	47215.63
584.34	47145.41
584.50	47145.41
584.66	47409.89
584.82	47103.28
584.98	47126.69
585.14	47555.00
585.30	46770.93
585.46	47255.42
585.62	46920.72
585.78	47292.86
585.94	46667.94
586.10	46799.01
586.26	47187.54
586.42	47044.77
586.58	46925.40
586.74	47168.82
586.90	47229.67
587.06	46916.04
587.22	46976.89
587.38	47028.38
587.54	47489.47
587.70	47643.94
587.86	46887.95
588.02	47203.92
588.18	46918.38
588.34	46726.46
588.49	46944.12
588.65	47082.22
588.81	47255.42
588.97	47278.82
589.13	47014.34
589.29	47147.75
589.45	47304.57
589.61	47037.75
589.77	47529.26
589.93	47217.97
