SpectraSuite Data File
++++++++++++++++++++++++++++++++++++
Date: Fri Oct 25 11:25:30 EDT 2013
User: price-jones
Dark Spectrum Present: No
Reference Spectrum Present: No
Number of Sampled Component Spectra: 1
Spectrometers: USB2+H05261
Integration Time (usec): 100000 (USB2+H05261)
Spectra Averaged: 1 (USB2+H05261)
Boxcar Smoothing: 0 (USB2+H05261)
Correct for Electrical Dark: No (USB2+H05261)
Strobe/Lamp Enabled: No (USB2+H05261)
Correct for Detector Non-linearity: No (USB2+H05261)
Correct for Stray Light: No (USB2+H05261)
Number of Pixels in Processed Spectrum: 2048
>>>>>Begin Processed Spectral Data<<<<<
365.73	285.55
365.92	285.55
366.12	285.55
366.32	107.66
366.52	168.52
366.72	149.79
366.91	168.52
367.11	215.33
367.31	149.79
367.51	63.19
367.70	147.45
367.90	154.48
368.10	175.54
368.30	149.79
368.49	170.86
368.69	180.22
368.89	210.65
369.09	175.54
369.28	182.56
369.48	252.78
369.68	173.20
369.87	191.92
370.07	238.73
370.27	299.59
370.47	337.04
370.66	543.00
370.86	645.99
371.06	638.97
371.25	697.48
371.45	631.94
371.65	683.44
371.84	655.35
372.04	638.97
372.24	655.35
372.44	720.88
372.63	720.88
372.83	725.57
373.03	718.54
373.22	805.14
373.42	723.23
373.62	753.65
373.81	837.91
374.01	809.83
374.21	823.87
374.40	805.14
374.60	847.27
374.79	863.66
374.99	807.48
375.19	777.06
375.38	816.85
375.58	856.64
375.78	854.30
375.97	821.53
376.17	945.58
376.37	882.38
376.56	779.40
376.76	812.17
376.95	905.79
377.15	880.04
377.35	856.64
377.54	882.38
377.74	784.08
377.93	917.49
378.13	950.26
378.33	875.36
378.52	957.28
378.72	931.53
378.91	952.60
379.11	940.90
379.31	1020.47
379.50	929.19
379.70	1015.79
379.89	1008.77
380.09	940.90
380.28	950.26
380.48	936.21
380.68	957.28
380.87	1025.15
381.07	1001.75
381.26	1034.52
381.46	999.41
381.65	1011.11
381.85	1001.75
382.04	1008.77
382.24	1029.84
382.43	1111.75
382.63	1116.44
382.83	1001.75
383.02	1095.37
383.22	1217.08
383.41	1050.90
383.61	1104.73
383.80	1137.50
384.00	1167.93
384.19	1102.39
384.39	1172.61
384.58	1144.52
384.78	1186.65
384.97	1167.93
385.17	1174.95
385.36	1139.84
385.56	1158.57
385.75	1179.63
385.95	1160.91
386.14	1231.12
386.34	1121.12
386.53	1174.95
386.72	1336.45
386.92	1226.44
387.11	1151.54
387.31	1249.85
387.50	1329.42
387.70	1217.08
387.89	1261.55
388.09	1371.55
388.28	1280.27
388.48	1266.23
388.67	1355.17
388.86	1221.76
389.06	1357.51
389.25	1378.58
389.45	1259.21
389.64	1371.55
389.84	1399.64
390.03	1371.55
390.22	1280.27
390.42	1404.32
390.61	1416.02
390.81	1345.81
391.00	1301.34
391.19	1434.75
391.39	1556.46
391.58	1474.54
391.78	1371.55
391.97	1439.43
392.16	1444.11
392.36	1476.88
392.55	1514.33
392.75	1465.18
392.94	1526.03
393.13	1404.32
393.33	1455.81
393.52	1514.33
393.71	1617.31
393.91	1633.69
394.10	1645.40
394.29	1563.48
394.49	1528.37
394.68	1586.88
394.88	1722.63
395.07	1577.52
395.26	1645.40
395.46	1638.38
395.65	1732.00
395.84	1762.42
396.04	1729.66
396.23	1778.81
396.42	1732.00
396.62	1783.49
396.81	1802.21
397.00	1849.02
397.19	1760.08
397.39	1713.27
397.58	1888.81
397.77	1771.79
397.97	1867.75
398.16	1837.32
398.35	1804.55
398.55	1872.43
398.74	1806.89
398.93	1902.86
399.12	1963.71
399.32	1940.30
399.51	1998.82
399.70	2101.80
399.90	1895.83
400.09	2071.37
400.28	1923.92
400.47	1940.30
400.67	2047.97
400.86	2038.61
401.05	2040.95
401.24	2090.10
401.44	2076.06
401.63	2125.21
401.82	2099.46
402.01	2179.04
402.21	2143.93
402.40	2251.60
402.59	2225.85
402.78	2113.50
402.97	2183.72
403.17	2293.72
403.36	2265.64
403.55	2361.60
403.74	2366.28
403.93	2312.45
404.13	2335.85
404.32	2363.94
404.51	2368.62
404.70	2417.77
404.89	2312.45
405.09	2392.03
405.28	2466.92
405.47	2502.03
405.66	2385.01
405.85	2387.35
406.05	2513.74
406.24	2511.39
406.43	2574.59
406.62	2511.39
406.81	2715.02
407.00	2581.61
407.20	2499.69
407.39	2574.59
407.58	2644.81
407.77	2733.75
407.96	2808.64
408.15	2628.42
408.34	2757.15
408.54	2841.41
408.73	2829.71
408.92	2808.64
409.11	2785.24
409.30	2944.39
409.49	2930.35
409.68	2862.48
409.87	2967.80
410.07	3000.57
410.26	2953.76
410.45	2986.52
410.64	3021.63
410.83	3005.25
411.02	3131.64
411.21	3077.80
411.40	3091.85
411.59	3101.21
411.78	3141.00
411.98	3159.72
412.17	3187.81
412.36	3318.88
412.55	3358.67
412.74	3337.60
412.93	3297.81
413.12	3344.63
413.31	3487.40
413.50	3541.23
413.69	3478.04
413.88	3522.51
414.07	3531.87
414.26	3751.88
414.45	3665.28
414.64	3536.55
414.83	3637.19
415.02	3625.49
415.22	3779.97
415.41	3826.78
415.60	3768.26
415.79	3911.04
415.98	3915.72
416.17	3939.12
416.36	3791.67
416.55	3878.27
416.74	3999.98
416.93	3941.46
417.12	4280.84
417.31	4191.90
417.50	4198.92
417.69	4182.54
417.88	4320.63
418.07	4234.03
418.26	4198.92
418.45	4278.50
418.64	4376.80
418.83	4346.37
419.02	4404.89
419.21	4559.36
419.39	4437.66
419.58	4416.59
419.77	4620.22
419.96	4571.07
420.15	4601.49
420.34	4660.01
420.53	4643.62
420.72	4798.10
420.91	4674.05
421.10	4601.49
421.29	4716.18
421.48	4573.41
421.67	4767.67
421.86	4762.99
422.05	4629.58
422.24	4760.65
422.43	4830.87
422.61	4919.81
422.80	5055.56
422.99	4912.78
423.18	4961.94
423.37	4837.89
423.56	4765.33
423.75	4805.12
423.94	4814.48
424.13	4547.66
424.32	4765.33
424.50	4898.74
424.69	5170.24
424.88	4952.57
425.07	4898.74
425.26	4865.97
425.45	4980.66
425.64	4887.04
425.83	4936.19
426.01	5039.17
426.20	5111.73
426.39	4980.66
426.58	5032.15
426.77	4896.40
426.96	5008.75
427.15	5076.62
427.33	5174.92
427.52	5109.39
427.71	5280.25
427.90	5263.86
428.09	5093.01
428.28	5336.42
428.46	5385.57
428.65	5153.86
428.84	5502.60
429.03	5495.58
429.22	5277.91
429.40	5411.32
429.59	5324.72
429.78	5392.59
429.97	5172.58
430.16	5408.98
430.34	5530.69
430.53	5612.60
430.72	5689.84
430.91	5593.88
431.10	5502.60
431.28	5781.12
431.47	5710.91
431.66	5827.93
431.85	5687.50
432.03	5802.19
432.22	5942.62
432.41	5717.93
432.60	5912.19
432.79	5860.70
432.97	5867.72
433.16	6078.37
433.35	6094.76
433.54	6136.88
433.72	6115.82
433.91	5907.51
434.10	6160.29
434.28	6069.01
434.47	6113.48
434.66	6148.59
434.85	6169.65
435.03	6282.00
435.22	6347.53
435.41	6347.53
435.59	6317.11
435.78	6408.39
435.97	6476.26
436.16	6380.30
436.34	6221.14
436.53	6502.01
436.72	6497.33
436.90	6370.94
437.09	6600.31
437.28	6382.64
437.46	6635.42
437.65	6626.06
437.84	6731.38
438.02	6832.02
438.21	6703.29
438.40	6731.38
438.58	6998.20
438.77	6967.77
438.96	6876.49
439.14	6984.16
439.33	7157.36
439.52	7157.36
439.70	7218.21
439.89	7321.20
440.08	7311.83
440.26	7323.54
440.45	7463.97
440.63	7449.93
440.82	7515.46
441.01	7573.97
441.19	7569.29
441.38	7641.85
441.57	7756.54
441.75	7772.92
441.94	7691.00
442.12	7957.82
442.31	8058.46
442.50	7925.05
442.68	7969.52
442.87	8070.17
443.05	7779.94
443.24	8168.47
443.43	8021.02
443.61	8210.60
443.80	8379.12
443.98	8102.93
444.17	7812.71
444.35	8140.38
444.54	8437.63
444.73	8161.45
444.91	8215.28
445.10	8205.92
445.28	8114.64
445.47	8156.77
445.65	8196.56
445.84	8332.31
446.02	8367.42
446.21	8196.56
446.39	8360.39
446.58	8344.01
446.77	8423.59
446.95	8231.66
447.14	8376.78
447.32	8578.06
447.51	8320.60
447.69	8196.56
447.88	8617.85
448.06	8641.26
448.25	8596.79
448.43	8454.02
448.62	8369.76
448.80	8610.83
448.99	8517.21
449.17	8667.00
449.36	8751.26
449.54	8865.95
449.73	8755.94
449.91	8985.32
450.10	8889.35
450.28	9078.94
450.46	9179.58
450.65	8985.32
450.83	9156.18
451.02	9034.47
451.20	8940.85
451.39	9025.11
451.57	9071.92
451.76	9205.33
451.94	9085.96
452.13	8980.64
452.31	9186.60
452.49	9078.94
452.68	9291.93
452.86	9144.47
453.05	9481.51
453.23	9387.89
453.42	9235.75
453.60	9418.32
453.78	9568.11
453.97	9406.61
454.15	9600.88
454.34	9427.68
454.52	9764.72
454.70	9640.67
454.89	9549.39
455.07	9795.14
455.26	9844.29
455.44	9870.04
455.62	9748.33
455.81	9771.74
455.99	10052.60
456.17	9994.09
456.36	9792.80
456.54	9980.04
456.73	10300.70
456.91	10525.39
457.09	10436.45
457.28	10527.73
457.46	10200.05
457.64	10546.45
457.83	10380.28
458.01	10459.85
458.19	10684.55
458.38	10480.92
458.56	10703.27
458.74	10724.33
458.93	10726.68
459.11	10593.26
459.29	10761.78
459.48	10822.64
459.66	10714.97
459.84	10644.76
460.03	11054.35
460.21	10841.36
460.39	11026.26
460.57	10815.62
460.76	11157.33
460.94	11098.82
461.12	11183.08
461.31	11124.57
461.49	11089.46
461.67	10878.81
461.85	11382.03
462.04	11335.21
462.22	11906.31
462.40	11555.22
462.59	11272.02
462.77	11501.39
462.95	11236.91
463.13	11485.01
463.32	11531.82
463.50	11730.76
463.68	11569.27
463.86	11726.08
464.05	11531.82
464.23	11634.80
464.41	11683.95
464.59	11613.74
464.78	12194.19
464.96	11978.86
465.14	11580.97
465.32	12042.06
465.50	12173.13
465.69	11985.88
465.87	12131.00
466.05	12205.89
466.23	12025.67
466.41	12435.27
466.60	12458.67
466.78	11918.01
466.96	12020.99
467.14	12035.03
467.32	12351.01
467.51	12568.68
467.69	12212.92
467.87	12629.53
468.05	12596.76
468.23	12393.14
468.41	12325.26
468.60	12353.35
468.78	12645.91
468.96	12753.58
469.14	12809.75
469.32	12884.65
469.50	12554.63
469.69	12812.09
469.87	13118.70
470.05	13029.76
470.23	13085.94
470.41	12982.95
470.59	13380.84
470.77	13219.35
470.95	13378.50
471.14	13338.71
471.32	12856.56
471.50	13518.93
471.68	13472.12
471.86	13392.55
472.04	13654.69
472.22	13907.46
472.40	13551.70
472.58	13727.24
472.77	13870.01
472.95	13912.14
473.13	14335.78
473.31	13855.97
473.49	14064.28
473.67	14057.26
473.85	14040.87
474.03	14174.28
474.21	14567.49
474.39	14787.50
474.57	14504.30
474.75	14909.21
474.93	14808.57
475.12	15009.86
475.30	14789.85
475.48	14967.73
475.66	15166.67
475.84	14885.81
476.02	15302.42
476.20	15445.20
476.38	15733.08
476.56	16084.16
476.74	15768.19
476.92	15611.37
477.10	15908.62
477.28	15854.79
477.46	16180.12
477.64	16358.00
477.82	16435.24
478.00	16943.14
478.18	16573.33
478.36	16765.26
478.54	17310.60
478.72	17067.19
478.90	16982.93
479.08	17406.56
479.26	17369.12
479.44	17570.40
479.62	17689.77
479.80	18085.32
479.98	18207.03
480.16	18284.26
480.34	18338.10
480.52	18693.86
480.70	18504.28
480.88	18410.65
481.06	18677.48
481.24	18766.42
481.41	18874.08
481.59	19180.69
481.77	19529.43
481.95	19328.14
482.13	19351.55
482.31	19358.57
482.49	20386.07
482.67	20257.34
482.85	20500.75
483.03	20613.10
483.21	20573.31
483.39	20821.41
483.57	20643.52
483.74	21280.15
483.92	21242.70
484.10	21078.86
484.28	21731.87
484.46	21820.81
484.64	22190.62
484.82	21895.71
485.00	22326.37
485.18	22747.67
485.35	22759.37
485.53	22698.52
485.71	22881.08
485.89	23491.96
486.07	22871.72
486.25	23381.95
486.43	23316.42
486.61	23667.50
486.78	23529.41
486.96	23828.99
487.14	24484.34
487.32	24535.84
487.50	24650.52
487.68	24999.26
487.85	25078.84
488.03	25703.76
488.21	25490.77
488.39	25373.75
488.57	25930.80
488.75	26176.55
488.92	26295.92
489.10	26569.76
489.28	26785.09
489.46	26972.33
489.64	26874.03
489.81	27187.66
489.99	27683.86
490.17	27538.74
490.35	27960.04
490.53	28205.80
490.70	28166.01
490.88	28126.22
491.06	28723.05
491.24	28699.65
491.41	29078.82
491.59	29310.53
491.77	29179.46
491.95	29273.08
492.13	29586.71
492.30	29837.15
492.48	29947.15
492.66	29947.15
492.84	30061.84
493.01	30204.61
493.19	30541.65
493.37	31218.07
493.54	31094.02
493.72	31166.57
493.90	31503.61
494.08	31503.61
494.25	32133.21
494.43	31967.04
494.61	32222.16
494.79	32339.18
494.96	32027.89
495.14	32503.02
495.32	33146.67
495.49	33055.39
495.67	32982.83
495.85	33516.47
496.02	33724.78
496.20	33865.21
496.38	33834.78
496.55	33954.15
496.73	34817.81
496.91	34335.66
497.09	34455.03
497.26	34785.04
497.44	35005.05
497.62	34862.28
497.79	35442.73
497.97	35309.32
498.14	35690.83
498.32	35924.88
498.50	35868.71
498.67	36477.25
498.85	36301.71
499.03	36582.57
499.20	36613.00
499.38	36954.72
499.56	36828.33
499.73	36715.98
499.91	36861.10
500.08	37717.73
500.26	37280.05
500.44	37111.53
500.61	37373.67
500.79	37525.81
500.97	37921.36
501.14	38373.08
501.32	38284.14
501.49	38433.94
501.67	38181.16
501.84	38675.01
502.02	38955.88
502.20	38703.10
502.37	39150.14
502.55	38637.56
502.72	39309.30
502.90	39253.12
503.07	39346.75
503.25	39754.00
503.43	39508.24
503.60	40282.96
503.78	40273.60
503.95	40392.97
504.13	40350.84
504.30	39765.70
504.48	40580.21
504.65	40465.52
504.83	40514.67
505.01	41099.81
505.18	41155.98
505.36	41123.21
505.53	40835.33
505.71	41223.86
505.88	41450.89
506.06	41261.30
506.23	41851.12
506.41	41741.11
506.58	41975.17
506.76	42019.64
506.93	42157.73
507.11	42199.86
507.28	42120.28
507.46	42380.08
507.63	42476.04
507.81	42904.36
507.98	42803.72
508.16	42810.74
508.33	43058.84
508.50	43138.41
508.68	43152.46
508.85	43409.92
509.03	43723.55
509.20	43636.95
509.38	44233.78
509.55	44133.14
509.73	43962.28
509.90	44121.44
510.08	44341.45
510.25	44383.58
510.42	44395.28
510.60	44554.44
510.77	44804.88
510.95	45125.53
511.12	44839.98
511.30	44767.43
511.47	45392.35
511.64	45123.19
511.82	45801.94
511.99	45483.63
512.17	45485.97
512.34	45584.27
512.51	46616.45
512.69	46220.90
512.86	46609.43
513.04	46333.24
513.21	46033.66
513.38	46595.38
513.56	46595.38
513.73	46497.08
513.90	46890.29
514.08	46550.91
514.25	46902.00
514.43	46806.03
514.60	47622.88
514.77	47161.79
514.95	47714.16
515.12	46775.61
515.29	47529.26
515.47	47299.89
515.64	47821.83
515.81	47756.29
515.99	47980.98
516.16	48257.17
516.33	48308.66
516.51	48481.86
516.68	48233.76
516.85	48229.08
517.03	48570.80
517.20	48846.98
517.37	48645.69
517.54	48776.76
517.72	48533.35
517.89	49258.91
518.06	48924.22
518.24	48676.12
518.41	48980.39
518.58	49085.72
518.75	48872.73
518.93	49219.13
519.10	49139.55
519.27	49701.28
519.45	49638.08
519.62	49406.37
519.79	49738.72
519.96	49640.42
520.14	49865.11
520.31	49991.50
520.48	50167.04
520.65	49771.49
520.83	50396.42
521.00	50153.00
521.17	50305.13
521.34	50485.36
521.52	50621.11
521.69	50520.46
521.86	50609.40
522.03	50787.28
522.20	51014.32
522.38	51213.26
522.55	51023.68
522.72	51231.99
522.89	51035.38
523.07	51297.52
523.24	51129.00
523.41	51576.04
523.58	51276.46
523.75	51662.64
523.92	51463.70
524.10	51978.62
524.27	51503.49
524.44	51859.25
524.61	51835.84
524.78	51931.81
524.96	51995.00
525.13	51896.70
525.30	52397.57
525.47	52390.55
525.64	52247.78
525.81	52399.91
525.98	52317.99
526.16	52332.04
526.33	52502.90
526.50	52680.78
526.67	52463.11
526.84	52758.02
527.01	52804.83
527.18	52678.44
527.36	52619.92
527.53	52783.76
527.70	53354.85
527.87	53375.92
528.04	52966.32
528.21	53301.02
528.38	53092.71
528.55	53436.77
528.72	53155.91
528.89	53263.57
529.07	53242.51
529.24	53411.02
529.41	53474.22
529.58	53485.92
529.75	53577.20
529.92	53429.75
530.09	53729.34
530.26	53909.56
530.43	53719.98
530.60	53427.41
530.77	53858.07
530.94	54045.31
531.11	53911.90
531.28	54209.15
531.46	54017.22
531.63	54190.42
531.80	54131.91
531.97	54047.65
532.14	54176.38
532.31	54021.90
532.48	54452.56
532.65	54536.82
532.82	54309.79
532.99	54656.19
533.16	54321.49
533.33	54412.77
533.50	54686.62
533.67	54684.28
533.84	54401.07
534.01	54607.04
534.18	54679.60
534.35	55229.62
534.52	54866.84
534.69	55007.27
534.86	54923.01
535.03	54635.13
535.20	55117.28
535.37	55384.10
535.54	55182.81
535.71	55079.83
535.88	55414.52
536.05	55332.60
536.22	55334.95
536.38	55274.09
536.55	55463.67
536.72	55458.99
536.89	55334.95
537.06	55547.93
537.23	55538.57
537.40	55543.25
537.57	55229.62
537.74	55594.74
537.91	55847.52
538.08	56030.08
538.25	55569.00
538.42	55877.95
538.59	56076.90
538.75	55599.43
538.92	56104.98
539.09	56025.40
539.26	55831.14
539.43	55934.12
539.60	56032.42
539.77	56088.60
539.94	56343.72
540.11	56177.54
540.28	56236.05
540.44	56339.04
540.61	56360.10
540.78	56336.69
540.95	56025.40
541.12	56303.93
541.29	56296.91
541.46	56191.58
541.62	56423.29
541.79	56472.45
541.96	56128.39
542.13	56402.23
542.30	56566.07
542.47	56617.56
542.63	56640.96
542.80	56800.12
542.97	56921.83
543.14	57097.37
543.31	56835.23
543.48	57167.58
543.64	57359.51
543.81	57111.41
543.98	57301.00
544.15	57167.58
544.32	57359.51
544.48	57483.56
544.65	57319.72
544.82	57336.10
544.99	57073.96
545.16	57425.04
545.32	57064.60
545.49	57572.50
545.66	57579.52
545.83	57462.49
546.00	57483.56
546.16	57635.69
546.33	57396.96
546.50	56956.94
546.67	57787.83
546.83	57303.34
547.00	57492.92
547.17	57570.16
547.34	57485.90
547.50	57904.85
547.67	58124.86
547.84	57888.47
548.00	58026.56
548.17	58195.08
548.34	57848.68
548.51	58082.73
548.67	58152.95
548.84	57883.79
549.01	57832.30
549.18	58073.37
549.34	58197.42
549.51	58035.92
549.68	58216.14
549.84	58426.79
550.01	58223.17
550.18	57928.26
550.34	58202.10
550.51	58335.51
550.68	58316.79
550.84	57939.96
551.01	58506.37
551.18	58403.39
551.34	58384.66
551.51	58363.60
551.68	58417.43
551.84	58396.37
552.01	58230.19
552.18	58482.97
552.34	58286.36
552.51	58693.61
552.68	58344.87
552.84	58457.22
553.01	58564.88
553.18	58707.66
553.34	58667.87
553.51	58553.18
553.67	58810.64
553.84	58990.86
554.01	58604.67
554.17	58908.94
554.34	58852.77
554.51	59032.99
554.67	59058.74
554.84	58717.02
555.00	58852.77
555.17	58976.82
555.33	58878.52
555.50	58899.58
555.67	58798.94
555.83	59016.61
556.00	59150.02
556.16	59145.34
556.33	59131.29
556.50	59018.95
556.66	59086.82
556.83	59021.29
556.99	59245.98
557.16	59601.74
557.32	59241.30
557.49	59545.57
557.65	59402.80
557.82	59285.77
557.98	59178.10
558.15	59313.86
558.32	59346.62
558.48	59330.24
558.65	59367.69
558.81	59468.33
558.98	59341.94
559.14	59451.95
559.31	59213.21
559.47	59384.07
559.64	59606.42
559.80	59412.16
559.97	59592.38
560.13	59470.67
560.30	59508.12
560.46	59454.29
560.63	59463.65
560.79	59456.63
560.96	59838.14
561.12	59678.98
561.29	59756.22
561.45	59641.53
561.61	59671.96
561.78	59819.41
561.94	59561.95
562.11	59800.69
562.27	59725.79
562.44	59887.29
562.60	59920.05
562.77	59840.48
562.93	59863.88
563.10	59786.64
563.26	59908.35
563.42	59957.50
563.59	59849.84
563.75	59889.63
563.92	59980.91
564.08	59877.93
564.24	59924.74
564.41	60076.87
564.57	59971.55
564.74	60011.34
564.90	59936.44
565.07	59894.31
565.23	59971.55
565.39	59987.93
565.56	60081.55
565.72	60142.41
565.88	60046.44
566.05	60046.44
566.21	59819.41
566.38	60170.49
566.54	60116.66
566.70	60126.02
566.87	60287.52
567.03	60067.51
567.19	60449.02
567.36	60191.56
567.52	60210.28
567.68	60533.28
567.85	60397.52
568.01	60449.02
568.17	60158.79
568.34	60374.12
568.50	60104.96
568.66	60062.83
568.83	60217.30
568.99	60278.16
569.15	60320.29
569.32	60371.78
569.48	60306.24
569.64	60456.04
569.81	60282.84
569.97	60362.42
570.13	60336.67
570.30	60184.54
570.46	60413.91
570.62	60348.37
570.78	60280.50
570.95	60200.92
571.11	60657.32
571.27	60374.12
571.43	60268.79
571.60	60371.78
571.76	60512.21
571.92	60533.28
572.09	60570.72
572.25	60250.07
572.41	60299.22
572.57	60537.96
572.74	60608.17
572.90	60395.18
573.06	60392.84
573.22	60392.84
573.38	60561.36
573.55	60322.63
573.71	60640.94
573.87	60549.66
574.03	60254.75
574.20	60669.03
574.36	60289.86
574.52	60687.75
574.68	60659.66
574.84	60764.99
575.01	60575.40
575.17	60575.40
575.33	60430.29
575.49	60395.18
575.65	60385.82
575.82	60760.31
575.98	60423.27
576.14	60921.80
576.30	60715.84
576.46	60594.13
576.62	60509.87
576.79	60645.62
576.95	60544.98
577.11	60793.07
577.27	60638.60
577.43	60776.69
577.59	60575.40
577.75	60427.95
577.92	60650.30
578.08	60690.09
578.24	60678.39
578.40	60839.89
578.56	60933.51
578.72	60722.86
578.88	60772.01
579.04	60842.23
579.21	60584.77
579.37	60645.62
579.53	60844.57
579.69	60788.39
579.85	60575.40
580.01	60743.92
580.17	60645.62
580.33	60874.99
580.49	60645.62
580.65	60795.42
580.82	60727.54
580.98	60533.28
581.14	60409.23
581.30	60804.78
581.46	60786.05
581.62	60722.86
581.78	60685.41
581.94	60982.66
582.10	60776.69
582.26	60781.37
582.42	60666.69
582.58	60860.95
582.74	60741.58
582.90	60767.33
583.06	60720.52
583.22	60748.60
583.38	60858.61
583.54	60748.60
583.70	60750.94
583.86	60828.18
584.02	60727.54
584.18	60947.55
584.34	60856.27
584.50	60837.54
584.66	60690.09
584.82	60757.97
584.98	60968.61
585.14	60903.08
585.30	60767.33
585.46	61001.38
585.62	60760.31
585.78	60968.61
585.94	60680.73
586.10	60872.65
586.26	60891.38
586.42	60949.89
586.58	61066.92
586.74	60844.57
586.90	60786.05
587.06	60739.24
587.22	60989.68
587.38	60858.61
587.54	61113.73
587.70	60940.53
587.86	61020.11
588.02	60963.93
588.18	61242.46
588.34	60931.17
588.49	60949.89
