SpectraSuite Data File
++++++++++++++++++++++++++++++++++++
Date: Fri Oct 25 11:23:08 EDT 2013
User: price-jones
Dark Spectrum Present: No
Reference Spectrum Present: No
Number of Sampled Component Spectra: 1
Spectrometers: USB2+H05261
Integration Time (usec): 100000 (USB2+H05261)
Spectra Averaged: 1 (USB2+H05261)
Boxcar Smoothing: 0 (USB2+H05261)
Correct for Electrical Dark: No (USB2+H05261)
Strobe/Lamp Enabled: No (USB2+H05261)
Correct for Detector Non-linearity: No (USB2+H05261)
Correct for Stray Light: No (USB2+H05261)
Number of Pixels in Processed Spectrum: 2048
>>>>>Begin Processed Spectral Data<<<<<
365.73	224.69
365.92	224.69
366.12	224.69
366.32	159.16
366.52	121.71
366.72	119.37
366.91	67.88
367.11	117.03
367.31	56.17
367.51	112.35
367.70	95.96
367.90	128.73
368.10	95.96
368.30	100.64
368.49	124.05
368.69	168.52
368.89	215.33
369.09	180.22
369.28	154.48
369.48	112.35
369.68	187.24
369.87	255.12
370.07	191.92
370.27	257.46
370.47	283.20
370.66	468.11
370.86	552.37
371.06	681.10
371.25	636.63
371.45	690.46
371.65	655.35
371.84	732.59
372.04	758.33
372.24	678.76
372.44	674.07
372.63	697.48
372.83	774.72
373.03	741.95
373.22	779.40
373.42	807.48
373.62	870.68
373.81	751.31
374.01	791.10
374.21	765.36
374.40	819.19
374.60	858.98
374.79	823.87
374.99	837.91
375.19	807.48
375.38	791.10
375.58	816.85
375.78	791.10
375.97	854.30
376.17	851.96
376.37	866.00
376.56	835.57
376.76	873.02
376.95	938.55
377.15	931.53
377.35	847.27
377.54	875.36
377.74	933.87
377.93	924.51
378.13	961.96
378.33	945.58
378.52	1013.45
378.72	894.08
378.91	870.68
379.11	858.98
379.31	947.92
379.50	943.24
379.70	987.71
379.89	992.39
380.09	1036.86
380.28	1015.79
380.48	971.32
380.68	978.34
380.87	973.66
381.07	999.41
381.26	1102.39
381.46	1029.84
381.65	1090.69
381.85	1050.90
382.04	1034.52
382.24	1086.01
382.43	1076.65
382.63	1018.13
382.83	1011.11
383.02	1100.05
383.22	1144.52
383.41	1069.62
383.61	1125.80
383.80	1114.10
384.00	1123.46
384.19	1135.16
384.39	1086.01
384.58	1123.46
384.78	1057.92
384.97	1163.25
385.17	1170.27
385.36	1221.76
385.56	1188.99
385.75	1160.91
385.95	1137.50
386.14	1242.82
386.34	1142.18
386.53	1160.91
386.72	1191.33
386.92	1299.00
387.11	1270.91
387.31	1231.12
387.50	1233.46
387.70	1221.76
387.89	1263.89
388.09	1214.74
388.28	1214.74
388.48	1317.72
388.67	1366.87
388.86	1331.76
389.06	1348.15
389.25	1378.58
389.45	1350.49
389.64	1266.23
389.84	1245.16
390.03	1390.28
390.22	1455.81
390.42	1359.85
390.61	1366.87
390.81	1411.34
391.00	1451.13
391.19	1458.15
391.39	1327.08
391.58	1530.71
391.78	1469.86
391.97	1502.62
392.16	1476.88
392.36	1558.80
392.55	1500.28
392.75	1540.07
392.94	1551.78
393.13	1486.24
393.33	1458.15
393.52	1537.73
393.71	1523.69
393.91	1652.42
394.10	1629.01
394.29	1636.03
394.49	1640.72
394.68	1647.74
394.88	1629.01
395.07	1600.93
395.26	1753.06
395.46	1816.26
395.65	1736.68
395.84	1790.51
396.04	1820.94
396.23	1809.23
396.42	1820.94
396.62	1729.66
396.81	1834.98
397.00	1746.04
397.19	1818.60
397.39	1727.32
397.58	1795.19
397.77	1816.26
397.97	1893.49
398.16	1867.75
398.35	1902.86
398.55	1867.75
398.74	1865.41
398.93	2024.56
399.12	1942.64
399.32	1956.69
399.51	1982.43
399.70	1947.33
399.90	2026.90
400.09	1980.09
400.28	1912.22
400.47	1963.71
400.67	2052.65
400.86	2193.08
401.05	2069.03
401.24	2223.51
401.44	2143.93
401.63	2073.71
401.82	2122.87
402.01	2108.82
402.21	2174.36
402.40	2253.94
402.59	2197.76
402.78	2214.15
402.97	2207.13
403.17	2256.28
403.36	2375.64
403.55	2382.67
403.74	2373.30
403.93	2396.71
404.13	2359.26
404.32	2403.73
404.51	2363.94
404.70	2466.92
404.89	2370.96
405.09	2448.20
405.28	2495.01
405.47	2534.80
405.66	2551.18
405.85	2605.02
406.05	2487.99
406.24	2530.12
406.43	2558.21
406.62	2537.14
406.81	2654.17
407.00	2623.74
407.20	2644.81
407.39	2583.95
407.58	2719.70
407.77	2738.43
407.96	2799.28
408.15	2839.07
408.34	2724.38
408.54	2736.09
408.73	2839.07
408.92	2759.49
409.11	2942.05
409.30	2995.89
409.49	2878.86
409.68	3056.74
409.87	2920.99
410.07	3096.53
410.26	3063.76
410.45	3033.33
410.64	3098.87
410.83	3014.61
411.02	3089.51
411.21	3171.43
411.40	3105.89
411.59	3227.60
411.78	3316.54
411.98	3297.81
412.17	3382.07
412.36	3281.43
412.55	3421.86
412.74	3459.31
412.93	3346.97
413.12	3358.67
413.31	3588.04
413.50	3468.67
413.69	3557.61
413.88	3786.99
414.07	3620.81
414.26	3660.60
414.45	3810.39
414.64	3754.22
414.83	3712.09
415.02	3791.67
415.22	3803.37
415.41	3957.85
415.60	4018.70
415.79	3873.59
415.98	4053.81
416.17	4100.62
416.36	3983.59
416.55	4025.72
416.74	4056.15
416.93	4032.74
417.12	4114.66
417.31	4217.65
417.50	4355.74
417.69	4386.16
417.88	4528.94
418.07	4255.09
418.26	4418.93
418.45	4322.97
418.64	4507.87
418.83	4573.41
419.02	4456.38
419.21	4622.56
419.39	4564.04
419.58	4622.56
419.77	4547.66
419.96	4615.54
420.15	4627.24
420.34	4655.33
420.53	4702.14
420.72	4695.11
420.91	4732.56
421.10	4788.74
421.29	4929.17
421.48	4617.88
421.67	4819.16
421.86	4814.48
422.05	4809.80
422.24	4751.29
422.43	4924.49
422.61	4931.51
422.80	4905.76
422.99	5050.88
423.18	5048.54
423.37	5039.17
423.56	5013.43
423.75	4985.34
423.94	4985.34
424.13	4674.05
424.32	4964.28
424.50	5214.71
424.69	5200.67
424.88	5039.17
425.07	5067.26
425.26	5018.11
425.45	4994.70
425.64	4889.38
425.83	5036.83
426.01	5226.42
426.20	5095.35
426.39	5158.54
426.58	4975.98
426.77	5167.90
426.96	5280.25
427.15	5235.78
427.33	5350.46
427.52	5238.12
427.71	5378.55
427.90	5320.04
428.09	5406.64
428.28	5235.78
428.46	5453.45
428.65	5404.30
428.84	5472.17
429.03	5600.90
429.22	5373.87
429.40	5589.20
429.59	5439.40
429.78	5408.98
429.97	5158.54
430.16	5570.48
430.34	5619.63
430.53	5692.18
430.72	5673.46
430.91	5675.80
431.10	5626.65
431.28	5771.76
431.47	5937.94
431.66	5856.02
431.85	5916.87
432.03	6031.56
432.22	5968.37
432.41	6031.56
432.60	6099.44
432.79	5872.40
432.97	6094.76
433.16	6010.50
433.35	5954.32
433.54	6078.37
433.72	6099.44
433.91	6139.23
434.10	6359.24
434.28	6242.21
434.47	6204.76
434.66	6265.61
434.85	6317.11
435.03	6485.62
435.22	6445.84
435.41	6417.75
435.59	6656.48
435.78	6590.95
435.97	6499.67
436.16	6530.09
436.34	6406.05
436.53	6597.97
436.72	6801.60
436.90	6623.72
437.09	6878.83
437.28	6595.63
437.46	6633.08
437.65	6918.62
437.84	6885.86
438.02	6729.04
438.21	6801.60
438.40	6679.89
438.58	7096.50
438.77	7007.56
438.96	7037.99
439.14	6993.52
439.33	7267.36
439.52	7332.90
439.70	7302.47
439.89	7337.58
440.08	7353.96
440.26	7555.25
440.45	7487.37
440.63	7358.64
440.82	7653.55
441.01	7564.61
441.19	7829.09
441.38	7604.40
441.57	7866.54
441.75	7777.60
441.94	8053.78
442.12	8072.51
442.31	8116.98
442.50	8107.62
442.68	7990.59
442.87	8234.00
443.05	8002.29
443.24	8325.29
443.43	8166.13
443.61	8255.07
443.80	8500.83
443.98	8142.72
444.17	7992.93
444.35	8437.63
444.54	8451.67
444.73	8390.82
444.91	8297.20
445.10	8531.25
445.28	8402.52
445.47	8322.94
445.65	8285.50
445.84	8472.74
446.02	8547.64
446.21	8514.87
446.39	8564.02
446.58	8683.39
446.77	8514.87
446.95	8404.86
447.14	8465.72
447.32	8671.68
447.51	8477.42
447.69	8418.91
447.88	8631.90
448.06	8582.74
448.25	8505.51
448.43	8755.94
448.62	8622.53
448.80	8549.98
448.99	8681.05
449.17	8744.24
449.36	8798.07
449.54	9074.26
449.73	9025.11
449.91	9156.18
450.10	8922.12
450.28	9116.39
450.46	9121.07
450.65	9107.02
450.83	9137.45
451.02	8997.02
451.20	9282.56
451.39	9085.96
451.57	9345.76
451.76	9090.64
451.94	9146.81
452.13	9600.88
452.31	9479.17
452.49	9380.87
452.68	9523.64
452.86	9308.31
453.05	9530.66
453.23	9872.38
453.42	9788.12
453.60	9397.25
453.78	9713.22
453.97	9638.33
454.15	9600.88
454.34	9619.60
454.52	9813.87
454.70	9699.18
454.89	9762.37
455.07	9816.21
455.26	9961.32
455.44	10061.96
455.62	9870.04
455.81	9856.00
455.99	9954.30
456.17	10232.82
456.36	10115.80
456.54	10445.81
456.73	10424.75
456.91	10431.77
457.09	10455.17
457.28	10642.42
457.46	10789.87
457.64	10555.82
457.83	10815.62
458.01	10544.11
458.19	10787.53
458.38	10565.18
458.56	10759.44
458.74	10754.76
458.93	11005.20
459.11	10736.04
459.29	10773.49
459.48	10902.22
459.66	10855.40
459.84	11077.76
460.03	11115.20
460.21	11103.50
460.39	11115.20
460.57	10841.36
460.76	11136.27
460.94	11103.50
461.12	11309.47
461.31	11506.07
461.49	11382.03
461.67	11243.93
461.85	11627.78
462.04	11550.54
462.22	11585.65
462.40	11529.48
462.59	11775.24
462.77	11705.02
462.95	11681.61
463.13	11627.78
463.32	11597.35
463.50	11719.06
463.68	11941.41
463.86	12088.87
464.05	11845.45
464.23	11824.39
464.41	12093.55
464.59	11887.58
464.78	12552.29
464.96	12009.29
465.14	11899.28
465.32	12201.21
465.50	12341.64
465.69	12379.09
465.87	12367.39
466.05	12093.55
466.23	12215.26
466.41	12479.74
466.60	12669.32
466.78	12379.09
466.96	12294.83
467.14	12528.89
467.32	12547.61
467.51	12805.07
467.69	12475.06
467.87	12388.46
468.05	12823.80
468.23	12416.54
468.41	12821.45
468.60	12769.96
468.78	13188.92
468.96	12847.20
469.14	12947.84
469.32	12891.67
469.50	12966.57
469.69	12985.29
469.87	13366.80
470.05	13284.88
470.23	13408.93
470.41	13263.82
470.59	13535.32
470.77	13343.39
470.95	13476.80
471.14	13614.90
471.32	13308.29
471.50	13792.78
471.68	13738.94
471.86	13678.09
472.04	13799.80
472.22	14239.82
472.40	13675.75
472.58	13888.74
472.77	14406.00
472.95	14326.42
473.13	14904.53
473.31	14225.78
473.49	14263.22
473.67	14319.40
473.85	14408.34
474.03	14548.77
474.21	14836.66
474.39	14745.38
474.57	14834.32
474.75	15026.24
474.93	15002.83
475.12	15152.63
475.30	15403.07
475.48	15143.27
475.66	15681.59
475.84	15372.64
476.02	15452.22
476.20	15669.89
476.38	15962.45
476.56	16283.11
476.74	16152.04
476.92	16259.70
477.10	15847.77
477.28	16402.47
477.46	16365.03
477.64	16465.67
477.82	16854.20
478.00	17114.00
478.18	16798.02
478.36	17291.88
478.54	17296.56
478.72	17502.53
478.90	17678.07
479.08	17862.97
479.26	17757.64
479.44	18003.40
479.62	18258.52
479.80	18235.11
479.98	18286.61
480.16	18719.60
480.34	18721.95
480.52	19042.60
480.70	18860.04
480.88	18604.92
481.06	18836.63
481.24	18899.83
481.41	19194.73
481.59	19524.75
481.77	19847.74
481.95	19714.33
482.13	20194.14
482.31	19824.34
482.49	20262.02
482.67	20240.95
482.85	20432.88
483.03	20940.77
483.21	20896.30
483.39	21088.23
483.57	21287.17
483.74	21596.12
483.92	21818.47
484.10	21095.25
484.28	21947.20
484.46	22237.43
484.64	22647.02
484.82	22263.18
485.00	22778.09
485.18	23005.13
485.35	23147.90
485.53	22754.69
485.71	23431.10
485.89	23630.05
486.07	23625.37
486.25	23800.91
486.43	23880.49
486.61	24077.09
486.78	24144.97
486.96	24669.25
487.14	24772.23
487.32	24767.55
487.50	25221.61
487.68	25642.91
487.85	25851.22
488.03	25556.31
488.21	26106.34
488.39	26008.03
488.57	26422.31
488.75	26623.59
488.92	26895.10
489.10	27246.18
489.28	27117.45
489.46	27344.48
489.64	27606.62
489.81	27723.65
489.99	27969.40
490.17	27929.61
490.35	28357.93
490.53	28620.07
490.70	28519.43
490.88	28524.11
491.06	29062.43
491.24	28884.55
491.41	29362.02
491.59	29420.53
491.77	29434.58
491.95	29745.87
492.13	30260.79
492.30	30363.77
492.48	30417.60
492.66	30625.91
492.84	30485.48
493.01	30616.55
493.19	31129.12
493.37	31463.82
493.54	31344.45
493.72	31775.11
493.90	31945.97
494.08	32072.36
494.25	31967.04
494.43	32563.87
494.61	32517.06
494.79	33120.92
494.96	33106.88
495.14	33205.18
495.32	33696.69
495.49	33495.41
495.67	33680.31
495.85	34342.68
496.02	34506.52
496.20	34548.65
496.38	34429.28
496.55	34735.89
496.73	35248.47
496.91	34759.30
497.09	35585.50
497.26	35215.70
497.44	35489.54
497.62	35864.03
497.79	36030.21
497.97	35594.87
498.14	36594.28
498.32	36421.08
498.50	36608.32
498.67	36685.56
498.85	36687.90
499.03	37076.43
499.20	37053.02
499.38	37244.94
499.56	37324.52
499.73	37748.16
499.91	37659.22
500.08	38043.07
500.26	37893.27
500.44	38274.78
500.61	38447.98
500.79	37977.53
500.97	38529.90
501.14	39257.81
501.32	38667.99
501.49	38789.70
501.67	38763.95
501.84	39431.01
502.02	39393.56
502.20	39510.58
502.37	39449.73
502.55	39812.51
502.72	39955.29
502.90	40165.93
503.07	40084.01
503.25	40411.69
503.43	39948.26
503.60	40460.84
503.78	40315.73
503.95	40701.92
504.13	40692.55
504.30	41280.03
504.48	40814.26
504.65	41125.55
504.83	41467.27
505.01	41801.97
505.18	41977.51
505.36	42054.75
505.53	41649.83
505.71	41911.97
505.88	42043.04
506.06	41933.04
506.23	42459.66
506.41	42632.86
506.58	42607.11
506.76	42553.28
506.93	43271.82
507.11	42920.74
507.28	43093.94
507.46	43536.30
507.63	43257.78
507.81	43592.48
507.98	43063.52
508.16	43416.94
508.33	44034.84
508.50	43992.71
508.68	44231.44
508.85	44388.26
509.03	44158.89
509.20	44083.99
509.38	45123.19
509.55	44704.23
509.73	44889.13
509.90	45184.04
510.08	44800.19
510.25	45275.32
510.42	45050.63
510.60	45794.92
510.77	45764.49
510.95	45970.46
511.12	45769.18
511.30	45886.20
511.47	45890.88
511.64	45799.60
511.82	46494.74
511.99	46148.34
512.17	46433.89
512.34	46218.56
512.51	46494.74
512.69	46794.33
512.86	46529.85
513.04	47185.20
513.21	46553.26
513.38	47199.24
513.56	47517.56
513.73	47274.14
513.90	47243.71
514.08	47255.42
514.25	47835.87
514.43	47990.34
514.60	47613.52
514.77	48231.42
514.95	48081.63
515.12	47910.77
515.29	48093.33
515.47	48154.18
515.64	48720.59
515.81	48439.73
515.99	49031.88
516.16	48676.12
516.33	48734.63
516.51	49209.76
516.68	49017.84
516.85	48889.11
517.03	49184.02
517.20	49130.19
517.37	49499.99
517.54	49755.11
517.72	49123.16
517.89	49490.63
518.06	49504.67
518.24	49682.55
518.41	49712.98
518.58	49837.03
518.75	49710.64
518.93	50176.40
519.10	49684.89
519.27	50239.60
519.45	49954.05
519.62	50380.03
519.79	49958.73
519.96	50415.14
520.14	50721.75
520.31	50466.63
520.48	50824.73
520.65	50761.54
520.83	50824.73
521.00	50967.51
521.17	50756.86
521.34	51384.12
521.52	51079.85
521.69	51098.58
521.86	51306.88
522.03	51388.80
522.20	51498.81
522.38	51983.30
522.55	51660.30
522.72	51580.73
522.89	51564.34
523.07	52009.04
523.24	51971.60
523.41	51852.23
523.58	52179.90
523.75	52322.68
523.92	52144.80
524.10	52236.08
524.27	51969.26
524.44	52423.32
524.61	52404.59
524.78	52640.99
524.96	52612.90
525.13	52961.64
525.30	53134.84
525.47	53062.29
525.64	52963.98
525.81	53090.37
525.98	52931.22
526.16	52989.73
526.33	52891.43
526.50	53249.53
526.67	53258.89
526.84	53366.55
527.01	53242.51
527.18	53308.04
527.36	53336.13
527.53	53336.13
527.70	53675.51
527.87	53703.59
528.04	53701.25
528.21	53839.34
528.38	53567.84
528.55	53780.83
528.72	53712.95
528.89	53958.71
529.07	53848.71
529.24	53949.35
529.41	53982.12
529.58	53921.26
529.75	54045.31
529.92	53963.39
530.09	54054.67
530.26	54253.62
530.43	54511.08
530.60	53923.60
530.77	54078.08
530.94	54543.84
531.11	54305.11
531.28	54497.03
531.46	54578.95
531.63	54824.71
531.80	54698.32
531.97	54401.07
532.14	54569.59
532.31	54986.21
532.48	55299.84
532.65	54703.00
532.82	54585.97
532.99	54958.12
533.16	54857.48
533.33	55075.15
533.50	55093.87
533.67	55168.77
533.84	55000.25
534.01	55246.00
534.18	55458.99
534.35	55508.14
534.52	55547.93
534.69	55386.44
534.86	55561.98
535.03	55473.04
535.20	55379.42
535.37	55735.18
535.54	55721.13
535.71	55421.55
535.88	55704.75
536.05	56011.36
536.22	55861.57
536.38	55922.42
536.55	55721.13
536.72	55814.76
536.89	55891.99
537.06	55742.20
537.23	56165.84
537.40	55906.04
537.57	55842.84
537.74	56121.37
537.91	56128.39
538.08	56214.99
538.25	56184.56
538.42	56360.10
538.59	56430.32
538.75	56233.71
538.92	56390.53
539.09	56657.35
539.26	56451.38
539.43	56626.92
539.60	56566.07
539.77	56591.81
539.94	56755.65
540.11	56664.37
540.28	56900.76
540.44	56992.04
540.61	56767.35
540.78	56549.68
540.95	56624.58
541.12	56802.46
541.29	56697.14
541.46	57080.98
541.62	56753.31
541.79	56975.66
541.96	56760.33
542.13	56774.37
542.30	57092.69
542.47	56989.70
542.63	57230.78
542.80	57301.00
542.97	57153.54
543.14	57350.15
543.31	57195.67
543.48	57677.82
543.64	57698.89
543.81	57673.14
543.98	57450.79
544.15	57829.96
544.32	57872.09
544.48	57724.63
544.65	57565.48
544.82	57923.58
544.99	57593.56
545.16	57872.09
545.32	57621.65
545.49	58075.71
545.66	57911.88
545.83	57902.51
546.00	57968.05
546.16	57834.64
546.33	58061.67
546.50	57998.48
546.67	58155.29
546.83	57895.49
547.00	58017.20
547.17	58033.58
547.34	57998.48
547.50	58169.33
547.67	58344.87
547.84	58312.11
548.00	58281.68
548.17	58546.16
548.34	58482.97
548.51	58543.82
548.67	58433.81
548.84	58307.43
549.01	58234.87
549.18	58354.24
549.34	58513.39
549.51	58635.10
549.68	58717.02
549.84	58766.17
550.01	58635.10
550.18	58756.81
550.34	58740.42
550.51	58782.55
550.68	58735.74
550.84	58637.44
551.01	58759.15
551.18	58876.18
551.34	58731.06
551.51	58866.81
551.68	58773.19
551.84	58911.28
552.01	58628.08
552.18	59051.72
552.34	58866.81
552.51	59105.55
552.68	58782.55
552.84	58981.50
553.01	59196.83
553.18	59355.99
553.34	59173.42
553.51	58981.50
553.67	59398.12
553.84	59091.51
554.01	59180.45
554.17	59346.62
554.34	59419.18
554.51	59224.92
554.67	59524.50
554.84	59278.75
555.00	59220.23
555.17	59311.52
555.33	59189.81
555.50	59355.99
555.67	59487.06
555.83	59311.52
556.00	59428.54
556.16	59639.19
556.33	59571.32
556.50	59456.63
556.66	59742.17
556.83	59543.23
556.99	59554.93
557.16	59636.85
557.32	59657.91
557.49	59772.60
557.65	59779.62
557.82	59723.45
557.98	59576.00
558.15	59709.41
558.32	59723.45
558.48	59604.08
558.65	59812.39
558.81	59671.96
558.98	59807.71
559.14	59959.84
559.31	60020.70
559.47	60006.65
559.64	59922.40
559.80	60041.76
559.97	60135.38
560.13	60067.51
560.30	59992.61
560.46	59969.21
560.63	59990.27
560.79	60053.47
560.96	60100.28
561.12	60250.07
561.29	60102.62
561.45	60114.32
561.61	60027.72
561.78	59952.82
561.94	60289.86
562.11	60032.40
562.27	60111.98
562.44	60261.77
562.60	60376.46
562.77	60322.63
562.93	60196.24
563.10	60179.85
563.26	60097.94
563.42	60467.74
563.59	60264.11
563.75	60474.76
563.92	60287.52
564.08	60343.69
564.24	60502.85
564.41	60364.76
564.57	60413.91
564.74	60662.00
564.90	60434.97
565.07	60357.74
565.23	60427.95
565.39	60147.09
565.56	60481.78
565.72	60488.80
565.88	60523.91
566.05	60427.95
566.21	60509.87
566.38	60392.84
566.54	60554.34
566.70	60757.97
566.87	60619.88
567.03	60423.27
567.19	60671.37
567.36	60547.32
567.52	60631.58
567.68	60727.54
567.85	60601.15
568.01	60664.35
568.17	60650.30
568.34	60849.25
568.50	60512.21
568.66	60495.83
568.83	60556.68
568.99	60596.47
569.15	60566.04
569.32	60617.53
569.48	60697.11
569.64	60647.96
569.81	60842.23
569.97	60647.96
570.13	60725.20
570.30	60552.00
570.46	60617.53
570.62	60816.48
570.78	60654.98
570.95	60788.39
571.11	60921.80
571.27	60676.05
571.43	60715.84
571.60	60795.42
571.76	60867.97
571.92	60919.46
572.09	60783.71
572.25	60741.58
572.41	60732.22
572.57	60903.08
572.74	61083.30
572.90	60753.29
573.06	60893.72
573.22	60753.29
573.38	60624.56
573.55	60896.06
573.71	60938.19
573.87	60933.51
574.03	60683.07
574.20	60891.38
574.36	60900.74
574.52	60907.76
574.68	61132.45
574.84	60999.04
575.01	61078.62
575.17	61041.17
575.33	60781.37
575.49	61050.53
575.65	60985.00
575.82	60945.21
575.98	61155.86
576.14	60945.21
576.30	60992.02
576.46	60748.60
576.62	61097.34
576.79	61078.62
576.95	60853.93
577.11	60977.98
577.27	61038.83
577.43	61226.07
577.59	60884.36
577.75	61022.45
577.92	60715.84
578.08	61020.11
578.24	61073.94
578.40	61265.86
578.56	61153.52
578.72	61034.15
578.88	61045.85
579.04	61359.48
579.21	61193.31
579.37	61247.14
579.53	61265.86
579.69	60952.23
579.85	61427.36
580.01	61113.73
580.17	60975.64
580.33	61270.54
580.49	61291.61
580.65	61111.39
580.82	60879.67
580.98	61083.30
581.14	60917.12
581.30	61244.80
581.46	61205.01
581.62	61272.88
581.78	61221.39
581.94	61188.63
582.10	61174.58
582.26	61284.59
582.42	61132.45
582.58	61261.18
582.74	61146.50
582.90	61167.56
583.06	61272.88
583.22	61073.94
583.38	61134.79
583.54	61310.33
583.70	61214.37
583.86	61375.87
584.02	61212.03
584.18	61420.34
584.34	61226.07
584.50	61235.44
584.66	61064.58
584.82	61029.47
584.98	61347.78
585.14	61158.20
585.30	61013.08
585.46	61153.52
585.62	61492.89
585.78	61258.84
585.94	61247.14
586.10	61354.80
586.26	61410.98
586.42	61263.52
586.58	61233.10
586.74	61364.17
586.90	61249.48
587.06	61169.90
587.22	61190.97
587.38	61403.95
587.54	61551.41
587.70	61432.04
587.86	61282.25
588.02	61511.62
588.18	61520.98
588.34	61291.61
588.49	61261.18
