SpectraSuite Data File
++++++++++++++++++++++++++++++++++++
Date: Fri Oct 25 10:48:02 EDT 2013
User: price-jones
Dark Spectrum Present: No
Reference Spectrum Present: No
Number of Sampled Component Spectra: 1
Spectrometers: USB2+H05261
Integration Time (usec): 100000 (USB2+H05261)
Spectra Averaged: 1 (USB2+H05261)
Boxcar Smoothing: 0 (USB2+H05261)
Correct for Electrical Dark: No (USB2+H05261)
Strobe/Lamp Enabled: No (USB2+H05261)
Correct for Detector Non-linearity: No (USB2+H05261)
Correct for Stray Light: No (USB2+H05261)
Number of Pixels in Processed Spectrum: 2048
>>>>>Begin Processed Spectral Data<<<<<
365.73	135.75
365.92	135.75
366.12	135.75
366.32	72.56
366.52	56.17
366.72	30.43
366.91	53.83
367.11	0.00
367.31	11.70
367.51	65.54
367.70	51.49
367.90	63.19
368.10	37.45
368.30	46.81
368.49	60.85
368.69	30.43
368.89	88.94
369.09	93.62
369.28	84.26
369.48	67.88
369.68	51.49
369.87	110.01
370.07	65.54
370.27	156.82
370.47	135.75
370.66	414.27
370.86	395.55
371.06	486.83
371.25	470.45
371.45	430.66
371.65	533.64
371.84	454.06
372.04	407.25
372.24	477.47
372.44	505.56
372.63	470.45
372.83	435.34
373.03	503.22
373.22	489.17
373.42	435.34
373.62	535.98
373.81	423.64
374.01	557.05
374.21	486.83
374.40	507.90
374.60	552.37
374.79	519.60
374.99	610.88
375.19	566.41
375.38	585.13
375.58	566.41
375.78	550.03
375.97	585.13
376.17	631.94
376.37	517.26
376.56	566.41
376.76	580.45
376.95	521.94
377.15	557.05
377.35	681.10
377.54	585.13
377.74	599.18
377.93	631.94
378.13	634.29
378.33	685.78
378.52	585.13
378.72	688.12
378.91	667.05
379.11	650.67
379.31	645.99
379.50	615.56
379.70	608.54
379.89	627.26
380.09	603.86
380.28	596.84
380.48	617.90
380.68	690.46
380.87	655.35
381.07	636.63
381.26	718.54
381.46	606.20
381.65	760.67
381.85	634.29
382.04	681.10
382.24	657.69
382.43	655.35
382.63	690.46
382.83	697.48
383.02	697.48
383.22	800.46
383.41	667.05
383.61	683.44
383.80	697.48
384.00	718.54
384.19	674.07
384.39	814.51
384.58	706.84
384.78	835.57
384.97	767.70
385.17	730.25
385.36	777.06
385.56	746.63
385.75	802.80
385.95	695.14
386.14	807.48
386.34	835.57
386.53	739.61
386.72	734.93
386.92	861.32
387.11	835.57
387.31	791.10
387.50	784.08
387.70	814.51
387.89	809.83
388.09	741.95
388.28	781.74
388.48	823.87
388.67	870.68
388.86	903.45
389.06	868.34
389.25	842.59
389.45	863.66
389.64	929.19
389.84	849.61
390.03	929.19
390.22	933.87
390.42	873.02
390.61	922.17
390.81	866.00
391.00	901.11
391.19	1032.18
391.39	1022.81
391.58	950.26
391.78	861.32
391.97	945.58
392.16	968.98
392.36	1011.11
392.55	1015.79
392.75	919.83
392.94	976.00
393.13	994.73
393.33	931.53
393.52	1001.75
393.71	997.07
393.91	997.07
394.10	997.07
394.29	1011.11
394.49	1006.43
394.68	1076.65
394.88	1071.97
395.07	1123.46
395.26	1158.57
395.46	1041.54
395.65	1043.88
395.84	1095.37
396.04	1109.41
396.23	1078.99
396.42	1060.26
396.62	1102.39
396.81	1114.10
397.00	1111.75
397.19	1163.25
397.39	1214.74
397.58	1245.16
397.77	1217.08
397.97	1219.42
398.16	1221.76
398.35	1301.34
398.55	1282.61
398.74	1235.80
398.93	1350.49
399.12	1390.28
399.32	1320.06
399.51	1324.74
399.70	1345.81
399.90	1317.72
400.09	1394.96
400.28	1355.17
400.47	1469.86
400.67	1418.36
400.86	1387.94
401.05	1348.15
401.24	1455.81
401.44	1551.78
401.63	1509.65
401.82	1462.83
402.01	1507.30
402.21	1521.35
402.40	1451.13
402.59	1535.39
402.78	1530.71
402.97	1432.41
403.17	1600.93
403.36	1631.35
403.55	1638.38
403.74	1549.43
403.93	1502.62
404.13	1710.93
404.32	1586.88
404.51	1575.18
404.70	1621.99
404.89	1696.89
405.09	1668.80
405.28	1680.50
405.47	1781.15
405.66	1689.87
405.85	1680.50
406.05	1666.46
406.24	1813.92
406.43	1816.26
406.62	1839.66
406.81	1909.88
407.00	1863.07
407.20	1680.50
407.39	1736.68
407.58	1860.73
407.77	1902.86
407.96	1944.99
408.15	1921.58
408.34	1944.99
408.54	1893.49
408.73	1865.41
408.92	1914.56
409.11	1907.54
409.30	1940.30
409.49	2118.18
409.68	1935.62
409.87	1966.05
410.07	2099.46
410.26	2017.54
410.45	1966.05
410.64	2057.33
410.83	2186.06
411.02	2129.89
411.21	2202.44
411.40	2286.70
411.59	2253.94
411.78	2256.28
411.98	2258.62
412.17	2408.41
412.36	2326.49
412.55	2338.20
412.74	2562.89
412.93	2382.67
413.12	2298.41
413.31	2539.48
413.50	2345.22
413.69	2401.39
413.88	2462.24
414.07	2544.16
414.26	2569.91
414.45	2605.02
414.64	2593.31
414.83	2569.91
415.02	2684.59
415.22	2597.99
415.41	2708.00
415.60	2724.38
415.79	2740.77
415.98	2782.90
416.17	2808.64
416.36	2808.64
416.55	2820.35
416.74	2937.37
416.93	2902.26
417.12	2944.39
417.31	2778.22
417.50	2925.67
417.69	2956.10
417.88	2902.26
418.07	2967.80
418.26	2937.37
418.45	3103.55
418.64	3211.22
418.83	3049.72
419.02	3185.47
419.21	3185.47
419.39	3131.64
419.58	3229.94
419.77	3042.70
419.96	3155.04
420.15	3204.19
420.34	3145.68
420.53	3276.75
420.72	3332.92
420.91	3290.79
421.10	3372.71
421.29	3435.91
421.48	3211.22
421.67	3442.93
421.86	3384.41
422.05	3506.12
422.24	3368.03
422.43	3201.85
422.61	3501.44
422.80	3344.63
422.99	3295.47
423.18	3524.85
423.37	3541.23
423.56	3531.87
423.75	3478.04
423.94	3517.83
424.13	3241.64
424.32	3407.82
424.50	3442.93
424.69	3606.77
424.88	3513.14
425.07	3431.23
425.26	3506.12
425.45	3522.51
425.64	3531.87
425.83	3442.93
426.01	3545.91
426.20	3398.46
426.39	3674.64
426.58	3471.01
426.77	3496.76
426.96	3559.95
427.15	3569.32
427.33	3604.42
427.52	3510.80
427.71	3653.58
427.90	3667.62
428.09	3796.35
428.28	3651.24
428.46	3686.34
428.65	3592.72
428.84	3702.73
429.03	3730.81
429.22	3719.11
429.40	3836.14
429.59	3758.90
429.78	3529.53
429.97	3515.48
430.16	3798.69
430.34	3754.22
430.53	3756.56
430.72	3838.48
430.91	3822.09
431.10	3805.71
431.28	4004.66
431.47	4053.81
431.66	4098.28
431.85	4070.19
432.03	4074.87
432.22	4173.18
432.41	4196.58
432.60	4023.38
432.79	4065.51
432.97	4229.35
433.16	4145.09
433.35	4175.52
433.54	4131.05
433.72	4227.01
433.91	4227.01
434.10	4355.74
434.28	4194.24
434.47	4208.28
434.66	4358.08
434.85	4315.95
435.03	4425.95
435.22	4236.37
435.41	4435.32
435.59	4358.08
435.78	4435.32
435.97	4500.85
436.16	4578.09
436.34	4493.83
436.53	4496.17
436.72	4491.49
436.90	4589.79
437.09	4496.17
437.28	4496.17
437.46	4660.01
437.65	4629.58
437.84	4713.84
438.02	4627.24
438.21	4608.51
438.40	4631.92
438.58	4613.20
438.77	4795.76
438.96	4697.46
439.14	5015.77
439.33	4957.25
439.52	4980.66
439.70	5046.20
439.89	4990.02
440.08	5172.58
440.26	5090.67
440.45	5114.07
440.63	5179.61
440.82	5144.50
441.01	5217.05
441.19	5268.55
441.38	5221.74
441.57	5369.19
441.75	5345.78
441.94	5490.90
442.12	5385.57
442.31	5673.46
442.50	5547.07
442.68	5537.71
442.87	5643.03
443.05	5593.88
443.24	5748.36
443.43	5586.86
443.61	5692.18
443.80	5858.36
443.98	5509.62
444.17	5317.70
444.35	5863.04
444.54	5734.31
444.73	5617.29
444.91	5640.69
445.10	5703.89
445.28	5795.17
445.47	5561.11
445.65	5692.18
445.84	5664.10
446.02	5849.00
446.21	5788.14
446.39	5865.38
446.58	5778.78
446.77	5888.79
446.95	5713.25
447.14	5959.00
447.32	5970.71
447.51	5921.56
447.69	5905.17
447.88	5886.45
448.06	6106.46
448.25	5891.13
448.43	5844.32
448.62	5940.28
448.80	5863.04
448.99	5947.30
449.17	6160.29
449.36	5912.19
449.54	6216.46
449.73	6174.33
449.91	6099.44
450.10	6167.31
450.28	6448.18
450.46	6314.77
450.65	6333.49
450.83	6200.08
451.02	6270.30
451.20	6270.30
451.39	6263.27
451.57	6244.55
451.76	6080.71
451.94	6328.81
452.13	6450.52
452.31	6256.25
452.49	6312.42
452.68	6354.55
452.86	6279.66
453.05	6408.39
453.23	6384.98
453.42	6457.54
453.60	6338.17
453.78	6595.63
453.97	6338.17
454.15	6530.09
454.34	6406.05
454.52	6628.40
454.70	6817.98
454.89	6700.95
455.07	6717.34
455.26	6635.42
455.44	6897.56
455.62	6745.42
455.81	6906.92
455.99	6986.50
456.17	6906.92
456.36	6979.48
456.54	6942.03
456.73	7007.56
456.91	7117.57
457.09	7122.25
457.28	7030.97
457.46	7110.55
457.64	7262.68
457.83	7260.34
458.01	7119.91
458.19	7531.84
458.38	6958.41
458.56	7276.73
458.74	7339.92
458.93	7407.80
459.11	7332.90
459.29	7393.75
459.48	7515.46
459.66	7288.43
459.84	7379.71
460.03	7581.00
460.21	7613.76
460.39	7634.83
460.57	7346.94
460.76	7658.23
460.94	7761.22
461.12	7583.34
461.31	7569.29
461.49	7676.96
461.67	7709.72
461.85	7695.68
462.04	7683.98
462.22	8180.17
462.40	8114.64
462.59	7761.22
462.77	7812.71
462.95	7831.43
463.13	7801.01
463.32	7927.39
463.50	7960.16
463.68	7976.55
463.86	7826.75
464.05	8065.49
464.23	8212.94
464.41	8140.38
464.59	7882.92
464.78	8126.34
464.96	8142.72
465.14	7932.08
465.32	7887.61
465.50	8376.78
465.69	8177.83
465.87	8360.39
466.05	8184.85
466.23	8226.98
466.41	8273.79
466.60	8280.82
466.78	8273.79
466.96	8299.54
467.14	8100.59
467.32	8264.43
467.51	8374.44
467.69	8257.41
467.87	8346.35
468.05	8461.04
468.23	8248.05
468.41	8461.04
468.60	8439.97
468.78	8631.90
468.96	8526.57
469.14	8613.17
469.32	8788.71
469.50	8545.30
469.69	8517.21
469.87	8648.28
470.05	8809.78
470.23	8966.59
470.41	8709.13
470.59	8919.78
470.77	8613.17
470.95	8870.63
471.14	9053.19
471.32	9034.47
471.50	9195.96
471.68	9179.58
471.86	9240.44
472.04	9083.62
472.22	9226.39
472.40	9071.92
472.58	9446.40
472.77	9116.39
472.95	9432.36
473.13	9748.33
473.31	9514.28
473.49	9378.53
473.67	9570.45
473.85	9518.96
474.03	9715.56
474.21	9694.50
474.39	9942.60
474.57	9909.83
474.75	10024.51
474.93	10036.22
475.12	9860.68
475.30	10022.17
475.48	9935.57
475.66	10125.16
475.84	10024.51
476.02	10104.09
476.20	10370.91
476.38	10642.42
476.56	10579.22
476.74	10635.39
476.92	10476.24
477.10	10516.03
477.28	10729.02
477.46	10792.21
477.64	11054.35
477.82	11082.44
478.00	11047.33
478.18	11185.42
478.36	11215.85
478.54	11269.68
478.72	11229.89
478.90	11513.10
479.08	11705.02
479.26	11854.81
479.44	11777.58
479.62	11962.48
479.80	11885.24
479.98	12121.63
480.16	12135.68
480.34	11988.22
480.52	12421.22
480.70	12226.96
480.88	12177.81
481.06	12620.17
481.24	12540.59
481.41	12624.85
481.59	12872.95
481.77	12957.21
481.95	12891.67
482.13	13050.83
482.31	13008.70
482.49	13202.96
482.67	13535.32
482.85	13523.62
483.03	13404.25
483.21	13722.56
483.39	13724.90
483.57	13687.45
483.74	13839.59
483.92	13881.72
484.10	14080.66
484.28	14293.65
484.46	14452.81
484.64	14644.73
484.82	14352.16
485.00	14579.20
485.18	14792.19
485.35	14937.30
485.53	14731.33
485.71	14813.25
485.89	15236.89
486.07	15077.73
486.25	15300.08
486.43	15119.86
486.61	15576.27
486.78	15662.86
486.96	15702.65
487.14	16142.67
487.32	16093.52
487.50	16400.13
487.68	16404.81
487.85	16458.65
488.03	16734.83
488.21	16875.26
488.39	16872.92
488.57	16924.41
488.75	16961.86
488.92	17200.60
489.10	17415.93
489.28	17708.49
489.46	17642.96
489.64	17832.54
489.81	18038.51
489.99	18174.26
490.17	18066.60
490.35	18267.88
490.53	18375.55
490.70	18515.98
490.88	18693.86
491.06	18799.18
491.24	18986.43
491.41	18888.12
491.59	19197.07
491.77	19023.87
491.95	19183.03
492.13	19269.63
492.30	19442.83
492.48	19484.96
492.66	19510.71
492.84	19761.14
493.01	19747.10
493.19	19983.49
493.37	20318.19
493.54	20217.55
493.72	20716.08
493.90	20479.69
494.08	20657.57
494.25	20999.29
494.43	21034.39
494.61	21013.33
494.79	21055.46
494.96	20971.20
495.14	21273.13
495.32	21598.46
495.49	21490.80
495.67	21273.13
495.85	21886.35
496.02	21722.51
496.20	21783.37
496.38	22047.85
496.55	21975.29
496.73	22373.18
496.91	22331.05
497.09	22726.60
497.26	22558.08
497.44	22579.15
497.62	22845.97
497.79	22993.42
497.97	22675.11
498.14	23344.50
498.32	23302.37
498.50	23325.78
498.67	23442.81
498.85	23517.70
499.03	24056.03
499.20	23796.23
499.38	24109.86
499.56	23695.58
499.73	24472.64
499.91	23845.38
500.08	24315.83
500.26	24311.14
500.44	24151.99
500.61	24542.86
500.79	24559.24
500.97	24599.03
501.14	24795.64
501.32	24812.02
501.49	24737.12
501.67	24870.53
501.84	25015.65
502.02	25275.45
502.20	25043.73
502.37	25322.26
502.55	25584.40
502.72	25418.22
502.90	25404.17
503.07	25586.74
503.25	25628.87
503.43	25441.62
503.60	25916.75
503.78	25944.84
503.95	25914.41
504.13	26352.09
504.30	25991.65
504.48	25879.30
504.65	26515.93
504.83	26457.42
505.01	26778.07
505.18	26548.70
505.36	26431.67
505.53	27129.15
505.71	27278.94
505.88	26993.40
506.06	26635.30
506.23	27192.34
506.41	26827.22
506.58	27096.38
506.76	27461.51
506.93	27398.31
507.11	27412.35
507.28	27527.04
507.46	27934.29
507.63	27414.69
507.81	28203.46
507.98	28116.86
508.16	27381.93
508.33	28212.82
508.50	28128.56
508.68	28273.67
508.85	28463.25
509.03	28304.10
509.20	28596.67
509.38	28573.26
509.55	29111.58
509.73	28528.79
509.90	28929.02
510.08	28788.59
510.25	28936.04
510.42	28783.91
510.60	29158.39
510.77	29329.25
510.95	29418.19
511.12	29151.37
511.30	29509.47
511.47	29722.46
511.64	29858.21
511.82	29694.38
511.99	29579.69
512.17	29748.21
512.34	29612.46
512.51	30136.74
512.69	30546.33
512.86	30403.56
513.04	30279.51
513.21	30015.03
513.38	30260.79
513.56	30157.80
513.73	30326.32
513.90	30487.82
514.08	30237.38
514.25	30658.68
514.43	30658.68
514.60	30742.94
514.77	30738.26
514.95	30991.03
515.12	30803.79
515.29	30871.67
515.47	31065.93
515.64	31632.34
515.81	31215.72
515.99	31042.53
516.16	31014.44
516.33	31550.42
516.51	31323.39
516.68	31262.54
516.85	31072.95
517.03	31564.46
517.20	31662.77
517.37	31681.49
517.54	31784.48
517.72	31960.02
517.89	32116.83
518.06	31683.83
518.24	31995.12
518.41	31945.97
518.58	32086.40
518.75	32013.85
518.93	32437.48
519.10	32163.64
519.27	32570.90
519.45	32229.18
519.62	32746.44
519.79	32680.90
519.96	32959.42
520.14	33247.31
520.31	33160.71
520.48	33331.57
520.65	33050.70
520.83	33273.06
521.00	33202.84
521.17	33535.20
521.34	33488.38
521.52	33111.56
521.69	33577.33
521.86	33635.84
522.03	33570.30
522.20	33525.83
522.38	34000.96
522.55	34134.37
522.72	33879.25
522.89	33535.20
523.07	33780.95
523.24	34092.24
523.41	34330.98
523.58	34213.95
523.75	34597.80
523.92	34476.09
524.10	34366.09
524.27	34497.16
524.44	34569.71
524.61	34932.50
524.78	34637.59
524.96	34864.62
525.13	34810.79
525.30	34918.45
525.47	35407.62
525.64	34932.50
525.81	35339.75
525.98	35353.79
526.16	35077.61
526.33	34827.17
526.50	35463.80
526.67	34946.54
526.84	35140.80
527.01	35072.93
527.18	35229.74
527.36	35529.33
527.53	35938.93
527.70	36030.21
527.87	36231.49
528.04	35543.38
528.21	35920.20
528.38	35913.18
528.55	36126.17
528.72	35758.70
528.89	36023.19
529.07	36208.09
529.24	35756.36
529.41	36175.32
529.58	35988.08
529.75	36285.33
529.92	36524.06
530.09	35964.67
530.26	36453.84
530.43	36715.98
530.60	36020.84
530.77	36631.72
530.94	36879.82
531.11	36903.23
531.28	37062.38
531.46	37174.73
531.63	36783.86
531.80	36910.25
531.97	37001.53
532.14	36851.73
532.31	36613.00
532.48	37457.93
532.65	37244.94
532.82	37120.90
532.99	37399.42
533.16	36945.36
533.33	37291.76
533.50	37783.27
533.67	37635.81
533.84	37467.30
534.01	37727.10
534.18	37462.61
534.35	37710.71
534.52	37848.80
534.69	37837.10
534.86	37841.78
535.03	37633.47
535.20	37727.10
535.37	38139.03
535.54	38380.10
535.71	38080.52
535.88	38136.69
536.05	38403.51
536.22	38080.52
536.38	38110.94
536.55	38064.13
536.72	38398.83
536.89	37965.83
537.06	37926.04
537.23	39005.03
537.40	38127.33
537.57	38469.04
537.74	38644.59
537.91	38820.13
538.08	38504.15
538.25	38562.67
538.42	38440.96
538.59	38986.30
538.75	38490.11
538.92	39239.08
539.09	39456.75
539.26	39292.91
539.43	39119.71
539.60	38724.16
539.77	38742.89
539.94	39007.37
540.11	39449.73
540.28	39325.68
540.44	38829.49
540.61	39234.40
540.78	38880.98
540.95	39384.19
541.12	39325.68
541.29	39342.06
541.46	39309.30
541.62	39484.84
541.79	39732.93
541.96	39548.03
542.13	39541.01
542.30	40133.17
542.47	39569.10
542.63	39386.54
542.80	40245.51
542.97	39695.49
543.14	40594.25
543.31	39828.90
543.48	40376.58
543.64	40423.39
543.81	40172.96
543.98	40130.83
544.15	40519.35
544.32	40362.54
544.48	40643.40
544.65	40404.67
544.82	40463.18
544.99	40102.74
545.16	40385.94
545.32	40694.89
545.49	40884.48
545.66	40767.45
545.83	40769.79
546.00	40718.30
546.16	40669.15
546.33	40842.35
546.50	40371.90
546.67	40332.11
546.83	40446.80
547.00	41177.04
547.17	41067.04
547.34	40935.97
547.50	41186.41
547.67	41439.18
547.84	41106.83
548.00	41251.94
548.17	41233.22
548.34	41226.20
548.51	41560.89
548.67	41638.13
548.84	41434.50
549.01	41378.33
549.18	41818.35
549.34	41593.66
549.51	41642.81
549.68	41731.75
549.84	41581.96
550.01	41792.61
550.18	41258.96
550.34	41373.65
550.51	41808.99
550.68	41478.97
550.84	41141.94
551.01	41481.31
551.18	41659.20
551.34	41837.08
551.51	41366.63
551.68	42106.24
551.84	42422.21
552.01	41469.61
552.18	41586.64
552.34	41687.28
552.51	42209.22
552.68	42005.59
552.84	42258.37
553.01	42382.42
553.18	41982.19
553.34	42000.91
553.51	42068.79
553.67	42476.04
553.84	42646.90
554.01	42562.64
554.17	42721.80
554.34	42644.56
554.51	42499.45
554.67	42539.24
554.84	42483.06
555.00	42281.78
555.17	42665.63
555.33	42457.32
555.50	42564.98
555.67	42775.63
555.83	42803.72
556.00	42508.81
556.16	43365.45
556.33	43058.84
556.50	43168.84
556.66	42864.57
556.83	42497.11
556.99	43318.64
557.16	43028.41
557.32	43009.68
557.49	43033.09
557.65	42986.28
557.82	42887.98
557.98	42986.28
558.15	42899.68
558.32	43079.90
558.48	43283.53
558.65	43227.35
558.81	42909.04
558.98	43349.06
559.14	42906.70
559.31	42726.48
559.47	43428.64
559.64	43285.87
559.80	43583.12
559.97	43323.32
560.13	42859.89
560.30	43648.65
560.46	43328.00
560.63	43215.65
560.79	43421.62
560.96	42887.98
561.12	43227.35
561.29	43840.57
561.45	43704.82
561.61	43658.01
561.78	43555.03
561.94	43236.72
562.11	43346.72
562.27	43405.23
562.44	43281.19
562.60	43426.30
562.77	43674.40
562.93	43416.94
563.10	44020.80
563.26	43075.22
563.42	43564.39
563.59	43667.37
563.75	43419.28
563.92	43955.26
564.08	43426.30
564.24	43662.69
564.41	43653.33
564.57	43552.69
564.74	43625.25
564.90	43763.34
565.07	43571.41
565.23	43833.55
565.39	43828.87
565.56	43997.39
565.72	43789.08
565.88	43779.72
566.05	43803.13
566.21	43660.35
566.38	43459.07
566.54	43482.47
566.70	43728.23
566.87	44175.27
567.03	43625.25
567.19	44156.55
567.36	44327.41
567.52	43770.36
567.68	43983.35
567.85	43878.02
568.01	43758.66
568.17	43498.86
568.34	43807.81
568.50	43742.27
568.66	43737.59
568.83	43838.23
568.99	43536.30
569.15	43896.75
569.32	43952.92
569.48	43871.00
569.64	43964.62
569.81	44065.27
569.97	43842.92
570.13	43793.76
570.30	43585.46
570.46	43641.63
570.62	44116.76
570.78	43742.27
570.95	43730.57
571.11	44163.57
571.27	43964.62
571.43	43969.30
571.60	44296.98
571.76	44095.69
571.92	44100.37
572.09	43849.94
572.25	44053.56
572.41	43800.79
572.57	44285.28
572.74	44858.71
572.90	44577.84
573.06	44095.69
573.22	44243.15
573.38	44044.20
573.55	44168.25
573.71	44182.29
573.87	43992.71
574.03	44018.46
574.20	44013.77
574.36	44311.02
574.52	44030.16
574.68	44170.59
574.84	44327.41
575.01	44142.50
575.17	44116.76
575.33	43959.94
575.49	44224.42
575.65	44287.62
575.82	44421.03
575.98	44156.55
576.14	44318.04
576.30	44102.71
576.46	43973.98
576.62	43966.96
576.79	44259.53
576.95	43917.81
577.11	44271.23
577.27	44076.97
577.43	44336.77
577.59	44198.68
577.75	44205.70
577.92	44009.09
578.08	43973.98
578.24	44016.11
578.40	44112.08
578.56	44493.58
578.72	44198.68
578.88	44722.96
579.04	44638.70
579.21	44528.69
579.37	43882.70
579.53	44098.03
579.69	44168.25
579.85	44437.41
580.01	44184.63
580.17	44758.06
580.33	44767.43
580.49	44587.21
580.65	44552.10
580.82	44479.54
580.98	44701.89
581.14	43938.88
581.30	44098.03
581.46	44425.71
581.62	44421.03
581.78	44320.38
581.94	44727.64
582.10	44505.29
582.26	44781.47
582.42	44722.96
582.58	44320.38
582.74	44622.31
582.90	44566.14
583.06	44641.04
583.22	44638.70
583.38	44683.17
583.54	44390.60
583.70	43871.00
583.86	44603.59
584.02	44030.16
584.18	44545.08
584.34	43957.60
584.50	44547.42
584.66	44208.04
584.82	44100.37
584.98	44507.63
585.14	44795.51
585.30	44608.27
585.46	44809.56
585.62	44353.15
585.78	44325.07
585.94	43985.69
586.10	44430.39
586.26	44170.59
586.42	44453.79
586.58	44406.98
586.74	44587.21
586.90	44165.91
587.06	44135.48
587.22	44617.63
587.38	44540.39
587.54	44872.75
587.70	44849.35
587.86	44746.36
588.02	44701.89
588.18	44942.97
588.34	44409.32
588.49	44367.20
588.65	44465.50
588.81	44238.47
588.97	44584.86
589.13	44343.79
589.29	43952.92
589.45	44311.02
589.61	44381.24
589.77	44634.02
589.93	44701.89
590.08	44348.47
590.24	44516.99
