SpectraSuite Data File
++++++++++++++++++++++++++++++++++++
Date: Fri Oct 25 11:34:01 EDT 2013
User: price-jones
Dark Spectrum Present: No
Reference Spectrum Present: No
Number of Sampled Component Spectra: 1
Spectrometers: USB2+H05261
Integration Time (usec): 100000 (USB2+H05261)
Spectra Averaged: 1 (USB2+H05261)
Boxcar Smoothing: 0 (USB2+H05261)
Correct for Electrical Dark: No (USB2+H05261)
Strobe/Lamp Enabled: No (USB2+H05261)
Correct for Detector Non-linearity: No (USB2+H05261)
Correct for Stray Light: No (USB2+H05261)
Number of Pixels in Processed Spectrum: 2048
>>>>>Begin Processed Spectral Data<<<<<
365.73	231.71
365.92	231.71
366.12	231.71
366.32	142.77
366.52	175.54
366.72	147.45
366.91	140.43
367.11	191.92
367.31	159.16
367.51	198.95
367.70	135.75
367.90	159.16
368.10	175.54
368.30	128.73
368.49	138.09
368.69	152.13
368.89	208.31
369.09	180.22
369.28	264.48
369.48	241.08
369.68	248.10
369.87	311.29
370.07	262.14
370.27	306.61
370.47	330.02
370.66	505.56
370.86	500.87
371.06	468.11
371.25	564.07
371.45	580.45
371.65	608.54
371.84	498.53
372.04	545.34
372.24	601.52
372.44	582.79
372.63	624.92
372.83	589.82
373.03	655.35
373.22	573.43
373.42	587.47
373.62	629.60
373.81	622.58
374.01	653.01
374.21	617.90
374.40	648.33
374.60	608.54
374.79	653.01
374.99	620.24
375.19	653.01
375.38	667.05
375.58	629.60
375.78	596.84
375.97	709.18
376.17	676.41
376.37	660.03
376.56	716.20
376.76	648.33
376.95	692.80
377.15	713.86
377.35	713.86
377.54	634.29
377.74	678.76
377.93	706.84
378.13	655.35
378.33	676.41
378.52	667.05
378.72	760.67
378.91	713.86
379.11	669.39
379.31	704.50
379.50	676.41
379.70	791.10
379.89	732.59
380.09	765.36
380.28	720.88
380.48	718.54
380.68	732.59
380.87	746.63
381.07	718.54
381.26	823.87
381.46	723.23
381.65	741.95
381.85	788.76
382.04	734.93
382.24	802.80
382.43	791.10
382.63	734.93
382.83	814.51
383.02	828.55
383.22	798.12
383.41	819.19
383.61	755.99
383.80	833.23
384.00	856.64
384.19	821.53
384.39	746.63
384.58	847.27
384.78	814.51
384.97	889.40
385.17	851.96
385.36	690.46
385.56	889.40
385.75	877.70
385.95	823.87
386.14	821.53
386.34	795.78
386.53	840.25
386.72	774.72
386.92	936.21
387.11	896.43
387.31	889.40
387.50	821.53
387.70	851.96
387.89	870.68
388.09	936.21
388.28	880.04
388.48	919.83
388.67	849.61
388.86	959.62
389.06	877.70
389.25	922.17
389.45	931.53
389.64	889.40
389.84	1013.45
390.03	945.58
390.22	1050.90
390.42	1039.20
390.61	882.38
390.81	976.00
391.00	1006.43
391.19	1022.81
391.39	978.34
391.58	999.41
391.78	1006.43
391.97	1020.47
392.16	1004.09
392.36	938.55
392.55	1018.13
392.75	1013.45
392.94	1022.81
393.13	1004.09
393.33	1034.52
393.52	1097.71
393.71	1015.79
393.91	1104.73
394.10	1025.15
394.29	1139.84
394.49	1060.26
394.68	1158.57
394.88	1109.41
395.07	1125.80
395.26	1158.57
395.46	1125.80
395.65	1174.95
395.84	1093.03
396.04	1193.67
396.23	1191.33
396.42	1184.31
396.62	1188.99
396.81	1139.84
397.00	1151.54
397.19	1196.01
397.39	1123.46
397.58	1090.69
397.77	1198.35
397.97	1348.15
398.16	1291.98
398.35	1336.45
398.55	1235.80
398.74	1343.47
398.93	1296.66
399.12	1231.12
399.32	1331.76
399.51	1294.32
399.70	1404.32
399.90	1366.87
400.09	1308.36
400.28	1380.92
400.47	1350.49
400.67	1488.58
400.86	1423.05
401.05	1299.00
401.24	1378.58
401.44	1364.53
401.63	1355.17
401.82	1446.45
402.01	1423.05
402.21	1444.11
402.40	1448.79
402.59	1493.26
402.78	1528.37
402.97	1504.96
403.17	1530.71
403.36	1549.43
403.55	1582.20
403.74	1633.69
403.93	1549.43
404.13	1610.29
404.32	1561.14
404.51	1547.09
404.70	1598.59
404.89	1551.78
405.09	1659.44
405.28	1579.86
405.47	1689.87
405.66	1743.70
405.85	1736.68
406.05	1675.82
406.24	1715.61
406.43	1732.00
406.62	1706.25
406.81	1820.94
407.00	1699.23
407.20	1764.76
407.39	1823.28
407.58	1811.57
407.77	1886.47
407.96	1900.52
408.15	1837.32
408.34	1905.20
408.54	1858.39
408.73	1952.01
408.92	1811.57
409.11	1930.94
409.30	2005.84
409.49	2017.54
409.68	1923.92
409.87	1984.77
410.07	2094.78
410.26	2003.50
410.45	1949.67
410.64	2026.90
410.83	2057.33
411.02	2092.44
411.21	2066.69
411.40	2148.61
411.59	2202.44
411.78	2214.15
411.98	2172.02
412.17	2228.19
412.36	2165.00
412.55	2200.10
412.74	2260.96
412.93	2321.81
413.12	2289.04
413.31	2424.80
413.50	2389.69
413.69	2296.07
413.88	2345.22
414.07	2431.82
414.26	2401.39
414.45	2490.33
414.64	2469.27
414.83	2572.25
415.02	2534.80
415.22	2583.95
415.41	2626.08
415.60	2679.91
415.79	2677.57
415.98	2668.21
416.17	2700.98
416.36	2644.81
416.55	2691.62
416.74	2785.24
416.93	2780.56
417.12	2897.58
417.31	2871.84
417.50	2827.37
417.69	2967.80
417.88	2864.82
418.07	2867.16
418.26	2939.71
418.45	2977.16
418.64	2986.52
418.83	3075.46
419.02	3105.89
419.21	3112.91
419.39	3007.59
419.58	2951.42
419.77	2991.20
419.96	3178.45
420.15	3267.39
420.34	3075.46
420.53	3143.34
420.72	3283.77
420.91	3311.86
421.10	3187.81
421.29	3276.75
421.48	3171.43
421.67	3176.11
421.86	3251.00
422.05	3260.37
422.24	3206.53
422.43	3272.07
422.61	3309.52
422.80	3428.88
422.99	3351.65
423.18	3339.94
423.37	3403.14
423.56	3332.92
423.75	3389.10
423.94	3267.39
424.13	3103.55
424.32	3393.78
424.50	3400.80
424.69	3454.63
424.88	3489.74
425.07	3337.60
425.26	3337.60
425.45	3293.13
425.64	3405.48
425.83	3379.73
426.01	3398.46
426.20	3372.71
426.39	3316.54
426.58	3391.44
426.77	3361.01
426.96	3447.61
427.15	3541.23
427.33	3489.74
427.52	3419.52
427.71	3419.52
427.90	3583.36
428.09	3571.66
428.28	3653.58
428.46	3590.38
428.65	3630.17
428.84	3674.64
429.03	3639.53
429.22	3684.00
429.40	3660.60
429.59	3665.28
429.78	3721.45
429.97	3602.08
430.16	3714.43
430.34	3707.41
430.53	3751.88
430.72	3957.85
430.91	3723.79
431.10	3843.16
431.28	3953.16
431.47	3833.80
431.66	3882.95
431.85	3934.44
432.03	3887.63
432.22	4023.38
432.41	3878.27
432.60	3882.95
432.79	4124.02
432.97	4124.02
433.16	4011.68
433.35	4065.51
433.54	4044.45
433.72	4227.01
433.91	4112.32
434.10	4222.33
434.28	4100.62
434.47	4079.55
434.66	4102.96
434.85	4280.84
435.03	4297.22
435.22	4194.24
435.41	4320.63
435.59	4280.84
435.78	4266.80
435.97	4227.01
436.16	4191.90
436.34	4259.78
436.53	4496.17
436.72	4381.48
436.90	4395.53
437.09	4468.08
437.28	4348.72
437.46	4482.13
437.65	4526.60
437.84	4550.00
438.02	4587.45
438.21	4554.68
438.40	4566.39
438.58	4636.60
438.77	4711.50
438.96	4624.90
439.14	4868.31
439.33	4896.40
439.52	4990.02
439.70	4755.97
439.89	4952.57
440.08	4905.76
440.26	4975.98
440.45	4929.17
440.63	4966.62
440.82	5095.35
441.01	4924.49
441.19	5125.77
441.38	5247.48
441.57	5198.33
441.75	5305.99
441.94	5308.34
442.12	5453.45
442.31	5228.76
442.50	5523.66
442.68	5401.96
442.87	5502.60
443.05	5465.15
443.24	5490.90
443.43	5303.65
443.61	5593.88
443.80	5645.37
443.98	5444.09
444.17	5259.18
444.35	5561.11
444.54	5427.70
444.73	5500.26
444.91	5530.69
445.10	5746.02
445.28	5743.67
445.47	5479.19
445.65	5633.67
445.84	5570.48
446.02	5502.60
446.21	5675.80
446.39	5647.71
446.58	5760.06
446.77	5750.70
446.95	5710.91
447.14	5575.16
447.32	5668.78
447.51	5481.53
447.69	5820.91
447.88	5647.71
448.06	5734.31
448.25	5818.57
448.43	5785.80
448.62	5701.54
448.80	5778.78
448.99	5767.08
449.17	5809.21
449.36	5860.70
449.54	5748.36
449.73	6026.88
449.91	6064.33
450.10	6134.54
450.28	6033.90
450.46	6012.84
450.65	5951.98
450.83	5991.77
451.02	5888.79
451.20	6181.35
451.39	6265.61
451.57	5963.68
451.76	5998.79
451.94	6101.78
452.13	6193.06
452.31	6164.97
452.49	5982.41
452.68	6258.59
452.86	6480.94
453.05	6120.50
453.23	6324.13
453.42	6174.33
453.60	6160.29
453.78	6373.28
453.97	6303.06
454.15	6253.91
454.34	6462.22
454.52	6434.13
454.70	6349.87
454.89	6373.28
455.07	6368.60
455.26	6647.12
455.44	6487.96
455.62	6443.49
455.81	6441.15
455.99	6644.78
456.17	6764.15
456.36	6766.49
456.54	6703.29
456.73	6796.92
456.91	7059.06
457.09	6960.75
457.28	7073.10
457.46	6724.36
457.64	6958.41
457.83	7098.84
458.01	6754.79
458.19	6925.65
458.38	7028.63
458.56	7215.87
458.74	6981.82
458.93	7119.91
459.11	7171.40
459.29	7274.38
459.48	7124.59
459.66	7117.57
459.84	7218.21
460.03	7473.33
460.21	7239.28
460.39	7328.22
460.57	7307.15
460.76	7372.69
460.94	7225.23
461.12	7255.66
461.31	7456.95
461.49	7368.01
461.67	7438.22
461.85	7510.78
462.04	7428.86
462.22	7850.16
462.40	7751.85
462.59	7714.41
462.77	7728.45
462.95	7730.79
463.13	7653.55
463.32	7805.69
463.50	7644.19
463.68	7857.18
463.86	7836.11
464.05	7775.26
464.23	7681.64
464.41	7927.39
464.59	7770.58
464.78	7981.23
464.96	7798.66
465.14	7810.37
465.32	7925.05
465.50	7889.95
465.69	7798.66
465.87	8124.00
466.05	7941.44
466.23	7997.61
466.41	8128.68
466.60	8231.66
466.78	7927.39
466.96	8170.81
467.14	8079.53
467.32	8219.96
467.51	8374.44
467.69	7936.76
467.87	8116.98
468.05	8421.25
468.23	8348.69
468.41	8318.26
468.60	8278.47
468.78	8514.87
468.96	8245.71
469.14	8388.48
469.32	8367.42
469.50	8219.96
469.69	8645.94
469.87	8571.04
470.05	8755.94
470.23	8793.39
470.41	8777.01
470.59	8634.24
470.77	8652.96
470.95	8531.25
471.14	8985.32
471.32	8711.47
471.50	8971.27
471.68	8943.19
471.86	8856.59
472.04	8929.14
472.22	9081.28
472.40	9008.72
472.58	9109.36
472.77	9107.02
472.95	9514.28
473.13	9600.88
473.31	9270.86
473.49	9415.98
473.67	9291.93
473.85	9317.67
474.03	9418.32
474.21	9617.26
474.39	9743.65
474.57	9635.99
474.75	9593.86
474.93	9675.77
475.12	9874.72
475.30	9916.85
475.48	9813.87
475.66	9984.73
475.84	9895.78
476.02	9973.02
476.20	10176.65
476.38	10366.23
476.56	10438.79
476.74	10525.39
476.92	10354.53
477.10	10567.52
477.28	10551.14
477.46	10586.24
477.64	10703.27
477.82	10855.40
478.00	10977.11
478.18	11124.57
478.36	10768.80
478.54	11276.70
478.72	11248.61
478.90	11164.36
479.08	11346.92
479.26	11330.53
479.44	11585.65
479.62	11494.37
479.80	11683.95
479.98	11660.55
480.16	11948.43
480.34	11915.67
480.52	11934.39
480.70	11908.65
480.88	11969.50
481.06	12074.82
481.24	12386.12
481.41	12465.69
481.59	12674.00
481.77	12755.92
481.95	12690.38
482.13	12601.44
482.31	12870.61
482.49	13074.23
482.67	13167.85
482.85	13441.70
483.03	13385.52
483.21	13266.16
483.39	13888.74
483.57	13535.32
483.74	13631.28
483.92	14026.83
484.10	13647.66
484.28	13954.27
484.46	14132.15
484.64	14455.15
484.82	14178.97
485.00	14600.26
485.18	14661.12
485.35	14956.02
485.53	14766.44
485.71	14841.34
485.89	15220.50
486.07	15108.16
486.25	15215.82
486.43	15349.23
486.61	15447.54
486.78	15524.77
486.96	15840.75
487.14	15737.76
487.32	15810.32
487.50	16051.39
487.68	16107.57
487.85	16037.35
488.03	16322.90
488.21	16446.94
488.39	16507.80
488.57	16915.05
488.75	16917.39
488.92	17074.21
489.10	17186.55
489.28	17158.47
489.46	17547.00
489.64	17558.70
489.81	17848.93
489.99	17837.22
490.17	18036.17
490.35	18314.69
490.53	18312.35
490.70	18387.25
490.88	18218.73
491.06	18565.13
491.24	18569.81
491.41	18663.43
491.59	18956.00
491.77	19009.83
491.95	19185.37
492.13	19447.51
492.30	19112.81
492.48	19131.54
492.66	19644.12
492.84	19559.86
493.01	20058.39
493.19	19763.48
493.37	19960.09
493.54	20042.01
493.72	19826.68
493.90	20451.60
494.08	20266.70
494.25	20535.86
494.43	20479.69
494.61	21041.42
494.79	20821.41
494.96	20893.96
495.14	21149.08
495.32	21563.36
495.49	21390.16
495.67	21577.40
495.85	21649.96
496.02	21617.19
496.20	22197.64
496.38	21792.73
496.55	22029.12
496.73	22455.10
496.91	22548.72
497.09	22328.71
497.26	22682.13
497.44	22223.39
497.62	22714.90
497.79	23190.03
497.97	22867.03
498.14	22991.08
498.32	23302.37
498.50	23573.88
498.67	23718.99
498.85	23531.75
499.03	23702.61
499.20	23634.73
499.38	23747.08
499.56	24011.56
499.73	24198.80
499.91	24435.19
500.08	23985.81
500.26	24240.93
500.44	24353.27
500.61	24510.09
500.79	24460.94
500.97	24582.65
501.14	25006.28
501.32	24615.41
501.49	25029.69
501.67	24877.55
501.84	25036.71
502.02	25088.20
502.20	25240.34
502.37	25542.27
502.55	25453.33
502.72	25163.10
502.90	25591.42
503.07	25359.70
503.25	25570.35
503.43	25479.07
503.60	25972.92
503.78	26045.48
503.95	26125.06
504.13	26082.93
504.30	26356.77
504.48	26293.58
504.65	26335.71
504.83	26609.55
505.01	26789.77
505.18	26906.80
505.36	26948.93
505.53	26618.91
505.71	27072.98
505.88	27058.93
506.06	26895.10
506.23	27030.85
506.41	27267.24
506.58	27428.74
506.76	27110.43
506.93	27578.53
507.11	27662.79
507.28	27742.37
507.46	27555.13
507.63	27922.59
507.81	28163.67
507.98	28130.90
508.16	28137.92
508.33	28313.46
508.50	28002.17
508.68	28357.93
508.85	28521.77
509.03	28456.23
509.20	28266.65
509.38	28800.29
509.55	29020.30
509.73	28783.91
509.90	28957.11
510.08	29174.78
510.25	28830.72
510.42	29205.20
510.60	29607.78
510.77	29322.23
510.95	29748.21
511.12	29219.25
511.30	29659.27
511.47	29633.52
511.64	29441.60
511.82	30005.67
511.99	29493.09
512.17	30190.57
512.34	30103.97
512.51	30110.99
512.69	30202.27
512.86	30646.97
513.04	30817.83
513.21	30258.45
513.38	30441.01
513.56	30646.97
513.73	30834.22
513.90	30637.61
514.08	30803.79
514.25	31082.31
514.43	30602.50
514.60	30892.73
514.77	31234.45
514.95	31058.91
515.12	30960.61
515.29	30951.24
515.47	31648.72
515.64	31620.64
515.81	31601.91
515.99	31669.79
516.16	32112.15
516.33	32238.54
516.51	31985.76
516.68	32091.09
516.85	31798.52
517.03	32456.21
517.20	31662.77
517.37	32430.46
517.54	32453.87
517.72	32521.74
517.89	32608.34
518.06	32519.40
518.24	32697.28
518.41	32369.61
518.58	32465.57
518.75	32268.97
518.93	32699.62
519.10	32556.85
519.27	33209.86
519.45	32896.23
519.62	33092.83
519.79	33111.56
519.96	33181.77
520.14	33205.18
520.31	33472.00
520.48	33610.09
520.65	33652.22
520.83	33773.93
521.00	34078.20
521.17	33745.84
521.34	33926.07
521.52	34031.39
521.69	34162.46
521.86	34398.85
522.03	34450.35
522.20	34263.10
522.38	34363.75
522.55	34616.52
522.72	34003.30
522.89	34394.17
523.07	34988.67
523.24	34780.36
523.41	34944.20
523.58	34911.43
523.75	34937.18
523.92	34913.77
524.10	34616.52
524.27	35204.00
524.44	34871.64
524.61	35199.32
524.78	35400.60
524.96	35419.33
525.13	35468.48
525.30	35782.11
525.47	35824.24
525.64	35637.00
525.81	35807.86
525.98	36086.38
526.16	35784.45
526.33	35824.24
526.50	36194.04
526.67	35721.26
526.84	35431.03
527.01	35697.85
527.18	36292.35
527.36	36044.25
527.53	36196.38
527.70	36521.72
527.87	36240.86
528.04	36463.21
528.21	36690.24
528.38	36652.79
528.55	36898.55
528.72	36699.60
528.89	36861.10
529.07	36556.83
529.24	36620.02
529.41	36795.56
529.58	36744.07
529.75	36830.67
529.92	37237.92
530.09	37404.10
530.26	37076.43
530.43	37067.06
530.60	36807.26
530.77	36830.67
530.94	37488.36
531.11	36921.95
531.28	37610.07
531.46	37560.92
531.63	37464.96
531.80	37347.93
531.97	37598.37
532.14	37668.58
532.31	37799.65
532.48	37890.93
532.65	37928.38
532.82	37893.27
532.99	37972.85
533.16	37820.72
533.33	38174.14
533.50	38522.88
533.67	38110.94
533.84	38139.03
534.01	38370.74
534.18	38052.43
534.35	38749.91
534.52	38543.94
534.69	38834.17
534.86	38450.32
535.03	38478.41
535.20	38707.78
535.37	38855.23
535.54	39140.78
535.71	38770.97
535.88	39037.80
536.05	38944.17
536.22	39009.71
536.38	39033.11
536.55	38794.38
536.72	38810.76
536.89	39253.12
537.06	39091.63
537.23	39966.99
537.40	39182.91
537.57	39529.31
537.74	39187.59
537.91	39693.15
538.08	39178.23
538.25	39267.17
538.42	39690.80
538.59	39665.06
538.75	39840.60
538.92	40067.63
539.09	39901.45
539.26	39763.36
539.43	39358.45
539.60	39737.62
539.77	40114.44
539.94	40165.93
540.11	40175.30
540.28	40041.88
540.44	40222.11
540.61	40088.70
540.78	40023.16
540.95	40215.08
541.12	40287.64
541.29	39922.52
541.46	40252.53
541.62	39985.71
541.79	40966.40
541.96	40306.37
542.13	40259.55
542.30	40615.32
542.47	40713.62
542.63	41083.42
542.80	40491.27
542.97	41153.64
543.14	41137.26
543.31	41139.60
543.48	41261.30
543.64	41448.55
543.81	41736.43
543.98	41340.88
544.15	41521.10
544.32	41830.05
544.48	41904.95
544.65	41457.91
544.82	41619.41
544.99	41624.09
545.16	41741.11
545.32	41647.49
545.49	41832.39
545.66	41804.31
545.83	41401.74
546.00	41954.10
546.16	42103.90
546.33	41879.21
546.50	41879.21
546.67	42267.73
546.83	41837.08
547.00	41951.76
547.17	41998.57
547.34	42017.30
547.50	42443.27
547.67	42597.75
547.84	42253.69
548.00	42408.17
548.17	42731.16
548.34	42639.88
548.51	42572.00
548.67	42426.89
548.84	42536.90
549.01	42691.37
549.18	42391.78
549.34	42909.04
549.51	42843.51
549.68	42625.84
549.84	42682.01
550.01	42733.50
550.18	43084.58
550.34	42871.59
550.51	43082.24
550.68	43033.09
550.84	42986.28
551.01	43159.48
551.18	42878.61
551.34	43063.52
551.51	43433.32
551.68	43452.05
551.84	43056.50
552.01	42911.38
552.18	43515.24
552.34	43430.98
552.51	43461.41
552.68	43255.44
552.84	43201.61
553.01	43655.67
553.18	43311.61
553.34	43566.73
553.51	43393.53
553.67	43412.26
553.84	43871.00
554.01	43564.39
554.17	43234.38
554.34	43508.22
554.51	43943.56
554.67	43779.72
554.84	43775.04
555.00	43693.12
555.17	43533.96
555.33	43945.90
555.50	43765.68
555.67	43817.17
555.83	43924.83
556.00	44364.85
556.16	44439.75
556.33	43880.36
556.50	44203.36
556.66	44341.45
556.83	44013.77
556.99	44648.06
557.16	44367.20
557.32	44395.28
557.49	44519.33
557.65	44102.71
557.82	44376.56
557.98	44577.84
558.15	44135.48
558.32	44821.26
558.48	44488.90
558.65	44446.77
558.81	44641.04
558.98	45020.20
559.14	44406.98
559.31	44673.81
559.47	44842.32
559.64	44343.79
559.80	44584.86
559.97	44676.15
560.13	44861.05
560.30	44828.28
560.46	45254.26
560.63	44989.78
560.79	44882.11
560.96	45162.98
561.12	45092.76
561.29	45050.63
561.45	44928.92
561.61	44952.33
561.78	44772.11
561.94	44774.45
562.11	45109.14
562.27	45301.07
562.44	45287.03
562.60	45485.97
562.77	44945.31
562.93	45207.45
563.10	45235.53
563.26	45008.50
563.42	45471.93
563.59	45308.09
563.75	45188.72
563.92	45244.90
564.08	45593.64
564.24	45635.77
564.41	45251.92
564.57	45347.88
564.74	45429.80
564.90	45193.40
565.07	45392.35
565.23	45537.46
565.39	45453.20
565.56	45621.72
565.72	45443.84
565.88	45453.20
566.05	45464.91
566.21	45364.26
566.38	45375.97
566.54	45734.07
566.70	45698.96
566.87	45619.38
567.03	45610.02
567.19	45565.55
567.36	45287.03
567.52	45392.35
567.68	45883.86
567.85	45965.78
568.01	46092.17
568.17	45474.27
568.34	46115.58
568.50	45783.22
568.66	45734.07
568.83	45591.30
568.99	46232.60
569.15	45450.86
569.32	45787.90
569.48	45528.10
569.64	45837.05
569.81	46190.47
569.97	45907.27
570.13	45635.77
570.30	46101.53
570.46	45832.37
570.62	46028.98
570.78	45731.73
570.95	45668.53
571.11	46288.77
571.27	45806.62
571.43	46337.93
571.60	45979.82
571.76	45867.48
571.92	45993.87
572.09	45989.19
572.25	45998.55
572.41	46501.76
572.57	46089.83
572.74	46464.32
572.90	45766.84
573.06	46293.46
573.22	46305.16
573.38	46066.42
573.55	45928.33
573.71	46131.96
573.87	46267.71
574.03	46607.09
574.20	46473.68
574.36	46024.29
574.52	46279.41
574.68	46431.55
574.84	46244.30
575.01	46590.70
575.17	46625.81
575.33	46356.65
575.49	46150.68
575.65	46176.43
575.82	46307.50
575.98	45989.19
576.14	46501.76
576.30	46845.82
576.46	46305.16
576.62	46305.16
576.79	46429.21
576.95	46230.26
577.11	46143.66
577.27	46389.42
577.43	46600.07
577.59	46913.70
577.75	46534.53
577.92	45867.48
578.08	46064.08
578.24	46581.34
578.40	46644.54
578.56	46230.26
578.72	46380.06
578.88	46892.63
579.04	46525.17
579.21	46302.82
579.37	46817.74
579.53	46494.74
579.69	46284.09
579.85	47070.51
580.01	46202.18
580.17	46494.74
580.33	46358.99
580.49	46579.00
580.65	46705.39
580.82	46557.94
580.98	46160.05
581.14	46333.24
581.30	47126.69
581.46	46127.28
581.62	46267.71
581.78	46178.77
581.94	46806.03
582.10	46674.96
582.26	46700.71
582.42	46834.12
582.58	46616.45
582.74	46541.55
582.90	46593.04
583.06	46890.29
583.22	46593.04
583.38	46550.91
583.54	46735.82
583.70	46660.92
583.86	46873.91
584.02	46801.35
584.18	47189.88
584.34	46658.58
584.50	46918.38
584.66	47114.98
584.82	47004.98
584.98	46756.88
585.14	46981.57
585.30	46546.23
585.46	46754.54
585.62	46801.35
585.78	46925.40
585.94	46457.29
586.10	46801.35
586.26	46518.15
586.42	46756.88
586.58	46967.53
586.74	46588.36
586.90	46651.56
587.06	46618.79
587.22	46997.96
587.38	46923.06
587.54	46756.88
587.70	47250.74
587.86	46546.23
588.02	46880.93
588.18	46927.74
588.34	46663.26
588.49	46445.59
588.65	47126.69
588.81	46976.89
588.97	46796.67
589.13	46962.85
589.29	46820.08
589.45	47246.05
589.61	47021.36
589.77	46876.25
589.93	47072.85
590.08	47173.50
