SpectraSuite Data File
++++++++++++++++++++++++++++++++++++
Date: Fri Oct 25 11:33:11 EDT 2013
User: price-jones
Dark Spectrum Present: No
Reference Spectrum Present: No
Number of Sampled Component Spectra: 1
Spectrometers: USB2+H05261
Integration Time (usec): 100000 (USB2+H05261)
Spectra Averaged: 1 (USB2+H05261)
Boxcar Smoothing: 0 (USB2+H05261)
Correct for Electrical Dark: No (USB2+H05261)
Strobe/Lamp Enabled: No (USB2+H05261)
Correct for Detector Non-linearity: No (USB2+H05261)
Correct for Stray Light: No (USB2+H05261)
Number of Pixels in Processed Spectrum: 2048
>>>>>Begin Processed Spectral Data<<<<<
365.73	358.10
365.92	358.10
366.12	358.10
366.32	189.58
366.52	215.33
366.72	159.16
366.91	170.86
367.11	217.67
367.31	194.26
367.51	205.97
367.70	234.05
367.90	227.03
368.10	161.50
368.30	166.18
368.49	231.71
368.69	198.95
368.89	191.92
369.09	229.37
369.28	189.58
369.48	159.16
369.68	241.08
369.87	250.44
370.07	159.16
370.27	201.29
370.47	362.78
370.66	493.85
370.86	507.90
371.06	524.28
371.25	580.45
371.45	505.56
371.65	599.18
371.84	493.85
372.04	599.18
372.24	629.60
372.44	613.22
372.63	561.73
372.83	629.60
373.03	547.69
373.22	592.16
373.42	578.11
373.62	594.50
373.81	671.73
374.01	676.41
374.21	580.45
374.40	641.31
374.60	629.60
374.79	634.29
374.99	699.82
375.19	676.41
375.38	657.69
375.58	674.07
375.78	645.99
375.97	674.07
376.17	695.14
376.37	622.58
376.56	657.69
376.76	643.65
376.95	685.78
377.15	709.18
377.35	650.67
377.54	730.25
377.74	617.90
377.93	657.69
378.13	653.01
378.33	713.86
378.52	732.59
378.72	744.29
378.91	737.27
379.11	779.40
379.31	706.84
379.50	709.18
379.70	842.59
379.89	748.97
380.09	692.80
380.28	671.73
380.48	779.40
380.68	741.95
380.87	716.20
381.07	744.29
381.26	802.80
381.46	779.40
381.65	732.59
381.85	777.06
382.04	774.72
382.24	830.89
382.43	767.70
382.63	645.99
382.83	770.04
383.02	758.33
383.22	800.46
383.41	793.44
383.61	884.72
383.80	809.83
384.00	912.81
384.19	767.70
384.39	908.13
384.58	781.74
384.78	784.08
384.97	791.10
385.17	807.48
385.36	800.46
385.56	830.89
385.75	753.65
385.95	826.21
386.14	786.42
386.34	819.19
386.53	842.59
386.72	856.64
386.92	903.45
387.11	903.45
387.31	898.77
387.50	842.59
387.70	882.38
387.89	807.48
388.09	891.74
388.28	915.15
388.48	866.00
388.67	945.58
388.86	884.72
389.06	880.04
389.25	940.90
389.45	910.47
389.64	926.85
389.84	992.39
390.03	1034.52
390.22	1004.09
390.42	954.94
390.61	952.60
390.81	936.21
391.00	973.66
391.19	1032.18
391.39	1039.20
391.58	1004.09
391.78	1055.58
391.97	1032.18
392.16	1011.11
392.36	1095.37
392.55	1018.13
392.75	1095.37
392.94	1064.94
393.13	1062.60
393.33	1057.92
393.52	1025.15
393.71	1041.54
393.91	1170.27
394.10	1160.91
394.29	1046.22
394.49	1174.95
394.68	1057.92
394.88	1064.94
395.07	1198.35
395.26	1219.42
395.46	1118.78
395.65	1114.10
395.84	1160.91
396.04	1245.16
396.23	1188.99
396.42	1191.33
396.62	1273.25
396.81	1160.91
397.00	1240.48
397.19	1198.35
397.39	1289.64
397.58	1413.68
397.77	1263.89
397.97	1266.23
398.16	1252.19
398.35	1317.72
398.55	1322.40
398.74	1329.42
398.93	1320.06
399.12	1240.48
399.32	1341.13
399.51	1245.16
399.70	1357.51
399.90	1336.45
400.09	1324.74
400.28	1394.96
400.47	1413.68
400.67	1430.07
400.86	1409.00
401.05	1427.73
401.24	1380.92
401.44	1476.88
401.63	1467.52
401.82	1547.09
402.01	1467.52
402.21	1462.83
402.40	1481.56
402.59	1497.94
402.78	1483.90
402.97	1661.78
403.17	1544.75
403.36	1572.84
403.55	1577.52
403.74	1624.33
403.93	1612.63
404.13	1586.88
404.32	1598.59
404.51	1565.82
404.70	1586.88
404.89	1540.07
405.09	1666.46
405.28	1582.20
405.47	1650.08
405.66	1689.87
405.85	1605.61
406.05	1675.82
406.24	1781.15
406.43	1682.85
406.62	1834.98
406.81	1724.97
407.00	1748.38
407.20	1856.04
407.39	1769.44
407.58	1872.43
407.77	1954.35
407.96	1844.34
408.15	1832.64
408.34	1898.17
408.54	1944.99
408.73	1888.81
408.92	2047.97
409.11	1996.48
409.30	2005.84
409.49	2005.84
409.68	2059.67
409.87	2022.22
410.07	2092.44
410.26	2097.12
410.45	2134.57
410.64	1994.14
410.83	2108.82
411.02	2195.42
411.21	2260.96
411.40	2169.68
411.59	2293.72
411.78	2186.06
411.98	2221.17
412.17	2317.13
412.36	2260.96
412.55	2324.15
412.74	2401.39
412.93	2403.73
413.12	2286.70
413.31	2335.85
413.50	2312.45
413.69	2401.39
413.88	2539.48
414.07	2562.89
414.26	2459.90
414.45	2504.37
414.64	2588.63
414.83	2565.23
415.02	2518.42
415.22	2649.49
415.41	2686.94
415.60	2640.12
415.79	2738.43
415.98	2799.28
416.17	2792.26
416.36	2766.51
416.55	2754.81
416.74	2843.75
416.93	2792.26
417.12	2885.88
417.31	2890.56
417.50	2920.99
417.69	2883.54
417.88	2836.73
418.07	2960.78
418.26	2979.50
418.45	3049.72
418.64	3129.30
418.83	3117.59
419.02	3075.46
419.21	3068.44
419.39	3101.21
419.58	3126.96
419.77	3112.91
419.96	3164.40
420.15	3279.09
420.34	3211.22
420.53	3141.00
420.72	3309.52
420.91	3361.01
421.10	3307.18
421.29	3351.65
421.48	3096.53
421.67	3220.58
421.86	3375.05
422.05	3236.96
422.24	3290.79
422.43	3386.76
422.61	3471.01
422.80	3499.10
422.99	3407.82
423.18	3410.16
423.37	3480.38
423.56	3440.59
423.75	3363.35
423.94	3463.99
424.13	3272.07
424.32	3297.81
424.50	3344.63
424.69	3485.06
424.88	3440.59
425.07	3370.37
425.26	3368.03
425.45	3445.27
425.64	3447.61
425.83	3492.08
426.01	3527.19
426.20	3555.27
426.39	3552.93
426.58	3447.61
426.77	3536.55
426.96	3702.73
427.15	3618.47
427.33	3538.89
427.52	3604.42
427.71	3571.66
427.90	3637.19
428.09	3700.39
428.28	3824.44
428.46	3733.15
428.65	3667.62
428.84	3763.58
429.03	3922.74
429.22	3761.24
429.40	3922.74
429.59	3840.82
429.78	3632.51
429.97	3749.54
430.16	3932.10
430.34	3840.82
430.53	3953.16
430.72	4018.70
430.91	3908.69
431.10	3885.29
431.28	3953.16
431.47	3978.91
431.66	4149.77
431.85	3941.46
432.03	4065.51
432.22	4269.14
432.41	4002.32
432.60	3981.25
432.79	4168.49
432.97	4161.47
433.16	4196.58
433.35	4037.42
433.54	4234.03
433.72	4224.67
433.91	4290.20
434.10	4346.37
434.28	4250.41
434.47	4063.17
434.66	4173.18
434.85	4301.90
435.03	4496.17
435.22	4381.48
435.41	4449.36
435.59	4320.63
435.78	4585.11
435.97	4603.83
436.16	4425.95
436.34	4547.66
436.53	4571.07
436.72	4737.24
436.90	4557.02
437.09	4645.96
437.28	4524.26
437.46	4587.45
437.65	4531.28
437.84	4660.01
438.02	4807.46
438.21	4730.22
438.40	4613.20
438.58	4842.57
438.77	4791.08
438.96	4723.20
439.14	4793.42
439.33	4931.51
439.52	4999.38
439.70	4999.38
439.89	5001.72
440.08	5114.07
440.26	5081.30
440.45	5135.14
440.63	5172.58
440.82	5275.57
441.01	5212.37
441.19	5355.15
441.38	5270.89
441.57	5214.71
441.75	5533.03
441.94	5530.69
442.12	5427.70
442.31	5458.13
442.50	5575.16
442.68	5504.94
442.87	5467.49
443.05	5657.07
443.24	5504.94
443.43	5724.95
443.61	5458.13
443.80	5638.35
443.98	5547.07
444.17	5500.26
444.35	5640.69
444.54	5914.53
444.73	5802.19
444.91	5706.23
445.10	5731.97
445.28	5640.69
445.47	5856.02
445.65	5720.27
445.84	5788.14
446.02	5722.61
446.21	5738.99
446.39	5696.86
446.58	5631.33
446.77	5710.91
446.95	5760.06
447.14	5809.21
447.32	5898.15
447.51	5844.32
447.69	5811.55
447.88	5771.76
448.06	5872.40
448.25	6017.52
448.43	5982.41
448.62	5849.00
448.80	5790.49
448.99	6010.50
449.17	5984.75
449.36	5977.73
449.54	6040.92
449.73	6183.70
449.91	6296.04
450.10	5942.62
450.28	6193.06
450.46	6092.41
450.65	6022.20
450.83	6036.24
451.02	6169.65
451.20	6345.19
451.39	6113.48
451.57	6284.34
451.76	6202.42
451.94	6188.38
452.13	6307.74
452.31	6509.03
452.49	6181.35
452.68	6179.01
452.86	6363.92
453.05	6326.47
453.23	6499.67
453.42	6387.32
453.60	6436.47
453.78	6558.18
453.97	6389.66
454.15	6455.20
454.34	6459.88
454.52	6539.46
454.70	6375.62
454.89	6544.14
455.07	6792.23
455.26	6560.52
455.44	6696.27
455.62	6750.10
455.81	6815.64
455.99	6881.18
456.17	7049.69
456.36	7026.29
456.54	6707.98
456.73	7026.29
456.91	7103.53
457.09	6995.86
457.28	7346.94
457.46	7150.34
457.64	7293.11
457.83	7096.50
458.01	7061.40
458.19	7325.88
458.38	7241.62
458.56	7253.32
458.74	7309.49
458.93	7117.57
459.11	7321.20
459.29	7180.76
459.48	7330.56
459.66	7265.02
459.84	7375.03
460.03	7611.42
460.21	7379.71
460.39	7438.22
460.57	7435.88
460.76	7595.04
460.94	7793.98
461.12	7665.25
461.31	7407.80
461.49	7578.65
461.67	7508.44
461.85	7686.32
462.04	7506.10
462.22	8175.49
462.40	7882.92
462.59	7833.77
462.77	7775.26
462.95	8032.72
463.13	7765.90
463.32	7850.16
463.50	7915.69
463.68	8091.23
463.86	8004.63
464.05	7967.18
464.23	8004.63
464.41	8205.92
464.59	7719.09
464.78	8238.69
464.96	8217.62
465.14	7967.18
465.32	8016.33
465.50	8374.44
465.69	8168.47
465.87	8081.87
466.05	8201.24
466.23	8006.97
466.41	8238.69
466.60	8306.56
466.78	8121.66
466.96	8114.64
467.14	8231.66
467.32	8414.23
467.51	8645.94
467.69	8011.65
467.87	8489.12
468.05	8482.10
468.23	8465.72
468.41	8479.76
468.60	8299.54
468.78	8554.66
468.96	8561.68
469.14	8636.58
469.32	8737.22
469.50	8423.59
469.69	8774.67
469.87	8929.14
470.05	8975.95
470.23	8753.60
470.41	8870.63
470.59	8917.44
470.77	8973.61
470.95	8854.25
471.14	9130.43
471.32	8905.74
471.50	9144.47
471.68	9205.33
471.86	9252.14
472.04	9195.96
472.22	9451.08
472.40	9303.63
472.58	9446.40
472.77	9591.52
472.95	9439.38
473.13	9806.84
473.31	9509.60
473.49	9626.62
473.67	9589.17
473.85	9699.18
474.03	9886.42
474.21	9666.41
474.39	9844.29
474.57	9788.12
474.75	10071.33
474.93	9872.38
475.12	10022.17
475.30	9994.09
475.48	10167.29
475.66	10169.63
475.84	10106.43
476.02	10204.74
476.20	10284.31
476.38	10450.49
476.56	10710.29
476.74	10516.03
476.92	10635.39
477.10	10611.99
477.28	10773.49
477.46	10979.45
477.64	10965.41
477.82	11052.01
478.00	11389.05
478.18	11159.67
478.36	11360.96
478.54	11375.00
478.72	11435.86
478.90	11609.06
479.08	11934.39
479.26	11791.62
479.44	11679.27
479.62	12095.89
479.80	11920.35
479.98	12140.36
480.16	12259.73
480.34	12297.17
480.52	12500.80
480.70	12264.41
480.88	12257.39
481.06	12465.69
481.24	12517.18
481.41	12896.35
481.59	13050.83
481.77	12884.65
481.95	13111.68
482.13	13074.23
482.31	13104.66
482.49	13357.44
482.67	13521.27
482.85	13455.74
483.03	13781.07
483.21	13991.72
483.39	13785.76
483.57	13912.14
483.74	13947.25
483.92	14057.26
484.10	14033.85
484.28	14476.21
484.46	14583.88
484.64	15009.86
484.82	14501.96
485.00	14747.72
485.18	14946.66
485.35	15094.11
485.53	15171.35
485.71	15513.07
485.89	15384.34
486.07	15590.31
486.25	15365.62
486.43	15737.76
486.61	15868.83
486.78	16044.37
486.96	16161.40
487.14	16449.28
487.32	16194.17
487.50	16606.10
487.68	16814.41
487.85	17018.04
488.03	17132.72
488.21	17319.96
488.39	17071.87
488.57	17057.82
488.75	17329.33
488.92	17483.80
489.10	17612.53
489.28	17710.83
489.46	18008.08
489.64	18279.58
489.81	18253.84
489.99	18146.17
490.17	18480.87
490.35	19016.85
490.53	18750.03
490.70	18883.44
490.88	18771.10
491.06	19082.39
491.24	19248.57
491.41	19248.57
491.59	19281.33
491.77	19421.77
491.95	19697.95
492.13	19843.06
492.30	19805.61
492.48	20034.99
492.66	20074.77
492.84	20205.84
493.01	20470.33
493.19	20280.74
493.37	20620.12
493.54	20774.60
493.72	20968.86
493.90	20727.78
494.08	20601.40
494.25	21221.64
494.43	21018.01
494.61	21474.42
494.79	21640.59
494.96	21371.43
495.14	21699.11
495.32	22036.14
495.49	21865.28
495.67	21755.28
495.85	22202.32
496.02	22415.31
496.20	22677.45
496.38	22752.35
496.55	22480.85
496.73	23225.14
496.91	23269.61
497.09	23255.56
497.26	23138.54
497.44	23360.89
497.62	23777.50
497.79	23555.15
497.97	23550.47
498.14	23697.92
498.32	24034.96
498.50	23618.35
498.67	24254.97
498.85	23906.23
499.03	24250.29
499.20	24128.58
499.38	24521.79
499.56	24278.38
499.73	24694.99
499.91	25319.92
500.08	24594.35
500.26	24847.13
500.44	24858.83
500.61	25069.48
500.79	24964.15
500.97	25579.71
501.14	25706.10
501.32	25607.80
501.49	25900.37
501.67	25722.49
501.84	26010.37
502.02	25963.56
502.20	25993.99
502.37	25806.75
502.55	25816.11
502.72	26066.55
502.90	26300.60
503.07	26209.32
503.25	26352.09
503.43	26616.57
503.60	26654.02
503.78	27002.76
503.95	26595.51
504.13	27182.98
504.30	26810.84
504.48	26560.40
504.65	27180.64
504.83	27379.59
505.01	27325.75
505.18	27658.11
505.36	27957.70
505.53	27433.42
505.71	27852.38
505.88	27754.07
506.06	27335.12
506.23	27674.49
506.41	27908.55
506.58	27941.32
506.76	28191.75
506.93	28236.22
507.11	28217.50
507.28	28257.29
507.46	28357.93
507.63	28751.14
507.81	28673.90
507.98	28556.88
508.16	28774.55
508.33	29235.63
508.50	29081.16
508.68	29200.52
508.85	29343.30
509.03	28914.98
509.20	29610.12
509.38	29460.32
509.55	29647.57
509.73	29525.86
509.90	29890.98
510.08	29390.11
510.25	29830.13
510.42	29977.58
510.60	29717.78
510.77	30183.55
510.95	30281.85
511.12	30256.11
511.30	30340.36
511.47	30646.97
511.64	30225.68
511.82	30450.37
511.99	30579.10
512.17	30850.60
512.34	30984.01
512.51	31241.47
512.69	30808.47
512.86	31035.50
513.04	31578.51
513.21	31398.29
513.38	31405.31
513.56	31101.04
513.73	31267.22
513.90	31391.26
514.08	31346.79
514.25	31833.63
514.43	32175.34
514.60	31861.71
514.77	32196.41
514.95	32226.84
515.12	32266.63
515.29	32095.77
515.47	32598.98
515.64	32378.97
515.81	32285.35
515.99	32510.04
516.16	32872.82
516.33	32744.09
516.51	32872.82
516.68	32659.84
516.85	32886.87
517.03	32891.55
517.20	33106.88
517.37	32856.44
517.54	33022.62
517.72	33146.67
517.89	33699.03
518.06	33364.34
518.24	33113.90
518.41	33282.42
518.58	33579.67
518.75	33504.77
518.93	33488.38
519.10	33631.16
519.27	33600.73
519.45	34092.24
519.62	33743.50
519.79	34412.90
519.96	33921.38
520.14	34246.72
520.31	34064.16
520.48	33933.09
520.65	34518.22
520.83	34972.28
521.00	34916.11
521.17	34717.17
521.34	34340.34
521.52	34974.63
521.69	34679.72
521.86	35049.52
522.03	35101.01
522.20	35157.19
522.38	35332.73
522.55	35337.41
522.72	35239.11
522.89	35831.26
523.07	35978.72
523.24	35824.24
523.41	35321.02
523.58	35587.85
523.75	35777.43
523.92	35845.30
524.10	36091.06
524.27	35849.99
524.44	35936.59
524.61	36184.68
524.78	36158.94
524.96	36589.59
525.13	36067.66
525.30	36542.78
525.47	36421.08
525.64	36669.17
525.81	36570.87
525.98	37057.70
526.16	36650.45
526.33	36715.98
526.50	36980.46
526.67	36725.35
526.84	37017.91
527.01	36989.83
527.18	36980.46
527.36	37219.20
527.53	37062.38
527.70	37518.79
527.87	37258.99
528.04	37291.76
528.21	37542.19
528.38	37600.71
528.55	37453.25
528.72	37589.00
528.89	37443.89
529.07	37668.58
529.24	37675.60
529.41	37736.46
529.58	37940.08
529.75	37909.66
529.92	38106.26
530.09	37766.88
530.26	38141.37
530.43	38129.67
530.60	38319.25
530.77	38333.29
530.94	38031.36
531.11	38195.20
531.28	38295.85
531.46	38359.04
531.63	38508.83
531.80	38286.48
531.97	38778.00
532.14	38967.58
532.31	38511.17
532.48	38724.16
532.65	38824.81
532.82	39068.22
532.99	38803.74
533.16	39119.71
533.33	39508.24
533.50	39220.36
533.67	38955.88
533.84	39175.89
534.01	39068.22
534.18	39196.95
534.35	39782.09
534.52	39526.97
534.69	39398.24
534.86	39995.07
535.03	39512.92
535.20	39931.88
535.37	39608.89
535.54	39683.78
535.71	39807.83
535.88	40053.59
536.05	39833.58
536.22	40376.58
536.38	40133.17
536.55	40285.30
536.72	39903.79
536.89	40002.10
537.06	40105.08
537.23	40722.98
537.40	40292.32
537.57	40247.85
537.74	40250.19
537.91	40491.27
538.08	40598.93
538.25	40409.35
538.42	40538.08
538.59	40774.47
538.75	40786.18
538.92	40617.66
539.09	41525.78
539.26	40886.82
539.43	40662.13
539.60	40751.07
539.77	41139.60
539.94	41481.31
540.11	41083.42
540.28	41202.79
540.44	40872.78
540.61	40830.65
540.78	41209.81
540.95	41109.17
541.12	41057.68
541.29	41256.62
541.46	41846.44
541.62	41134.92
541.79	41954.10
541.96	41144.28
542.13	41471.95
542.30	41607.70
542.47	41666.22
542.63	42012.62
542.80	42171.77
542.97	42377.74
543.14	41933.04
543.31	41937.72
543.48	41996.23
543.64	42403.49
543.81	42494.77
543.98	42763.93
544.15	42010.28
544.32	42712.44
544.48	42864.57
544.65	42878.61
544.82	42209.22
544.99	42541.58
545.16	42897.34
545.32	42813.08
545.49	43089.26
545.66	43035.43
545.83	43072.88
546.00	43157.14
546.16	43077.56
546.33	42644.56
546.50	42356.67
546.67	43346.72
546.83	42536.90
547.00	43428.64
547.17	43086.92
547.34	43732.91
547.50	43276.51
547.67	43449.70
547.84	43709.50
548.00	43812.49
548.17	43761.00
548.34	44013.77
548.51	43833.55
548.67	43379.49
548.84	43407.58
549.01	43882.70
549.18	43648.65
549.34	43737.59
549.51	44004.41
549.68	44011.43
549.84	43793.76
550.01	43908.45
550.18	44051.22
550.34	43990.37
550.51	43695.46
550.68	44233.78
550.84	43536.30
551.01	44341.45
551.18	44287.62
551.34	43969.30
551.51	44046.54
551.68	44563.80
551.84	44086.33
552.01	44538.05
552.18	44598.91
552.34	44076.97
552.51	44488.90
552.68	44388.26
552.84	44704.23
553.01	44538.05
553.18	44289.96
553.34	44601.25
553.51	44615.29
553.67	45045.95
553.84	44928.92
554.01	45251.92
554.17	44746.36
554.34	45038.93
554.51	45034.25
554.67	45291.71
554.84	45324.47
555.00	44722.96
555.17	44828.28
555.33	45415.76
555.50	44676.15
555.67	45034.25
555.83	45188.72
556.00	45399.37
556.16	45532.78
556.33	45090.42
556.50	45305.75
556.66	45535.12
556.83	45027.23
556.99	45457.88
557.16	45584.27
557.32	45193.40
557.49	45141.91
557.65	45240.21
557.82	45467.25
557.98	45488.31
558.15	45762.15
558.32	45698.96
558.48	45893.22
558.65	45647.47
558.81	45205.11
558.98	45759.81
559.14	45633.42
559.31	45895.56
559.47	45694.28
559.64	45710.66
559.80	45720.02
559.97	45820.67
560.13	45748.11
560.30	46000.89
560.46	46401.12
560.63	46256.01
560.79	46447.93
560.96	46358.99
561.12	45897.91
561.29	46389.42
561.45	46398.78
561.61	46129.62
561.78	46253.67
561.94	46122.60
562.11	45823.01
562.27	46059.40
562.44	46195.15
562.60	46267.71
562.77	46628.15
562.93	46174.09
563.10	46827.10
563.26	46197.49
563.42	46810.71
563.59	46227.92
563.75	46129.62
563.92	46363.67
564.08	46227.92
564.24	46557.94
564.41	46506.44
564.57	46782.63
564.74	46539.21
564.90	46520.49
565.07	46188.13
565.23	46363.67
565.39	46586.02
565.56	46440.91
565.72	46712.41
565.88	46995.62
566.05	46536.87
566.21	46583.68
566.38	46670.28
566.54	46806.03
566.70	46742.84
566.87	46588.36
567.03	46590.70
567.19	47068.17
567.36	46696.03
567.52	46749.86
567.68	47070.51
567.85	46866.89
568.01	46873.91
568.17	46752.20
568.34	47089.24
568.50	47042.43
568.66	46454.95
568.83	46995.62
568.99	46937.10
569.15	46911.36
569.32	47217.97
569.48	46934.76
569.64	47346.70
569.81	46754.54
569.97	46969.87
570.13	47051.79
570.30	46876.25
570.46	47264.78
570.62	47239.03
570.78	47187.54
570.95	46934.76
571.11	47592.45
571.27	46969.87
571.43	46815.40
571.60	46782.63
571.76	47051.79
571.92	47316.27
572.09	46983.91
572.25	47026.04
572.41	47040.09
572.57	47168.82
572.74	47643.94
572.90	47103.28
573.06	47175.84
573.22	47021.36
573.38	47510.53
573.55	47693.10
573.71	47491.81
573.87	47494.15
574.03	47330.31
574.20	47615.86
574.36	47419.25
574.52	47384.15
574.68	47262.44
574.84	47388.83
575.01	48037.16
575.17	47725.86
575.33	47545.64
575.49	47342.02
575.65	47318.61
575.82	47702.46
575.98	47388.83
576.14	47920.13
576.30	47620.54
576.46	47388.83
576.62	47447.34
576.79	47660.33
576.95	47044.77
577.11	47491.81
577.27	47349.04
577.43	47847.57
577.59	47728.20
577.75	47395.85
577.92	47398.19
578.08	47580.75
578.24	47285.84
578.40	47983.32
578.56	47599.47
578.72	47311.59
578.88	47821.83
579.04	47262.44
579.21	47543.30
579.37	47477.77
579.53	47870.98
579.69	47384.15
579.85	47533.94
580.01	47463.72
580.17	47349.04
580.33	47756.29
580.49	47800.76
580.65	47672.03
580.82	47529.26
580.98	47232.01
581.14	47482.45
581.30	47559.69
581.46	47531.60
581.62	47437.98
581.78	47503.51
581.94	47735.23
582.10	47681.39
582.26	47517.56
582.42	47529.26
582.58	47599.47
582.74	47831.19
582.90	47873.32
583.06	48083.97
583.22	47639.26
583.38	47622.88
583.54	47896.72
583.70	47407.55
583.86	47817.14
584.02	47576.07
584.18	48133.12
584.34	47421.59
584.50	48154.18
584.66	48135.46
584.82	48062.90
584.98	47934.17
585.14	47894.38
585.30	47636.92
585.46	47749.27
585.62	47936.51
585.78	48025.45
585.94	47608.84
586.10	47749.27
586.26	47519.90
586.42	47639.26
586.58	48156.52
586.74	47800.76
586.90	47636.92
587.06	47875.66
587.22	47732.89
587.38	47517.56
587.54	47971.62
587.70	47866.30
587.86	47604.16
588.02	47580.75
588.18	47870.98
588.34	47646.29
588.49	48018.43
588.65	47686.07
588.81	47863.96
588.97	48404.62
589.13	47917.79
589.29	48032.47
589.45	48058.22
589.61	48149.50
589.77	48074.60
589.93	48083.97
