SpectraSuite Data File
++++++++++++++++++++++++++++++++++++
Date: Fri Oct 25 10:43:17 EDT 2013
User: price-jones
Dark Spectrum Present: No
Reference Spectrum Present: No
Number of Sampled Component Spectra: 1
Spectrometers: USB2+H05261
Integration Time (usec): 100000 (USB2+H05261)
Spectra Averaged: 1 (USB2+H05261)
Boxcar Smoothing: 0 (USB2+H05261)
Correct for Electrical Dark: No (USB2+H05261)
Strobe/Lamp Enabled: No (USB2+H05261)
Correct for Detector Non-linearity: No (USB2+H05261)
Correct for Stray Light: No (USB2+H05261)
Number of Pixels in Processed Spectrum: 2048
>>>>>Begin Processed Spectral Data<<<<<
365.73	133.41
365.92	133.41
366.12	133.41
366.32	58.51
366.52	86.60
366.72	14.04
366.91	0.00
367.11	49.15
367.31	49.15
367.51	44.47
367.70	0.00
367.90	9.36
368.10	2.34
368.30	42.13
368.49	72.56
368.69	88.94
368.89	11.70
369.09	84.26
369.28	124.05
369.48	60.85
369.68	35.11
369.87	56.17
370.07	67.88
370.27	98.30
370.47	168.52
370.66	337.04
370.86	461.09
371.06	491.51
371.25	554.71
371.45	447.04
371.65	454.06
371.84	489.17
372.04	479.81
372.24	479.81
372.44	451.72
372.63	538.32
372.83	449.38
373.03	442.36
373.22	512.58
373.42	559.39
373.62	545.34
373.81	543.00
374.01	564.07
374.21	622.58
374.40	531.30
374.60	545.34
374.79	596.84
374.99	568.75
375.19	608.54
375.38	521.94
375.58	538.32
375.78	657.69
375.97	620.24
376.17	645.99
376.37	531.30
376.56	683.44
376.76	545.34
376.95	615.56
377.15	613.22
377.35	613.22
377.54	540.66
377.74	664.71
377.93	685.78
378.13	671.73
378.33	685.78
378.52	564.07
378.72	664.71
378.91	655.35
379.11	592.16
379.31	631.94
379.50	552.37
379.70	718.54
379.89	697.48
380.09	685.78
380.28	667.05
380.48	657.69
380.68	739.61
380.87	636.63
381.07	746.63
381.26	706.84
381.46	692.80
381.65	720.88
381.85	718.54
382.04	641.31
382.24	711.52
382.43	683.44
382.63	631.94
382.83	683.44
383.02	744.29
383.22	713.86
383.41	674.07
383.61	709.18
383.80	816.85
384.00	695.14
384.19	709.18
384.39	772.38
384.58	763.01
384.78	805.14
384.97	830.89
385.17	816.85
385.36	805.14
385.56	812.17
385.75	875.36
385.95	800.46
386.14	826.21
386.34	807.48
386.53	833.23
386.72	781.74
386.92	842.59
387.11	856.64
387.31	800.46
387.50	912.81
387.70	854.30
387.89	894.08
388.09	889.40
388.28	856.64
388.48	849.61
388.67	924.51
388.86	917.49
389.06	931.53
389.25	908.13
389.45	959.62
389.64	985.37
389.84	1001.75
390.03	1011.11
390.22	1071.97
390.42	936.21
390.61	992.39
390.81	994.73
391.00	1036.86
391.19	1153.88
391.39	1053.24
391.58	1018.13
391.78	1107.07
391.97	1093.03
392.16	959.62
392.36	1081.33
392.55	994.73
392.75	961.96
392.94	1032.18
393.13	1013.45
393.33	950.26
393.52	1078.99
393.71	1074.31
393.91	1125.80
394.10	1139.84
394.29	1188.99
394.49	1174.95
394.68	1184.31
394.88	1219.42
395.07	1104.73
395.26	1104.73
395.46	1163.25
395.65	1188.99
395.84	1167.93
396.04	1282.61
396.23	1083.67
396.42	1137.50
396.62	1165.59
396.81	1083.67
397.00	1275.59
397.19	1299.00
397.39	1352.83
397.58	1336.45
397.77	1446.45
397.97	1364.53
398.16	1376.24
398.35	1397.30
398.55	1383.26
398.74	1472.20
398.93	1556.46
399.12	1526.03
399.32	1418.36
399.51	1589.22
399.70	1502.62
399.90	1572.84
400.09	1504.96
400.28	1483.90
400.47	1640.72
400.67	1589.22
400.86	1575.18
401.05	1680.50
401.24	1549.43
401.44	1708.59
401.63	1699.23
401.82	1732.00
402.01	1703.91
402.21	1732.00
402.40	1720.29
402.59	1736.68
402.78	1771.79
402.97	1675.82
403.17	1813.92
403.36	1839.66
403.55	1685.19
403.74	1785.83
403.93	1863.07
404.13	1863.07
404.32	1853.70
404.51	1881.79
404.70	1898.17
404.89	1849.02
405.09	2003.50
405.28	2001.16
405.47	1987.11
405.66	1851.36
405.85	2064.35
406.05	1858.39
406.24	1975.41
406.43	2054.99
406.62	2062.01
406.81	2122.87
407.00	2106.48
407.20	2012.86
407.39	2115.84
407.58	2057.33
407.77	2239.89
407.96	2209.47
408.15	2232.87
408.34	2200.10
408.54	2202.44
408.73	2307.77
408.92	2167.34
409.11	2349.90
409.30	2244.57
409.49	2275.00
409.68	2209.47
409.87	2232.87
410.07	2338.20
410.26	2282.02
410.45	2291.38
410.64	2450.54
410.83	2457.56
411.02	2525.44
411.21	2635.44
411.40	2525.44
411.59	2668.21
411.78	2600.34
411.98	2668.21
412.17	2729.06
412.36	2855.45
412.55	2693.96
412.74	2621.40
412.93	2605.02
413.12	2738.43
413.31	2785.24
413.50	2883.54
413.69	2712.68
413.88	2953.76
414.07	2874.18
414.26	2862.48
414.45	3026.31
414.64	2963.12
414.83	2963.12
415.02	3098.87
415.22	3073.12
415.41	3169.09
415.60	3075.46
415.79	3077.80
415.98	3197.17
416.17	3173.77
416.36	3148.02
416.55	3232.28
416.74	3358.67
416.93	3183.13
417.12	3370.37
417.31	3349.31
417.50	3368.03
417.69	3456.97
417.88	3421.86
418.07	3379.73
418.26	3276.75
418.45	3557.61
418.64	3463.99
418.83	3522.51
419.02	3592.72
419.21	3471.01
419.39	3588.04
419.58	3566.98
419.77	3583.36
419.96	3620.81
420.15	3545.91
420.34	3688.68
420.53	3627.83
420.72	3751.88
420.91	3662.94
421.10	3761.24
421.29	4004.66
421.48	3681.66
421.67	3777.62
421.86	3791.67
422.05	3808.05
422.24	3723.79
422.43	3784.65
422.61	3758.90
422.80	3840.82
422.99	3960.19
423.18	3922.74
423.37	3971.89
423.56	3836.14
423.75	3927.42
423.94	3922.74
424.13	3695.71
424.32	3709.75
424.50	3899.33
424.69	3922.74
424.88	4086.58
425.07	4004.66
425.26	3866.56
425.45	3719.11
425.64	3974.23
425.83	3957.85
426.01	3978.91
426.20	3936.78
426.39	3941.46
426.58	3995.29
426.77	3871.25
426.96	3941.46
427.15	4016.36
427.33	4196.58
427.52	4037.42
427.71	4170.83
427.90	4177.86
428.09	4128.70
428.28	4124.02
428.46	4135.73
428.65	4170.83
428.84	4308.93
429.03	4236.37
429.22	4030.40
429.40	4093.60
429.59	4234.03
429.78	3950.82
429.97	3906.35
430.16	4056.15
430.34	4112.32
430.53	4159.13
430.72	4191.90
430.91	4121.68
431.10	4346.37
431.28	4421.27
431.47	4678.73
431.66	4564.04
431.85	4409.57
432.03	4582.77
432.22	4608.51
432.41	4521.92
432.60	4657.67
432.79	4510.21
432.97	4760.65
433.16	4807.46
433.35	4559.36
433.54	4608.51
433.72	4718.52
433.91	4564.04
434.10	4629.58
434.28	4737.24
434.47	4819.16
434.66	4945.55
434.85	4896.40
435.03	4873.00
435.22	4926.83
435.41	5090.67
435.59	4990.02
435.78	4980.66
435.97	5240.46
436.16	5067.26
436.34	5188.97
436.53	5167.90
436.72	5345.78
436.90	5081.30
437.09	5090.67
437.28	5123.43
437.46	5130.45
437.65	5156.20
437.84	5170.24
438.02	5118.75
438.21	5242.80
438.40	4926.83
438.58	5214.71
438.77	5338.76
438.96	5420.68
439.14	5692.18
439.33	5605.58
439.52	5638.35
439.70	5849.00
439.89	5579.84
440.08	5696.86
440.26	5575.16
440.45	5706.23
440.63	5741.33
440.82	5949.64
441.01	5928.58
441.19	5900.49
441.38	5994.11
441.57	6022.20
441.75	6174.33
441.94	6101.78
442.12	6258.59
442.31	6406.05
442.50	6331.15
442.68	6277.32
442.87	6169.65
443.05	6253.91
443.24	6361.58
443.43	6459.88
443.61	6370.94
443.80	6574.56
443.98	6265.61
444.17	6216.46
444.35	6434.13
444.54	6693.93
444.73	6492.65
444.91	6361.58
445.10	6504.35
445.28	6408.39
445.47	6354.55
445.65	6232.85
445.84	6450.52
446.02	6434.13
446.21	6544.14
446.39	6675.21
446.58	6565.20
446.77	6525.41
446.95	6459.88
447.14	6644.78
447.32	6696.27
447.51	6602.65
447.69	6642.44
447.88	6607.33
448.06	6679.89
448.25	6719.68
448.43	6689.25
448.62	6715.00
448.80	6715.00
448.99	6733.72
449.17	6892.88
449.36	6686.91
449.54	6869.47
449.73	7009.90
449.91	7028.63
450.10	7145.66
450.28	7222.89
450.46	7370.35
450.65	7201.83
450.83	7162.04
451.02	7222.89
451.20	7368.01
451.39	7248.64
451.57	7023.95
451.76	7250.98
451.94	7124.59
452.13	7293.11
452.31	7302.47
452.49	7082.46
452.68	7190.13
452.86	6925.65
453.05	7169.06
453.23	7309.49
453.42	7262.68
453.60	7206.51
453.78	7316.51
453.97	7307.15
454.15	7400.77
454.34	7452.27
454.52	7578.65
454.70	7431.20
454.89	7522.48
455.07	7302.47
455.26	7583.34
455.44	7482.69
455.62	7630.15
455.81	7639.51
455.99	7798.66
456.17	7702.70
456.36	7779.94
456.54	8018.68
456.73	7920.37
456.91	7981.23
457.09	8105.28
457.28	8128.68
457.46	7887.61
457.64	8095.91
457.83	8084.21
458.01	7971.86
458.19	8009.31
458.38	8205.92
458.56	8278.47
458.74	8304.22
458.93	7941.44
459.11	8205.92
459.29	8273.79
459.48	8241.03
459.66	8236.35
459.84	8306.56
460.03	8634.24
460.21	8388.48
460.39	8446.99
460.57	8559.34
460.76	8430.61
460.94	8589.77
461.12	8477.42
461.31	8545.30
461.49	8428.27
461.67	8545.30
461.85	8819.14
462.04	8767.65
462.22	9085.96
462.40	8840.20
462.59	8762.97
462.77	8748.92
462.95	9001.70
463.13	8833.18
463.32	8950.21
463.50	8774.67
463.68	9085.96
463.86	9032.13
464.05	8903.40
464.23	8868.29
464.41	9060.21
464.59	8877.65
464.78	9270.86
464.96	9071.92
465.14	9069.58
465.32	8975.95
465.50	9270.86
465.69	9191.28
465.87	9060.21
466.05	9322.35
466.23	9296.61
466.41	9130.43
466.60	9291.93
466.78	9029.79
466.96	9287.25
467.14	9308.31
467.32	9305.97
467.51	9528.32
467.69	9315.33
467.87	9298.95
468.05	9483.85
468.23	9444.06
468.41	9408.95
468.60	9390.23
468.78	9458.10
468.96	9469.81
469.14	9699.18
469.32	9645.35
469.50	9465.13
469.69	9755.35
469.87	9736.63
470.05	9776.42
470.23	9724.93
470.41	9916.85
470.59	9755.35
470.77	9600.88
470.95	9792.80
471.14	9926.21
471.32	9970.68
471.50	10232.82
471.68	10340.49
471.86	10394.32
472.04	10160.27
472.22	10630.71
472.40	10181.33
472.58	10406.02
472.77	10658.80
472.95	10644.76
473.13	10869.45
473.31	10431.77
473.49	10635.39
473.67	10534.75
473.85	10586.24
474.03	10862.43
474.21	10761.78
474.39	11007.54
474.57	10785.19
474.75	10909.24
474.93	11309.47
475.12	11082.44
475.30	11265.00
475.48	11330.53
475.66	11080.10
475.84	11227.55
476.02	10977.11
476.20	11119.89
476.38	11543.52
476.56	11819.71
476.74	11655.87
476.92	11887.58
477.10	11744.81
477.28	11950.78
477.46	12013.97
477.64	12032.69
477.82	12393.14
478.00	12482.08
478.18	12313.56
478.36	12730.17
478.54	12517.18
478.72	12629.53
478.90	12659.96
479.08	13121.04
479.26	12865.92
479.44	13392.55
479.62	13029.76
479.80	13198.28
479.98	13429.99
480.16	13371.48
480.34	13561.06
480.52	13568.09
480.70	13783.41
480.88	13495.53
481.06	13893.42
481.24	13825.54
481.41	14211.73
481.59	14370.89
481.77	14403.66
481.95	14398.98
482.13	14546.43
482.31	14328.76
482.49	14782.82
482.67	14780.48
482.85	14979.43
483.03	15059.01
483.21	15281.36
483.39	15426.47
483.57	15105.82
483.74	15281.36
483.92	15342.21
484.10	15264.97
484.28	15648.82
484.46	15815.00
484.64	16025.65
484.82	15990.54
485.00	16032.67
485.18	16123.95
485.35	16299.49
485.53	16245.66
485.71	15882.88
485.89	16526.52
486.07	16257.36
486.25	16383.75
486.43	16753.55
486.61	16931.44
486.78	17053.14
486.96	17298.90
487.14	17607.85
487.32	17827.86
487.50	17774.03
487.68	18024.47
487.85	18396.61
488.03	18155.54
488.21	18499.59
488.39	18391.93
488.57	18422.36
488.75	18696.20
488.92	19030.90
489.10	19016.85
489.28	19211.12
489.46	19627.73
489.64	19470.92
489.81	20056.05
489.99	20276.06
490.17	19948.39
490.35	20037.33
490.53	20257.34
490.70	20379.04
490.88	20255.00
491.06	20552.24
491.24	20444.58
491.41	20624.80
491.59	20517.14
491.77	20547.56
491.95	20800.34
492.13	21291.85
492.30	21060.14
492.48	21390.16
492.66	21596.12
492.84	21830.18
493.01	21825.50
493.19	21729.53
493.37	22106.36
493.54	22171.89
493.72	22508.93
493.90	22541.70
494.08	22490.21
494.25	23026.19
494.43	22869.37
494.61	23101.09
494.79	23175.98
494.96	23084.70
495.14	23417.06
495.32	23608.98
495.49	23288.33
495.67	23665.16
495.85	23875.80
496.02	24093.47
496.20	24205.82
496.38	24203.48
496.55	24318.17
496.73	25041.39
496.91	24491.37
497.09	24732.44
497.26	24772.23
497.44	24910.32
497.62	25116.29
497.79	25254.38
497.97	25186.50
498.14	25441.62
498.32	25710.78
498.50	25394.81
498.67	25785.68
498.85	25535.24
499.03	25823.13
499.20	26146.12
499.38	26279.54
499.56	26036.12
499.73	26529.97
499.91	26288.90
500.08	26485.50
500.26	26394.22
500.44	26595.51
500.61	26920.84
500.79	26742.96
500.97	26759.34
501.14	26642.32
501.32	27037.87
501.49	26759.34
501.67	26548.70
501.84	27023.83
502.02	27316.39
502.20	27377.25
502.37	27349.16
502.55	27955.36
502.72	27707.26
502.90	28086.43
503.07	27686.20
503.25	27957.70
503.43	27758.75
503.60	28297.08
503.78	28034.94
503.95	28163.67
504.13	28212.82
504.30	28500.70
504.48	28446.87
504.65	28573.26
504.83	28758.16
505.01	29191.16
505.18	28788.59
505.36	29376.06
505.53	29127.97
505.71	29078.82
505.88	29979.92
506.06	29261.38
506.23	29780.98
506.41	29575.01
506.58	29727.14
506.76	29799.70
506.93	29886.30
507.11	29680.33
507.28	29888.64
507.46	29685.01
507.63	30022.05
507.81	30429.30
507.98	30064.18
508.16	30171.85
508.33	30118.01
508.50	30532.29
508.68	30384.83
508.85	31000.40
509.03	30897.41
509.20	30679.74
509.38	31175.94
509.55	31255.51
509.73	30937.20
509.90	31075.29
510.08	31442.76
510.25	31412.33
510.42	31459.14
510.60	31288.28
510.77	31445.10
510.95	31894.48
511.12	31999.80
511.30	31538.72
511.47	32011.51
511.64	32165.98
511.82	32278.33
511.99	31798.52
512.17	31957.67
512.34	32072.36
512.51	32402.38
512.69	32460.89
512.86	32257.26
513.04	33053.05
513.21	32706.65
513.38	32521.74
513.56	33076.45
513.73	32184.71
513.90	32631.75
514.08	32680.90
514.25	32826.01
514.43	33102.20
514.60	32910.27
514.77	33249.65
514.95	33251.99
515.12	32772.18
515.29	33317.53
515.47	33897.98
515.64	33844.15
515.81	33467.32
515.99	33425.19
516.16	33319.87
516.33	33266.03
516.51	33640.52
516.68	33097.52
516.85	33251.99
517.03	33160.71
517.20	33596.05
517.37	33837.12
517.54	34370.77
517.72	33832.44
517.89	33605.41
518.06	33876.91
518.24	33579.67
518.41	33984.58
518.58	34403.53
518.75	33963.51
518.93	34356.72
519.10	34466.73
519.27	34878.66
519.45	34733.55
519.62	35297.62
519.79	34944.20
519.96	35044.84
520.14	35267.19
520.31	34714.83
520.48	35117.40
520.65	34916.11
520.83	35363.15
521.00	35456.78
521.17	35285.92
521.34	35536.35
521.52	35995.10
521.69	35959.99
521.86	35892.12
522.03	36109.78
522.20	36385.97
522.38	36332.14
522.55	36072.34
522.72	35716.58
522.89	36311.07
523.07	36435.12
523.24	36430.44
523.41	36591.94
523.58	36435.12
523.75	37102.17
523.92	36589.59
524.10	37216.86
524.27	37226.22
524.44	37160.69
524.61	37273.03
524.78	37165.37
524.96	37120.90
525.13	37305.80
525.30	37504.74
525.47	37390.06
525.64	37322.18
525.81	37275.37
525.98	37240.26
526.16	37504.74
526.33	37036.64
526.50	37434.53
526.67	36804.92
526.84	37504.74
527.01	37132.60
527.18	37474.32
527.36	37844.12
527.53	37729.44
527.70	38412.87
527.87	37832.42
528.04	37970.51
528.21	38272.44
528.38	38576.71
528.55	38691.40
528.72	38796.72
528.89	38553.30
529.07	38609.48
529.24	38529.90
529.41	38445.64
529.58	38588.41
529.75	38155.41
529.92	38988.64
530.09	38670.33
530.26	38693.74
530.43	39145.46
530.60	38724.16
530.77	38951.20
530.94	39119.71
531.11	39178.23
531.28	39646.33
531.46	39541.01
531.63	39739.96
531.80	38962.90
531.97	39009.71
532.14	38983.96
532.31	39005.03
532.48	38763.95
532.65	39248.44
532.82	39461.43
532.99	39122.05
533.16	39431.01
533.33	39761.02
533.50	39861.66
533.67	39779.74
533.84	39260.15
534.01	39763.36
534.18	39791.45
534.35	39842.94
534.52	40341.47
534.69	40170.61
534.86	40257.21
535.03	39868.69
535.20	40287.64
535.37	40378.92
535.54	40439.78
535.71	40194.02
535.88	40598.93
536.05	40343.81
536.22	40533.40
536.38	40559.14
536.55	40514.67
536.72	40465.52
536.89	40212.74
537.06	40395.31
537.23	41139.60
537.40	40985.12
537.57	40500.63
537.74	40814.26
537.91	41305.77
538.08	41057.68
538.25	41053.00
538.42	40556.80
538.59	41413.44
538.75	40854.05
538.92	41221.52
539.09	40961.72
539.26	41167.68
539.43	40924.27
539.60	40851.71
539.77	41202.79
539.94	40985.12
540.11	41240.24
540.28	40854.05
540.44	41614.72
540.61	40844.69
540.78	40914.90
540.95	41230.88
541.12	41184.07
541.29	41294.07
541.46	41432.16
541.62	41701.32
541.79	41603.02
541.96	41474.29
542.13	41406.42
542.30	41504.72
542.47	41972.83
542.63	41448.55
542.80	42101.56
542.97	42326.25
543.14	42099.22
543.31	42572.00
543.48	42117.94
543.64	42319.23
543.81	42789.67
543.98	42267.73
544.15	42408.17
544.32	42749.88
544.48	43096.28
544.65	42707.76
544.82	42487.74
544.99	42033.68
545.16	42349.65
545.32	42244.33
545.49	42831.80
545.66	43079.90
545.83	43110.33
546.00	42827.12
546.16	42560.30
546.33	43037.77
546.50	42672.65
546.67	43405.23
546.83	42445.62
547.00	42855.21
547.17	42799.04
547.34	42880.95
547.50	42792.01
547.67	43395.87
547.84	43189.91
548.00	43070.54
548.17	43405.23
548.34	43309.27
548.51	43849.94
548.67	43330.34
548.84	43332.68
549.01	43351.40
549.18	43016.71
549.34	43292.89
549.51	43548.01
549.68	43337.36
549.84	43548.01
550.01	43545.67
550.18	43234.38
550.34	43395.87
550.51	43445.02
550.68	43845.26
550.84	42857.55
551.01	43934.20
551.18	43697.80
551.34	43709.50
551.51	43438.00
551.68	43924.83
551.84	43924.83
552.01	43103.31
552.18	43798.44
552.34	43817.17
552.51	44313.36
552.68	44006.75
552.84	44051.22
553.01	44163.57
553.18	43957.60
553.34	44498.26
553.51	44184.63
553.67	43973.98
553.84	44886.79
554.01	44669.12
554.17	44526.35
554.34	44451.45
554.51	44217.40
554.67	44830.62
554.84	44320.38
555.00	43948.24
555.17	44168.25
555.33	44657.42
555.50	44339.11
555.67	44629.34
555.83	44706.57
556.00	44411.67
556.16	44849.35
556.33	44605.93
556.50	44095.69
556.66	44605.93
556.83	44151.87
556.99	44601.25
557.16	44392.94
557.32	44371.88
557.49	44713.59
557.65	44360.17
557.82	44905.52
557.98	44725.30
558.15	44856.37
558.32	44645.72
558.48	44406.98
558.65	44851.69
558.81	44348.47
558.98	44694.87
559.14	44315.70
559.31	44657.42
559.47	44748.70
559.64	44603.59
559.80	44699.55
559.97	44729.98
560.13	44626.99
560.30	44828.28
560.46	45015.52
560.63	45219.15
560.79	45361.92
560.96	45209.79
561.12	44680.83
561.29	44942.97
561.45	44980.42
561.61	45202.77
561.78	45085.74
561.94	45104.46
562.11	45170.00
562.27	44870.41
562.44	45067.02
562.60	45462.57
562.77	45483.63
562.93	45052.97
563.10	45404.05
563.26	44994.46
563.42	45336.18
563.59	45249.58
563.75	45272.98
563.92	45778.54
564.08	45556.19
564.24	45757.47
564.41	45492.99
564.57	45352.56
564.74	45371.28
564.90	45181.70
565.07	45862.80
565.23	45469.59
565.39	45280.00
565.56	45427.46
565.72	44664.44
565.88	45553.85
566.05	45008.50
566.21	45116.17
566.38	45106.80
566.54	45694.28
566.70	45654.49
566.87	45890.88
567.03	45567.89
567.19	45823.01
567.36	45888.54
567.52	45394.69
567.68	45462.57
567.85	45272.98
568.01	45523.42
568.17	45687.26
568.34	45443.84
568.50	45333.84
568.66	45062.33
568.83	45350.22
568.99	45062.33
569.15	45333.84
569.32	45373.63
569.48	45301.07
569.64	45411.07
569.81	45677.90
569.97	45549.17
570.13	45764.49
570.30	45052.97
570.46	45268.30
570.62	45069.36
570.78	44816.58
570.95	45141.91
571.11	45448.52
571.27	45483.63
571.43	44935.95
571.60	45467.25
571.76	45556.19
571.92	45799.60
572.09	45565.55
572.25	45792.58
572.41	45621.72
572.57	45790.24
572.74	45738.75
572.90	45539.80
573.06	46113.23
573.22	45904.93
573.38	45710.66
573.55	45698.96
573.71	45626.40
573.87	45720.02
574.03	45413.41
574.20	45502.35
574.36	45720.02
574.52	45741.09
574.68	45902.59
574.84	45729.39
575.01	45886.20
575.17	45965.78
575.33	45525.76
575.49	45441.50
575.65	46075.79
575.82	45701.30
575.98	45925.99
576.14	45890.88
576.30	45511.72
576.46	45434.48
576.62	45514.06
576.79	45289.37
576.95	45455.54
577.11	45911.95
577.27	45294.05
577.43	45457.88
577.59	45565.55
577.75	45518.74
577.92	45207.45
578.08	45233.19
578.24	45024.89
578.40	45546.82
578.56	45525.76
578.72	45752.79
578.88	46492.40
579.04	45956.42
579.21	45516.40
579.37	45511.72
579.53	46047.70
579.69	45670.87
579.85	45670.87
580.01	45401.71
580.17	45698.96
580.33	45734.07
580.49	46045.36
580.65	45942.38
580.82	45813.65
580.98	46012.59
581.14	45333.84
581.30	45865.14
581.46	45780.88
581.62	45780.88
581.78	45633.42
581.94	46099.19
582.10	46129.62
582.26	46043.02
582.42	45865.14
582.58	46279.41
582.74	45315.11
582.90	45947.06
583.06	45581.93
583.22	46085.15
583.38	46153.02
583.54	46204.52
583.70	45855.78
583.86	45886.20
584.02	45851.09
584.18	45893.22
584.34	45780.88
584.50	45595.98
584.66	46113.23
584.82	45900.25
584.98	45743.43
585.14	46124.94
585.30	45752.79
585.46	45397.03
585.62	45331.50
585.78	45404.05
585.94	45687.26
586.10	45874.50
586.26	45432.14
586.42	46101.53
586.58	45963.44
586.74	45787.90
586.90	45429.80
587.06	46047.70
587.22	45851.09
587.38	45603.00
587.54	45813.65
587.70	46267.71
587.86	45764.49
588.02	45982.16
588.18	45640.45
588.34	45626.40
588.49	45429.80
588.65	45525.76
588.81	45118.51
588.97	45422.78
589.13	45553.85
589.29	45441.50
589.45	45455.54
589.61	45837.05
589.77	46089.83
589.93	46174.09
590.08	45713.00
