SpectraSuite Data File
++++++++++++++++++++++++++++++++++++
Date: Fri Oct 25 10:44:27 EDT 2013
User: price-jones
Dark Spectrum Present: No
Reference Spectrum Present: No
Number of Sampled Component Spectra: 1
Spectrometers: USB2+H05261
Integration Time (usec): 100000 (USB2+H05261)
Spectra Averaged: 1 (USB2+H05261)
Boxcar Smoothing: 0 (USB2+H05261)
Correct for Electrical Dark: No (USB2+H05261)
Strobe/Lamp Enabled: No (USB2+H05261)
Correct for Detector Non-linearity: No (USB2+H05261)
Correct for Stray Light: No (USB2+H05261)
Number of Pixels in Processed Spectrum: 2048
>>>>>Begin Processed Spectral Data<<<<<
365.73	63.19
365.92	63.19
366.12	63.19
366.32	44.47
366.52	23.41
366.72	35.11
366.91	18.72
367.11	107.66
367.31	16.38
367.51	0.00
367.70	25.75
367.90	11.70
368.10	42.13
368.30	63.19
368.49	0.00
368.69	42.13
368.89	53.83
369.09	65.54
369.28	39.79
369.48	0.00
369.68	58.51
369.87	110.01
370.07	84.26
370.27	177.88
370.47	189.58
370.66	290.23
370.86	437.68
371.06	496.19
371.25	463.43
371.45	414.27
371.65	524.28
371.84	465.77
372.04	472.79
372.24	484.49
372.44	526.62
372.63	550.03
372.83	564.07
373.03	491.51
373.22	484.49
373.42	510.24
373.62	519.60
373.81	545.34
374.01	533.64
374.21	507.90
374.40	510.24
374.60	578.11
374.79	585.13
374.99	634.29
375.19	622.58
375.38	643.65
375.58	645.99
375.78	615.56
375.97	606.20
376.17	620.24
376.37	655.35
376.56	585.13
376.76	667.05
376.95	692.80
377.15	589.82
377.35	669.39
377.54	613.22
377.74	596.84
377.93	627.26
378.13	660.03
378.33	671.73
378.52	674.07
378.72	685.78
378.91	741.95
379.11	725.57
379.31	690.46
379.50	624.92
379.70	624.92
379.89	716.20
380.09	662.37
380.28	716.20
380.48	706.84
380.68	655.35
380.87	793.44
381.07	737.27
381.26	739.61
381.46	718.54
381.65	730.25
381.85	730.25
382.04	732.59
382.24	683.44
382.43	704.50
382.63	725.57
382.83	704.50
383.02	697.48
383.22	837.91
383.41	690.46
383.61	748.97
383.80	849.61
384.00	823.87
384.19	800.46
384.39	819.19
384.58	795.78
384.78	791.10
384.97	779.40
385.17	833.23
385.36	826.21
385.56	758.33
385.75	802.80
385.95	901.11
386.14	908.13
386.34	917.49
386.53	945.58
386.72	915.15
386.92	884.72
387.11	880.04
387.31	931.53
387.50	873.02
387.70	784.08
387.89	901.11
388.09	854.30
388.28	945.58
388.48	917.49
388.67	950.26
388.86	887.06
389.06	936.21
389.25	987.71
389.45	1036.86
389.64	1046.22
389.84	1062.60
390.03	1088.35
390.22	1074.31
390.42	1057.92
390.61	1095.37
390.81	1128.14
391.00	1156.22
391.19	1151.54
391.39	1081.33
391.58	1125.80
391.78	1020.47
391.97	1039.20
392.16	964.30
392.36	1029.84
392.55	1006.43
392.75	1029.84
392.94	938.55
393.13	1006.43
393.33	1036.86
393.52	1121.12
393.71	1160.91
393.91	1191.33
394.10	1095.37
394.29	1188.99
394.49	1174.95
394.68	1217.08
394.88	1273.25
395.07	1205.38
395.26	1261.55
395.46	1299.00
395.65	1296.66
395.84	1205.38
396.04	1303.68
396.23	1153.88
396.42	1275.59
396.62	1095.37
396.81	1226.44
397.00	1263.89
397.19	1345.81
397.39	1371.55
397.58	1455.81
397.77	1509.65
397.97	1495.60
398.16	1418.36
398.35	1420.71
398.55	1462.83
398.74	1502.62
398.93	1631.35
399.12	1533.05
399.32	1486.24
399.51	1483.90
399.70	1633.69
399.90	1523.69
400.09	1570.50
400.28	1652.42
400.47	1640.72
400.67	1696.89
400.86	1771.79
401.05	1680.50
401.24	1764.76
401.44	1809.23
401.63	1727.32
401.82	1715.61
402.01	1825.62
402.21	1774.13
402.40	1877.11
402.59	1811.57
402.78	1783.49
402.97	1760.08
403.17	1898.17
403.36	1874.77
403.55	1968.39
403.74	1919.24
403.93	1933.28
404.13	1961.37
404.32	1757.74
404.51	1982.43
404.70	1963.71
404.89	1947.33
405.09	2036.27
405.28	1921.58
405.47	1961.37
405.66	2036.27
405.85	1944.99
406.05	1989.46
406.24	2040.95
406.43	2062.01
406.62	2134.57
406.81	2052.65
407.00	2005.84
407.20	2099.46
407.39	2157.97
407.58	2279.68
407.77	2214.15
407.96	2349.90
408.15	2345.22
408.34	2275.00
408.54	2408.41
408.73	2324.15
408.92	2300.75
409.11	2429.48
409.30	2394.37
409.49	2321.81
409.68	2389.69
409.87	2335.85
410.07	2385.01
410.26	2422.45
410.45	2408.41
410.64	2410.75
410.83	2530.12
411.02	2495.01
411.21	2691.62
411.40	2698.64
411.59	2635.44
411.78	2719.70
411.98	2782.90
412.17	2733.75
412.36	2778.22
412.55	2794.60
412.74	2871.84
412.93	2726.72
413.12	2846.09
413.31	3019.29
413.50	2944.39
413.69	2862.48
413.88	3035.67
414.07	3014.61
414.26	3059.08
414.45	3054.40
414.64	3047.38
414.83	3103.55
415.02	3077.80
415.22	3101.21
415.41	3206.53
415.60	3211.22
415.79	3246.32
415.98	3346.97
416.17	3152.70
416.36	3431.23
416.55	3272.07
416.74	3398.46
416.93	3421.86
417.12	3309.52
417.31	3435.91
417.50	3571.66
417.69	3646.55
417.88	3473.36
418.07	3637.19
418.26	3550.59
418.45	3604.42
418.64	3641.87
418.83	3691.02
419.02	3754.22
419.21	3630.17
419.39	3695.71
419.58	3632.51
419.77	3562.30
419.96	3899.33
420.15	3981.25
420.34	3726.13
420.53	3777.62
420.72	4060.83
420.91	3967.21
421.10	3885.29
421.29	4093.60
421.48	3812.73
421.67	3906.35
421.86	3875.93
422.05	3957.85
422.24	3934.44
422.43	4021.04
422.61	4058.49
422.80	3990.61
422.99	4028.06
423.18	4044.45
423.37	3955.51
423.56	4044.45
423.75	3995.29
423.94	3985.93
424.13	3887.63
424.32	3845.50
424.50	3939.12
424.69	4070.19
424.88	4152.11
425.07	4002.32
425.26	3866.56
425.45	4088.92
425.64	4002.32
425.83	4070.19
426.01	4119.34
426.20	4217.65
426.39	4114.66
426.58	4229.35
426.77	4086.58
426.96	3983.59
427.15	4032.74
427.33	4065.51
427.52	4189.56
427.71	4269.14
427.90	4189.56
428.09	4290.20
428.28	4241.05
428.46	4229.35
428.65	4234.03
428.84	4283.18
429.03	4301.90
429.22	4109.98
429.40	4234.03
429.59	4248.07
429.78	4182.54
429.97	3969.55
430.16	4149.77
430.34	4266.80
430.53	4159.13
430.72	4292.54
430.91	4320.63
431.10	4430.63
431.28	4617.88
431.47	4662.35
431.66	4809.80
431.85	4561.70
432.03	4643.62
432.22	4779.37
432.41	4674.05
432.60	4615.54
432.79	4795.76
432.97	4851.93
433.16	4924.49
433.35	4734.90
433.54	4779.37
433.72	4751.29
433.91	4746.61
434.10	4877.68
434.28	4924.49
434.47	5078.96
434.66	4882.36
434.85	5039.17
435.03	5137.48
435.22	4901.08
435.41	5210.03
435.59	5270.89
435.78	5294.29
435.97	5156.20
436.16	5186.63
436.34	5172.58
436.53	5170.24
436.72	5425.36
436.90	5217.05
437.09	5275.57
437.28	5242.80
437.46	5280.25
437.65	5345.78
437.84	5263.86
438.02	5214.71
438.21	5348.12
438.40	5416.00
438.58	5537.71
438.77	5556.43
438.96	5666.44
439.14	5650.05
439.33	5624.31
439.52	5682.82
439.70	5912.19
439.89	5806.87
440.08	5687.50
440.26	5874.74
440.45	5870.06
440.63	6029.22
440.82	6141.57
441.01	6045.60
441.19	6087.73
441.38	6235.19
441.57	6274.98
441.75	6340.51
441.94	6429.45
442.12	6513.71
442.31	6485.62
442.50	6541.80
442.68	6310.08
442.87	6387.32
443.05	6448.18
443.24	6642.44
443.43	6597.97
443.61	6469.24
443.80	6792.23
443.98	6607.33
444.17	6509.03
444.35	6581.59
444.54	6878.83
444.73	6574.56
444.91	6750.10
445.10	6633.08
445.28	6413.07
445.47	6586.27
445.65	6502.01
445.84	6686.91
446.02	6663.51
446.21	6604.99
446.39	6808.62
446.58	6801.60
446.77	6874.15
446.95	6626.06
447.14	6801.60
447.32	7014.59
447.51	6902.24
447.69	6850.75
447.88	6906.92
448.06	6895.22
448.25	6738.40
448.43	6874.15
448.62	6850.75
448.80	6841.39
448.99	6888.20
449.17	7204.17
449.36	7054.37
449.54	7133.95
449.73	7199.49
449.91	7375.03
450.10	7269.70
450.28	7400.77
450.46	7356.30
450.65	7297.79
450.83	7438.22
451.02	7325.88
451.20	7499.08
451.39	7595.04
451.57	7344.60
451.76	7393.75
451.94	7339.92
452.13	7602.06
452.31	7478.01
452.49	7225.23
452.68	7428.86
452.86	7269.70
453.05	7510.78
453.23	7379.71
453.42	7375.03
453.60	7506.10
453.78	7637.17
453.97	7590.36
454.15	7545.89
454.34	7583.34
454.52	7665.25
454.70	7698.02
454.89	7627.81
455.07	7873.56
455.26	7784.62
455.44	7810.37
455.62	7896.97
455.81	7749.51
455.99	8079.53
456.17	7805.69
456.36	7899.31
456.54	8107.62
456.73	8159.11
456.91	8255.07
457.09	8472.74
457.28	8482.10
457.46	8271.45
457.64	8306.56
457.83	8397.84
458.01	8058.46
458.19	8439.97
458.38	8379.12
458.56	8554.66
458.74	8449.33
458.93	8540.61
459.11	8442.31
459.29	8521.89
459.48	8517.21
459.66	8580.40
459.84	8685.73
460.03	8737.22
460.21	8791.05
460.39	8669.34
460.57	8753.60
460.76	8814.46
460.94	8851.91
461.12	8940.85
461.31	8833.18
461.49	8786.37
461.67	8667.00
461.85	8999.36
462.04	9104.68
462.22	9202.99
462.40	9076.60
462.59	9242.78
462.77	9048.51
462.95	9111.71
463.13	9097.66
463.32	9125.75
463.50	9210.01
463.68	9153.84
463.86	9277.88
464.05	8973.61
464.23	8926.80
464.41	9275.54
464.59	9331.72
464.78	9369.16
464.96	9305.97
465.14	9228.73
465.32	9533.00
465.50	9579.81
465.69	9465.13
465.87	9369.16
466.05	9359.80
466.23	9287.25
466.41	9210.01
466.60	9722.59
466.78	9441.72
466.96	9479.17
467.14	9401.93
467.32	9748.33
467.51	9841.95
467.69	9467.47
467.87	9760.03
468.05	9699.18
468.23	9586.83
468.41	9654.71
468.60	9841.95
468.78	10022.17
468.96	9888.76
469.14	9834.93
469.32	9966.00
469.50	9713.22
469.69	9888.76
469.87	10003.45
470.05	10017.49
470.23	10061.96
470.41	10146.22
470.59	10083.03
470.77	10209.42
470.95	10197.71
471.14	10413.04
471.32	10129.84
471.50	10420.06
471.68	10300.70
471.86	10621.35
472.04	10607.31
472.22	10726.68
472.40	10480.92
472.58	10523.05
472.77	10712.63
472.95	10754.76
473.13	11122.23
473.31	10609.65
473.49	10743.06
473.67	10841.36
473.85	10981.79
474.03	11052.01
474.21	11096.48
474.39	11351.60
474.57	11281.38
474.75	11485.01
474.93	11192.44
475.12	11555.22
475.30	11410.11
475.48	11382.03
475.66	11503.73
475.84	11630.12
476.02	11646.51
476.20	11901.62
476.38	11831.41
476.56	12203.55
476.74	11999.93
476.92	11796.30
477.10	12044.40
477.28	12587.40
477.46	12500.80
477.64	12336.96
477.82	12730.17
478.00	13055.51
478.18	12772.30
478.36	12858.90
478.54	12966.57
478.72	13095.30
478.90	13259.13
479.08	13359.78
479.26	13233.39
479.44	13448.72
479.62	13624.26
479.80	13947.25
479.98	13483.83
480.16	13872.36
480.34	14031.51
480.52	14071.30
480.70	14029.17
480.88	13975.34
481.06	14075.98
481.24	14272.59
481.41	14693.88
481.59	14593.24
481.77	14640.05
481.95	14789.85
482.13	15096.46
482.31	14923.26
482.49	15190.08
482.67	15253.27
482.85	15192.42
483.03	15716.70
483.21	15880.53
483.39	15868.83
483.57	15646.48
483.74	15777.55
483.92	16194.17
484.10	15747.12
484.28	16266.72
484.46	16442.26
484.64	16423.54
484.82	16327.58
485.00	16407.16
485.18	16510.14
485.35	16837.81
485.53	16374.39
485.71	16858.88
485.89	16760.58
486.07	16678.66
486.25	16809.73
486.43	17081.23
486.61	17476.78
486.78	17755.30
486.96	17757.64
487.14	17996.38
487.32	18349.80
487.50	18274.90
487.68	18654.07
487.85	18824.93
488.03	18576.83
488.21	19115.16
488.39	18946.64
488.57	19117.50
488.75	19342.19
488.92	19440.49
489.10	19922.64
489.28	19707.31
489.46	19789.23
489.64	20376.70
489.81	20751.19
489.99	20690.34
490.17	20582.67
490.35	20751.19
490.53	20830.77
490.70	20900.98
490.88	20896.30
491.06	21207.59
491.24	21242.70
491.41	21106.95
491.59	21167.80
491.77	21165.46
491.95	21336.32
492.13	21958.91
492.30	22092.32
492.48	22389.56
492.66	22190.62
492.84	22099.34
493.01	22761.71
493.19	22778.09
493.37	22600.21
493.54	22796.82
493.72	22981.72
493.90	23087.04
494.08	23213.43
494.25	23590.26
494.43	23482.59
494.61	23779.84
494.79	23648.77
494.96	24084.11
495.14	23695.58
495.32	24257.31
495.49	24217.52
495.67	24416.47
495.85	24533.50
496.02	24666.91
496.20	25113.95
496.38	24648.18
496.55	24980.54
496.73	25514.18
496.91	25156.08
497.09	25806.75
497.26	25806.75
497.44	25734.19
497.62	25525.88
497.79	26324.01
497.97	25504.82
498.14	25970.58
498.32	26171.87
498.50	26178.89
498.67	26555.72
498.85	26354.43
499.03	27115.11
499.20	26859.99
499.38	26499.55
499.56	26981.70
499.73	26937.23
499.91	27026.17
500.08	26941.91
500.26	27019.14
500.44	26895.10
500.61	27147.87
500.79	26490.18
500.97	27349.16
501.14	27672.15
501.32	27697.90
501.49	27751.73
501.67	27690.88
501.84	27946.00
502.02	28079.41
502.20	27948.34
502.37	28107.49
502.55	28238.56
502.72	28910.30
502.90	28725.39
503.07	28643.48
503.25	28891.57
503.43	28819.02
503.60	28718.37
503.78	28725.39
503.95	29099.88
504.13	28854.12
504.30	29532.88
504.48	29443.94
504.65	29584.37
504.83	29823.11
505.01	29982.26
505.18	29839.49
505.36	30457.39
505.53	30394.20
505.71	30005.67
505.88	29998.65
506.06	30108.65
506.23	30141.42
506.41	30089.93
506.58	30593.14
506.76	30188.23
506.93	30424.62
507.11	30384.83
507.28	30604.84
507.46	30206.95
507.63	30558.03
507.81	30754.64
507.98	30316.96
508.16	30721.87
508.33	31096.36
508.50	31047.21
508.68	31285.94
508.85	31920.23
509.03	31749.37
509.20	32100.45
509.38	31892.14
509.55	31859.37
509.73	32051.30
509.90	31819.58
510.08	31957.67
510.25	32074.70
510.42	32135.56
510.60	32383.65
510.77	32261.94
510.95	32727.71
511.12	32568.55
511.30	32664.52
511.47	33043.68
511.64	32905.59
511.82	33153.69
511.99	32683.24
512.17	32961.76
512.34	33186.46
512.51	33289.44
512.69	33312.84
512.86	33303.48
513.04	33825.42
513.21	33687.33
513.38	33296.46
513.56	33472.00
513.73	33495.41
513.90	33727.12
514.08	33294.12
514.25	33422.85
514.43	33855.85
514.60	33748.18
514.77	34155.44
514.95	34373.11
515.12	34064.16
515.29	34373.11
515.47	34728.87
515.64	34962.92
515.81	34710.14
515.99	34483.11
516.16	34405.88
516.33	33912.02
516.51	34183.52
516.68	34089.90
516.85	33755.21
517.03	34377.79
517.20	34628.23
517.37	34831.85
517.54	34733.55
517.72	34969.94
517.89	34796.74
518.06	34550.99
518.24	34618.86
518.41	34941.86
518.58	34974.63
518.75	35068.25
518.93	35529.33
519.10	35498.91
519.27	35772.75
519.45	35798.49
519.62	35819.56
519.79	35885.09
519.96	35969.35
520.14	36196.38
520.31	35840.62
520.48	36360.22
520.65	36156.60
520.83	36418.74
521.00	36451.50
521.17	36535.76
521.34	36348.52
521.52	36900.89
521.69	36980.46
521.86	36643.43
522.03	37357.29
522.20	37041.32
522.38	37083.45
522.55	37104.51
522.72	36992.17
522.89	36924.29
523.07	37060.04
523.24	37029.62
523.41	37186.43
523.58	37460.27
523.75	38319.25
523.92	37968.17
524.10	37787.95
524.27	37947.11
524.44	37532.83
524.61	37989.24
524.78	38089.88
524.96	38323.93
525.13	38452.66
525.30	38478.41
525.47	38810.76
525.64	38209.25
525.81	38082.86
525.98	38197.54
526.16	37916.68
526.33	37738.80
526.50	38295.85
526.67	37759.86
526.84	37916.68
527.01	37937.74
527.18	38553.30
527.36	38857.57
527.53	38836.51
527.70	38974.60
527.87	38824.81
528.04	38899.70
528.21	39325.68
528.38	38796.72
528.55	39075.24
528.72	39028.43
528.89	40037.20
529.07	39267.17
529.24	39255.46
529.41	39587.82
529.58	39192.27
529.75	39742.30
529.92	39339.72
530.09	39835.92
530.26	39758.68
530.43	40201.04
530.60	39423.98
530.77	39882.73
530.94	40648.08
531.11	39950.60
531.28	39966.99
531.46	40039.54
531.63	39964.65
531.80	40268.92
531.97	40161.25
532.14	40268.92
532.31	39573.78
532.48	40053.59
532.65	40341.47
532.82	40341.47
532.99	40472.54
533.16	40098.06
533.33	40580.21
533.50	41216.83
533.67	40980.44
533.84	41003.85
534.01	40699.58
534.18	40584.89
534.35	40982.78
534.52	40741.71
534.69	41177.04
534.86	41057.68
535.03	41123.21
535.20	41333.86
535.37	41324.50
535.54	41621.75
535.71	41366.63
535.88	41612.38
536.05	41448.55
536.22	41853.46
536.38	41797.29
536.55	41415.78
536.72	40954.69
536.89	40980.44
537.06	41432.16
537.23	41418.12
537.40	41577.28
537.57	41411.10
537.74	41757.50
537.91	42506.47
538.08	41652.17
538.25	41844.10
538.42	41954.10
538.59	42410.51
538.75	41656.85
538.92	41949.42
539.09	41673.24
539.26	42174.11
539.43	41970.49
539.60	42073.47
539.77	41865.16
539.94	41918.99
540.11	42000.91
540.28	42061.77
540.44	42415.19
540.61	42155.39
540.78	42256.03
540.95	42529.87
541.12	41923.68
541.29	42609.45
541.46	42714.78
541.62	42979.26
541.79	42721.80
541.96	42380.08
542.13	42876.27
542.30	42761.59
542.47	42974.58
542.63	42733.50
542.80	42845.85
542.97	43583.12
543.14	43302.25
543.31	43295.23
543.48	43311.61
543.64	43686.10
543.81	43962.28
543.98	43260.12
544.15	43550.35
544.32	43863.98
544.48	43866.32
544.65	43770.36
544.82	44121.44
544.99	43138.41
545.16	43875.68
545.32	43772.70
545.49	44009.09
545.66	44179.95
545.83	43981.01
546.00	44009.09
546.16	43938.88
546.33	43824.19
546.50	43629.93
546.67	43737.59
546.83	43515.24
547.00	44013.77
547.17	43981.01
547.34	43887.39
547.50	44048.88
547.67	44488.90
547.84	44189.31
548.00	44549.76
548.17	44313.36
548.34	44514.65
548.51	44528.69
548.67	44652.74
548.84	44406.98
549.01	44229.10
549.18	44222.08
549.34	44444.43
549.51	44566.14
549.68	44704.23
549.84	44322.72
550.01	44727.64
550.18	44751.04
550.34	44650.40
550.51	44545.08
550.68	44428.05
550.84	44165.91
551.01	44605.93
551.18	44524.01
551.34	44477.20
551.51	44729.98
551.68	45034.25
551.84	45034.25
552.01	44825.94
552.18	44795.51
552.34	44313.36
552.51	44776.79
552.68	45116.17
552.84	45144.25
553.01	45277.66
553.18	45029.57
553.34	45055.31
553.51	44879.77
553.67	45067.02
553.84	45539.80
554.01	45825.35
554.17	45500.01
554.34	45368.94
554.51	45399.37
554.67	45277.66
554.84	45172.34
555.00	45364.26
555.17	45132.55
555.33	46007.91
555.50	45256.60
555.67	45577.25
555.83	45310.43
556.00	46066.42
556.16	45677.90
556.33	45048.29
556.50	45200.43
556.66	45521.08
556.83	45698.96
556.99	45549.17
557.16	45488.31
557.32	45724.71
557.49	45794.92
557.65	45663.85
557.82	45858.12
557.98	45771.52
558.15	46010.25
558.32	46110.89
558.48	45989.19
558.65	45600.66
558.81	45436.82
558.98	45476.61
559.14	45588.95
559.31	46068.76
559.47	46059.40
559.64	46071.10
559.80	45682.58
559.97	46176.43
560.13	45434.48
560.30	45979.82
560.46	45762.15
560.63	45979.82
560.79	46218.56
560.96	46234.94
561.12	45989.19
561.29	45958.76
561.45	46068.76
561.61	46108.55
561.78	46127.28
561.94	46106.21
562.11	46007.91
562.27	45869.82
562.44	46204.52
562.60	46298.14
562.77	46211.54
562.93	45965.78
563.10	46101.53
563.26	45504.70
563.42	46232.60
563.59	46071.10
563.75	46052.38
563.92	46256.01
564.08	46197.49
564.24	46169.41
564.41	46438.57
564.57	46295.80
564.74	46129.62
564.90	45855.78
565.07	46010.25
565.23	46536.87
565.39	46092.17
565.56	46506.44
565.72	46024.29
565.88	46227.92
566.05	46698.37
566.21	46464.32
566.38	46726.46
566.54	46396.44
566.70	46902.00
566.87	46967.53
567.03	46483.04
567.19	46810.71
567.36	46614.11
567.52	46429.21
567.68	46754.54
567.85	46085.15
568.01	46822.42
568.17	46274.73
568.34	46780.29
568.50	46256.01
568.66	46082.81
568.83	46595.38
568.99	46333.24
569.15	46267.71
569.32	46150.68
569.48	46469.00
569.64	46703.05
569.81	46307.50
569.97	46216.22
570.13	46511.13
570.30	46277.07
570.46	46422.19
570.62	46398.78
570.78	46115.58
570.95	46312.18
571.11	46679.64
571.27	46560.28
571.43	46637.51
571.60	46396.44
571.76	46387.08
571.92	46366.01
572.09	46707.73
572.25	46398.78
572.41	46396.44
572.57	46738.16
572.74	47049.45
572.90	46492.40
573.06	46958.17
573.22	46586.02
573.38	46775.61
573.55	46689.01
573.71	46953.49
573.87	46714.75
574.03	46241.96
574.20	46363.67
574.36	46447.93
574.52	46791.99
574.68	46574.32
574.84	46593.04
575.01	46204.52
575.17	46583.68
575.33	46590.70
575.49	46361.33
575.65	46808.37
575.82	46625.81
575.98	46497.08
576.14	46813.05
576.30	46440.91
576.46	46543.89
576.62	46546.23
576.79	46625.81
576.95	46148.34
577.11	46618.79
577.27	46794.33
577.43	46794.33
577.59	46525.17
577.75	46845.82
577.92	45752.79
578.08	46377.72
578.24	46314.52
578.40	46366.01
578.56	46686.67
578.72	46426.87
578.88	46806.03
579.04	46646.88
579.21	46560.28
579.37	46635.17
579.53	46789.65
579.69	46546.23
579.85	46459.63
580.01	46461.97
580.17	46674.96
580.33	46754.54
580.49	47213.29
580.65	46944.12
580.82	46941.78
580.98	46667.94
581.14	46445.59
581.30	47089.24
581.46	46775.61
581.62	46948.81
581.78	46614.11
581.94	47009.66
582.10	46602.41
582.26	46892.63
582.42	46548.57
582.58	46916.04
582.74	46681.98
582.90	47206.26
583.06	47143.07
583.22	47150.09
583.38	46981.57
583.54	47110.30
583.70	46731.14
583.86	46579.00
584.02	47180.52
584.18	46766.24
584.34	46829.44
584.50	46859.87
584.66	46653.90
584.82	46490.06
584.98	46955.83
585.14	46749.86
585.30	46759.22
585.46	46969.87
585.62	46452.61
585.78	46848.16
585.94	46351.97
586.10	46335.59
586.26	46724.11
586.42	46691.35
586.58	46663.26
586.74	46784.97
586.90	46564.96
587.06	46831.78
587.22	46604.75
587.38	46326.22
587.54	46756.88
587.70	46822.42
587.86	46806.03
588.02	46705.39
588.18	46731.14
588.34	46859.87
588.49	46415.16
588.65	46075.79
588.81	46078.13
588.97	46553.26
589.13	45888.54
589.29	46333.24
589.45	46796.67
589.61	46705.39
589.77	46504.10
589.93	46803.69
