SpectraSuite Data File
++++++++++++++++++++++++++++++++++++
Date: Fri Oct 25 10:47:57 EDT 2013
User: price-jones
Dark Spectrum Present: No
Reference Spectrum Present: No
Number of Sampled Component Spectra: 1
Spectrometers: USB2+H05261
Integration Time (usec): 100000 (USB2+H05261)
Spectra Averaged: 1 (USB2+H05261)
Boxcar Smoothing: 0 (USB2+H05261)
Correct for Electrical Dark: No (USB2+H05261)
Strobe/Lamp Enabled: No (USB2+H05261)
Correct for Detector Non-linearity: No (USB2+H05261)
Correct for Stray Light: No (USB2+H05261)
Number of Pixels in Processed Spectrum: 2048
>>>>>Begin Processed Spectral Data<<<<<
365.73	177.88
365.92	177.88
366.12	177.88
366.32	74.90
366.52	77.24
366.72	91.28
366.91	21.06
367.11	117.03
367.31	86.60
367.51	25.75
367.70	0.00
367.90	119.37
368.10	39.79
368.30	42.13
368.49	32.77
368.69	114.69
368.89	46.81
369.09	32.77
369.28	65.54
369.48	79.58
369.68	0.00
369.87	147.45
370.07	93.62
370.27	145.11
370.47	212.99
370.66	407.25
370.86	505.56
371.06	461.09
371.25	531.30
371.45	496.19
371.65	421.30
371.84	470.45
372.04	428.32
372.24	433.00
372.44	451.72
372.63	505.56
372.83	510.24
373.03	477.47
373.22	447.04
373.42	592.16
373.62	545.34
373.81	585.13
374.01	557.05
374.21	531.30
374.40	568.75
374.60	599.18
374.79	524.28
374.99	543.00
375.19	575.77
375.38	671.73
375.58	580.45
375.78	657.69
375.97	514.92
376.17	599.18
376.37	552.37
376.56	580.45
376.76	613.22
376.95	528.96
377.15	620.24
377.35	533.64
377.54	585.13
377.74	653.01
377.93	564.07
378.13	638.97
378.33	620.24
378.52	624.92
378.72	674.07
378.91	601.52
379.11	674.07
379.31	638.97
379.50	636.63
379.70	592.16
379.89	648.33
380.09	662.37
380.28	678.76
380.48	610.88
380.68	683.44
380.87	627.26
381.07	692.80
381.26	702.16
381.46	655.35
381.65	653.01
381.85	660.03
382.04	688.12
382.24	678.76
382.43	702.16
382.63	688.12
382.83	685.78
383.02	713.86
383.22	772.38
383.41	751.31
383.61	746.63
383.80	798.12
384.00	690.46
384.19	763.01
384.39	695.14
384.58	809.83
384.78	786.42
384.97	753.65
385.17	774.72
385.36	821.53
385.56	695.14
385.75	702.16
385.95	802.80
386.14	751.31
386.34	800.46
386.53	753.65
386.72	737.27
386.92	753.65
387.11	866.00
387.31	826.21
387.50	807.48
387.70	837.91
387.89	908.13
388.09	809.83
388.28	896.43
388.48	828.55
388.67	877.70
388.86	905.79
389.06	901.11
389.25	847.27
389.45	887.06
389.64	774.72
389.84	903.45
390.03	870.68
390.22	891.74
390.42	917.49
390.61	882.38
390.81	940.90
391.00	997.07
391.19	931.53
391.39	1022.81
391.58	912.81
391.78	931.53
391.97	980.68
392.16	926.85
392.36	964.30
392.55	985.37
392.75	835.57
392.94	1008.77
393.13	1013.45
393.33	1029.84
393.52	947.92
393.71	1043.88
393.91	1078.99
394.10	931.53
394.29	987.71
394.49	1020.47
394.68	1050.90
394.88	1132.82
395.07	1193.67
395.26	1093.03
395.46	1025.15
395.65	1198.35
395.84	1114.10
396.04	1188.99
396.23	1100.05
396.42	1121.12
396.62	1074.31
396.81	1167.93
397.00	1170.27
397.19	1116.44
397.39	1214.74
397.58	1317.72
397.77	1207.72
397.97	1263.89
398.16	1273.25
398.35	1273.25
398.55	1221.76
398.74	1224.10
398.93	1385.60
399.12	1245.16
399.32	1315.38
399.51	1301.34
399.70	1458.15
399.90	1453.47
400.09	1380.92
400.28	1451.13
400.47	1373.89
400.67	1409.00
400.86	1392.62
401.05	1357.51
401.24	1427.73
401.44	1540.07
401.63	1593.90
401.82	1488.58
402.01	1451.13
402.21	1497.94
402.40	1345.81
402.59	1526.03
402.78	1500.28
402.97	1572.84
403.17	1570.50
403.36	1638.38
403.55	1528.37
403.74	1680.50
403.93	1591.56
404.13	1687.53
404.32	1530.71
404.51	1621.99
404.70	1612.63
404.89	1743.70
405.09	1750.72
405.28	1755.40
405.47	1797.53
405.66	1781.15
405.85	1734.34
406.05	1694.55
406.24	1703.91
406.43	1720.29
406.62	1907.54
406.81	1989.46
407.00	1776.47
407.20	1757.74
407.39	1790.51
407.58	1865.41
407.77	1818.60
407.96	1867.75
408.15	1928.60
408.34	1905.20
408.54	2043.29
408.73	1994.14
408.92	2024.56
409.11	1968.39
409.30	2050.31
409.49	2047.97
409.68	2090.10
409.87	1984.77
410.07	2157.97
410.26	2071.37
410.45	2083.08
410.64	2120.53
410.83	2253.94
411.02	2202.44
411.21	2267.98
411.40	2223.51
411.59	2375.64
411.78	2286.70
411.98	2221.17
412.17	2244.57
412.36	2333.51
412.55	2452.88
412.74	2434.16
412.93	2406.07
413.12	2532.46
413.31	2546.50
413.50	2511.39
413.69	2546.50
413.88	2534.80
414.07	2487.99
414.26	2698.64
414.45	2607.36
414.64	2719.70
414.83	2637.78
415.02	2754.81
415.22	2750.13
415.41	2839.07
415.60	2839.07
415.79	2808.64
415.98	2916.31
416.17	3028.65
416.36	2953.76
416.55	2801.62
416.74	2780.56
416.93	2881.20
417.12	2874.18
417.31	3000.57
417.50	2902.26
417.69	3159.72
417.88	3056.74
418.07	3026.31
418.26	3173.77
418.45	3218.24
418.64	3105.89
418.83	3101.21
419.02	3215.90
419.21	3110.57
419.39	3300.16
419.58	3145.68
419.77	3265.05
419.96	3349.31
420.15	3417.18
420.34	3251.00
420.53	3234.62
420.72	3337.60
420.91	3407.82
421.10	3342.28
421.29	3353.99
421.48	3407.82
421.67	3391.44
421.86	3323.56
422.05	3386.76
422.24	3361.01
422.43	3473.36
422.61	3365.69
422.80	3510.80
422.99	3506.12
423.18	3524.85
423.37	3613.79
423.56	3534.21
423.75	3510.80
423.94	3550.59
424.13	3353.99
424.32	3353.99
424.50	3541.23
424.69	3585.70
424.88	3571.66
425.07	3545.91
425.26	3545.91
425.45	3541.23
425.64	3557.61
425.83	3625.49
426.01	3613.79
426.20	3618.47
426.39	3583.36
426.58	3534.21
426.77	3676.98
426.96	3534.21
427.15	3552.93
427.33	3700.39
427.52	3803.37
427.71	3669.96
427.90	3676.98
428.09	3646.55
428.28	3765.92
428.46	3845.50
428.65	3908.69
428.84	3721.45
429.03	3798.69
429.22	3765.92
429.40	3882.95
429.59	3761.24
429.78	3564.64
429.97	3510.80
430.16	3655.92
430.34	3779.97
430.53	3829.12
430.72	3925.08
430.91	3833.80
431.10	3967.21
431.28	4210.62
431.47	3978.91
431.66	4159.13
431.85	4105.30
432.03	4145.09
432.22	4264.46
432.41	4161.47
432.60	4278.50
432.79	4105.30
432.97	4182.54
433.16	4250.41
433.35	4156.79
433.54	4173.18
433.72	4255.09
433.91	4142.75
434.10	4372.12
434.28	4376.80
434.47	4458.72
434.66	4447.02
434.85	4351.06
435.03	4409.57
435.22	4418.93
435.41	4484.47
435.59	4573.41
435.78	4517.23
435.97	4397.87
436.16	4542.98
436.34	4706.82
436.53	4702.14
436.72	4610.86
436.90	4699.80
437.09	4706.82
437.28	4648.30
437.46	4748.95
437.65	4657.67
437.84	4837.89
438.02	4692.77
438.21	4667.03
438.40	4683.41
438.58	4842.57
438.77	4863.63
438.96	4856.61
439.14	4957.25
439.33	4908.10
439.52	4973.64
439.70	5107.05
439.89	5055.56
440.08	5083.64
440.26	5085.98
440.45	5280.25
440.63	5263.86
440.82	5245.14
441.01	5259.18
441.19	5378.55
441.38	5430.04
441.57	5448.77
441.75	5563.45
441.94	5621.97
442.12	5841.98
442.31	5762.40
442.50	5680.48
442.68	5659.42
442.87	5598.56
443.05	5743.67
443.24	5633.67
443.43	5909.85
443.61	5790.49
443.80	5907.51
443.98	5905.17
444.17	5598.56
444.35	5930.92
444.54	5966.03
444.73	5944.96
444.91	5902.83
445.10	5865.38
445.28	5736.65
445.47	5818.57
445.65	5813.89
445.84	5886.45
446.02	5881.77
446.21	5982.41
446.39	5846.66
446.58	6061.99
446.77	5996.45
446.95	5682.82
447.14	6022.20
447.32	5895.81
447.51	6052.63
447.69	5935.60
447.88	5919.21
448.06	5961.34
448.25	6008.16
448.43	5977.73
448.62	6193.06
448.80	5996.45
448.99	6141.57
449.17	6047.94
449.36	5942.62
449.54	6246.89
449.73	6183.70
449.91	6314.77
450.10	6265.61
450.28	6349.87
450.46	6415.41
450.65	6333.49
450.83	6537.12
451.02	6249.23
451.20	6452.86
451.39	6324.13
451.57	6487.96
451.76	6267.95
451.94	6300.72
452.13	6534.78
452.31	6462.22
452.49	6352.21
452.68	6490.31
452.86	6579.25
453.05	6300.72
453.23	6656.48
453.42	6457.54
453.60	6497.33
453.78	6712.66
453.97	6698.61
454.15	6733.72
454.34	6424.77
454.52	6441.15
454.70	6682.23
454.89	6897.56
455.07	6700.95
455.26	7035.65
455.44	6923.30
455.62	6829.68
455.81	6909.26
455.99	7005.22
456.17	7096.50
456.36	6993.52
456.54	7063.74
456.73	7084.80
456.91	7241.62
457.09	7321.20
457.28	7510.78
457.46	7206.51
457.64	7288.43
457.83	7318.86
458.01	7276.73
458.19	7398.43
458.38	7190.13
458.56	7438.22
458.74	7342.26
458.93	7407.80
459.11	7407.80
459.29	7356.30
459.48	7342.26
459.66	7534.18
459.84	7431.20
460.03	7531.84
460.21	7602.06
460.39	7581.00
460.57	7723.77
460.76	7735.47
460.94	7728.45
461.12	7896.97
461.31	7819.73
461.49	7754.19
461.67	7831.43
461.85	7850.16
462.04	7899.31
462.22	8332.31
462.40	8124.00
462.59	7962.50
462.77	7981.23
462.95	7957.82
463.13	8006.97
463.32	8056.12
463.50	8051.44
463.68	8044.42
463.86	8067.83
464.05	7887.61
464.23	8070.17
464.41	8238.69
464.59	8116.98
464.78	8224.64
464.96	8184.85
465.14	8107.62
465.32	8208.26
465.50	8257.41
465.69	8468.06
465.87	8285.50
466.05	8292.52
466.23	8348.69
466.41	8439.97
466.60	8636.58
466.78	8318.26
466.96	8414.23
467.14	8271.45
467.32	8376.78
467.51	8847.22
467.69	8573.38
467.87	8617.85
468.05	8634.24
468.23	8545.30
468.41	8416.57
468.60	8521.89
468.78	8655.30
468.96	8692.75
469.14	8641.26
469.32	8737.22
469.50	8425.93
469.69	8758.28
469.87	8905.74
470.05	8973.61
470.23	8931.48
470.41	9064.89
470.59	9067.24
470.77	9015.74
470.95	9097.66
471.14	8947.87
471.32	9015.74
471.50	9200.65
471.68	9362.14
471.86	9254.48
472.04	9476.83
472.22	9596.20
472.40	9362.14
472.58	9371.50
472.77	9495.55
472.95	9570.45
473.13	9975.36
473.31	9556.41
473.49	9640.67
473.67	9675.77
473.85	9809.19
474.03	9982.38
474.21	10026.86
474.39	9949.62
474.57	9940.26
474.75	10178.99
474.93	10085.37
475.12	10017.49
475.30	10176.65
475.48	10122.82
475.66	10506.66
475.84	10260.91
476.02	10448.15
476.20	10555.82
476.38	10628.37
476.56	10836.68
476.74	10626.03
476.92	10696.25
477.10	10864.77
477.28	10824.98
477.46	10782.85
477.64	11115.20
477.82	11323.51
478.00	11449.90
478.18	11389.05
478.36	11243.93
478.54	11564.59
478.72	11480.33
478.90	11513.10
479.08	11800.98
479.26	11925.03
479.44	11805.66
479.62	12032.69
479.80	12285.47
479.98	12248.02
480.16	12613.15
480.34	12238.66
480.52	12500.80
480.70	12505.48
480.88	12571.02
481.06	12573.36
481.24	12664.64
481.41	12751.24
481.59	13195.94
481.77	12961.89
481.95	12830.82
482.13	13312.97
482.31	13191.26
482.49	13486.17
482.67	13291.90
482.85	13343.39
483.03	13806.82
483.21	13886.40
483.39	13898.10
483.57	13724.90
483.74	13788.10
483.92	14319.40
484.10	14263.22
484.28	14286.63
484.46	14682.18
484.64	14658.78
484.82	14778.14
485.00	14946.66
485.18	15129.22
485.35	14939.64
485.53	14761.76
485.71	15129.22
485.89	15339.87
486.07	15346.89
486.25	15360.94
486.43	15484.98
486.61	15606.69
486.78	15843.09
486.96	16009.26
487.14	16243.32
487.32	16177.78
487.50	16547.59
487.68	16549.93
487.85	16929.09
488.03	16908.03
488.21	16947.82
488.39	16795.68
488.57	17425.29
488.75	17240.39
488.92	17303.58
489.10	17912.12
489.28	17792.75
489.46	17811.48
489.64	17720.20
489.81	18295.97
489.99	18415.34
490.17	18321.71
490.35	18775.78
490.53	18614.28
490.70	18541.72
490.88	18775.78
491.06	19208.78
491.24	18576.83
491.41	19117.50
491.59	18963.02
491.77	19168.99
491.95	19496.66
492.13	19491.98
492.30	19768.16
492.48	20002.22
492.66	20004.56
492.84	19859.45
493.01	20154.35
493.19	20189.46
493.37	20418.83
493.54	20482.03
493.72	20748.85
493.90	20922.05
494.08	20971.20
494.25	21137.38
494.43	21338.66
494.61	21558.67
494.79	21453.35
494.96	21469.73
495.14	21432.29
495.32	21755.28
495.49	21795.07
495.67	21762.30
495.85	22324.03
496.02	22036.14
496.20	22838.95
496.38	22651.70
496.55	22719.58
496.73	22862.35
496.91	22785.12
497.09	23012.15
497.26	23021.51
497.44	23159.60
497.62	23175.98
497.79	23105.77
497.97	23501.32
498.14	23550.47
498.32	23740.05
498.50	23548.13
498.67	23740.05
498.85	23983.47
499.03	24306.46
499.20	24020.92
499.38	24451.58
499.56	24364.98
499.73	24465.62
499.91	24404.77
500.08	24587.33
500.26	24243.27
500.44	24608.39
500.61	24718.40
500.79	24788.61
500.97	24657.54
501.14	25326.94
501.32	25249.70
501.49	25584.40
501.67	25266.08
501.84	25352.68
502.02	25235.66
502.20	25532.90
502.37	25638.23
502.55	26031.44
502.72	25663.97
502.90	26029.10
503.07	25830.15
503.25	25998.67
503.43	25874.62
503.60	26366.13
503.78	26108.68
503.95	26431.67
504.13	26384.86
504.30	26525.29
504.48	26431.67
504.65	26864.67
504.83	26960.63
505.01	26932.54
505.18	27023.83
505.36	27122.13
505.53	27295.33
505.71	27377.25
505.88	27475.55
506.06	27229.79
506.23	27498.95
506.41	27669.81
506.58	27206.39
506.76	27779.82
506.93	27793.86
507.11	28006.85
507.28	27910.89
507.46	27992.81
507.63	28027.92
507.81	28191.75
507.98	28053.66
508.16	28147.28
508.33	28610.71
508.50	28325.16
508.68	28196.43
508.85	28821.36
509.03	28346.23
509.20	28774.55
509.38	28840.08
509.55	29191.16
509.73	29483.73
509.90	29270.74
510.08	29102.22
510.25	29418.19
510.42	29558.63
510.60	29584.37
510.77	29565.65
510.95	29523.52
511.12	29659.27
511.30	29755.23
511.47	30010.35
511.64	29989.28
511.82	30120.35
511.99	30181.21
512.17	30188.23
512.34	30029.07
512.51	30286.53
512.69	30656.34
512.86	30525.27
513.04	30656.34
513.21	30803.79
513.38	30583.78
513.56	30890.39
513.73	30471.43
513.90	30656.34
514.08	30679.74
514.25	30745.28
514.43	30930.18
514.60	30738.26
514.77	31175.94
514.95	31452.12
515.12	31536.38
515.29	31606.59
515.47	31817.24
515.64	31747.03
515.81	31630.00
515.99	31414.67
516.16	31852.35
516.33	31438.08
516.51	31826.60
516.68	31508.29
516.85	31639.36
517.03	31667.45
517.20	31915.54
517.37	32046.62
517.54	32247.90
517.72	32449.19
517.89	32264.28
518.06	32116.83
518.24	32280.67
518.41	32224.50
518.58	32538.13
518.75	32254.92
518.93	32683.24
519.10	32301.73
519.27	32947.72
519.45	32987.51
519.62	33167.73
519.79	33041.34
519.96	33008.58
520.14	33174.75
520.31	33406.47
520.48	33408.81
520.65	33195.82
520.83	33567.96
521.00	34057.14
521.17	33347.95
521.34	33759.89
521.52	33659.24
521.69	33933.09
521.86	34078.20
522.03	34195.23
522.20	33823.08
522.38	34120.33
522.55	33909.68
522.72	34504.18
522.89	34169.48
523.07	34696.10
523.24	34281.83
523.41	34595.46
523.58	34728.87
523.75	34843.56
523.92	34979.31
524.10	34504.18
524.27	34801.43
524.44	35070.59
524.61	35093.99
524.78	34967.60
524.96	35264.85
525.13	35112.72
525.30	35314.00
525.47	35356.13
525.64	35311.66
525.81	35353.79
525.98	35302.30
526.16	35241.45
526.33	35828.92
526.50	35747.00
526.67	35606.57
526.84	35522.31
527.01	35377.20
527.18	35927.22
527.36	35866.37
527.53	35955.31
527.70	36437.46
527.87	36114.47
528.04	36168.30
528.21	36353.20
528.38	36285.33
528.55	36357.88
528.72	36395.33
528.89	36732.37
529.07	36334.48
529.24	36491.29
529.41	36655.13
529.58	36634.06
529.75	36570.87
529.92	36650.45
530.09	36617.68
530.26	36870.46
530.43	36758.11
530.60	36886.84
530.77	36971.10
530.94	37352.61
531.11	37118.56
531.28	36795.56
531.46	37233.24
531.63	37275.37
531.80	37432.19
531.97	37193.45
532.14	37116.22
532.31	37088.13
532.48	37649.86
532.65	37418.14
532.82	37748.16
532.99	37970.51
533.16	37179.41
533.33	37968.17
533.50	37801.99
533.67	37818.38
533.84	37947.11
534.01	37830.08
534.18	38092.22
534.35	38595.43
534.52	37720.07
534.69	38017.32
534.86	38323.93
535.03	38132.01
535.20	38665.65
535.37	38759.27
535.54	38579.05
535.71	38309.89
535.88	38146.05
536.05	38169.46
536.22	38375.42
536.38	38778.00
536.55	38871.62
536.72	38733.53
536.89	38176.48
537.06	38904.38
537.23	38742.89
537.40	38714.80
537.57	38883.32
537.74	39255.46
537.91	39423.98
538.08	39236.74
538.25	38728.84
538.42	38988.64
538.59	39445.05
538.75	38974.60
538.92	39400.58
539.09	39189.93
539.26	39203.97
539.43	39622.93
539.60	39306.96
539.77	39093.97
539.94	39512.92
540.11	39302.28
540.28	39426.32
540.44	39386.54
540.61	39594.84
540.78	39620.59
540.95	39445.05
541.12	39454.41
541.29	39945.92
541.46	39557.39
541.62	39821.87
541.79	40339.13
541.96	39477.82
542.13	39962.31
542.30	39906.13
542.47	40079.33
542.63	39845.28
542.80	40205.72
542.97	40598.93
543.14	40594.25
543.31	40804.90
543.48	40842.35
543.64	40940.65
543.81	40797.88
543.98	40570.85
544.15	40615.32
544.32	41008.53
544.48	41092.79
544.65	41191.09
544.82	40666.81
544.99	40687.87
545.16	40416.37
545.32	40744.05
545.49	41312.80
545.66	40905.54
545.83	41170.02
546.00	40973.42
546.16	41207.47
546.33	41116.19
546.50	40699.58
546.67	40996.82
546.83	40699.58
547.00	40870.43
547.17	41177.04
547.34	41422.80
547.50	41359.61
547.67	41628.77
547.84	41743.45
548.00	41518.76
548.17	41404.08
548.34	41558.55
548.51	42012.62
548.67	42103.90
548.84	41661.54
549.01	41825.37
549.18	41558.55
549.34	41794.95
549.51	42000.91
549.68	41808.99
549.84	42204.54
550.01	41853.46
550.18	41888.57
550.34	42464.34
550.51	42185.82
550.68	42040.70
550.84	41378.33
551.01	42108.58
551.18	42356.67
551.34	42136.66
551.51	42370.72
551.68	42323.91
551.84	42440.93
552.01	42087.51
552.18	42368.38
552.34	42031.34
552.51	42518.17
552.68	41993.89
552.84	42677.33
553.01	43180.54
553.18	42464.34
553.34	42291.14
553.51	42181.13
553.67	42710.10
553.84	42761.59
554.01	42745.20
554.17	42721.80
554.34	43178.20
554.51	43084.58
554.67	43047.13
554.84	42845.85
555.00	42665.63
555.17	42581.37
555.33	42784.99
555.50	42845.85
555.67	42827.12
555.83	43384.17
556.00	42691.37
556.16	43386.51
556.33	43136.07
556.50	42792.01
556.66	43606.52
556.83	42883.30
556.99	43054.15
557.16	43599.50
557.32	43480.13
557.49	43257.78
557.65	42660.94
557.82	42988.62
557.98	43503.54
558.15	43316.29
558.32	43482.47
558.48	43330.34
558.65	43232.04
558.81	43536.30
558.98	43077.56
559.14	43262.46
559.31	43185.22
559.47	43477.79
559.64	43861.64
559.80	43739.93
559.97	43688.44
560.13	43229.69
560.30	43716.53
560.46	43386.51
560.63	44037.18
560.79	43454.39
560.96	43983.35
561.12	43562.05
561.29	43739.93
561.45	43653.33
561.61	44191.65
561.78	44140.16
561.94	43374.81
562.11	44069.95
562.27	43555.03
562.44	43489.49
562.60	43796.10
562.77	44144.84
562.93	43756.32
563.10	44140.16
563.26	43693.12
563.42	44065.27
563.59	43761.00
563.75	43866.32
563.92	44076.97
564.08	44308.68
564.24	44100.37
564.41	43973.98
564.57	44083.99
564.74	44161.23
564.90	43908.45
565.07	44140.16
565.23	43950.58
565.39	44292.30
565.56	44236.12
565.72	43686.10
565.88	43819.51
566.05	43896.75
566.21	43861.64
566.38	44360.17
566.54	44025.48
566.70	44196.34
566.87	44217.40
567.03	43962.28
567.19	44622.31
567.36	44488.90
567.52	44051.22
567.68	44500.61
567.85	44123.78
568.01	44315.70
568.17	44243.15
568.34	44495.92
568.50	44353.15
568.66	43995.05
568.83	44182.29
568.99	43985.69
569.15	44285.28
569.32	43950.58
569.48	44186.97
569.64	44451.45
569.81	44500.61
569.97	44121.44
570.13	43962.28
570.30	44168.25
570.46	44034.84
570.62	43964.62
570.78	44308.68
570.95	44238.47
571.11	44514.65
571.27	44573.16
571.43	44512.31
571.60	44687.85
571.76	44343.79
571.92	44505.29
572.09	44795.51
572.25	44179.95
572.41	44048.88
572.57	44657.42
572.74	45132.55
572.90	44275.91
573.06	44732.32
573.22	44566.14
573.38	44657.42
573.55	44458.48
573.71	44500.61
573.87	44285.28
574.03	44264.21
574.20	44259.53
574.36	44746.36
574.52	44758.06
574.68	44842.32
574.84	44807.22
575.01	44807.22
575.17	44371.88
575.33	44411.67
575.49	44664.44
575.65	44779.13
575.82	45043.61
575.98	44694.87
576.14	44898.50
576.30	44533.37
576.46	44521.67
576.62	44624.65
576.79	44626.99
576.95	44486.56
577.11	44783.81
577.27	44465.50
577.43	44914.88
577.59	44835.30
577.75	44657.42
577.92	44364.85
578.08	44315.70
578.24	44439.75
578.40	44641.04
578.56	44531.03
578.72	44748.70
578.88	45202.77
579.04	45106.80
579.21	44481.88
579.37	44561.46
579.53	44680.83
579.69	44545.08
579.85	44594.23
580.01	44952.33
580.17	45167.66
580.33	44793.17
580.49	44814.24
580.65	44811.90
580.82	44767.43
580.98	44568.48
581.14	44224.42
581.30	44811.90
581.46	44622.31
581.62	44446.77
581.78	44690.19
581.94	44884.45
582.10	44596.57
582.26	44622.31
582.42	44814.24
582.58	44933.60
582.74	44767.43
582.90	44465.50
583.06	44907.86
583.22	44720.62
583.38	45109.14
583.54	44722.96
583.70	45064.67
583.86	44634.02
584.02	44456.14
584.18	44718.28
584.34	44760.40
584.50	45298.73
584.66	44622.31
584.82	44533.37
584.98	44802.53
585.14	45294.05
585.30	44828.28
585.46	44882.11
585.62	44685.51
585.78	44650.40
585.94	44760.40
586.10	44851.69
586.26	44516.99
586.42	45043.61
586.58	44701.89
586.74	45010.84
586.90	44947.65
587.06	44549.76
587.22	45130.21
587.38	44643.38
587.54	44804.88
587.70	45141.91
587.86	44942.97
588.02	44608.27
588.18	45165.32
588.34	44685.51
588.49	44453.79
588.65	44914.88
588.81	44306.34
588.97	44540.39
589.13	44793.17
589.29	44882.11
589.45	44823.60
589.61	45076.38
589.77	45045.95
589.93	45244.90
590.08	44851.69
590.24	45275.32
