SpectraSuite Data File
++++++++++++++++++++++++++++++++++++
Date: Fri Oct 25 11:26:23 EDT 2013
User: price-jones
Dark Spectrum Present: No
Reference Spectrum Present: No
Number of Sampled Component Spectra: 1
Spectrometers: USB2+H05261
Integration Time (usec): 100000 (USB2+H05261)
Spectra Averaged: 1 (USB2+H05261)
Boxcar Smoothing: 0 (USB2+H05261)
Correct for Electrical Dark: No (USB2+H05261)
Strobe/Lamp Enabled: No (USB2+H05261)
Correct for Detector Non-linearity: No (USB2+H05261)
Correct for Stray Light: No (USB2+H05261)
Number of Pixels in Processed Spectrum: 2048
>>>>>Begin Processed Spectral Data<<<<<
365.73	255.12
365.92	255.12
366.12	255.12
366.32	177.88
366.52	191.92
366.72	208.31
366.91	128.73
367.11	191.92
367.31	112.35
367.51	138.09
367.70	227.03
367.90	100.64
368.10	156.82
368.30	161.50
368.49	166.18
368.69	154.48
368.89	163.84
369.09	161.50
369.28	166.18
369.48	133.41
369.68	175.54
369.87	180.22
370.07	241.08
370.27	243.42
370.47	311.29
370.66	582.79
370.86	571.09
371.06	601.52
371.25	725.57
371.45	660.03
371.65	709.18
371.84	674.07
372.04	688.12
372.24	713.86
372.44	793.44
372.63	833.23
372.83	765.36
373.03	760.67
373.22	819.19
373.42	798.12
373.62	713.86
373.81	781.74
374.01	828.55
374.21	779.40
374.40	798.12
374.60	758.33
374.79	844.93
374.99	833.23
375.19	779.40
375.38	840.25
375.58	835.57
375.78	917.49
375.97	807.48
376.17	898.77
376.37	842.59
376.56	882.38
376.76	880.04
376.95	849.61
377.15	844.93
377.35	983.02
377.54	947.92
377.74	905.79
377.93	889.40
378.13	884.72
378.33	1011.11
378.52	898.77
378.72	884.72
378.91	940.90
379.11	985.37
379.31	950.26
379.50	943.24
379.70	961.96
379.89	968.98
380.09	1001.75
380.28	997.07
380.48	1102.39
380.68	1027.50
380.87	980.68
381.07	997.07
381.26	1090.69
381.46	1027.50
381.65	1078.99
381.85	1046.22
382.04	1046.22
382.24	1107.07
382.43	1111.75
382.63	1109.41
382.83	1027.50
383.02	1060.26
383.22	1158.57
383.41	1125.80
383.61	1050.90
383.80	1116.44
384.00	1069.62
384.19	1076.65
384.39	1153.88
384.58	1064.94
384.78	1144.52
384.97	1160.91
385.17	1144.52
385.36	1102.39
385.56	1184.31
385.75	1172.61
385.95	1181.97
386.14	1224.10
386.34	1221.76
386.53	1268.57
386.72	1181.97
386.92	1275.59
387.11	1224.10
387.31	1238.14
387.50	1240.48
387.70	1294.32
387.89	1245.16
388.09	1203.04
388.28	1240.48
388.48	1299.00
388.67	1336.45
388.86	1299.00
389.06	1287.29
389.25	1240.48
389.45	1308.36
389.64	1310.70
389.84	1289.64
390.03	1472.20
390.22	1390.28
390.42	1289.64
390.61	1423.05
390.81	1320.06
391.00	1425.39
391.19	1366.87
391.39	1474.54
391.58	1430.07
391.78	1397.30
391.97	1362.19
392.16	1502.62
392.36	1535.39
392.55	1551.78
392.75	1551.78
392.94	1474.54
393.13	1509.65
393.33	1549.43
393.52	1605.61
393.71	1682.85
393.91	1584.54
394.10	1579.86
394.29	1657.10
394.49	1624.33
394.68	1710.93
394.88	1561.14
395.07	1694.55
395.26	1617.31
395.46	1675.82
395.65	1701.57
395.84	1732.00
396.04	1755.40
396.23	1764.76
396.42	1680.50
396.62	1823.28
396.81	1689.87
397.00	1689.87
397.19	1727.32
397.39	1753.06
397.58	1823.28
397.77	1732.00
397.97	1867.75
398.16	1832.64
398.35	1865.41
398.55	1839.66
398.74	1942.64
398.93	2022.22
399.12	1898.17
399.32	1827.96
399.51	2015.20
399.70	2022.22
399.90	2003.50
400.09	1998.82
400.28	2005.84
400.47	2040.95
400.67	2033.93
400.86	2047.97
401.05	2099.46
401.24	2111.16
401.44	2174.36
401.63	2167.34
401.82	2218.83
402.01	2143.93
402.21	2120.53
402.40	2134.57
402.59	2141.59
402.78	2321.81
402.97	2197.76
403.17	2228.19
403.36	2300.75
403.55	2263.30
403.74	2359.26
403.93	2469.27
404.13	2253.94
404.32	2392.03
404.51	2452.88
404.70	2347.56
404.89	2422.45
405.09	2506.71
405.28	2438.84
405.47	2537.14
405.66	2499.69
405.85	2565.23
406.05	2490.33
406.24	2534.80
406.43	2558.21
406.62	2719.70
406.81	2626.08
407.00	2581.61
407.20	2551.18
407.39	2637.78
407.58	2743.11
407.77	2689.28
407.96	2656.51
408.15	2803.96
408.34	2658.85
408.54	2752.47
408.73	2628.42
408.92	2825.03
409.11	2834.39
409.30	2916.31
409.49	2853.11
409.68	2860.13
409.87	2895.24
410.07	3059.08
410.26	2981.84
410.45	3028.65
410.64	3030.99
410.83	3169.09
411.02	3023.97
411.21	3185.47
411.40	3115.25
411.59	3098.87
411.78	3225.26
411.98	3201.85
412.17	3304.84
412.36	3302.50
412.55	3283.77
412.74	3325.90
412.93	3344.63
413.12	3328.24
413.31	3342.28
413.50	3499.10
413.69	3356.33
413.88	3623.15
414.07	3531.87
414.26	3524.85
414.45	3541.23
414.64	3637.19
414.83	3751.88
415.02	3730.81
415.22	3838.48
415.41	3833.80
415.60	3829.12
415.79	3983.59
415.98	4028.06
416.17	4046.79
416.36	3922.74
416.55	3920.40
416.74	4081.89
416.93	4081.89
417.12	4102.96
417.31	4205.94
417.50	4100.62
417.69	4205.94
417.88	4063.17
418.07	4255.09
418.26	4327.65
418.45	4369.78
418.64	4521.92
418.83	4479.79
419.02	4306.59
419.21	4369.78
419.39	4463.40
419.58	4538.30
419.77	4521.92
419.96	4458.72
420.15	4437.66
420.34	4671.71
420.53	4514.89
420.72	4798.10
420.91	4720.86
421.10	4587.45
421.29	4662.35
421.48	4807.46
421.67	4704.48
421.86	4758.31
422.05	4898.74
422.24	4863.63
422.43	4823.84
422.61	4823.84
422.80	4875.34
422.99	5055.56
423.18	4858.95
423.37	4964.28
423.56	4865.97
423.75	4983.00
423.94	4779.37
424.13	4669.37
424.32	4781.71
424.50	4954.91
424.69	5107.05
424.88	5090.67
425.07	5069.60
425.26	4896.40
425.45	4791.08
425.64	4931.51
425.83	4905.76
426.01	5046.20
426.20	5029.81
426.39	4903.42
426.58	5013.43
426.77	4889.38
426.96	5118.75
427.15	4959.60
427.33	5163.22
427.52	5172.58
427.71	5104.71
427.90	5329.40
428.09	5247.48
428.28	5364.51
428.46	5432.38
428.65	5172.58
428.84	5476.85
429.03	5514.30
429.22	5317.70
429.40	5247.48
429.59	5600.90
429.78	5289.61
429.97	5275.57
430.16	5493.24
430.34	5511.96
430.53	5521.32
430.72	5586.86
430.91	5710.91
431.10	5598.56
431.28	5636.01
431.47	5802.19
431.66	5713.25
431.85	5724.95
432.03	5734.31
432.22	5806.87
432.41	6031.56
432.60	5940.28
432.79	5884.11
432.97	5963.68
433.16	5933.26
433.35	5856.02
433.54	5989.43
433.72	6132.20
433.91	6064.33
434.10	6239.87
434.28	5984.75
434.47	6146.25
434.66	6349.87
434.85	6289.02
435.03	6314.77
435.22	6188.38
435.41	6363.92
435.59	6183.70
435.78	6359.24
435.97	6410.73
436.16	6394.34
436.34	6389.66
436.53	6389.66
436.72	6551.16
436.90	6380.30
437.09	6619.04
437.28	6553.50
437.46	6647.12
437.65	6607.33
437.84	6628.40
438.02	6682.23
438.21	6801.60
438.40	6689.25
438.58	6942.03
438.77	6792.23
438.96	7110.55
439.14	7021.61
439.33	7040.33
439.52	7346.94
439.70	7283.75
439.89	7218.21
440.08	7335.24
440.26	7243.96
440.45	7452.27
440.63	7274.38
440.82	7569.29
441.01	7454.61
441.19	7508.44
441.38	7662.91
441.57	7480.35
441.75	7646.53
441.94	7918.03
442.12	7810.37
442.31	8107.62
442.50	8102.93
442.68	7885.26
442.87	8044.42
443.05	8056.12
443.24	8079.53
443.43	8238.69
443.61	8180.17
443.80	8564.02
443.98	8081.87
444.17	7906.33
444.35	8102.93
444.54	8189.53
444.73	8287.84
444.91	8285.50
445.10	8177.83
445.28	8170.81
445.47	8100.59
445.65	8229.32
445.84	8463.38
446.02	8397.84
446.21	8411.89
446.39	8428.27
446.58	8297.20
446.77	8297.20
446.95	8147.40
447.14	8315.92
447.32	8524.23
447.51	8360.39
447.69	8390.82
447.88	8585.08
448.06	8344.01
448.25	8503.17
448.43	8505.51
448.62	8400.18
448.80	8507.85
448.99	8634.24
449.17	8507.85
449.36	8510.19
449.54	8667.00
449.73	8908.08
449.91	9048.51
450.10	8798.07
450.28	8971.27
450.46	9095.32
450.65	9156.18
450.83	8931.48
451.02	9064.89
451.20	9046.17
451.39	9078.94
451.57	9200.65
451.76	8887.01
451.94	9114.05
452.13	9064.89
452.31	9303.63
452.49	9027.45
452.68	9217.03
452.86	9146.81
453.05	9504.92
453.23	9357.46
453.42	9305.97
453.60	9397.25
453.78	9612.58
453.97	9345.76
454.15	9488.53
454.34	9441.72
454.52	9661.73
454.70	9774.08
454.89	9607.90
455.07	9652.37
455.26	9827.91
455.44	9863.02
455.62	9802.16
455.81	9804.50
455.99	10038.56
456.17	9933.23
456.36	9907.49
456.54	9886.42
456.73	9886.42
456.91	10473.90
457.09	10162.61
457.28	10600.29
457.46	10370.91
457.64	10401.34
457.83	10469.22
458.01	10265.59
458.19	10604.97
458.38	10628.37
458.56	10586.24
458.74	10661.14
458.93	10864.77
459.11	10764.12
459.29	10574.54
459.48	10822.64
459.66	10649.44
459.84	10977.11
460.03	11096.48
460.21	10927.96
460.39	10934.98
460.57	10965.41
460.76	10984.13
460.94	11089.46
461.12	11185.42
461.31	11162.01
461.49	11164.36
461.67	11199.46
461.85	11386.71
462.04	11295.43
462.22	11810.34
462.40	11524.80
462.59	11595.01
462.77	11573.95
462.95	11314.15
463.13	11499.05
463.32	11459.26
463.50	11742.47
463.68	11641.82
463.86	11822.05
464.05	11695.66
464.23	11428.84
464.41	12070.14
464.59	11545.86
464.78	12063.12
464.96	11927.37
465.14	11641.82
465.32	11852.47
465.50	12056.10
465.69	11997.59
465.87	12149.72
466.05	12035.03
466.23	12147.38
466.41	12093.55
466.60	12554.63
466.78	12112.27
466.96	12409.52
467.14	12119.29
467.32	12416.54
467.51	12629.53
467.69	12198.87
467.87	12486.76
468.05	12446.97
468.23	12343.99
468.41	12512.50
468.60	12587.40
468.78	12681.02
468.96	12578.04
469.14	12784.01
469.32	13118.70
469.50	12484.42
469.69	13011.04
469.87	12879.97
470.05	13060.19
470.23	12978.27
470.41	12947.84
470.59	13301.26
470.77	13153.81
470.95	13083.59
471.14	13558.72
471.32	13256.79
471.50	13310.63
471.68	13862.99
471.86	13792.78
472.04	13774.05
472.22	13963.64
472.40	13628.94
472.58	13898.10
472.77	14073.64
472.95	13949.59
473.13	14480.89
473.31	14031.51
473.49	14281.95
473.67	13830.23
473.85	14197.69
474.03	14597.92
474.21	14389.61
474.39	14581.54
474.57	14607.28
474.75	14721.97
474.93	14941.98
475.12	14712.61
475.30	14930.28
475.48	14946.66
475.66	15087.09
475.84	15042.62
476.02	15309.44
476.20	15290.72
476.38	15562.22
476.56	16023.31
476.74	16042.03
476.92	15822.02
477.10	15506.05
477.28	16051.39
477.46	15976.50
477.64	15948.41
477.82	16587.38
478.00	16858.88
478.18	16451.63
478.36	17025.06
478.54	16982.93
478.72	17043.78
478.90	17280.18
479.08	17603.17
479.26	17504.87
479.44	17392.52
479.62	17509.55
479.80	18019.78
479.98	18080.64
480.16	18469.17
480.34	18260.86
480.52	18651.73
480.70	18445.76
480.88	18146.17
481.06	18611.94
481.24	18801.52
481.41	18944.30
481.59	19145.58
481.77	19232.18
481.95	19482.62
482.13	19674.54
482.31	19604.33
482.49	19962.43
482.67	20077.12
482.85	20030.30
483.03	20353.30
483.21	20746.51
483.39	20823.75
483.57	20683.31
483.74	20938.43
483.92	21436.97
484.10	20987.58
484.28	21736.56
484.46	21703.79
484.64	22455.10
484.82	21909.75
485.00	22157.85
485.18	22609.58
485.35	22738.30
485.53	22553.40
485.71	22984.06
485.89	23246.20
486.07	23185.35
486.25	23503.66
486.43	23494.30
486.61	23506.00
486.78	24056.03
486.96	23915.59
487.14	24196.46
487.32	24687.97
487.50	24730.10
487.68	24889.26
487.85	24814.36
488.03	25392.47
488.21	25865.26
488.39	25671.00
488.57	25741.21
488.75	26054.84
488.92	26122.72
489.10	26490.18
489.28	26448.05
489.46	27002.76
489.64	26876.37
489.81	27372.57
489.99	27414.69
490.17	27386.61
490.35	27967.06
490.53	27990.47
490.70	27983.44
490.88	27527.04
491.06	28662.20
491.24	28795.61
491.41	28903.28
491.59	28914.98
491.77	28980.51
491.95	29357.34
492.13	29560.97
492.30	29813.74
492.48	29551.60
492.66	29797.36
492.84	30120.35
493.01	30529.95
493.19	30073.54
493.37	30827.20
493.54	30572.08
493.72	31215.72
493.90	31218.07
494.08	31384.24
494.25	31887.46
494.43	31737.66
494.61	31908.52
494.79	32210.45
494.96	32318.12
495.14	32664.52
495.32	33034.32
495.49	32734.73
495.67	32847.08
495.85	33165.39
496.02	33535.20
496.20	33642.86
496.38	34038.41
496.55	34071.18
496.73	34728.87
496.91	34340.34
497.09	34785.04
497.26	34616.52
497.44	34941.86
497.62	35377.20
497.79	35372.52
497.97	35012.07
498.14	35810.20
498.32	36121.49
498.50	35620.61
498.67	36109.78
498.85	36313.41
499.03	36158.94
499.20	36088.72
499.38	36680.88
499.56	36926.63
499.73	36896.20
499.91	37134.94
500.08	37516.45
500.26	37322.18
500.44	37434.53
500.61	37720.07
500.79	37769.22
500.97	37633.47
501.14	38286.48
501.32	38539.26
501.49	38438.62
501.67	38548.62
501.84	38866.94
502.02	38490.11
502.20	38719.48
502.37	39103.33
502.55	39002.69
502.72	39379.51
502.90	39218.02
503.07	39283.55
503.25	39416.96
503.43	39489.52
503.60	39627.61
503.78	40275.94
503.95	39992.73
504.13	40346.15
504.30	40563.82
504.48	40229.13
504.65	41123.21
504.83	40739.36
505.01	40975.76
505.18	40933.63
505.36	41106.83
505.53	41027.25
505.71	41364.29
505.88	41734.09
506.06	41202.79
506.23	41469.61
506.41	41951.76
506.58	41867.50
506.76	41961.12
506.93	42040.70
507.11	42094.53
507.28	42433.91
507.46	42518.17
507.63	42724.14
507.81	42911.38
507.98	42827.12
508.16	42618.81
508.33	43206.29
508.50	43430.98
508.68	43402.89
508.85	43384.17
509.03	43674.40
509.20	43941.22
509.38	43842.92
509.55	44177.61
509.73	44411.67
509.90	44151.87
510.08	44299.32
510.25	44648.06
510.42	44163.57
510.60	44917.22
510.77	45106.80
510.95	45359.58
511.12	44641.04
511.30	44879.77
511.47	45205.11
511.64	45167.66
511.82	45883.86
511.99	45574.91
512.17	45691.94
512.34	45366.60
512.51	45860.46
512.69	46138.98
512.86	45881.52
513.04	46469.00
513.21	45846.41
513.38	46391.76
513.56	46368.35
513.73	46305.16
513.90	46953.49
514.08	46408.14
514.25	46911.36
514.43	47157.11
514.60	46902.00
514.77	47452.02
514.95	47473.09
515.12	47337.33
515.29	47299.89
515.47	47859.27
515.64	47800.76
515.81	47629.90
515.99	48041.84
516.16	48208.01
516.33	47672.03
516.51	48273.55
516.68	48184.61
516.85	48554.41
517.03	48437.39
517.20	48765.06
517.37	48683.14
517.54	48631.65
517.72	48652.72
517.89	48484.20
518.06	48839.96
518.24	49195.72
518.41	48837.62
518.58	49296.36
518.75	48994.43
518.93	49336.15
519.10	49109.12
519.27	49296.36
519.45	49404.03
519.62	49881.50
519.79	50134.28
519.96	49705.96
520.14	50064.06
520.31	49909.58
520.48	49954.05
520.65	50129.59
520.83	50375.35
521.00	50237.26
521.17	50574.30
521.34	50365.99
521.52	50674.94
521.69	50499.40
521.86	50543.87
522.03	50897.29
522.20	50862.18
522.38	51171.13
522.55	51196.88
522.72	51283.48
522.89	51430.93
523.07	51414.55
523.24	51143.05
523.41	51330.29
523.58	51564.34
523.75	51454.34
523.92	51622.86
524.10	51679.03
524.27	51756.27
524.44	51599.45
524.61	52116.71
524.78	52112.03
524.96	51969.26
525.13	52210.33
525.30	52196.29
525.47	52327.36
525.64	52325.02
525.81	52168.20
525.98	52350.76
526.16	52423.32
526.33	52388.21
526.50	52699.50
526.67	52374.17
526.84	52704.18
527.01	52676.10
527.18	52596.52
527.36	52842.27
527.53	53006.11
527.70	53289.32
527.87	53228.46
528.04	52971.00
528.21	53233.14
528.38	53254.21
528.55	53429.75
528.72	53132.50
528.89	53375.92
529.07	53282.30
529.24	53134.84
529.41	53446.13
529.58	53326.77
529.75	53483.58
529.92	53291.66
530.09	53567.84
530.26	53773.81
530.43	53663.80
530.60	53546.78
530.77	53804.24
530.94	53811.26
531.11	54085.10
531.28	54017.22
531.46	53909.56
531.63	53832.32
531.80	53944.67
531.97	54136.59
532.14	54253.62
532.31	54302.77
532.48	54340.22
532.65	54415.11
532.82	54134.25
532.99	54504.06
533.16	54326.17
533.33	54408.09
533.50	54674.91
533.67	54794.28
533.84	54459.58
534.01	54824.71
534.18	54569.59
534.35	55110.25
534.52	54719.38
534.69	54780.24
534.86	55189.83
535.03	54894.92
535.20	55018.97
535.37	55107.91
535.54	55136.00
535.71	54852.80
535.88	55246.00
536.05	55100.89
536.22	55323.24
536.38	55458.99
536.55	55468.36
536.72	55686.03
536.89	55295.16
537.06	55318.56
537.23	55683.69
537.40	55178.13
537.57	55650.92
537.74	55552.62
537.91	55763.26
538.08	55751.56
538.25	55320.90
538.42	55805.39
538.59	55875.61
538.75	55702.41
538.92	55931.78
539.09	56259.46
539.26	55882.63
539.43	55936.46
539.60	56207.97
539.77	56416.27
539.94	56444.36
540.11	56224.35
540.28	56130.73
540.44	56420.95
540.61	56315.63
540.78	56257.12
540.95	56198.60
541.12	56357.76
541.29	56320.31
541.46	56423.29
541.62	56399.89
541.79	56512.23
541.96	56266.48
542.13	56257.12
542.30	56519.26
542.47	56549.68
542.63	56741.61
542.80	56853.95
542.97	56774.37
543.14	57055.24
543.31	57109.07
543.48	57043.54
543.64	57214.40
543.81	57146.52
543.98	57345.47
544.15	57071.62
544.32	57113.75
544.48	57324.40
544.65	57104.39
544.82	57247.16
544.99	57270.57
545.16	57392.28
545.32	57411.00
545.49	57403.98
545.66	57598.24
545.83	57429.72
546.00	57546.75
546.16	57350.15
546.33	57256.53
546.50	57247.16
546.67	57588.88
546.83	57366.53
547.00	57563.14
547.17	57392.28
547.34	57621.65
547.50	57729.31
547.67	58115.50
547.84	57717.61
548.00	57951.66
548.17	58162.31
548.34	57710.59
548.51	57921.24
548.67	58066.35
548.84	58080.39
549.01	57961.03
549.18	57932.94
549.34	58103.80
549.51	58073.37
549.68	58211.46
549.84	58082.73
550.01	58300.40
550.18	58049.97
550.34	58181.04
550.51	58340.19
550.68	58101.46
550.84	58260.62
551.01	58340.19
551.18	58239.55
551.34	58293.38
551.51	58436.16
551.68	58440.84
551.84	58398.71
552.01	58351.90
552.18	58616.38
552.34	58557.86
552.51	58485.31
552.68	58340.19
552.84	58302.74
553.01	58883.20
553.18	58576.59
553.34	58632.76
553.51	58630.42
553.67	58562.54
553.84	58827.02
554.01	58710.00
554.17	58913.62
554.34	58864.47
554.51	58681.91
554.67	58822.34
554.84	58754.47
555.00	58768.51
555.17	58834.05
555.33	58892.56
555.50	58805.96
555.67	58815.32
555.83	58787.24
556.00	58815.32
556.16	59178.10
556.33	59206.19
556.50	59157.04
556.66	59133.63
556.83	58892.56
556.99	59217.89
557.16	59405.14
557.32	59114.91
557.49	59332.58
557.65	59271.73
557.82	59121.93
557.98	59302.15
558.15	59185.13
558.32	59253.00
558.48	58944.05
558.65	59248.32
558.81	59299.81
558.98	59465.99
559.14	59398.12
559.31	59473.01
559.47	59437.90
559.64	59419.18
559.80	59360.67
559.97	59554.93
560.13	59365.35
560.30	59571.32
560.46	59540.89
560.63	59522.16
560.79	59370.03
560.96	59590.04
561.12	59531.53
561.29	59650.89
561.45	59594.72
561.61	59566.63
561.78	59526.84
561.94	59580.68
562.11	59676.64
562.27	59646.21
562.44	59760.90
562.60	60044.10
562.77	59683.66
562.93	59770.26
563.10	59999.63
563.26	59714.09
563.42	60051.12
563.59	59707.07
563.75	59884.95
563.92	59891.97
564.08	59784.30
564.24	59978.57
564.41	60081.55
564.57	59969.21
564.74	59854.52
564.90	60041.76
565.07	59913.03
565.23	59957.50
565.39	59994.95
565.56	60121.34
565.72	59903.67
565.88	60224.32
566.05	59952.82
566.21	59847.50
566.38	60128.36
566.54	60018.36
566.70	60140.07
566.87	60331.99
567.03	59978.57
567.19	60261.77
567.36	60165.81
567.52	60079.21
567.68	60465.40
567.85	60072.19
568.01	60212.62
568.17	60182.19
568.34	60219.64
568.50	59948.14
568.66	60053.47
568.83	60158.79
568.99	60296.88
569.15	60303.90
569.32	60397.52
569.48	60149.43
569.64	60441.99
569.81	60439.65
569.97	60261.77
570.13	60324.97
570.30	60027.72
570.46	60072.19
570.62	60327.31
570.78	60221.98
570.95	60320.29
571.11	60388.16
571.27	60151.77
571.43	60350.71
571.60	60505.19
571.76	60357.74
571.92	60427.95
572.09	60217.30
572.25	60458.38
572.41	60275.82
572.57	60362.42
572.74	60594.13
572.90	60369.44
573.06	60544.98
573.22	60568.38
573.38	60547.32
573.55	60573.06
573.71	60610.51
573.87	60481.78
574.03	60493.49
574.20	60561.36
574.36	60317.95
574.52	60638.60
574.68	60509.87
574.84	60479.44
575.01	60603.49
575.17	60566.04
575.33	60486.46
575.49	60355.39
575.65	60535.62
575.82	60783.71
575.98	60608.17
576.14	60594.13
576.30	60734.56
576.46	60669.03
576.62	60612.85
576.79	60573.06
576.95	60495.83
577.11	60577.75
577.27	60617.53
577.43	60507.53
577.59	60559.02
577.75	60411.57
577.92	60439.65
578.08	60608.17
578.24	60596.47
578.40	60786.05
578.56	60793.07
578.72	60708.82
578.88	61048.19
579.04	60783.71
579.21	60830.52
579.37	60814.14
579.53	60685.41
579.69	60495.83
579.85	60748.60
580.01	60802.44
580.17	60587.11
580.33	60722.86
580.49	60835.20
580.65	60718.18
580.82	60437.31
580.98	60706.47
581.14	60669.03
581.30	60917.12
581.46	60837.54
581.62	60835.20
581.78	60540.30
581.94	60942.87
582.10	60680.73
582.26	60736.90
582.42	60851.59
582.58	60804.78
582.74	60605.83
582.90	60753.29
583.06	60701.79
583.22	60563.70
583.38	60626.90
583.54	60603.49
583.70	60977.98
583.86	60603.49
584.02	60687.75
584.18	61031.81
584.34	60662.00
584.50	60739.24
584.66	60893.72
584.82	60633.92
584.98	60886.70
585.14	60903.08
585.30	60533.28
585.46	60919.46
585.62	60867.97
585.78	61017.77
585.94	60526.25
586.10	60851.59
586.26	60989.68
586.42	60889.04
586.58	60898.40
586.74	61020.11
586.90	60975.64
587.06	60788.39
587.22	61022.45
587.38	60963.93
587.54	60882.02
587.70	61179.26
587.86	60809.46
588.02	61078.62
588.18	61155.86
588.34	60839.89
588.49	60830.52
