SpectraSuite Data File
++++++++++++++++++++++++++++++++++++
Date: Fri Oct 25 11:22:30 EDT 2013
User: price-jones
Dark Spectrum Present: No
Reference Spectrum Present: No
Number of Sampled Component Spectra: 1
Spectrometers: USB2+H05261
Integration Time (usec): 100000 (USB2+H05261)
Spectra Averaged: 1 (USB2+H05261)
Boxcar Smoothing: 0 (USB2+H05261)
Correct for Electrical Dark: No (USB2+H05261)
Strobe/Lamp Enabled: No (USB2+H05261)
Correct for Detector Non-linearity: No (USB2+H05261)
Correct for Stray Light: No (USB2+H05261)
Number of Pixels in Processed Spectrum: 2048
>>>>>Begin Processed Spectral Data<<<<<
365.73	217.67
365.92	217.67
366.12	217.67
366.32	86.60
366.52	107.66
366.72	81.92
366.91	152.13
367.11	128.73
367.31	98.30
367.51	70.22
367.70	159.16
367.90	138.09
368.10	142.77
368.30	135.75
368.49	112.35
368.69	166.18
368.89	114.69
369.09	138.09
369.28	152.13
369.48	56.17
369.68	161.50
369.87	149.79
370.07	248.10
370.27	205.97
370.47	318.31
370.66	517.26
370.86	650.67
371.06	674.07
371.25	638.97
371.45	571.09
371.65	685.78
371.84	690.46
372.04	564.07
372.24	734.93
372.44	669.39
372.63	624.92
372.83	737.27
373.03	692.80
373.22	704.50
373.42	664.71
373.62	854.30
373.81	798.12
374.01	858.98
374.21	854.30
374.40	837.91
374.60	826.21
374.79	739.61
374.99	830.89
375.19	830.89
375.38	835.57
375.58	880.04
375.78	873.02
375.97	828.55
376.17	837.91
376.37	866.00
376.56	858.98
376.76	903.45
376.95	931.53
377.15	851.96
377.35	940.90
377.54	917.49
377.74	924.51
377.93	851.96
378.13	917.49
378.33	915.15
378.52	821.53
378.72	992.39
378.91	912.81
379.11	973.66
379.31	940.90
379.50	952.60
379.70	954.94
379.89	1008.77
380.09	990.05
380.28	1001.75
380.48	999.41
380.68	959.62
380.87	973.66
381.07	1027.50
381.26	992.39
381.46	994.73
381.65	1069.62
381.85	980.68
382.04	1004.09
382.24	1013.45
382.43	1125.80
382.63	1081.33
382.83	1095.37
383.02	1057.92
383.22	1093.03
383.41	1158.57
383.61	1093.03
383.80	1067.28
384.00	1093.03
384.19	1088.35
384.39	1053.24
384.58	1151.54
384.78	1135.16
384.97	1235.80
385.17	1118.78
385.36	1219.42
385.56	1158.57
385.75	1170.27
385.95	1179.63
386.14	1259.21
386.34	1128.14
386.53	1221.76
386.72	1160.91
386.92	1217.08
387.11	1280.27
387.31	1200.69
387.50	1280.27
387.70	1341.13
387.89	1217.08
388.09	1261.55
388.28	1315.38
388.48	1235.80
388.67	1198.35
388.86	1336.45
389.06	1327.08
389.25	1322.40
389.45	1334.11
389.64	1324.74
389.84	1254.53
390.03	1462.83
390.22	1425.39
390.42	1411.34
390.61	1331.76
390.81	1373.89
391.00	1373.89
391.19	1394.96
391.39	1465.18
391.58	1413.68
391.78	1502.62
391.97	1455.81
392.16	1451.13
392.36	1528.37
392.55	1607.95
392.75	1572.84
392.94	1488.58
393.13	1453.47
393.33	1507.30
393.52	1640.72
393.71	1526.03
393.91	1540.07
394.10	1558.80
394.29	1633.69
394.49	1584.54
394.68	1657.10
394.88	1696.89
395.07	1694.55
395.26	1624.33
395.46	1732.00
395.65	1561.14
395.84	1647.74
396.04	1734.34
396.23	1785.83
396.42	1675.82
396.62	1757.74
396.81	1743.70
397.00	1884.13
397.19	1692.21
397.39	1762.42
397.58	1774.13
397.77	1849.02
397.97	1799.87
398.16	1811.57
398.35	1966.05
398.55	1893.49
398.74	1884.13
398.93	1928.60
399.12	1912.22
399.32	1858.39
399.51	1921.58
399.70	2005.84
399.90	2001.16
400.09	2094.78
400.28	2167.34
400.47	2071.37
400.67	2078.40
400.86	2155.63
401.05	2045.63
401.24	2094.78
401.44	2155.63
401.63	2235.21
401.82	2155.63
402.01	2251.60
402.21	2160.31
402.40	2186.06
402.59	2139.25
402.78	2129.89
402.97	2197.76
403.17	2303.09
403.36	2286.70
403.55	2420.11
403.74	2331.17
403.93	2319.47
404.13	2352.24
404.32	2392.03
404.51	2319.47
404.70	2424.80
404.89	2401.39
405.09	2499.69
405.28	2485.65
405.47	2452.88
405.66	2497.35
405.85	2574.59
406.05	2518.42
406.24	2520.76
406.43	2593.31
406.62	2675.23
406.81	2722.04
407.00	2565.23
407.20	2523.10
407.39	2689.28
407.58	2698.64
407.77	2761.83
407.96	2710.34
408.15	2796.94
408.34	2747.79
408.54	2801.62
408.73	2803.96
408.92	2864.82
409.11	2871.84
409.30	2916.31
409.49	2841.41
409.68	2963.12
409.87	2942.05
410.07	2998.23
410.26	3000.57
410.45	3087.17
410.64	3141.00
410.83	3115.25
411.02	3066.10
411.21	3180.79
411.40	3150.36
411.59	3133.98
411.78	3232.28
411.98	3176.11
412.17	3211.22
412.36	3311.86
412.55	3403.14
412.74	3386.76
412.93	3396.12
413.12	3431.23
413.31	3597.40
413.50	3545.91
413.69	3501.44
413.88	3702.73
414.07	3613.79
414.26	3695.71
414.45	3648.90
414.64	3761.24
414.83	3847.84
415.02	3772.94
415.22	3815.07
415.41	3875.93
415.60	3908.69
415.79	3950.82
415.98	4072.53
416.17	4030.40
416.36	3988.27
416.55	3985.93
416.74	4159.13
416.93	4187.22
417.12	4124.02
417.31	4329.99
417.50	4250.41
417.69	4325.31
417.88	4402.55
418.07	4367.44
418.26	4201.26
418.45	4369.78
418.64	4493.83
418.83	4470.42
419.02	4484.47
419.21	4496.17
419.39	4664.69
419.58	4447.02
419.77	4535.96
419.96	4681.07
420.15	4681.07
420.34	4568.73
420.53	4875.34
420.72	4865.97
420.91	4709.16
421.10	4786.40
421.29	4772.35
421.48	4669.37
421.67	4943.21
421.86	4926.83
422.05	4898.74
422.24	4994.70
422.43	4821.50
422.61	4938.53
422.80	5170.24
422.99	4964.28
423.18	5004.07
423.37	5011.09
423.56	4952.57
423.75	4882.36
423.94	4924.49
424.13	4589.79
424.32	4765.33
424.50	5022.79
424.69	5078.96
424.88	5093.01
425.07	4983.00
425.26	4936.19
425.45	5062.58
425.64	4966.62
425.83	5111.73
426.01	5123.43
426.20	5123.43
426.39	5043.85
426.58	5228.76
426.77	5144.50
426.96	5020.45
427.15	5172.58
427.33	5284.93
427.52	5266.21
427.71	5308.34
427.90	5233.44
428.09	5366.85
428.28	5390.25
428.46	5469.83
428.65	5397.28
428.84	5537.71
429.03	5584.52
429.22	5493.24
429.40	5556.43
429.59	5565.79
429.78	5423.02
429.97	5177.26
430.16	5518.98
430.34	5645.37
430.53	5474.51
430.72	5748.36
430.91	5636.01
431.10	5628.99
431.28	6045.60
431.47	5830.27
431.66	5914.53
431.85	5844.32
432.03	5881.77
432.22	6024.54
432.41	5956.66
432.60	5942.62
432.79	5984.75
432.97	6050.28
433.16	6059.65
433.35	6080.71
433.54	6036.24
433.72	6113.48
433.91	6160.29
434.10	6153.27
434.28	6239.87
434.47	6256.25
434.66	6324.13
434.85	6317.11
435.03	6422.43
435.22	6319.45
435.41	6502.01
435.59	6363.92
435.78	6464.56
435.97	6392.00
436.16	6373.28
436.34	6525.41
436.53	6555.84
436.72	6860.11
436.90	6707.98
437.09	6768.83
437.28	6619.04
437.46	6691.59
437.65	6743.08
437.84	6834.36
438.02	6803.94
438.21	6691.59
438.40	6736.06
438.58	6949.05
438.77	7225.23
438.96	7049.69
439.14	7054.37
439.33	7283.75
439.52	7379.71
439.70	7295.45
439.89	7517.80
440.08	7513.12
440.26	7454.61
440.45	7396.09
440.63	7714.41
440.82	7639.51
441.01	7606.74
441.19	7602.06
441.38	7770.58
441.57	7618.44
441.75	8067.83
441.94	7985.91
442.12	7990.59
442.31	8058.46
442.50	8046.76
442.68	8086.55
442.87	8072.51
443.05	8112.30
443.24	8243.37
443.43	8102.93
443.61	8124.00
443.80	8437.63
443.98	8102.93
444.17	7644.19
444.35	8205.92
444.54	8353.37
444.73	8367.42
444.91	8262.09
445.10	8617.85
445.28	8430.61
445.47	8322.94
445.65	8610.83
445.84	8421.25
446.02	8561.68
446.21	8517.21
446.39	8348.69
446.58	8732.54
446.77	8446.99
446.95	8444.65
447.14	8418.91
447.32	8674.03
447.51	8608.49
447.69	8491.46
447.88	8538.27
448.06	8503.17
448.25	8461.04
448.43	8681.05
448.62	8674.03
448.80	8767.65
448.99	8641.26
449.17	8620.19
449.36	8800.41
449.54	8800.41
449.73	9142.13
449.91	8968.93
450.10	9060.21
450.28	9245.12
450.46	9308.31
450.65	8992.34
450.83	9135.11
451.02	9041.49
451.20	9305.97
451.39	9233.41
451.57	9104.68
451.76	9060.21
451.94	9167.88
452.13	9156.18
452.31	9224.05
452.49	9345.76
452.68	9205.33
452.86	9376.19
453.05	9582.15
453.23	9469.81
453.42	9495.55
453.60	9474.49
453.78	9638.33
453.97	9507.26
454.15	9692.16
454.34	9624.28
454.52	9645.35
454.70	9643.01
454.89	9961.32
455.07	9937.91
455.26	9846.63
455.44	10071.33
455.62	10066.64
455.81	10003.45
455.99	10090.05
456.17	9933.23
456.36	10265.59
456.54	10413.04
456.73	10375.59
456.91	10429.43
457.09	10356.87
457.28	10796.89
457.46	10457.51
457.64	10546.45
457.83	10649.44
458.01	10485.60
458.19	10789.87
458.38	10399.00
458.56	10780.51
458.74	10787.53
458.93	10752.42
459.11	10860.09
459.29	10829.66
459.48	10850.72
459.66	10869.45
459.84	11049.67
460.03	11281.38
460.21	11197.12
460.39	11112.86
460.57	11239.25
460.76	11358.62
460.94	11274.36
461.12	11375.00
461.31	11272.02
461.49	11391.39
461.67	11293.08
461.85	11592.67
462.04	11421.81
462.22	11665.23
462.40	11899.28
462.59	11693.32
462.77	11419.47
462.95	11611.40
463.13	11583.31
463.32	11768.21
463.50	11683.95
463.68	11950.78
463.86	11939.07
464.05	11887.58
464.23	11796.30
464.41	11885.24
464.59	11922.69
464.78	12287.81
464.96	12077.16
465.14	11943.75
465.32	12224.62
465.50	12287.81
465.69	12121.63
465.87	12395.48
466.05	12194.19
466.23	12063.12
466.41	12465.69
466.60	12610.81
466.78	12423.56
466.96	12013.97
467.14	12470.37
467.32	12486.76
467.51	12547.61
467.69	12418.88
467.87	12711.45
468.05	12641.23
468.23	12374.41
468.41	12674.00
468.60	12596.76
468.78	13029.76
468.96	12613.15
469.14	12894.01
469.32	12781.67
469.50	12788.69
469.69	13081.25
469.87	13151.47
470.05	13266.16
470.23	13179.56
470.41	13198.28
470.59	13507.23
470.77	13270.84
470.95	13254.45
471.14	13671.07
471.32	13284.88
471.50	13715.54
471.68	13795.12
471.86	13820.86
472.04	13692.13
472.22	14274.93
472.40	13919.17
472.58	13750.65
472.77	14188.33
472.95	14214.07
473.13	14534.73
473.31	14258.54
473.49	14321.74
473.67	14450.47
473.85	14176.62
474.03	14913.89
474.21	14869.42
474.39	15073.05
474.57	14803.89
474.75	14960.70
474.93	15190.08
475.12	15070.71
475.30	15325.83
475.48	14960.70
475.66	15314.13
475.84	15349.23
476.02	15627.76
476.20	15826.70
476.38	15690.95
476.56	16203.53
476.74	16294.81
476.92	16081.82
477.10	16072.46
477.28	16444.60
477.46	16346.30
477.64	16641.21
477.82	16702.06
478.00	17034.42
478.18	17172.51
478.36	17055.48
478.54	17305.92
478.72	17287.20
478.90	17596.15
479.08	17762.33
479.26	17886.37
479.44	17694.45
479.62	17951.91
479.80	17865.31
479.98	18295.97
480.16	18864.72
480.34	18230.43
480.52	19082.39
480.70	18728.97
480.88	18757.05
481.06	18693.86
481.24	19054.30
481.41	19424.11
481.59	19510.71
481.77	19454.53
481.95	19711.99
482.13	19836.04
482.31	19838.38
482.49	20411.81
482.67	20563.95
482.85	20823.75
483.03	20666.93
483.21	20751.19
483.39	21205.25
483.57	21174.83
483.74	21642.93
483.92	21553.99
484.10	21472.07
484.28	22066.57
484.46	22295.94
484.64	22328.71
484.82	22087.64
485.00	22424.67
485.18	22757.03
485.35	23007.47
485.53	23096.41
485.71	23234.50
485.89	23690.90
486.07	23735.37
486.25	23971.77
486.43	23927.30
486.61	24049.00
486.78	24294.76
486.96	24374.34
487.14	25235.66
487.32	24992.24
487.50	25158.42
487.68	25167.78
487.85	25535.24
488.03	25869.94
488.21	26263.15
488.39	26260.81
488.57	26096.97
488.75	26345.07
488.92	26745.30
489.10	27342.14
489.28	26881.05
489.46	27480.23
489.64	27608.96
489.81	28243.24
489.99	27733.01
490.17	27896.85
490.35	28329.84
490.53	28421.13
490.70	28811.99
490.88	28388.36
491.06	29179.46
491.24	29415.85
491.41	29703.74
491.59	29312.87
491.77	29577.35
491.95	29823.11
492.13	30298.23
492.30	30216.32
492.48	30078.22
492.66	30223.34
492.84	30555.69
493.01	30953.58
493.19	30792.09
493.37	31042.53
493.54	31194.66
493.72	31548.08
493.90	31702.56
494.08	32229.18
494.25	32657.49
494.43	32505.36
494.61	32727.71
494.79	32828.35
494.96	32591.96
495.14	33347.95
495.32	33273.06
495.49	33254.33
495.67	33149.01
495.85	33860.53
496.02	33773.93
496.20	34117.99
496.38	33965.85
496.55	34408.22
496.73	35112.72
496.91	34906.75
497.09	35208.68
497.26	35086.97
497.44	35398.26
497.62	35775.09
497.79	35761.05
497.97	35821.90
498.14	36428.10
498.32	36580.23
498.50	36554.49
498.67	37148.98
498.85	37027.28
499.03	37125.58
499.20	37141.96
499.38	37134.94
499.56	37596.03
499.73	37483.68
499.91	37593.68
500.08	38319.25
500.26	37827.74
500.44	38265.42
500.61	38295.85
500.79	38483.09
500.97	38520.54
501.14	38618.84
501.32	39040.14
501.49	38932.47
501.67	39058.86
501.84	39552.71
502.02	39426.32
502.20	39028.43
502.37	39321.00
502.55	39915.50
502.72	39597.18
502.90	40189.34
503.07	39711.87
503.25	40177.64
503.43	40610.64
503.60	40570.85
503.78	40978.10
503.95	40505.31
504.13	40858.73
504.30	41216.83
504.48	40779.15
504.65	41015.55
504.83	41127.89
505.01	41738.77
505.18	41574.94
505.36	42005.59
505.53	41392.37
505.71	42012.62
505.88	41991.55
506.06	41621.75
506.23	42480.72
506.41	42033.68
506.58	42724.14
506.76	42445.62
506.93	42958.19
507.11	42616.47
507.28	43178.20
507.46	43136.07
507.63	43505.88
507.81	43484.81
507.98	43590.14
508.16	43782.06
508.33	43627.59
508.50	43913.13
508.68	44257.19
508.85	44512.31
509.03	44177.61
509.20	44369.54
509.38	44556.78
509.55	45024.89
509.73	44737.00
509.90	45106.80
510.08	44575.50
510.25	44739.34
510.42	45205.11
510.60	45408.73
510.77	45537.46
510.95	46188.13
511.12	45301.07
511.30	45710.66
511.47	45652.15
511.64	46136.64
511.82	45991.53
511.99	45846.41
512.17	46382.40
512.34	46621.13
512.51	46389.42
512.69	46707.73
512.86	46827.10
513.04	47028.38
513.21	46789.65
513.38	47004.98
513.56	47114.98
513.73	47098.60
513.90	47964.60
514.08	47267.12
514.25	47555.00
514.43	47758.63
514.60	47807.78
514.77	47634.58
514.95	47995.03
515.12	48156.52
515.29	48137.80
515.47	48385.89
515.64	48254.82
515.81	48222.06
515.99	48781.45
516.16	48676.12
516.33	48591.86
516.51	48980.39
516.68	48893.79
516.85	48772.08
517.03	49162.95
517.20	49528.08
517.37	49279.98
517.54	49308.07
517.72	49287.00
517.89	49497.65
518.06	49815.96
518.24	49308.07
518.41	49918.95
518.58	49731.70
518.75	49385.30
518.93	50094.49
519.10	49818.30
519.27	49851.07
519.45	50286.41
519.62	50122.57
519.79	50300.45
519.96	50415.14
520.14	50277.05
520.31	50436.20
520.48	51084.53
520.65	50660.90
520.83	50841.12
521.00	51199.22
521.17	51236.67
521.34	50817.71
521.52	51288.16
521.69	51257.73
521.86	51562.00
522.03	51377.10
522.20	51484.76
522.38	51632.22
522.55	51639.24
522.72	51929.47
522.89	51683.71
523.07	52088.62
523.24	51859.25
523.41	52030.11
523.58	51887.34
523.75	52149.48
523.92	52142.45
524.10	52512.26
524.27	52533.32
524.44	52371.83
524.61	52507.58
524.78	52680.78
524.96	52516.94
525.13	52701.84
525.30	52868.02
525.47	52783.76
525.64	52589.50
525.81	52800.15
525.98	52886.74
526.16	52692.48
526.33	53193.36
526.50	53511.67
526.67	53155.91
526.84	53453.15
527.01	53219.10
527.18	53226.12
527.36	53195.70
527.53	53279.96
527.70	53743.38
527.87	53710.61
528.04	53616.99
528.21	53675.51
528.38	53404.00
528.55	53748.06
528.72	53556.14
528.89	53972.75
529.07	53401.66
529.24	54028.93
529.41	54024.25
529.58	53832.32
529.75	54167.02
529.92	53996.16
530.09	54122.55
530.26	54438.52
530.43	54225.53
530.60	54089.78
530.77	53956.37
530.94	54457.24
531.11	54401.07
531.28	54291.07
531.46	54438.52
531.63	54616.40
531.80	54749.81
531.97	54642.15
532.14	54719.38
532.31	54569.59
532.48	54602.36
532.65	55040.04
532.82	54674.91
532.99	54850.45
533.16	54791.94
533.33	54773.22
533.50	55334.95
533.67	55091.53
533.84	55145.36
534.01	55084.51
534.18	55164.09
534.35	55494.10
534.52	55269.41
534.69	55426.23
534.86	55430.91
535.03	55451.97
535.20	55519.85
535.37	55484.74
535.54	55463.67
535.71	55367.71
535.88	55683.69
536.05	55805.39
536.22	56018.38
536.38	55931.78
536.55	55669.64
536.72	55817.10
536.89	55634.53
537.06	56069.87
537.23	56126.05
537.40	56083.92
537.57	55847.52
537.74	56030.08
537.91	55969.23
538.08	56170.52
538.25	55985.61
538.42	56238.39
538.59	56439.68
538.75	56317.97
538.92	56488.83
539.09	56498.19
539.26	56315.63
539.43	56399.89
539.60	56507.55
539.77	56432.66
539.94	56601.18
540.11	56523.94
540.28	56676.07
540.44	56622.24
540.61	56720.54
540.78	56739.27
540.95	56959.28
541.12	56640.96
541.29	56945.23
541.46	56856.29
541.62	56914.81
541.79	56875.02
541.96	56739.27
542.13	56769.69
542.30	57045.88
542.47	56952.26
542.63	57214.40
542.80	57024.81
542.97	57504.62
543.14	57567.82
543.31	57279.93
543.48	57488.24
543.64	57806.55
543.81	57537.39
543.98	57598.24
544.15	57516.32
544.32	57874.43
544.48	57977.41
544.65	57556.11
544.82	57745.70
544.99	57710.59
545.16	57602.92
545.32	57797.19
545.49	57588.88
545.66	58108.48
545.83	57914.22
546.00	57925.92
546.16	58094.44
546.33	57797.19
546.50	57549.09
546.67	58071.03
546.83	57719.95
547.00	58040.60
547.17	58000.82
547.34	58157.63
547.50	58513.39
547.67	58260.62
547.84	58255.93
548.00	58445.52
548.17	58511.05
548.34	58401.05
548.51	58478.28
548.67	58485.31
548.84	58447.86
549.01	58504.03
549.18	58265.30
549.34	58445.52
549.51	58635.10
549.68	58745.11
549.84	58766.17
550.01	58401.05
550.18	58688.93
550.34	58782.55
550.51	58665.53
550.68	58604.67
550.84	58642.12
551.01	58939.37
551.18	58843.41
551.34	58754.47
551.51	58693.61
551.68	58986.18
551.84	58866.81
552.01	58658.51
552.18	58735.74
552.34	58820.00
552.51	59096.19
552.68	58770.85
552.84	58817.66
553.01	59320.88
553.18	59089.16
553.34	59161.72
553.51	59150.02
553.67	59028.31
553.84	59245.98
554.01	59100.87
554.17	59107.89
554.34	59168.74
554.51	59182.79
554.67	59311.52
554.84	59236.62
555.00	59157.04
555.17	59138.32
555.33	59419.18
555.50	59114.91
555.67	59337.26
555.83	59447.27
556.00	59374.71
556.16	59660.26
556.33	59480.03
556.50	59557.27
556.66	59573.66
556.83	59217.89
556.99	59501.10
557.16	59599.40
557.32	59751.54
557.49	59615.79
557.65	59620.47
557.82	59735.15
557.98	59552.59
558.15	59482.37
558.32	59707.07
558.48	59660.26
558.65	59828.77
558.81	59475.35
558.98	59779.62
559.14	59749.20
559.31	59833.46
559.47	60102.62
559.64	59915.37
559.80	60179.85
559.97	59999.63
560.13	59770.26
560.30	59910.69
560.46	59999.63
560.63	60018.36
560.79	60006.65
560.96	60161.13
561.12	60076.87
561.29	59870.90
561.45	60252.41
561.61	60119.00
561.78	60079.21
561.94	59929.42
562.11	60048.78
562.27	60172.83
562.44	60264.11
562.60	60184.54
562.77	60444.33
562.93	60027.72
563.10	60561.36
563.26	60233.69
563.42	60392.84
563.59	60306.24
563.75	60179.85
563.92	60165.81
564.08	60116.66
564.24	60425.61
564.41	60369.44
564.57	60353.05
564.74	60449.02
564.90	60467.74
565.07	60252.41
565.23	60430.29
565.39	60406.89
565.56	60324.97
565.72	60383.48
565.88	60420.93
566.05	60449.02
566.21	60207.94
566.38	60533.28
566.54	60385.82
566.70	60544.98
566.87	60582.43
567.03	60364.76
567.19	60790.73
567.36	60530.93
567.52	60133.04
567.68	60786.05
567.85	60872.65
568.01	60544.98
568.17	60458.38
568.34	60610.51
568.50	60615.19
568.66	60444.33
568.83	60587.11
568.99	60676.05
569.15	60519.23
569.32	60626.90
569.48	60633.92
569.64	60713.50
569.81	60610.51
569.97	60542.64
570.13	60683.07
570.30	60734.56
570.46	60598.81
570.62	60856.27
570.78	60769.67
570.95	60699.45
571.11	60924.14
571.27	60732.22
571.43	60779.03
571.60	60844.57
571.76	60893.72
571.92	60987.34
572.09	60741.58
572.25	60849.25
572.41	60718.18
572.57	60907.76
572.74	60945.21
572.90	60858.61
573.06	60977.98
573.22	60809.46
573.38	60767.33
573.55	60811.80
573.71	60987.34
573.87	60970.96
574.03	60757.97
574.20	60903.08
574.36	60818.82
574.52	60849.25
574.68	61029.47
574.84	61069.26
575.01	60973.30
575.17	60982.66
575.33	60867.97
575.49	61020.11
575.65	61099.68
575.82	60867.97
575.98	61055.21
576.14	60907.76
576.30	60961.59
576.46	61099.68
576.62	60903.08
576.79	60963.93
576.95	60835.20
577.11	61223.73
577.27	61179.26
577.43	60975.64
577.59	60830.52
577.75	60898.40
577.92	60912.44
578.08	60935.85
578.24	61209.69
578.40	61041.17
578.56	61120.75
578.72	61305.65
578.88	61062.24
579.04	61148.84
579.21	61179.26
579.37	61064.58
579.53	61230.75
579.69	60931.17
579.85	61228.41
580.01	61144.16
580.17	61083.30
580.33	61212.03
580.49	61485.87
580.65	61092.66
580.82	61062.24
580.98	60945.21
581.14	60919.46
581.30	61247.14
581.46	61214.37
581.62	61130.11
581.78	61095.00
581.94	61048.19
582.10	61104.37
582.26	61268.20
582.42	61284.59
582.58	61254.16
582.74	61010.74
582.90	61055.21
583.06	61235.44
583.22	61006.06
583.38	61258.84
583.54	61113.73
583.70	61357.14
583.86	61322.04
584.02	61041.17
584.18	61385.23
584.34	61237.78
584.50	61315.01
584.66	61099.68
584.82	60940.53
584.98	61338.42
585.14	61371.19
585.30	61027.13
585.46	61244.80
585.62	61434.38
585.78	61265.86
585.94	61151.18
586.10	61307.99
586.26	61221.39
586.42	61118.41
586.58	61471.83
586.74	61263.52
586.90	61162.88
587.06	61132.45
587.22	61371.19
587.38	61296.29
587.54	61403.95
587.70	61359.48
587.86	61277.57
588.02	61237.78
588.18	61340.76
588.34	61375.87
588.49	61160.54
