SpectraSuite Data File
++++++++++++++++++++++++++++++++++++
Date: Fri Oct 25 11:25:28 EDT 2013
User: price-jones
Dark Spectrum Present: No
Reference Spectrum Present: No
Number of Sampled Component Spectra: 1
Spectrometers: USB2+H05261
Integration Time (usec): 100000 (USB2+H05261)
Spectra Averaged: 1 (USB2+H05261)
Boxcar Smoothing: 0 (USB2+H05261)
Correct for Electrical Dark: No (USB2+H05261)
Strobe/Lamp Enabled: No (USB2+H05261)
Correct for Detector Non-linearity: No (USB2+H05261)
Correct for Stray Light: No (USB2+H05261)
Number of Pixels in Processed Spectrum: 2048
>>>>>Begin Processed Spectral Data<<<<<
365.73	210.65
365.92	210.65
366.12	210.65
366.32	175.54
366.52	65.54
366.72	133.41
366.91	110.01
367.11	159.16
367.31	133.41
367.51	152.13
367.70	117.03
367.90	198.95
368.10	140.43
368.30	84.26
368.49	152.13
368.69	133.41
368.89	154.48
369.09	177.88
369.28	100.64
369.48	205.97
369.68	182.56
369.87	241.08
370.07	266.82
370.27	252.78
370.47	355.76
370.66	589.82
370.86	664.71
371.06	664.71
371.25	669.39
371.45	613.22
371.65	711.52
371.84	718.54
372.04	636.63
372.24	674.07
372.44	697.48
372.63	770.04
372.83	791.10
373.03	788.76
373.22	739.61
373.42	744.29
373.62	765.36
373.81	763.01
374.01	777.06
374.21	727.91
374.40	748.97
374.60	844.93
374.79	821.53
374.99	727.91
375.19	828.55
375.38	819.19
375.58	711.52
375.78	898.77
375.97	873.02
376.17	924.51
376.37	842.59
376.56	837.91
376.76	837.91
376.95	781.74
377.15	945.58
377.35	866.00
377.54	830.89
377.74	961.96
377.93	922.17
378.13	908.13
378.33	983.02
378.52	950.26
378.72	931.53
378.91	950.26
379.11	983.02
379.31	908.13
379.50	931.53
379.70	964.30
379.89	1013.45
380.09	945.58
380.28	943.24
380.48	947.92
380.68	1022.81
380.87	1041.54
381.07	1074.31
381.26	971.32
381.46	1032.18
381.65	1055.58
381.85	966.64
382.04	1043.88
382.24	1048.56
382.43	1116.44
382.63	1025.15
382.83	1053.24
383.02	1064.94
383.22	1078.99
383.41	1032.18
383.61	1057.92
383.80	1142.18
384.00	1081.33
384.19	1001.75
384.39	1067.28
384.58	1111.75
384.78	1217.08
384.97	1118.78
385.17	1165.59
385.36	1174.95
385.56	1125.80
385.75	1088.35
385.95	1163.25
386.14	1188.99
386.34	1153.88
386.53	1219.42
386.72	1266.23
386.92	1207.72
387.11	1212.40
387.31	1259.21
387.50	1268.57
387.70	1259.21
387.89	1177.29
388.09	1287.29
388.28	1394.96
388.48	1217.08
388.67	1343.47
388.86	1315.38
389.06	1341.13
389.25	1299.00
389.45	1371.55
389.64	1364.53
389.84	1355.17
390.03	1371.55
390.22	1437.09
390.42	1324.74
390.61	1303.68
390.81	1376.24
391.00	1427.73
391.19	1413.68
391.39	1366.87
391.58	1392.62
391.78	1373.89
391.97	1486.24
392.16	1413.68
392.36	1547.09
392.55	1446.45
392.75	1411.34
392.94	1596.25
393.13	1472.20
393.33	1542.41
393.52	1540.07
393.71	1657.10
393.91	1650.08
394.10	1551.78
394.29	1561.14
394.49	1568.16
394.68	1701.57
394.88	1533.05
395.07	1523.69
395.26	1673.48
395.46	1624.33
395.65	1661.78
395.84	1680.50
396.04	1792.85
396.23	1720.29
396.42	1771.79
396.62	1760.08
396.81	1762.42
397.00	1818.60
397.19	1851.36
397.39	1797.53
397.58	1881.79
397.77	1834.98
397.97	1827.96
398.16	1877.11
398.35	1846.68
398.55	1757.74
398.74	1912.22
398.93	1949.67
399.12	1952.01
399.32	1987.11
399.51	1914.56
399.70	1947.33
399.90	2043.29
400.09	1970.73
400.28	2080.74
400.47	2069.03
400.67	2045.63
400.86	2193.08
401.05	2057.33
401.24	2150.95
401.44	1949.67
401.63	2155.63
401.82	2190.74
402.01	2207.13
402.21	2179.04
402.40	2172.02
402.59	2214.15
402.78	2244.57
402.97	2214.15
403.17	2214.15
403.36	2279.68
403.55	2310.11
403.74	2420.11
403.93	2284.36
404.13	2370.96
404.32	2469.27
404.51	2340.54
404.70	2448.20
404.89	2504.37
405.09	2478.63
405.28	2380.32
405.47	2487.99
405.66	2490.33
405.85	2555.86
406.05	2436.50
406.24	2527.78
406.43	2480.97
406.62	2668.21
406.81	2703.32
407.00	2569.91
407.20	2567.57
407.39	2602.68
407.58	2530.12
407.77	2775.88
407.96	2773.53
408.15	2799.28
408.34	2761.83
408.54	2745.45
408.73	2792.26
408.92	2768.85
409.11	2895.24
409.30	2918.65
409.49	2895.24
409.68	2771.19
409.87	2885.88
410.07	3040.36
410.26	3042.70
410.45	3131.64
410.64	2988.86
410.83	3033.33
411.02	3094.19
411.21	3012.27
411.40	3038.02
411.59	3105.89
411.78	3103.55
411.98	3141.00
412.17	3283.77
412.36	3243.98
412.55	3215.90
412.74	3323.56
412.93	3461.65
413.12	3311.86
413.31	3454.63
413.50	3358.67
413.69	3478.04
413.88	3541.23
414.07	3466.33
414.26	3548.25
414.45	3566.98
414.64	3524.85
414.83	3648.90
415.02	3714.43
415.22	3948.48
415.41	3803.37
415.60	3894.65
415.79	3873.59
415.98	3978.91
416.17	3929.76
416.36	3974.23
416.55	3983.59
416.74	4004.66
416.93	3941.46
417.12	4084.23
417.31	4187.22
417.50	4105.30
417.69	4376.80
417.88	4285.52
418.07	4224.67
418.26	4173.18
418.45	4262.12
418.64	4491.49
418.83	4428.29
419.02	4383.82
419.21	4512.55
419.39	4550.00
419.58	4456.38
419.77	4397.87
419.96	4482.13
420.15	4599.15
420.34	4519.57
420.53	4505.53
420.72	4629.58
420.91	4578.09
421.10	4601.49
421.29	4798.10
421.48	4428.29
421.67	4718.52
421.86	4784.06
422.05	4791.08
422.24	4702.14
422.43	4940.87
422.61	5022.79
422.80	4887.04
422.99	4837.89
423.18	4877.68
423.37	4889.38
423.56	4819.16
423.75	4849.59
423.94	4856.61
424.13	4559.36
424.32	4720.86
424.50	4980.66
424.69	4964.28
424.88	5123.43
425.07	5004.07
425.26	4978.32
425.45	5006.41
425.64	4980.66
425.83	4945.55
426.01	5060.24
426.20	5048.54
426.39	5008.75
426.58	4938.53
426.77	5062.58
426.96	5057.90
427.15	4926.83
427.33	5277.91
427.52	5221.74
427.71	5277.91
427.90	5142.16
428.09	5416.00
428.28	5383.23
428.46	5455.79
428.65	5289.61
428.84	5504.94
429.03	5570.48
429.22	5261.52
429.40	5397.28
429.59	5596.22
429.78	5249.82
429.97	5247.48
430.16	5504.94
430.34	5626.65
430.53	5652.39
430.72	5783.46
430.91	5624.31
431.10	5645.37
431.28	5689.84
431.47	5570.48
431.66	5809.21
431.85	5851.34
432.03	5891.13
432.22	5841.98
432.41	5872.40
432.60	5902.83
432.79	5760.06
432.97	6094.76
433.16	5961.34
433.35	5947.30
433.54	6080.71
433.72	6148.59
433.91	6031.56
434.10	6181.35
434.28	6071.35
434.47	6120.50
434.66	6164.97
434.85	6122.84
435.03	6375.62
435.22	6162.63
435.41	6523.07
435.59	6305.40
435.78	6490.31
435.97	6434.13
436.16	6366.26
436.34	6389.66
436.53	6471.58
436.72	6619.04
436.90	6300.72
437.09	6513.71
437.28	6516.05
437.46	6462.22
437.65	6710.32
437.84	6569.88
438.02	6630.74
438.21	6834.36
438.40	6656.48
438.58	6977.14
438.77	7030.97
438.96	6953.73
439.14	7105.87
439.33	7101.19
439.52	7180.76
439.70	7096.50
439.89	7218.21
440.08	7164.38
440.26	7297.79
440.45	7332.90
440.63	7517.80
440.82	7644.19
441.01	7344.60
441.19	7461.63
441.38	7592.70
441.57	7639.51
441.75	7833.77
441.94	7822.07
442.12	7911.01
442.31	7805.69
442.50	7929.74
442.68	7999.95
442.87	8030.38
443.05	8159.11
443.24	8147.40
443.43	8023.36
443.61	8056.12
443.80	8294.86
443.98	8065.49
444.17	7873.56
444.35	8133.36
444.54	8198.90
444.73	8386.14
444.91	8215.28
445.10	8353.37
445.28	8175.49
445.47	8140.38
445.65	8241.03
445.84	8322.94
446.02	8346.35
446.21	8259.75
446.39	8276.13
446.58	8306.56
446.77	8411.89
446.95	8196.56
447.14	8379.12
447.32	8561.68
447.51	8430.61
447.69	8269.11
447.88	8512.53
448.06	8383.80
448.25	8423.59
448.43	8554.66
448.62	8554.66
448.80	8624.87
448.99	8713.81
449.17	8573.38
449.36	8545.30
449.54	8667.00
449.73	8826.16
449.91	8938.51
450.10	8826.16
450.28	9095.32
450.46	8938.51
450.65	9107.02
450.83	8910.42
451.02	8908.08
451.20	9121.07
451.39	9193.62
451.57	9006.38
451.76	8940.85
451.94	9114.05
452.13	9249.80
452.31	9275.54
452.49	9144.47
452.68	9364.48
452.86	8950.21
453.05	9540.02
453.23	9558.75
453.42	9586.83
453.60	9490.87
453.78	9441.72
453.97	9312.99
454.15	9481.51
454.34	9423.00
454.52	9329.38
454.70	9448.74
454.89	9666.41
455.07	9703.86
455.26	9659.39
455.44	9856.00
455.62	9809.19
455.81	10012.81
455.99	9809.19
456.17	9827.91
456.36	9968.34
456.54	10026.86
456.73	10352.19
456.91	10492.62
457.09	10134.52
457.28	10537.09
457.46	10132.18
457.64	10349.85
457.83	10420.06
458.01	10310.06
458.19	10696.25
458.38	10452.83
458.56	10541.77
458.74	10567.52
458.93	10628.37
459.11	10555.82
459.29	10682.20
459.48	10850.72
459.66	10714.97
459.84	10757.10
460.03	11159.67
460.21	10853.06
460.39	10815.62
460.57	10878.81
460.76	11136.27
460.94	11192.44
461.12	11124.57
461.31	11157.33
461.49	11059.03
461.67	11052.01
461.85	11344.58
462.04	10998.18
462.22	11793.96
462.40	11541.18
462.59	11204.14
462.77	11400.75
462.95	11595.01
463.13	11777.58
463.32	11587.99
463.50	11524.80
463.68	11648.85
463.86	11777.58
464.05	11559.91
464.23	11737.79
464.41	11805.66
464.59	11529.48
464.78	12032.69
464.96	11857.15
465.14	11903.96
465.32	11920.35
465.50	11995.25
465.69	12245.68
465.87	11927.37
466.05	12011.63
466.23	11985.88
466.41	12093.55
466.60	12290.15
466.78	12161.42
466.96	11936.73
467.14	12292.49
467.32	12257.39
467.51	12308.88
467.69	12189.51
467.87	12355.69
468.05	12475.06
468.23	12493.78
468.41	12449.31
468.60	12461.01
468.78	12589.74
468.96	12566.34
469.14	12615.49
469.32	12706.77
469.50	12594.42
469.69	13041.46
469.87	12919.76
470.05	13090.62
470.23	13111.68
470.41	13205.30
470.59	13380.84
470.77	13043.81
470.95	13240.41
471.14	13577.45
471.32	13146.79
471.50	13242.75
471.68	13429.99
471.86	13509.57
472.04	13701.50
472.22	13813.84
472.40	13788.10
472.58	13537.66
472.77	13757.67
472.95	14094.71
473.13	14476.21
473.31	13877.04
473.49	13996.40
473.67	14167.26
473.85	14249.18
474.03	14684.52
474.21	14628.35
474.39	14885.81
474.57	14382.59
474.75	14815.59
474.93	14881.13
475.12	14527.71
475.30	15026.24
475.48	14806.23
475.66	15318.81
475.84	15145.61
476.02	15330.51
476.20	14918.57
476.38	15552.86
476.56	16224.59
476.74	15775.21
476.92	15822.02
477.10	15627.76
477.28	15903.94
477.46	16039.69
477.64	15995.22
477.82	16343.96
478.00	16706.74
478.18	16453.97
478.36	16737.17
478.54	16996.97
478.72	17102.29
478.90	17057.82
479.08	17359.75
479.26	17659.34
479.44	17792.75
479.62	17752.96
479.80	17963.61
479.98	17970.63
480.16	18188.30
480.34	18185.96
480.52	18724.29
480.70	18438.74
480.88	18157.88
481.06	18574.49
481.24	18768.76
481.41	18941.96
481.59	19091.75
481.77	19213.46
481.95	19358.57
482.13	19597.31
482.31	19599.65
482.49	20182.44
482.67	20072.43
482.85	20168.40
483.03	20472.67
483.21	20676.29
483.39	21050.78
483.57	20872.90
483.74	21118.65
483.92	21111.63
484.10	21198.23
484.28	21593.78
484.46	21785.71
484.64	22539.36
484.82	21895.71
485.00	22375.52
485.18	22719.58
485.35	22881.08
485.53	22640.00
485.71	22724.26
485.89	23349.18
486.07	23267.27
486.25	23215.77
486.43	23438.12
486.61	23737.71
486.78	23824.31
486.96	23864.10
487.14	24299.44
487.32	24694.99
487.50	24961.81
487.68	24795.64
487.85	25074.16
488.03	25333.96
488.21	25481.41
488.39	25900.37
488.57	25832.49
488.75	25996.33
488.92	26443.37
489.10	26548.70
489.28	26546.36
489.46	26920.84
489.64	26532.31
489.81	27601.94
489.99	27463.85
490.17	27763.43
490.35	27838.33
490.53	27917.91
490.70	27913.23
490.88	28400.06
491.06	28641.14
491.24	28580.28
491.41	28645.82
491.59	29364.36
491.77	28833.06
491.95	29495.43
492.13	29446.28
492.30	29656.93
492.48	29888.64
492.66	30003.33
492.84	30000.99
493.01	30546.33
493.19	30396.54
493.37	30696.13
493.54	30998.06
493.72	31192.32
493.90	31519.99
494.08	31592.55
494.25	31871.07
494.43	31765.75
494.61	32051.30
494.79	32329.82
494.96	32421.10
495.14	32533.45
495.32	32713.67
495.49	32959.42
495.67	32823.67
495.85	33001.55
496.02	33830.10
496.20	33680.31
496.38	33928.41
496.55	33750.52
496.73	34543.97
496.91	34459.71
497.09	34639.93
497.26	34529.92
497.44	34440.98
497.62	35182.93
497.79	35590.19
497.97	34703.12
498.14	36091.06
498.32	35885.09
498.50	36044.25
498.67	36294.69
498.85	36194.04
499.03	36533.42
499.20	36334.48
499.38	36676.19
499.56	36552.15
499.73	36870.46
499.91	36847.05
500.08	37031.96
500.26	36996.85
500.44	37443.89
500.61	37785.61
500.79	37858.17
500.97	37928.38
501.14	37958.81
501.32	38321.59
501.49	38167.12
501.67	38396.49
501.84	38841.19
502.02	38581.39
502.20	38911.41
502.37	39082.27
502.55	39337.38
502.72	39367.81
502.90	39274.19
503.07	39409.94
503.25	39775.06
503.43	39250.78
503.60	40341.47
503.78	40172.96
503.95	40458.50
504.13	40301.68
504.30	40374.24
504.48	40687.87
504.65	40542.76
504.83	40514.67
505.01	41212.15
505.18	41163.00
505.36	41656.85
505.53	40959.38
505.71	41193.43
505.88	41352.58
506.06	41298.75
506.23	41694.30
506.41	41354.93
506.58	41631.11
506.76	41935.38
506.93	42160.07
507.11	41778.56
507.28	42340.29
507.46	42951.17
507.63	42457.32
507.81	42913.72
507.98	42614.13
508.16	43484.81
508.33	42635.20
508.50	43157.14
508.68	43213.31
508.85	43515.24
509.03	43395.87
509.20	43711.84
509.38	44044.20
509.55	44278.25
509.73	44149.53
509.90	44509.97
510.08	44208.04
510.25	44533.37
510.42	44545.08
510.60	44713.59
510.77	45038.93
510.95	45247.24
511.12	44657.42
511.30	44865.73
511.47	45223.83
511.64	45113.83
511.82	45490.65
511.99	45497.67
512.17	45595.98
512.34	45696.62
512.51	46164.73
512.69	46342.61
512.86	45698.96
513.04	46607.09
513.21	45993.87
513.38	46181.11
513.56	46663.26
513.73	46543.89
513.90	46859.87
514.08	46567.30
514.25	47049.45
514.43	47461.38
514.60	47351.38
514.77	47037.75
514.95	47430.96
515.12	47356.06
515.29	47262.44
515.47	47608.84
515.64	47849.91
515.81	47611.18
515.99	47934.17
516.16	48016.09
516.33	47924.81
516.51	48151.84
516.68	48065.24
516.85	48435.05
517.03	48622.29
517.20	48676.12
517.37	48252.48
517.54	48491.22
517.72	48589.52
517.89	48949.96
518.06	48851.66
518.24	48919.54
518.41	48975.71
518.58	49198.06
518.75	49043.59
518.93	48769.74
519.10	49024.86
519.27	49497.65
519.45	49184.02
519.62	49624.04
519.79	49727.02
519.96	49940.01
520.14	50054.70
520.31	49897.88
520.48	49996.18
520.65	49900.22
520.83	50344.92
521.00	50555.57
521.17	50354.29
521.34	50398.76
521.52	50791.97
521.69	50192.79
521.86	50908.99
522.03	50571.96
522.20	51068.15
522.38	51414.55
522.55	51224.96
522.72	51213.26
522.89	51157.09
523.07	51545.62
523.24	51255.39
523.41	51501.15
523.58	51332.63
523.75	51601.79
523.92	51709.46
524.10	51995.00
524.27	51842.87
524.44	51873.29
524.61	52069.90
524.78	51995.00
524.96	52058.20
525.13	52058.20
525.30	52172.88
525.47	52327.36
525.64	52306.29
525.81	52140.11
525.98	52535.66
526.16	52292.25
526.33	52463.11
526.50	52818.87
526.67	52664.39
526.84	52690.14
527.01	52577.79
527.18	52793.12
527.36	52971.00
527.53	52952.28
527.70	53422.73
527.87	53338.47
528.04	53064.63
528.21	53120.80
528.38	53113.78
528.55	53481.24
528.72	53413.37
528.89	53099.73
529.07	53109.10
529.24	53305.70
529.41	53731.68
529.58	53375.92
529.75	53434.43
529.92	53422.73
530.09	53687.21
530.26	53837.00
530.43	54033.61
530.60	53661.46
530.77	53647.42
530.94	53982.12
531.11	53682.53
531.28	53935.30
531.46	54197.44
531.63	54087.44
531.80	53958.71
531.97	54279.36
532.14	54115.53
532.31	54223.19
532.48	54382.35
532.65	54487.67
532.82	54181.06
532.99	54499.37
533.16	54300.43
533.33	54330.86
533.50	54894.92
533.67	54550.87
533.84	54754.49
534.01	54342.56
534.18	54644.49
534.35	55021.31
534.52	54815.35
534.69	54925.35
534.86	55147.70
535.03	54892.58
535.20	54937.05
535.37	55222.60
535.54	55299.84
535.71	55124.30
535.88	55089.19
536.05	55168.77
536.22	55456.65
536.38	55625.17
536.55	55491.76
536.72	55313.88
536.89	55543.25
537.06	55196.85
537.23	55515.17
537.40	55423.89
537.57	55632.19
537.74	55599.43
537.91	55772.63
538.08	55679.00
538.25	55430.91
538.42	55627.51
538.59	55936.46
538.75	55763.26
538.92	55924.76
539.09	55957.53
539.26	55744.54
539.43	55807.73
539.60	56142.43
539.77	55941.14
539.94	56547.34
540.11	56189.24
540.28	56275.84
540.44	56378.82
540.61	56226.69
540.78	56179.88
540.95	56058.17
541.12	56250.09
541.29	56037.11
541.46	56357.76
541.62	56303.93
541.79	56608.20
541.96	56397.55
542.13	56287.54
542.30	56491.17
542.47	56755.65
542.63	56624.58
542.80	56942.89
542.97	56856.29
543.14	56947.57
543.31	56949.92
543.48	57172.27
543.64	57237.80
543.81	57010.77
543.98	57202.69
544.15	57195.67
544.32	57200.35
544.48	57570.16
544.65	57174.61
544.82	57366.53
544.99	56779.06
545.16	57408.66
545.32	57432.07
545.49	57350.15
545.66	57530.37
545.83	57441.43
546.00	57467.17
546.16	57563.14
546.33	57586.54
546.50	57279.93
546.67	57453.13
546.83	57134.82
547.00	57460.15
547.17	57354.83
547.34	57558.45
547.50	57808.89
547.67	57785.49
547.84	57991.45
548.00	57944.64
548.17	57872.09
548.34	58075.71
548.51	58026.56
548.67	58148.27
548.84	57897.83
549.01	58101.46
549.18	57834.64
549.34	57996.13
549.51	58143.59
549.68	58056.99
549.84	58258.27
550.01	58232.53
550.18	58223.17
550.34	58197.42
550.51	58162.31
550.68	58211.46
550.84	57949.32
551.01	58375.30
551.18	58298.06
551.34	58457.22
551.51	58333.17
551.68	58401.05
551.84	58281.68
552.01	58307.43
552.18	58557.86
552.34	58309.77
552.51	58766.17
552.68	58298.06
552.84	58464.24
553.01	58623.40
553.18	58644.46
553.34	58756.81
553.51	58681.91
553.67	58534.46
553.84	58733.40
554.01	58719.36
554.17	58852.77
554.34	58904.26
554.51	58731.06
554.67	58869.15
554.84	58901.92
555.00	58859.79
555.17	58878.52
555.33	59075.12
555.50	58635.10
555.67	58724.04
555.83	58930.01
556.00	58951.07
556.16	59245.98
556.33	59145.34
556.50	59253.00
556.66	59150.02
556.83	58801.28
556.99	59199.17
557.16	59370.03
557.32	59348.96
557.49	59451.95
557.65	59234.28
557.82	59253.00
557.98	59377.05
558.15	59157.04
558.32	59430.88
558.48	59189.81
558.65	59398.12
558.81	59374.71
558.98	59395.77
559.14	59484.72
559.31	59552.59
559.47	59655.57
559.64	59594.72
559.80	59627.49
559.97	59812.39
560.13	59325.56
560.30	59477.69
560.46	59718.77
560.63	59531.53
560.79	59622.81
560.96	59655.57
561.12	59704.73
561.29	59716.43
561.45	59678.98
561.61	59597.06
561.78	59545.57
561.94	59849.84
562.11	59601.74
562.27	59571.32
562.44	59601.74
562.60	59941.12
562.77	59571.32
562.93	59599.40
563.10	60093.25
563.26	59571.32
563.42	59985.59
563.59	59873.24
563.75	59915.37
563.92	59765.58
564.08	59929.42
564.24	60123.68
564.41	59891.97
564.57	59880.27
564.74	59891.97
564.90	60032.40
565.07	59875.58
565.23	59779.62
565.39	59824.09
565.56	60037.08
565.72	60023.04
565.88	60032.40
566.05	60044.10
566.21	59920.05
566.38	59927.08
566.54	60130.70
566.70	60268.79
566.87	60392.84
567.03	59952.82
567.19	60273.48
567.36	60037.08
567.52	60175.17
567.68	60406.89
567.85	60285.18
568.01	60383.48
568.17	60081.55
568.34	60210.28
568.50	60224.32
568.66	60123.68
568.83	60324.97
568.99	60114.32
569.15	60203.26
569.32	60156.45
569.48	60250.07
569.64	60289.86
569.81	60385.82
569.97	60247.73
570.13	60362.42
570.30	60285.18
570.46	60320.29
570.62	60530.93
570.78	60170.49
570.95	60268.79
571.11	60460.72
571.27	60273.48
571.43	60371.78
571.60	60481.78
571.76	60434.97
571.92	60507.53
572.09	60409.23
572.25	60355.39
572.41	60364.76
572.57	60425.61
572.74	60652.64
572.90	60336.67
573.06	60451.36
573.22	60542.64
573.38	60413.91
573.55	60390.50
573.71	60615.19
573.87	60451.36
574.03	60430.29
574.20	60413.91
574.36	60420.93
574.52	60757.97
574.68	60622.22
574.84	60582.43
575.01	60715.84
575.17	60463.06
575.33	60500.51
575.49	60367.10
575.65	60657.32
575.82	60624.56
575.98	60671.37
576.14	60863.29
576.30	60692.43
576.46	60708.82
576.62	60507.53
576.79	60701.79
576.95	60390.50
577.11	60683.07
577.27	60767.33
577.43	60629.24
577.59	60467.74
577.75	60542.64
577.92	60643.28
578.08	60774.35
578.24	60846.91
578.40	60865.63
578.56	60725.20
578.72	60697.11
578.88	60793.07
579.04	60821.16
579.21	60788.39
579.37	60741.58
579.53	60772.01
579.69	60720.52
579.85	60601.15
580.01	60793.07
580.17	60479.44
580.33	60769.67
580.49	60919.46
580.65	60853.93
580.82	60680.73
580.98	60589.45
581.14	60601.15
581.30	61024.79
581.46	60659.66
581.62	60882.02
581.78	60563.70
581.94	60711.16
582.10	60704.13
582.26	60811.80
582.42	60615.19
582.58	60860.95
582.74	60666.69
582.90	60842.23
583.06	60781.37
583.22	60781.37
583.38	60762.65
583.54	60683.07
583.70	60762.65
583.86	60851.59
584.02	60678.39
584.18	61024.79
584.34	60980.32
584.50	60844.57
584.66	60912.44
584.82	60842.23
584.98	61055.21
585.14	60779.03
585.30	60884.36
585.46	60980.32
585.62	60879.67
585.78	60942.87
585.94	60678.39
586.10	60851.59
586.26	60942.87
586.42	60952.23
586.58	61118.41
586.74	60842.23
586.90	60907.76
587.06	60711.16
587.22	60924.14
587.38	61036.49
587.54	61043.51
587.70	61001.38
587.86	60952.23
588.02	60762.65
588.18	60945.21
588.34	60809.46
588.49	60992.02
