SpectraSuite Data File
++++++++++++++++++++++++++++++++++++
Date: Fri Oct 25 11:24:04 EDT 2013
User: price-jones
Dark Spectrum Present: No
Reference Spectrum Present: No
Number of Sampled Component Spectra: 1
Spectrometers: USB2+H05261
Integration Time (usec): 100000 (USB2+H05261)
Spectra Averaged: 1 (USB2+H05261)
Boxcar Smoothing: 0 (USB2+H05261)
Correct for Electrical Dark: No (USB2+H05261)
Strobe/Lamp Enabled: No (USB2+H05261)
Correct for Detector Non-linearity: No (USB2+H05261)
Correct for Stray Light: No (USB2+H05261)
Number of Pixels in Processed Spectrum: 2048
>>>>>Begin Processed Spectral Data<<<<<
365.73	285.55
365.92	285.55
366.12	285.55
366.32	86.60
366.52	105.32
366.72	184.90
366.91	114.69
367.11	46.81
367.31	135.75
367.51	196.60
367.70	140.43
367.90	152.13
368.10	189.58
368.30	145.11
368.49	133.41
368.69	184.90
368.89	163.84
369.09	205.97
369.28	201.29
369.48	194.26
369.68	180.22
369.87	198.95
370.07	166.18
370.27	248.10
370.47	358.10
370.66	641.31
370.86	599.18
371.06	636.63
371.25	716.20
371.45	753.65
371.65	653.01
371.84	723.23
372.04	716.20
372.24	807.48
372.44	713.86
372.63	765.36
372.83	720.88
373.03	774.72
373.22	683.44
373.42	779.40
373.62	758.33
373.81	844.93
374.01	777.06
374.21	814.51
374.40	889.40
374.60	814.51
374.79	882.38
374.99	802.80
375.19	809.83
375.38	777.06
375.58	887.06
375.78	816.85
375.97	777.06
376.17	809.83
376.37	826.21
376.56	833.23
376.76	842.59
376.95	889.40
377.15	966.64
377.35	830.89
377.54	936.21
377.74	919.83
377.93	919.83
378.13	915.15
378.33	922.17
378.52	894.08
378.72	938.55
378.91	987.71
379.11	1043.88
379.31	924.51
379.50	917.49
379.70	833.23
379.89	971.32
380.09	943.24
380.28	1008.77
380.48	1025.15
380.68	1036.86
380.87	1025.15
381.07	926.85
381.26	990.05
381.46	926.85
381.65	1027.50
381.85	1071.97
382.04	915.15
382.24	1025.15
382.43	1069.62
382.63	957.28
382.83	1067.28
383.02	1083.67
383.22	1146.86
383.41	1090.69
383.61	1057.92
383.80	1142.18
384.00	1107.07
384.19	1135.16
384.39	1111.75
384.58	1125.80
384.78	1128.14
384.97	1104.73
385.17	1123.46
385.36	1130.48
385.56	1142.18
385.75	1198.35
385.95	1196.01
386.14	1186.65
386.34	1198.35
386.53	1181.97
386.72	1249.85
386.92	1275.59
387.11	1273.25
387.31	1228.78
387.50	1205.38
387.70	1186.65
387.89	1174.95
388.09	1242.82
388.28	1188.99
388.48	1341.13
388.67	1383.26
388.86	1317.72
389.06	1270.91
389.25	1310.70
389.45	1336.45
389.64	1350.49
389.84	1348.15
390.03	1380.92
390.22	1277.93
390.42	1366.87
390.61	1359.85
390.81	1392.62
391.00	1416.02
391.19	1413.68
391.39	1364.53
391.58	1401.98
391.78	1493.26
391.97	1455.81
392.16	1479.22
392.36	1575.18
392.55	1561.14
392.75	1462.83
392.94	1497.94
393.13	1565.82
393.33	1502.62
393.52	1633.69
393.71	1610.29
393.91	1568.16
394.10	1549.43
394.29	1561.14
394.49	1593.90
394.68	1533.05
394.88	1570.50
395.07	1654.76
395.26	1682.85
395.46	1664.12
395.65	1764.76
395.84	1696.89
396.04	1760.08
396.23	1696.89
396.42	1720.29
396.62	1771.79
396.81	1809.23
397.00	1743.70
397.19	1825.62
397.39	1790.51
397.58	1842.00
397.77	1816.26
397.97	1905.20
398.16	1909.88
398.35	1891.15
398.55	1881.79
398.74	1870.09
398.93	1961.37
399.12	1966.05
399.32	2008.18
399.51	2031.58
399.70	2052.65
399.90	1942.64
400.09	2097.12
400.28	2071.37
400.47	2064.35
400.67	2076.06
400.86	2059.67
401.05	2111.16
401.24	2059.67
401.44	2134.57
401.63	2160.31
401.82	2127.55
402.01	2083.08
402.21	2202.44
402.40	2279.68
402.59	2253.94
402.78	2221.17
402.97	2218.83
403.17	2218.83
403.36	2272.66
403.55	2291.38
403.74	2347.56
403.93	2256.28
404.13	2408.41
404.32	2345.22
404.51	2427.14
404.70	2394.37
404.89	2406.07
405.09	2448.20
405.28	2534.80
405.47	2478.63
405.66	2487.99
405.85	2642.46
406.05	2548.84
406.24	2527.78
406.43	2663.53
406.62	2593.31
406.81	2640.12
407.00	2513.74
407.20	2600.34
407.39	2651.83
407.58	2754.81
407.77	2654.17
407.96	2738.43
408.15	2825.03
408.34	2717.36
408.54	2801.62
408.73	2836.73
408.92	2750.13
409.11	2942.05
409.30	2801.62
409.49	2883.54
409.68	2918.65
409.87	2984.18
410.07	2972.48
410.26	3049.72
410.45	2974.82
410.64	2942.05
410.83	3075.46
411.02	3117.59
411.21	3066.10
411.40	3269.73
411.59	3337.60
411.78	3075.46
411.98	3269.73
412.17	3304.84
412.36	3258.03
412.55	3269.73
412.74	3335.26
412.93	3452.29
413.12	3452.29
413.31	3501.44
413.50	3473.36
413.69	3489.74
413.88	3606.77
414.07	3623.15
414.26	3637.19
414.45	3749.54
414.64	3597.40
414.83	3873.59
415.02	3868.91
415.22	3770.60
415.41	3803.37
415.60	3922.74
415.79	3918.06
415.98	4124.02
416.17	4084.23
416.36	3885.29
416.55	3962.53
416.74	4025.72
416.93	4016.36
417.12	4074.87
417.31	4051.47
417.50	4133.39
417.69	4301.90
417.88	4278.50
418.07	4276.16
418.26	4264.46
418.45	4320.63
418.64	4526.60
418.83	4517.23
419.02	4568.73
419.21	4592.13
419.39	4606.17
419.58	4510.21
419.77	4514.89
419.96	4477.44
420.15	4557.02
420.34	4573.41
420.53	4622.56
420.72	4788.74
420.91	4786.40
421.10	4695.11
421.29	4837.89
421.48	4770.01
421.67	4823.84
421.86	4739.58
422.05	4968.96
422.24	4777.03
422.43	4917.47
422.61	4943.21
422.80	5114.07
422.99	4980.66
423.18	4898.74
423.37	5074.28
423.56	4978.32
423.75	4987.68
423.94	4835.55
424.13	4645.96
424.32	4718.52
424.50	5029.81
424.69	5174.92
424.88	5153.86
425.07	5095.35
425.26	4971.30
425.45	4957.25
425.64	5029.81
425.83	4844.91
426.01	5064.92
426.20	5034.49
426.39	5111.73
426.58	5069.60
426.77	5055.56
426.96	5219.39
427.15	5048.54
427.33	5261.52
427.52	5282.59
427.71	5174.92
427.90	5315.36
428.09	5287.27
428.28	5287.27
428.46	5483.88
428.65	5217.05
428.84	5486.22
429.03	5497.92
429.22	5287.27
429.40	5427.70
429.59	5603.24
429.78	5191.31
429.97	5284.93
430.16	5474.51
430.34	5593.88
430.53	5561.11
430.72	5767.08
430.91	5619.63
431.10	5757.72
431.28	5867.72
431.47	5867.72
431.66	5930.92
431.85	5844.32
432.03	6019.86
432.22	5963.68
432.41	5886.45
432.60	5942.62
432.79	5844.32
432.97	5891.13
433.16	6080.71
433.35	6083.05
433.54	6050.28
433.72	6155.61
433.91	6143.91
434.10	6167.31
434.28	6307.74
434.47	6392.00
434.66	6216.46
434.85	6282.00
435.03	6195.40
435.22	6394.34
435.41	6717.34
435.59	6359.24
435.78	6354.55
435.97	6384.98
436.16	6527.75
436.34	6359.24
436.53	6586.27
436.72	6693.93
436.90	6494.99
437.09	6780.53
437.28	6738.40
437.46	6726.70
437.65	6628.40
437.84	6733.72
438.02	6878.83
438.21	6813.30
438.40	6623.72
438.58	6984.16
438.77	7033.31
438.96	7054.37
439.14	7087.14
439.33	7185.44
439.52	7346.94
439.70	7119.91
439.89	7513.12
440.08	7480.35
440.26	7470.99
440.45	7419.50
440.63	7527.16
440.82	7695.68
441.01	7604.40
441.19	7768.24
441.38	7784.62
441.57	7896.97
441.75	7925.05
441.94	7988.25
442.12	7999.95
442.31	8175.49
442.50	8149.75
442.68	8077.19
442.87	8121.66
443.05	8173.15
443.24	8011.65
443.43	8166.13
443.61	8344.01
443.80	8484.44
443.98	8079.53
444.17	7899.31
444.35	8308.90
444.54	8308.90
444.73	8297.20
444.91	8367.42
445.10	8278.47
445.28	8308.90
445.47	8336.99
445.65	8439.97
445.84	8472.74
446.02	8489.12
446.21	8435.29
446.39	8383.80
446.58	8390.82
446.77	8472.74
446.95	8383.80
447.14	8510.19
447.32	8451.67
447.51	8585.08
447.69	8367.42
447.88	8425.93
448.06	8439.97
448.25	8837.86
448.43	8627.21
448.62	8706.79
448.80	8613.17
448.99	8713.81
449.17	8786.37
449.36	8568.70
449.54	8980.64
449.73	8910.42
449.91	9245.12
450.10	8975.95
450.28	8950.21
450.46	9142.13
450.65	9357.46
450.83	9057.87
451.02	9090.64
451.20	9240.44
451.39	9165.54
451.57	9334.06
451.76	9221.71
451.94	9125.75
452.13	9233.41
452.31	9350.44
452.49	9338.74
452.68	9305.97
452.86	9352.78
453.05	9462.79
453.23	9802.16
453.42	9378.53
453.60	9638.33
453.78	9619.60
453.97	9654.71
454.15	9624.28
454.34	9525.98
454.52	9701.52
454.70	9795.14
454.89	9900.47
455.07	9783.44
455.26	10054.94
455.44	10038.56
455.62	9895.78
455.81	10010.47
455.99	10003.45
456.17	10188.35
456.36	10178.99
456.54	10312.40
456.73	10391.98
456.91	10579.22
457.09	10607.31
457.28	10576.88
457.46	10333.47
457.64	10665.82
457.83	10764.12
458.01	10384.96
458.19	10574.54
458.38	10677.52
458.56	10675.18
458.74	10593.26
458.93	10871.79
459.11	10675.18
459.29	10789.87
459.48	10738.38
459.66	10794.55
459.84	11140.95
460.03	11302.45
460.21	11248.61
460.39	11068.39
460.57	10977.11
460.76	11157.33
460.94	11297.77
461.12	11372.66
461.31	11162.01
461.49	11229.89
461.67	10998.18
461.85	11316.49
462.04	11367.98
462.22	11506.07
462.40	11545.86
462.59	11503.73
462.77	11510.75
462.95	11843.11
463.13	11719.06
463.32	11901.62
463.50	11864.18
463.68	11782.26
463.86	11868.86
464.05	11892.26
464.23	11709.70
464.41	11981.20
464.59	11679.27
464.78	12166.10
464.96	12233.98
465.14	11936.73
465.32	12084.19
465.50	12035.03
465.69	12395.48
465.87	12343.99
466.05	12070.14
466.23	12154.40
466.41	12421.22
466.60	12292.49
466.78	12271.43
466.96	12498.46
467.14	12336.96
467.32	12507.82
467.51	12369.73
467.69	12306.54
467.87	12381.43
468.05	12601.44
468.23	12416.54
468.41	12678.68
468.60	12517.18
468.78	12947.84
468.96	12671.66
469.14	12814.43
469.32	13266.16
469.50	12802.73
469.69	13001.68
469.87	13071.89
470.05	12987.63
470.23	13418.29
470.41	13228.71
470.59	13224.03
470.77	13348.08
470.95	13392.55
471.14	13584.47
471.32	13205.30
471.50	13614.90
471.68	13729.58
471.86	13530.64
472.04	13844.27
472.22	14120.45
472.40	13841.93
472.58	13980.02
472.77	13975.34
472.95	14256.20
473.13	14508.98
473.31	14033.85
473.49	14043.21
473.67	14143.86
473.85	14373.23
474.03	14544.09
474.21	14679.84
474.39	14672.82
474.57	14874.10
474.75	15073.05
474.93	14839.00
475.12	15122.20
475.30	15096.46
475.48	15307.10
475.66	15248.59
475.84	15227.53
476.02	15428.81
476.20	15396.04
476.38	15939.05
476.56	15967.13
476.74	15939.05
476.92	16088.84
477.10	15866.49
477.28	16547.59
477.46	16393.11
477.64	16437.58
477.82	16690.36
478.00	17153.79
478.18	16985.27
478.36	16816.75
478.54	17270.81
478.72	17296.56
478.90	17614.87
479.08	17418.27
479.26	17612.53
479.44	17757.64
479.62	17757.64
479.80	18085.32
479.98	18317.03
480.16	18696.20
480.34	18256.18
480.52	18618.96
480.70	18817.91
480.88	18225.75
481.06	18623.64
481.24	18827.27
481.41	19103.45
481.59	19506.02
481.77	19747.10
481.95	19829.02
482.13	20013.92
482.31	19751.78
482.49	20493.73
482.67	20409.47
482.85	20788.64
483.03	20882.26
483.21	20599.05
483.39	20966.52
483.57	21069.50
483.74	21270.79
483.92	21600.80
484.10	21439.31
484.28	21390.16
484.46	22122.74
484.64	22412.97
484.82	22462.12
485.00	22569.79
485.18	22719.58
485.35	23068.32
485.53	22604.89
485.71	22862.35
485.89	23627.71
486.07	23520.04
486.25	23592.60
486.43	23791.55
486.61	23803.25
486.78	23810.27
486.96	24563.92
487.14	24418.81
487.32	24709.04
487.50	25102.25
487.68	25127.99
487.85	25448.64
488.03	25593.76
488.21	25942.50
488.39	26071.23
488.57	25902.71
488.75	26380.18
488.92	26382.52
489.10	27124.47
489.28	26733.60
489.46	27379.59
489.64	27206.39
489.81	27520.02
489.99	27814.93
490.17	28254.95
490.35	28299.42
490.53	28329.84
490.70	28407.08
490.88	28575.60
491.06	29027.32
491.24	28933.70
491.41	29041.37
491.59	29736.51
491.77	29722.46
491.95	29521.18
492.13	29902.68
492.30	30239.72
492.48	30185.89
492.66	30110.99
492.84	30478.46
493.01	30866.98
493.19	30731.23
493.37	31215.72
493.54	31335.09
493.72	31578.51
493.90	31426.37
494.08	31828.95
494.25	32341.52
494.43	32739.41
494.61	32498.34
494.79	32491.32
494.96	32606.00
495.14	32790.91
495.32	33523.49
495.49	33661.58
495.67	33425.19
495.85	33731.80
496.02	33832.44
496.20	34302.89
496.38	34782.70
496.55	34396.51
496.73	34749.93
496.91	34478.43
497.09	35103.35
497.26	35351.45
497.44	35199.32
497.62	35494.22
497.79	36201.07
497.97	35842.96
498.14	35988.08
498.32	36531.08
498.50	36392.99
498.67	37156.00
498.85	36744.07
499.03	37270.69
499.20	36762.79
499.38	37303.46
499.56	37050.68
499.73	37109.19
499.91	37710.71
500.08	37809.01
500.26	37383.04
500.44	37640.50
500.61	38366.06
500.79	38000.94
500.97	38476.07
501.14	39002.69
501.32	38651.61
501.49	38918.43
501.67	39138.44
501.84	38920.77
502.02	38988.64
502.20	39164.18
502.37	39524.63
502.55	39648.68
502.72	39569.10
502.90	39798.47
503.07	39878.05
503.25	40009.12
503.43	39959.97
503.60	40699.58
503.78	40133.17
503.95	40554.46
504.13	40868.09
504.30	41013.21
504.48	40706.60
504.65	41106.83
504.83	41181.73
505.01	41518.76
505.18	41729.41
505.36	42000.91
505.53	41371.31
505.71	42071.13
505.88	41998.57
506.06	41516.42
506.23	42635.20
506.41	42036.02
506.58	42085.17
506.76	42913.72
506.93	42955.85
507.11	42541.58
507.28	42925.42
507.46	43077.56
507.63	43091.60
507.81	43295.23
507.98	43309.27
508.16	43716.53
508.33	43929.51
508.50	43512.90
508.68	43959.94
508.85	44491.24
509.03	44027.82
509.20	44119.10
509.38	44769.77
509.55	44233.78
509.73	44624.65
509.90	44509.97
510.08	44711.25
510.25	44727.64
510.42	44971.05
510.60	45024.89
510.77	45219.15
510.95	45476.61
511.12	45476.61
511.30	45385.33
511.47	45551.51
511.64	46059.40
511.82	46192.81
511.99	45420.44
512.17	45975.14
512.34	46155.36
512.51	46700.71
512.69	46335.59
512.86	46674.96
513.04	46909.02
513.21	46639.86
513.38	46983.91
513.56	46958.17
513.73	46983.91
513.90	47580.75
514.08	47224.99
514.25	47669.69
514.43	47798.42
514.60	47910.77
514.77	47423.93
514.95	47709.48
515.12	47931.83
515.29	47812.46
515.47	47803.10
515.64	48313.34
515.81	47929.49
515.99	48100.35
516.16	48552.07
516.33	48563.78
516.51	48830.60
516.68	48758.04
516.85	48811.87
517.03	48928.90
517.20	49034.22
517.37	48631.65
517.54	49345.51
517.72	48985.07
517.89	49233.17
518.06	49411.05
518.24	49708.30
518.41	49371.26
518.58	49701.28
518.75	49666.17
518.93	49432.11
519.10	49343.17
519.27	49825.32
519.45	49928.31
519.62	50162.36
519.79	50129.59
519.96	50007.89
520.14	50398.76
520.31	50513.44
520.48	50705.37
520.65	50129.59
520.83	50756.86
521.00	51119.64
521.17	50784.94
521.34	50801.33
521.52	50988.57
521.69	51161.77
521.86	51173.47
522.03	51168.79
522.20	51363.06
522.38	51725.84
522.55	51435.61
522.72	51524.55
522.89	51737.54
523.07	52205.65
523.24	51728.18
523.41	51622.86
523.58	51728.18
523.75	52308.63
523.92	51941.17
524.10	52392.89
524.27	52165.86
524.44	52629.29
524.61	52516.94
524.78	52327.36
524.96	52184.58
525.13	52601.20
525.30	52765.04
525.47	52514.60
525.64	52687.80
525.81	52662.05
525.98	52750.99
526.16	52617.58
526.33	52743.97
526.50	53345.49
526.67	52797.80
526.84	53092.71
527.01	53151.23
527.18	53052.92
527.36	53226.12
527.53	53340.81
527.70	53586.57
527.87	53509.33
528.04	53380.60
528.21	53542.10
528.38	53361.87
528.55	53867.43
528.72	53675.51
528.89	53598.27
529.07	53595.93
529.24	53642.74
529.41	53860.41
529.58	53691.89
529.75	53942.33
529.92	54017.22
530.09	54286.39
530.26	54138.93
530.43	54234.89
530.60	53649.76
530.77	54124.89
530.94	54167.02
531.11	54223.19
531.28	54539.16
531.46	54195.10
531.63	54588.31
531.80	54412.77
531.97	54628.10
532.14	54745.13
532.31	54511.08
532.48	54824.71
532.65	54988.55
532.82	54703.00
532.99	55086.85
533.16	54651.51
533.33	54990.89
533.50	55143.02
533.67	55021.31
533.84	55128.98
534.01	54967.48
534.18	55164.09
534.35	55515.17
534.52	55037.70
534.69	55271.75
534.86	55646.24
535.03	55299.84
535.20	55447.29
535.37	55545.59
535.54	55580.70
535.71	55409.84
535.88	55601.77
536.05	55625.17
536.22	55714.11
536.38	55835.82
536.55	55604.11
536.72	55695.39
536.89	55730.50
537.06	55774.97
537.23	55695.39
537.40	55643.90
537.57	55934.12
537.74	56257.12
537.91	56158.81
538.08	56282.86
538.25	56037.11
538.42	56093.28
538.59	56296.91
538.75	56254.78
538.92	55964.55
539.09	56353.08
539.26	56500.53
539.43	56254.78
539.60	56484.15
539.77	56390.53
539.94	56357.76
540.11	56566.07
540.28	56390.53
540.44	56479.47
540.61	56582.45
540.78	56552.02
540.95	56573.09
541.12	56559.05
541.29	56601.18
541.46	56816.50
541.62	56633.94
541.79	57130.14
541.96	56575.43
542.13	56657.35
542.30	56856.29
542.47	56959.28
542.63	56685.43
542.80	57116.09
542.97	57284.61
543.14	57556.11
543.31	57495.26
543.48	57258.87
543.64	57394.62
543.81	57450.79
543.98	57633.35
544.15	57469.51
544.32	57708.25
544.48	57939.96
544.65	57462.49
544.82	57532.71
544.99	57638.03
545.16	57532.71
545.32	57546.75
545.49	57710.59
545.66	57956.35
545.83	57654.42
546.00	57516.32
546.16	57675.48
546.33	57811.23
546.50	57614.63
546.67	57897.83
546.83	57729.31
547.00	57839.32
547.17	57979.75
547.34	57942.30
547.50	58143.59
547.67	58391.68
547.84	58108.48
548.00	58162.31
548.17	58321.47
548.34	58333.17
548.51	58377.64
548.67	58356.58
548.84	58288.70
549.01	58389.34
549.18	58117.84
549.34	58478.28
549.51	58417.43
549.68	58489.99
549.84	58403.39
550.01	58431.47
550.18	58499.35
550.34	58553.18
550.51	58707.66
550.68	58567.23
550.84	58337.85
551.01	58871.49
551.18	58775.53
551.34	58677.23
551.51	58724.04
551.68	58766.17
551.84	58726.38
552.01	58695.95
552.18	59016.61
552.34	58717.02
552.51	58920.65
552.68	58625.74
552.84	58761.49
553.01	59302.15
553.18	58972.14
553.34	59098.53
553.51	58848.09
553.67	59040.01
553.84	59143.00
554.01	59051.72
554.17	59121.93
554.34	59274.07
554.51	59250.66
554.67	59150.02
554.84	59283.43
555.00	59004.91
555.17	59128.95
555.33	59192.15
555.50	59002.56
555.67	59166.40
555.83	59231.94
556.00	59243.64
556.16	59749.20
556.33	59423.86
556.50	59332.58
556.66	59538.55
556.83	59327.90
556.99	59451.95
557.16	59700.04
557.32	59662.60
557.49	59868.56
557.65	59517.48
557.82	59571.32
557.98	59435.56
558.15	59447.27
558.32	59442.59
558.48	59423.86
558.65	59519.82
558.81	59590.04
558.98	59536.21
559.14	59906.01
559.31	59707.07
559.47	59711.75
559.64	59793.67
559.80	59936.44
559.97	60032.40
560.13	60051.12
560.30	59903.67
560.46	59765.58
560.63	59877.93
560.79	59735.15
560.96	59936.44
561.12	59990.27
561.29	60088.57
561.45	60004.31
561.61	59941.12
561.78	59901.33
561.94	60020.70
562.11	60126.02
562.27	60282.84
562.44	60170.49
562.60	60331.99
562.77	60261.77
562.93	60006.65
563.10	60039.42
563.26	60135.38
563.42	60175.17
563.59	60016.02
563.75	60156.45
563.92	60275.82
564.08	60102.62
564.24	60329.65
564.41	60303.90
564.57	60341.35
564.74	60170.49
564.90	60278.16
565.07	60126.02
565.23	60271.14
565.39	60416.25
565.56	60289.86
565.72	60275.82
565.88	60369.44
566.05	60264.11
566.21	60355.39
566.38	60343.69
566.54	60523.91
566.70	60339.01
566.87	60664.35
567.03	60493.49
567.19	60659.66
567.36	60289.86
567.52	60542.64
567.68	60552.00
567.85	60360.08
568.01	60694.77
568.17	60554.34
568.34	60498.17
568.50	60495.83
568.66	60488.80
568.83	60650.30
568.99	60528.59
569.15	60657.32
569.32	60617.53
569.48	60624.56
569.64	60596.47
569.81	60566.04
569.97	60444.33
570.13	60671.37
570.30	60540.30
570.46	60547.32
570.62	60753.29
570.78	60800.10
570.95	60533.28
571.11	60814.14
571.27	60617.53
571.43	60692.43
571.60	60800.10
571.76	60652.64
571.92	60750.94
572.09	60584.77
572.25	60753.29
572.41	60729.88
572.57	60741.58
572.74	60800.10
572.90	60647.96
573.06	60945.21
573.22	60612.85
573.38	60776.69
573.55	60809.46
573.71	60963.93
573.87	60870.31
574.03	60502.85
574.20	60779.03
574.36	60776.69
574.52	60804.78
574.68	60804.78
574.84	61038.83
575.01	60823.50
575.17	60797.76
575.33	60907.76
575.49	60790.73
575.65	60776.69
575.82	61069.26
575.98	61017.77
576.14	61066.92
576.30	60954.57
576.46	60746.26
576.62	60844.57
576.79	60891.38
576.95	60818.82
577.11	60748.60
577.27	61043.51
577.43	61015.43
577.59	60849.25
577.75	60905.42
577.92	60928.83
578.08	61055.21
578.24	60992.02
578.40	61212.03
578.56	61022.45
578.72	60952.23
578.88	61127.77
579.04	61071.60
579.21	61165.22
579.37	61066.92
579.53	61205.01
579.69	60781.37
579.85	61052.87
580.01	61024.79
580.17	60844.57
580.33	61118.41
580.49	61141.81
580.65	61036.49
580.82	61059.90
580.98	60750.94
581.14	60856.27
581.30	61158.20
581.46	60931.17
581.62	60952.23
581.78	60980.32
581.94	61233.10
582.10	61066.92
582.26	61010.74
582.42	60987.34
582.58	61200.33
582.74	60874.99
582.90	61151.18
583.06	60865.63
583.22	61013.08
583.38	61071.60
583.54	61151.18
583.70	61221.39
583.86	61080.96
584.02	61102.03
584.18	61317.35
584.34	61069.26
584.50	61132.45
584.66	60935.85
584.82	60917.12
584.98	61258.84
585.14	60970.96
585.30	61090.32
585.46	61123.09
585.62	61286.93
585.78	61190.97
585.94	61076.28
586.10	61148.84
586.26	61249.48
586.42	61190.97
586.58	61312.67
586.74	61176.92
586.90	60999.04
587.06	61041.17
587.22	61345.44
587.38	61027.13
587.54	61382.89
587.70	61317.35
587.86	61256.50
588.02	61148.84
588.18	61380.55
588.34	61073.94
588.49	61076.28
