SpectraSuite Data File
++++++++++++++++++++++++++++++++++++
Date: Fri Oct 25 11:25:11 EDT 2013
User: price-jones
Dark Spectrum Present: No
Reference Spectrum Present: No
Number of Sampled Component Spectra: 1
Spectrometers: USB2+H05261
Integration Time (usec): 100000 (USB2+H05261)
Spectra Averaged: 1 (USB2+H05261)
Boxcar Smoothing: 0 (USB2+H05261)
Correct for Electrical Dark: No (USB2+H05261)
Strobe/Lamp Enabled: No (USB2+H05261)
Correct for Detector Non-linearity: No (USB2+H05261)
Correct for Stray Light: No (USB2+H05261)
Number of Pixels in Processed Spectrum: 2048
>>>>>Begin Processed Spectral Data<<<<<
365.73	243.42
365.92	243.42
366.12	243.42
366.32	154.48
366.52	170.86
366.72	124.05
366.91	161.50
367.11	105.32
367.31	72.56
367.51	173.20
367.70	93.62
367.90	191.92
368.10	154.48
368.30	170.86
368.49	135.75
368.69	110.01
368.89	191.92
369.09	131.07
369.28	212.99
369.48	212.99
369.68	163.84
369.87	273.84
370.07	201.29
370.27	271.50
370.47	299.59
370.66	552.37
370.86	636.63
371.06	676.41
371.25	671.73
371.45	702.16
371.65	653.01
371.84	697.48
372.04	699.82
372.24	704.50
372.44	732.59
372.63	692.80
372.83	751.31
373.03	704.50
373.22	774.72
373.42	800.46
373.62	823.87
373.81	763.01
374.01	737.27
374.21	844.93
374.40	823.87
374.60	842.59
374.79	821.53
374.99	833.23
375.19	791.10
375.38	798.12
375.58	814.51
375.78	854.30
375.97	837.91
376.17	952.60
376.37	842.59
376.56	875.36
376.76	889.40
376.95	945.58
377.15	987.71
377.35	847.27
377.54	875.36
377.74	856.64
377.93	947.92
378.13	929.19
378.33	926.85
378.52	889.40
378.72	973.66
378.91	940.90
379.11	887.06
379.31	940.90
379.50	964.30
379.70	976.00
379.89	936.21
380.09	978.34
380.28	856.64
380.48	1046.22
380.68	1032.18
380.87	985.37
381.07	992.39
381.26	952.60
381.46	1043.88
381.65	1125.80
381.85	1043.88
382.04	1032.18
382.24	1043.88
382.43	1081.33
382.63	987.71
382.83	1022.81
383.02	1104.73
383.22	1018.13
383.41	1125.80
383.61	1174.95
383.80	1179.63
384.00	1062.60
384.19	1123.46
384.39	1116.44
384.58	1097.71
384.78	1123.46
384.97	1170.27
385.17	1121.12
385.36	1219.42
385.56	1160.91
385.75	1158.57
385.95	1219.42
386.14	1240.48
386.34	1125.80
386.53	1156.22
386.72	1142.18
386.92	1146.86
387.11	1191.33
387.31	1261.55
387.50	1240.48
387.70	1263.89
387.89	1261.55
388.09	1263.89
388.28	1142.18
388.48	1284.95
388.67	1334.11
388.86	1303.68
389.06	1256.87
389.25	1327.08
389.45	1259.21
389.64	1261.55
389.84	1425.39
390.03	1383.26
390.22	1343.47
390.42	1434.75
390.61	1320.06
390.81	1387.94
391.00	1460.49
391.19	1423.05
391.39	1336.45
391.58	1467.52
391.78	1500.28
391.97	1423.05
392.16	1535.39
392.36	1530.71
392.55	1387.94
392.75	1521.35
392.94	1544.75
393.13	1540.07
393.33	1600.93
393.52	1563.48
393.71	1500.28
393.91	1626.67
394.10	1551.78
394.29	1598.59
394.49	1586.88
394.68	1706.25
394.88	1617.31
395.07	1682.85
395.26	1689.87
395.46	1605.61
395.65	1694.55
395.84	1788.17
396.04	1750.72
396.23	1778.81
396.42	1764.76
396.62	1806.89
396.81	1682.85
397.00	1743.70
397.19	1767.10
397.39	1753.06
397.58	1830.30
397.77	1795.19
397.97	1795.19
398.16	1849.02
398.35	1928.60
398.55	1898.17
398.74	1877.11
398.93	1994.14
399.12	1916.90
399.32	1926.26
399.51	1942.64
399.70	1989.46
399.90	1970.73
400.09	1952.01
400.28	2141.59
400.47	2090.10
400.67	2104.14
400.86	2108.82
401.05	2069.03
401.24	2085.42
401.44	2108.82
401.63	2136.91
401.82	2153.29
402.01	2073.71
402.21	2188.40
402.40	2150.95
402.59	2195.42
402.78	2211.81
402.97	2127.55
403.17	2183.72
403.36	2211.81
403.55	2207.13
403.74	2289.04
403.93	2340.54
404.13	2389.69
404.32	2331.17
404.51	2415.43
404.70	2438.84
404.89	2518.42
405.09	2478.63
405.28	2445.86
405.47	2396.71
405.66	2492.67
405.85	2476.29
406.05	2576.93
406.24	2532.46
406.43	2490.33
406.62	2612.04
406.81	2682.25
407.00	2562.89
407.20	2569.91
407.39	2626.08
407.58	2722.04
407.77	2731.41
407.96	2782.90
408.15	2663.53
408.34	2719.70
408.54	2843.75
408.73	2801.62
408.92	2731.41
409.11	2867.16
409.30	2808.64
409.49	2867.16
409.68	2832.05
409.87	2949.08
410.07	3138.66
410.26	2911.63
410.45	2958.44
410.64	3007.59
410.83	3112.91
411.02	3049.72
411.21	3166.74
411.40	3000.57
411.59	3068.44
411.78	3091.85
411.98	3136.32
412.17	3248.66
412.36	3283.77
412.55	3262.71
412.74	3389.10
412.93	3342.28
413.12	3297.81
413.31	3555.27
413.50	3428.88
413.69	3473.36
413.88	3550.59
414.07	3571.66
414.26	3588.04
414.45	3609.11
414.64	3574.00
414.83	3747.20
415.02	3660.60
415.22	3885.29
415.41	3992.95
415.60	3925.08
415.79	3887.63
415.98	3955.51
416.17	3960.19
416.36	3843.16
416.55	3990.61
416.74	3852.52
416.93	3971.89
417.12	3981.25
417.31	4131.05
417.50	4154.45
417.69	4147.43
417.88	4283.18
418.07	4264.46
418.26	4266.80
418.45	4215.30
418.64	4437.66
418.83	4482.13
419.02	4414.25
419.21	4409.57
419.39	4552.34
419.58	4601.49
419.77	4386.16
419.96	4400.21
420.15	4585.11
420.34	4507.87
420.53	4479.79
420.72	4521.92
420.91	4786.40
421.10	4772.35
421.29	4798.10
421.48	4589.79
421.67	4805.12
421.86	4884.70
422.05	4779.37
422.24	4840.23
422.43	4919.81
422.61	4784.06
422.80	4891.72
422.99	4812.14
423.18	4908.10
423.37	4936.19
423.56	4837.89
423.75	4835.55
423.94	4674.05
424.13	4477.44
424.32	4751.29
424.50	5043.85
424.69	4966.62
424.88	5085.98
425.07	4777.03
425.26	4975.98
425.45	4875.34
425.64	4875.34
425.83	4985.34
426.01	5163.22
426.20	5132.79
426.39	5069.60
426.58	5057.90
426.77	5062.58
426.96	5055.56
427.15	5008.75
427.33	5123.43
427.52	5107.05
427.71	5123.43
427.90	5238.12
428.09	5249.82
428.28	5320.04
428.46	5362.17
428.65	5308.34
428.84	5397.28
429.03	5446.43
429.22	5322.38
429.40	5472.17
429.59	5446.43
429.78	5289.61
429.97	5270.89
430.16	5441.75
430.34	5444.09
430.53	5537.71
430.72	5652.39
430.91	5582.18
431.10	5497.92
431.28	5621.97
431.47	5792.83
431.66	5870.06
431.85	5820.91
432.03	5881.77
432.22	5956.66
432.41	5961.34
432.60	5994.11
432.79	6078.37
432.97	5860.70
433.16	5968.37
433.35	6047.94
433.54	6052.63
433.72	6054.97
433.91	5933.26
434.10	6054.97
434.28	5921.56
434.47	6059.65
434.66	6160.29
434.85	6317.11
435.03	6160.29
435.22	6370.94
435.41	6296.04
435.59	6230.51
435.78	6422.43
435.97	6387.32
436.16	6265.61
436.34	6211.78
436.53	6555.84
436.72	6729.04
436.90	6326.47
437.09	6609.67
437.28	6562.86
437.46	6546.48
437.65	6607.33
437.84	6841.39
438.02	6480.94
438.21	6663.51
438.40	6623.72
438.58	6988.84
438.77	6911.60
438.96	6789.89
439.14	7169.06
439.33	6993.52
439.52	7101.19
439.70	7180.76
439.89	7297.79
440.08	7192.47
440.26	7260.34
440.45	7297.79
440.63	7419.50
440.82	7541.21
441.01	7396.09
441.19	7637.17
441.38	7756.54
441.57	7578.65
441.75	7765.90
441.94	7705.04
442.12	7953.14
442.31	7894.63
442.50	7953.14
442.68	8018.68
442.87	7976.55
443.05	8018.68
443.24	8152.09
443.43	8166.13
443.61	8152.09
443.80	8404.86
443.98	7824.41
444.17	7878.24
444.35	8070.17
444.54	8294.86
444.73	8400.18
444.91	8215.28
445.10	8205.92
445.28	8205.92
445.47	8006.97
445.65	8222.30
445.84	8407.20
446.02	8524.23
446.21	8245.71
446.39	8184.85
446.58	8514.87
446.77	8372.10
446.95	8252.73
447.14	8353.37
447.32	8425.93
447.51	8362.73
447.69	8470.40
447.88	8505.51
448.06	8306.56
448.25	8411.89
448.43	8655.30
448.62	8428.27
448.80	8582.74
448.99	8678.71
449.17	8697.43
449.36	8650.62
449.54	8718.50
449.73	8922.12
449.91	9006.38
450.10	8999.36
450.28	9104.68
450.46	9071.92
450.65	9013.40
450.83	8980.64
451.02	9118.73
451.20	9078.94
451.39	9032.13
451.57	9188.94
451.76	9050.85
451.94	9174.90
452.13	9308.31
452.31	9226.39
452.49	8980.64
452.68	9329.38
452.86	9371.50
453.05	9441.72
453.23	9469.81
453.42	9198.31
453.60	9312.99
453.78	9586.83
453.97	9404.27
454.15	9380.87
454.34	9282.56
454.52	9537.68
454.70	9689.82
454.89	9619.60
455.07	9701.52
455.26	9430.02
455.44	9907.49
455.62	9799.82
455.81	9792.80
455.99	9783.44
456.17	10113.45
456.36	9724.93
456.54	10047.92
456.73	10043.24
456.91	10349.85
457.09	10469.22
457.28	10370.91
457.46	10281.97
457.64	10520.71
457.83	10518.37
458.01	10424.75
458.19	10642.42
458.38	10532.41
458.56	10677.52
458.74	10410.70
458.93	10548.79
459.11	10565.18
459.29	10813.28
459.48	10815.62
459.66	10462.19
459.84	10946.69
460.03	11009.88
460.21	10832.00
460.39	10930.30
460.57	11084.78
460.76	10773.49
460.94	11089.46
461.12	10867.11
461.31	10892.85
461.49	11274.36
461.67	11105.84
461.85	11117.54
462.04	11166.70
462.22	11838.43
462.40	11468.62
462.59	11133.93
462.77	11328.19
462.95	11522.46
463.13	11440.54
463.32	11412.45
463.50	11709.70
463.68	11782.26
463.86	11817.36
464.05	11562.25
464.23	11592.67
464.41	11791.62
464.59	11700.34
464.78	12072.48
464.96	11866.52
465.14	11960.14
465.32	11775.24
465.50	11969.50
465.69	12142.70
465.87	11875.88
466.05	12095.89
466.23	11962.48
466.41	11936.73
466.60	12479.74
466.78	11988.22
466.96	12013.97
467.14	12063.12
467.32	12224.62
467.51	12322.92
467.69	12109.93
467.87	12336.96
468.05	12631.87
468.23	12449.31
468.41	12140.36
468.60	12641.23
468.78	12645.91
468.96	12542.93
469.14	12521.87
469.32	12840.18
469.50	12355.69
469.69	12851.88
469.87	13125.72
470.05	13022.74
470.23	13123.38
470.41	13022.74
470.59	13364.46
470.77	13057.85
470.95	13198.28
471.14	13373.82
471.32	13202.96
471.50	13338.71
471.68	13722.56
471.86	13563.40
472.04	13561.06
472.22	13891.08
472.40	13708.52
472.58	13905.12
472.77	14101.73
472.95	14111.09
473.13	14115.77
473.31	13907.46
473.49	13949.59
473.67	14190.67
473.85	14127.47
474.03	14537.07
474.21	14815.59
474.39	14644.73
474.57	14483.24
474.75	14724.31
474.93	14899.85
475.12	14745.38
475.30	15035.60
475.48	14864.74
475.66	15154.97
475.84	14970.07
476.02	15056.67
476.20	15473.28
476.38	15513.07
476.56	15859.47
476.74	15674.57
476.92	15648.82
477.10	15822.02
477.28	15995.22
477.46	16126.29
477.64	16212.89
477.82	16713.77
478.00	16905.69
478.18	16650.57
478.36	16879.94
478.54	16791.00
478.72	16973.56
478.90	17256.77
479.08	17575.08
479.26	17547.00
479.44	17329.33
479.62	17568.06
479.80	18038.51
479.98	17877.01
480.16	18684.50
480.34	18349.80
480.52	18417.68
480.70	18625.98
480.88	18342.78
481.06	18403.63
481.24	18834.29
481.41	19098.77
481.59	19110.47
481.77	19136.22
481.95	19468.58
482.13	19618.37
482.31	19697.95
482.49	20198.82
482.67	19974.13
482.85	20023.28
483.03	20788.64
483.21	20624.80
483.39	20767.57
483.57	20673.95
483.74	21113.97
483.92	21085.89
484.10	21013.33
484.28	21549.31
484.46	21603.14
484.64	22094.66
484.82	21469.73
485.00	22136.79
485.18	22504.25
485.35	22740.64
485.53	22698.52
485.71	22663.41
485.89	23304.71
486.07	23236.84
486.25	23108.11
486.43	23365.57
486.61	23775.16
486.78	23807.93
486.96	23917.93
487.14	24341.57
487.32	24383.70
487.50	24535.84
487.68	24919.68
487.85	25046.07
488.03	25582.06
488.21	25546.95
488.39	25425.24
488.57	25762.28
488.75	25991.65
488.92	26338.05
489.10	26354.43
489.28	26480.82
489.46	26986.38
489.64	26759.34
489.81	27449.80
489.99	27138.51
490.17	27700.24
490.35	27775.14
490.53	28364.95
490.70	28114.52
490.88	28175.37
491.06	28542.83
491.24	28484.32
491.41	29024.98
491.59	28889.23
491.77	29158.39
491.95	29324.57
492.13	29371.38
492.30	29764.59
492.48	29940.13
492.66	30089.93
492.84	30202.27
493.01	30607.19
493.19	30249.08
493.37	30771.02
493.54	30972.31
493.72	31098.70
493.90	31227.43
494.08	31524.68
494.25	32006.83
494.43	31630.00
494.61	32149.60
494.79	32133.21
494.96	32149.60
495.14	32208.11
495.32	33029.64
495.49	32989.85
495.67	33165.39
495.85	33642.86
496.02	33603.07
496.20	34066.50
496.38	34122.67
496.55	33783.29
496.73	34543.97
496.91	33930.75
497.09	34513.54
497.26	34948.88
497.44	35103.35
497.62	34831.85
497.79	35674.45
497.97	35285.92
498.14	35538.69
498.32	36086.38
498.50	36088.72
498.67	36219.79
498.85	36374.27
499.03	36549.81
499.20	36765.14
499.38	36706.62
499.56	36821.31
499.73	36837.69
499.91	37099.83
500.08	37537.51
500.26	37062.38
500.44	37448.57
500.61	37766.88
500.79	37425.17
500.97	37729.44
501.14	38181.16
501.32	38178.82
501.49	38120.31
501.67	38176.48
501.84	39136.10
502.02	38581.39
502.20	38890.34
502.37	39260.15
502.55	38998.01
502.72	38969.92
502.90	39398.24
503.07	39236.74
503.25	39384.19
503.43	39442.71
503.60	39653.36
503.78	40158.91
503.95	40163.59
504.13	40093.38
504.30	40238.49
504.48	40411.69
504.65	40388.28
504.83	40491.27
505.01	40655.11
505.18	41041.29
505.36	41635.79
505.53	41172.36
505.71	41289.39
505.88	41530.47
506.06	40797.88
506.23	41816.01
506.41	41261.30
506.58	42291.14
506.76	42047.72
506.93	42216.24
507.11	42043.04
507.28	42197.52
507.46	42146.03
507.63	42824.78
507.81	42976.92
507.98	42483.06
508.16	42927.77
508.33	42906.70
508.50	42693.71
508.68	43360.76
508.85	43697.80
509.03	43540.99
509.20	43494.18
509.38	43861.64
509.55	44542.74
509.73	43971.64
509.90	44650.40
510.08	44161.23
510.25	44287.62
510.42	44385.92
510.60	44797.85
510.77	44893.82
510.95	45237.87
511.12	44704.23
511.30	45088.08
511.47	45322.13
511.64	45324.47
511.82	45806.62
511.99	45141.91
512.17	45787.90
512.34	45478.95
512.51	45874.50
512.69	46103.87
512.86	46258.35
513.04	45895.56
513.21	46092.17
513.38	46370.69
513.56	46239.62
513.73	46454.95
513.90	46731.14
514.08	46588.36
514.25	47086.90
514.43	47161.79
514.60	46813.05
514.77	46993.28
514.95	47030.72
515.12	47124.35
515.29	47051.79
515.47	47917.79
515.64	47835.87
515.81	47618.20
515.99	47941.19
516.16	47849.91
516.33	47969.28
516.51	48673.78
516.68	47920.13
516.85	48062.90
517.03	48467.81
517.20	48313.34
517.37	48472.49
517.54	48814.21
517.72	48601.22
517.89	48751.02
518.06	49062.31
518.24	49116.14
518.41	48781.45
518.58	48952.30
518.75	49279.98
518.93	49226.15
519.10	49443.82
519.27	49558.50
519.45	49705.96
519.62	49649.78
519.79	49895.54
519.96	49745.75
520.14	50202.15
520.31	49949.37
520.48	50391.73
520.65	49645.10
520.83	50113.21
521.00	50064.06
521.17	50080.44
521.34	50412.80
521.52	50763.88
521.69	50878.57
521.86	50696.00
522.03	50831.75
522.20	51192.20
522.38	51505.83
522.55	51189.86
522.72	51346.67
522.89	51063.47
523.07	51562.00
523.24	51459.02
523.41	51576.04
523.58	51426.25
523.75	51695.41
523.92	51730.52
524.10	51955.21
524.27	51664.99
524.44	51959.89
524.61	51877.97
524.78	51346.67
524.96	51873.29
525.13	51779.67
525.30	52072.24
525.47	52224.37
525.64	52027.77
525.81	52446.72
525.98	52357.78
526.16	52301.61
526.33	52266.50
526.50	52760.36
526.67	52530.98
526.84	52877.38
527.01	52589.50
527.18	52664.39
527.36	52795.46
527.53	52598.86
527.70	53282.30
527.87	53064.63
528.04	53055.26
528.21	53347.83
528.38	53380.60
528.55	53469.54
528.72	52898.45
528.89	53315.06
529.07	53139.52
529.24	53165.27
529.41	53544.44
529.58	53631.04
529.75	53523.37
529.92	53434.43
530.09	53598.27
530.26	53806.58
530.43	53780.83
530.60	53485.92
530.77	53694.23
530.94	53677.85
531.11	53851.05
531.28	53752.74
531.46	54225.53
531.63	53886.15
531.80	53914.24
531.97	54031.27
532.14	54272.34
532.31	54169.36
532.48	54309.79
532.65	54361.28
532.82	54274.68
532.99	54230.21
533.16	54466.61
533.33	54300.43
533.50	54705.34
533.67	54609.38
533.84	54387.03
534.01	54389.37
534.18	54518.10
534.35	55323.24
534.52	54911.31
534.69	54780.24
534.86	55093.87
535.03	54855.14
535.20	55014.29
535.37	55246.00
535.54	55171.11
535.71	54962.80
535.88	55449.63
536.05	55147.70
536.22	55447.29
536.38	55234.30
536.55	55477.72
536.72	55269.41
536.89	55400.48
537.06	55348.99
537.23	55496.44
537.40	55194.51
537.57	55606.45
537.74	55929.44
537.91	55697.73
538.08	55716.45
538.25	55360.69
538.42	55760.92
538.59	55962.21
538.75	55571.34
538.92	55891.99
539.09	55838.16
539.26	55870.93
539.43	56093.28
539.60	56020.72
539.77	56112.00
539.94	56324.99
540.11	56236.05
540.28	56355.42
540.44	56072.21
540.61	56179.88
540.78	56343.72
540.95	56315.63
541.12	56451.38
541.29	56051.15
541.46	56355.42
541.62	56488.83
541.79	56460.74
541.96	56210.31
542.13	56287.54
542.30	56280.52
542.47	56458.40
542.63	56547.34
542.80	56570.75
542.97	56999.07
543.14	56947.57
543.31	57085.67
543.48	57015.45
543.64	57345.47
543.81	57038.86
543.98	57076.30
544.15	57186.31
544.32	57230.78
544.48	57368.87
544.65	57066.94
544.82	57242.48
544.99	57476.54
545.16	57460.15
545.32	57207.37
545.49	57609.95
545.66	57413.34
545.83	57495.26
546.00	57570.16
546.16	57602.92
546.33	57350.15
546.50	57478.88
546.67	57647.39
546.83	57265.89
547.00	57675.48
547.17	57684.84
547.34	57780.81
547.50	57836.98
547.67	58136.57
547.84	57834.64
548.00	57982.09
548.17	58188.06
548.34	58056.99
548.51	58000.82
548.67	58166.99
548.84	57785.49
549.01	57968.05
549.18	58005.50
549.34	58218.49
549.51	58000.82
549.68	58188.06
549.84	58122.52
550.01	58295.72
550.18	57979.75
550.34	58274.66
550.51	58333.17
550.68	58328.49
550.84	58003.16
551.01	58176.36
551.18	58096.78
551.34	58237.21
551.51	58527.44
551.68	58557.86
551.84	58422.11
552.01	58581.27
552.18	58578.93
552.34	58543.82
552.51	58511.05
552.68	58426.79
552.84	58508.71
553.01	58773.19
553.18	58642.12
553.34	58812.98
553.51	58759.15
553.67	58557.86
553.84	58768.51
554.01	58829.37
554.17	58871.49
554.34	58890.22
554.51	58944.05
554.67	58913.62
554.84	58890.22
555.00	58820.00
555.17	58859.79
555.33	58869.15
555.50	58885.54
555.67	58766.17
555.83	58864.47
556.00	58908.94
556.16	59353.65
556.33	59014.27
556.50	59089.16
556.66	59124.27
556.83	58993.20
556.99	59306.83
557.16	59449.61
557.32	59227.26
557.49	59419.18
557.65	59171.08
557.82	59442.59
557.98	58918.31
558.15	59274.07
558.32	59253.00
558.48	59164.06
558.65	59332.58
558.81	59606.42
558.98	59491.74
559.14	59416.84
559.31	59484.72
559.47	59264.70
559.64	59515.14
559.80	59330.24
559.97	59297.47
560.13	59402.80
560.30	59475.35
560.46	59517.48
560.63	59636.85
560.79	59597.06
560.96	59777.28
561.12	59629.83
561.29	59456.63
561.45	59678.98
561.61	59641.53
561.78	59571.32
561.94	59678.98
562.11	59662.60
562.27	59730.47
562.44	60011.34
562.60	59854.52
562.77	59585.36
562.93	59498.76
563.10	59707.07
563.26	59465.99
563.42	59873.24
563.59	59800.69
563.75	59828.77
563.92	59835.80
564.08	59786.64
564.24	59966.87
564.41	60039.42
564.57	59987.93
564.74	60083.89
564.90	60088.57
565.07	59877.93
565.23	59732.81
565.39	59929.42
565.56	60093.25
565.72	59980.91
565.88	60102.62
566.05	59889.63
566.21	60065.17
566.38	59964.52
566.54	60170.49
566.70	60210.28
566.87	60140.07
567.03	59987.93
567.19	60353.05
567.36	60196.24
567.52	60224.32
567.68	60357.74
567.85	60310.92
568.01	60207.94
568.17	60027.72
568.34	60350.71
568.50	60308.58
568.66	60189.22
568.83	60219.64
568.99	60119.00
569.15	60189.22
569.32	60058.15
569.48	60130.70
569.64	60392.84
569.81	60280.50
569.97	60252.41
570.13	60409.23
570.30	60126.02
570.46	60135.38
570.62	60303.90
570.78	60140.07
570.95	60310.92
571.11	60343.69
571.27	60310.92
571.43	60413.91
571.60	60598.81
571.76	60411.57
571.92	60470.08
572.09	60561.36
572.25	60200.92
572.41	60378.80
572.57	60533.28
572.74	60643.28
572.90	60250.07
573.06	60589.45
573.22	60556.68
573.38	60406.89
573.55	60587.11
573.71	60654.98
573.87	60521.57
574.03	60334.33
574.20	60631.58
574.36	60268.79
574.52	60530.93
574.68	60664.35
574.84	60537.96
575.01	60491.15
575.17	60310.92
575.33	60451.36
575.49	60378.80
575.65	60568.38
575.82	60575.40
575.98	60624.56
576.14	60743.92
576.30	60617.53
576.46	60502.85
576.62	60451.36
576.79	60629.24
576.95	60406.89
577.11	60640.94
577.27	60874.99
577.43	60818.82
577.59	60755.63
577.75	60509.87
577.92	60566.04
578.08	60643.28
578.24	60535.62
578.40	60821.16
578.56	60832.86
578.72	60619.88
578.88	60786.05
579.04	61130.11
579.21	60692.43
579.37	60842.23
579.53	60692.43
579.69	60488.80
579.85	60537.96
580.01	60570.72
580.17	60491.15
580.33	60811.80
580.49	60755.63
580.65	60708.82
580.82	60662.00
580.98	60678.39
581.14	60624.56
581.30	60823.50
581.46	60746.26
581.62	60814.14
581.78	60680.73
581.94	60779.03
582.10	60783.71
582.26	60760.31
582.42	60495.83
582.58	60746.26
582.74	60767.33
582.90	60872.65
583.06	60729.88
583.22	60488.80
583.38	60654.98
583.54	60739.24
583.70	60793.07
583.86	60757.97
584.02	60814.14
584.18	60870.31
584.34	60842.23
584.50	60987.34
584.66	60746.26
584.82	60783.71
584.98	61029.47
585.14	60886.70
585.30	60584.77
585.46	61106.71
585.62	60795.42
585.78	61006.06
585.94	60779.03
586.10	60680.73
586.26	60786.05
586.42	60879.67
586.58	61073.94
586.74	61057.56
586.90	60940.53
587.06	60886.70
587.22	60914.78
587.38	60900.74
587.54	60863.29
587.70	60961.59
587.86	60807.12
588.02	61001.38
588.18	60977.98
588.34	61020.11
588.49	60959.25
