SpectraSuite Data File
++++++++++++++++++++++++++++++++++++
Date: Fri Oct 25 11:24:07 EDT 2013
User: price-jones
Dark Spectrum Present: No
Reference Spectrum Present: No
Number of Sampled Component Spectra: 1
Spectrometers: USB2+H05261
Integration Time (usec): 100000 (USB2+H05261)
Spectra Averaged: 1 (USB2+H05261)
Boxcar Smoothing: 0 (USB2+H05261)
Correct for Electrical Dark: No (USB2+H05261)
Strobe/Lamp Enabled: No (USB2+H05261)
Correct for Detector Non-linearity: No (USB2+H05261)
Correct for Stray Light: No (USB2+H05261)
Number of Pixels in Processed Spectrum: 2048
>>>>>Begin Processed Spectral Data<<<<<
365.73	257.46
365.92	257.46
366.12	257.46
366.32	112.35
366.52	177.88
366.72	180.22
366.91	131.07
367.11	180.22
367.31	70.22
367.51	152.13
367.70	107.66
367.90	159.16
368.10	84.26
368.30	124.05
368.49	114.69
368.69	147.45
368.89	79.58
369.09	184.90
369.28	152.13
369.48	147.45
369.68	194.26
369.87	191.92
370.07	170.86
370.27	243.42
370.47	353.42
370.66	561.73
370.86	622.58
371.06	622.58
371.25	664.71
371.45	650.67
371.65	594.50
371.84	674.07
372.04	667.05
372.24	695.14
372.44	737.27
372.63	699.82
372.83	744.29
373.03	751.31
373.22	744.29
373.42	774.72
373.62	777.06
373.81	788.76
374.01	781.74
374.21	861.32
374.40	877.70
374.60	898.77
374.79	767.70
374.99	896.43
375.19	833.23
375.38	816.85
375.58	819.19
375.78	877.70
375.97	887.06
376.17	873.02
376.37	891.74
376.56	863.66
376.76	898.77
376.95	863.66
377.15	910.47
377.35	976.00
377.54	936.21
377.74	924.51
377.93	915.15
378.13	964.30
378.33	929.19
378.52	905.79
378.72	849.61
378.91	1043.88
379.11	938.55
379.31	1036.86
379.50	903.45
379.70	1053.24
379.89	973.66
380.09	924.51
380.28	978.34
380.48	1064.94
380.68	961.96
380.87	973.66
381.07	997.07
381.26	1011.11
381.46	997.07
381.65	1090.69
381.85	1020.47
382.04	990.05
382.24	994.73
382.43	1015.79
382.63	1039.20
382.83	1013.45
383.02	1078.99
383.22	1071.97
383.41	1160.91
383.61	1107.07
383.80	1210.06
384.00	1149.20
384.19	1057.92
384.39	1191.33
384.58	1057.92
384.78	1205.38
384.97	1184.31
385.17	1132.82
385.36	1165.59
385.56	1235.80
385.75	1200.69
385.95	1181.97
386.14	1156.22
386.34	1121.12
386.53	1270.91
386.72	1139.84
386.92	1254.53
387.11	1252.19
387.31	1291.98
387.50	1219.42
387.70	1163.25
387.89	1235.80
388.09	1320.06
388.28	1324.74
388.48	1348.15
388.67	1186.65
388.86	1240.48
389.06	1294.32
389.25	1345.81
389.45	1364.53
389.64	1238.14
389.84	1385.60
390.03	1411.34
390.22	1366.87
390.42	1460.49
390.61	1364.53
390.81	1411.34
391.00	1324.74
391.19	1406.66
391.39	1511.99
391.58	1497.94
391.78	1458.15
391.97	1427.73
392.16	1465.18
392.36	1556.46
392.55	1502.62
392.75	1511.99
392.94	1530.71
393.13	1591.56
393.33	1533.05
393.52	1561.14
393.71	1528.37
393.91	1626.67
394.10	1572.84
394.29	1652.42
394.49	1629.01
394.68	1753.06
394.88	1645.40
395.07	1687.53
395.26	1694.55
395.46	1645.40
395.65	1727.32
395.84	1603.27
396.04	1788.17
396.23	1755.40
396.42	1827.96
396.62	1816.26
396.81	1785.83
397.00	1769.44
397.19	1732.00
397.39	1797.53
397.58	1839.66
397.77	1722.63
397.97	1820.94
398.16	1795.19
398.35	1891.15
398.55	1762.42
398.74	1827.96
398.93	1935.62
399.12	1919.24
399.32	1898.17
399.51	2017.54
399.70	1980.09
399.90	1907.54
400.09	1996.48
400.28	2069.03
400.47	2169.68
400.67	2057.33
400.86	2106.48
401.05	2073.71
401.24	2080.74
401.44	2108.82
401.63	2204.78
401.82	2232.87
402.01	2239.89
402.21	2139.25
402.40	2202.44
402.59	2202.44
402.78	2244.57
402.97	2284.36
403.17	2251.60
403.36	2286.70
403.55	2246.91
403.74	2321.81
403.93	2335.85
404.13	2317.13
404.32	2324.15
404.51	2347.56
404.70	2403.73
404.89	2366.28
405.09	2518.42
405.28	2438.84
405.47	2466.92
405.66	2504.37
405.85	2539.48
406.05	2478.63
406.24	2586.29
406.43	2551.18
406.62	2612.04
406.81	2670.55
407.00	2607.36
407.20	2539.48
407.39	2633.10
407.58	2684.59
407.77	2663.53
407.96	2663.53
408.15	2773.53
408.34	2773.53
408.54	2857.79
408.73	2637.78
408.92	2820.35
409.11	2937.37
409.30	2813.32
409.49	2928.01
409.68	2981.84
409.87	2904.60
410.07	3091.85
410.26	3094.19
410.45	2977.16
410.64	3000.57
410.83	3183.13
411.02	3026.31
411.21	3052.06
411.40	3220.58
411.59	3087.17
411.78	3211.22
411.98	3124.62
412.17	3248.66
412.36	3145.68
412.55	3330.58
412.74	3459.31
412.93	3438.25
413.12	3375.05
413.31	3592.72
413.50	3459.31
413.69	3384.41
413.88	3574.00
414.07	3569.32
414.26	3564.64
414.45	3597.40
414.64	3641.87
414.83	3798.69
415.02	3763.58
415.22	3782.31
415.41	3901.67
415.60	3885.29
415.79	3782.31
415.98	3992.95
416.17	3981.25
416.36	3901.67
416.55	3920.40
416.74	4042.11
416.93	3985.93
417.12	4067.85
417.31	4095.94
417.50	4217.65
417.69	4423.61
417.88	4409.57
418.07	4203.60
418.26	4320.63
418.45	4287.86
418.64	4545.32
418.83	4430.63
419.02	4442.34
419.21	4573.41
419.39	4432.97
419.58	4430.63
419.77	4409.57
419.96	4491.49
420.15	4610.86
420.34	4463.40
420.53	4774.69
420.72	4718.52
420.91	4674.05
421.10	4767.67
421.29	4851.93
421.48	4631.92
421.67	4711.50
421.86	4858.95
422.05	4896.40
422.24	4821.50
422.43	4961.94
422.61	4858.95
422.80	4865.97
422.99	5121.09
423.18	5013.43
423.37	4968.96
423.56	5071.94
423.75	5001.72
423.94	4800.44
424.13	4713.84
424.32	4755.97
424.50	5130.45
424.69	5165.56
424.88	5004.07
425.07	5018.11
425.26	4931.51
425.45	5076.62
425.64	5062.58
425.83	5146.84
426.01	4933.85
426.20	5060.24
426.39	4891.72
426.58	5200.67
426.77	5029.81
426.96	5130.45
427.15	5226.42
427.33	5029.81
427.52	5252.16
427.71	5296.63
427.90	5210.03
428.09	5336.42
428.28	5364.51
428.46	5444.09
428.65	5284.93
428.84	5469.83
429.03	5551.75
429.22	5301.31
429.40	5507.28
429.59	5528.35
429.78	5275.57
429.97	5224.08
430.16	5582.18
430.34	5596.22
430.53	5631.33
430.72	5734.31
430.91	5727.29
431.10	5652.39
431.28	5888.79
431.47	5760.06
431.66	5919.21
431.85	5909.85
432.03	5734.31
432.22	6054.97
432.41	5898.15
432.60	5905.17
432.79	6057.31
432.97	5778.78
433.16	6164.97
433.35	6176.67
433.54	6054.97
433.72	6146.25
433.91	6057.31
434.10	6155.61
434.28	6101.78
434.47	6230.51
434.66	6263.27
434.85	6214.12
435.03	6356.90
435.22	6289.02
435.41	6471.58
435.59	6293.70
435.78	6424.77
435.97	6586.27
436.16	6401.37
436.34	6612.01
436.53	6586.27
436.72	6803.94
436.90	6455.20
437.09	6684.57
437.28	6551.16
437.46	6593.29
437.65	6572.22
437.84	6813.30
438.02	6766.49
438.21	6677.55
438.40	6579.25
438.58	7049.69
438.77	6972.46
438.96	7000.54
439.14	6951.39
439.33	7243.96
439.52	7288.43
439.70	7192.47
439.89	7211.19
440.08	7557.59
440.26	7431.20
440.45	7250.98
440.63	7658.23
440.82	7508.44
441.01	7452.27
441.19	7632.49
441.38	7639.51
441.57	7534.18
441.75	7854.84
441.94	7974.21
442.12	7913.35
442.31	7997.61
442.50	8060.80
442.68	7868.88
442.87	8030.38
443.05	8351.03
443.24	8255.07
443.43	8336.99
443.61	8198.90
443.80	8327.63
443.98	8180.17
444.17	7896.97
444.35	8262.09
444.54	8477.42
444.73	8161.45
444.91	8437.63
445.10	8276.13
445.28	8332.31
445.47	8266.77
445.65	8390.82
445.84	8266.77
446.02	8435.29
446.21	8365.07
446.39	8603.81
446.58	8503.17
446.77	8351.03
446.95	8306.56
447.14	8552.32
447.32	8557.00
447.51	8482.10
447.69	8564.02
447.88	8528.91
448.06	8561.68
448.25	8638.92
448.43	8631.90
448.62	8552.32
448.80	8592.11
448.99	8737.22
449.17	8791.05
449.36	8734.88
449.54	8847.22
449.73	9076.60
449.91	8798.07
450.10	8999.36
450.28	9118.73
450.46	9181.92
450.65	9029.79
450.83	9078.94
451.02	9008.72
451.20	9109.36
451.39	9270.86
451.57	9214.69
451.76	8945.53
451.94	9221.71
452.13	9312.99
452.31	9301.29
452.49	9289.59
452.68	9273.20
452.86	9418.32
453.05	9420.66
453.23	9446.40
453.42	9437.04
453.60	9390.23
453.78	9617.26
453.97	9483.85
454.15	9755.35
454.34	9289.59
454.52	9767.06
454.70	9685.14
454.89	9699.18
455.07	9708.54
455.26	9980.04
455.44	9982.38
455.62	9764.72
455.81	10005.79
455.99	10197.71
456.17	10010.47
456.36	9914.51
456.54	10263.25
456.73	10345.17
456.91	10532.41
457.09	10478.58
457.28	10457.51
457.46	10340.49
457.64	10588.58
457.83	10607.31
458.01	10333.47
458.19	10696.25
458.38	10471.56
458.56	10504.32
458.74	10569.86
458.93	10813.28
459.11	10771.15
459.29	10808.59
459.48	10942.00
459.66	10874.13
459.84	10736.04
460.03	10958.39
460.21	10995.84
460.39	10953.71
460.57	11187.76
460.76	11152.65
460.94	11124.57
461.12	11199.46
461.31	11276.70
461.49	11246.27
461.67	11157.33
461.85	11463.94
462.04	11349.26
462.22	11400.75
462.40	11489.69
462.59	11592.67
462.77	11604.38
462.95	11707.36
463.13	11398.41
463.32	11695.66
463.50	11791.62
463.68	11733.11
463.86	11655.87
464.05	11985.88
464.23	11763.53
464.41	11775.24
464.59	11960.14
464.78	12095.89
464.96	12070.14
465.14	11939.07
465.32	12049.08
465.50	12067.80
465.69	12348.67
465.87	12058.44
466.05	12074.82
466.23	12133.34
466.41	12222.28
466.60	12346.33
466.78	12367.39
466.96	12339.30
467.14	12461.01
467.32	12475.06
467.51	12620.17
467.69	12154.40
467.87	12542.93
468.05	12793.37
468.23	12451.65
468.41	12421.22
468.60	12446.97
468.78	12655.28
468.96	12559.31
469.14	12758.26
469.32	12840.18
469.50	12685.70
469.69	13151.47
469.87	13076.57
470.05	13186.58
470.23	12994.65
470.41	13111.68
470.59	13268.50
470.77	13345.73
470.95	13329.35
471.14	13757.67
471.32	13226.37
471.50	13806.82
471.68	13509.57
471.86	13661.71
472.04	13820.86
472.22	13893.42
472.40	13792.78
472.58	14059.60
472.77	14125.13
472.95	14483.24
473.13	14862.40
473.31	14078.32
473.49	14157.90
473.67	14246.84
473.85	14403.66
474.03	14792.19
474.21	14661.12
474.39	14768.78
474.57	14899.85
474.75	14897.51
474.93	15199.44
475.12	14979.43
475.30	15154.97
475.48	15073.05
475.66	15269.66
475.84	15321.15
476.02	15227.53
476.20	15454.56
476.38	15611.37
476.56	15971.82
476.74	15995.22
476.92	15901.60
477.10	15913.30
477.28	16091.18
477.46	16297.15
477.64	16421.20
477.82	16603.76
478.00	17130.38
478.18	16739.51
478.36	17092.93
478.54	17177.19
478.72	17619.55
478.90	17455.72
479.08	17462.74
479.26	17675.73
479.44	17804.46
479.62	18057.23
479.80	18249.16
479.98	18356.82
480.16	18710.24
480.34	18438.74
480.52	18735.99
480.70	18593.22
480.88	18499.59
481.06	18941.96
481.24	18719.60
481.41	19515.39
481.59	19323.46
481.77	19604.33
481.95	19578.58
482.13	20105.20
482.31	19669.86
482.49	20290.10
482.67	20430.54
482.85	20634.16
483.03	20542.88
483.21	20879.92
483.39	20755.87
483.57	20828.43
483.74	21392.50
483.92	21425.26
484.10	21439.31
484.28	21748.26
484.46	22258.49
484.64	22338.07
484.82	22263.18
485.00	22218.71
485.18	22724.26
485.35	23159.60
485.53	22822.56
485.71	23452.17
485.89	23688.56
486.07	23449.83
486.25	23585.58
486.43	23461.53
486.61	23852.40
486.78	24105.18
486.96	24116.88
487.14	24783.93
487.32	25013.31
487.50	25127.99
487.68	24716.06
487.85	25596.10
488.03	25600.78
488.21	25881.64
488.39	26057.18
488.57	26223.36
488.75	26263.15
488.92	26434.01
489.10	26511.25
489.28	26892.76
489.46	26972.33
489.64	26909.14
489.81	27971.74
489.99	27613.64
490.17	27480.23
490.35	28395.38
490.53	28407.08
490.70	28376.66
490.88	28294.74
491.06	28835.40
491.24	28809.65
491.41	29078.82
491.59	29600.76
491.77	29256.70
491.95	29582.03
492.13	30190.57
492.30	29722.46
492.48	30052.48
492.66	30639.95
492.84	30160.14
493.01	30731.23
493.19	30862.30
493.37	31154.87
493.54	31447.44
493.72	31325.73
493.90	31346.79
494.08	31618.30
494.25	32168.32
494.43	32191.73
494.61	32350.88
494.79	32821.33
494.96	32294.71
495.14	32903.25
495.32	33593.71
495.49	33305.82
495.67	33235.61
495.85	33369.02
496.02	34218.63
496.20	33745.84
496.38	34132.03
496.55	34249.06
496.73	35124.42
496.91	34841.21
497.09	35061.22
497.26	35063.57
497.44	35117.40
497.62	35526.99
497.79	35761.05
497.97	35695.51
498.14	36287.67
498.32	36538.10
498.50	36582.57
498.67	37027.28
498.85	36715.98
499.03	36973.44
499.20	37195.79
499.38	37366.65
499.56	37525.81
499.73	37312.82
499.91	37481.34
500.08	37818.38
500.26	37703.69
500.44	37565.60
500.61	38162.43
500.79	37930.72
500.97	38040.73
501.14	38646.93
501.32	38593.09
501.49	38504.15
501.67	39077.58
501.84	39126.74
502.02	38979.28
502.20	39180.57
502.37	39461.43
502.55	39241.42
502.72	39892.09
502.90	39718.89
503.07	39562.08
503.25	39782.09
503.43	39372.49
503.60	40343.81
503.78	40430.41
503.95	40540.42
504.13	40531.06
504.30	40807.24
504.48	40507.65
504.65	40657.45
504.83	41268.33
505.01	41551.53
505.18	41310.46
505.36	41415.78
505.53	41184.07
505.71	41691.96
505.88	42000.91
506.06	41675.58
506.23	41970.49
506.41	42249.01
506.58	42312.20
506.76	42110.92
506.93	42480.72
507.11	42808.40
507.28	42635.20
507.46	42553.28
507.63	42944.15
507.81	43489.49
507.98	43091.60
508.16	43180.54
508.33	43643.97
508.50	43782.06
508.68	43545.67
508.85	44474.86
509.03	44243.15
509.20	44423.37
509.38	44746.36
509.55	44966.37
509.73	44839.98
509.90	44708.91
510.08	44725.30
510.25	44945.31
510.42	44830.62
510.60	45741.09
510.77	45799.60
510.95	45485.97
511.12	45085.74
511.30	45448.52
511.47	45771.52
511.64	45624.06
511.82	46195.15
511.99	46031.32
512.17	45949.40
512.34	45860.46
512.51	46782.63
512.69	46452.61
512.86	46557.94
513.04	46796.67
513.21	46773.27
513.38	46532.19
513.56	47384.15
513.73	46899.65
513.90	47194.56
514.08	47498.83
514.25	47517.56
514.43	47337.33
514.60	47402.87
514.77	47807.78
514.95	48259.51
515.12	47753.95
515.29	47828.85
515.47	48177.59
515.64	48271.21
515.81	47903.74
515.99	48421.00
516.16	48465.47
516.33	48266.53
516.51	49083.37
516.68	48821.23
516.85	48708.89
517.03	49193.38
517.20	48985.07
517.37	49048.27
517.54	48961.67
517.72	49130.19
517.89	49427.43
518.06	49422.75
518.24	49172.31
518.41	49600.63
518.58	49785.54
518.75	49523.40
518.93	49535.10
519.10	49602.97
519.27	50014.91
519.45	49614.68
519.62	50061.72
519.79	50391.73
519.96	49834.69
520.14	50101.51
520.31	50319.18
520.48	50440.89
520.65	50621.11
520.83	50864.52
521.00	50808.35
521.17	50672.60
521.34	50759.20
521.52	50831.75
521.69	51019.00
521.86	51164.11
522.03	51405.19
522.20	51615.83
522.38	51550.30
522.55	51634.56
522.72	51566.68
522.89	51517.53
523.07	51774.99
523.24	51751.59
523.41	51929.47
523.58	51391.14
523.75	52090.96
523.92	51798.40
524.10	52062.88
524.27	51934.15
524.44	51913.08
524.61	52268.84
524.78	52315.65
524.96	52383.53
525.13	52547.37
525.30	52495.88
525.47	52446.72
525.64	52919.51
525.81	52926.53
525.98	52734.61
526.16	52811.85
526.33	52996.75
526.50	53310.38
526.67	52914.83
526.84	52989.73
527.01	52928.87
527.18	53062.29
527.36	53221.44
527.53	52720.57
527.70	53518.69
527.87	53268.25
528.04	53361.87
528.21	53703.59
528.38	53308.04
528.55	53780.83
528.72	53570.18
528.89	53516.35
529.07	53586.57
529.24	53298.68
529.41	53799.55
529.58	53663.80
529.75	53773.81
529.92	53829.98
530.09	53853.39
530.26	54258.30
530.43	54157.66
530.60	53825.30
530.77	54007.86
530.94	54279.36
531.11	54211.49
531.28	54064.03
531.46	54234.89
531.63	54354.26
531.80	54539.16
531.97	54665.55
532.14	54497.03
532.31	54429.16
532.48	54808.32
532.65	54831.73
532.82	54759.17
532.99	54674.91
533.16	54972.16
533.33	55199.19
533.50	55011.95
533.67	55002.59
533.84	54995.57
534.01	55072.81
534.18	55056.42
534.35	55206.22
534.52	55154.72
534.69	55599.43
534.86	55344.31
535.03	55161.75
535.20	55194.51
535.37	55477.72
535.54	55482.40
535.71	55480.06
535.88	55440.27
536.05	55725.81
536.22	55662.62
536.38	55744.54
536.55	55501.12
536.72	55751.56
536.89	55650.92
537.06	55622.83
537.23	55882.63
537.40	55856.88
537.57	55550.27
537.74	55849.86
537.91	56016.04
538.08	56130.73
538.25	55779.65
538.42	56025.40
538.59	56301.59
538.75	55983.27
538.92	55992.64
539.09	56453.72
539.26	56322.65
539.43	56324.99
539.60	56423.29
539.77	56296.91
539.94	56559.05
540.11	56413.93
540.28	56535.64
540.44	56552.02
540.61	56601.18
540.78	56584.79
540.95	56514.58
541.12	56493.51
541.29	56493.51
541.46	56699.48
541.62	56683.09
541.79	56790.76
541.96	56467.76
542.13	56760.33
542.30	56612.88
542.47	57006.09
542.63	56865.66
542.80	56978.00
542.97	57151.20
543.14	57317.38
543.31	57045.88
543.48	57352.49
543.64	57591.22
543.81	57546.75
543.98	57848.68
544.15	57506.96
544.32	57528.03
544.48	57460.15
544.65	57446.11
544.82	57537.39
544.99	57361.85
545.16	57525.69
545.32	57432.07
545.49	57722.29
545.66	57602.92
545.83	57717.61
546.00	57961.03
546.16	57731.65
546.33	57691.86
546.50	57755.06
546.67	58019.54
546.83	57598.24
547.00	57745.70
547.17	57736.34
547.34	57925.92
547.50	57911.88
547.67	58260.62
547.84	58120.18
548.00	58220.83
548.17	58206.78
548.34	58171.67
548.51	58372.96
548.67	58258.27
548.84	58197.42
549.01	58148.27
549.18	58300.40
549.34	58419.77
549.51	58370.62
549.68	58632.76
549.84	58590.63
550.01	58391.68
550.18	58398.71
550.34	58394.03
550.51	58831.71
550.68	58487.65
550.84	58377.64
551.01	58719.36
551.18	58576.59
551.34	58667.87
551.51	58651.48
551.68	58808.30
551.84	58953.41
552.01	58714.68
552.18	58770.85
552.34	58635.10
552.51	58780.21
552.68	58618.72
552.84	58644.46
553.01	59201.51
553.18	58864.47
553.34	58974.48
553.51	58962.78
553.67	59178.10
553.84	59093.85
554.01	59030.65
554.17	59051.72
554.34	59103.21
554.51	59023.63
554.67	59100.87
554.84	58932.35
555.00	59164.06
555.17	59009.59
555.33	59040.01
555.50	58843.41
555.67	59154.70
555.83	59056.40
556.00	59224.92
556.16	59517.48
556.33	59271.73
556.50	59355.99
556.66	59561.95
556.83	59267.05
556.99	59374.71
557.16	59681.32
557.32	59601.74
557.49	59590.04
557.65	59545.57
557.82	59355.99
557.98	59323.22
558.15	59416.84
558.32	59632.17
558.48	59678.98
558.65	59583.02
558.81	59538.55
558.98	59550.25
559.14	59821.75
559.31	59786.64
559.47	59580.68
559.64	59870.90
559.80	59941.12
559.97	59898.99
560.13	59601.74
560.30	59788.98
560.46	59786.64
560.63	59877.93
560.79	59742.17
560.96	60107.30
561.12	59838.14
561.29	59898.99
561.45	59894.31
561.61	59931.76
561.78	59700.04
561.94	59950.48
562.11	59994.95
562.27	60060.49
562.44	59980.91
562.60	60217.30
562.77	59990.27
562.93	59917.71
563.10	60189.22
563.26	60023.04
563.42	60163.47
563.59	60027.72
563.75	59992.61
563.92	60196.24
564.08	60074.53
564.24	60418.59
564.41	60343.69
564.57	60348.37
564.74	60175.17
564.90	60212.62
565.07	60123.68
565.23	60245.39
565.39	60016.02
565.56	60301.56
565.72	60212.62
565.88	60331.99
566.05	60346.03
566.21	60280.50
566.38	60430.29
566.54	60196.24
566.70	60449.02
566.87	60425.61
567.03	60217.30
567.19	60526.25
567.36	60331.99
567.52	60472.42
567.68	60680.73
567.85	60353.05
568.01	60584.77
568.17	60437.31
568.34	60463.06
568.50	60416.25
568.66	60566.04
568.83	60444.33
568.99	60495.83
569.15	60577.75
569.32	60535.62
569.48	60491.15
569.64	60669.03
569.81	60425.61
569.97	60364.76
570.13	60570.72
570.30	60561.36
570.46	60512.21
570.62	60772.01
570.78	60577.75
570.95	60589.45
571.11	60755.63
571.27	60514.55
571.43	60704.13
571.60	60980.32
571.76	60793.07
571.92	60544.98
572.09	60577.75
572.25	60697.11
572.41	60669.03
572.57	60706.47
572.74	60914.78
572.90	60605.83
573.06	60720.52
573.22	60666.69
573.38	60746.26
573.55	60711.16
573.71	60846.91
573.87	60739.24
574.03	60767.33
574.20	60727.54
574.36	60816.48
574.52	60596.47
574.68	60945.21
574.84	60989.68
575.01	60657.32
575.17	60816.48
575.33	60837.54
575.49	60772.01
575.65	60835.20
575.82	60886.70
575.98	60790.73
576.14	60823.50
576.30	60851.59
576.46	60699.45
576.62	60825.84
576.79	61113.73
576.95	60598.81
577.11	60769.67
577.27	61001.38
577.43	61015.43
577.59	60835.20
577.75	60977.98
577.92	60779.03
578.08	60865.63
578.24	61085.64
578.40	61226.07
578.56	61041.17
578.72	60884.36
578.88	61139.47
579.04	61134.79
579.21	60977.98
579.37	61113.73
579.53	61092.66
579.69	60872.65
579.85	60762.65
580.01	60982.66
580.17	60720.52
580.33	61062.24
580.49	60980.32
580.65	60910.10
580.82	60966.27
580.98	60762.65
581.14	60987.34
581.30	60802.44
581.46	60959.25
581.62	61087.98
581.78	60870.31
581.94	61085.64
582.10	60959.25
582.26	61027.13
582.42	61008.40
582.58	60903.08
582.74	61146.50
582.90	61022.45
583.06	60945.21
583.22	60568.38
583.38	61244.80
583.54	60956.91
583.70	61003.72
583.86	61020.11
584.02	61057.56
584.18	61160.54
584.34	61106.71
584.50	61008.40
584.66	60811.80
584.82	61020.11
584.98	61134.79
585.14	61080.96
585.30	60935.85
585.46	61193.31
585.62	60963.93
585.78	61137.13
585.94	60900.74
586.10	61003.72
586.26	61158.20
586.42	61319.70
586.58	61078.62
586.74	61071.60
586.90	61125.43
587.06	61080.96
587.22	61265.86
587.38	61293.95
587.54	61457.79
587.70	61286.93
587.86	61031.81
588.02	61134.79
588.18	61249.48
588.34	61174.58
588.49	61237.78
