SpectraSuite Data File
++++++++++++++++++++++++++++++++++++
Date: Fri Oct 25 11:22:42 EDT 2013
User: price-jones
Dark Spectrum Present: No
Reference Spectrum Present: No
Number of Sampled Component Spectra: 1
Spectrometers: USB2+H05261
Integration Time (usec): 100000 (USB2+H05261)
Spectra Averaged: 1 (USB2+H05261)
Boxcar Smoothing: 0 (USB2+H05261)
Correct for Electrical Dark: No (USB2+H05261)
Strobe/Lamp Enabled: No (USB2+H05261)
Correct for Detector Non-linearity: No (USB2+H05261)
Correct for Stray Light: No (USB2+H05261)
Number of Pixels in Processed Spectrum: 2048
>>>>>Begin Processed Spectral Data<<<<<
365.73	196.60
365.92	196.60
366.12	196.60
366.32	147.45
366.52	224.69
366.72	112.35
366.91	112.35
367.11	98.30
367.31	114.69
367.51	131.07
367.70	138.09
367.90	138.09
368.10	72.56
368.30	95.96
368.49	140.43
368.69	121.71
368.89	166.18
369.09	126.39
369.28	65.54
369.48	184.90
369.68	145.11
369.87	187.24
370.07	107.66
370.27	184.90
370.47	306.61
370.66	505.56
370.86	629.60
371.06	716.20
371.25	587.47
371.45	671.73
371.65	793.44
371.84	683.44
372.04	667.05
372.24	664.71
372.44	709.18
372.63	704.50
372.83	699.82
373.03	711.52
373.22	732.59
373.42	791.10
373.62	695.14
373.81	847.27
374.01	791.10
374.21	798.12
374.40	744.29
374.60	779.40
374.79	777.06
374.99	894.08
375.19	800.46
375.38	875.36
375.58	863.66
375.78	863.66
375.97	770.04
376.17	851.96
376.37	826.21
376.56	1015.79
376.76	889.40
376.95	837.91
377.15	936.21
377.35	917.49
377.54	868.34
377.74	849.61
377.93	861.32
378.13	898.77
378.33	971.32
378.52	957.28
378.72	919.83
378.91	971.32
379.11	954.94
379.31	908.13
379.50	896.43
379.70	915.15
379.89	954.94
380.09	997.07
380.28	959.62
380.48	943.24
380.68	915.15
380.87	976.00
381.07	1018.13
381.26	940.90
381.46	947.92
381.65	1036.86
381.85	1074.31
382.04	1055.58
382.24	1036.86
382.43	1048.56
382.63	1064.94
382.83	1069.62
383.02	1095.37
383.22	1039.20
383.41	1025.15
383.61	1111.75
383.80	1186.65
384.00	1139.84
384.19	1160.91
384.39	1181.97
384.58	1165.59
384.78	1043.88
384.97	1160.91
385.17	1181.97
385.36	1158.57
385.56	1135.16
385.75	1207.72
385.95	1142.18
386.14	1132.82
386.34	1174.95
386.53	1228.78
386.72	1118.78
386.92	1210.06
387.11	1327.08
387.31	1217.08
387.50	1160.91
387.70	1261.55
387.89	1301.34
388.09	1289.64
388.28	1219.42
388.48	1320.06
388.67	1317.72
388.86	1390.28
389.06	1242.82
389.25	1317.72
389.45	1306.02
389.64	1383.26
389.84	1282.61
390.03	1327.08
390.22	1348.15
390.42	1369.21
390.61	1357.51
390.81	1500.28
391.00	1416.02
391.19	1385.60
391.39	1350.49
391.58	1430.07
391.78	1336.45
391.97	1439.43
392.16	1394.96
392.36	1519.01
392.55	1460.49
392.75	1540.07
392.94	1519.01
393.13	1514.33
393.33	1446.45
393.52	1544.75
393.71	1579.86
393.91	1514.33
394.10	1582.20
394.29	1614.97
394.49	1584.54
394.68	1689.87
394.88	1568.16
395.07	1743.70
395.26	1598.59
395.46	1685.19
395.65	1717.95
395.84	1729.66
396.04	1813.92
396.23	1736.68
396.42	1750.72
396.62	1820.94
396.81	1790.51
397.00	1753.06
397.19	1736.68
397.39	1811.57
397.58	1921.58
397.77	1830.30
397.97	1792.85
398.16	1849.02
398.35	1923.92
398.55	1933.28
398.74	1935.62
398.93	1851.36
399.12	1975.41
399.32	1863.07
399.51	1771.79
399.70	1937.96
399.90	1916.90
400.09	1982.43
400.28	1998.82
400.47	2038.61
400.67	2146.27
400.86	2106.48
401.05	2047.97
401.24	2064.35
401.44	2078.40
401.63	2172.02
401.82	2127.55
402.01	2106.48
402.21	2176.70
402.40	2272.66
402.59	2104.14
402.78	2207.13
402.97	2186.06
403.17	2321.81
403.36	2286.70
403.55	2300.75
403.74	2335.85
403.93	2399.05
404.13	2368.62
404.32	2368.62
404.51	2417.77
404.70	2368.62
404.89	2347.56
405.09	2509.05
405.28	2455.22
405.47	2455.22
405.66	2401.39
405.85	2607.36
406.05	2427.14
406.24	2581.61
406.43	2567.57
406.62	2665.87
406.81	2679.91
407.00	2644.81
407.20	2633.10
407.39	2534.80
407.58	2745.45
407.77	2672.89
407.96	2836.73
408.15	2747.79
408.34	2736.09
408.54	2719.70
408.73	2733.75
408.92	2867.16
409.11	2923.33
409.30	2963.12
409.49	2796.94
409.68	2916.31
409.87	2836.73
410.07	3169.09
410.26	2986.52
410.45	3009.93
410.64	3105.89
410.83	3164.40
411.02	3126.96
411.21	3239.30
411.40	3133.98
411.59	3304.84
411.78	3220.58
411.98	3155.04
412.17	3190.15
412.36	3335.26
412.55	3410.16
412.74	3487.40
412.93	3414.84
413.12	3405.48
413.31	3459.31
413.50	3375.05
413.69	3632.51
413.88	3693.37
414.07	3531.87
414.26	3655.92
414.45	3618.47
414.64	3707.41
414.83	3611.45
415.02	3707.41
415.22	3836.14
415.41	3772.94
415.60	3728.47
415.79	3943.80
415.98	3950.82
416.17	3999.98
416.36	3941.46
416.55	4049.13
416.74	4163.81
416.93	3974.23
417.12	4219.99
417.31	4177.86
417.50	4231.69
417.69	4332.33
417.88	4264.46
418.07	4231.69
418.26	4313.61
418.45	4355.74
418.64	4477.44
418.83	4461.06
419.02	4418.93
419.21	4484.47
419.39	4486.81
419.58	4493.83
419.77	4411.91
419.96	4456.38
420.15	4524.26
420.34	4603.83
420.53	4674.05
420.72	4697.46
420.91	4819.16
421.10	4660.01
421.29	4585.11
421.48	4606.17
421.67	4884.70
421.86	4877.68
422.05	4884.70
422.24	4875.34
422.43	4887.04
422.61	4851.93
422.80	5008.75
422.99	4964.28
423.18	4926.83
423.37	5078.96
423.56	4985.34
423.75	4861.29
423.94	4973.64
424.13	4535.96
424.32	4807.46
424.50	4896.40
424.69	5104.71
424.88	5135.14
425.07	4931.51
425.26	4964.28
425.45	4875.34
425.64	5071.94
425.83	4924.49
426.01	4922.15
426.20	5280.25
426.39	5116.41
426.58	5076.62
426.77	5083.64
426.96	5085.98
427.15	5158.54
427.33	5144.50
427.52	5137.48
427.71	5252.16
427.90	5252.16
428.09	5451.11
428.28	5394.93
428.46	5460.47
428.65	5401.96
428.84	5577.50
429.03	5425.36
429.22	5371.53
429.40	5561.11
429.59	5493.24
429.78	5139.82
429.97	5334.08
430.16	5518.98
430.34	5654.73
430.53	5652.39
430.72	5912.19
430.91	5724.95
431.10	5596.22
431.28	5802.19
431.47	5818.57
431.66	5839.64
431.85	5818.57
432.03	5893.47
432.22	5933.26
432.41	5785.80
432.60	6026.88
432.79	5713.25
432.97	6017.52
433.16	6026.88
433.35	5877.09
433.54	6155.61
433.72	6104.12
433.91	6054.97
434.10	5949.64
434.28	5949.64
434.47	6216.46
434.66	6179.01
434.85	6274.98
435.03	6413.07
435.22	6167.31
435.41	6537.12
435.59	6490.31
435.78	6464.56
435.97	6593.29
436.16	6530.09
436.34	6396.68
436.53	6511.37
436.72	6724.36
436.90	6333.49
437.09	6703.29
437.28	6541.80
437.46	6710.32
437.65	6736.06
437.84	6815.64
438.02	6986.50
438.21	6864.79
438.40	6738.40
438.58	6974.80
438.77	7096.50
438.96	6960.75
439.14	7140.97
439.33	7115.23
439.52	7199.49
439.70	7281.41
439.89	7595.04
440.08	7403.11
440.26	7293.11
440.45	7398.43
440.63	7382.05
440.82	7662.91
441.01	7599.72
441.19	7522.48
441.38	7702.70
441.57	7908.67
441.75	7751.85
441.94	7946.12
442.12	8128.68
442.31	8013.99
442.50	8058.46
442.68	7873.56
442.87	7936.76
443.05	8030.38
443.24	8154.43
443.43	8166.13
443.61	8107.62
443.80	8608.49
443.98	8196.56
444.17	7964.84
444.35	8138.04
444.54	8351.03
444.73	8344.01
444.91	8252.73
445.10	8430.61
445.28	8383.80
445.47	8248.05
445.65	8449.33
445.84	8484.44
446.02	8329.97
446.21	8329.97
446.39	8344.01
446.58	8547.64
446.77	8575.72
446.95	8259.75
447.14	8535.93
447.32	8638.92
447.51	8355.71
447.69	8578.06
447.88	8496.14
448.06	8641.26
448.25	8388.48
448.43	8711.47
448.62	8615.51
448.80	8606.15
448.99	8805.10
449.17	8805.10
449.36	8809.78
449.54	8720.84
449.73	8985.32
449.91	9004.04
450.10	8945.53
450.28	9210.01
450.46	9132.77
450.65	8910.42
450.83	8987.66
451.02	8917.44
451.20	8980.64
451.39	9289.59
451.57	9125.75
451.76	9165.54
451.94	9235.75
452.13	9104.68
452.31	9455.76
452.49	9357.46
452.68	9327.03
452.86	9238.09
453.05	9430.02
453.23	9385.55
453.42	9427.68
453.60	9514.28
453.78	9554.07
453.97	9472.15
454.15	9535.34
454.34	9626.62
454.52	9853.66
454.70	9865.36
454.89	9767.06
455.07	9764.72
455.26	9848.97
455.44	10190.69
455.62	9853.66
455.81	10120.48
455.99	10033.88
456.17	10160.27
456.36	10143.88
456.54	10162.61
456.73	10284.31
456.91	10527.73
457.09	10459.85
457.28	10696.25
457.46	10183.67
457.64	10569.86
457.83	10750.08
458.01	10476.24
458.19	10729.02
458.38	10377.94
458.56	10689.23
458.74	10890.51
458.93	10628.37
459.11	10626.03
459.29	10644.76
459.48	10991.16
459.66	10647.10
459.84	10822.64
460.03	10890.51
460.21	10972.43
460.39	10965.41
460.57	11192.44
460.76	11192.44
460.94	11346.92
461.12	11470.97
461.31	11248.61
461.49	11044.99
461.67	11154.99
461.85	11513.10
462.04	11304.79
462.22	11922.69
462.40	11831.41
462.59	11634.80
462.77	11557.57
462.95	11829.07
463.13	11527.14
463.32	11468.62
463.50	11880.56
463.68	12035.03
463.86	11864.18
464.05	11641.82
464.23	11950.78
464.41	11992.90
464.59	11768.21
464.78	12182.49
464.96	12135.68
465.14	11733.11
465.32	12049.08
465.50	12257.39
465.69	12334.62
465.87	12126.32
466.05	12273.77
466.23	12093.55
466.41	12568.68
466.60	12610.81
466.78	12189.51
466.96	12142.70
467.14	12365.05
467.32	12449.31
467.51	12556.97
467.69	12177.81
467.87	12472.71
468.05	12578.04
468.23	12346.33
468.41	12566.34
468.60	12688.04
468.78	12683.36
468.96	12765.28
469.14	12692.73
469.32	13090.62
469.50	12699.75
469.69	12987.63
469.87	13226.37
470.05	13268.50
470.23	13193.60
470.41	13369.14
470.59	13493.19
470.77	13231.05
470.95	13259.13
471.14	13661.71
471.32	13434.68
471.50	13755.33
471.68	13708.52
471.86	13635.96
472.04	13804.48
472.22	14256.20
472.40	13764.69
472.58	13949.59
472.77	14183.65
472.95	14237.48
473.13	14410.68
473.31	14120.45
473.49	14342.80
473.67	14185.99
473.85	14759.42
474.03	14810.91
474.21	14611.96
474.39	14719.63
474.57	14902.19
474.75	15054.33
474.93	15042.62
475.12	15250.93
475.30	15066.03
475.48	14888.15
475.66	15604.35
475.84	15176.03
476.02	15459.24
476.20	15431.15
476.38	15812.66
476.56	16067.78
476.74	15807.98
476.92	16098.20
477.10	15695.63
477.28	16423.54
477.46	16322.90
477.64	16369.71
477.82	16531.20
478.00	16814.41
478.18	16727.81
478.36	17392.52
478.54	17160.81
478.72	16905.69
478.90	17486.14
479.08	17827.86
479.26	17666.36
479.44	17664.02
479.62	18010.42
479.80	18139.15
479.98	18153.20
480.16	18368.52
480.34	18415.34
480.52	18806.20
480.70	18637.69
480.88	18532.36
481.06	18853.02
481.24	18733.65
481.41	19311.76
481.59	19321.12
481.77	19365.59
481.95	19768.16
482.13	19927.32
482.31	19625.39
482.49	20119.24
482.67	20201.16
482.85	20500.75
483.03	20695.02
483.21	21025.03
483.39	21050.78
483.57	20805.02
483.74	21308.24
483.92	21371.43
484.10	21371.43
484.28	21776.34
484.46	22221.05
484.64	22476.16
484.82	22148.49
485.00	22738.30
485.18	22981.72
485.35	23506.00
485.53	22551.06
485.71	23269.61
485.89	23742.39
486.07	23543.45
486.25	23747.08
486.43	23840.70
486.61	24102.84
486.78	24196.46
486.96	24306.46
487.14	24713.72
487.32	25174.80
487.50	24975.86
487.68	25010.96
487.85	25483.75
488.03	25823.13
488.21	26071.23
488.39	25993.99
488.57	26279.54
488.75	26265.49
488.92	26548.70
489.10	26862.33
489.28	27248.52
489.46	27042.55
489.64	27147.87
489.81	27861.74
489.99	28266.65
490.17	27868.76
490.35	28306.44
490.53	28156.64
490.70	28786.25
490.88	28786.25
491.06	29062.43
491.24	29111.58
491.41	29092.86
491.59	29312.87
491.77	29476.71
491.95	29645.23
492.13	29958.86
492.30	30085.25
492.48	30162.48
492.66	30251.42
492.84	30448.03
493.01	30764.00
493.19	31061.25
493.37	31211.04
493.54	31269.56
493.72	31599.57
493.90	31424.03
494.08	31679.15
494.25	31974.06
494.43	31978.74
494.61	32606.00
494.79	32690.26
494.96	32458.55
495.14	33467.32
495.32	33366.68
495.49	33469.66
495.67	33612.43
495.85	34211.61
496.02	33696.69
496.20	33888.62
496.38	34286.51
496.55	34323.96
496.73	34843.56
496.91	34625.89
497.09	34965.26
497.26	35037.82
497.44	35108.04
497.62	35519.97
497.79	36140.21
497.97	35253.15
498.14	36098.08
498.32	36100.42
498.50	36598.96
498.67	36751.09
498.85	36407.03
499.03	36861.10
499.20	36699.60
499.38	36971.10
499.56	36926.63
499.73	37160.69
499.91	37385.38
500.08	37640.50
500.26	37689.65
500.44	38019.66
500.61	38078.18
500.79	37949.45
500.97	38129.67
501.14	38909.07
501.32	38916.09
501.49	38429.26
501.67	39063.54
501.84	38925.45
502.02	39105.67
502.20	39260.15
502.37	39281.21
502.55	39342.06
502.72	39529.31
502.90	39988.05
503.07	39487.18
503.25	40278.28
503.43	40203.38
503.60	40088.70
503.78	40409.35
503.95	40362.54
504.13	40781.49
504.30	40636.38
504.48	40556.80
504.65	40556.80
504.83	41212.15
505.01	41808.99
505.18	41202.79
505.36	41818.35
505.53	41378.33
505.71	41649.83
505.88	41923.68
506.06	41642.81
506.23	42309.86
506.41	41886.23
506.58	42080.49
506.76	42363.70
506.93	42848.19
507.11	42328.59
507.28	42866.91
507.46	43246.08
507.63	43058.84
507.81	43435.66
507.98	43320.98
508.16	43131.39
508.33	43416.94
508.50	43313.95
508.68	43779.72
508.85	44348.47
509.03	44121.44
509.20	44238.47
509.38	44666.78
509.55	44589.55
509.73	44828.28
509.90	45048.29
510.08	44662.10
510.25	44701.89
510.42	45223.83
510.60	45317.45
510.77	45364.26
510.95	45518.74
511.12	45413.41
511.30	44942.97
511.47	45516.40
511.64	45610.02
511.82	45935.35
511.99	45478.95
512.17	46419.84
512.34	45755.13
512.51	46536.87
512.69	46644.54
512.86	46403.46
513.04	46801.35
513.21	47105.62
513.38	47000.30
513.56	47063.49
513.73	46876.25
513.90	47330.31
514.08	47159.45
514.25	47709.48
514.43	47351.38
514.60	47730.54
514.77	47686.07
514.95	47700.12
515.12	47777.36
515.29	48069.92
515.47	48203.33
515.64	48348.45
515.81	48428.02
515.99	48542.71
516.16	48797.83
516.33	48591.86
516.51	48985.07
516.68	48905.49
516.85	48521.65
517.03	49219.13
517.20	48949.96
517.37	48926.56
517.54	49158.27
517.72	48891.45
517.89	49366.58
518.06	49371.26
518.24	49549.14
518.41	49558.50
518.58	49453.18
518.75	49507.01
518.93	49902.56
519.10	49387.64
519.27	49790.22
519.45	49996.18
519.62	50368.33
519.79	50106.19
519.96	50387.05
520.14	50192.79
520.31	50358.97
520.48	50602.38
520.65	50782.60
520.83	50908.99
521.00	50721.75
521.17	50990.91
521.34	50567.27
521.52	50892.61
521.69	51159.43
521.86	50995.59
522.03	51400.50
522.20	51522.21
522.38	51653.28
522.55	51875.63
522.72	51550.30
522.89	51777.33
523.07	51870.95
523.24	51810.10
523.41	52009.04
523.58	51285.82
523.75	52041.81
523.92	52002.02
524.10	52332.04
524.27	52273.52
524.44	52388.21
524.61	52594.18
524.78	52402.25
524.96	52514.60
525.13	52315.65
525.30	52725.25
525.47	52418.64
525.64	52664.39
525.81	52659.71
525.98	52765.04
526.16	52498.22
526.33	52994.41
526.50	52956.96
526.67	53085.69
526.84	52870.36
527.01	52821.21
527.18	53251.87
527.36	53296.34
527.53	53078.67
527.70	53361.87
527.87	53551.46
528.04	53263.57
528.21	53474.22
528.38	53425.07
528.55	53820.62
528.72	53593.59
528.89	53656.78
529.07	53464.86
529.24	53209.74
529.41	53792.53
529.58	53883.81
529.75	53858.07
529.92	54017.22
530.09	54101.48
530.26	53820.62
530.43	54206.81
530.60	53825.30
530.77	53942.33
530.94	54082.76
531.11	53820.62
531.28	54305.11
531.46	54478.31
531.63	54515.76
531.80	54382.35
531.97	54333.20
532.14	54658.53
532.31	54560.23
532.48	54564.91
532.65	54986.21
532.82	54520.44
532.99	54946.42
533.16	54539.16
533.33	55007.27
533.50	55243.66
533.67	54852.80
533.84	54915.99
534.01	55091.53
534.18	54990.89
534.35	55428.57
534.52	55250.69
534.69	55231.96
534.86	55339.63
535.03	55107.91
535.20	55243.66
535.37	55451.97
535.54	55283.45
535.71	55344.31
535.88	55576.02
536.05	55564.32
536.22	55707.09
536.38	55662.62
536.55	55821.78
536.72	55664.96
536.89	55585.38
537.06	56041.79
537.23	56044.13
537.40	55590.06
537.57	55891.99
537.74	55824.12
537.91	56231.37
538.08	56107.32
538.25	55852.20
538.42	55997.32
538.59	56198.60
538.75	56137.75
538.92	56142.43
539.09	56214.99
539.26	56205.62
539.43	56030.08
539.60	56512.23
539.77	56505.21
539.94	56645.65
540.11	56100.30
540.28	56584.79
540.44	56568.41
540.61	56612.88
540.78	56633.94
540.95	56610.54
541.12	56460.74
541.29	56575.43
541.46	56893.74
541.62	56762.67
541.79	56975.66
541.96	56865.66
542.13	56718.20
542.30	56762.67
542.47	56935.87
542.63	56914.81
542.80	56942.89
542.97	57001.41
543.14	57223.76
543.31	57186.31
543.48	57352.49
543.64	57579.52
543.81	57382.91
543.98	57441.43
544.15	57434.41
544.32	57509.30
544.48	57724.63
544.65	57469.51
544.82	57588.88
544.99	57418.02
545.16	57523.35
545.32	57535.05
545.49	57780.81
545.66	57790.17
545.83	57785.49
546.00	57820.59
546.16	57600.58
546.33	57719.95
546.50	57631.01
546.67	57808.89
546.83	57633.35
547.00	58035.92
547.17	57932.94
547.34	57951.66
547.50	57951.66
547.67	58195.08
547.84	58145.93
548.00	58225.51
548.17	58548.50
548.34	58342.53
548.51	58302.74
548.67	58368.28
548.84	58174.02
549.01	58082.73
549.18	58230.19
549.34	58501.69
549.51	58206.78
549.68	58630.42
549.84	58433.81
550.01	58492.33
550.18	58391.68
550.34	58501.69
550.51	58658.51
550.68	58592.97
550.84	58410.41
551.01	58740.42
551.18	58548.50
551.34	58569.57
551.51	58578.93
551.68	58595.31
551.84	58602.33
552.01	58731.06
552.18	58829.37
552.34	58698.30
552.51	58700.64
552.68	58754.47
552.84	58808.30
553.01	59070.44
553.18	58967.46
553.34	59000.22
553.51	58798.94
553.67	58955.75
553.84	59018.95
554.01	59035.33
554.17	58885.54
554.34	59334.92
554.51	59079.80
554.67	59363.01
554.84	59061.08
555.00	59316.20
555.17	59175.76
555.33	59030.65
555.50	59040.01
555.67	59164.06
555.83	59091.51
556.00	59290.45
556.16	59536.21
556.33	59533.87
556.50	59442.59
556.66	59526.84
556.83	59344.28
556.99	59559.61
557.16	59620.47
557.32	59360.67
557.49	59772.60
557.65	59559.61
557.82	59746.86
557.98	59728.13
558.15	59524.50
558.32	59639.19
558.48	59566.63
558.65	59599.40
558.81	59709.41
558.98	59489.40
559.14	59770.26
559.31	59800.69
559.47	59601.74
559.64	59913.03
559.80	59934.10
559.97	59817.07
560.13	59814.73
560.30	59774.94
560.46	59934.10
560.63	59861.54
560.79	59683.66
560.96	60116.66
561.12	60097.94
561.29	59955.16
561.45	59847.50
561.61	59980.91
561.78	60013.68
561.94	59957.50
562.11	60095.60
562.27	59875.58
562.44	60074.53
562.60	60200.92
562.77	60154.11
562.93	59854.52
563.10	60128.36
563.26	60198.58
563.42	60348.37
563.59	60133.04
563.75	60168.15
563.92	60062.83
564.08	60001.97
564.24	60193.90
564.41	60144.75
564.57	60240.71
564.74	60463.06
564.90	60289.86
565.07	60149.43
565.23	60104.96
565.39	60339.01
565.56	60371.78
565.72	60339.01
565.88	60411.57
566.05	60331.99
566.21	60355.39
566.38	60437.31
566.54	60434.97
566.70	60287.52
566.87	60528.59
567.03	60364.76
567.19	60472.42
567.36	60444.33
567.52	60385.82
567.68	60624.56
567.85	60493.49
568.01	60608.17
568.17	60512.21
568.34	60514.55
568.50	60388.16
568.66	60339.01
568.83	60456.04
568.99	60556.68
569.15	60598.81
569.32	60416.25
569.48	60601.15
569.64	60645.62
569.81	60706.47
569.97	60294.54
570.13	60615.19
570.30	60348.37
570.46	60669.03
570.62	60828.18
570.78	60673.71
570.95	60685.41
571.11	60800.10
571.27	60486.46
571.43	60706.47
571.60	60872.65
571.76	60830.52
571.92	60790.73
572.09	60580.09
572.25	60736.90
572.41	60500.51
572.57	60708.82
572.74	60582.43
572.90	60594.13
573.06	60856.27
573.22	60753.29
573.38	60790.73
573.55	60589.45
573.71	60926.49
573.87	60800.10
574.03	60666.69
574.20	60807.12
574.36	60697.11
574.52	60825.84
574.68	60814.14
574.84	60898.40
575.01	60853.93
575.17	60837.54
575.33	60907.76
575.49	60863.29
575.65	60905.42
575.82	61104.37
575.98	60989.68
576.14	61216.71
576.30	60858.61
576.46	60774.35
576.62	60863.29
576.79	60867.97
576.95	60928.83
577.11	61071.60
577.27	61015.43
577.43	60781.37
577.59	60832.86
577.75	60940.53
577.92	60788.39
578.08	60987.34
578.24	60804.78
578.40	60837.54
578.56	60977.98
578.72	61066.92
578.88	61097.34
579.04	61125.43
579.21	61057.56
579.37	61151.18
579.53	61233.10
579.69	61109.05
579.85	60865.63
580.01	60982.66
580.17	60912.44
580.33	61181.60
580.49	61090.32
580.65	61073.94
580.82	60940.53
580.98	60891.38
581.14	60860.95
581.30	61062.24
581.46	60949.89
581.62	61286.93
581.78	61071.60
581.94	60992.02
582.10	60996.70
582.26	61155.86
582.42	61144.16
582.58	60961.59
582.74	61183.94
582.90	60896.06
583.06	61118.41
583.22	60928.83
583.38	61080.96
583.54	61050.53
583.70	61183.94
583.86	61155.86
584.02	61055.21
584.18	61186.28
584.34	60952.23
584.50	60926.49
584.66	60867.97
584.82	60996.70
584.98	61141.81
585.14	61123.09
585.30	61233.10
585.46	61087.98
585.62	61087.98
585.78	61385.23
585.94	61087.98
586.10	61181.60
586.26	61242.46
586.42	61511.62
586.58	61109.05
586.74	61197.99
586.90	61104.37
587.06	61123.09
587.22	61087.98
587.38	61254.16
587.54	61345.44
587.70	61446.08
587.86	61169.90
588.02	61240.12
588.18	61380.55
588.34	61116.07
588.49	61146.50
