SpectraSuite Data File
++++++++++++++++++++++++++++++++++++
Date: Fri Oct 25 10:47:45 EDT 2013
User: price-jones
Dark Spectrum Present: No
Reference Spectrum Present: No
Number of Sampled Component Spectra: 1
Spectrometers: USB2+H05261
Integration Time (usec): 100000 (USB2+H05261)
Spectra Averaged: 1 (USB2+H05261)
Boxcar Smoothing: 0 (USB2+H05261)
Correct for Electrical Dark: No (USB2+H05261)
Strobe/Lamp Enabled: No (USB2+H05261)
Correct for Detector Non-linearity: No (USB2+H05261)
Correct for Stray Light: No (USB2+H05261)
Number of Pixels in Processed Spectrum: 2048
>>>>>Begin Processed Spectral Data<<<<<
365.73	77.24
365.92	77.24
366.12	77.24
366.32	0.00
366.52	21.06
366.72	35.11
366.91	51.49
367.11	72.56
367.31	46.81
367.51	11.70
367.70	107.66
367.90	65.54
368.10	35.11
368.30	84.26
368.49	49.15
368.69	107.66
368.89	53.83
369.09	51.49
369.28	39.79
369.48	53.83
369.68	60.85
369.87	91.28
370.07	28.09
370.27	46.81
370.47	201.29
370.66	386.19
370.86	402.57
371.06	451.72
371.25	409.59
371.45	463.43
371.65	498.53
371.84	442.36
372.04	510.24
372.24	444.70
372.44	465.77
372.63	496.19
372.83	528.96
373.03	559.39
373.22	507.90
373.42	580.45
373.62	482.15
373.81	531.30
374.01	545.34
374.21	535.98
374.40	468.11
374.60	566.41
374.79	552.37
374.99	603.86
375.19	526.62
375.38	601.52
375.58	608.54
375.78	575.77
375.97	573.43
376.17	674.07
376.37	545.34
376.56	533.64
376.76	596.84
376.95	709.18
377.15	702.16
377.35	636.63
377.54	580.45
377.74	596.84
377.93	561.73
378.13	589.82
378.33	575.77
378.52	573.43
378.72	578.11
378.91	617.90
379.11	592.16
379.31	657.69
379.50	589.82
379.70	610.88
379.89	610.88
380.09	613.22
380.28	706.84
380.48	617.90
380.68	683.44
380.87	610.88
381.07	751.31
381.26	711.52
381.46	643.65
381.65	699.82
381.85	697.48
382.04	671.73
382.24	702.16
382.43	695.14
382.63	676.41
382.83	725.57
383.02	739.61
383.22	753.65
383.41	660.03
383.61	674.07
383.80	777.06
384.00	760.67
384.19	840.25
384.39	683.44
384.58	695.14
384.78	781.74
384.97	734.93
385.17	798.12
385.36	765.36
385.56	777.06
385.75	774.72
385.95	753.65
386.14	671.73
386.34	784.08
386.53	774.72
386.72	833.23
386.92	840.25
387.11	770.04
387.31	786.42
387.50	777.06
387.70	713.86
387.89	802.80
388.09	793.44
388.28	809.83
388.48	772.38
388.67	882.38
388.86	826.21
389.06	779.40
389.25	847.27
389.45	910.47
389.64	938.55
389.84	875.36
390.03	973.66
390.22	954.94
390.42	882.38
390.61	952.60
390.81	980.68
391.00	868.34
391.19	966.64
391.39	992.39
391.58	980.68
391.78	1001.75
391.97	966.64
392.16	924.51
392.36	947.92
392.55	966.64
392.75	959.62
392.94	954.94
393.13	1036.86
393.33	954.94
393.52	1022.81
393.71	1074.31
393.91	1050.90
394.10	1018.13
394.29	1114.10
394.49	1062.60
394.68	1090.69
394.88	1156.22
395.07	1123.46
395.26	1118.78
395.46	1142.18
395.65	1188.99
395.84	1095.37
396.04	1163.25
396.23	1109.41
396.42	1081.33
396.62	1062.60
396.81	1235.80
397.00	1118.78
397.19	1160.91
397.39	1146.86
397.58	1221.76
397.77	1235.80
397.97	1273.25
398.16	1193.67
398.35	1240.48
398.55	1256.87
398.74	1392.62
398.93	1308.36
399.12	1270.91
399.32	1306.02
399.51	1317.72
399.70	1306.02
399.90	1294.32
400.09	1411.34
400.28	1366.87
400.47	1462.83
400.67	1420.71
400.86	1409.00
401.05	1577.52
401.24	1390.28
401.44	1451.13
401.63	1469.86
401.82	1458.15
402.01	1556.46
402.21	1504.96
402.40	1460.49
402.59	1488.58
402.78	1493.26
402.97	1521.35
403.17	1523.69
403.36	1586.88
403.55	1650.08
403.74	1636.03
403.93	1577.52
404.13	1671.14
404.32	1584.54
404.51	1570.50
404.70	1645.40
404.89	1664.12
405.09	1746.04
405.28	1783.49
405.47	1708.59
405.66	1739.02
405.85	1839.66
406.05	1724.97
406.24	1713.27
406.43	1842.00
406.62	1872.43
406.81	1921.58
407.00	1827.96
407.20	1785.83
407.39	1844.34
407.58	1879.45
407.77	1919.24
407.96	1970.73
408.15	1975.41
408.34	1959.03
408.54	1930.94
408.73	2115.84
408.92	1961.37
409.11	2008.18
409.30	2087.76
409.49	1942.64
409.68	2153.29
409.87	2045.63
410.07	2059.67
410.26	2050.31
410.45	2148.61
410.64	1998.82
410.83	2186.06
411.02	2223.51
411.21	2289.04
411.40	2307.77
411.59	2186.06
411.78	2216.49
411.98	2260.96
412.17	2335.85
412.36	2331.17
412.55	2239.89
412.74	2392.03
412.93	2370.96
413.12	2389.69
413.31	2450.54
413.50	2492.67
413.69	2574.59
413.88	2560.55
414.07	2506.71
414.26	2466.92
414.45	2605.02
414.64	2663.53
414.83	2715.02
415.02	2717.36
415.22	2640.12
415.41	2724.38
415.60	2738.43
415.79	2757.15
415.98	2876.52
416.17	2773.53
416.36	2832.05
416.55	2911.63
416.74	2834.39
416.93	2937.37
417.12	2939.71
417.31	2944.39
417.50	2953.76
417.69	3119.93
417.88	2979.50
418.07	2953.76
418.26	3061.42
418.45	3119.93
418.64	3225.26
418.83	3059.08
419.02	3089.51
419.21	3108.23
419.39	3201.85
419.58	3190.15
419.77	3229.94
419.96	3243.98
420.15	3274.41
420.34	3311.86
420.53	3311.86
420.72	3391.44
420.91	3435.91
421.10	3379.73
421.29	3405.48
421.48	3309.52
421.67	3384.41
421.86	3440.59
422.05	3295.47
422.24	3368.03
422.43	3351.65
422.61	3534.21
422.80	3496.76
422.99	3557.61
423.18	3529.53
423.37	3559.95
423.56	3524.85
423.75	3396.12
423.94	3445.27
424.13	3246.32
424.32	3372.71
424.50	3508.46
424.69	3531.87
424.88	3566.98
425.07	3283.77
425.26	3478.04
425.45	3592.72
425.64	3485.06
425.83	3335.26
426.01	3524.85
426.20	3585.70
426.39	3566.98
426.58	3646.55
426.77	3613.79
426.96	3534.21
427.15	3602.08
427.33	3653.58
427.52	3735.50
427.71	3634.85
427.90	3782.31
428.09	3920.40
428.28	3688.68
428.46	3765.92
428.65	3756.56
428.84	3946.14
429.03	3927.42
429.22	3543.57
429.40	3904.01
429.59	3866.56
429.78	3471.01
429.97	3634.85
430.16	3763.58
430.34	3847.84
430.53	3817.41
430.72	3871.25
430.91	3833.80
431.10	4021.04
431.28	3976.57
431.47	4046.79
431.66	4121.68
431.85	4004.66
432.03	4264.46
432.22	4271.48
432.41	4173.18
432.60	4241.05
432.79	4180.20
432.97	4339.35
433.16	4170.83
433.35	4046.79
433.54	4252.75
433.72	4276.16
433.91	4219.99
434.10	4306.59
434.28	4308.93
434.47	4257.43
434.66	4545.32
434.85	4521.92
435.03	4514.89
435.22	4315.95
435.41	4568.73
435.59	4669.37
435.78	4449.36
435.97	4547.66
436.16	4510.21
436.34	4631.92
436.53	4596.81
436.72	4774.69
436.90	4571.07
437.09	4695.11
437.28	4681.07
437.46	4737.24
437.65	4709.16
437.84	4678.73
438.02	4587.45
438.21	4601.49
438.40	4734.90
438.58	4847.25
438.77	4926.83
438.96	4856.61
439.14	4971.30
439.33	4945.55
439.52	4983.00
439.70	4957.25
439.89	5142.16
440.08	5085.98
440.26	5172.58
440.45	5165.56
440.63	5085.98
440.82	5214.71
441.01	5139.82
441.19	5462.81
441.38	5465.15
441.57	5556.43
441.75	5533.03
441.94	5575.16
442.12	5612.60
442.31	5809.21
442.50	5657.07
442.68	5682.82
442.87	5668.78
443.05	5713.25
443.24	5694.52
443.43	5788.14
443.61	5860.70
443.80	5888.79
443.98	5734.31
444.17	5516.64
444.35	5832.62
444.54	5823.25
444.73	5816.23
444.91	5834.96
445.10	5734.31
445.28	5715.59
445.47	5727.29
445.65	5841.98
445.84	5872.40
446.02	5837.30
446.21	5865.38
446.39	5834.96
446.58	5886.45
446.77	6031.56
446.95	5797.51
447.14	6040.92
447.32	6003.47
447.51	5956.66
447.69	5865.38
447.88	5977.73
448.06	6066.67
448.25	5900.49
448.43	5982.41
448.62	6031.56
448.80	5977.73
448.99	5994.11
449.17	6195.40
449.36	5928.58
449.54	6223.48
449.73	6282.00
449.91	6260.93
450.10	6352.21
450.28	6413.07
450.46	6221.14
450.65	6375.62
450.83	6443.49
451.02	6286.68
451.20	6518.39
451.39	6450.52
451.57	6251.57
451.76	6422.43
451.94	6293.70
452.13	6530.09
452.31	6539.46
452.49	6377.96
452.68	6621.38
452.86	6441.15
453.05	6640.10
453.23	6633.08
453.42	6434.13
453.60	6420.09
453.78	6595.63
453.97	6684.57
454.15	6572.22
454.34	6539.46
454.52	6710.32
454.70	6729.04
454.89	6806.28
455.07	6839.05
455.26	6860.11
455.44	6871.81
455.62	6820.32
455.81	6801.60
455.99	6794.58
456.17	6998.20
456.36	6993.52
456.54	7101.19
456.73	7073.10
456.91	7279.07
457.09	7185.44
457.28	7274.38
457.46	7304.81
457.64	7218.21
457.83	7375.03
458.01	7328.22
458.19	7445.24
458.38	7269.70
458.56	7321.20
458.74	7412.48
458.93	7414.82
459.11	7358.64
459.29	7372.69
459.48	7559.93
459.66	7438.22
459.84	7510.78
460.03	7719.09
460.21	7620.78
460.39	7613.76
460.57	7468.65
460.76	7576.31
460.94	7625.47
461.12	7604.40
461.31	7747.17
461.49	7824.41
461.67	7705.04
461.85	7770.58
462.04	7667.60
462.22	8461.04
462.40	8154.43
462.59	7929.74
462.77	7852.50
462.95	8025.70
463.13	8074.85
463.32	8142.72
463.50	8051.44
463.68	7990.59
463.86	8051.44
464.05	7726.11
464.23	7934.42
464.41	8140.38
464.59	8077.19
464.78	8208.26
464.96	8262.09
465.14	8163.79
465.32	8271.45
465.50	8322.94
465.69	8388.48
465.87	8423.59
466.05	8320.60
466.23	8266.77
466.41	8262.09
466.60	8627.21
466.78	8292.52
466.96	8372.10
467.14	8308.90
467.32	8404.86
467.51	8547.64
467.69	8175.49
467.87	8411.89
468.05	8437.63
468.23	8545.30
468.41	8374.44
468.60	8444.65
468.78	8594.45
468.96	8624.87
469.14	8727.86
469.32	8695.09
469.50	8709.13
469.69	8809.78
469.87	8758.28
470.05	8814.46
470.23	8877.65
470.41	9074.26
470.59	8741.90
470.77	8842.54
470.95	9060.21
471.14	9224.05
471.32	8856.59
471.50	9441.72
471.68	9308.31
471.86	9139.79
472.04	9483.85
472.22	9509.60
472.40	9399.59
472.58	9296.61
472.77	9408.95
472.95	9577.47
473.13	10052.60
473.31	9675.77
473.49	9584.49
473.67	9685.14
473.85	9657.05
474.03	9902.81
474.21	9731.95
474.39	9956.64
474.57	9837.27
474.75	9956.64
474.93	10132.18
475.12	10092.39
475.30	10153.24
475.48	10251.55
475.66	10150.90
475.84	10223.46
476.02	10235.16
476.20	10370.91
476.38	10445.81
476.56	10906.90
476.74	10869.45
476.92	10714.97
477.10	10640.08
477.28	10956.05
477.46	10799.23
477.64	10913.92
477.82	11190.10
478.00	11398.41
478.18	11454.58
478.36	11655.87
478.54	11353.94
478.72	11428.84
478.90	11623.10
479.08	11742.47
479.26	11908.65
479.44	11953.12
479.62	12056.10
479.80	11983.54
479.98	12067.80
480.16	12313.56
480.34	12456.33
480.52	12306.54
480.70	12201.21
480.88	12163.76
481.06	12610.81
481.24	12739.54
481.41	12727.83
481.59	13004.02
481.77	13121.04
481.95	13128.06
482.13	13226.37
482.31	13116.36
482.49	13418.29
482.67	13415.95
482.85	13671.07
483.03	13802.14
483.21	14040.87
483.39	14043.21
483.57	13942.57
483.74	14047.90
483.92	14207.05
484.10	14064.28
484.28	14382.59
484.46	14565.15
484.64	14963.04
484.82	14618.99
485.00	14808.57
485.18	14839.00
485.35	15082.41
485.53	14965.39
485.71	14934.96
485.89	15070.71
486.07	15131.56
486.25	15585.63
486.43	15641.80
486.61	15419.45
486.78	15733.08
486.96	15674.57
487.14	16173.10
487.32	16159.06
487.50	16360.34
487.68	16688.02
487.85	16638.87
488.03	16936.12
488.21	17170.17
488.39	16849.52
488.57	16957.18
488.75	17090.59
488.92	17528.27
489.10	17926.16
489.28	17490.82
489.46	17785.73
489.64	17865.31
489.81	18508.96
489.99	18125.11
490.17	18146.17
490.35	18384.91
490.53	18471.51
490.70	18710.24
490.88	18824.93
491.06	19147.92
491.24	19037.92
491.41	18944.30
491.59	18663.43
491.77	19506.02
491.95	19185.37
492.13	19651.14
492.30	19637.09
492.48	19927.32
492.66	19983.49
492.84	19934.34
493.01	20276.06
493.19	20042.01
493.37	20379.04
493.54	20423.51
493.72	20395.43
493.90	20519.48
494.08	20697.36
494.25	21029.71
494.43	21298.88
494.61	21036.74
494.79	21305.90
494.96	21600.80
495.14	21451.01
495.32	21671.02
495.49	21713.15
495.67	21958.91
495.85	21708.47
496.02	22211.68
496.20	22293.60
496.38	22150.83
496.55	22417.65
496.73	23035.55
496.91	23005.13
497.09	22838.95
497.26	23005.13
497.44	22930.23
497.62	23117.47
497.79	23250.88
497.97	23262.58
498.14	23566.85
498.32	23688.56
498.50	23880.49
498.67	23728.35
498.85	24229.23
499.03	23906.23
499.20	24194.12
499.38	24025.60
499.56	23955.38
499.73	24526.47
499.91	24252.63
500.08	24350.93
500.26	24507.75
500.44	24114.54
500.61	24592.01
500.79	24222.20
500.97	24690.31
501.14	25465.03
501.32	25359.70
501.49	25226.29
501.67	24755.85
501.84	25296.51
502.02	25340.98
502.20	25366.73
502.37	25823.13
502.55	25804.41
502.72	25930.80
502.90	25673.34
503.07	25692.06
503.25	25720.15
503.43	26111.02
503.60	26511.25
503.78	26188.25
503.95	26146.12
504.13	26335.71
504.30	26527.63
504.48	26478.48
504.65	26684.45
504.83	26993.40
505.01	26927.86
505.18	26862.33
505.36	27173.62
505.53	27302.35
505.71	27047.23
505.88	27391.29
506.06	27349.16
506.23	27536.40
506.41	27218.09
506.58	27494.27
506.76	27576.19
506.93	27927.27
507.11	27779.82
507.28	27709.60
507.46	27803.22
507.63	27828.97
507.81	28629.43
507.98	27765.78
508.16	27903.87
508.33	28339.21
508.50	28308.78
508.68	28128.56
508.85	28809.65
509.03	28451.55
509.20	28643.48
509.38	28486.66
509.55	29139.67
509.73	28877.53
509.90	28734.76
510.08	29120.95
510.25	28851.78
510.42	29422.87
510.60	29455.64
510.77	29125.63
510.95	29432.24
511.12	29532.88
511.30	29670.97
511.47	29853.53
511.64	30075.88
511.82	30267.81
511.99	30026.73
512.17	30230.36
512.34	30075.88
512.51	30497.18
512.69	30565.06
512.86	30211.64
513.04	30632.93
513.21	30443.35
513.38	30520.59
513.56	30506.54
513.73	30270.15
513.90	30979.33
514.08	30864.64
514.25	30789.75
514.43	30532.29
514.60	30586.12
514.77	30911.46
514.95	30895.07
515.12	31152.53
515.29	31370.20
515.47	31721.28
515.64	31424.03
515.81	31274.24
515.99	31503.61
516.16	31552.76
516.33	31845.33
516.51	31878.10
516.68	31477.86
516.85	31332.75
517.03	31929.59
517.20	31669.79
517.37	32273.65
517.54	32283.01
517.72	32048.96
517.89	32027.89
518.06	32158.96
518.24	32201.09
518.41	32030.23
518.58	31901.50
518.75	32610.68
518.93	32800.27
519.10	32503.02
519.27	32561.53
519.45	32769.84
519.62	32940.70
519.79	32858.78
519.96	33198.16
520.14	33317.53
520.31	32886.87
520.48	32893.89
520.65	33191.14
520.83	33858.19
521.00	33221.56
521.17	33574.98
521.34	33504.77
521.52	33715.42
521.69	33752.87
521.86	33502.43
522.03	33823.08
522.20	33853.51
522.38	34108.63
522.55	33979.90
522.72	33837.12
522.89	33727.12
523.07	34377.79
523.24	34143.74
523.41	34536.94
523.58	34672.70
523.75	34866.96
523.92	34520.56
524.10	34895.05
524.27	34904.41
524.44	34864.62
524.61	34323.96
524.78	35278.89
524.96	35189.95
525.13	36006.80
525.30	35276.55
525.47	35379.54
525.64	35346.77
525.81	35222.72
525.98	35487.20
526.16	34955.90
526.33	35225.06
526.50	35821.90
526.67	35569.12
526.84	35314.00
527.01	35395.92
527.18	35566.78
527.36	35653.38
527.53	35917.86
527.70	35969.35
527.87	36135.53
528.04	35934.24
528.21	36161.28
528.38	35849.99
528.55	36329.80
528.72	36301.71
528.89	36666.83
529.07	36533.42
529.24	36301.71
529.41	36460.87
529.58	36589.59
529.75	36154.26
529.92	36678.54
530.09	36645.77
530.26	36943.02
530.43	36783.86
530.60	36505.34
530.77	36835.35
530.94	36631.72
531.11	36833.01
531.28	37333.89
531.46	37146.64
531.63	37125.58
531.80	37319.84
531.97	36877.48
532.14	36837.69
532.31	36678.54
532.48	37340.91
532.65	37579.64
532.82	37549.21
532.99	37766.88
533.16	37223.88
533.33	37399.42
533.50	37867.53
533.67	37748.16
533.84	37244.94
534.01	37741.14
534.18	37790.29
534.35	38323.93
534.52	38244.35
534.69	37832.42
534.86	37738.80
535.03	38033.71
535.20	38433.94
535.37	38740.55
535.54	38232.65
535.71	37713.05
535.88	38447.98
536.05	38024.34
536.22	38045.41
536.38	38785.02
536.55	38328.61
536.72	38604.80
536.89	38382.45
537.06	39075.24
537.23	38824.81
537.40	38581.39
537.57	38993.32
537.74	38932.47
537.91	39166.52
538.08	39056.52
538.25	38789.70
538.42	38911.41
538.59	38700.76
538.75	38733.53
538.92	39304.62
539.09	39159.50
539.26	39140.78
539.43	39220.36
539.60	39105.67
539.77	39037.80
539.94	39234.40
540.11	39313.98
540.28	39239.08
540.44	39590.16
540.61	39257.81
540.78	39187.59
540.95	39552.71
541.12	39433.35
541.29	39660.38
541.46	39325.68
541.62	39807.83
541.79	40062.95
541.96	39428.66
542.13	39306.96
542.30	40004.44
542.47	39955.29
542.63	39793.79
542.80	40074.65
542.97	40275.94
543.14	40697.24
543.31	40421.05
543.48	40587.23
543.64	40989.80
543.81	40589.57
543.98	40713.62
544.15	40392.97
544.32	40933.63
544.48	40568.51
544.65	40928.95
544.82	40919.59
544.99	40301.68
545.16	40854.05
545.32	40540.42
545.49	41045.97
545.66	40886.82
545.83	41237.90
546.00	41113.85
546.16	40697.24
546.33	40713.62
546.50	40715.96
546.67	41439.18
546.83	40465.52
547.00	41139.60
547.17	41062.36
547.34	41123.21
547.50	41242.58
547.67	41408.76
547.84	41174.70
548.00	41134.92
548.17	41378.33
548.34	41179.39
548.51	41698.98
548.67	41785.58
548.84	41579.62
549.01	41467.27
549.18	41614.72
549.34	41778.56
549.51	41689.62
549.68	41764.52
549.84	41832.39
550.01	41757.50
550.18	41834.74
550.34	41741.11
550.51	41773.88
550.68	41577.28
550.84	41436.84
551.01	42106.24
551.18	42021.98
551.34	41556.21
551.51	41940.06
551.68	41827.71
551.84	42012.62
552.01	41811.33
552.18	42562.64
552.34	42150.71
552.51	42136.66
552.68	42169.43
552.84	42017.30
553.01	42408.17
553.18	42302.84
553.34	42305.18
553.51	42241.99
553.67	42288.80
553.84	42550.94
554.01	42429.23
554.17	42433.91
554.34	42635.20
554.51	42291.14
554.67	42752.23
554.84	42712.44
555.00	42742.86
555.17	42546.26
555.33	42754.57
555.50	42625.84
555.67	42490.09
555.83	42712.44
556.00	42801.38
556.16	42897.34
556.33	42878.61
556.50	42719.46
556.66	43061.18
556.83	42754.57
556.99	43318.64
557.16	42909.04
557.32	43377.15
557.49	42843.51
557.65	42777.97
557.82	42780.31
557.98	42754.57
558.15	42873.93
558.32	43075.22
558.48	43384.17
558.65	42916.06
558.81	43213.31
558.98	43274.16
559.14	43047.13
559.31	43622.90
559.47	43494.18
559.64	43634.61
559.80	43299.91
559.97	43363.11
560.13	43267.14
560.30	43585.46
560.46	43318.64
560.63	43576.09
560.79	43117.35
560.96	43887.39
561.12	43831.21
561.29	43739.93
561.45	43529.28
561.61	43756.32
561.78	43660.35
561.94	43674.40
562.11	43337.36
562.27	43585.46
562.44	43625.25
562.60	43805.47
562.77	43365.45
562.93	43473.11
563.10	43613.54
563.26	44041.86
563.42	43878.02
563.59	43199.27
563.75	43690.78
563.92	44140.16
564.08	44252.51
564.24	43966.96
564.41	43793.76
564.57	43840.57
564.74	43730.57
564.90	44175.27
565.07	44095.69
565.23	43756.32
565.39	43945.90
565.56	44135.48
565.72	43681.42
565.88	43590.14
566.05	44081.65
566.21	44245.49
566.38	44072.29
566.54	43786.74
566.70	44341.45
566.87	44231.44
567.03	44102.71
567.19	44240.81
567.36	44039.52
567.52	43718.87
567.68	44573.16
567.85	43739.93
568.01	44259.53
568.17	43920.15
568.34	44058.24
568.50	44306.34
568.66	43491.83
568.83	44149.53
568.99	43707.16
569.15	44062.93
569.32	44198.68
569.48	43798.44
569.64	44470.18
569.81	44182.29
569.97	44133.14
570.13	44076.97
570.30	43882.70
570.46	43927.17
570.62	43964.62
570.78	43660.35
570.95	43992.71
571.11	43988.03
571.27	44364.85
571.43	43981.01
571.60	44524.01
571.76	44250.17
571.92	44348.47
572.09	44652.74
572.25	44416.35
572.41	44163.57
572.57	44219.74
572.74	44727.64
572.90	44296.98
573.06	44774.45
573.22	44299.32
573.38	43959.94
573.55	44179.95
573.71	44437.41
573.87	44568.48
574.03	43934.20
574.20	44332.09
574.36	44296.98
574.52	44383.58
574.68	44261.87
574.84	44402.30
575.01	44238.47
575.17	44428.05
575.33	44128.46
575.49	44147.18
575.65	44669.12
575.82	44500.61
575.98	44350.81
576.14	44837.64
576.30	44505.29
576.46	44133.14
576.62	44271.23
576.79	44158.89
576.95	44023.14
577.11	44343.79
577.27	44673.81
577.43	44711.25
577.59	44355.49
577.75	44250.17
577.92	43817.17
578.08	43999.73
578.24	43969.30
578.40	44495.92
578.56	44409.32
578.72	44404.64
578.88	44584.86
579.04	44432.73
579.21	44432.73
579.37	44201.02
579.53	44175.27
579.69	44294.64
579.85	44538.05
580.01	44671.46
580.17	44615.29
580.33	45195.74
580.49	44552.10
580.65	44683.17
580.82	44910.20
580.98	44465.50
581.14	44519.33
581.30	44947.65
581.46	44437.41
581.62	44626.99
581.78	44692.53
581.94	44896.16
582.10	44514.65
582.26	44697.21
582.42	44418.69
582.58	44437.41
582.74	44528.69
582.90	44528.69
583.06	44790.83
583.22	44790.83
583.38	44868.07
583.54	44854.03
583.70	44648.06
583.86	44563.80
584.02	43976.33
584.18	44470.18
584.34	44783.81
584.50	44687.85
584.66	44568.48
584.82	44542.74
584.98	44835.30
585.14	44531.03
585.30	44598.91
585.46	44334.43
585.62	44610.61
585.78	44751.04
585.94	44062.93
586.10	44849.35
586.26	44137.82
586.42	44531.03
586.58	45048.29
586.74	44828.28
586.90	44673.81
587.06	44289.96
587.22	44903.18
587.38	44318.04
587.54	44582.52
587.70	44800.19
587.86	44634.02
588.02	44903.18
588.18	44807.22
588.34	44643.38
588.49	44605.93
588.65	44264.21
588.81	44367.20
588.97	44304.00
589.13	44561.46
589.29	44392.94
589.45	45052.97
589.61	44830.62
589.77	45006.16
589.93	44781.47
590.08	44664.44
590.24	44484.22
