SpectraSuite Data File
++++++++++++++++++++++++++++++++++++
Date: Fri Oct 25 11:25:12 EDT 2013
User: price-jones
Dark Spectrum Present: No
Reference Spectrum Present: No
Number of Sampled Component Spectra: 1
Spectrometers: USB2+H05261
Integration Time (usec): 100000 (USB2+H05261)
Spectra Averaged: 1 (USB2+H05261)
Boxcar Smoothing: 0 (USB2+H05261)
Correct for Electrical Dark: No (USB2+H05261)
Strobe/Lamp Enabled: No (USB2+H05261)
Correct for Detector Non-linearity: No (USB2+H05261)
Correct for Stray Light: No (USB2+H05261)
Number of Pixels in Processed Spectrum: 2048
>>>>>Begin Processed Spectral Data<<<<<
365.73	220.01
365.92	220.01
366.12	220.01
366.32	212.99
366.52	198.95
366.72	147.45
366.91	119.37
367.11	163.84
367.31	140.43
367.51	128.73
367.70	156.82
367.90	208.31
368.10	110.01
368.30	32.77
368.49	149.79
368.69	208.31
368.89	175.54
369.09	149.79
369.28	217.67
369.48	191.92
369.68	112.35
369.87	128.73
370.07	191.92
370.27	215.33
370.47	339.38
370.66	613.22
370.86	671.73
371.06	688.12
371.25	685.78
371.45	674.07
371.65	674.07
371.84	737.27
372.04	695.14
372.24	657.69
372.44	664.71
372.63	709.18
372.83	688.12
373.03	753.65
373.22	678.76
373.42	702.16
373.62	781.74
373.81	727.91
374.01	741.95
374.21	770.04
374.40	706.84
374.60	823.87
374.79	814.51
374.99	816.85
375.19	739.61
375.38	875.36
375.58	912.81
375.78	812.17
375.97	830.89
376.17	898.77
376.37	866.00
376.56	896.43
376.76	875.36
376.95	840.25
377.15	814.51
377.35	784.08
377.54	889.40
377.74	917.49
377.93	901.11
378.13	887.06
378.33	877.70
378.52	964.30
378.72	812.17
378.91	961.96
379.11	957.28
379.31	959.62
379.50	884.72
379.70	931.53
379.89	976.00
380.09	837.91
380.28	940.90
380.48	1022.81
380.68	880.04
380.87	976.00
381.07	992.39
381.26	1025.15
381.46	990.05
381.65	1083.67
381.85	1093.03
382.04	994.73
382.24	1050.90
382.43	973.66
382.63	1062.60
382.83	1032.18
383.02	1039.20
383.22	1116.44
383.41	1022.81
383.61	1050.90
383.80	1156.22
384.00	1083.67
384.19	1153.88
384.39	1025.15
384.58	1191.33
384.78	1242.82
384.97	1144.52
385.17	1151.54
385.36	1186.65
385.56	1097.71
385.75	1114.10
385.95	1086.01
386.14	1165.59
386.34	1252.19
386.53	1146.86
386.72	1172.61
386.92	1287.29
387.11	1270.91
387.31	1270.91
387.50	1188.99
387.70	1193.67
387.89	1203.04
388.09	1203.04
388.28	1226.44
388.48	1338.79
388.67	1364.53
388.86	1341.13
389.06	1343.47
389.25	1399.64
389.45	1289.64
389.64	1341.13
389.84	1369.21
390.03	1392.62
390.22	1378.58
390.42	1493.26
390.61	1394.96
390.81	1392.62
391.00	1373.89
391.19	1483.90
391.39	1413.68
391.58	1439.43
391.78	1387.94
391.97	1448.79
392.16	1497.94
392.36	1458.15
392.55	1479.22
392.75	1544.75
392.94	1476.88
393.13	1563.48
393.33	1497.94
393.52	1540.07
393.71	1636.03
393.91	1586.88
394.10	1568.16
394.29	1621.99
394.49	1617.31
394.68	1507.30
394.88	1584.54
395.07	1617.31
395.26	1687.53
395.46	1596.25
395.65	1591.56
395.84	1668.80
396.04	1811.57
396.23	1668.80
396.42	1638.38
396.62	1816.26
396.81	1703.91
397.00	1699.23
397.19	1771.79
397.39	1781.15
397.58	1802.21
397.77	1860.73
397.97	1795.19
398.16	1858.39
398.35	1895.83
398.55	1867.75
398.74	1846.68
398.93	1998.82
399.12	1893.49
399.32	1998.82
399.51	2038.61
399.70	2052.65
399.90	1954.35
400.09	1968.39
400.28	1996.48
400.47	1930.94
400.67	2064.35
400.86	2066.69
401.05	1984.77
401.24	2024.56
401.44	2101.80
401.63	2162.66
401.82	2001.16
402.01	2024.56
402.21	2066.69
402.40	2207.13
402.59	2155.63
402.78	2209.47
402.97	2188.40
403.17	2277.34
403.36	2235.21
403.55	2214.15
403.74	2293.72
403.93	2296.07
404.13	2380.32
404.32	2284.36
404.51	2361.60
404.70	2413.09
404.89	2282.02
405.09	2483.31
405.28	2581.61
405.47	2431.82
405.66	2509.05
405.85	2450.54
406.05	2459.90
406.24	2438.84
406.43	2504.37
406.62	2647.15
406.81	2635.44
407.00	2630.76
407.20	2630.76
407.39	2518.42
407.58	2663.53
407.77	2761.83
407.96	2808.64
408.15	2644.81
408.34	2715.02
408.54	2796.94
408.73	2822.69
408.92	2773.53
409.11	2855.45
409.30	2860.13
409.49	2883.54
409.68	2958.44
409.87	2897.58
410.07	3012.27
410.26	2913.97
410.45	3028.65
410.64	2951.42
410.83	2974.82
411.02	3052.06
411.21	3119.93
411.40	3087.17
411.59	3232.28
411.78	3232.28
411.98	3166.74
412.17	3419.52
412.36	3328.24
412.55	3311.86
412.74	3534.21
412.93	3314.20
413.12	3325.90
413.31	3473.36
413.50	3468.67
413.69	3412.50
413.88	3435.91
414.07	3564.64
414.26	3471.01
414.45	3599.74
414.64	3730.81
414.83	3723.79
415.02	3791.67
415.22	3885.29
415.41	3784.65
415.60	3911.04
415.79	3716.77
415.98	3953.16
416.17	3981.25
416.36	4025.72
416.55	3953.16
416.74	3953.16
416.93	3946.14
417.12	4002.32
417.31	4133.39
417.50	4156.79
417.69	4215.30
417.88	4231.69
418.07	4315.95
418.26	4198.92
418.45	4236.37
418.64	4411.91
418.83	4472.76
419.02	4388.50
419.21	4521.92
419.39	4404.89
419.58	4390.84
419.77	4470.42
419.96	4582.77
420.15	4512.55
420.34	4669.37
420.53	4779.37
420.72	4737.24
420.91	4762.99
421.10	4753.63
421.29	4760.65
421.48	4748.95
421.67	4685.75
421.86	4657.67
422.05	4826.18
422.24	4765.33
422.43	4826.18
422.61	4821.50
422.80	4851.93
422.99	4961.94
423.18	4936.19
423.37	4975.98
423.56	5001.72
423.75	5057.90
423.94	4758.31
424.13	4622.56
424.32	4561.70
424.50	4896.40
424.69	5027.47
424.88	5057.90
425.07	4770.01
425.26	4828.53
425.45	4814.48
425.64	4821.50
425.83	4912.78
426.01	4924.49
426.20	4959.60
426.39	5004.07
426.58	4929.17
426.77	4917.47
426.96	5104.71
427.15	5015.77
427.33	5144.50
427.52	5043.85
427.71	5275.57
427.90	5153.86
428.09	5338.76
428.28	5203.01
428.46	5327.06
428.65	5336.42
428.84	5526.00
429.03	5336.42
429.22	5280.25
429.40	5338.76
429.59	5380.89
429.78	5376.21
429.97	5210.03
430.16	5416.00
430.34	5575.16
430.53	5689.84
430.72	5631.33
430.91	5561.11
431.10	5607.92
431.28	5863.04
431.47	5717.93
431.66	5900.49
431.85	5638.35
432.03	5909.85
432.22	5926.24
432.41	5942.62
432.60	5914.53
432.79	5851.34
432.97	6005.81
433.16	6101.78
433.35	5839.64
433.54	6076.03
433.72	6197.74
433.91	6029.22
434.10	6073.69
434.28	6153.27
434.47	6008.16
434.66	6150.93
434.85	6256.25
435.03	6340.51
435.22	6319.45
435.41	6401.37
435.59	6284.34
435.78	6583.93
435.97	6406.05
436.16	6434.13
436.34	6349.87
436.53	6363.92
436.72	6422.43
436.90	6450.52
437.09	6581.59
437.28	6471.58
437.46	6719.68
437.65	6445.84
437.84	6726.70
438.02	6750.10
438.21	6736.06
438.40	6574.56
438.58	6890.54
438.77	6998.20
438.96	6939.69
439.14	7112.89
439.33	6949.05
439.52	7108.21
439.70	7290.77
439.89	7421.84
440.08	7335.24
440.26	7307.15
440.45	7248.64
440.63	7442.90
440.82	7499.08
441.01	7426.52
441.19	7707.38
441.38	7585.68
441.57	7721.43
441.75	7632.49
441.94	7784.62
442.12	7866.54
442.31	7887.61
442.50	7962.50
442.68	8011.65
442.87	7953.14
443.05	7840.79
443.24	8149.75
443.43	7953.14
443.61	8252.73
443.80	8287.84
443.98	7880.58
444.17	7693.34
444.35	8067.83
444.54	8252.73
444.73	8170.81
444.91	8409.54
445.10	8290.18
445.28	8409.54
445.47	7995.27
445.65	8344.01
445.84	8353.37
446.02	8383.80
446.21	8222.30
446.39	8538.27
446.58	8353.37
446.77	8449.33
446.95	8166.13
447.14	8360.39
447.32	8528.91
447.51	8435.29
447.69	8397.84
447.88	8549.98
448.06	8617.85
448.25	8400.18
448.43	8514.87
448.62	8564.02
448.80	8278.47
448.99	8575.72
449.17	8489.12
449.36	8519.55
449.54	8704.45
449.73	8999.36
449.91	9102.34
450.10	9015.74
450.28	9055.53
450.46	9064.89
450.65	8990.00
450.83	9130.43
451.02	8924.46
451.20	9104.68
451.39	8971.27
451.57	9111.71
451.76	9081.28
451.94	9116.39
452.13	9352.78
452.31	9163.20
452.49	9219.37
452.68	9128.09
452.86	9240.44
453.05	9500.23
453.23	9308.31
453.42	9287.25
453.60	9305.97
453.78	9673.43
453.97	9418.32
454.15	9434.70
454.34	9238.09
454.52	9722.59
454.70	9600.88
454.89	9734.29
455.07	9621.94
455.26	9802.16
455.44	9778.76
455.62	9717.90
455.81	9834.93
455.99	10054.94
456.17	10008.13
456.36	9975.36
456.54	10115.80
456.73	10031.54
456.91	10188.35
457.09	10410.70
457.28	10443.47
457.46	10195.37
457.64	10464.54
457.83	10492.62
458.01	10420.06
458.19	10513.69
458.38	10509.01
458.56	10813.28
458.74	10588.58
458.93	10757.10
459.11	10883.49
459.29	10663.48
459.48	10864.77
459.66	10892.85
459.84	10918.60
460.03	10796.89
460.21	10785.19
460.39	10916.26
460.57	10977.11
460.76	11000.52
460.94	11110.52
461.12	11026.26
461.31	11176.06
461.49	11005.20
461.67	11119.89
461.85	11122.23
462.04	11169.04
462.22	11693.32
462.40	11651.19
462.59	11344.58
462.77	11466.28
462.95	11796.30
463.13	11272.02
463.32	11602.04
463.50	11683.95
463.68	11627.78
463.86	11777.58
464.05	11632.46
464.23	11576.29
464.41	11726.08
464.59	11602.04
464.78	11997.59
464.96	11829.07
465.14	11611.40
465.32	11983.54
465.50	12035.03
465.69	11974.18
465.87	12056.10
466.05	12009.29
466.23	11913.33
466.41	12105.25
466.60	12559.31
466.78	12219.94
466.96	12287.81
467.14	12278.45
467.32	12421.22
467.51	12507.82
467.69	12112.27
467.87	12262.07
468.05	12369.73
468.23	12332.28
468.41	12603.78
468.60	12222.28
468.78	12795.71
468.96	12463.35
469.14	12664.64
469.32	12624.85
469.50	12564.00
469.69	12779.32
469.87	13053.17
470.05	12784.01
470.23	13018.06
470.41	12987.63
470.59	13191.26
470.77	12938.48
470.95	13282.54
471.14	13427.65
471.32	13041.46
471.50	13266.16
471.68	13390.20
471.86	13579.79
472.04	13668.73
472.22	14195.35
472.40	13411.27
472.58	13783.41
472.77	13895.76
472.95	14038.53
473.13	14377.91
473.31	14101.73
473.49	14097.05
473.67	14024.49
473.85	14214.07
474.03	14558.13
474.21	14298.33
474.39	14745.38
474.57	14719.63
474.75	14595.58
474.93	14721.97
475.12	14766.44
475.30	15021.56
475.48	15028.58
475.66	15068.37
475.84	15056.67
476.02	15393.70
476.20	15358.60
476.38	15578.61
476.56	15899.26
476.74	15847.77
476.92	15421.79
477.10	15784.57
477.28	16201.19
477.46	16187.14
477.64	16365.03
477.82	16081.82
478.00	16753.55
478.18	16519.50
478.36	16769.94
478.54	17125.70
478.72	17231.02
478.90	17205.28
479.08	17341.03
479.26	17701.47
479.44	17762.33
479.62	17886.37
479.80	17923.82
479.98	17778.71
480.16	18171.92
480.34	18106.38
480.52	18483.21
480.70	18181.28
480.88	18366.18
481.06	18757.05
481.24	18370.86
481.41	18888.12
481.59	19241.54
481.77	19283.67
481.95	19351.55
482.13	19400.70
482.31	19660.50
482.49	20056.05
482.67	19845.40
482.85	20046.69
483.03	20634.16
483.21	20669.27
483.39	20622.46
483.57	20807.36
483.74	21041.42
483.92	21366.75
484.10	20959.50
484.28	21752.94
484.46	21696.77
484.64	22059.55
484.82	21816.13
485.00	22036.14
485.18	22860.01
485.35	22806.18
485.53	22878.74
485.71	22841.29
485.89	23412.38
486.07	23035.55
486.25	23089.38
486.43	23293.01
486.61	23906.23
486.78	23962.40
486.96	23871.12
487.14	24669.25
487.32	24797.98
487.50	24636.48
487.68	24664.57
487.85	25036.71
488.03	25179.48
488.21	25649.93
488.39	25949.52
488.57	25942.50
488.75	26132.08
488.92	26394.22
489.10	26436.35
489.28	26291.24
489.46	26824.88
489.64	27140.85
489.81	27300.01
489.99	27634.71
490.17	27672.15
490.35	28112.17
490.53	28116.86
490.70	28376.66
490.88	28063.02
491.06	28229.20
491.24	28636.45
491.41	28582.62
491.59	28865.83
491.77	29249.67
491.95	29326.91
492.13	29525.86
492.30	29780.98
492.48	29837.15
492.66	29818.42
492.84	30094.61
493.01	30253.76
493.19	30590.80
493.37	30815.49
493.54	30939.54
493.72	31519.99
493.90	31197.00
494.08	31622.98
494.25	31777.45
494.43	31576.17
494.61	31871.07
494.79	32123.85
494.96	31969.38
495.14	32638.77
495.32	32755.80
495.49	32898.57
495.67	33177.09
495.85	33296.46
496.02	33420.51
496.20	33869.89
496.38	33687.33
496.55	34242.04
496.73	35115.06
496.91	34314.59
497.09	34532.26
497.26	34866.96
497.44	34199.91
497.62	34927.81
497.79	35412.31
497.97	35005.05
498.14	35915.52
498.32	35936.59
498.50	35824.24
498.67	36187.02
498.85	35800.83
499.03	36708.96
499.20	36442.14
499.38	36790.88
499.56	36814.29
499.73	36800.24
499.91	36947.70
500.08	37586.66
500.26	37120.90
500.44	37109.19
500.61	37488.36
500.79	37596.03
500.97	37954.13
501.14	38071.15
501.32	38113.28
501.49	38237.33
501.67	38314.57
501.84	38504.15
502.02	38398.83
502.20	38646.93
502.37	38888.00
502.55	38836.51
502.72	39021.41
502.90	39232.06
503.07	39175.89
503.25	39072.90
503.43	39590.16
503.60	39889.75
503.78	39653.36
503.95	40011.46
504.13	40100.40
504.30	40573.19
504.48	39992.73
504.65	40594.25
504.83	40730.00
505.01	40926.61
505.18	41095.13
505.36	41425.14
505.53	40701.92
505.71	41453.23
505.88	41392.37
506.06	41125.55
506.23	41853.46
506.41	41329.18
506.58	41504.72
506.76	42024.32
506.93	41689.62
507.11	42103.90
507.28	42401.14
507.46	42225.60
507.63	42541.58
507.81	42869.25
507.98	42632.86
508.16	42880.95
508.33	43306.93
508.50	42829.46
508.68	43196.93
508.85	43557.37
509.03	43693.12
509.20	43786.74
509.38	43992.71
509.55	44189.31
509.73	44514.65
509.90	44355.49
510.08	44236.12
510.25	44219.74
510.42	44821.26
510.60	44741.68
510.77	44903.18
510.95	44863.39
511.12	44987.44
511.30	44861.05
511.47	45411.07
511.64	45434.48
511.82	45701.30
511.99	45263.62
512.17	45694.28
512.34	45879.18
512.51	45949.40
512.69	46293.46
512.86	46040.68
513.04	45916.63
513.21	46028.98
513.38	46337.93
513.56	47035.41
513.73	46590.70
513.90	46993.28
514.08	46520.49
514.25	47096.26
514.43	47257.76
514.60	47248.39
514.77	47264.78
514.95	47779.70
515.12	47557.35
515.29	47304.57
515.47	47585.43
515.64	47859.27
515.81	47702.46
515.99	47473.09
516.16	48229.08
516.33	48439.73
516.51	48591.86
516.68	48088.65
516.85	48287.59
517.03	48687.82
517.20	48629.31
517.37	48397.60
517.54	48582.50
517.72	48584.84
517.89	48519.31
518.06	49015.50
518.24	49160.61
518.41	49088.06
518.58	49059.97
518.75	49057.63
518.93	49319.77
519.10	49205.08
519.27	49528.08
519.45	49289.34
519.62	49773.83
519.79	49940.01
519.96	49530.42
520.14	50089.80
520.31	49642.76
520.48	50281.73
520.65	49930.65
520.83	50408.12
521.00	50321.52
521.17	50145.98
521.34	50693.66
521.52	50576.64
521.69	50883.25
521.86	50707.71
522.03	51121.98
522.20	51089.21
522.38	51306.88
522.55	50827.07
522.72	50941.76
522.89	50880.91
523.07	51751.59
523.24	51185.18
523.41	51452.00
523.58	51201.56
523.75	51737.54
523.92	51381.78
524.10	51913.08
524.27	52292.25
524.44	51793.71
524.61	52369.49
524.78	52247.78
524.96	51877.97
525.13	52041.81
525.30	52472.47
525.47	52205.65
525.64	52011.38
525.81	52626.95
525.98	52582.48
526.16	52301.61
526.33	52259.48
526.50	52816.53
526.67	52580.13
526.84	52680.78
527.01	52425.66
527.18	52582.48
527.36	52786.10
527.53	52779.08
527.70	53048.24
527.87	53062.29
528.04	52652.69
528.21	53382.94
528.38	53073.99
528.55	53289.32
528.72	53254.21
528.89	53008.45
529.07	53165.27
529.24	53251.87
529.41	53504.65
529.58	53476.56
529.75	53277.61
529.92	53642.74
530.09	53579.54
530.26	53851.05
530.43	53886.15
530.60	53401.66
530.77	53556.14
530.94	53806.58
531.11	53570.18
531.28	54007.86
531.46	53890.83
531.63	54335.54
531.80	54262.98
531.97	54199.79
532.14	54225.53
532.31	54078.08
532.48	54553.21
532.65	54452.56
532.82	54300.43
532.99	54506.40
533.16	54258.30
533.33	54578.95
533.50	54969.82
533.67	54515.76
533.84	54625.76
534.01	54894.92
534.18	54663.21
534.35	54965.14
534.52	55098.55
534.69	54817.69
534.86	54997.91
535.03	54937.05
535.20	54953.44
535.37	55175.79
535.54	55416.86
535.71	55033.02
535.88	55313.88
536.05	55297.50
536.22	55175.79
536.38	55253.03
536.55	55510.49
536.72	55388.78
536.89	55332.60
537.06	55323.24
537.23	55760.92
537.40	55468.36
537.57	55458.99
537.74	55571.34
537.91	55526.87
538.08	55845.18
538.25	55473.04
538.42	55636.87
538.59	55983.27
538.75	55774.97
538.92	55817.10
539.09	55849.86
539.26	55941.14
539.43	56133.07
539.60	56165.84
539.77	56170.52
539.94	56268.82
540.11	56254.78
540.28	56383.51
540.44	56095.62
540.61	56119.02
540.78	56320.31
540.95	56034.77
541.12	56151.79
541.29	56088.60
541.46	56413.93
541.62	56500.53
541.79	56559.05
541.96	56060.51
542.13	56547.34
542.30	56399.89
542.47	56765.01
542.63	56718.20
542.80	56879.70
542.97	56722.88
543.14	56994.39
543.31	57066.94
543.48	57010.77
543.64	57092.69
543.81	57172.27
543.98	57169.93
544.15	56945.23
544.32	57212.06
544.48	57270.57
544.65	57298.65
544.82	57146.52
544.99	57017.79
545.16	57399.30
545.32	57113.75
545.49	57443.77
545.66	57434.41
545.83	57436.75
546.00	57647.39
546.16	57532.71
546.33	57387.60
546.50	57333.76
546.67	57399.30
546.83	57244.82
547.00	57251.84
547.17	57605.26
547.34	57556.11
547.50	57872.09
547.67	57876.77
547.84	57780.81
548.00	58031.24
548.17	58068.69
548.34	57916.56
548.51	58284.02
548.67	58024.22
548.84	57961.03
549.01	57897.83
549.18	57986.77
549.34	57881.45
549.51	58000.82
549.68	58178.70
549.84	58218.49
550.01	58185.72
550.18	58035.92
550.34	58251.25
550.51	58363.60
550.68	58176.36
550.84	58059.33
551.01	58513.39
551.18	58295.72
551.34	58457.22
551.51	58347.21
551.68	58541.48
551.84	58375.30
552.01	58162.31
552.18	58305.09
552.34	58344.87
552.51	58543.82
552.68	58447.86
552.84	58365.94
553.01	58805.96
553.18	58642.12
553.34	58674.89
553.51	58607.01
553.67	58525.10
553.84	58599.99
554.01	58735.74
554.17	58876.18
554.34	58878.52
554.51	58639.78
554.67	58906.60
554.84	59021.29
555.00	58810.64
555.17	58904.26
555.33	58719.36
555.50	58775.53
555.67	58710.00
555.83	58812.98
556.00	59018.95
556.16	59250.66
556.33	59100.87
556.50	59007.25
556.66	59161.72
556.83	58920.65
556.99	59063.42
557.16	59327.90
557.32	59318.54
557.49	59477.69
557.65	59168.74
557.82	59192.15
557.98	59276.41
558.15	59341.94
558.32	59367.69
558.48	59283.43
558.65	59372.37
558.81	59110.23
558.98	59283.43
559.14	59552.59
559.31	59491.74
559.47	59470.67
559.64	59690.68
559.80	59477.69
559.97	59461.31
560.13	59409.82
560.30	59519.82
560.46	59545.57
560.63	59655.57
560.79	59714.09
560.96	59678.98
561.12	59725.79
561.29	59618.13
561.45	59650.89
561.61	59819.41
561.78	59681.32
561.94	59711.75
562.11	59711.75
562.27	59662.60
562.44	59625.15
562.60	59887.29
562.77	59952.82
562.93	59711.75
563.10	59903.67
563.26	59601.74
563.42	59849.84
563.59	59688.34
563.75	59730.47
563.92	59898.99
564.08	59875.58
564.24	59812.39
564.41	59910.69
564.57	59978.57
564.74	60083.89
564.90	59990.27
565.07	60046.44
565.23	59943.46
565.39	60048.78
565.56	60053.47
565.72	60062.83
565.88	60016.02
566.05	59849.84
566.21	60027.72
566.38	60226.66
566.54	60126.02
566.70	60100.28
566.87	60217.30
567.03	59917.71
567.19	60369.44
567.36	60191.56
567.52	60126.02
567.68	60425.61
567.85	60147.09
568.01	60182.19
568.17	60170.49
568.34	60275.82
568.50	60051.12
568.66	60196.24
568.83	60357.74
568.99	60046.44
569.15	60367.10
569.32	60278.16
569.48	60224.32
569.64	60423.27
569.81	60315.61
569.97	60205.60
570.13	60348.37
570.30	60189.22
570.46	60523.91
570.62	60292.20
570.78	60317.95
570.95	60329.65
571.11	60444.33
571.27	60278.16
571.43	60282.84
571.60	60322.63
571.76	60315.61
571.92	60360.08
572.09	60395.18
572.25	60371.78
572.41	60521.57
572.57	60350.71
572.74	60711.16
572.90	60329.65
573.06	60474.76
573.22	60521.57
573.38	60622.22
573.55	60507.53
573.71	60788.39
573.87	60451.36
574.03	60559.02
574.20	60507.53
574.36	60423.27
574.52	60640.94
574.68	60694.77
574.84	60582.43
575.01	60568.38
575.17	60559.02
575.33	60544.98
575.49	60474.76
575.65	60521.57
575.82	60814.14
575.98	60491.15
576.14	60739.24
576.30	60767.33
576.46	60652.64
576.62	60666.69
576.79	60654.98
576.95	60591.79
577.11	60561.36
577.27	60687.75
577.43	60715.84
577.59	60629.24
577.75	60477.10
577.92	60582.43
578.08	60669.03
578.24	60741.58
578.40	61050.53
578.56	60762.65
578.72	60662.00
578.88	60898.40
579.04	60633.92
579.21	60966.27
579.37	60748.60
579.53	60844.57
579.69	60397.52
579.85	60542.64
580.01	60673.71
580.17	60481.78
580.33	60776.69
580.49	60877.33
580.65	60910.10
580.82	60669.03
580.98	60736.90
581.14	60676.05
581.30	60750.94
581.46	60795.42
581.62	60893.72
581.78	60608.17
581.94	60788.39
582.10	60673.71
582.26	60697.11
582.42	60591.79
582.58	60781.37
582.74	60652.64
582.90	60823.50
583.06	60786.05
583.22	60734.56
583.38	60849.25
583.54	60874.99
583.70	60903.08
583.86	60914.78
584.02	60680.73
584.18	60987.34
584.34	60774.35
584.50	60800.10
584.66	60809.46
584.82	60867.97
584.98	60867.97
585.14	60816.48
585.30	60839.89
585.46	60919.46
585.62	60860.95
585.78	60889.04
585.94	60610.51
586.10	60865.63
586.26	60809.46
586.42	60935.85
586.58	60910.10
586.74	60844.57
586.90	60874.99
587.06	60774.35
587.22	61076.28
587.38	60912.44
587.54	61141.81
587.70	61066.92
587.86	61179.26
588.02	60973.30
588.18	61090.32
588.34	60790.73
588.49	60924.14
