SpectraSuite Data File
++++++++++++++++++++++++++++++++++++
Date: Fri Oct 25 11:23:05 EDT 2013
User: price-jones
Dark Spectrum Present: No
Reference Spectrum Present: No
Number of Sampled Component Spectra: 1
Spectrometers: USB2+H05261
Integration Time (usec): 100000 (USB2+H05261)
Spectra Averaged: 1 (USB2+H05261)
Boxcar Smoothing: 0 (USB2+H05261)
Correct for Electrical Dark: No (USB2+H05261)
Strobe/Lamp Enabled: No (USB2+H05261)
Correct for Detector Non-linearity: No (USB2+H05261)
Correct for Stray Light: No (USB2+H05261)
Number of Pixels in Processed Spectrum: 2048
>>>>>Begin Processed Spectral Data<<<<<
365.73	215.33
365.92	215.33
366.12	215.33
366.32	135.75
366.52	198.95
366.72	114.69
366.91	121.71
367.11	114.69
367.31	86.60
367.51	105.32
367.70	124.05
367.90	100.64
368.10	49.15
368.30	84.26
368.49	124.05
368.69	58.51
368.89	184.90
369.09	133.41
369.28	180.22
369.48	173.20
369.68	215.33
369.87	215.33
370.07	177.88
370.27	266.82
370.47	299.59
370.66	568.75
370.86	599.18
371.06	664.71
371.25	753.65
371.45	690.46
371.65	704.50
371.84	617.90
372.04	709.18
372.24	730.25
372.44	718.54
372.63	706.84
372.83	741.95
373.03	678.76
373.22	767.70
373.42	760.67
373.62	784.08
373.81	795.78
374.01	812.17
374.21	858.98
374.40	758.33
374.60	807.48
374.79	844.93
374.99	882.38
375.19	858.98
375.38	807.48
375.58	863.66
375.78	840.25
375.97	823.87
376.17	912.81
376.37	938.55
376.56	891.74
376.76	910.47
376.95	849.61
377.15	863.66
377.35	983.02
377.54	915.15
377.74	760.67
377.93	856.64
378.13	875.36
378.33	926.85
378.52	919.83
378.72	1064.94
378.91	1057.92
379.11	908.13
379.31	896.43
379.50	917.49
379.70	983.02
379.89	877.70
380.09	931.53
380.28	983.02
380.48	987.71
380.68	992.39
380.87	940.90
381.07	926.85
381.26	1039.20
381.46	987.71
381.65	1128.14
381.85	1055.58
382.04	1088.35
382.24	1015.79
382.43	1006.43
382.63	1104.73
382.83	1100.05
383.02	1109.41
383.22	1069.62
383.41	1081.33
383.61	1128.14
383.80	1142.18
384.00	1109.41
384.19	1100.05
384.39	1170.27
384.58	1125.80
384.78	1116.44
384.97	1160.91
385.17	1135.16
385.36	1207.72
385.56	1233.46
385.75	1179.63
385.95	1144.52
386.14	1308.36
386.34	1247.51
386.53	1207.72
386.72	1238.14
386.92	1200.69
387.11	1266.23
387.31	1275.59
387.50	1249.85
387.70	1245.16
387.89	1259.21
388.09	1394.96
388.28	1184.31
388.48	1336.45
388.67	1406.66
388.86	1186.65
389.06	1378.58
389.25	1327.08
389.45	1313.04
389.64	1299.00
389.84	1401.98
390.03	1434.75
390.22	1469.86
390.42	1383.26
390.61	1416.02
390.81	1380.92
391.00	1488.58
391.19	1467.52
391.39	1420.71
391.58	1500.28
391.78	1563.48
391.97	1551.78
392.16	1437.09
392.36	1577.52
392.55	1652.42
392.75	1561.14
392.94	1589.22
393.13	1605.61
393.33	1572.84
393.52	1530.71
393.71	1589.22
393.91	1535.39
394.10	1565.82
394.29	1699.23
394.49	1650.08
394.68	1582.20
394.88	1678.16
395.07	1675.82
395.26	1584.54
395.46	1746.04
395.65	1755.40
395.84	1802.21
396.04	1785.83
396.23	1739.02
396.42	1757.74
396.62	1816.26
396.81	1804.55
397.00	1839.66
397.19	1839.66
397.39	1818.60
397.58	1856.04
397.77	1827.96
397.97	1809.23
398.16	1961.37
398.35	1797.53
398.55	1832.64
398.74	1949.67
398.93	2026.90
399.12	1865.41
399.32	1895.83
399.51	1923.92
399.70	1994.14
399.90	2024.56
400.09	1982.43
400.28	1970.73
400.47	2031.58
400.67	2047.97
400.86	2054.99
401.05	2059.67
401.24	2143.93
401.44	2113.50
401.63	2186.06
401.82	2195.42
402.01	2092.44
402.21	2214.15
402.40	2176.70
402.59	2153.29
402.78	2260.96
402.97	2293.72
403.17	2267.98
403.36	2303.09
403.55	2195.42
403.74	2342.88
403.93	2244.57
404.13	2532.46
404.32	2342.88
404.51	2424.80
404.70	2457.56
404.89	2347.56
405.09	2450.54
405.28	2492.67
405.47	2495.01
405.66	2530.12
405.85	2567.57
406.05	2590.97
406.24	2590.97
406.43	2492.67
406.62	2612.04
406.81	2822.69
407.00	2609.70
407.20	2637.78
407.39	2590.97
407.58	2822.69
407.77	2708.00
407.96	2745.45
408.15	2836.73
408.34	2834.39
408.54	2871.84
408.73	2836.73
408.92	2750.13
409.11	2932.69
409.30	2836.73
409.49	2876.52
409.68	2998.23
409.87	2995.89
410.07	3012.27
410.26	3129.30
410.45	3012.27
410.64	2979.50
410.83	3105.89
411.02	3213.56
411.21	3201.85
411.40	3225.26
411.59	3339.94
411.78	3262.71
411.98	3243.98
412.17	3288.45
412.36	3332.92
412.55	3330.58
412.74	3456.97
412.93	3403.14
413.12	3433.57
413.31	3452.29
413.50	3522.51
413.69	3583.36
413.88	3648.90
414.07	3604.42
414.26	3805.71
414.45	3707.41
414.64	3756.56
414.83	3777.62
415.02	3794.01
415.22	3967.21
415.41	3852.52
415.60	3885.29
415.79	3911.04
415.98	3953.16
416.17	3927.42
416.36	3948.48
416.55	3969.55
416.74	4053.81
416.93	4168.49
417.12	4203.60
417.31	4159.13
417.50	4241.05
417.69	4308.93
417.88	4435.32
418.07	4266.80
418.26	4393.19
418.45	4472.76
418.64	4374.46
418.83	4358.08
419.02	4381.48
419.21	4479.79
419.39	4507.87
419.58	4540.64
419.77	4477.44
419.96	4723.20
420.15	4652.98
420.34	4671.71
420.53	4667.03
420.72	4732.56
420.91	4849.59
421.10	4844.91
421.29	4964.28
421.48	4741.93
421.67	4812.14
421.86	4908.10
422.05	4753.63
422.24	4823.84
422.43	4990.02
422.61	4840.23
422.80	4957.25
422.99	4952.57
423.18	4821.50
423.37	5069.60
423.56	4992.36
423.75	5018.11
423.94	4800.44
424.13	4664.69
424.32	4779.37
424.50	5078.96
424.69	5144.50
424.88	5071.94
425.07	5139.82
425.26	5128.11
425.45	4964.28
425.64	5123.43
425.83	4990.02
426.01	5069.60
426.20	5130.45
426.39	5036.83
426.58	5146.84
426.77	5156.20
426.96	5142.16
427.15	5193.65
427.33	5259.18
427.52	5198.33
427.71	5378.55
427.90	5357.49
428.09	5427.70
428.28	5476.85
428.46	5289.61
428.65	5404.30
428.84	5549.41
429.03	5561.11
429.22	5296.63
429.40	5481.53
429.59	5526.00
429.78	5282.59
429.97	5352.81
430.16	5633.67
430.34	5628.99
430.53	5816.23
430.72	5518.98
430.91	5757.72
431.10	5617.29
431.28	5781.12
431.47	5760.06
431.66	5860.70
431.85	5954.32
432.03	5951.98
432.22	6118.16
432.41	5996.45
432.60	6015.18
432.79	5930.92
432.97	5940.28
433.16	6164.97
433.35	6188.38
433.54	6319.45
433.72	6136.88
433.91	6115.82
434.10	6321.79
434.28	6148.59
434.47	6300.72
434.66	6249.23
434.85	6335.83
435.03	6321.79
435.22	6310.08
435.41	6654.14
435.59	6509.03
435.78	6574.56
435.97	6466.90
436.16	6494.99
436.34	6490.31
436.53	6750.10
436.72	6703.29
436.90	6527.75
437.09	6733.72
437.28	6635.42
437.46	6679.89
437.65	6771.17
437.84	6913.94
438.02	6738.40
438.21	6846.07
438.40	6743.08
438.58	6998.20
438.77	6988.84
438.96	7140.97
439.14	7283.75
439.33	7337.58
439.52	7375.03
439.70	7431.20
439.89	7431.20
440.08	7550.57
440.26	7424.18
440.45	7442.90
440.63	7527.16
440.82	7641.85
441.01	7681.64
441.19	7691.00
441.38	7712.07
441.57	7768.24
441.75	8070.17
441.94	8166.13
442.12	8018.68
442.31	8079.53
442.50	8262.09
442.68	8163.79
442.87	8327.63
443.05	8339.33
443.24	8407.20
443.43	8109.96
443.61	8393.16
443.80	8461.04
443.98	8070.17
444.17	7943.78
444.35	8187.19
444.54	8521.89
444.73	8320.60
444.91	8559.34
445.10	8409.54
445.28	8463.38
445.47	8381.46
445.65	8484.44
445.84	8566.36
446.02	8519.55
446.21	8524.23
446.39	8489.12
446.58	8578.06
446.77	8678.71
446.95	8386.14
447.14	8393.16
447.32	8547.64
447.51	8683.39
447.69	8517.21
447.88	8580.40
448.06	8549.98
448.25	8407.20
448.43	8751.26
448.62	8725.52
448.80	8744.24
448.99	8683.39
449.17	8746.58
449.36	8503.17
449.54	8917.44
449.73	8999.36
449.91	9006.38
450.10	9266.18
450.28	9074.26
450.46	9266.18
450.65	9128.09
450.83	9217.03
451.02	9261.50
451.20	9362.14
451.39	9385.55
451.57	9111.71
451.76	9249.80
451.94	9380.87
452.13	9439.38
452.31	9401.93
452.49	9394.91
452.68	9427.68
452.86	9341.08
453.05	9289.59
453.23	9647.69
453.42	9437.04
453.60	9500.23
453.78	9748.33
453.97	9486.19
454.15	9563.43
454.34	9738.97
454.52	9998.77
454.70	9694.50
454.89	9682.80
455.07	9727.27
455.26	9867.70
455.44	10015.15
455.62	10019.83
455.81	10064.30
455.99	10246.87
456.17	10200.05
456.36	9984.73
456.54	10087.71
456.73	10195.37
456.91	10478.58
457.09	10593.26
457.28	10569.86
457.46	10445.81
457.64	10768.80
457.83	10750.08
458.01	10600.29
458.19	10801.57
458.38	10691.57
458.56	10892.85
458.74	10850.72
458.93	10604.97
459.11	10904.56
459.29	10869.45
459.48	10993.50
459.66	10782.85
459.84	10927.96
460.03	11105.84
460.21	11229.89
460.39	11096.48
460.57	11162.01
460.76	11052.01
460.94	11288.40
461.12	11424.15
461.31	11356.28
461.49	11339.90
461.67	11353.94
461.85	11583.31
462.04	11382.03
462.22	11536.50
462.40	11620.76
462.59	11705.02
462.77	11681.61
462.95	11782.26
463.13	11871.20
463.32	11763.53
463.50	11793.96
463.68	12067.80
463.86	12009.29
464.05	12072.48
464.23	11971.84
464.41	12145.04
464.59	12032.69
464.78	12381.43
464.96	12210.57
465.14	12065.46
465.32	12219.94
465.50	12329.94
465.69	12226.96
465.87	12285.47
466.05	12002.27
466.23	12271.43
466.41	12325.26
466.60	12711.45
466.78	12320.58
466.96	12283.13
467.14	12280.79
467.32	12517.18
467.51	12533.57
467.69	12121.63
467.87	12676.34
468.05	12755.92
468.23	12723.15
468.41	12615.49
468.60	12814.43
468.78	12975.93
468.96	12809.75
469.14	12784.01
469.32	13090.62
469.50	12872.95
469.69	13158.49
469.87	13268.50
470.05	13338.71
470.23	13329.35
470.41	13350.42
470.59	13645.32
470.77	13348.08
470.95	13380.84
471.14	13563.40
471.32	13121.04
471.50	13895.76
471.68	13752.99
471.86	13792.78
472.04	13593.83
472.22	14127.47
472.40	14015.13
472.58	13792.78
472.77	14127.47
472.95	14310.04
473.13	14703.25
473.31	13923.85
473.49	14525.36
473.67	14087.68
473.85	14513.66
474.03	14719.63
474.21	14728.99
474.39	15105.82
474.57	14951.34
474.75	15108.16
474.93	15257.95
475.12	15002.83
475.30	15356.25
475.48	15187.74
475.66	15169.01
475.84	15391.36
476.02	15644.14
476.20	15693.29
476.38	16184.80
476.56	16269.06
476.74	16116.93
476.92	15983.52
477.10	15948.41
477.28	16360.34
477.46	16526.52
477.64	16648.23
477.82	16634.19
478.00	17029.74
478.18	17046.12
478.36	17036.76
478.54	17261.45
478.72	17537.63
478.90	17694.45
479.08	17937.87
479.26	18129.79
479.44	18068.94
479.62	18082.98
479.80	18200.01
479.98	18537.04
480.16	18663.43
480.34	18618.96
480.52	18768.76
480.70	18738.33
480.88	18878.76
481.06	19012.17
481.24	19094.09
481.41	19278.99
481.59	19627.73
481.77	19491.98
481.95	19625.39
482.13	19899.23
482.31	19878.17
482.49	20173.08
482.67	19981.15
482.85	20659.91
483.03	20655.23
483.21	21186.53
483.39	21062.48
483.57	21242.70
483.74	21530.59
483.92	21535.27
484.10	21500.16
484.28	22019.76
484.46	22579.15
484.64	22689.15
484.82	22211.68
485.00	22518.29
485.18	23241.52
485.35	23098.75
485.53	23124.49
485.71	23236.84
485.89	23494.30
486.07	23562.17
486.25	23714.31
486.43	23903.89
486.61	24224.54
486.78	24407.11
486.96	24233.91
487.14	24917.34
487.32	25127.99
487.50	25343.32
487.68	24987.56
487.85	25504.82
488.03	25671.00
488.21	26338.05
488.39	26061.87
488.57	26712.53
488.75	26604.87
488.92	26806.16
489.10	26895.10
489.28	26799.13
489.46	27555.13
489.64	27264.90
489.81	28121.54
489.99	28133.24
490.17	28226.86
490.35	28559.22
490.53	28371.97
490.70	28631.77
490.88	28685.61
491.06	28994.56
491.24	29198.18
491.41	29516.50
491.59	29694.38
491.77	29528.20
491.95	30005.67
492.13	30171.85
492.30	30314.62
492.48	30387.18
492.66	30478.46
492.84	30501.86
493.01	31328.07
493.19	30792.09
493.37	31232.11
493.54	31402.97
493.72	31796.18
493.90	31763.41
494.08	32271.31
494.25	32517.06
494.43	32254.92
494.61	32727.71
494.79	32774.52
494.96	32891.55
495.14	33390.08
495.32	33577.33
495.49	33380.72
495.67	33579.67
495.85	34181.18
496.02	34019.69
496.20	34443.32
496.38	34532.26
496.55	34445.66
496.73	35103.35
496.91	34876.32
497.09	35124.42
497.26	35637.00
497.44	35068.25
497.62	35777.43
497.79	35948.29
497.97	35761.05
498.14	36617.68
498.32	36704.28
498.50	36479.59
498.67	36954.72
498.85	36765.14
499.03	37336.23
499.20	37336.23
499.38	37034.30
499.56	37467.30
499.73	37736.46
499.91	37883.91
500.08	37956.47
500.26	37710.71
500.44	38473.73
500.61	37977.53
500.79	38195.20
500.97	38630.54
501.14	38845.87
501.32	39065.88
501.49	39089.29
501.67	39103.33
501.84	39203.97
502.02	39676.76
502.20	39721.23
502.37	39468.45
502.55	39615.91
502.72	39908.47
502.90	40084.01
503.07	40076.99
503.25	40383.60
503.43	40409.35
503.60	40655.11
503.78	40601.27
503.95	40477.22
504.13	40781.49
504.30	41537.49
504.48	41048.32
504.65	41460.25
504.83	41607.70
505.01	41956.44
505.18	41958.78
505.36	42122.62
505.53	41654.51
505.71	42293.48
505.88	42506.47
506.06	42244.33
506.23	43014.37
506.41	41867.50
506.58	42459.66
506.76	42597.75
506.93	42880.95
507.11	42873.93
507.28	43072.88
507.46	43065.86
507.63	43557.37
507.81	43540.99
507.98	43494.18
508.16	43599.50
508.33	43840.57
508.50	44203.36
508.68	44116.76
508.85	44865.73
509.03	44479.54
509.20	44292.30
509.38	44898.50
509.55	44437.41
509.73	45116.17
509.90	44949.99
510.08	45137.23
510.25	44994.46
510.42	45532.78
510.60	45230.85
510.77	45766.84
510.95	46085.15
511.12	45666.19
511.30	45565.55
511.47	45965.78
511.64	46197.49
511.82	46157.70
511.99	45954.08
512.17	46534.53
512.34	46291.12
512.51	46761.56
512.69	46642.20
512.86	47042.43
513.04	47316.27
513.21	47334.99
513.38	47185.20
513.56	47402.87
513.73	47089.24
513.90	47725.86
514.08	47416.91
514.25	48006.73
514.43	47751.61
514.60	47782.04
514.77	48144.82
514.95	48498.24
515.12	48231.42
515.29	48250.14
515.47	48521.65
515.64	48744.00
515.81	48528.67
515.99	48816.55
516.16	49048.27
516.33	48947.62
516.51	49275.30
516.68	48720.59
516.85	48942.94
517.03	49441.48
517.20	49352.54
517.37	49202.74
517.54	49619.36
517.72	49455.52
517.89	49811.28
518.06	49790.22
518.24	49703.62
518.41	49715.32
518.58	49951.71
518.75	49893.20
518.93	50092.15
519.10	49855.75
519.27	50295.77
519.45	50138.96
519.62	50424.50
519.79	50696.00
519.96	50677.28
520.14	50454.93
520.31	50412.80
520.48	51131.34
520.65	50869.20
520.83	51210.92
521.00	51201.56
521.17	51194.54
521.34	50953.46
521.52	51430.93
521.69	51452.00
521.86	51702.43
522.03	51524.55
522.20	51920.10
522.38	52030.11
522.55	51945.85
522.72	51798.40
522.89	51601.79
523.07	52458.43
523.24	51903.72
523.41	52299.27
523.58	51828.82
523.75	52114.37
523.92	52128.41
524.10	52266.50
524.27	52397.57
524.44	52430.34
524.61	52467.79
524.78	52528.64
524.96	52582.48
525.13	52690.14
525.30	53003.77
525.47	52877.38
525.64	53165.27
525.81	52905.47
525.98	53352.51
526.16	53059.94
526.33	52989.73
526.50	53495.28
526.67	53113.78
526.84	53499.97
527.01	53155.91
527.18	53095.05
527.36	53467.20
527.53	53521.03
527.70	53813.60
527.87	53785.51
528.04	53633.38
528.21	53649.76
528.38	53574.86
528.55	54021.90
528.72	53624.01
528.89	53825.30
529.07	53808.92
529.24	53609.97
529.41	53904.88
529.58	54145.95
529.75	54454.90
529.92	54246.60
530.09	54475.97
530.26	54440.86
530.43	54499.37
530.60	54108.50
530.77	54005.52
530.94	54677.25
531.11	54480.65
531.28	54431.50
531.46	54527.46
531.63	54625.76
531.80	54602.36
531.97	54784.92
532.14	54915.99
532.31	54688.96
532.48	54918.33
532.65	55229.62
532.82	54733.43
532.99	55299.84
533.16	55000.25
533.33	55360.69
533.50	55393.46
533.67	54815.35
533.84	55143.02
534.01	55447.29
534.18	55454.31
534.35	55585.38
534.52	55398.14
534.69	55391.12
534.86	55547.93
535.03	55292.82
535.20	55388.78
535.37	55756.24
535.54	55533.89
535.71	55442.61
535.88	55908.38
536.05	55753.90
536.22	55976.25
536.38	56116.68
536.55	55931.78
536.72	55789.01
536.89	55781.99
537.06	56154.13
537.23	56280.52
537.40	55992.64
537.57	55955.19
537.74	56341.38
537.91	56168.18
538.08	56233.71
538.25	56198.60
538.42	56245.41
538.59	56381.16
538.75	56587.13
538.92	56339.04
539.09	56676.07
539.26	56685.43
539.43	56353.08
539.60	56608.20
539.77	56327.33
539.94	56886.72
540.11	56652.67
540.28	56830.55
540.44	56982.68
540.61	56699.48
540.78	56664.37
540.95	56694.80
541.12	56746.29
541.29	56704.16
541.46	57062.26
541.62	56797.78
541.79	57207.37
541.96	56781.40
542.13	56739.27
542.30	57083.33
542.47	57104.39
542.63	57375.89
542.80	57291.63
542.97	57396.96
543.14	57460.15
543.31	57422.70
543.48	57586.54
543.64	57750.38
543.81	57743.36
543.98	57635.69
544.15	57771.44
544.32	57865.06
544.48	57984.43
544.65	57748.04
544.82	57670.80
544.99	57844.00
545.16	58033.58
545.32	57560.79
545.49	58302.74
545.66	58042.95
545.83	57979.75
546.00	57841.66
546.16	58073.37
546.33	57712.93
546.50	57979.75
546.67	58040.60
546.83	57874.43
547.00	58302.74
547.17	58071.03
547.34	58171.67
547.50	58291.04
547.67	58581.27
547.84	58267.64
548.00	58482.97
548.17	58515.73
548.34	58583.61
548.51	58450.20
548.67	58482.97
548.84	58485.31
549.01	58389.34
549.18	58330.83
549.34	58691.27
549.51	58599.99
549.68	58707.66
549.84	58576.59
550.01	58824.68
550.18	58581.27
550.34	58859.79
550.51	58932.35
550.68	58740.42
550.84	58560.20
551.01	58852.77
551.18	58808.30
551.34	58742.77
551.51	58911.28
551.68	58777.87
551.84	58937.03
552.01	58649.14
552.18	59058.74
552.34	58801.28
552.51	59018.95
552.68	59025.97
552.84	59133.63
553.01	59138.32
553.18	58972.14
553.34	59114.91
553.51	59075.12
553.67	59161.72
553.84	59302.15
554.01	59306.83
554.17	59327.90
554.34	59566.63
554.51	59159.38
554.67	59325.56
554.84	59580.68
555.00	59496.42
555.17	59288.11
555.33	59344.28
555.50	59299.81
555.67	59313.86
555.83	59147.68
556.00	59547.91
556.16	59817.07
556.33	59629.83
556.50	59531.53
556.66	59746.86
556.83	59456.63
556.99	59686.00
557.16	59749.20
557.32	59952.82
557.49	59922.40
557.65	59786.64
557.82	59557.27
557.98	59714.09
558.15	59611.10
558.32	59852.18
558.48	59531.53
558.65	59796.01
558.81	59798.35
558.98	59934.10
559.14	60053.47
559.31	60009.00
559.47	60182.19
559.64	60140.07
559.80	59983.25
559.97	59938.78
560.13	59896.65
560.30	60175.17
560.46	60069.85
560.63	60051.12
560.79	59906.01
560.96	60296.88
561.12	60065.17
561.29	60009.00
561.45	60165.81
561.61	60191.56
561.78	60032.40
561.94	60076.87
562.11	60196.24
562.27	60233.69
562.44	60303.90
562.60	60238.37
562.77	60142.41
562.93	60257.09
563.10	60423.27
563.26	60193.90
563.42	60303.90
563.59	60294.54
563.75	60357.74
563.92	60229.01
564.08	60212.62
564.24	60423.27
564.41	60313.26
564.57	60537.96
564.74	60624.56
564.90	60378.80
565.07	60453.70
565.23	60392.84
565.39	60331.99
565.56	60825.84
565.72	60402.21
565.88	60430.29
566.05	60427.95
566.21	60381.14
566.38	60446.68
566.54	60734.56
566.70	60788.39
566.87	60828.18
567.03	60479.44
567.19	60713.50
567.36	60594.13
567.52	60544.98
567.68	60844.57
567.85	60746.26
568.01	60851.59
568.17	60617.53
568.34	60711.16
568.50	60654.98
568.66	60584.77
568.83	60559.02
568.99	60556.68
569.15	60535.62
569.32	60676.05
569.48	60638.60
569.64	60713.50
569.81	60580.09
569.97	60605.83
570.13	60921.80
570.30	60678.39
570.46	60608.17
570.62	60867.97
570.78	60715.84
570.95	60764.99
571.11	61085.64
571.27	60849.25
571.43	60844.57
571.60	60898.40
571.76	60800.10
571.92	61034.15
572.09	60818.82
572.25	60954.57
572.41	60839.89
572.57	60757.97
572.74	60961.59
572.90	60816.48
573.06	60940.53
573.22	60982.66
573.38	60933.51
573.55	60741.58
573.71	61073.94
573.87	60879.67
574.03	60898.40
574.20	60924.14
574.36	61167.56
574.52	61031.81
574.68	60949.89
574.84	61169.90
575.01	60954.57
575.17	60987.34
575.33	61015.43
575.49	60860.95
575.65	61073.94
575.82	61214.37
575.98	61141.81
576.14	61209.69
576.30	61205.01
576.46	60823.50
576.62	61008.40
576.79	60919.46
576.95	60942.87
577.11	61165.22
577.27	61099.68
577.43	60961.59
577.59	61073.94
577.75	60919.46
577.92	60912.44
578.08	61106.71
578.24	60940.53
578.40	61214.37
578.56	61244.80
578.72	61027.13
578.88	61392.25
579.04	61251.82
579.21	61265.86
579.37	61403.95
579.53	61240.12
579.69	60999.04
579.85	60985.00
580.01	61214.37
580.17	60914.78
580.33	61333.74
580.49	61186.28
580.65	61190.97
580.82	61109.05
580.98	60879.67
581.14	61080.96
581.30	61233.10
581.46	61265.86
581.62	61050.53
581.78	61085.64
581.94	61396.93
582.10	61307.99
582.26	61368.85
582.42	61298.63
582.58	61045.85
582.74	61197.99
582.90	61310.33
583.06	61158.20
583.22	61102.03
583.38	61289.27
583.54	61137.13
583.70	61118.41
583.86	61324.38
584.02	61085.64
584.18	61378.21
584.34	61357.14
584.50	61148.84
584.66	61263.52
584.82	61013.08
584.98	61254.16
585.14	61359.48
585.30	61375.87
585.46	61286.93
585.62	61354.80
585.78	61441.40
585.94	61148.84
586.10	61322.04
586.26	61333.74
586.42	61286.93
586.58	61460.13
586.74	61226.07
586.90	61146.50
587.06	61254.16
587.22	61378.21
587.38	61272.88
587.54	61495.24
587.70	61513.96
587.86	61312.67
588.02	61359.48
588.18	61684.82
588.34	61460.13
588.49	61406.30
