SpectraSuite Data File
++++++++++++++++++++++++++++++++++++
Date: Fri Oct 25 11:23:24 EDT 2013
User: price-jones
Dark Spectrum Present: No
Reference Spectrum Present: No
Number of Sampled Component Spectra: 1
Spectrometers: USB2+H05261
Integration Time (usec): 100000 (USB2+H05261)
Spectra Averaged: 1 (USB2+H05261)
Boxcar Smoothing: 0 (USB2+H05261)
Correct for Electrical Dark: No (USB2+H05261)
Strobe/Lamp Enabled: No (USB2+H05261)
Correct for Detector Non-linearity: No (USB2+H05261)
Correct for Stray Light: No (USB2+H05261)
Number of Pixels in Processed Spectrum: 2048
>>>>>Begin Processed Spectral Data<<<<<
365.73	241.08
365.92	241.08
366.12	241.08
366.32	124.05
366.52	163.84
366.72	147.45
366.91	114.69
367.11	105.32
367.31	81.92
367.51	91.28
367.70	91.28
367.90	140.43
368.10	88.94
368.30	156.82
368.49	149.79
368.69	126.39
368.89	124.05
369.09	112.35
369.28	142.77
369.48	131.07
369.68	135.75
369.87	142.77
370.07	194.26
370.27	280.86
370.47	243.42
370.66	547.69
370.86	688.12
371.06	690.46
371.25	765.36
371.45	676.41
371.65	706.84
371.84	638.97
372.04	624.92
372.24	690.46
372.44	685.78
372.63	767.70
372.83	777.06
373.03	720.88
373.22	765.36
373.42	746.63
373.62	751.31
373.81	781.74
374.01	858.98
374.21	788.76
374.40	802.80
374.60	866.00
374.79	795.78
374.99	805.14
375.19	901.11
375.38	814.51
375.58	763.01
375.78	891.74
375.97	880.04
376.17	971.32
376.37	809.83
376.56	837.91
376.76	840.25
376.95	882.38
377.15	903.45
377.35	819.19
377.54	912.81
377.74	917.49
377.93	929.19
378.13	968.98
378.33	931.53
378.52	968.98
378.72	840.25
378.91	922.17
379.11	933.87
379.31	976.00
379.50	985.37
379.70	985.37
379.89	931.53
380.09	1083.67
380.28	901.11
380.48	990.05
380.68	929.19
380.87	1060.26
381.07	1048.56
381.26	1062.60
381.46	976.00
381.65	933.87
381.85	976.00
382.04	1004.09
382.24	1069.62
382.43	954.94
382.63	1036.86
382.83	1114.10
383.02	1095.37
383.22	1128.14
383.41	1057.92
383.61	1107.07
383.80	1142.18
384.00	1170.27
384.19	1128.14
384.39	1153.88
384.58	1144.52
384.78	1165.59
384.97	1177.29
385.17	1207.72
385.36	1104.73
385.56	1191.33
385.75	1188.99
385.95	1151.54
386.14	1151.54
386.34	1153.88
386.53	1240.48
386.72	1172.61
386.92	1273.25
387.11	1254.53
387.31	1207.72
387.50	1228.78
387.70	1247.51
387.89	1303.68
388.09	1240.48
388.28	1191.33
388.48	1303.68
388.67	1313.04
388.86	1315.38
389.06	1359.85
389.25	1357.51
389.45	1355.17
389.64	1371.55
389.84	1416.02
390.03	1453.47
390.22	1416.02
390.42	1348.15
390.61	1296.66
390.81	1411.34
391.00	1399.64
391.19	1430.07
391.39	1486.24
391.58	1446.45
391.78	1390.28
391.97	1472.20
392.16	1423.05
392.36	1469.86
392.55	1549.43
392.75	1509.65
392.94	1537.73
393.13	1502.62
393.33	1455.81
393.52	1556.46
393.71	1556.46
393.91	1638.38
394.10	1544.75
394.29	1717.95
394.49	1579.86
394.68	1650.08
394.88	1753.06
395.07	1612.63
395.26	1682.85
395.46	1657.10
395.65	1689.87
395.84	1717.95
396.04	1811.57
396.23	1839.66
396.42	1783.49
396.62	1778.81
396.81	1771.79
397.00	1785.83
397.19	1839.66
397.39	1701.57
397.58	1792.85
397.77	1827.96
397.97	1844.34
398.16	1795.19
398.35	2015.20
398.55	1909.88
398.74	1947.33
398.93	1928.60
399.12	1994.14
399.32	1907.54
399.51	1820.94
399.70	1881.79
399.90	1940.30
400.09	2092.44
400.28	2099.46
400.47	2085.42
400.67	2092.44
400.86	2113.50
401.05	2012.86
401.24	2078.40
401.44	2157.97
401.63	2169.68
401.82	2289.04
402.01	2106.48
402.21	2253.94
402.40	2186.06
402.59	2209.47
402.78	2209.47
402.97	2179.04
403.17	2174.36
403.36	2143.93
403.55	2265.64
403.74	2366.28
403.93	2361.60
404.13	2427.14
404.32	2406.07
404.51	2420.11
404.70	2399.05
404.89	2370.96
405.09	2420.11
405.28	2523.10
405.47	2387.35
405.66	2532.46
405.85	2623.74
406.05	2607.36
406.24	2539.48
406.43	2516.08
406.62	2731.41
406.81	2630.76
407.00	2553.52
407.20	2738.43
407.39	2619.06
407.58	2693.96
407.77	2736.09
407.96	2818.00
408.15	2794.60
408.34	2717.36
408.54	2818.00
408.73	2789.92
408.92	2876.52
409.11	3000.57
409.30	2906.95
409.49	2932.69
409.68	2960.78
409.87	3054.40
410.07	2920.99
410.26	2909.29
410.45	3103.55
410.64	3152.70
410.83	3243.98
411.02	3115.25
411.21	3098.87
411.40	3159.72
411.59	3243.98
411.78	3246.32
411.98	3269.73
412.17	3258.03
412.36	3255.69
412.55	3349.31
412.74	3389.10
412.93	3438.25
413.12	3466.33
413.31	3625.49
413.50	3515.48
413.69	3548.25
413.88	3592.72
414.07	3623.15
414.26	3616.13
414.45	3765.92
414.64	3655.92
414.83	3611.45
415.02	3847.84
415.22	3831.46
415.41	4009.34
415.60	3875.93
415.79	3946.14
415.98	3992.95
416.17	4070.19
416.36	3974.23
416.55	3988.27
416.74	4154.45
416.93	4058.49
417.12	4292.54
417.31	4152.11
417.50	4117.00
417.69	4250.41
417.88	4409.57
418.07	4166.15
418.26	4325.31
418.45	4435.32
418.64	4444.68
418.83	4557.02
419.02	4360.42
419.21	4568.73
419.39	4652.98
419.58	4519.57
419.77	4629.58
419.96	4624.90
420.15	4482.13
420.34	4542.98
420.53	4557.02
420.72	4737.24
420.91	4674.05
421.10	4896.40
421.29	4877.68
421.48	4814.48
421.67	4959.60
421.86	4856.61
422.05	4870.65
422.24	4798.10
422.43	4947.89
422.61	4933.85
422.80	4912.78
422.99	4990.02
423.18	5090.67
423.37	5123.43
423.56	5006.41
423.75	4891.72
423.94	5018.11
424.13	4367.44
424.32	4674.05
424.50	4898.74
424.69	5032.15
424.88	4978.32
425.07	4922.15
425.26	5114.07
425.45	5064.92
425.64	4936.19
425.83	5093.01
426.01	4978.32
426.20	5053.22
426.39	5224.08
426.58	4926.83
426.77	5081.30
426.96	5207.69
427.15	5142.16
427.33	5130.45
427.52	5050.88
427.71	5310.68
427.90	5261.52
428.09	5191.31
428.28	5493.24
428.46	5404.30
428.65	5298.97
428.84	5554.09
429.03	5322.38
429.22	5315.36
429.40	5518.98
429.59	5540.05
429.78	5352.81
429.97	5284.93
430.16	5511.96
430.34	5511.96
430.53	5783.46
430.72	5547.07
430.91	5589.20
431.10	5518.98
431.28	5741.33
431.47	5905.17
431.66	5818.57
431.85	5879.43
432.03	5966.03
432.22	5961.34
432.41	5834.96
432.60	5956.66
432.79	5996.45
432.97	6120.50
433.16	6010.50
433.35	6162.63
433.54	6003.47
433.72	6087.73
433.91	5968.37
434.10	6087.73
434.28	6083.05
434.47	6377.96
434.66	6284.34
434.85	6300.72
435.03	6274.98
435.22	6300.72
435.41	6665.85
435.59	6455.20
435.78	6401.37
435.97	6668.19
436.16	6546.48
436.34	6375.62
436.53	6499.67
436.72	6609.67
436.90	6551.16
437.09	6654.14
437.28	6600.31
437.46	6733.72
437.65	6644.78
437.84	6899.90
438.02	6729.04
438.21	6782.87
438.40	6822.66
438.58	7073.10
438.77	7101.19
438.96	6918.62
439.14	7094.16
439.33	7302.47
439.52	7307.15
439.70	7187.79
439.89	7494.40
440.08	7489.71
440.26	7475.67
440.45	7375.03
440.63	7576.31
440.82	7641.85
441.01	7679.30
441.19	7616.10
441.38	7770.58
441.57	7669.94
441.75	7925.05
441.94	8060.80
442.12	8081.87
442.31	8088.89
442.50	8009.31
442.68	7896.97
442.87	8095.91
443.05	8458.70
443.24	8517.21
443.43	8133.36
443.61	8248.05
443.80	8439.97
443.98	8044.42
444.17	8072.51
444.35	8482.10
444.54	8404.86
444.73	8395.50
444.91	8374.44
445.10	8383.80
445.28	8414.23
445.47	8255.07
445.65	8381.46
445.84	8498.49
446.02	8641.26
446.21	8517.21
446.39	8201.24
446.58	8585.08
446.77	8662.32
446.95	8294.86
447.14	8561.68
447.32	8552.32
447.51	8561.68
447.69	8400.18
447.88	8662.32
448.06	8554.66
448.25	8540.61
448.43	8875.31
448.62	8720.84
448.80	8692.75
448.99	8718.50
449.17	8826.16
449.36	8929.14
449.54	8959.57
449.73	8973.61
449.91	9032.13
450.10	8990.00
450.28	9247.46
450.46	9163.20
450.65	9172.56
450.83	8924.46
451.02	9142.13
451.20	9355.12
451.39	9102.34
451.57	9100.00
451.76	9284.91
451.94	9277.88
452.13	9439.38
452.31	9394.91
452.49	9163.20
452.68	9467.47
452.86	9355.12
453.05	9488.53
453.23	9748.33
453.42	9383.21
453.60	9320.01
453.78	9554.07
453.97	9547.05
454.15	9535.34
454.34	9568.11
454.52	9680.46
454.70	9853.66
454.89	9844.29
455.07	9949.62
455.26	10094.73
455.44	10118.14
455.62	10043.24
455.81	9867.70
455.99	10029.20
456.17	10249.21
456.36	10186.01
456.54	10216.44
456.73	10263.25
456.91	10466.88
457.09	10698.59
457.28	10647.10
457.46	10501.98
457.64	10462.19
457.83	10574.54
458.01	10541.77
458.19	10766.46
458.38	10307.72
458.56	10949.03
458.74	10808.59
458.93	10801.57
459.11	10930.30
459.29	10956.05
459.48	10787.53
459.66	10925.62
459.84	10984.13
460.03	11283.72
460.21	11089.46
460.39	11129.25
460.57	10930.30
460.76	11190.10
460.94	11515.44
461.12	11351.60
461.31	11115.20
461.49	11236.91
461.67	11227.55
461.85	11466.28
462.04	11351.60
462.22	11382.03
462.40	11566.93
462.59	11475.65
462.77	11866.52
462.95	11756.51
463.13	11536.50
463.32	11681.61
463.50	11850.13
463.68	11779.92
463.86	11815.02
464.05	11854.81
464.23	11758.85
464.41	11999.93
464.59	11763.53
464.78	12093.55
464.96	12255.04
465.14	12191.85
465.32	12105.25
465.50	12175.47
465.69	12346.33
465.87	12212.92
466.05	12086.53
466.23	12278.45
466.41	12201.21
466.60	12645.91
466.78	12231.64
466.96	12521.87
467.14	12418.88
467.32	12505.48
467.51	12535.91
467.69	12147.38
467.87	12409.52
468.05	12919.76
468.23	12442.29
468.41	12545.27
468.60	12561.66
468.78	12849.54
468.96	12613.15
469.14	12891.67
469.32	13041.46
469.50	12664.64
469.69	13090.62
469.87	13355.10
470.05	13156.15
470.23	13050.83
470.41	13207.64
470.59	13415.95
470.77	13280.20
470.95	13394.89
471.14	13467.44
471.32	13284.88
471.50	13666.39
471.68	13640.64
471.86	13717.88
472.04	13804.48
472.22	14174.28
472.40	13689.79
472.58	14036.19
472.77	14181.31
472.95	14291.31
473.13	14869.42
473.31	14169.60
473.49	14333.44
473.67	14274.93
473.85	14583.88
474.03	14705.59
474.21	14707.93
474.39	14817.93
474.57	14967.73
474.75	15012.20
474.93	15037.94
475.12	15140.93
475.30	15365.62
475.48	15323.49
475.66	15197.10
475.84	15454.56
476.02	15681.59
476.20	15522.43
476.38	15819.68
476.56	16145.02
476.74	16170.76
476.92	15875.85
477.10	16002.24
477.28	16528.86
477.46	16346.30
477.64	16681.00
477.82	16620.14
478.00	17240.39
478.18	16819.09
478.36	16952.50
478.54	17081.23
478.72	17240.39
478.90	17603.17
479.08	17893.40
479.26	17626.57
479.44	18108.72
479.62	17923.82
479.80	18214.05
479.98	18499.59
480.16	18712.58
480.34	18539.38
480.52	18848.33
480.70	18829.61
480.88	18827.27
481.06	18953.66
481.24	18918.55
481.41	19206.44
481.59	19625.39
481.77	19709.65
481.95	19854.76
482.13	19922.64
482.31	20013.92
482.49	20365.00
482.67	20203.50
482.85	20767.57
483.03	20716.08
483.21	20947.79
483.39	21378.45
483.57	20893.96
483.74	21284.83
483.92	21661.66
484.10	21579.74
484.28	21944.86
484.46	22150.83
484.64	22555.74
484.82	22476.16
485.00	22569.79
485.18	23068.32
485.35	23077.68
485.53	22649.36
485.71	23470.89
485.89	23653.45
486.07	23440.47
486.25	23316.42
486.43	23978.79
486.61	23962.40
486.78	24205.82
486.96	24477.32
487.14	24891.60
487.32	24926.71
487.50	25013.31
487.68	25085.86
487.85	25610.14
488.03	25834.83
488.21	26045.48
488.39	26298.26
488.57	26120.38
488.75	26480.82
488.92	26742.96
489.10	27152.55
489.28	26974.67
489.46	27248.52
489.64	27068.30
489.81	28025.57
489.99	27704.92
490.17	28058.34
490.35	28226.86
490.53	28526.45
490.70	28416.44
490.88	28423.47
491.06	29139.67
491.24	29338.62
491.41	29319.89
491.59	29591.39
491.77	29680.33
491.95	29890.98
492.13	30197.59
492.30	30361.43
492.48	30532.29
492.66	30286.53
492.84	30656.34
493.01	30864.64
493.19	30714.85
493.37	31381.90
493.54	30986.35
493.72	31725.96
493.90	31910.86
494.08	32074.70
494.25	32149.60
494.43	32566.21
494.61	32385.99
494.79	32493.66
494.96	32950.06
495.14	32957.08
495.32	33408.81
495.49	33163.05
495.67	33497.75
495.85	33687.33
496.02	34204.59
496.20	33764.57
496.38	34689.08
496.55	34410.56
496.73	35180.59
496.91	34838.87
497.09	35363.15
497.26	35241.45
497.44	35021.44
497.62	35391.24
497.79	35606.57
497.97	35922.54
498.14	36320.43
498.32	36514.70
498.50	36329.80
498.67	36875.14
498.85	36872.80
499.03	37270.69
499.20	36715.98
499.38	37371.33
499.56	37516.45
499.73	37830.08
499.91	37464.96
500.08	38064.13
500.26	37715.39
500.44	37762.20
500.61	38274.78
500.79	38192.86
500.97	38637.56
501.14	39133.76
501.32	38911.41
501.49	38909.07
501.67	38965.24
501.84	39335.04
502.02	39372.49
502.20	39754.00
502.37	39512.92
502.55	39665.06
502.72	40093.38
502.90	40058.27
503.07	39454.41
503.25	40114.44
503.43	39945.92
503.60	40409.35
503.78	40472.54
503.95	40512.33
504.13	40577.87
504.30	40807.24
504.48	41104.49
504.65	41270.67
504.83	41406.42
505.01	41806.65
505.18	41771.54
505.36	41834.74
505.53	41654.51
505.71	42155.39
505.88	42026.66
506.06	41921.34
506.23	42635.20
506.41	42031.34
506.58	42436.25
506.76	42361.36
506.93	43089.26
507.11	42667.97
507.28	42946.49
507.46	43035.43
507.63	43306.93
507.81	43349.06
507.98	43248.42
508.16	43648.65
508.33	44189.31
508.50	43889.73
508.68	43746.95
508.85	44095.69
509.03	44348.47
509.20	44353.15
509.38	44402.30
509.55	44603.59
509.73	44615.29
509.90	44861.05
510.08	44732.32
510.25	44985.10
510.42	45052.97
510.60	45497.67
510.77	45347.88
510.95	45827.69
511.12	45509.38
511.30	45764.49
511.47	45586.61
511.64	46003.23
511.82	46361.33
511.99	46122.60
512.17	45815.99
512.34	45965.78
512.51	46892.63
512.69	46918.38
512.86	46202.18
513.04	47208.61
513.21	47014.34
513.38	47157.11
513.56	47421.59
513.73	46733.48
513.90	47339.68
514.08	47330.31
514.25	47569.05
514.43	47538.62
514.60	47714.16
514.77	47606.50
514.95	48074.60
515.12	47739.91
515.29	47880.34
515.47	48395.26
515.64	48395.26
515.81	48369.51
515.99	49167.63
516.16	49085.72
516.33	48989.75
516.51	48933.58
516.68	48624.63
516.85	48956.99
517.03	48938.26
517.20	49207.42
517.37	49162.95
517.54	49207.42
517.72	48954.64
517.89	49675.53
518.06	49329.13
518.24	49708.30
518.41	49532.76
518.58	49705.96
518.75	49766.81
518.93	49734.04
519.10	49764.47
519.27	50211.51
519.45	50218.53
519.62	50401.10
519.79	50253.64
519.96	49806.60
520.14	50255.98
520.31	50145.98
520.48	50555.57
520.65	50637.49
520.83	50981.55
521.00	51285.82
521.17	51000.27
521.34	51065.81
521.52	51131.34
521.69	51267.09
521.86	51349.01
522.03	51735.20
522.20	51554.98
522.38	51414.55
522.55	51463.70
522.72	51714.14
522.89	51784.35
523.07	52114.37
523.24	51749.24
523.41	52053.51
523.58	51676.69
523.75	52072.24
523.92	52079.26
524.10	52285.23
524.27	52346.08
524.44	52315.65
524.61	52252.46
524.78	52718.23
524.96	52793.12
525.13	52640.99
525.30	52804.83
525.47	52774.40
525.64	52844.62
525.81	52832.91
525.98	53104.41
526.16	52678.44
526.33	52994.41
526.50	53137.18
526.67	53240.17
526.84	53380.60
527.01	53502.31
527.18	53333.79
527.36	53092.71
527.53	53446.13
527.70	53567.84
527.87	53382.94
528.04	53254.21
528.21	53478.90
528.38	53584.22
528.55	53965.73
528.72	53691.89
528.89	53776.15
529.07	53916.58
529.24	53621.67
529.41	53837.00
529.58	53972.75
529.75	53841.68
529.92	54080.42
530.09	54143.61
530.26	54279.36
530.43	54115.53
530.60	54302.77
530.77	54143.61
530.94	54585.97
531.11	54295.75
531.28	54529.80
531.46	54663.21
531.63	54354.26
531.80	54590.66
531.97	54908.97
532.14	54703.00
532.31	54803.64
532.48	54960.46
532.65	54864.50
532.82	54951.10
532.99	54923.01
533.16	54803.64
533.33	54981.52
533.50	55140.68
533.67	55014.29
533.84	54927.69
534.01	55320.90
534.18	55215.58
534.35	55428.57
534.52	55351.33
534.69	55440.27
534.86	55433.25
535.03	55316.22
535.20	55463.67
535.37	55435.59
535.54	55648.58
535.71	55463.67
535.88	55580.70
536.05	55791.35
536.22	55938.80
536.38	56044.13
536.55	55835.82
536.72	55966.89
536.89	55718.79
537.06	55791.35
537.23	56292.22
537.40	55786.67
537.57	55941.14
537.74	55987.95
537.91	56257.12
538.08	55994.98
538.25	56151.79
538.42	55877.95
538.59	56411.59
538.75	56179.88
538.92	56296.91
539.09	56303.93
539.26	56435.00
539.43	56474.79
539.60	56500.53
539.77	56329.67
539.94	56552.02
540.11	56584.79
540.28	56404.57
540.44	56577.77
540.61	56748.63
540.78	56685.43
540.95	56690.12
541.12	56540.32
541.29	56608.20
541.46	56781.40
541.62	56729.90
541.79	56853.95
541.96	56570.75
542.13	56839.91
542.30	56797.78
542.47	57078.64
542.63	57174.61
542.80	57167.58
542.97	57132.48
543.14	57296.31
543.31	57382.91
543.48	57406.32
543.64	57652.08
543.81	57502.28
543.98	57595.90
544.15	57748.04
544.32	57771.44
544.48	57808.89
544.65	57563.14
544.82	57663.78
544.99	57605.26
545.16	57689.52
545.32	57511.64
545.49	57944.64
545.66	57972.73
545.83	57839.32
546.00	57911.88
546.16	57888.47
546.33	57951.66
546.50	57773.78
546.67	57872.09
546.83	57521.01
547.00	57977.41
547.17	57984.43
547.34	58101.46
547.50	58157.63
547.67	58328.49
547.84	58241.89
548.00	58415.09
548.17	58464.24
548.34	58396.37
548.51	58387.00
548.67	58337.85
548.84	58550.84
549.01	58171.67
549.18	58417.43
549.34	58422.11
549.51	58356.58
549.68	58480.63
549.84	58536.80
550.01	58564.88
550.18	58618.72
550.34	58518.07
550.51	58599.99
550.68	58553.18
550.84	58536.80
551.01	58773.19
551.18	58674.89
551.34	58759.15
551.51	58731.06
551.68	58679.57
551.84	58508.71
552.01	58609.35
552.18	58885.54
552.34	58899.58
552.51	58775.53
552.68	58763.83
552.84	58981.50
553.01	59199.17
553.18	59023.63
553.34	59103.21
553.51	59138.32
553.67	58939.37
553.84	59288.11
554.01	59016.61
554.17	59213.21
554.34	59271.73
554.51	59377.05
554.67	59217.89
554.84	59367.69
555.00	59054.06
555.17	59405.14
555.33	59203.85
555.50	58990.86
555.67	59306.83
555.83	59313.86
556.00	59444.93
556.16	59735.15
556.33	59594.72
556.50	59554.93
556.66	59653.23
556.83	59395.77
556.99	59718.77
557.16	59674.30
557.32	59709.41
557.49	59845.16
557.65	59686.00
557.82	59522.16
557.98	59629.83
558.15	59484.72
558.32	59693.02
558.48	59557.27
558.65	59594.72
558.81	59662.60
558.98	59723.45
559.14	59718.77
559.31	59859.20
559.47	59950.48
559.64	60006.65
559.80	59880.27
559.97	60018.36
560.13	59770.26
560.30	59973.89
560.46	59906.01
560.63	59772.60
560.79	59868.56
560.96	60119.00
561.12	60076.87
561.29	60041.76
561.45	59987.93
561.61	59922.40
561.78	59964.52
561.94	60037.08
562.11	60037.08
562.27	60140.07
562.44	60055.81
562.60	60121.34
562.77	60296.88
562.93	60184.54
563.10	60282.84
563.26	59997.29
563.42	60252.41
563.59	60203.26
563.75	60200.92
563.92	60217.30
564.08	60144.75
564.24	60423.27
564.41	60392.84
564.57	60191.56
564.74	60322.63
564.90	60278.16
565.07	60404.55
565.23	60432.63
565.39	60355.39
565.56	60346.03
565.72	60346.03
565.88	60441.99
566.05	60306.24
566.21	60416.25
566.38	60257.09
566.54	60336.67
566.70	60444.33
566.87	60580.09
567.03	60456.04
567.19	60734.56
567.36	60697.11
567.52	60526.25
567.68	60734.56
567.85	60467.74
568.01	60743.92
568.17	60334.33
568.34	60659.66
568.50	60521.57
568.66	60446.68
568.83	60699.45
568.99	60310.92
569.15	60669.03
569.32	60505.19
569.48	60556.68
569.64	60706.47
569.81	60573.06
569.97	60570.72
570.13	60884.36
570.30	60795.42
570.46	60917.12
570.62	60821.16
570.78	60863.29
570.95	60690.09
571.11	60839.89
571.27	60664.35
571.43	60624.56
571.60	60739.24
571.76	60734.56
571.92	60774.35
572.09	60685.41
572.25	60741.58
572.41	60669.03
572.57	60903.08
572.74	61214.37
572.90	60940.53
573.06	60776.69
573.22	60896.06
573.38	60690.09
573.55	60755.63
573.71	61066.92
573.87	60874.99
574.03	60638.60
574.20	60933.51
574.36	60769.67
574.52	60849.25
574.68	60664.35
574.84	60919.46
575.01	60863.29
575.17	60786.05
575.33	61109.05
575.49	61048.19
575.65	61127.77
575.82	60959.25
575.98	61017.77
576.14	61270.54
576.30	61146.50
576.46	61034.15
576.62	60966.27
576.79	60844.57
576.95	60940.53
577.11	61048.19
577.27	60992.02
577.43	60860.95
577.59	60926.49
577.75	60858.61
577.92	60879.67
578.08	61172.24
578.24	60961.59
578.40	61165.22
578.56	61214.37
578.72	60886.70
578.88	61141.81
579.04	61186.28
579.21	61214.37
579.37	61090.32
579.53	61209.69
579.69	61106.71
579.85	61043.51
580.01	60935.85
580.17	61057.56
580.33	61120.75
580.49	61113.73
580.65	61059.90
580.82	60956.91
580.98	61041.17
581.14	61116.07
581.30	61085.64
581.46	60933.51
581.62	61298.63
581.78	61148.84
581.94	61153.52
582.10	61195.65
582.26	61043.51
582.42	61071.60
582.58	61165.22
582.74	61085.64
582.90	61113.73
583.06	61118.41
583.22	60816.48
583.38	61104.37
583.54	61277.57
583.70	61226.07
583.86	61181.60
584.02	61038.83
584.18	61282.25
584.34	61036.49
584.50	61106.71
584.66	61109.05
584.82	60945.21
584.98	61305.65
585.14	61141.81
585.30	61109.05
585.46	61310.33
585.62	61162.88
585.78	61160.54
585.94	60928.83
586.10	61130.11
586.26	61284.59
586.42	61305.65
586.58	61291.61
586.74	61256.50
586.90	61097.34
587.06	61197.99
587.22	61422.68
587.38	61333.74
587.54	61331.40
587.70	61249.48
587.86	61085.64
588.02	61352.46
588.18	61167.56
588.34	61237.78
588.49	61256.50
