SpectraSuite Data File
++++++++++++++++++++++++++++++++++++
Date: Fri Oct 25 11:25:39 EDT 2013
User: price-jones
Dark Spectrum Present: No
Reference Spectrum Present: No
Number of Sampled Component Spectra: 1
Spectrometers: USB2+H05261
Integration Time (usec): 100000 (USB2+H05261)
Spectra Averaged: 1 (USB2+H05261)
Boxcar Smoothing: 0 (USB2+H05261)
Correct for Electrical Dark: No (USB2+H05261)
Strobe/Lamp Enabled: No (USB2+H05261)
Correct for Detector Non-linearity: No (USB2+H05261)
Correct for Stray Light: No (USB2+H05261)
Number of Pixels in Processed Spectrum: 2048
>>>>>Begin Processed Spectral Data<<<<<
365.73	191.92
365.92	191.92
366.12	191.92
366.32	154.48
366.52	156.82
366.72	156.82
366.91	145.11
367.11	145.11
367.31	145.11
367.51	119.37
367.70	142.77
367.90	133.41
368.10	114.69
368.30	170.86
368.49	91.28
368.69	133.41
368.89	212.99
369.09	175.54
369.28	121.71
369.48	173.20
369.68	231.71
369.87	231.71
370.07	201.29
370.27	250.44
370.47	330.02
370.66	634.29
370.86	627.26
371.06	653.01
371.25	704.50
371.45	634.29
371.65	744.29
371.84	608.54
372.04	730.25
372.24	709.18
372.44	716.20
372.63	676.41
372.83	674.07
373.03	800.46
373.22	755.99
373.42	760.67
373.62	688.12
373.81	798.12
374.01	765.36
374.21	814.51
374.40	816.85
374.60	880.04
374.79	837.91
374.99	802.80
375.19	849.61
375.38	870.68
375.58	884.72
375.78	826.21
375.97	880.04
376.17	947.92
376.37	805.14
376.56	868.34
376.76	898.77
376.95	856.64
377.15	919.83
377.35	952.60
377.54	915.15
377.74	894.08
377.93	887.06
378.13	915.15
378.33	954.94
378.52	917.49
378.72	1018.13
378.91	891.74
379.11	971.32
379.31	966.64
379.50	856.64
379.70	999.41
379.89	1018.13
380.09	999.41
380.28	985.37
380.48	933.87
380.68	1032.18
380.87	997.07
381.07	1083.67
381.26	961.96
381.46	1011.11
381.65	1062.60
381.85	1074.31
382.04	1020.47
382.24	1036.86
382.43	1076.65
382.63	1039.20
382.83	1135.16
383.02	1116.44
383.22	1111.75
383.41	1083.67
383.61	1118.78
383.80	1198.35
384.00	1064.94
384.19	1102.39
384.39	1167.93
384.58	1132.82
384.78	1224.10
384.97	1100.05
385.17	1179.63
385.36	1219.42
385.56	1177.29
385.75	1177.29
385.95	1217.08
386.14	1238.14
386.34	1224.10
386.53	1235.80
386.72	1139.84
386.92	1249.85
387.11	1273.25
387.31	1270.91
387.50	1249.85
387.70	1207.72
387.89	1245.16
388.09	1249.85
388.28	1270.91
388.48	1331.76
388.67	1329.42
388.86	1352.83
389.06	1348.15
389.25	1266.23
389.45	1394.96
389.64	1273.25
389.84	1336.45
390.03	1401.98
390.22	1420.71
390.42	1357.51
390.61	1439.43
390.81	1390.28
391.00	1348.15
391.19	1409.00
391.39	1481.56
391.58	1437.09
391.78	1479.22
391.97	1488.58
392.16	1451.13
392.36	1528.37
392.55	1514.33
392.75	1467.52
392.94	1535.39
393.13	1565.82
393.33	1474.54
393.52	1507.30
393.71	1577.52
393.91	1535.39
394.10	1561.14
394.29	1521.35
394.49	1572.84
394.68	1661.78
394.88	1673.48
395.07	1542.41
395.26	1657.10
395.46	1586.88
395.65	1762.42
395.84	1701.57
396.04	1863.07
396.23	1769.44
396.42	1802.21
396.62	1694.55
396.81	1734.34
397.00	1764.76
397.19	1720.29
397.39	1785.83
397.58	1825.62
397.77	1785.83
397.97	1858.39
398.16	1879.45
398.35	1842.00
398.55	1867.75
398.74	1905.20
398.93	1907.54
399.12	1781.15
399.32	1966.05
399.51	1919.24
399.70	1980.09
399.90	1975.41
400.09	2036.27
400.28	1944.99
400.47	1980.09
400.67	2050.31
400.86	2132.23
401.05	2153.29
401.24	2181.38
401.44	2036.27
401.63	2115.84
401.82	2167.34
402.01	2146.27
402.21	2146.27
402.40	2174.36
402.59	2134.57
402.78	2221.17
402.97	2150.95
403.17	2305.43
403.36	2235.21
403.55	2225.85
403.74	2232.87
403.93	2396.71
404.13	2218.83
404.32	2317.13
404.51	2403.73
404.70	2441.18
404.89	2359.26
405.09	2429.48
405.28	2476.29
405.47	2511.39
405.66	2504.37
405.85	2459.90
406.05	2532.46
406.24	2509.05
406.43	2509.05
406.62	2616.72
406.81	2696.30
407.00	2635.44
407.20	2600.34
407.39	2689.28
407.58	2672.89
407.77	2729.06
407.96	2757.15
408.15	2785.24
408.34	2642.46
408.54	2717.36
408.73	2789.92
408.92	2810.98
409.11	2836.73
409.30	3019.29
409.49	2815.66
409.68	2806.30
409.87	2899.92
410.07	3035.67
410.26	2970.14
410.45	3087.17
410.64	2916.31
410.83	3108.23
411.02	3166.74
411.21	3218.24
411.40	3190.15
411.59	3234.62
411.78	3199.51
411.98	3143.34
412.17	3178.45
412.36	3246.32
412.55	3342.28
412.74	3440.59
412.93	3386.76
413.12	3353.99
413.31	3492.08
413.50	3417.18
413.69	3550.59
413.88	3515.48
414.07	3557.61
414.26	3639.53
414.45	3543.57
414.64	3527.19
414.83	3627.83
415.02	3761.24
415.22	3740.18
415.41	3859.54
415.60	3894.65
415.79	3922.74
415.98	4002.32
416.17	3943.80
416.36	3864.22
416.55	4016.36
416.74	4060.83
416.93	4046.79
417.12	4084.23
417.31	4044.45
417.50	4095.94
417.69	4234.03
417.88	4393.19
418.07	4161.47
418.26	4465.74
418.45	4437.66
418.64	4444.68
418.83	4435.32
419.02	4505.53
419.21	4582.77
419.39	4475.10
419.58	4418.93
419.77	4423.61
419.96	4702.14
420.15	4652.98
420.34	4634.26
420.53	4526.60
420.72	4683.41
420.91	4566.39
421.10	4751.29
421.29	4770.01
421.48	4713.84
421.67	4873.00
421.86	4863.63
422.05	4732.56
422.24	4828.53
422.43	4777.03
422.61	4847.25
422.80	5027.47
422.99	4947.89
423.18	4894.06
423.37	4823.84
423.56	4877.68
423.75	4865.97
423.94	4901.08
424.13	4353.40
424.32	4816.82
424.50	5088.32
424.69	5076.62
424.88	4952.57
425.07	4917.47
425.26	4851.93
425.45	5036.83
425.64	5046.20
425.83	5060.24
426.01	5039.17
426.20	5015.77
426.39	4940.87
426.58	5123.43
426.77	5055.56
426.96	5074.28
427.15	5245.14
427.33	5280.25
427.52	5116.41
427.71	5343.44
427.90	5392.59
428.09	5448.77
428.28	5224.08
428.46	5441.75
428.65	5252.16
428.84	5612.60
429.03	5476.85
429.22	5369.19
429.40	5542.39
429.59	5509.62
429.78	5303.65
429.97	5392.59
430.16	5488.56
430.34	5481.53
430.53	5673.46
430.72	5734.31
430.91	5575.16
431.10	5636.01
431.28	5724.95
431.47	5867.72
431.66	5888.79
431.85	5703.89
432.03	5923.90
432.22	6008.16
432.41	5856.02
432.60	6057.31
432.79	5891.13
432.97	5928.58
433.16	6050.28
433.35	5893.47
433.54	6111.14
433.72	6059.65
433.91	5975.39
434.10	6076.03
434.28	5991.77
434.47	6181.35
434.66	6066.67
434.85	6164.97
435.03	6258.59
435.22	6338.17
435.41	6401.37
435.59	6406.05
435.78	6417.75
435.97	6581.59
436.16	6333.49
436.34	6534.78
436.53	6347.53
436.72	6553.50
436.90	6251.57
437.09	6719.68
437.28	6361.58
437.46	6464.56
437.65	6593.29
437.84	6707.98
438.02	6684.57
438.21	6654.14
438.40	6586.27
438.58	6998.20
438.77	7014.59
438.96	6827.34
439.14	7140.97
439.33	6984.16
439.52	7183.10
439.70	7164.38
439.89	7302.47
440.08	7152.68
440.26	7295.45
440.45	7520.14
440.63	7386.73
440.82	7644.19
441.01	7501.42
441.19	7651.21
441.38	7693.34
441.57	7775.26
441.75	7712.07
441.94	7955.48
442.12	7918.03
442.31	7990.59
442.50	7971.86
442.68	7873.56
442.87	7999.95
443.05	8035.06
443.24	8147.40
443.43	8131.02
443.61	8152.09
443.80	8395.50
443.98	7925.05
444.17	7740.15
444.35	8264.43
444.54	8248.05
444.73	8402.52
444.91	8306.56
445.10	8365.07
445.28	8238.69
445.47	8131.02
445.65	8147.40
445.84	8374.44
446.02	8512.53
446.21	8388.48
446.39	8259.75
446.58	8493.80
446.77	8683.39
446.95	8332.31
447.14	8365.07
447.32	8482.10
447.51	8444.65
447.69	8592.11
447.88	8533.59
448.06	8580.40
448.25	8437.63
448.43	8475.08
448.62	8503.17
448.80	8695.09
448.99	8648.28
449.17	8671.68
449.36	8755.94
449.54	8840.20
449.73	8868.29
449.91	8938.51
450.10	8875.31
450.28	9088.30
450.46	9036.81
450.65	9118.73
450.83	9107.02
451.02	9104.68
451.20	9034.47
451.39	9097.66
451.57	9055.53
451.76	8784.03
451.94	9266.18
452.13	9282.56
452.31	9296.61
452.49	9235.75
452.68	9310.65
452.86	9420.66
453.05	9481.51
453.23	9582.15
453.42	9235.75
453.60	9296.61
453.78	9406.61
453.97	9427.68
454.15	9537.68
454.34	9341.08
454.52	9495.55
454.70	9593.86
454.89	9856.00
455.07	9806.84
455.26	9816.21
455.44	9921.53
455.62	9902.81
455.81	9834.93
455.99	9891.10
456.17	9905.15
456.36	9989.41
456.54	10202.40
456.73	10073.67
456.91	10310.06
457.09	10251.55
457.28	10658.80
457.46	10017.49
457.64	10485.60
457.83	10530.07
458.01	10499.64
458.19	10736.04
458.38	10293.68
458.56	10668.16
458.74	10801.57
458.93	10548.79
459.11	10717.31
459.29	10822.64
459.48	10766.46
459.66	10932.64
459.84	10958.39
460.03	10902.22
460.21	10970.09
460.39	10944.34
460.57	10843.70
460.76	11124.57
460.94	11070.73
461.12	11047.33
461.31	11360.96
461.49	11272.02
461.67	11314.15
461.85	11562.25
462.04	11222.87
462.22	11618.42
462.40	11473.31
462.59	11372.66
462.77	11585.65
462.95	11492.03
463.13	11653.53
463.32	11604.38
463.50	11796.30
463.68	11641.82
463.86	11880.56
464.05	11459.26
464.23	11843.11
464.41	11786.94
464.59	11688.64
464.78	11918.01
464.96	11861.84
465.14	11913.33
465.32	11967.16
465.50	11929.71
465.69	12142.70
465.87	12013.97
466.05	12065.46
466.23	12091.21
466.41	12133.34
466.60	12372.07
466.78	12142.70
466.96	12233.98
467.14	12198.87
467.32	12308.88
467.51	12608.47
467.69	12217.60
467.87	12418.88
468.05	12781.67
468.23	12451.65
468.41	12545.27
468.60	12493.78
468.78	12800.39
468.96	12535.91
469.14	12695.07
469.32	12713.79
469.50	12652.94
469.69	12748.90
469.87	12978.27
470.05	13064.87
470.23	12989.97
470.41	13095.30
470.59	13565.74
470.77	13289.56
470.95	13191.26
471.14	13626.60
471.32	13209.98
471.50	13523.62
471.68	13521.27
471.86	13603.19
472.04	13703.84
472.22	13989.38
472.40	13635.96
472.58	14033.85
472.77	13872.36
472.95	14122.79
473.13	14384.93
473.31	14043.21
473.49	14244.50
473.67	14125.13
473.85	14366.21
474.03	14291.31
474.21	14511.32
474.39	14626.01
474.57	14658.78
474.75	14941.98
474.93	14965.39
475.12	14743.03
475.30	15005.17
475.48	15019.22
475.66	14956.02
475.84	15080.07
476.02	15206.46
476.20	15213.48
476.38	15707.34
476.56	15950.75
476.74	15850.11
476.92	15840.75
477.10	15639.46
477.28	16079.48
477.46	16262.04
477.64	16238.64
477.82	16652.91
478.00	16877.60
478.18	16704.40
478.36	16755.90
478.54	17137.40
478.72	16868.24
478.90	17298.90
479.08	17380.82
479.26	17628.92
479.44	17383.16
479.62	17853.61
479.80	18125.11
479.98	18157.88
480.16	18471.51
480.34	18225.75
480.52	18726.63
480.70	18771.10
480.88	18235.11
481.06	18618.96
481.24	18778.12
481.41	19171.33
481.59	19171.33
481.77	19522.41
481.95	19487.30
482.13	19562.20
482.31	19548.15
482.49	20142.65
482.67	20037.33
482.85	20369.68
483.03	20702.04
483.21	20545.22
483.39	20765.23
483.57	20641.18
483.74	20999.29
483.92	20800.34
484.10	21174.83
484.28	21755.28
484.46	21722.51
484.64	22141.47
484.82	21724.85
485.00	22448.08
485.18	22696.17
485.35	23051.94
485.53	22845.97
485.71	23042.57
485.89	23257.90
486.07	23096.41
486.25	23576.22
486.43	23690.90
486.61	23873.46
486.78	24072.41
486.96	24013.90
487.14	24608.39
487.32	24596.69
487.50	24783.93
487.68	24917.34
487.85	25001.60
488.03	25446.30
488.21	25879.30
488.39	25715.47
488.57	25930.80
488.75	25989.31
488.92	26434.01
489.10	26326.35
489.28	26639.98
489.46	27082.34
489.64	27007.44
489.81	27309.37
489.99	27536.40
490.17	27285.97
490.35	27985.79
490.53	28395.38
490.70	28290.06
490.88	28479.64
491.06	28744.12
491.24	28655.18
491.41	28959.45
491.59	28739.44
491.77	29425.22
491.95	29369.04
492.13	29977.58
492.30	29879.28
492.48	29535.22
492.66	30213.98
492.84	30118.01
493.01	30749.96
493.19	30691.44
493.37	31206.36
493.54	31164.23
493.72	31154.87
493.90	31480.21
494.08	31557.44
494.25	31814.90
494.43	31826.60
494.61	32093.43
494.79	32275.99
494.96	32240.88
495.14	32350.88
495.32	33425.19
495.49	32989.85
495.67	33069.43
495.85	33041.34
496.02	33769.25
496.20	34136.71
496.38	33706.05
496.55	33954.15
496.73	34520.56
496.91	34628.23
497.09	34817.81
497.26	34845.90
497.44	34658.65
497.62	35229.74
497.79	35988.08
497.97	35480.18
498.14	36346.18
498.32	35887.43
498.50	35845.30
498.67	36020.84
498.85	36268.94
499.03	36156.60
499.20	36486.61
499.38	36624.70
499.56	36772.16
499.73	36851.73
499.91	37247.29
500.08	37352.61
500.26	37310.48
500.44	37471.98
500.61	37404.10
500.79	37591.34
500.97	37958.81
501.14	38153.07
501.32	38590.75
501.49	38122.65
501.67	38824.81
501.84	38813.10
502.02	38660.97
502.20	38731.18
502.37	38813.10
502.55	38885.66
502.72	39119.71
502.90	39391.22
503.07	39398.24
503.25	39562.08
503.43	39407.60
503.60	39704.85
503.78	40121.46
503.95	40444.46
504.13	40491.27
504.30	40374.24
504.48	40435.10
504.65	40488.93
504.83	40832.99
505.01	41113.85
505.18	41170.02
505.36	41909.63
505.53	41464.93
505.71	41645.15
505.88	41867.50
506.06	41254.28
506.23	41691.96
506.41	41741.11
506.58	42333.27
506.76	42167.09
506.93	42483.06
507.11	42031.34
507.28	42333.27
507.46	42251.35
507.63	42794.36
507.81	42763.93
507.98	42946.49
508.16	42841.17
508.33	43278.85
508.50	42969.90
508.68	43826.53
508.85	43917.81
509.03	43632.27
509.20	43948.24
509.38	44215.06
509.55	44243.15
509.73	44067.61
509.90	44299.32
510.08	44577.84
510.25	44975.73
510.42	44598.91
510.60	44807.22
510.77	44849.35
510.95	45219.15
511.12	45305.75
511.30	45233.19
511.47	45469.59
511.64	45237.87
511.82	45743.43
511.99	45352.56
512.17	46031.32
512.34	45539.80
512.51	46674.96
512.69	46141.32
512.86	46033.66
513.04	46810.71
513.21	46651.56
513.38	46651.56
513.56	46576.66
513.73	46223.24
513.90	46946.47
514.08	46621.13
514.25	47215.63
514.43	47489.47
514.60	47320.95
514.77	47590.11
514.95	47913.11
515.12	47276.48
515.29	47243.71
515.47	48072.26
515.64	48177.59
515.81	47604.16
515.99	47557.35
516.16	48533.35
516.33	48128.44
516.51	48542.71
516.68	48367.17
516.85	48418.66
517.03	48821.23
517.20	48409.30
517.37	48474.84
517.54	48568.46
517.72	48563.78
517.89	48575.48
518.06	49354.88
518.24	49265.94
518.41	48690.16
518.58	49015.50
518.75	49144.23
518.93	49425.09
519.10	49352.54
519.27	49640.42
519.45	49661.49
519.62	49895.54
519.79	49844.05
519.96	49813.62
520.14	49998.52
520.31	50078.10
520.48	50286.41
520.65	50305.13
520.83	50326.20
521.00	50466.63
521.17	50197.47
521.34	50525.14
521.52	50595.36
521.69	50681.96
521.86	50548.55
522.03	50913.67
522.20	51098.58
522.38	51341.99
522.55	50930.06
522.72	51084.53
522.89	51075.17
523.07	51601.79
523.24	51271.78
523.41	51466.04
523.58	51239.01
523.75	51597.11
523.92	51828.82
524.10	51641.58
524.27	51868.61
524.44	51723.50
524.61	52109.69
524.78	52055.85
524.96	52086.28
525.13	52266.50
525.30	52034.79
525.47	52161.18
525.64	52250.12
525.81	52385.87
525.98	52601.20
526.16	52470.13
526.33	52552.05
526.50	52945.26
526.67	52638.65
526.84	52713.55
527.01	52842.27
527.18	52989.73
527.36	52830.57
527.53	52818.87
527.70	53551.46
527.87	53602.95
528.04	52921.85
528.21	53104.41
528.38	53286.98
528.55	53394.64
528.72	53294.00
528.89	53092.71
529.07	53258.89
529.24	53195.70
529.41	53556.14
529.58	53504.65
529.75	53450.81
529.92	53556.14
530.09	53652.10
530.26	53743.38
530.43	53736.36
530.60	53780.83
530.77	53869.77
530.94	54064.03
531.11	54021.90
531.28	54071.06
531.46	54213.83
531.63	54101.48
531.80	54073.40
531.97	54181.06
532.14	54241.92
532.31	54110.85
532.48	54328.52
532.65	54468.95
532.82	54382.35
532.99	54698.32
533.16	54396.39
533.33	54822.37
533.50	54925.35
533.67	54852.80
533.84	54693.64
534.01	54965.14
534.18	54934.71
534.35	55112.59
534.52	54775.56
534.69	55063.44
534.86	55281.11
535.03	55044.72
535.20	55089.19
535.37	55391.12
535.54	55295.16
535.71	55246.00
535.88	55398.14
536.05	55224.94
536.22	55437.93
536.38	55426.23
536.55	55531.55
536.72	55185.15
536.89	55274.09
537.06	55351.33
537.23	55585.38
537.40	55552.62
537.57	55671.98
537.74	55777.31
537.91	55915.40
538.08	55765.60
538.25	55634.53
538.42	55868.59
538.59	55962.21
538.75	55529.21
538.92	55976.25
539.09	56219.67
539.26	56116.68
539.43	55931.78
539.60	56151.79
539.77	56102.64
539.94	56385.85
540.11	56044.13
540.28	56133.07
540.44	56339.04
540.61	56058.17
540.78	56121.37
540.95	56360.10
541.12	56306.27
541.29	56303.93
541.46	56472.45
541.62	56324.99
541.79	56545.00
541.96	56594.15
542.13	56296.91
542.30	56760.33
542.47	56605.86
542.63	56666.71
542.80	56741.61
542.97	56868.00
543.14	57043.54
543.31	57190.99
543.48	57015.45
543.64	57443.77
543.81	57186.31
543.98	57277.59
544.15	57176.95
544.32	57289.29
544.48	57574.84
544.65	57244.82
544.82	57703.57
544.99	57198.01
545.16	57511.64
545.32	57279.93
545.49	57525.69
545.66	57476.54
545.83	57556.11
546.00	57490.58
546.16	57418.02
546.33	57778.46
546.50	57425.04
546.67	57593.56
546.83	57392.28
547.00	57492.92
547.17	57581.86
547.34	57773.78
547.50	57846.34
547.67	58033.58
547.84	58085.07
548.00	58073.37
548.17	58309.77
548.34	57986.77
548.51	58197.42
548.67	57989.11
548.84	57907.19
549.01	57865.06
549.18	58049.97
549.34	58265.30
549.51	58171.67
549.68	58333.17
549.84	58272.32
550.01	58473.60
550.18	58145.93
550.34	58337.85
550.51	58466.58
550.68	58227.85
550.84	58293.38
551.01	58265.30
551.18	58349.56
551.34	58482.97
551.51	58513.39
551.68	58534.46
551.84	58417.43
552.01	58489.99
552.18	58618.72
552.34	58672.55
552.51	58667.87
552.68	58337.85
552.84	58501.69
553.01	58852.77
553.18	58759.15
553.34	58578.93
553.51	58759.15
553.67	58805.96
553.84	58873.84
554.01	59040.01
554.17	58808.30
554.34	59077.46
554.51	58941.71
554.67	59072.78
554.84	58894.90
555.00	59009.59
555.17	58798.94
555.33	58906.60
555.50	58567.23
555.67	58892.56
555.83	58883.20
556.00	58944.05
556.16	59285.77
556.33	59091.51
556.50	59049.38
556.66	59121.93
556.83	58983.84
556.99	59465.99
557.16	59363.01
557.32	59421.52
557.49	59332.58
557.65	59224.92
557.82	59238.96
557.98	59257.68
558.15	59325.56
558.32	59470.67
558.48	59348.96
558.65	59456.63
558.81	59491.74
558.98	59341.94
559.14	59554.93
559.31	59491.74
559.47	59580.68
559.64	59592.38
559.80	59664.94
559.97	59557.27
560.13	59346.62
560.30	59463.65
560.46	59618.13
560.63	59590.04
560.79	59639.19
560.96	60004.31
561.12	59716.43
561.29	59508.12
561.45	59796.01
561.61	59594.72
561.78	59697.70
561.94	59737.49
562.11	59700.04
562.27	59976.23
562.44	59870.90
562.60	60083.89
562.77	59831.11
562.93	59473.01
563.10	59835.80
563.26	59856.86
563.42	59943.46
563.59	60041.76
563.75	59964.52
563.92	59826.43
564.08	59936.44
564.24	60074.53
564.41	60055.81
564.57	59931.76
564.74	59955.16
564.90	60111.98
565.07	60135.38
565.23	60212.62
565.39	59973.89
565.56	60034.74
565.72	60046.44
565.88	60151.77
566.05	59985.59
566.21	60093.25
566.38	60268.79
566.54	60135.38
566.70	60346.03
566.87	60177.51
567.03	60067.51
567.19	60336.67
567.36	60250.07
567.52	60294.54
567.68	60427.95
567.85	60481.78
568.01	60308.58
568.17	60214.96
568.34	60437.31
568.50	60296.88
568.66	60163.47
568.83	60278.16
568.99	60271.14
569.15	60383.48
569.32	60310.92
569.48	60453.70
569.64	60376.46
569.81	60301.56
569.97	60083.89
570.13	60278.16
570.30	60163.47
570.46	60498.17
570.62	60477.10
570.78	60537.96
570.95	60439.65
571.11	60528.59
571.27	60289.86
571.43	60500.51
571.60	60605.83
571.76	60509.87
571.92	60561.36
572.09	60568.38
572.25	60465.40
572.41	60605.83
572.57	60701.79
572.74	60729.88
572.90	60488.80
573.06	60528.59
573.22	60521.57
573.38	60449.02
573.55	60605.83
573.71	60699.45
573.87	60666.69
574.03	60530.93
574.20	60456.04
574.36	60364.76
574.52	60652.64
574.68	60725.20
574.84	60687.75
575.01	60643.28
575.17	60563.70
575.33	60673.71
575.49	60535.62
575.65	60652.64
575.82	60755.63
575.98	60629.24
576.14	60949.89
576.30	60898.40
576.46	60647.96
576.62	60633.92
576.79	60690.09
576.95	60601.15
577.11	60601.15
577.27	60650.30
577.43	60760.31
577.59	60743.92
577.75	60430.29
577.92	60547.32
578.08	60666.69
578.24	60917.12
578.40	60945.21
578.56	60947.55
578.72	60741.58
578.88	60830.52
579.04	60867.97
579.21	60725.20
579.37	61097.34
579.53	60921.80
579.69	60701.79
579.85	60767.33
580.01	60662.00
580.17	60584.77
580.33	60762.65
580.49	60839.89
580.65	60919.46
580.82	60764.99
580.98	60860.95
581.14	60673.71
581.30	60610.51
581.46	60970.96
581.62	61001.38
581.78	60706.47
581.94	60872.65
582.10	60807.12
582.26	60912.44
582.42	60741.58
582.58	60809.46
582.74	60949.89
582.90	60924.14
583.06	60996.70
583.22	60870.31
583.38	60945.21
583.54	60966.27
583.70	61034.15
583.86	60720.52
584.02	60671.37
584.18	60985.00
584.34	61102.03
584.50	60917.12
584.66	60683.07
584.82	60746.26
584.98	60940.53
585.14	60889.04
585.30	61048.19
585.46	60830.52
585.62	60870.31
585.78	61141.81
585.94	60664.35
586.10	60917.12
586.26	60879.67
586.42	60949.89
586.58	61029.47
586.74	60989.68
586.90	61137.13
587.06	60804.78
587.22	61095.00
587.38	60821.16
587.54	61099.68
587.70	61111.39
587.86	60999.04
588.02	60949.89
588.18	61099.68
588.34	61153.52
588.49	60989.68
