SpectraSuite Data File
++++++++++++++++++++++++++++++++++++
Date: Fri Oct 25 10:47:55 EDT 2013
User: price-jones
Dark Spectrum Present: No
Reference Spectrum Present: No
Number of Sampled Component Spectra: 1
Spectrometers: USB2+H05261
Integration Time (usec): 100000 (USB2+H05261)
Spectra Averaged: 1 (USB2+H05261)
Boxcar Smoothing: 0 (USB2+H05261)
Correct for Electrical Dark: No (USB2+H05261)
Strobe/Lamp Enabled: No (USB2+H05261)
Correct for Detector Non-linearity: No (USB2+H05261)
Correct for Stray Light: No (USB2+H05261)
Number of Pixels in Processed Spectrum: 2048
>>>>>Begin Processed Spectral Data<<<<<
365.73	98.30
365.92	98.30
366.12	98.30
366.32	28.09
366.52	86.60
366.72	14.04
366.91	14.04
367.11	35.11
367.31	0.00
367.51	39.79
367.70	86.60
367.90	11.70
368.10	2.34
368.30	124.05
368.49	0.00
368.69	107.66
368.89	35.11
369.09	11.70
369.28	4.68
369.48	9.36
369.68	114.69
369.87	159.16
370.07	175.54
370.27	180.22
370.47	152.13
370.66	379.17
370.86	409.59
371.06	449.38
371.25	486.83
371.45	437.68
371.65	514.92
371.84	484.49
372.04	409.59
372.24	477.47
372.44	454.06
372.63	496.19
372.83	510.24
373.03	484.49
373.22	528.96
373.42	458.74
373.62	543.00
373.81	636.63
374.01	585.13
374.21	613.22
374.40	552.37
374.60	543.00
374.79	557.05
374.99	615.56
375.19	533.64
375.38	636.63
375.58	603.86
375.78	606.20
375.97	496.19
376.17	622.58
376.37	582.79
376.56	582.79
376.76	601.52
376.95	594.50
377.15	599.18
377.35	634.29
377.54	575.77
377.74	629.60
377.93	631.94
378.13	648.33
378.33	603.86
378.52	608.54
378.72	662.37
378.91	554.71
379.11	606.20
379.31	580.45
379.50	613.22
379.70	580.45
379.89	662.37
380.09	580.45
380.28	681.10
380.48	688.12
380.68	683.44
380.87	650.67
381.07	678.76
381.26	732.59
381.46	660.03
381.65	685.78
381.85	629.60
382.04	650.67
382.24	720.88
382.43	695.14
382.63	669.39
382.83	594.50
383.02	692.80
383.22	814.51
383.41	695.14
383.61	784.08
383.80	683.44
384.00	744.29
384.19	763.01
384.39	711.52
384.58	767.70
384.78	734.93
384.97	812.17
385.17	751.31
385.36	758.33
385.56	770.04
385.75	758.33
385.95	786.42
386.14	732.59
386.34	777.06
386.53	751.31
386.72	730.25
386.92	793.44
387.11	795.78
387.31	807.48
387.50	772.38
387.70	814.51
387.89	791.10
388.09	751.31
388.28	779.40
388.48	819.19
388.67	863.66
388.86	875.36
389.06	767.70
389.25	926.85
389.45	887.06
389.64	854.30
389.84	929.19
390.03	877.70
390.22	1015.79
390.42	973.66
390.61	910.47
390.81	938.55
391.00	912.81
391.19	919.83
391.39	954.94
391.58	929.19
391.78	1067.28
391.97	1011.11
392.16	987.71
392.36	1015.79
392.55	985.37
392.75	976.00
392.94	959.62
393.13	971.32
393.33	959.62
393.52	1074.31
393.71	954.94
393.91	1107.07
394.10	1050.90
394.29	1053.24
394.49	1064.94
394.68	1097.71
394.88	1130.48
395.07	1198.35
395.26	1118.78
395.46	1186.65
395.65	1114.10
395.84	1053.24
396.04	1181.97
396.23	1102.39
396.42	1167.93
396.62	1146.86
396.81	1144.52
397.00	1146.86
397.19	1165.59
397.39	1205.38
397.58	1245.16
397.77	1177.29
397.97	1291.98
398.16	1198.35
398.35	1315.38
398.55	1233.46
398.74	1275.59
398.93	1455.81
399.12	1366.87
399.32	1299.00
399.51	1301.34
399.70	1287.29
399.90	1434.75
400.09	1383.26
400.28	1420.71
400.47	1373.89
400.67	1488.58
400.86	1413.68
401.05	1399.64
401.24	1511.99
401.44	1448.79
401.63	1455.81
401.82	1530.71
402.01	1446.45
402.21	1406.66
402.40	1533.05
402.59	1530.71
402.78	1530.71
402.97	1549.43
403.17	1493.26
403.36	1577.52
403.55	1570.50
403.74	1722.63
403.93	1579.86
404.13	1629.01
404.32	1572.84
404.51	1668.80
404.70	1724.97
404.89	1607.95
405.09	1769.44
405.28	1732.00
405.47	1750.72
405.66	1806.89
405.85	1762.42
406.05	1741.36
406.24	1727.32
406.43	1853.70
406.62	1820.94
406.81	1923.92
407.00	1762.42
407.20	1839.66
407.39	1909.88
407.58	1867.75
407.77	1870.09
407.96	2005.84
408.15	1982.43
408.34	1968.39
408.54	1961.37
408.73	2062.01
408.92	2085.42
409.11	2019.88
409.30	2195.42
409.49	1926.26
409.68	2024.56
409.87	1952.01
410.07	2141.59
410.26	2162.66
410.45	2059.67
410.64	2232.87
410.83	2134.57
411.02	2200.10
411.21	2157.97
411.40	2211.81
411.59	2361.60
411.78	2385.01
411.98	2289.04
412.17	2366.28
412.36	2307.77
412.55	2422.45
412.74	2436.50
412.93	2443.52
413.12	2289.04
413.31	2532.46
413.50	2471.61
413.69	2537.14
413.88	2663.53
414.07	2541.82
414.26	2600.34
414.45	2565.23
414.64	2679.91
414.83	2668.21
415.02	2649.49
415.22	2745.45
415.41	2818.00
415.60	2722.04
415.79	2761.83
415.98	2853.11
416.17	3028.65
416.36	2766.51
416.55	2930.35
416.74	2867.16
416.93	2867.16
417.12	2916.31
417.31	2906.95
417.50	2977.16
417.69	3105.89
417.88	3145.68
418.07	3026.31
418.26	3141.00
418.45	3183.13
418.64	3136.32
418.83	3260.37
419.02	3148.02
419.21	3157.38
419.39	3213.56
419.58	3068.44
419.77	3227.60
419.96	3262.71
420.15	3318.88
420.34	3386.76
420.53	3286.11
420.72	3365.69
420.91	3375.05
421.10	3311.86
421.29	3550.59
421.48	3337.60
421.67	3459.31
421.86	3405.48
422.05	3440.59
422.24	3487.40
422.43	3405.48
422.61	3480.38
422.80	3508.46
422.99	3466.33
423.18	3520.17
423.37	3559.95
423.56	3475.70
423.75	3597.40
423.94	3513.14
424.13	3204.19
424.32	3517.83
424.50	3566.98
424.69	3672.30
424.88	3735.50
425.07	3545.91
425.26	3506.12
425.45	3618.47
425.64	3538.89
425.83	3604.42
426.01	3604.42
426.20	3513.14
426.39	3541.23
426.58	3508.46
426.77	3634.85
426.96	3611.45
427.15	3536.55
427.33	3648.90
427.52	3691.02
427.71	3775.28
427.90	3770.60
428.09	3894.65
428.28	3829.12
428.46	3808.05
428.65	3728.47
428.84	3873.59
429.03	3819.75
429.22	3712.09
429.40	3833.80
429.59	3859.54
429.78	3611.45
429.97	3543.57
430.16	3744.86
430.34	3845.50
430.53	3918.06
430.72	3894.65
430.91	3899.33
431.10	4053.81
431.28	4236.37
431.47	4313.61
431.66	4149.77
431.85	4049.13
432.03	4152.11
432.22	4262.12
432.41	4205.94
432.60	4217.65
432.79	4182.54
432.97	4273.82
433.16	4262.12
433.35	4306.59
433.54	4245.73
433.72	4212.96
433.91	4243.39
434.10	4334.67
434.28	4339.35
434.47	4325.31
434.66	4346.37
434.85	4491.49
435.03	4409.57
435.22	4390.84
435.41	4641.28
435.59	4582.77
435.78	4655.33
435.97	4645.96
436.16	4503.19
436.34	4629.58
436.53	4620.22
436.72	4816.82
436.90	4550.00
437.09	4683.41
437.28	4484.47
437.46	4762.99
437.65	4641.28
437.84	4615.54
438.02	4638.94
438.21	4540.64
438.40	4648.30
438.58	4868.31
438.77	4880.02
438.96	4802.78
439.14	4835.55
439.33	4933.85
439.52	5011.09
439.70	5179.61
439.89	5123.43
440.08	5214.71
440.26	5104.71
440.45	5289.61
440.63	5373.87
440.82	5425.36
441.01	5341.10
441.19	5392.59
441.38	5423.02
441.57	5579.84
441.75	5500.26
441.94	5692.18
442.12	5497.92
442.31	5619.63
442.50	5748.36
442.68	5673.46
442.87	5734.31
443.05	5804.53
443.24	5806.87
443.43	5783.46
443.61	5657.07
443.80	6008.16
443.98	5514.30
444.17	5518.98
444.35	5806.87
444.54	5959.00
444.73	5816.23
444.91	5664.10
445.10	5834.96
445.28	5865.38
445.47	5837.30
445.65	5753.04
445.84	5849.00
446.02	5881.77
446.21	5930.92
446.39	5900.49
446.58	5930.92
446.77	6019.86
446.95	5687.50
447.14	6076.03
447.32	6113.48
447.51	5930.92
447.69	5900.49
447.88	5951.98
448.06	5970.71
448.25	6148.59
448.43	6003.47
448.62	5989.43
448.80	6141.57
448.99	6033.90
449.17	6148.59
449.36	6015.18
449.54	6396.68
449.73	6389.66
449.91	6249.23
450.10	6532.44
450.28	6448.18
450.46	6373.28
450.65	6373.28
450.83	6415.41
451.02	6300.72
451.20	6476.26
451.39	6406.05
451.57	6312.42
451.76	6293.70
451.94	6436.47
452.13	6544.14
452.31	6480.94
452.49	6392.00
452.68	6413.07
452.86	6401.37
453.05	6553.50
453.23	6574.56
453.42	6497.33
453.60	6595.63
453.78	6614.35
453.97	6452.86
454.15	6567.54
454.34	6619.04
454.52	6750.10
454.70	6757.13
454.89	6829.68
455.07	6808.62
455.26	6698.61
455.44	6963.09
455.62	7089.48
455.81	6862.45
455.99	6956.07
456.17	7000.54
456.36	7115.23
456.54	7094.16
456.73	7215.87
456.91	7204.17
457.09	7342.26
457.28	7419.50
457.46	7206.51
457.64	7522.48
457.83	7140.97
458.01	7211.19
458.19	7218.21
458.38	7377.37
458.56	7508.44
458.74	7456.95
458.93	7459.29
459.11	7487.37
459.29	7356.30
459.48	7379.71
459.66	7705.04
459.84	7417.16
460.03	7686.32
460.21	7641.85
460.39	7803.35
460.57	7669.94
460.76	7719.09
460.94	7782.28
461.12	7602.06
461.31	7880.58
461.49	7817.39
461.67	7683.98
461.85	7887.61
462.04	7784.62
462.22	8446.99
462.40	8107.62
462.59	8002.29
462.77	7829.09
462.95	7929.74
463.13	8046.76
463.32	8119.32
463.50	8318.26
463.68	8114.64
463.86	8210.60
464.05	8013.99
464.23	8084.21
464.41	8203.58
464.59	7868.88
464.78	8203.58
464.96	8231.66
465.14	8084.21
465.32	8250.39
465.50	8327.63
465.69	8397.84
465.87	8187.19
466.05	8215.28
466.23	8414.23
466.41	8582.74
466.60	8341.67
466.78	8308.90
466.96	8334.65
467.14	8322.94
467.32	8414.23
467.51	8697.43
467.69	8147.40
467.87	8423.59
468.05	8547.64
468.23	8435.29
468.41	8540.61
468.60	8463.38
468.78	8643.60
468.96	8624.87
469.14	8800.41
469.32	8606.15
469.50	8767.65
469.69	8739.56
469.87	8891.70
470.05	8851.91
470.23	8865.95
470.41	8954.89
470.59	8992.34
470.77	8915.10
470.95	9032.13
471.14	9266.18
471.32	9015.74
471.50	9369.16
471.68	9331.72
471.86	9373.85
472.04	9432.36
472.22	9582.15
472.40	9324.69
472.58	9469.81
472.77	9497.89
472.95	9671.09
473.13	9858.34
473.31	9504.92
473.49	9542.36
473.67	9584.49
473.85	9617.26
474.03	10115.80
474.21	9947.28
474.39	10052.60
474.57	10012.81
474.75	10071.33
474.93	10272.61
475.12	10061.96
475.30	10120.48
475.48	10239.84
475.66	10190.69
475.84	10406.02
476.02	10321.76
476.20	10324.10
476.38	10731.36
476.56	10740.72
476.74	10693.91
476.92	10581.56
477.10	10583.90
477.28	10958.39
477.46	10998.18
477.64	10888.17
477.82	11185.42
478.00	11337.56
478.18	11218.19
478.36	11503.73
478.54	11534.16
478.72	11726.08
478.90	11749.49
479.08	11719.06
479.26	11868.86
479.44	11939.07
479.62	11997.59
479.80	12161.42
479.98	12149.72
480.16	12493.78
480.34	12236.32
480.52	12608.47
480.70	12461.01
480.88	12517.18
481.06	12676.34
481.24	12837.84
481.41	12842.52
481.59	12905.71
481.77	12947.84
481.95	13174.88
482.13	13158.49
482.31	13202.96
482.49	13507.23
482.67	13523.62
482.85	13645.32
483.03	13830.23
483.21	13806.82
483.39	14001.08
483.57	14059.60
483.74	14377.91
483.92	14303.01
484.10	14216.41
484.28	14314.72
484.46	14663.46
484.64	15037.94
484.82	14684.52
485.00	14946.66
485.18	15084.75
485.35	15033.26
485.53	15051.99
485.71	15173.69
485.89	15377.32
486.07	15241.57
486.25	15386.68
486.43	15662.86
486.61	15651.16
486.78	15948.41
486.96	15896.92
487.14	16091.18
487.32	16119.27
487.50	16521.84
487.68	16402.47
487.85	16566.31
488.03	16973.56
488.21	16854.20
488.39	16893.99
488.57	17252.09
488.75	17048.46
488.92	17497.84
489.10	17731.90
489.28	17926.16
489.46	17783.39
489.64	18111.07
489.81	18221.07
489.99	18415.34
490.17	18492.57
490.35	18520.66
490.53	18408.31
490.70	18656.41
490.88	18707.90
491.06	18958.34
491.24	19225.16
491.41	18991.11
491.59	19248.57
491.77	19236.86
491.95	19372.61
492.13	19679.22
492.30	19709.65
492.48	20231.59
492.66	20201.16
492.84	19903.92
493.01	20023.28
493.19	20320.53
493.37	20805.02
493.54	20547.56
493.72	21008.65
493.90	20760.55
494.08	21003.97
494.25	21113.97
494.43	21345.69
494.61	21633.57
494.79	21343.35
494.96	21350.37
495.14	21333.98
495.32	21965.93
495.49	21671.02
495.67	21825.50
495.85	21813.79
496.02	22197.64
496.20	22419.99
496.38	22665.75
496.55	22649.36
496.73	22766.39
496.91	22923.21
497.09	22780.43
497.26	23117.47
497.44	23056.62
497.62	23136.20
497.79	23873.46
497.97	23030.87
498.14	23412.38
498.32	23754.10
498.50	23889.85
498.67	24011.56
498.85	24044.32
499.03	24311.14
499.20	24322.85
499.38	24458.60
499.56	24772.23
499.73	24624.78
499.91	24259.65
500.08	24687.97
500.26	24252.63
500.44	24577.97
500.61	24915.00
500.79	24472.64
500.97	25144.38
501.14	25289.49
501.32	25057.78
501.49	25163.10
501.67	25366.73
501.84	25738.87
502.02	25256.72
502.20	25521.20
502.37	25839.51
502.55	25788.02
502.72	25490.77
502.90	25851.22
503.07	25841.85
503.25	25940.16
503.43	26134.42
503.60	26572.10
503.78	26333.37
503.95	26232.72
504.13	26639.98
504.30	26658.70
504.48	26658.70
504.65	26560.40
504.83	26913.82
505.01	27012.12
505.18	26888.07
505.36	26946.59
505.53	26909.14
505.71	27318.73
505.88	27412.35
506.06	27302.35
506.23	27454.48
506.41	27466.19
506.58	27477.89
506.76	27800.88
506.93	28037.28
507.11	27960.04
507.28	27852.38
507.46	28250.27
507.63	27707.26
507.81	28114.52
507.98	28142.60
508.16	28137.92
508.33	28421.13
508.50	28540.49
508.68	28680.92
508.85	29097.54
509.03	28968.81
509.20	28821.36
509.38	28947.75
509.55	28996.90
509.73	29158.39
509.90	29130.31
510.08	29207.55
510.25	29376.06
510.42	29572.67
510.60	29558.63
510.77	29710.76
510.95	29745.87
511.12	29991.62
511.30	30225.68
511.47	30211.64
511.64	30190.57
511.82	30057.16
511.99	29890.98
512.17	30253.76
512.34	29975.24
512.51	30562.72
512.69	30455.05
512.86	30494.84
513.04	30752.30
513.21	30843.58
513.38	30176.53
513.56	30597.82
513.73	30506.54
513.90	30792.09
514.08	30813.15
514.25	30857.62
514.43	31103.38
514.60	31101.04
514.77	31307.01
514.95	31271.90
515.12	31126.78
515.29	31864.05
515.47	31487.23
515.64	31695.53
515.81	31302.32
515.99	31889.80
516.16	31374.88
516.33	31721.28
516.51	31976.40
516.68	31428.71
516.85	31681.49
517.03	31613.62
517.20	32217.47
517.37	32088.74
517.54	32746.44
517.72	32140.24
517.89	32250.24
518.06	32123.85
518.24	32053.64
518.41	32353.23
518.58	32573.24
518.75	32313.44
518.93	32886.87
519.10	32402.38
519.27	32886.87
519.45	32617.71
519.62	33296.46
519.79	32936.02
519.96	33081.13
520.14	33359.66
520.31	33315.19
520.48	33565.62
520.65	33202.84
520.83	33844.15
521.00	33619.46
521.17	33589.03
521.34	33923.72
521.52	33914.36
521.69	33792.65
521.86	33357.32
522.03	34380.13
522.20	34314.59
522.38	34192.89
522.55	34099.26
522.72	34422.26
522.89	33996.28
523.07	34291.19
523.24	34293.53
523.41	34338.00
523.58	34522.90
523.75	35042.50
523.92	35049.52
524.10	34836.53
524.27	35133.78
524.44	34941.86
524.61	35150.17
524.78	35253.15
524.96	35276.55
525.13	35136.12
525.30	35622.95
525.47	35590.19
525.64	35178.25
525.81	35613.59
525.98	35679.13
526.16	35534.01
526.33	35468.48
526.50	35777.43
526.67	35030.80
526.84	35571.46
527.01	35192.30
527.18	35796.15
527.36	35779.77
527.53	35955.31
527.70	36416.40
527.87	36341.50
528.04	35672.10
528.21	36072.34
528.38	36023.19
528.55	36285.33
528.72	36451.50
528.89	36875.14
529.07	36587.25
529.24	36435.12
529.41	36498.31
529.58	36549.81
529.75	36655.13
529.92	36425.76
530.09	36645.77
530.26	37003.87
530.43	37034.30
530.60	37046.00
530.77	36680.88
530.94	37528.15
531.11	36856.42
531.28	37186.43
531.46	37006.21
531.63	37160.69
531.80	37109.19
531.97	37572.62
532.14	37242.60
532.31	36982.80
532.48	37380.70
532.65	37113.87
532.82	37294.10
532.99	37502.40
533.16	37460.27
533.33	37912.00
533.50	37794.97
533.67	37736.46
533.84	37436.87
534.01	37610.07
534.18	37570.28
534.35	38576.71
534.52	37738.80
534.69	38108.60
534.86	38340.32
535.03	37783.27
535.20	38195.20
535.37	38536.92
535.54	38553.30
535.71	38302.87
535.88	38698.42
536.05	38637.56
536.22	38698.42
536.38	38457.34
536.55	38745.23
536.72	38494.79
536.89	38536.92
537.06	38466.70
537.23	38768.63
537.40	39131.42
537.57	38857.57
537.74	38815.44
537.91	39353.77
538.08	38801.40
538.25	38808.42
538.42	38972.26
538.59	39304.62
538.75	39063.54
538.92	39159.50
539.09	39171.21
539.26	39276.53
539.43	39571.44
539.60	39304.62
539.77	38955.88
539.94	39428.66
540.11	39594.84
540.28	39562.08
540.44	39358.45
540.61	39409.94
540.78	39082.27
540.95	39138.44
541.12	39297.59
541.29	39765.70
541.46	39655.70
541.62	39796.13
541.79	40013.80
541.96	39639.31
542.13	40198.70
542.30	39611.23
542.47	40229.13
542.63	39810.17
542.80	40449.14
542.97	40119.12
543.14	40659.79
543.31	40268.92
543.48	40554.46
543.64	40910.22
543.81	40701.92
543.98	40332.11
544.15	40334.45
544.32	40547.44
544.48	40933.63
544.65	40502.97
544.82	40893.84
544.99	40528.72
545.16	40994.48
545.32	40636.38
545.49	40879.80
545.66	41464.93
545.83	40945.33
546.00	41289.39
546.16	41254.28
546.33	41104.49
546.50	40706.60
546.67	41212.15
546.83	40502.97
547.00	41165.34
547.17	40935.97
547.34	41614.72
547.50	41333.86
547.67	41542.17
547.84	41329.18
548.00	42007.94
548.17	41598.34
548.34	41453.23
548.51	41631.11
548.67	41680.26
548.84	42260.71
549.01	41486.00
549.18	41446.21
549.34	41598.34
549.51	42171.77
549.68	42047.72
549.84	41998.57
550.01	42202.20
550.18	42181.13
550.34	42087.51
550.51	42092.19
550.68	41642.81
550.84	42059.43
551.01	42497.11
551.18	42239.65
551.34	42288.80
551.51	42045.38
551.68	42169.43
551.84	42045.38
552.01	42033.68
552.18	42253.69
552.34	41858.14
552.51	42632.86
552.68	42089.85
552.84	42728.82
553.01	42534.56
553.18	42101.56
553.34	42274.76
553.51	42436.25
553.67	42553.28
553.84	43164.16
554.01	43335.02
554.17	43145.44
554.34	42712.44
554.51	42651.58
554.67	42993.30
554.84	43026.07
555.00	42560.30
555.17	42721.80
555.33	43185.22
555.50	42731.16
555.67	42995.64
555.83	42724.14
556.00	42951.17
556.16	43578.43
556.33	43150.12
556.50	43540.99
556.66	43077.56
556.83	42829.46
556.99	43601.84
557.16	43449.70
557.32	43285.87
557.49	43157.14
557.65	42841.17
557.82	43239.06
557.98	43292.89
558.15	42981.60
558.32	43269.48
558.48	43037.77
558.65	43269.48
558.81	43260.12
558.98	43098.62
559.14	43524.60
559.31	43323.32
559.47	43480.13
559.64	43943.56
559.80	43625.25
559.97	43742.27
560.13	43295.23
560.30	43543.33
560.46	43559.71
560.63	43871.00
560.79	43636.95
560.96	43945.90
561.12	43388.85
561.29	43667.37
561.45	43409.92
561.61	43622.90
561.78	43430.98
561.94	43536.30
562.11	43398.21
562.27	43945.90
562.44	43510.56
562.60	44004.41
562.77	44172.93
562.93	43592.48
563.10	43917.81
563.26	43753.97
563.42	44093.35
563.59	44116.76
563.75	43576.09
563.92	44231.44
564.08	44102.71
564.24	44065.27
564.41	44184.63
564.57	44060.58
564.74	44121.44
564.90	43856.96
565.07	44259.53
565.23	43849.94
565.39	43856.96
565.56	44516.99
565.72	44245.49
565.88	43765.68
566.05	43906.11
566.21	44105.06
566.38	43686.10
566.54	44133.14
566.70	44556.78
566.87	44701.89
567.03	44158.89
567.19	44465.50
567.36	44397.62
567.52	43997.39
567.68	44514.65
567.85	44128.46
568.01	44509.97
568.17	43906.11
568.34	44189.31
568.50	44252.51
568.66	44442.09
568.83	44498.26
568.99	44086.33
569.15	43922.49
569.32	44374.22
569.48	44076.97
569.64	44683.17
569.81	44634.02
569.97	44051.22
570.13	44467.84
570.30	43952.92
570.46	44257.19
570.62	44037.18
570.78	44130.80
570.95	44074.63
571.11	44678.49
571.27	44325.07
571.43	44245.49
571.60	44252.51
571.76	44669.12
571.92	44378.90
572.09	44493.58
572.25	44282.94
572.41	44708.91
572.57	44350.81
572.74	45139.57
572.90	44657.42
573.06	44432.73
573.22	44495.92
573.38	44554.44
573.55	44165.91
573.71	44683.17
573.87	44252.51
574.03	44332.09
574.20	44500.61
574.36	44446.77
574.52	44629.34
574.68	44760.40
574.84	44722.96
575.01	44865.73
575.17	43966.96
575.33	44601.25
575.49	44498.26
575.65	44701.89
575.82	44931.26
575.98	44790.83
576.14	44772.11
576.30	44790.83
576.46	44423.37
576.62	44690.19
576.79	44254.85
576.95	44453.79
577.11	44444.43
577.27	44526.35
577.43	44598.91
577.59	44334.43
577.75	44472.52
577.92	44486.56
578.08	44304.00
578.24	44383.58
578.40	44378.90
578.56	44151.87
578.72	44797.85
578.88	44470.18
579.04	44875.09
579.21	44275.91
579.37	44575.50
579.53	44512.31
579.69	44608.27
579.85	44596.57
580.01	44467.84
580.17	44521.67
580.33	44774.45
580.49	45010.84
580.65	44748.70
580.82	44659.76
580.98	44645.72
581.14	44626.99
581.30	45027.23
581.46	44861.05
581.62	44619.97
581.78	44549.76
581.94	44758.06
582.10	44856.37
582.26	44737.00
582.42	44531.03
582.58	45031.91
582.74	44641.04
582.90	44353.15
583.06	44985.10
583.22	44587.21
583.38	45607.68
583.54	44891.48
583.70	44428.05
583.86	44683.17
584.02	44605.93
584.18	45078.72
584.34	44851.69
584.50	44945.31
584.66	45013.18
584.82	45027.23
584.98	44821.26
585.14	44828.28
585.30	44690.19
585.46	45125.53
585.62	44278.25
585.78	44612.95
585.94	44573.16
586.10	44662.10
586.26	44624.65
586.42	45148.93
586.58	45214.47
586.74	45013.18
586.90	44926.58
587.06	44631.68
587.22	45546.82
587.38	44573.16
587.54	44746.36
587.70	45132.55
587.86	44711.25
588.02	44657.42
588.18	44748.70
588.34	44502.95
588.49	44741.68
588.65	44299.32
588.81	44353.15
588.97	44725.30
589.13	44512.31
589.29	44711.25
589.45	45181.70
589.61	44999.14
589.77	44722.96
589.93	44957.01
590.08	45097.44
590.24	45336.18
