SpectraSuite Data File
++++++++++++++++++++++++++++++++++++
Date: Fri Oct 25 11:23:14 EDT 2013
User: price-jones
Dark Spectrum Present: No
Reference Spectrum Present: No
Number of Sampled Component Spectra: 1
Spectrometers: USB2+H05261
Integration Time (usec): 100000 (USB2+H05261)
Spectra Averaged: 1 (USB2+H05261)
Boxcar Smoothing: 0 (USB2+H05261)
Correct for Electrical Dark: No (USB2+H05261)
Strobe/Lamp Enabled: No (USB2+H05261)
Correct for Detector Non-linearity: No (USB2+H05261)
Correct for Stray Light: No (USB2+H05261)
Number of Pixels in Processed Spectrum: 2048
>>>>>Begin Processed Spectral Data<<<<<
365.73	285.55
365.92	285.55
366.12	285.55
366.32	189.58
366.52	166.18
366.72	184.90
366.91	105.32
367.11	175.54
367.31	35.11
367.51	105.32
367.70	110.01
367.90	208.31
368.10	84.26
368.30	112.35
368.49	154.48
368.69	135.75
368.89	138.09
369.09	135.75
369.28	110.01
369.48	133.41
369.68	168.52
369.87	187.24
370.07	159.16
370.27	217.67
370.47	304.27
370.66	571.09
370.86	648.33
371.06	660.03
371.25	662.37
371.45	582.79
371.65	641.31
371.84	610.88
372.04	760.67
372.24	648.33
372.44	746.63
372.63	711.52
372.83	767.70
373.03	807.48
373.22	713.86
373.42	772.38
373.62	763.01
373.81	716.20
374.01	882.38
374.21	751.31
374.40	826.21
374.60	774.72
374.79	758.33
374.99	908.13
375.19	791.10
375.38	772.38
375.58	856.64
375.78	826.21
375.97	835.57
376.17	842.59
376.37	947.92
376.56	943.24
376.76	800.46
376.95	849.61
377.15	938.55
377.35	875.36
377.54	791.10
377.74	943.24
377.93	880.04
378.13	882.38
378.33	1006.43
378.52	905.79
378.72	973.66
378.91	966.64
379.11	961.96
379.31	847.27
379.50	884.72
379.70	980.68
379.89	992.39
380.09	903.45
380.28	1043.88
380.48	943.24
380.68	966.64
380.87	954.94
381.07	999.41
381.26	1011.11
381.46	976.00
381.65	1034.52
381.85	1062.60
382.04	1060.26
382.24	1064.94
382.43	1081.33
382.63	1043.88
382.83	1029.84
383.02	1076.65
383.22	1067.28
383.41	1071.97
383.61	1153.88
383.80	1130.48
384.00	1104.73
384.19	1025.15
384.39	1153.88
384.58	1114.10
384.78	1165.59
384.97	1114.10
385.17	1238.14
385.36	1102.39
385.56	1186.65
385.75	1128.14
385.95	1121.12
386.14	1210.06
386.34	1137.50
386.53	1289.64
386.72	1235.80
386.92	1275.59
387.11	1320.06
387.31	1217.08
387.50	1263.89
387.70	1303.68
387.89	1268.57
388.09	1245.16
388.28	1203.04
388.48	1331.76
388.67	1355.17
388.86	1336.45
389.06	1390.28
389.25	1399.64
389.45	1383.26
389.64	1373.89
389.84	1366.87
390.03	1364.53
390.22	1359.85
390.42	1397.30
390.61	1313.04
390.81	1413.68
391.00	1418.36
391.19	1467.52
391.39	1460.49
391.58	1420.71
391.78	1434.75
391.97	1526.03
392.16	1495.60
392.36	1514.33
392.55	1582.20
392.75	1563.48
392.94	1556.46
393.13	1526.03
393.33	1572.84
393.52	1493.26
393.71	1614.97
393.91	1490.92
394.10	1495.60
394.29	1652.42
394.49	1675.82
394.68	1671.14
394.88	1605.61
395.07	1713.27
395.26	1624.33
395.46	1666.46
395.65	1694.55
395.84	1776.47
396.04	1720.29
396.23	1781.15
396.42	1621.99
396.62	1771.79
396.81	1778.81
397.00	1750.72
397.19	1853.70
397.39	1783.49
397.58	1874.77
397.77	1851.36
397.97	1856.04
398.16	1919.24
398.35	1792.85
398.55	1898.17
398.74	1947.33
398.93	1928.60
399.12	1832.64
399.32	1942.64
399.51	1937.96
399.70	2003.50
399.90	2008.18
400.09	2069.03
400.28	2003.50
400.47	2092.44
400.67	2052.65
400.86	2099.46
401.05	2104.14
401.24	2167.34
401.44	2083.08
401.63	2179.04
401.82	2216.49
402.01	2139.25
402.21	2277.34
402.40	2054.99
402.59	2179.04
402.78	2174.36
402.97	2296.07
403.17	2380.32
403.36	2293.72
403.55	2204.78
403.74	2300.75
403.93	2326.49
404.13	2417.77
404.32	2366.28
404.51	2396.71
404.70	2410.75
404.89	2408.41
405.09	2340.54
405.28	2516.08
405.47	2497.35
405.66	2574.59
405.85	2534.80
406.05	2579.27
406.24	2590.97
406.43	2530.12
406.62	2574.59
406.81	2761.83
407.00	2469.27
407.20	2546.50
407.39	2668.21
407.58	2675.23
407.77	2761.83
407.96	2722.04
408.15	2834.39
408.34	2612.04
408.54	2878.86
408.73	2780.56
408.92	2876.52
409.11	2869.50
409.30	2958.44
409.49	2892.90
409.68	2892.90
409.87	3042.70
410.07	3098.87
410.26	3021.63
410.45	3075.46
410.64	2998.23
410.83	3035.67
411.02	3108.23
411.21	3215.90
411.40	3152.70
411.59	3274.41
411.78	3258.03
411.98	3258.03
412.17	3311.86
412.36	3368.03
412.55	3279.09
412.74	3496.76
412.93	3391.44
413.12	3356.33
413.31	3639.53
413.50	3468.67
413.69	3555.27
413.88	3592.72
414.07	3515.48
414.26	3686.34
414.45	3679.32
414.64	3892.31
414.83	3693.37
415.02	3840.82
415.22	3831.46
415.41	3829.12
415.60	3908.69
415.79	3988.27
415.98	3946.14
416.17	3906.35
416.36	3978.91
416.55	4042.11
416.74	4070.19
416.93	4046.79
417.12	4201.26
417.31	4095.94
417.50	4138.07
417.69	4117.00
417.88	4264.46
418.07	4353.40
418.26	4393.19
418.45	4456.38
418.64	4362.76
418.83	4442.34
419.02	4482.13
419.21	4589.79
419.39	4624.90
419.58	4624.90
419.77	4440.00
419.96	4589.79
420.15	4643.62
420.34	4550.00
420.53	4718.52
420.72	4699.80
420.91	4624.90
421.10	4767.67
421.29	4723.20
421.48	4746.61
421.67	4589.79
421.86	4994.70
422.05	4894.06
422.24	4983.00
422.43	4933.85
422.61	5006.41
422.80	5057.90
422.99	5090.67
423.18	5027.47
423.37	5090.67
423.56	4985.34
423.75	5057.90
423.94	4823.84
424.13	4683.41
424.32	4786.40
424.50	4990.02
424.69	5172.58
424.88	4985.34
425.07	4870.65
425.26	4905.76
425.45	5034.49
425.64	5039.17
425.83	5022.79
426.01	5252.16
426.20	5146.84
426.39	5172.58
426.58	5039.17
426.77	5195.99
426.96	5029.81
427.15	5195.99
427.33	5280.25
427.52	5401.96
427.71	5329.40
427.90	5240.46
428.09	5392.59
428.28	5420.68
428.46	5364.51
428.65	5455.79
428.84	5547.07
429.03	5411.32
429.22	5355.15
429.40	5413.66
429.59	5561.11
429.78	5467.49
429.97	5392.59
430.16	5383.23
430.34	5729.63
430.53	5741.33
430.72	5804.53
430.91	5762.40
431.10	5540.05
431.28	5792.83
431.47	5902.83
431.66	5844.32
431.85	5881.77
432.03	5954.32
432.22	6061.99
432.41	6190.72
432.60	5975.39
432.79	5837.30
432.97	6092.41
433.16	6150.93
433.35	6026.88
433.54	6232.85
433.72	6204.76
433.91	6157.95
434.10	6120.50
434.28	6017.52
434.47	6169.65
434.66	6445.84
434.85	6303.06
435.03	6392.00
435.22	6242.21
435.41	6459.88
435.59	6473.92
435.78	6530.09
435.97	6438.81
436.16	6586.27
436.34	6649.46
436.53	6642.44
436.72	6684.57
436.90	6569.88
437.09	6539.46
437.28	6511.37
437.46	6752.45
437.65	6579.25
437.84	6923.30
438.02	6733.72
438.21	6808.62
438.40	6621.38
438.58	7000.54
438.77	7222.89
438.96	7028.63
439.14	7220.55
439.33	7220.55
439.52	7236.94
439.70	7375.03
439.89	7339.92
440.08	7396.09
440.26	7452.27
440.45	7349.28
440.63	7597.38
440.82	7538.87
441.01	7566.95
441.19	7623.12
441.38	7693.34
441.57	7758.88
441.75	7613.76
441.94	8072.51
442.12	7915.69
442.31	8114.64
442.50	7960.16
442.68	8025.70
442.87	8039.74
443.05	8116.98
443.24	8009.31
443.43	8255.07
443.61	8367.42
443.80	8351.03
443.98	8112.30
444.17	7967.18
444.35	8222.30
444.54	8252.73
444.73	8219.96
444.91	8360.39
445.10	8507.85
445.28	8437.63
445.47	8318.26
445.65	8423.59
445.84	8334.65
446.02	8610.83
446.21	8582.74
446.39	8439.97
446.58	8580.40
446.77	8519.55
446.95	8372.10
447.14	8437.63
447.32	8784.03
447.51	8552.32
447.69	8702.11
447.88	8571.04
448.06	8615.51
448.25	8592.11
448.43	8559.34
448.62	8589.77
448.80	8667.00
448.99	8795.73
449.17	8667.00
449.36	8624.87
449.54	9008.72
449.73	9060.21
449.91	9238.09
450.10	9015.74
450.28	9287.25
450.46	9312.99
450.65	9041.49
450.83	9273.20
451.02	9118.73
451.20	9397.25
451.39	9156.18
451.57	9179.58
451.76	9142.13
451.94	9249.80
452.13	9488.53
452.31	9303.63
452.49	9322.35
452.68	9256.82
452.86	9343.42
453.05	9544.70
453.23	9535.34
453.42	9654.71
453.60	9591.52
453.78	9554.07
453.97	9540.02
454.15	9511.94
454.34	9341.08
454.52	9790.46
454.70	9647.69
454.89	9949.62
455.07	9738.97
455.26	9907.49
455.44	10146.22
455.62	10029.20
455.81	9916.85
455.99	9940.26
456.17	10314.74
456.36	10256.23
456.54	10237.50
456.73	10333.47
456.91	10581.56
457.09	10434.11
457.28	10740.72
457.46	10396.66
457.64	10810.93
457.83	10654.12
458.01	10394.32
458.19	10747.74
458.38	10546.45
458.56	10862.43
458.74	10906.90
458.93	10951.37
459.11	10808.59
459.29	10696.25
459.48	10881.15
459.66	11061.37
459.84	11044.99
460.03	11276.70
460.21	10965.41
460.39	11056.69
460.57	11213.51
460.76	11052.01
460.94	11468.62
461.12	11194.78
461.31	11365.64
461.49	11328.19
461.67	11346.92
461.85	11646.51
462.04	11243.93
462.22	11576.29
462.40	11580.97
462.59	11669.91
462.77	11417.13
462.95	11754.17
463.13	11503.73
463.32	12049.08
463.50	11918.01
463.68	12145.04
463.86	11927.37
464.05	11648.85
464.23	11798.64
464.41	12016.31
464.59	11840.77
464.78	12297.17
464.96	12149.72
465.14	12018.65
465.32	12053.76
465.50	12189.51
465.69	12308.88
465.87	12109.93
466.05	12299.52
466.23	12257.39
466.41	12369.73
466.60	12603.78
466.78	12138.02
466.96	12343.99
467.14	12402.50
467.32	12573.36
467.51	12631.87
467.69	12301.86
467.87	12652.94
468.05	12549.95
468.23	12475.06
468.41	12702.09
468.60	12580.38
468.78	12903.37
468.96	12681.02
469.14	12987.63
469.32	13181.90
469.50	12755.92
469.69	13458.08
469.87	13231.05
470.05	13261.48
470.23	13287.22
470.41	13312.97
470.59	13453.40
470.77	13434.68
470.95	13378.50
471.14	13558.72
471.32	13170.19
471.50	13884.06
471.68	13706.18
471.86	13818.52
472.04	13701.50
472.22	14115.77
472.40	13678.09
472.58	14274.93
472.77	14106.41
472.95	14413.02
473.13	14574.52
473.31	14064.28
473.49	14321.74
473.67	14403.66
473.85	14354.51
474.03	14864.74
474.21	14963.04
474.39	14628.35
474.57	15089.43
474.75	15037.94
474.93	14995.81
475.12	15023.90
475.30	15211.14
475.48	15374.98
475.66	15374.98
475.84	15372.64
476.02	15639.46
476.20	15515.41
476.38	15910.96
476.56	16182.46
476.74	16259.70
476.92	15840.75
477.10	15925.00
477.28	16484.39
477.46	16407.16
477.64	16617.80
477.82	16762.92
478.00	16968.88
478.18	16697.38
478.36	17200.60
478.54	17420.61
478.72	17291.88
478.90	17448.69
479.08	17956.59
479.26	17783.39
479.44	17855.95
479.62	18075.96
479.80	17987.02
479.98	18515.98
480.16	18661.09
480.34	18473.85
480.52	19005.15
480.70	18558.11
480.88	18279.58
481.06	18822.59
481.24	19126.86
481.41	19377.30
481.59	19566.88
481.77	19899.23
481.95	19885.19
482.13	20088.82
482.31	19857.10
482.49	20453.94
482.67	20517.14
482.85	20577.99
483.03	20903.32
483.21	21003.97
483.39	21362.07
483.57	20959.50
483.74	21504.84
483.92	21762.30
484.10	21755.28
484.28	21792.73
484.46	22092.32
484.64	22448.08
484.82	22286.58
485.00	22750.01
485.18	22820.22
485.35	23136.20
485.53	23222.80
485.71	23009.81
485.89	23536.43
486.07	23543.45
486.25	23810.27
486.43	23873.46
486.61	24173.05
486.78	24187.10
486.96	24575.62
487.14	24802.66
487.32	25039.05
487.50	24905.64
487.68	25338.64
487.85	25453.33
488.03	25937.82
488.21	25823.13
488.39	26045.48
488.57	26590.83
488.75	26452.73
488.92	26525.29
489.10	27199.37
489.28	26988.72
489.46	27150.21
489.64	27175.96
489.81	27777.48
489.99	28381.34
490.17	27875.78
490.35	28657.52
490.53	28631.77
490.70	28622.41
490.88	28650.50
491.06	28800.29
491.24	29315.21
491.41	28856.46
491.59	29968.22
491.77	29668.63
491.95	29970.56
492.13	30082.91
492.30	30223.34
492.48	30457.39
492.66	30401.22
492.84	30295.89
493.01	31021.46
493.19	30913.80
493.37	31562.12
493.54	31615.96
493.72	31929.59
493.90	31681.49
494.08	32182.37
494.25	32439.82
494.43	32334.50
494.61	32793.25
494.79	32781.54
494.96	32781.54
495.14	33340.93
495.32	33474.34
495.49	33362.00
495.67	33743.50
495.85	33771.59
496.02	33689.67
496.20	34403.53
496.38	34637.59
496.55	34637.59
496.73	35117.40
496.91	35005.05
497.09	35463.80
497.26	35339.75
497.44	35325.71
497.62	36112.13
497.79	35875.73
497.97	35842.96
498.14	36187.02
498.32	36917.27
498.50	36690.24
498.67	37017.91
498.85	36957.06
499.03	37043.66
499.20	37226.22
499.38	37589.00
499.56	37151.32
499.73	37399.42
499.91	37958.81
500.08	38223.29
500.26	37574.96
500.44	37977.53
500.61	38398.83
500.79	38209.25
500.97	38455.00
501.14	39138.44
501.32	38967.58
501.49	38904.38
501.67	38904.38
501.84	39283.55
502.02	39388.88
502.20	39061.20
502.37	39695.49
502.55	39751.66
502.72	39992.73
502.90	39957.63
503.07	40245.51
503.25	40245.51
503.43	40208.06
503.60	40690.21
503.78	40552.12
503.95	41270.67
504.13	40847.03
504.30	41055.34
504.48	41048.32
504.65	41024.91
504.83	41518.76
505.01	41368.97
505.18	41626.43
505.36	42029.00
505.53	41670.90
505.71	42225.60
505.88	42185.82
506.06	42054.75
506.23	42426.89
506.41	41848.78
506.58	42829.46
506.76	42541.58
506.93	42483.06
507.11	42581.37
507.28	42642.22
507.46	42944.15
507.63	43363.11
507.81	43491.83
507.98	43136.07
508.16	43189.91
508.33	43828.87
508.50	44245.49
508.68	43849.94
508.85	43859.30
509.03	44243.15
509.20	44570.82
509.38	44708.91
509.55	44130.80
509.73	44924.24
509.90	45153.62
510.08	44851.69
510.25	45354.90
510.42	45188.72
510.60	45202.77
510.77	45752.79
510.95	45584.27
511.12	45418.10
511.30	45682.58
511.47	45872.16
511.64	46103.87
511.82	46459.63
511.99	46169.41
512.17	46316.86
512.34	46525.17
512.51	46801.35
512.69	46719.43
512.86	46799.01
513.04	47047.11
513.21	47283.50
513.38	46855.18
513.56	47653.31
513.73	47374.78
513.90	47468.40
514.08	47346.70
514.25	47320.95
514.43	47882.68
514.60	47866.30
514.77	47784.38
514.95	47969.28
515.12	48098.01
515.29	48289.93
515.47	48355.47
515.64	48437.39
515.81	48287.59
515.99	48912.52
516.16	48809.53
516.33	48748.68
516.51	48720.59
516.68	49085.72
516.85	48619.95
517.03	49279.98
517.20	49443.82
517.37	49106.78
517.54	49069.33
517.72	48804.85
517.89	49591.27
518.06	49305.73
518.24	49560.84
518.41	49759.79
518.58	49677.87
518.75	49439.14
518.93	50174.06
519.10	49869.79
519.27	50150.66
519.45	50246.62
519.62	50604.72
519.79	50518.12
519.96	50447.91
520.14	50450.25
520.31	50644.51
520.48	50780.26
520.65	50686.64
520.83	51398.16
521.00	51124.32
521.17	50857.50
521.34	50883.25
521.52	51033.04
521.69	50920.70
521.86	51545.62
522.03	51517.53
522.20	51683.71
522.38	51943.51
522.55	51681.37
522.72	51580.73
522.89	51814.78
523.07	52069.90
523.24	51971.60
523.41	51927.13
523.58	51929.47
523.75	52261.82
523.92	51964.57
524.10	52102.67
524.27	52449.06
524.44	52261.82
524.61	52516.94
524.78	52430.34
524.96	52643.33
525.13	52776.74
525.30	52779.08
525.47	52741.63
525.64	52877.38
525.81	52945.26
525.98	52882.06
526.16	52804.83
526.33	53118.46
526.50	53298.68
526.67	53202.72
526.84	53254.21
527.01	53146.54
527.18	52926.53
527.36	53432.09
527.53	53385.28
527.70	53525.71
527.87	53614.65
528.04	53539.75
528.21	53759.76
528.38	53549.12
528.55	53825.30
528.72	53652.10
528.89	53872.11
529.07	53546.78
529.24	53649.76
529.41	53691.89
529.58	53881.47
529.75	53989.14
529.92	54150.63
530.09	54457.24
530.26	54342.56
530.43	54361.28
530.60	54042.97
530.77	54160.00
530.94	54387.03
531.11	54492.35
531.28	54447.88
531.46	54644.49
531.63	54337.88
531.80	54398.73
531.97	54862.16
532.14	54686.62
532.31	54684.28
532.48	54904.29
532.65	54834.07
532.82	54616.40
532.99	55035.36
533.16	54616.40
533.33	55386.44
533.50	55187.49
533.67	55011.95
533.84	54827.05
534.01	55257.71
534.18	55365.37
534.35	55569.00
534.52	55316.22
534.69	55693.05
534.86	55716.45
535.03	55510.49
535.20	55456.65
535.37	55545.59
535.54	55742.20
535.71	55407.50
535.88	55604.11
536.05	55756.24
536.22	55922.42
536.38	55840.50
536.55	55997.32
536.72	55931.78
536.89	55891.99
537.06	55800.71
537.23	55845.18
537.40	56051.15
537.57	55793.69
537.74	56065.19
537.91	56179.88
538.08	56025.40
538.25	55831.14
538.42	56222.01
538.59	56381.16
538.75	56076.90
538.92	56427.98
539.09	56474.79
539.26	56474.79
539.43	56313.29
539.60	56383.51
539.77	56451.38
539.94	56725.22
540.11	56491.17
540.28	56615.22
540.44	56540.32
540.61	56879.70
540.78	56547.34
540.95	56809.48
541.12	56505.21
541.29	56800.12
541.46	56743.95
541.62	57020.13
541.79	56968.64
541.96	56640.96
542.13	56875.02
542.30	56898.42
542.47	57233.12
542.63	56980.34
542.80	57364.19
542.97	57373.55
543.14	57317.38
543.31	57549.09
543.48	57258.87
543.64	57766.76
543.81	57361.85
543.98	57485.90
544.15	57668.46
544.32	57804.21
544.48	57897.83
544.65	57654.42
544.82	57609.95
544.99	57614.63
545.16	57890.81
545.32	57696.55
545.49	58038.26
545.66	57932.94
545.83	57780.81
546.00	57977.41
546.16	58047.63
546.33	58056.99
546.50	57635.69
546.67	57930.60
546.83	57696.55
547.00	58059.33
547.17	58164.65
547.34	58209.12
547.50	58253.59
547.67	58372.96
547.84	58274.66
548.00	58536.80
548.17	58604.67
548.34	58534.46
548.51	58576.59
548.67	58424.45
548.84	58389.34
549.01	58337.85
549.18	58426.79
549.34	58487.65
549.51	58728.72
549.68	58527.44
549.84	58562.54
550.01	58719.36
550.18	58710.00
550.34	58740.42
550.51	58607.01
550.68	58714.68
550.84	58326.15
551.01	58681.91
551.18	58941.71
551.34	58721.70
551.51	58918.31
551.68	58850.43
551.84	58869.15
552.01	58714.68
552.18	59025.97
552.34	58817.66
552.51	59054.06
552.68	58651.48
552.84	59035.33
553.01	59213.21
553.18	59082.14
553.34	59098.53
553.51	58796.60
553.67	59098.53
553.84	59009.59
554.01	59255.34
554.17	59234.28
554.34	59334.92
554.51	59208.53
554.67	59388.75
554.84	59208.53
555.00	59199.17
555.17	59126.61
555.33	59168.74
555.50	59025.97
555.67	59194.49
555.83	59489.40
556.00	59285.77
556.16	59770.26
556.33	59264.70
556.50	59426.20
556.66	59714.09
556.83	59283.43
556.99	59646.21
557.16	59814.73
557.32	59648.55
557.49	59952.82
557.65	59557.27
557.82	59671.96
557.98	59709.41
558.15	59721.11
558.32	59686.00
558.48	59676.64
558.65	59536.21
558.81	59854.52
558.98	59781.96
559.14	59770.26
559.31	59716.43
559.47	60102.62
559.64	60219.64
559.80	59880.27
559.97	59875.58
560.13	59676.64
560.30	59896.65
560.46	59695.36
560.63	59992.61
560.79	60128.36
560.96	59952.82
561.12	60135.38
561.29	60121.34
561.45	59971.55
561.61	59882.61
561.78	60116.66
561.94	59849.84
562.11	60168.15
562.27	60364.76
562.44	60189.22
562.60	60229.01
562.77	60282.84
562.93	60184.54
563.10	60114.32
563.26	60081.55
563.42	60451.36
563.59	60119.00
563.75	60294.54
563.92	60250.07
564.08	60413.91
564.24	60350.71
564.41	60231.35
564.57	60385.82
564.74	60367.10
564.90	60399.86
565.07	60207.94
565.23	60336.67
565.39	60383.48
565.56	60467.74
565.72	60247.73
565.88	60348.37
566.05	60294.54
566.21	60526.25
566.38	60430.29
566.54	60610.51
566.70	60739.24
566.87	60610.51
567.03	60369.44
567.19	60774.35
567.36	60460.72
567.52	60603.49
567.68	60694.77
567.85	60460.72
568.01	60746.26
568.17	60582.43
568.34	60788.39
568.50	60514.55
568.66	60346.03
568.83	60711.16
568.99	60556.68
569.15	60608.17
569.32	60746.26
569.48	60788.39
569.64	60734.56
569.81	60453.70
569.97	60629.24
570.13	60753.29
570.30	60570.72
570.46	60537.96
570.62	60837.54
570.78	60673.71
570.95	60687.75
571.11	60753.29
571.27	60755.63
571.43	60718.18
571.60	60849.25
571.76	60549.66
571.92	60961.59
572.09	60933.51
572.25	60821.16
572.41	60910.10
572.57	60706.47
572.74	60952.23
572.90	60949.89
573.06	61013.08
573.22	60832.86
573.38	60926.49
573.55	60849.25
573.71	61085.64
573.87	60889.04
574.03	61097.34
574.20	61020.11
574.36	60905.42
574.52	61001.38
574.68	60942.87
574.84	61048.19
575.01	60842.23
575.17	60940.53
575.33	60928.83
575.49	61003.72
575.65	61111.39
575.82	61034.15
575.98	60961.59
576.14	61008.40
576.30	61078.62
576.46	61073.94
576.62	61038.83
576.79	61116.07
576.95	60760.31
577.11	61090.32
577.27	60832.86
577.43	61013.08
577.59	61022.45
577.75	60931.17
577.92	60977.98
578.08	60893.72
578.24	61043.51
578.40	61097.34
578.56	61127.77
578.72	61109.05
578.88	61179.26
579.04	61256.50
579.21	61197.99
579.37	61223.73
579.53	61312.67
579.69	60891.38
579.85	61165.22
580.01	61137.13
580.17	60996.70
580.33	61322.04
580.49	61097.34
580.65	61127.77
580.82	61050.53
580.98	60982.66
581.14	60985.00
581.30	61240.12
581.46	61057.56
581.62	61183.94
581.78	61118.41
581.94	61254.16
582.10	61176.92
582.26	61265.86
582.42	61289.27
582.58	61197.99
582.74	61296.29
582.90	61200.33
583.06	61179.26
583.22	61116.07
583.38	60996.70
583.54	61345.44
583.70	61111.39
583.86	61298.63
584.02	61076.28
584.18	61410.98
584.34	61209.69
584.50	61043.51
584.66	61186.28
584.82	61001.38
584.98	61492.89
585.14	61352.46
585.30	61394.59
585.46	61118.41
585.62	61282.25
585.78	61298.63
585.94	61160.54
586.10	61151.18
586.26	61307.99
586.42	61474.17
586.58	61375.87
586.74	61272.88
586.90	61127.77
587.06	61195.65
587.22	61347.78
587.38	61345.44
587.54	61623.96
587.70	61399.27
587.86	61263.52
588.02	61336.08
588.18	61460.13
588.34	61254.16
588.49	61195.65
