SpectraSuite Data File
++++++++++++++++++++++++++++++++++++
Date: Fri Oct 25 10:43:28 EDT 2013
User: price-jones
Dark Spectrum Present: No
Reference Spectrum Present: No
Number of Sampled Component Spectra: 1
Spectrometers: USB2+H05261
Integration Time (usec): 100000 (USB2+H05261)
Spectra Averaged: 1 (USB2+H05261)
Boxcar Smoothing: 0 (USB2+H05261)
Correct for Electrical Dark: No (USB2+H05261)
Strobe/Lamp Enabled: No (USB2+H05261)
Correct for Detector Non-linearity: No (USB2+H05261)
Correct for Stray Light: No (USB2+H05261)
Number of Pixels in Processed Spectrum: 2048
>>>>>Begin Processed Spectral Data<<<<<
365.73	126.39
365.92	126.39
366.12	126.39
366.32	77.24
366.52	32.77
366.72	2.34
366.91	30.43
367.11	0.00
367.31	51.49
367.51	42.13
367.70	77.24
367.90	37.45
368.10	32.77
368.30	88.94
368.49	53.83
368.69	79.58
368.89	58.51
369.09	110.01
369.28	53.83
369.48	16.38
369.68	88.94
369.87	65.54
370.07	117.03
370.27	163.84
370.47	166.18
370.66	346.40
370.86	435.34
371.06	479.81
371.25	550.03
371.45	477.47
371.65	465.77
371.84	451.72
372.04	423.64
372.24	507.90
372.44	521.94
372.63	528.96
372.83	465.77
373.03	454.06
373.22	367.46
373.42	498.53
373.62	479.81
373.81	578.11
374.01	578.11
374.21	538.32
374.40	552.37
374.60	531.30
374.79	496.19
374.99	524.28
375.19	608.54
375.38	634.29
375.58	550.03
375.78	627.26
375.97	564.07
376.17	571.09
376.37	641.31
376.56	610.88
376.76	615.56
376.95	599.18
377.15	594.50
377.35	533.64
377.54	608.54
377.74	568.75
377.93	631.94
378.13	617.90
378.33	641.31
378.52	594.50
378.72	641.31
378.91	711.52
379.11	564.07
379.31	592.16
379.50	592.16
379.70	692.80
379.89	755.99
380.09	683.44
380.28	631.94
380.48	613.22
380.68	753.65
380.87	631.94
381.07	653.01
381.26	753.65
381.46	636.63
381.65	713.86
381.85	702.16
382.04	669.39
382.24	760.67
382.43	781.74
382.63	664.71
382.83	674.07
383.02	692.80
383.22	826.21
383.41	770.04
383.61	732.59
383.80	751.31
384.00	781.74
384.19	732.59
384.39	805.14
384.58	877.70
384.78	791.10
384.97	819.19
385.17	816.85
385.36	823.87
385.56	816.85
385.75	812.17
385.95	793.44
386.14	770.04
386.34	805.14
386.53	863.66
386.72	835.57
386.92	837.91
387.11	826.21
387.31	891.74
387.50	889.40
387.70	800.46
387.89	805.14
388.09	772.38
388.28	898.77
388.48	880.04
388.67	936.21
388.86	929.19
389.06	882.38
389.25	987.71
389.45	959.62
389.64	1027.50
389.84	1046.22
390.03	950.26
390.22	898.77
390.42	1020.47
390.61	999.41
390.81	1036.86
391.00	1083.67
391.19	1083.67
391.39	999.41
391.58	1076.65
391.78	997.07
391.97	1043.88
392.16	980.68
392.36	1046.22
392.55	947.92
392.75	976.00
392.94	959.62
393.13	933.87
393.33	1013.45
393.52	1067.28
393.71	1097.71
393.91	1177.29
394.10	1043.88
394.29	1181.97
394.49	1090.69
394.68	1188.99
394.88	1240.48
395.07	1219.42
395.26	1196.01
395.46	1219.42
395.65	1203.04
395.84	1233.46
396.04	1287.29
396.23	1268.57
396.42	1146.86
396.62	1174.95
396.81	1060.26
397.00	1210.06
397.19	1280.27
397.39	1284.95
397.58	1399.64
397.77	1350.49
397.97	1458.15
398.16	1373.89
398.35	1476.88
398.55	1434.75
398.74	1451.13
398.93	1476.88
399.12	1404.32
399.32	1455.81
399.51	1511.99
399.70	1511.99
399.90	1593.90
400.09	1673.48
400.28	1511.99
400.47	1523.69
400.67	1767.10
400.86	1533.05
401.05	1640.72
401.24	1678.16
401.44	1778.81
401.63	1696.89
401.82	1636.03
402.01	1612.63
402.21	1776.47
402.40	1724.97
402.59	1685.19
402.78	1713.27
402.97	1729.66
403.17	1792.85
403.36	1746.04
403.55	1776.47
403.74	1820.94
403.93	1809.23
404.13	1921.58
404.32	1844.34
404.51	1886.47
404.70	1849.02
404.89	1865.41
405.09	1977.75
405.28	1886.47
405.47	1961.37
405.66	1853.70
405.85	1940.30
406.05	1933.28
406.24	2015.20
406.43	1935.62
406.62	1966.05
406.81	2064.35
407.00	1944.99
407.20	1989.46
407.39	2069.03
407.58	2087.76
407.77	2193.08
407.96	2200.10
408.15	2150.95
408.34	2260.96
408.54	2249.25
408.73	2251.60
408.92	2321.81
409.11	2258.62
409.30	2253.94
409.49	2253.94
409.68	2118.18
409.87	2260.96
410.07	2326.49
410.26	2251.60
410.45	2340.54
410.64	2310.11
410.83	2380.32
411.02	2509.05
411.21	2555.86
411.40	2473.95
411.59	2675.23
411.78	2630.76
411.98	2569.91
412.17	2715.02
412.36	2621.40
412.55	2628.42
412.74	2661.19
412.93	2736.09
413.12	2656.51
413.31	2864.82
413.50	2752.47
413.69	2764.17
413.88	2965.46
414.07	2883.54
414.26	2822.69
414.45	2949.08
414.64	2998.23
414.83	3047.38
415.02	2939.71
415.22	2972.48
415.41	3002.91
415.60	3190.15
415.79	3166.74
415.98	3248.66
416.17	3225.26
416.36	3143.34
416.55	3157.38
416.74	3286.11
416.93	3279.09
417.12	3286.11
417.31	3321.22
417.50	3302.50
417.69	3522.51
417.88	3330.58
418.07	3309.52
418.26	3279.09
418.45	3321.22
418.64	3625.49
418.83	3686.34
419.02	3478.04
419.21	3552.93
419.39	3503.78
419.58	3445.27
419.77	3552.93
419.96	3564.64
420.15	3768.26
420.34	3794.01
420.53	3808.05
420.72	3775.28
420.91	3812.73
421.10	3705.07
421.29	3728.47
421.48	3763.58
421.67	3791.67
421.86	3709.75
422.05	3667.62
422.24	3726.13
422.43	3794.01
422.61	3768.26
422.80	3889.97
422.99	3871.25
423.18	3838.48
423.37	3960.19
423.56	3957.85
423.75	3913.38
423.94	3908.69
424.13	3684.00
424.32	3712.09
424.50	3913.38
424.69	3948.48
424.88	3995.29
425.07	3850.18
425.26	3978.91
425.45	3721.45
425.64	3836.14
425.83	3901.67
426.01	3992.95
426.20	3906.35
426.39	3997.64
426.58	3887.63
426.77	3864.22
426.96	3978.91
427.15	4109.98
427.33	4044.45
427.52	3999.98
427.71	4107.64
427.90	4018.70
428.09	4117.00
428.28	4119.34
428.46	4098.28
428.65	4098.28
428.84	4049.13
429.03	4252.75
429.22	4128.70
429.40	4058.49
429.59	4081.89
429.78	3822.09
429.97	3822.09
430.16	4030.40
430.34	4145.09
430.53	4086.58
430.72	4086.58
430.91	4154.45
431.10	4198.92
431.28	4535.96
431.47	4517.23
431.66	4566.39
431.85	4437.66
432.03	4550.00
432.22	4519.57
432.41	4512.55
432.60	4631.92
432.79	4573.41
432.97	4545.32
433.16	4674.05
433.35	4730.22
433.54	4561.70
433.72	4662.35
433.91	4599.15
434.10	4772.35
434.28	4723.20
434.47	4819.16
434.66	4802.78
434.85	4826.18
435.03	4903.42
435.22	4875.34
435.41	5156.20
435.59	4924.49
435.78	5039.17
435.97	5268.55
436.16	5064.92
436.34	5093.01
436.53	5114.07
436.72	5245.14
436.90	5090.67
437.09	5015.77
437.28	5184.29
437.46	4950.23
437.65	5015.77
437.84	5118.75
438.02	5149.18
438.21	5050.88
438.40	5022.79
438.58	5118.75
438.77	5327.06
438.96	5343.44
439.14	5420.68
439.33	5427.70
439.52	5598.56
439.70	5518.98
439.89	5591.54
440.08	5708.57
440.26	5586.86
440.45	5657.07
440.63	5701.54
440.82	6024.54
441.01	5935.60
441.19	5970.71
441.38	6022.20
441.57	5991.77
441.75	6052.63
441.94	6153.27
442.12	6015.18
442.31	6216.46
442.50	6111.14
442.68	6127.52
442.87	6368.60
443.05	6307.74
443.24	6258.59
443.43	6359.24
443.61	6326.47
443.80	6616.69
443.98	6260.93
444.17	6169.65
444.35	6565.20
444.54	6546.48
444.73	6583.93
444.91	6469.24
445.10	6265.61
445.28	6452.86
445.47	6216.46
445.65	6328.81
445.84	6562.86
446.02	6527.75
446.21	6558.18
446.39	6640.10
446.58	6703.29
446.77	6443.49
446.95	6551.16
447.14	6565.20
447.32	6637.76
447.51	6525.41
447.69	6506.69
447.88	6595.63
448.06	6546.48
448.25	6724.36
448.43	6799.26
448.62	6775.85
448.80	6682.23
448.99	6754.79
449.17	6649.46
449.36	6682.23
449.54	6895.22
449.73	6897.56
449.91	7009.90
450.10	7035.65
450.28	7068.42
450.46	7159.70
450.65	7063.74
450.83	7222.89
451.02	7236.94
451.20	7138.63
451.39	7143.32
451.57	7077.78
451.76	7094.16
451.94	7089.48
452.13	7105.87
452.31	7159.70
452.49	7101.19
452.68	7073.10
452.86	6892.88
453.05	7176.08
453.23	7253.32
453.42	7208.85
453.60	7246.30
453.78	7335.24
453.97	7183.10
454.15	7279.07
454.34	7152.68
454.52	7503.76
454.70	7482.69
454.89	7442.90
455.07	7389.07
455.26	7644.19
455.44	7552.91
455.62	7602.06
455.81	7674.62
455.99	7868.88
456.17	7611.42
456.36	7637.17
456.54	7754.19
456.73	7719.09
456.91	7976.55
457.09	8147.40
457.28	8205.92
457.46	7836.11
457.64	8138.04
457.83	7955.48
458.01	7896.97
458.19	8187.19
458.38	8191.88
458.56	8109.96
458.74	8238.69
458.93	8173.15
459.11	8063.15
459.29	8161.45
459.48	8234.00
459.66	8243.37
459.84	8259.75
460.03	8430.61
460.21	8540.61
460.39	8351.03
460.57	8255.07
460.76	8351.03
460.94	8493.80
461.12	8493.80
461.31	8507.85
461.49	8573.38
461.67	8365.07
461.85	8753.60
462.04	8755.94
462.22	9104.68
462.40	8898.72
462.59	8580.40
462.77	8779.35
462.95	8901.06
463.13	8748.92
463.32	8671.68
463.50	8779.35
463.68	8905.74
463.86	9050.85
464.05	8781.69
464.23	8842.54
464.41	9043.83
464.59	8854.25
464.78	9036.81
464.96	9043.83
465.14	8809.78
465.32	9025.11
465.50	9137.45
465.69	9228.73
465.87	8992.34
466.05	9151.49
466.23	9088.30
466.41	9149.15
466.60	9329.38
466.78	9018.08
466.96	9125.75
467.14	9308.31
467.32	9453.42
467.51	9275.54
467.69	9125.75
467.87	9329.38
468.05	9378.53
468.23	9217.03
468.41	9315.33
468.60	9275.54
468.78	9500.23
468.96	9432.36
469.14	9509.60
469.32	9575.13
469.50	9621.94
469.69	9474.49
469.87	9750.67
470.05	9933.23
470.23	9612.58
470.41	9767.06
470.59	9673.43
470.77	9710.88
470.95	9743.65
471.14	9928.55
471.32	9858.34
471.50	10043.24
471.68	10080.69
471.86	10326.44
472.04	10441.13
472.22	10464.54
472.40	9942.60
472.58	10413.04
472.77	10338.15
472.95	10527.73
473.13	10876.47
473.31	10326.44
473.49	10410.70
473.67	10534.75
473.85	10555.82
474.03	10757.10
474.21	10747.74
474.39	10932.64
474.57	10803.91
474.75	10876.47
474.93	11206.48
475.12	10902.22
475.30	11201.80
475.48	11054.35
475.66	11089.46
475.84	11052.01
476.02	11400.75
476.20	11192.44
476.38	11417.13
476.56	11817.36
476.74	11698.00
476.92	11700.34
477.10	11700.34
477.28	11843.11
477.46	11726.08
477.64	12081.85
477.82	11943.75
478.00	12404.84
478.18	12339.30
478.36	12430.59
478.54	12390.80
478.72	12461.01
478.90	12650.60
479.08	12744.22
479.26	13092.96
479.44	12889.33
479.62	13046.15
479.80	13095.30
479.98	13181.90
480.16	13617.24
480.34	13455.74
480.52	13422.97
480.70	13479.15
480.88	13474.46
481.06	13818.52
481.24	13631.28
481.41	14078.32
481.59	13912.14
481.77	13898.10
481.95	14235.14
482.13	14356.85
482.31	14244.50
482.49	15028.58
482.67	14551.11
482.85	14836.66
483.03	15030.92
483.21	15281.36
483.39	15295.40
483.57	15070.71
483.74	15087.09
483.92	15456.90
484.10	15227.53
484.28	15592.65
484.46	16020.97
484.64	16212.89
484.82	15854.79
485.00	15784.57
485.18	16114.59
485.35	16119.27
485.53	15873.51
485.71	16088.84
485.89	16599.08
486.07	16051.39
486.25	16442.26
486.43	16629.51
486.61	16877.60
486.78	16968.88
486.96	17055.48
487.14	17390.18
487.32	17434.65
487.50	17722.54
487.68	17797.43
487.85	18207.03
488.03	18214.05
488.21	18258.52
488.39	18342.78
488.57	18347.46
488.75	18410.65
488.92	18974.72
489.10	19213.46
489.28	18789.82
489.46	19400.70
489.64	19421.77
489.81	19845.40
489.99	19936.68
490.17	19707.31
490.35	20161.37
490.53	19946.05
490.70	19988.18
490.88	20374.36
491.06	20587.35
491.24	20568.63
491.41	20592.03
491.59	20491.39
491.77	20709.06
491.95	20915.03
492.13	20872.90
492.30	21308.24
492.48	21074.18
492.66	21544.63
492.84	21617.19
493.01	21689.74
493.19	21919.12
493.37	22190.62
493.54	21926.14
493.72	22239.77
493.90	22097.00
494.08	22876.40
494.25	23058.96
494.43	23049.60
494.61	23037.89
494.79	23461.53
494.96	23335.14
495.14	23414.72
495.32	23555.15
495.49	23405.36
495.67	23428.76
495.85	23906.23
496.02	24151.99
496.20	24084.11
496.38	24135.60
496.55	24388.38
496.73	24826.06
496.91	24163.69
497.09	24460.94
497.26	24664.57
497.44	24875.21
497.62	24781.59
497.79	24954.79
497.97	24936.07
498.14	25179.48
498.32	25476.73
498.50	25130.33
498.67	25663.97
498.85	25738.87
499.03	25891.01
499.20	25874.62
499.38	25668.66
499.56	26033.78
499.73	25968.24
499.91	26366.13
500.08	26118.04
500.26	26082.93
500.44	26277.19
500.61	26576.78
500.79	26305.28
500.97	26403.58
501.14	26639.98
501.32	26679.77
501.49	26852.97
501.67	26892.76
501.84	27063.61
502.02	27250.86
502.20	27475.55
502.37	27260.22
502.55	27435.76
502.72	27878.12
502.90	27793.86
503.07	27737.69
503.25	27803.22
503.43	27342.14
503.60	28112.17
503.78	27913.23
503.95	28100.47
504.13	28166.01
504.30	27983.44
504.48	28652.84
504.65	28701.99
504.83	28390.70
505.01	28889.23
505.18	28840.08
505.36	28898.59
505.53	29041.37
505.71	29579.69
505.88	29399.47
506.06	28982.85
506.23	29282.44
506.41	29256.70
506.58	29745.87
506.76	29385.43
506.93	29476.71
507.11	29666.29
507.28	29858.21
507.46	29656.93
507.63	29947.15
507.81	29928.43
507.98	29661.61
508.16	30394.20
508.33	30342.70
508.50	30349.73
508.68	30476.12
508.85	30408.24
509.03	30845.92
509.20	30782.73
509.38	30773.36
509.55	30726.55
509.73	31058.91
509.90	30984.01
510.08	31051.89
510.25	30801.45
510.42	31122.10
510.60	31218.07
510.77	31456.80
510.95	31538.72
511.12	31508.29
511.30	31723.62
511.47	32013.85
511.64	31711.92
511.82	32016.19
511.99	31988.10
512.17	31578.51
512.34	32074.70
512.51	32437.48
512.69	32315.78
512.86	32521.74
513.04	32641.11
513.21	32865.80
513.38	32739.41
513.56	32451.53
513.73	32016.19
513.90	32521.74
514.08	32566.21
514.25	32936.02
514.43	32673.88
514.60	32535.79
514.77	32851.76
514.95	33394.76
515.12	32996.87
515.29	33010.92
515.47	33617.11
515.64	33837.12
515.81	33425.19
515.99	33560.94
516.16	33259.01
516.33	33275.40
516.51	33436.89
516.68	32931.34
516.85	32772.18
517.03	33139.65
517.20	33771.59
517.37	33965.85
517.54	34314.59
517.72	33823.08
517.89	33635.84
518.06	33701.37
518.24	33720.10
518.41	34033.73
518.58	34211.61
518.75	34349.70
518.93	34574.39
519.10	34675.04
519.27	34693.76
519.45	34754.61
519.62	34714.83
519.79	34913.77
519.96	35047.18
520.14	35051.86
520.31	34852.92
520.48	34995.69
520.65	35101.01
520.83	35377.20
521.00	35496.56
521.17	35864.03
521.34	35377.20
521.52	35456.78
521.69	35620.61
521.86	36102.76
522.03	36074.68
522.20	35585.50
522.38	35955.31
522.55	36023.19
522.72	35721.26
522.89	36172.98
523.07	36201.07
523.24	36102.76
523.41	36666.83
523.58	36505.34
523.75	37195.79
523.92	36608.32
524.10	36676.19
524.27	36828.33
524.44	36978.12
524.61	36692.58
524.78	36994.51
524.96	37137.28
525.13	37214.52
525.30	37221.54
525.47	37219.20
525.64	37041.32
525.81	37102.17
525.98	37170.05
526.16	36905.57
526.33	36706.62
526.50	37511.77
526.67	36800.24
526.84	37303.46
527.01	36837.69
527.18	37001.53
527.36	37614.75
527.53	37640.50
527.70	38265.42
527.87	38040.73
528.04	37603.05
528.21	38129.67
528.38	38057.11
528.55	38183.50
528.72	38637.56
528.89	37982.21
529.07	38478.41
529.24	38426.92
529.41	38274.78
529.58	38307.55
529.75	38380.10
529.92	38590.75
530.09	38850.55
530.26	38965.24
530.43	38625.86
530.60	38476.07
530.77	38387.13
530.94	39047.16
531.11	39143.12
531.28	39264.83
531.46	38859.91
531.63	38998.01
531.80	39040.14
531.97	39079.92
532.14	38705.44
532.31	39218.02
532.48	38611.82
532.65	39002.69
532.82	39145.46
532.99	39391.22
533.16	39714.21
533.33	39653.36
533.50	39592.50
533.67	39255.46
533.84	39264.83
534.01	39400.58
534.18	39335.04
534.35	39983.37
534.52	39489.52
534.69	39807.83
534.86	39985.71
535.03	40055.93
535.20	40266.58
535.37	40414.03
535.54	40643.40
535.71	40287.64
535.88	39966.99
536.05	40105.08
536.22	40332.11
536.38	40582.55
536.55	40456.16
536.72	40268.92
536.89	40069.97
537.06	40238.49
537.23	40903.20
537.40	40233.81
537.57	40346.15
537.74	40247.85
537.91	40460.84
538.08	40608.29
538.25	40498.29
538.42	40722.98
538.59	40730.00
538.75	40404.67
538.92	40416.37
539.09	40737.02
539.26	40498.29
539.43	40816.60
539.60	40711.28
539.77	41031.93
539.94	40683.19
540.11	40809.58
540.28	41022.57
540.44	41694.30
540.61	41455.57
540.78	40926.61
540.95	41530.47
541.12	41017.89
541.29	41280.03
541.46	41090.44
541.62	41675.58
541.79	41928.36
541.96	40266.58
542.13	41462.59
542.30	41336.20
542.47	41373.65
542.63	41469.61
542.80	41687.28
542.97	42019.64
543.14	42337.95
543.31	42171.77
543.48	42394.12
543.64	41928.36
543.81	42649.24
543.98	41790.27
544.15	42452.64
544.32	42490.09
544.48	42560.30
544.65	42298.16
544.82	42693.71
544.99	42064.11
545.16	42354.33
545.32	41977.51
545.49	42665.63
545.66	42913.72
545.83	42782.65
546.00	43051.81
546.16	42845.85
546.33	42794.36
546.50	42497.11
546.67	42902.02
546.83	42288.80
547.00	42808.40
547.17	42560.30
547.34	42548.60
547.50	42911.38
547.67	43283.53
547.84	43072.88
548.00	43372.47
548.17	43475.45
548.34	43236.72
548.51	43475.45
548.67	43395.87
548.84	43356.08
549.01	43377.15
549.18	43161.82
549.34	43461.41
549.51	43042.45
549.68	43550.35
549.84	43311.61
550.01	43833.55
550.18	43344.38
550.34	43386.51
550.51	43358.42
550.68	43260.12
550.84	42890.32
551.01	43208.63
551.18	43271.82
551.34	43707.16
551.51	43875.68
551.68	43973.98
551.84	43819.51
552.01	43562.05
552.18	43782.06
552.34	43442.68
552.51	43962.28
552.68	43882.70
552.84	43807.81
553.01	44329.75
553.18	43772.70
553.34	43903.77
553.51	43819.51
553.67	43938.88
553.84	44484.22
554.01	44215.06
554.17	43936.54
554.34	44362.51
554.51	44481.88
554.67	44119.10
554.84	44191.65
555.00	44268.89
555.17	44189.31
555.33	44622.31
555.50	44509.97
555.67	44659.76
555.83	44182.29
556.00	44189.31
556.16	44882.11
556.33	44484.22
556.50	44442.09
556.66	44360.17
556.83	44245.49
556.99	44367.20
557.16	44917.22
557.32	44505.29
557.49	44673.81
557.65	44121.44
557.82	44287.62
557.98	45123.19
558.15	44786.15
558.32	44957.01
558.48	44250.17
558.65	44266.55
558.81	44332.09
558.98	44418.69
559.14	44828.28
559.31	44502.95
559.47	44556.78
559.64	44851.69
559.80	44849.35
559.97	44940.63
560.13	44753.38
560.30	44664.44
560.46	44931.26
560.63	44926.58
560.79	44657.42
560.96	44964.03
561.12	44802.53
561.29	44879.77
561.45	44882.11
561.61	44802.53
561.78	44739.34
561.94	44802.53
562.11	44601.25
562.27	44755.72
562.44	45057.65
562.60	45113.83
562.77	45120.85
562.93	44982.76
563.10	45294.05
563.26	44729.98
563.42	45301.07
563.59	45078.72
563.75	44650.40
563.92	45329.16
564.08	45326.81
564.24	45385.33
564.41	45230.85
564.57	44896.16
564.74	45525.76
564.90	45425.12
565.07	44931.26
565.23	45298.73
565.39	45069.36
565.56	45223.83
565.72	45291.71
565.88	45151.27
566.05	44802.53
566.21	45022.54
566.38	45148.93
566.54	44844.66
566.70	45743.43
566.87	45390.01
567.03	45155.96
567.19	45888.54
567.36	45504.70
567.52	45294.05
567.68	45268.30
567.85	45413.41
568.01	45535.12
568.17	45497.67
568.34	45612.36
568.50	45160.64
568.66	45244.90
568.83	45404.05
568.99	45184.04
569.15	45401.71
569.32	45244.90
569.48	45600.66
569.64	45418.10
569.81	45439.16
569.97	45773.86
570.13	45525.76
570.30	45207.45
570.46	44989.78
570.62	44964.03
570.78	45125.53
570.95	44905.52
571.11	45364.26
571.27	45282.34
571.43	45125.53
571.60	45331.50
571.76	45368.94
571.92	45464.91
572.09	45851.09
572.25	45584.27
572.41	45841.73
572.57	45633.42
572.74	46150.68
572.90	45511.72
573.06	45722.37
573.22	45701.30
573.38	45481.29
573.55	45076.38
573.71	45738.75
573.87	45661.51
574.03	45397.03
574.20	45523.42
574.36	45020.20
574.52	45099.78
574.68	45476.61
574.84	45605.34
575.01	45584.27
575.17	45457.88
575.33	45469.59
575.49	44947.65
575.65	45382.99
575.82	45701.30
575.98	45453.20
576.14	45867.48
576.30	45530.44
576.46	45736.41
576.62	45724.71
576.79	45251.92
576.95	45628.74
577.11	45624.06
577.27	45595.98
577.43	45698.96
577.59	45373.63
577.75	45181.70
577.92	45064.67
578.08	45162.98
578.24	45272.98
578.40	45530.44
578.56	45595.98
578.72	45329.16
578.88	45820.67
579.04	46188.13
579.21	45249.58
579.37	45394.69
579.53	45818.33
579.69	45759.81
579.85	45537.46
580.01	45848.75
580.17	45605.34
580.33	45614.70
580.49	45542.14
580.65	45272.98
580.82	45750.45
580.98	45647.47
581.14	45666.19
581.30	45937.69
581.46	45509.38
581.62	45701.30
581.78	45626.40
581.94	45851.09
582.10	45329.16
582.26	45731.73
582.42	45563.21
582.58	45497.67
582.74	45682.58
582.90	46108.55
583.06	45797.26
583.22	46443.25
583.38	45944.72
583.54	45839.39
583.70	45705.98
583.86	45846.41
584.02	45598.32
584.18	45621.72
584.34	46085.15
584.50	46059.40
584.66	45652.15
584.82	45710.66
584.98	46019.61
585.14	45422.78
585.30	45682.58
585.46	45675.55
585.62	45352.56
585.78	45528.10
585.94	45429.80
586.10	45855.78
586.26	45605.34
586.42	45769.18
586.58	45904.93
586.74	45691.94
586.90	45736.41
587.06	45556.19
587.22	45783.22
587.38	45893.22
587.54	46183.45
587.70	45703.64
587.86	45631.08
588.02	45949.40
588.18	45675.55
588.34	45511.72
588.49	45223.83
588.65	45125.53
588.81	44847.00
588.97	45249.58
589.13	45137.23
589.29	45287.03
589.45	45471.93
589.61	45588.95
589.77	46181.11
589.93	45518.74
590.08	45675.55
