SpectraSuite Data File
++++++++++++++++++++++++++++++++++++
Date: Fri Oct 25 11:25:31 EDT 2013
User: price-jones
Dark Spectrum Present: No
Reference Spectrum Present: No
Number of Sampled Component Spectra: 1
Spectrometers: USB2+H05261
Integration Time (usec): 100000 (USB2+H05261)
Spectra Averaged: 1 (USB2+H05261)
Boxcar Smoothing: 0 (USB2+H05261)
Correct for Electrical Dark: No (USB2+H05261)
Strobe/Lamp Enabled: No (USB2+H05261)
Correct for Detector Non-linearity: No (USB2+H05261)
Correct for Stray Light: No (USB2+H05261)
Number of Pixels in Processed Spectrum: 2048
>>>>>Begin Processed Spectral Data<<<<<
365.73	241.08
365.92	241.08
366.12	241.08
366.32	102.98
366.52	194.26
366.72	152.13
366.91	124.05
367.11	131.07
367.31	149.79
367.51	124.05
367.70	175.54
367.90	86.60
368.10	102.98
368.30	119.37
368.49	187.24
368.69	252.78
368.89	105.32
369.09	163.84
369.28	180.22
369.48	135.75
369.68	227.03
369.87	168.52
370.07	194.26
370.27	229.37
370.47	327.68
370.66	613.22
370.86	571.09
371.06	699.82
371.25	711.52
371.45	657.69
371.65	704.50
371.84	704.50
372.04	645.99
372.24	734.93
372.44	718.54
372.63	695.14
372.83	739.61
373.03	732.59
373.22	737.27
373.42	720.88
373.62	777.06
373.81	767.70
374.01	774.72
374.21	800.46
374.40	795.78
374.60	718.54
374.79	873.02
374.99	889.40
375.19	863.66
375.38	856.64
375.58	802.80
375.78	847.27
375.97	929.19
376.17	957.28
376.37	891.74
376.56	823.87
376.76	863.66
376.95	833.23
377.15	880.04
377.35	964.30
377.54	908.13
377.74	919.83
377.93	889.40
378.13	926.85
378.33	936.21
378.52	884.72
378.72	1039.20
378.91	945.58
379.11	896.43
379.31	964.30
379.50	976.00
379.70	976.00
379.89	994.73
380.09	891.74
380.28	1022.81
380.48	929.19
380.68	924.51
380.87	945.58
381.07	1043.88
381.26	1046.22
381.46	954.94
381.65	1011.11
381.85	1090.69
382.04	1043.88
382.24	1053.24
382.43	1025.15
382.63	1029.84
382.83	1071.97
383.02	1100.05
383.22	1160.91
383.41	999.41
383.61	1055.58
383.80	1149.20
384.00	1149.20
384.19	1149.20
384.39	1095.37
384.58	1025.15
384.78	1093.03
384.97	1156.22
385.17	1118.78
385.36	1172.61
385.56	1179.63
385.75	1221.76
385.95	1233.46
386.14	1163.25
386.34	1146.86
386.53	1249.85
386.72	1181.97
386.92	1235.80
387.11	1254.53
387.31	1270.91
387.50	1249.85
387.70	1320.06
387.89	1352.83
388.09	1254.53
388.28	1214.74
388.48	1352.83
388.67	1247.51
388.86	1207.72
389.06	1355.17
389.25	1369.21
389.45	1378.58
389.64	1397.30
389.84	1380.92
390.03	1289.64
390.22	1373.89
390.42	1329.42
390.61	1399.64
390.81	1413.68
391.00	1437.09
391.19	1409.00
391.39	1490.92
391.58	1460.49
391.78	1315.38
391.97	1469.86
392.16	1448.79
392.36	1455.81
392.55	1439.43
392.75	1472.20
392.94	1526.03
393.13	1495.60
393.33	1502.62
393.52	1521.35
393.71	1687.53
393.91	1680.50
394.10	1610.29
394.29	1554.12
394.49	1614.97
394.68	1748.38
394.88	1598.59
395.07	1633.69
395.26	1612.63
395.46	1547.09
395.65	1652.42
395.84	1699.23
396.04	1739.02
396.23	1767.10
396.42	1760.08
396.62	1715.61
396.81	1713.27
397.00	1823.28
397.19	1717.95
397.39	1830.30
397.58	1762.42
397.77	1888.81
397.97	1825.62
398.16	1755.40
398.35	1837.32
398.55	1813.92
398.74	1799.87
398.93	1877.11
399.12	1820.94
399.32	2024.56
399.51	1989.46
399.70	2057.33
399.90	1947.33
400.09	1860.73
400.28	2139.25
400.47	2047.97
400.67	2015.20
400.86	2026.90
401.05	2115.84
401.24	2090.10
401.44	1954.35
401.63	2108.82
401.82	2127.55
402.01	2040.95
402.21	2167.34
402.40	2174.36
402.59	2174.36
402.78	2143.93
402.97	2228.19
403.17	2239.89
403.36	2193.08
403.55	2230.53
403.74	2216.49
403.93	2244.57
404.13	2387.35
404.32	2253.94
404.51	2335.85
404.70	2319.47
404.89	2270.32
405.09	2459.90
405.28	2445.86
405.47	2403.73
405.66	2317.13
405.85	2413.09
406.05	2602.68
406.24	2527.78
406.43	2492.67
406.62	2658.85
406.81	2630.76
407.00	2644.81
407.20	2553.52
407.39	2614.38
407.58	2825.03
407.77	2789.92
407.96	2761.83
408.15	2743.11
408.34	2626.08
408.54	2822.69
408.73	2853.11
408.92	2902.26
409.11	2904.60
409.30	2834.39
409.49	2981.84
409.68	2822.69
409.87	2888.22
410.07	2960.78
410.26	2928.01
410.45	2965.46
410.64	3023.97
410.83	3042.70
411.02	3000.57
411.21	3047.38
411.40	3131.64
411.59	3143.34
411.78	3143.34
411.98	3143.34
412.17	3335.26
412.36	3262.71
412.55	3314.20
412.74	3316.54
412.93	3407.82
413.12	3337.60
413.31	3531.87
413.50	3440.59
413.69	3440.59
413.88	3522.51
414.07	3473.36
414.26	3695.71
414.45	3613.79
414.64	3566.98
414.83	3728.47
415.02	3812.73
415.22	3794.01
415.41	3904.01
415.60	3796.35
415.79	3922.74
415.98	3978.91
416.17	4021.04
416.36	3953.16
416.55	3997.64
416.74	3939.12
416.93	4042.11
417.12	4067.85
417.31	4053.81
417.50	4095.94
417.69	4215.30
417.88	4205.94
418.07	4191.90
418.26	4283.18
418.45	4304.25
418.64	4337.01
418.83	4278.50
419.02	4386.16
419.21	4479.79
419.39	4470.42
419.58	4381.48
419.77	4542.98
419.96	4596.81
420.15	4608.51
420.34	4540.64
420.53	4690.43
420.72	4585.11
420.91	4657.67
421.10	4685.75
421.29	4772.35
421.48	4601.49
421.67	4835.55
421.86	4748.95
422.05	4765.33
422.24	4933.85
422.43	4856.61
422.61	4901.08
422.80	4880.02
422.99	4978.32
423.18	5015.77
423.37	4826.18
423.56	4882.36
423.75	4861.29
423.94	4903.42
424.13	4582.77
424.32	4849.59
424.50	4992.36
424.69	5067.26
424.88	5064.92
425.07	4894.06
425.26	4849.59
425.45	4884.70
425.64	4947.89
425.83	4868.31
426.01	4957.25
426.20	4898.74
426.39	4990.02
426.58	4959.60
426.77	5004.07
426.96	5013.43
427.15	5093.01
427.33	5142.16
427.52	5053.22
427.71	5219.39
427.90	5046.20
428.09	5219.39
428.28	5364.51
428.46	5308.34
428.65	5310.68
428.84	5322.38
429.03	5481.53
429.22	5240.46
429.40	5371.53
429.59	5516.64
429.78	5224.08
429.97	5219.39
430.16	5518.98
430.34	5551.75
430.53	5542.39
430.72	5610.26
430.91	5636.01
431.10	5715.59
431.28	5668.78
431.47	5774.10
431.66	5661.76
431.85	5694.52
432.03	5837.30
432.22	6038.58
432.41	6010.50
432.60	5928.58
432.79	5884.11
432.97	5973.05
433.16	5912.19
433.35	5893.47
433.54	6069.01
433.72	6115.82
433.91	6083.05
434.10	6169.65
434.28	6017.52
434.47	6157.95
434.66	6190.72
434.85	6307.74
435.03	6218.80
435.22	6188.38
435.41	6417.75
435.59	6274.98
435.78	6396.68
435.97	6382.64
436.16	6312.42
436.34	6429.45
436.53	6581.59
436.72	6661.16
436.90	6457.54
437.09	6483.28
437.28	6520.73
437.46	6480.94
437.65	6661.16
437.84	6478.60
438.02	6647.12
438.21	6789.89
438.40	6574.56
438.58	7061.40
438.77	6937.35
438.96	6874.15
439.14	7005.22
439.33	6836.70
439.52	7185.44
439.70	7194.81
439.89	7276.73
440.08	7253.32
440.26	7337.58
440.45	7274.38
440.63	7396.09
440.82	7761.22
441.01	7428.86
441.19	7318.86
441.38	7499.08
441.57	7679.30
441.75	7707.38
441.94	7950.80
442.12	7784.62
442.31	7882.92
442.50	7964.84
442.68	7857.18
442.87	8070.17
443.05	7936.76
443.24	8182.51
443.43	7929.74
443.61	8226.98
443.80	8423.59
443.98	7894.63
444.17	7974.21
444.35	8004.63
444.54	8454.02
444.73	8182.51
444.91	8067.83
445.10	8226.98
445.28	8329.97
445.47	8168.47
445.65	8367.42
445.84	8418.91
446.02	8355.71
446.21	8252.73
446.39	8404.86
446.58	8425.93
446.77	8458.70
446.95	8329.97
447.14	8210.60
447.32	8358.05
447.51	8503.17
447.69	8271.45
447.88	8423.59
448.06	8465.72
448.25	8383.80
448.43	8620.19
448.62	8409.54
448.80	8416.57
448.99	8650.62
449.17	8692.75
449.36	8643.60
449.54	8711.47
449.73	9048.51
449.91	8774.67
450.10	8896.38
450.28	8912.76
450.46	9095.32
450.65	8997.02
450.83	8952.55
451.02	8891.70
451.20	9104.68
451.39	9128.09
451.57	9020.42
451.76	8978.30
451.94	9298.95
452.13	9298.95
452.31	9177.24
452.49	9015.74
452.68	9245.12
452.86	9401.93
453.05	9432.36
453.23	9469.81
453.42	9151.49
453.60	9385.55
453.78	9764.72
453.97	9322.35
454.15	9277.88
454.34	9451.08
454.52	9565.77
454.70	9727.27
454.89	9626.62
455.07	9525.98
455.26	9767.06
455.44	9661.73
455.62	10054.94
455.81	9834.93
455.99	9973.02
456.17	10181.33
456.36	10008.13
456.54	9963.66
456.73	10296.02
456.91	10293.68
457.09	10193.03
457.28	10581.56
457.46	10164.95
457.64	10382.62
457.83	10232.82
458.01	10375.59
458.19	10370.91
458.38	10333.47
458.56	10677.52
458.74	10832.00
458.93	10523.05
459.11	10567.52
459.29	10581.56
459.48	10677.52
459.66	10738.38
459.84	10562.84
460.03	10824.98
460.21	10878.81
460.39	10953.71
460.57	10764.12
460.76	10998.18
460.94	10836.68
461.12	11147.97
461.31	11173.72
461.49	11398.41
461.67	11080.10
461.85	11468.62
462.04	11009.88
462.22	11964.82
462.40	11492.03
462.59	11407.77
462.77	11466.28
462.95	11447.56
463.13	11543.52
463.32	11419.47
463.50	11585.65
463.68	11768.21
463.86	11623.10
464.05	11810.34
464.23	11454.58
464.41	11793.96
464.59	11700.34
464.78	11918.01
464.96	11894.60
465.14	11709.70
465.32	11918.01
465.50	12224.62
465.69	12278.45
465.87	12046.74
466.05	12018.65
466.23	12159.08
466.41	12088.87
466.60	12514.84
466.78	12077.16
466.96	12194.19
467.14	12376.75
467.32	12521.87
467.51	12332.28
467.69	12135.68
467.87	12531.23
468.05	12484.42
468.23	12409.52
468.41	12519.53
468.60	12549.95
468.78	12676.34
468.96	12339.30
469.14	12793.37
469.32	12903.37
469.50	12830.82
469.69	12847.20
469.87	12989.97
470.05	12917.42
470.23	13179.56
470.41	13055.51
470.59	13298.92
470.77	13195.94
470.95	13240.41
471.14	13415.95
471.32	13125.72
471.50	13586.81
471.68	13575.11
471.86	13362.12
472.04	13778.73
472.22	14104.07
472.40	13540.00
472.58	13706.18
472.77	13764.69
472.95	14303.01
473.13	14368.55
473.31	14038.53
473.49	14193.01
473.67	14160.24
473.85	14176.62
474.03	14663.46
474.21	14628.35
474.39	14394.29
474.57	14700.90
474.75	14892.83
474.93	14949.00
475.12	14815.59
475.30	14902.19
475.48	15023.90
475.66	15082.41
475.84	14876.44
476.02	15419.45
476.20	15119.86
476.38	15697.97
476.56	15793.94
476.74	15782.23
476.92	15761.17
477.10	15637.12
477.28	16102.89
477.46	16212.89
477.64	16086.50
477.82	16484.39
478.00	17027.40
478.18	16734.83
478.36	16725.47
478.54	17097.61
478.72	17034.42
478.90	17085.91
479.08	17507.21
479.26	17432.31
479.44	17439.33
479.62	17502.53
479.80	18118.09
479.98	17956.59
480.16	18349.80
480.34	18239.79
480.52	18562.79
480.70	18541.72
480.88	18368.52
481.06	18815.57
481.24	18745.35
481.41	18696.20
481.59	19379.64
481.77	19499.00
481.95	19618.37
482.13	19749.44
482.31	19623.05
482.49	20212.87
482.67	20130.95
482.85	20299.47
483.03	20727.78
483.21	20709.06
483.39	20582.67
483.57	20788.64
483.74	20910.35
483.92	21291.85
484.10	21062.48
484.28	21350.37
484.46	21710.81
484.64	21717.83
484.82	21832.52
485.00	22340.41
485.18	22476.16
485.35	22904.48
485.53	22778.09
485.71	22974.70
485.89	23676.86
486.07	23250.88
486.25	23080.02
486.43	23562.17
486.61	23498.98
486.78	23779.84
486.96	24041.98
487.14	24465.62
487.32	24383.70
487.50	24954.79
487.68	24959.47
487.85	24751.17
488.03	25645.25
488.21	25666.31
488.39	25778.66
488.57	25621.84
488.75	26321.66
488.92	26246.77
489.10	26415.29
489.28	26384.86
489.46	27000.42
489.64	26895.10
489.81	27421.72
489.99	27372.57
490.17	27307.03
490.35	27915.57
490.53	28088.77
490.70	28240.90
490.88	28369.63
491.06	28641.14
491.24	28701.99
491.41	28416.44
491.59	29027.32
491.77	29181.80
491.95	29102.22
492.13	29310.53
492.30	30244.40
492.48	29598.41
492.66	29956.52
492.84	30000.99
493.01	30441.01
493.19	30085.25
493.37	31173.60
493.54	30944.22
493.72	31295.30
493.90	31267.22
494.08	31484.89
494.25	31541.06
494.43	31906.18
494.61	31955.33
494.79	32423.44
494.96	32203.43
495.14	32629.41
495.32	32842.40
495.49	32870.48
495.67	32886.87
495.85	33013.26
496.02	33574.98
496.20	33741.16
496.38	33544.56
496.55	33610.09
496.73	34733.55
496.91	34532.26
497.09	34635.25
497.26	34897.39
497.44	34469.07
497.62	34967.60
497.79	35519.97
497.97	34974.63
498.14	35620.61
498.32	35814.88
498.50	36170.64
498.67	36154.26
498.85	35997.44
499.03	35866.37
499.20	36357.88
499.38	36701.94
499.56	36779.18
499.73	36517.04
499.91	37439.21
500.08	37366.65
500.26	37167.71
500.44	37237.92
500.61	37937.74
500.79	37301.12
500.97	37521.13
501.14	38721.82
501.32	38447.98
501.49	38550.96
501.67	38595.43
501.84	38534.58
502.02	38815.44
502.20	38628.20
502.37	38473.73
502.55	39110.35
502.72	39182.91
502.90	39456.75
503.07	38925.45
503.25	39402.92
503.43	39210.99
503.60	39402.92
503.78	40074.65
503.95	39510.58
504.13	40453.82
504.30	40334.45
504.48	40154.23
504.65	40339.13
504.83	40596.59
505.01	40952.35
505.18	40795.54
505.36	41425.14
505.53	40842.35
505.71	41296.41
505.88	41301.09
506.06	41303.43
506.23	41858.14
506.41	41818.35
506.58	41443.87
506.76	41680.26
506.93	42377.74
507.11	42347.31
507.28	42354.33
507.46	41792.61
507.63	42831.80
507.81	42731.16
507.98	42965.21
508.16	42974.58
508.33	43323.32
508.50	42597.75
508.68	43145.44
508.85	43335.02
509.03	43501.20
509.20	43927.17
509.38	43789.08
509.55	43964.62
509.73	44659.76
509.90	44622.31
510.08	44224.42
510.25	44051.22
510.42	44722.96
510.60	44903.18
510.77	45038.93
510.95	45038.93
511.12	45059.99
511.30	44598.91
511.47	45331.50
511.64	45574.91
511.82	45624.06
511.99	45324.47
512.17	45663.85
512.34	45645.13
512.51	46251.33
512.69	46080.47
512.86	45942.38
513.04	46447.93
513.21	46742.84
513.38	46672.62
513.56	46637.51
513.73	46211.54
513.90	46946.47
514.08	46550.91
514.25	47072.85
514.43	47217.97
514.60	47168.82
514.77	47171.16
514.95	47311.59
515.12	47339.68
515.29	47475.43
515.47	47641.60
515.64	47580.75
515.81	47398.19
515.99	47943.53
516.16	48289.93
516.33	48119.07
516.51	48519.31
516.68	48271.21
516.85	48037.16
517.03	48821.23
517.20	48051.20
517.37	48905.49
517.54	48531.01
517.72	48802.51
517.89	49191.04
518.06	48741.66
518.24	48610.59
518.41	48849.32
518.58	49162.95
518.75	48910.17
518.93	49188.70
519.10	49251.89
519.27	49373.60
519.45	49558.50
519.62	50040.65
519.79	49806.60
519.96	49551.48
520.14	50096.83
520.31	49741.06
520.48	50192.79
520.65	50131.93
520.83	50101.51
521.00	50555.57
521.17	50071.08
521.34	50583.66
521.52	50497.06
521.69	50279.39
521.86	50691.32
522.03	50817.71
522.20	50901.97
522.38	50960.48
522.55	51124.32
522.72	50923.04
522.89	51187.52
523.07	51234.33
523.24	51278.80
523.41	51564.34
523.58	51061.13
523.75	51709.46
523.92	51517.53
524.10	51643.92
524.27	51629.88
524.44	51650.94
524.61	52207.99
524.78	52016.07
524.96	51931.81
525.13	51840.53
525.30	52158.84
525.47	52392.89
525.64	52376.51
525.81	52212.67
525.98	52640.99
526.16	52596.52
526.33	52481.83
526.50	52729.93
526.67	52383.53
526.84	52640.99
527.01	52474.81
527.18	52268.84
527.36	52856.32
527.53	52568.43
527.70	53008.45
527.87	53324.43
528.04	52947.60
528.21	53102.07
528.38	53111.44
528.55	53191.01
528.72	53284.64
528.89	53090.37
529.07	52952.28
529.24	53043.56
529.41	53684.87
529.58	53502.31
529.75	53546.78
529.92	53635.72
530.09	53609.97
530.26	53553.80
530.43	53738.70
530.60	53441.45
530.77	53511.67
530.94	54019.56
531.11	53839.34
531.28	53890.83
531.46	53975.09
531.63	54064.03
531.80	53958.71
531.97	53979.78
532.14	54246.60
532.31	54239.57
532.48	54335.54
532.65	54466.61
532.82	54482.99
532.99	54511.08
533.16	54515.76
533.33	54714.70
533.50	54569.59
533.67	54349.58
533.84	54265.32
534.01	54742.79
534.18	54611.72
534.35	55056.42
534.52	54908.97
534.69	54740.45
534.86	55084.51
535.03	54822.37
535.20	54852.80
535.37	55257.71
535.54	55150.04
535.71	55180.47
535.88	55381.76
536.05	55442.61
536.22	55442.61
536.38	55426.23
536.55	55416.86
536.72	55405.16
536.89	55063.44
537.06	55599.43
537.23	55480.06
537.40	55224.94
537.57	55463.67
537.74	55578.36
537.91	55894.33
538.08	55524.53
538.25	55547.93
538.42	55847.52
538.59	55992.64
538.75	55725.81
538.92	55700.07
539.09	56156.47
539.26	55796.03
539.43	56062.85
539.60	56107.32
539.77	55945.83
539.94	56037.11
540.11	56264.14
540.28	56296.91
540.44	56144.77
540.61	56245.41
540.78	56210.31
540.95	56020.72
541.12	56186.90
541.29	56102.64
541.46	56198.60
541.62	56488.83
541.79	56402.23
541.96	56324.99
542.13	56446.70
542.30	56530.96
542.47	56633.94
542.63	56650.33
542.80	56645.65
542.97	56851.61
543.14	57073.96
543.31	56830.55
543.48	56884.38
543.64	57453.13
543.81	57233.12
543.98	57003.75
544.15	57378.23
544.32	57490.58
544.48	57511.64
544.65	57310.36
544.82	57350.15
544.99	57076.30
545.16	57249.50
545.32	57296.31
545.49	57411.00
545.66	57506.96
545.83	57464.83
546.00	57652.08
546.16	57675.48
546.33	57375.89
546.50	57223.76
546.67	57645.05
546.83	57396.96
547.00	57506.96
547.17	57546.75
547.34	57619.31
547.50	58000.82
547.67	58033.58
547.84	57867.40
548.00	57834.64
548.17	57991.45
548.34	57785.49
548.51	57972.73
548.67	57975.07
548.84	57790.17
549.01	57876.77
549.18	58066.35
549.34	57923.58
549.51	58258.27
549.68	58375.30
549.84	58010.18
550.01	58351.90
550.18	58136.57
550.34	58291.04
550.51	58162.31
550.68	58218.49
550.84	58145.93
551.01	58396.37
551.18	58157.63
551.34	58354.24
551.51	58443.18
551.68	58419.77
551.84	58379.98
552.01	58262.96
552.18	58574.25
552.34	58227.85
552.51	58553.18
552.68	58494.67
552.84	58382.32
553.01	58763.83
553.18	58581.27
553.34	58803.62
553.51	58415.09
553.67	58625.74
553.84	58742.77
554.01	58932.35
554.17	58934.69
554.34	58766.17
554.51	58878.52
554.67	58894.90
554.84	58969.80
555.00	58885.54
555.17	58798.94
555.33	58922.99
555.50	58848.09
555.67	58880.86
555.83	58920.65
556.00	58972.14
556.16	59428.54
556.33	59133.63
556.50	59128.95
556.66	59154.70
556.83	59028.31
556.99	59508.12
557.16	59435.56
557.32	59297.47
557.49	59302.15
557.65	59213.21
557.82	58958.09
557.98	59173.42
558.15	59159.38
558.32	59271.73
558.48	59250.66
558.65	59269.39
558.81	59271.73
558.98	59407.48
559.14	59461.31
559.31	59526.84
559.47	59405.14
559.64	59674.30
559.80	59627.49
559.97	59611.10
560.13	59295.13
560.30	59365.35
560.46	59653.23
560.63	59643.87
560.79	59496.42
560.96	59714.09
561.12	59796.01
561.29	59716.43
561.45	59475.35
561.61	59559.61
561.78	59655.57
561.94	59676.64
562.11	59480.03
562.27	59786.64
562.44	59620.47
562.60	59913.03
562.77	59913.03
562.93	59760.90
563.10	59880.27
563.26	59657.91
563.42	59896.65
563.59	59728.13
563.75	59896.65
563.92	59969.21
564.08	59924.74
564.24	60013.68
564.41	59976.23
564.57	59898.99
564.74	59906.01
564.90	60001.97
565.07	59866.22
565.23	59938.78
565.39	59980.91
565.56	59983.25
565.72	59983.25
565.88	60142.41
566.05	60039.42
566.21	60027.72
566.38	60114.32
566.54	60020.70
566.70	60079.21
566.87	60217.30
567.03	60128.36
567.19	60137.72
567.36	60158.79
567.52	60006.65
567.68	60360.08
567.85	60128.36
568.01	60102.62
568.17	60111.98
568.34	60154.11
568.50	60062.83
568.66	60268.79
568.83	60102.62
568.99	60163.47
569.15	60282.84
569.32	60250.07
569.48	60371.78
569.64	60200.92
569.81	60231.35
569.97	60315.61
570.13	60212.62
570.30	60072.19
570.46	60205.60
570.62	60566.04
570.78	60341.35
570.95	60261.77
571.11	60629.24
571.27	60327.31
571.43	60535.62
571.60	60339.01
571.76	60493.49
571.92	60505.19
572.09	60317.95
572.25	60427.95
572.41	60465.40
572.57	60399.86
572.74	60699.45
572.90	60430.29
573.06	60556.68
573.22	60474.76
573.38	60453.70
573.55	60500.51
573.71	60617.53
573.87	60587.11
574.03	60310.92
574.20	60509.87
574.36	60381.14
574.52	60669.03
574.68	60502.85
574.84	60701.79
575.01	60631.58
575.17	60521.57
575.33	60542.64
575.49	60465.40
575.65	60727.54
575.82	60680.73
575.98	60629.24
576.14	60781.37
576.30	60767.33
576.46	60694.77
576.62	60491.15
576.79	60647.96
576.95	60446.68
577.11	60631.58
577.27	60650.30
577.43	60809.46
577.59	60568.38
577.75	60507.53
577.92	60608.17
578.08	60505.19
578.24	60669.03
578.40	60694.77
578.56	60828.18
578.72	60692.43
578.88	60685.41
579.04	60919.46
579.21	60640.94
579.37	60865.63
579.53	60760.31
579.69	60626.90
579.85	60638.60
580.01	60615.19
580.17	60589.45
580.33	60867.97
580.49	60734.56
580.65	60865.63
580.82	60535.62
580.98	60678.39
581.14	60659.66
581.30	60839.89
581.46	60718.18
581.62	60891.38
581.78	60669.03
581.94	60762.65
582.10	60746.26
582.26	60856.27
582.42	60615.19
582.58	60891.38
582.74	60743.92
582.90	60839.89
583.06	60830.52
583.22	60650.30
583.38	60760.31
583.54	60898.40
583.70	60966.27
583.86	60954.57
584.02	60802.44
584.18	60877.33
584.34	60809.46
584.50	60743.92
584.66	60659.66
584.82	60779.03
584.98	60994.36
585.14	60891.38
585.30	60762.65
585.46	60856.27
585.62	60713.50
585.78	60947.55
585.94	60666.69
586.10	60762.65
586.26	60898.40
586.42	60980.32
586.58	61013.08
586.74	60846.91
586.90	60851.59
587.06	60694.77
587.22	60914.78
587.38	60996.70
587.54	61160.54
587.70	61104.37
587.86	60893.72
588.02	60970.96
588.18	61104.37
588.34	60825.84
588.49	61062.24
