SpectraSuite Data File
++++++++++++++++++++++++++++++++++++
Date: Fri Oct 25 11:26:15 EDT 2013
User: price-jones
Dark Spectrum Present: No
Reference Spectrum Present: No
Number of Sampled Component Spectra: 1
Spectrometers: USB2+H05261
Integration Time (usec): 100000 (USB2+H05261)
Spectra Averaged: 1 (USB2+H05261)
Boxcar Smoothing: 0 (USB2+H05261)
Correct for Electrical Dark: No (USB2+H05261)
Strobe/Lamp Enabled: No (USB2+H05261)
Correct for Detector Non-linearity: No (USB2+H05261)
Correct for Stray Light: No (USB2+H05261)
Number of Pixels in Processed Spectrum: 2048
>>>>>Begin Processed Spectral Data<<<<<
365.73	283.20
365.92	283.20
366.12	283.20
366.32	191.92
366.52	154.48
366.72	161.50
366.91	133.41
367.11	166.18
367.31	72.56
367.51	102.98
367.70	102.98
367.90	114.69
368.10	191.92
368.30	170.86
368.49	152.13
368.69	180.22
368.89	140.43
369.09	142.77
369.28	117.03
369.48	217.67
369.68	264.48
369.87	170.86
370.07	217.67
370.27	152.13
370.47	290.23
370.66	587.47
370.86	594.50
371.06	662.37
371.25	725.57
371.45	603.86
371.65	732.59
371.84	650.67
372.04	718.54
372.24	716.20
372.44	734.93
372.63	725.57
372.83	774.72
373.03	737.27
373.22	713.86
373.42	791.10
373.62	767.70
373.81	760.67
374.01	741.95
374.21	753.65
374.40	758.33
374.60	774.72
374.79	910.47
374.99	791.10
375.19	854.30
375.38	781.74
375.58	798.12
375.78	931.53
375.97	814.51
376.17	903.45
376.37	795.78
376.56	891.74
376.76	819.19
376.95	880.04
377.15	880.04
377.35	828.55
377.54	875.36
377.74	968.98
377.93	863.66
378.13	889.40
378.33	990.05
378.52	856.64
378.72	931.53
378.91	858.98
379.11	931.53
379.31	968.98
379.50	940.90
379.70	973.66
379.89	1018.13
380.09	973.66
380.28	990.05
380.48	994.73
380.68	1015.79
380.87	1006.43
381.07	1008.77
381.26	1018.13
381.46	957.28
381.65	973.66
381.85	985.37
382.04	1055.58
382.24	1107.07
382.43	1020.47
382.63	1067.28
382.83	1069.62
383.02	1095.37
383.22	1149.20
383.41	1048.56
383.61	1163.25
383.80	1125.80
384.00	1142.18
384.19	1163.25
384.39	1156.22
384.58	1102.39
384.78	1123.46
384.97	1149.20
385.17	1172.61
385.36	1104.73
385.56	1125.80
385.75	1163.25
385.95	1130.48
386.14	1282.61
386.34	1226.44
386.53	1210.06
386.72	1266.23
386.92	1282.61
387.11	1233.46
387.31	1221.76
387.50	1151.54
387.70	1158.57
387.89	1266.23
388.09	1184.31
388.28	1313.04
388.48	1240.48
388.67	1310.70
388.86	1280.27
389.06	1310.70
389.25	1378.58
389.45	1247.51
389.64	1418.36
389.84	1322.40
390.03	1324.74
390.22	1437.09
390.42	1439.43
390.61	1392.62
390.81	1409.00
391.00	1341.13
391.19	1434.75
391.39	1455.81
391.58	1458.15
391.78	1495.60
391.97	1521.35
392.16	1535.39
392.36	1626.67
392.55	1481.56
392.75	1542.41
392.94	1416.02
393.13	1535.39
393.33	1605.61
393.52	1640.72
393.71	1591.56
393.91	1598.59
394.10	1603.27
394.29	1579.86
394.49	1614.97
394.68	1596.25
394.88	1572.84
395.07	1643.06
395.26	1636.03
395.46	1624.33
395.65	1710.93
395.84	1743.70
396.04	1774.13
396.23	1717.95
396.42	1689.87
396.62	1774.13
396.81	1884.13
397.00	1809.23
397.19	1685.19
397.39	1734.34
397.58	1893.49
397.77	1797.53
397.97	1816.26
398.16	1816.26
398.35	1849.02
398.55	1933.28
398.74	1874.77
398.93	1984.77
399.12	1942.64
399.32	1837.32
399.51	1970.73
399.70	1977.75
399.90	1970.73
400.09	2001.16
400.28	2024.56
400.47	2022.22
400.67	2115.84
400.86	2111.16
401.05	2118.18
401.24	2157.97
401.44	2157.97
401.63	2132.23
401.82	2165.00
402.01	2141.59
402.21	2094.78
402.40	2115.84
402.59	2286.70
402.78	2235.21
402.97	2204.78
403.17	2197.76
403.36	2202.44
403.55	2340.54
403.74	2265.64
403.93	2251.60
404.13	2373.30
404.32	2279.68
404.51	2429.48
404.70	2420.11
404.89	2312.45
405.09	2298.41
405.28	2396.71
405.47	2375.64
405.66	2539.48
405.85	2562.89
406.05	2471.61
406.24	2434.16
406.43	2492.67
406.62	2567.57
406.81	2614.38
407.00	2597.99
407.20	2506.71
407.39	2647.15
407.58	2792.26
407.77	2778.22
407.96	2726.72
408.15	2670.55
408.34	2675.23
408.54	2757.15
408.73	2839.07
408.92	2939.71
409.11	2796.94
409.30	2747.79
409.49	2775.88
409.68	2935.03
409.87	2909.29
410.07	2979.50
410.26	2937.37
410.45	2932.69
410.64	3016.95
410.83	3084.83
411.02	3157.38
411.21	3199.51
411.40	3190.15
411.59	3234.62
411.78	3220.58
411.98	3290.79
412.17	3260.37
412.36	3211.22
412.55	3199.51
412.74	3375.05
412.93	3356.33
413.12	3384.41
413.31	3506.12
413.50	3377.39
413.69	3473.36
413.88	3562.30
414.07	3625.49
414.26	3761.24
414.45	3714.43
414.64	3700.39
414.83	3798.69
415.02	3574.00
415.22	3805.71
415.41	3880.61
415.60	3887.63
415.79	4004.66
415.98	3939.12
416.17	3992.95
416.36	3953.16
416.55	4028.06
416.74	4042.11
416.93	4051.47
417.12	4182.54
417.31	4119.34
417.50	4140.41
417.69	4257.43
417.88	4308.93
418.07	4287.86
418.26	4353.40
418.45	4311.27
418.64	4500.85
418.83	4285.52
419.02	4332.33
419.21	4557.02
419.39	4456.38
419.58	4358.08
419.77	4458.72
419.96	4477.44
420.15	4545.32
420.34	4547.66
420.53	4353.40
420.72	4617.88
420.91	4662.35
421.10	4610.86
421.29	4561.70
421.48	4685.75
421.67	4706.82
421.86	4610.86
422.05	4882.36
422.24	4819.16
422.43	4798.10
422.61	4744.27
422.80	4856.61
422.99	4915.12
423.18	4905.76
423.37	5050.88
423.56	4968.96
423.75	4842.57
423.94	4816.82
424.13	4709.16
424.32	4767.67
424.50	5006.41
424.69	4978.32
424.88	5097.69
425.07	4870.65
425.26	4954.91
425.45	4933.85
425.64	5048.54
425.83	4985.34
426.01	5095.35
426.20	5015.77
426.39	4980.66
426.58	4957.25
426.77	4950.23
426.96	5071.94
427.15	5121.09
427.33	5144.50
427.52	5142.16
427.71	5254.50
427.90	5149.18
428.09	5298.97
428.28	5329.40
428.46	5390.25
428.65	5256.84
428.84	5413.66
429.03	5584.52
429.22	5298.97
429.40	5540.05
429.59	5502.60
429.78	5198.33
429.97	5305.99
430.16	5413.66
430.34	5654.73
430.53	5771.76
430.72	5636.01
430.91	5591.54
431.10	5750.70
431.28	5703.89
431.47	5767.08
431.66	5792.83
431.85	5748.36
432.03	5914.53
432.22	5921.56
432.41	5980.07
432.60	5834.96
432.79	5776.44
432.97	5900.49
433.16	6066.67
433.35	5874.74
433.54	6026.88
433.72	6115.82
433.91	6099.44
434.10	6111.14
434.28	5959.00
434.47	6216.46
434.66	6291.36
434.85	6244.55
435.03	6274.98
435.22	6160.29
435.41	6422.43
435.59	6331.15
435.78	6494.99
435.97	6497.33
436.16	6387.32
436.34	6534.78
436.53	6642.44
436.72	6455.20
436.90	6457.54
437.09	6560.52
437.28	6469.24
437.46	6530.09
437.65	6663.51
437.84	6612.01
438.02	6487.96
438.21	6600.31
438.40	6649.46
438.58	6876.49
438.77	7112.89
438.96	6722.02
439.14	7084.80
439.33	7068.42
439.52	7183.10
439.70	7295.45
439.89	7215.87
440.08	7339.92
440.26	7414.82
440.45	7318.86
440.63	7295.45
440.82	7698.02
441.01	7463.97
441.19	7431.20
441.38	7545.89
441.57	7885.26
441.75	7840.79
441.94	7829.09
442.12	7871.22
442.31	8037.40
442.50	7964.84
442.68	7754.19
442.87	7967.18
443.05	8266.77
443.24	8107.62
443.43	8025.70
443.61	7971.86
443.80	8547.64
443.98	8152.09
444.17	7798.66
444.35	8079.53
444.54	8229.32
444.73	8353.37
444.91	8234.00
445.10	8351.03
445.28	8318.26
445.47	8212.94
445.65	8208.26
445.84	8273.79
446.02	8503.17
446.21	8252.73
446.39	8224.64
446.58	8498.49
446.77	8514.87
446.95	8346.35
447.14	8336.99
447.32	8512.53
447.51	8374.44
447.69	8358.05
447.88	8456.36
448.06	8493.80
448.25	8416.57
448.43	8503.17
448.62	8610.83
448.80	8622.53
448.99	8751.26
449.17	8837.86
449.36	8425.93
449.54	8781.69
449.73	8865.95
449.91	9011.06
450.10	8990.00
450.28	9081.28
450.46	9144.47
450.65	8940.85
450.83	8917.44
451.02	8973.61
451.20	8837.86
451.39	8964.25
451.57	9165.54
451.76	8868.29
451.94	9221.71
452.13	9158.52
452.31	9322.35
452.49	9186.60
452.68	9174.90
452.86	9118.73
453.05	9640.67
453.23	9465.13
453.42	9247.46
453.60	9322.35
453.78	9558.75
453.97	9380.87
454.15	9397.25
454.34	9357.46
454.52	9638.33
454.70	9392.57
454.89	9738.97
455.07	9795.14
455.26	9727.27
455.44	9802.16
455.62	10008.13
455.81	9818.55
455.99	9832.59
456.17	10033.88
456.36	9996.43
456.54	9958.98
456.73	10300.70
456.91	10476.24
457.09	10448.15
457.28	10616.67
457.46	10237.50
457.64	10408.36
457.83	10413.04
458.01	10415.38
458.19	10684.55
458.38	10492.62
458.56	10714.97
458.74	10792.21
458.93	10736.04
459.11	10661.14
459.29	10867.11
459.48	10757.10
459.66	10752.42
459.84	10801.57
460.03	11222.87
460.21	11063.71
460.39	10707.95
460.57	10923.28
460.76	11108.18
460.94	11068.39
461.12	11243.93
461.31	10986.47
461.49	11026.26
461.67	11288.40
461.85	11295.43
462.04	11023.92
462.22	12053.76
462.40	11693.32
462.59	11407.77
462.77	11630.12
462.95	11552.88
463.13	11351.60
463.32	11562.25
463.50	11782.26
463.68	11573.95
463.86	11698.00
464.05	11438.20
464.23	11449.90
464.41	11763.53
464.59	11562.25
464.78	12116.95
464.96	11695.66
465.14	12016.31
465.32	11948.43
465.50	11957.80
465.69	12250.36
465.87	12053.76
466.05	12222.28
466.23	12081.85
466.41	12063.12
466.60	12521.87
466.78	12067.80
466.96	12184.83
467.14	12053.76
467.32	12386.12
467.51	12463.35
467.69	12299.52
467.87	12346.33
468.05	12519.53
468.23	12243.34
468.41	12428.24
468.60	12650.60
468.78	12769.96
468.96	12507.82
469.14	12746.56
469.32	12805.07
469.50	12606.13
469.69	12929.12
469.87	13144.45
470.05	12671.66
470.23	13050.83
470.41	13287.22
470.59	13177.22
470.77	12994.65
470.95	13116.36
471.14	13352.76
471.32	12994.65
471.50	13411.27
471.68	13338.71
471.86	13465.10
472.04	13610.22
472.22	13891.08
472.40	13640.64
472.58	13879.38
472.77	13874.70
472.95	13965.98
473.13	14640.05
473.31	13935.55
473.49	13792.78
473.67	13963.64
473.85	14197.69
474.03	14572.18
474.21	14548.77
474.39	14803.89
474.57	14579.20
474.75	14869.42
474.93	14665.80
475.12	14712.61
475.30	14939.64
475.48	14916.23
475.66	14839.00
475.84	15080.07
476.02	15129.22
476.20	15089.43
476.38	15557.54
476.56	15925.00
476.74	15782.23
476.92	15892.24
477.10	15714.36
477.28	16027.99
477.46	16222.25
477.64	16177.78
477.82	16648.23
478.00	16835.47
478.18	16578.01
478.36	16594.40
478.54	17167.83
478.72	16875.26
478.90	17355.07
479.08	17537.63
479.26	17612.53
479.44	17638.28
479.62	17748.28
479.80	17816.16
479.98	17860.63
480.16	18452.78
480.34	18249.16
480.52	18466.83
480.70	18356.82
480.88	18288.95
481.06	18576.83
481.24	18700.88
481.41	19126.86
481.59	19037.92
481.77	19391.34
481.95	19527.09
482.13	19648.80
482.31	19978.81
482.49	20236.27
482.67	19953.07
482.85	20247.97
483.03	20383.73
483.21	20606.08
483.39	20908.01
483.57	21020.35
483.74	21245.04
483.92	21202.91
484.10	21249.72
484.28	21741.24
484.46	21774.00
484.64	22216.36
484.82	21696.77
485.00	22253.81
485.18	22614.26
485.35	22813.20
485.53	22808.52
485.71	22974.70
485.89	23218.11
486.07	23241.52
486.25	23403.02
486.43	23396.00
486.61	23765.80
486.78	23857.08
486.96	24086.45
487.14	24336.89
487.32	24503.07
487.50	24884.58
487.68	24842.45
487.85	25362.04
488.03	25186.50
488.21	25766.96
488.39	25745.89
488.57	26047.82
488.75	25912.07
488.92	26696.15
489.10	26134.42
489.28	26937.23
489.46	26998.08
489.64	26972.33
489.81	27475.55
489.99	27463.85
490.17	27407.67
490.35	28173.03
490.53	27868.76
490.70	28130.90
490.88	28046.64
491.06	28758.16
491.24	28540.49
491.41	28711.35
491.59	29010.94
491.77	28959.45
491.95	29116.26
492.13	29532.88
492.30	29883.96
492.48	30094.61
492.66	29944.81
492.84	30118.01
493.01	30740.60
493.19	30443.35
493.37	30761.66
493.54	30824.86
493.72	31395.95
493.90	31126.78
494.08	31864.05
494.25	31927.25
494.43	32105.13
494.61	32292.37
494.79	32397.70
494.96	32254.92
495.14	32797.93
495.32	33024.96
495.49	33170.07
495.67	33254.33
495.85	33380.72
496.02	33415.83
496.20	33947.13
496.38	33909.68
496.55	34000.96
496.73	34881.00
496.91	34209.27
497.09	34604.82
497.26	34691.42
497.44	34710.14
497.62	34857.60
497.79	35814.88
497.97	35309.32
498.14	35646.36
498.32	35810.20
498.50	36086.38
498.67	36236.17
498.85	36203.41
499.03	36439.80
499.20	36343.84
499.38	37076.43
499.56	37031.96
499.73	36928.97
499.91	37198.13
500.08	36725.35
500.26	37230.90
500.44	37256.65
500.61	37652.20
500.79	37832.42
500.97	37865.19
501.14	38384.79
501.32	38326.27
501.49	38087.54
501.67	38925.45
501.84	39042.48
502.02	38291.16
502.20	39054.18
502.37	39262.49
502.55	39035.45
502.72	39187.59
502.90	39435.69
503.07	39545.69
503.25	39945.92
503.43	39622.93
503.60	39566.76
503.78	39936.56
503.95	40044.23
504.13	40135.51
504.30	40453.82
504.48	40163.59
504.65	40641.06
504.83	40292.32
505.01	41273.01
505.18	41071.72
505.36	41275.35
505.53	41270.67
505.71	41766.86
505.88	41673.24
506.06	41102.15
506.23	41954.10
506.41	41626.43
506.58	41750.48
506.76	42288.80
506.93	42536.90
507.11	42141.35
507.28	42401.14
507.46	42447.96
507.63	42740.52
507.81	42895.00
507.98	42831.80
508.16	42792.01
508.33	43225.01
508.50	43470.77
508.68	43278.85
508.85	43533.96
509.03	43882.70
509.20	43475.45
509.38	43660.35
509.55	43845.26
509.73	44507.63
509.90	44711.25
510.08	44151.87
510.25	44268.89
510.42	44875.09
510.60	45001.48
510.77	45111.49
510.95	45078.72
511.12	44680.83
511.30	44966.37
511.47	45148.93
511.64	45450.86
511.82	45610.02
511.99	45467.25
512.17	45617.04
512.34	45207.45
512.51	46485.38
512.69	46387.08
512.86	45951.74
513.04	46590.70
513.21	46724.11
513.38	46735.82
513.56	46642.20
513.73	46469.00
513.90	46927.74
514.08	46387.08
514.25	47117.32
514.43	47456.70
514.60	47285.84
514.77	47405.21
514.95	47306.91
515.12	47524.58
515.29	47496.49
515.47	47831.19
515.64	47847.57
515.81	47695.44
515.99	47892.04
516.16	48325.04
516.33	47859.27
516.51	48355.47
516.68	48137.80
516.85	48458.45
517.03	48385.89
517.20	48657.40
517.37	48556.75
517.54	48556.75
517.72	48816.55
517.89	49200.40
518.06	48849.32
518.24	49268.28
518.41	49017.84
518.58	49015.50
518.75	49317.43
518.93	49010.82
519.10	48811.87
519.27	49710.64
519.45	49556.16
519.62	49909.58
519.79	50007.89
519.96	49624.04
520.14	49949.37
520.31	49813.62
520.48	50314.50
520.65	49965.76
520.83	50401.10
521.00	50801.33
521.17	50499.40
521.34	50621.11
521.52	50319.18
521.69	50583.66
521.86	50766.22
522.03	51124.32
522.20	51077.51
522.38	51229.65
522.55	51206.24
522.72	51096.24
522.89	51229.65
523.07	51229.65
523.24	51309.22
523.41	51274.12
523.58	51278.80
523.75	51440.29
523.92	51763.29
524.10	51861.59
524.27	51920.10
524.44	52107.35
524.61	52083.94
524.78	51920.10
524.96	52086.28
525.13	52179.90
525.30	52191.61
525.47	52556.73
525.64	52296.93
525.81	52404.59
525.98	52549.71
526.16	52301.61
526.33	52252.46
526.50	52912.49
526.67	52704.18
526.84	52704.18
527.01	52947.60
527.18	52931.22
527.36	52676.10
527.53	53013.13
527.70	53347.83
527.87	53207.40
528.04	53104.41
528.21	53305.70
528.38	52933.56
528.55	53193.36
528.72	53432.09
528.89	53310.38
529.07	53308.04
529.24	53137.18
529.41	53577.20
529.58	53844.02
529.75	53745.72
529.92	53504.65
530.09	53457.84
530.26	53745.72
530.43	53574.86
530.60	53668.48
530.77	53755.08
530.94	54145.95
531.11	53827.64
531.28	53944.67
531.46	54040.63
531.63	54204.47
531.80	54099.14
531.97	54387.03
532.14	54391.71
532.31	54185.74
532.48	54412.77
532.65	54314.47
532.82	54436.18
532.99	54747.47
533.16	54440.86
533.33	54834.07
533.50	54693.64
533.67	54677.25
533.84	54391.71
534.01	54855.14
534.18	54897.27
534.35	54962.80
534.52	54770.88
534.69	55173.45
534.86	55302.18
535.03	55000.25
535.20	54951.10
535.37	55215.58
535.54	55318.56
535.71	55166.43
535.88	55363.03
536.05	55379.42
536.22	55461.33
536.38	55473.04
536.55	55313.88
536.72	55501.12
536.89	55437.93
537.06	55365.37
537.23	55545.59
537.40	55456.65
537.57	55524.53
537.74	55648.58
537.91	55784.33
538.08	55554.96
538.25	55728.16
538.42	55789.01
538.59	56151.79
538.75	55730.50
538.92	56142.43
539.09	55980.93
539.26	56044.13
539.43	55697.73
539.60	56128.39
539.77	56093.28
539.94	56289.88
540.11	55917.74
540.28	56470.11
540.44	56329.67
540.61	56320.31
540.78	56126.05
540.95	56341.38
541.12	56236.05
541.29	56530.96
541.46	56346.06
541.62	56498.19
541.79	56552.02
541.96	56481.81
542.13	56420.95
542.30	56509.89
542.47	56556.70
542.63	56886.72
542.80	56526.28
542.97	56975.66
543.14	56987.36
543.31	57010.77
543.48	56966.30
543.64	57015.45
543.81	57102.05
543.98	57010.77
544.15	57137.16
544.32	57375.89
544.48	57525.69
544.65	57120.77
544.82	57242.48
544.99	57226.10
545.16	57516.32
545.32	57205.03
545.49	57542.07
545.66	57595.90
545.83	57366.53
546.00	57558.45
546.16	57336.10
546.33	57254.18
546.50	57432.07
546.67	57556.11
546.83	57443.77
547.00	57593.56
547.17	57563.14
547.34	57691.86
547.50	57935.28
547.67	58127.20
547.84	57939.96
548.00	57778.46
548.17	57963.37
548.34	57832.30
548.51	57984.43
548.67	58115.50
548.84	57862.72
549.01	57832.30
549.18	58188.06
549.34	57982.09
549.51	58269.98
549.68	58298.06
549.84	58330.83
550.01	58440.84
550.18	58202.10
550.34	58379.98
550.51	58356.58
550.68	58326.15
550.84	57911.88
551.01	58349.56
551.18	58387.00
551.34	58401.05
551.51	58508.71
551.68	58522.76
551.84	58513.39
552.01	58253.59
552.18	58578.93
552.34	58438.50
552.51	58674.89
552.68	58305.09
552.84	58557.86
553.01	58838.73
553.18	58644.46
553.34	58770.85
553.51	58768.51
553.67	58616.38
553.84	59025.97
554.01	59016.61
554.17	58885.54
554.34	58983.84
554.51	58986.18
554.67	59152.36
554.84	58838.73
555.00	59025.97
555.17	58768.51
555.33	58958.09
555.50	58735.74
555.67	59152.36
555.83	58901.92
556.00	59025.97
556.16	59143.00
556.33	59185.13
556.50	59196.83
556.66	59339.60
556.83	59323.22
556.99	59341.94
557.16	59323.22
557.32	59302.15
557.49	59400.46
557.65	59068.10
557.82	59264.70
557.98	59154.70
558.15	59442.59
558.32	59248.32
558.48	59243.64
558.65	59288.11
558.81	59346.62
558.98	59465.99
559.14	59547.91
559.31	59662.60
559.47	59662.60
559.64	59491.74
559.80	59653.23
559.97	59648.55
560.13	59477.69
560.30	59744.51
560.46	59540.89
560.63	59468.33
560.79	59807.71
560.96	59723.45
561.12	59634.51
561.29	59697.70
561.45	59835.80
561.61	59758.56
561.78	59863.88
561.94	59625.15
562.11	59723.45
562.27	59920.05
562.44	59791.33
562.60	59966.87
562.77	60023.04
562.93	59718.77
563.10	59976.23
563.26	59664.94
563.42	60097.94
563.59	59929.42
563.75	59711.75
563.92	59877.93
564.08	59819.41
564.24	60027.72
564.41	59901.33
564.57	60226.66
564.74	60020.70
564.90	59994.95
565.07	60081.55
565.23	59985.59
565.39	59898.99
565.56	60072.19
565.72	60067.51
565.88	60023.04
566.05	60046.44
566.21	60161.13
566.38	60177.51
566.54	60163.47
566.70	60336.67
566.87	60296.88
567.03	59901.33
567.19	60198.58
567.36	60144.75
567.52	59971.55
567.68	60519.23
567.85	60390.50
568.01	60280.50
568.17	60163.47
568.34	60224.32
568.50	60273.48
568.66	60299.22
568.83	60392.84
568.99	60109.64
569.15	60320.29
569.32	60292.20
569.48	60362.42
569.64	60210.28
569.81	60257.09
569.97	60062.83
570.13	60425.61
570.30	60156.45
570.46	60418.59
570.62	60147.09
570.78	60331.99
570.95	60320.29
571.11	60346.03
571.27	60214.96
571.43	60385.82
571.60	60598.81
571.76	60523.91
571.92	60537.96
572.09	60575.40
572.25	60350.71
572.41	60563.70
572.57	60381.14
572.74	60636.26
572.90	60303.90
573.06	60486.46
573.22	60549.66
573.38	60523.91
573.55	60547.32
573.71	60713.50
573.87	60718.18
574.03	60367.10
574.20	60392.84
574.36	60425.61
574.52	60573.06
574.68	60760.31
574.84	60673.71
575.01	60835.20
575.17	60512.21
575.33	60666.69
575.49	60566.04
575.65	60659.66
575.82	60760.31
575.98	60781.37
576.14	60821.16
576.30	60692.43
576.46	60549.66
576.62	60687.75
576.79	60542.64
576.95	60437.31
577.11	60631.58
577.27	60779.03
577.43	60680.73
577.59	60680.73
577.75	60629.24
577.92	60640.94
578.08	60598.81
578.24	60640.94
578.40	60886.70
578.56	60961.59
578.72	60762.65
578.88	60945.21
579.04	60968.61
579.21	60814.14
579.37	60968.61
579.53	60776.69
579.69	60420.93
579.85	60657.32
580.01	60673.71
580.17	60612.85
580.33	60713.50
580.49	60889.04
580.65	60786.05
580.82	60893.72
580.98	60762.65
581.14	60809.46
581.30	60898.40
581.46	60729.88
581.62	60734.56
581.78	60561.36
581.94	60757.97
582.10	60664.35
582.26	60935.85
582.42	60926.49
582.58	60912.44
582.74	60622.22
582.90	60860.95
583.06	60947.55
583.22	60839.89
583.38	60687.75
583.54	60867.97
583.70	60739.24
583.86	60926.49
584.02	60741.58
584.18	61024.79
584.34	60921.80
584.50	60959.25
584.66	60788.39
584.82	60795.42
584.98	61038.83
585.14	60994.36
585.30	60818.82
585.46	60732.22
585.62	60919.46
585.78	61141.81
585.94	60666.69
586.10	61113.73
586.26	60889.04
586.42	60968.61
586.58	61050.53
586.74	60891.38
586.90	60938.19
587.06	60685.41
587.22	61087.98
587.38	61052.87
587.54	60919.46
587.70	61099.68
587.86	61017.77
588.02	61083.30
588.18	61151.18
588.34	60933.51
588.49	60963.93
