SpectraSuite Data File
++++++++++++++++++++++++++++++++++++
Date: Fri Oct 25 11:24:05 EDT 2013
User: price-jones
Dark Spectrum Present: No
Reference Spectrum Present: No
Number of Sampled Component Spectra: 1
Spectrometers: USB2+H05261
Integration Time (usec): 100000 (USB2+H05261)
Spectra Averaged: 1 (USB2+H05261)
Boxcar Smoothing: 0 (USB2+H05261)
Correct for Electrical Dark: No (USB2+H05261)
Strobe/Lamp Enabled: No (USB2+H05261)
Correct for Detector Non-linearity: No (USB2+H05261)
Correct for Stray Light: No (USB2+H05261)
Number of Pixels in Processed Spectrum: 2048
>>>>>Begin Processed Spectral Data<<<<<
365.73	238.73
365.92	238.73
366.12	238.73
366.32	110.01
366.52	149.79
366.72	98.30
366.91	145.11
367.11	112.35
367.31	145.11
367.51	105.32
367.70	145.11
367.90	159.16
368.10	98.30
368.30	142.77
368.49	177.88
368.69	126.39
368.89	107.66
369.09	110.01
369.28	205.97
369.48	159.16
369.68	119.37
369.87	131.07
370.07	234.05
370.27	287.89
370.47	348.74
370.66	568.75
370.86	671.73
371.06	638.97
371.25	653.01
371.45	713.86
371.65	753.65
371.84	765.36
372.04	645.99
372.24	683.44
372.44	758.33
372.63	774.72
372.83	720.88
373.03	786.42
373.22	718.54
373.42	706.84
373.62	727.91
373.81	812.17
374.01	763.01
374.21	849.61
374.40	737.27
374.60	875.36
374.79	809.83
374.99	950.26
375.19	828.55
375.38	884.72
375.58	826.21
375.78	896.43
375.97	816.85
376.17	1001.75
376.37	821.53
376.56	894.08
376.76	875.36
376.95	844.93
377.15	863.66
377.35	896.43
377.54	866.00
377.74	821.53
377.93	917.49
378.13	912.81
378.33	961.96
378.52	924.51
378.72	1008.77
378.91	999.41
379.11	922.17
379.31	968.98
379.50	894.08
379.70	1011.11
379.89	994.73
380.09	1006.43
380.28	938.55
380.48	983.02
380.68	924.51
380.87	997.07
381.07	983.02
381.26	1022.81
381.46	1083.67
381.65	1074.31
381.85	1008.77
382.04	1111.75
382.24	1022.81
382.43	1027.50
382.63	1086.01
382.83	1048.56
383.02	1121.12
383.22	1149.20
383.41	1102.39
383.61	1039.20
383.80	1128.14
384.00	1060.26
384.19	1081.33
384.39	1125.80
384.58	1064.94
384.78	1102.39
384.97	1151.54
385.17	1238.14
385.36	1130.48
385.56	1116.44
385.75	1233.46
385.95	1217.08
386.14	1254.53
386.34	1210.06
386.53	1240.48
386.72	1193.67
386.92	1259.21
387.11	1200.69
387.31	1196.01
387.50	1259.21
387.70	1284.95
387.89	1294.32
388.09	1284.95
388.28	1362.19
388.48	1294.32
388.67	1357.51
388.86	1275.59
389.06	1303.68
389.25	1352.83
389.45	1341.13
389.64	1350.49
389.84	1437.09
390.03	1430.07
390.22	1427.73
390.42	1296.66
390.61	1399.64
390.81	1355.17
391.00	1511.99
391.19	1455.81
391.39	1453.47
391.58	1507.30
391.78	1500.28
391.97	1511.99
392.16	1481.56
392.36	1448.79
392.55	1537.73
392.75	1441.77
392.94	1493.26
393.13	1514.33
393.33	1535.39
393.52	1565.82
393.71	1661.78
393.91	1540.07
394.10	1596.25
394.29	1621.99
394.49	1612.63
394.68	1584.54
394.88	1668.80
395.07	1715.61
395.26	1652.42
395.46	1584.54
395.65	1717.95
395.84	1696.89
396.04	1842.00
396.23	1657.10
396.42	1792.85
396.62	1724.97
396.81	1746.04
397.00	1799.87
397.19	1767.10
397.39	1900.52
397.58	1842.00
397.77	1816.26
397.97	1846.68
398.16	1930.94
398.35	1877.11
398.55	1820.94
398.74	1928.60
398.93	1984.77
399.12	1856.04
399.32	1930.94
399.51	1863.07
399.70	2001.16
399.90	1902.86
400.09	2008.18
400.28	1998.82
400.47	2064.35
400.67	2150.95
400.86	2010.52
401.05	2181.38
401.24	2047.97
401.44	2106.48
401.63	2256.28
401.82	2186.06
402.01	2174.36
402.21	2162.66
402.40	2291.38
402.59	2188.40
402.78	2188.40
402.97	2209.47
403.17	2195.42
403.36	2150.95
403.55	2303.09
403.74	2424.80
403.93	2232.87
404.13	2408.41
404.32	2399.05
404.51	2445.86
404.70	2487.99
404.89	2478.63
405.09	2518.42
405.28	2480.97
405.47	2476.29
405.66	2497.35
405.85	2614.38
406.05	2565.23
406.24	2595.65
406.43	2562.89
406.62	2663.53
406.81	2649.49
407.00	2619.06
407.20	2588.63
407.39	2605.02
407.58	2729.06
407.77	2846.09
407.96	2764.17
408.15	2698.64
408.34	2729.06
408.54	2890.56
408.73	2724.38
408.92	2890.56
409.11	2883.54
409.30	2899.92
409.49	2904.60
409.68	2892.90
409.87	2970.14
410.07	3112.91
410.26	3000.57
410.45	3016.95
410.64	2967.80
410.83	3091.85
411.02	3119.93
411.21	3251.00
411.40	3112.91
411.59	3171.43
411.78	3117.59
411.98	3098.87
412.17	3129.30
412.36	3405.48
412.55	3440.59
412.74	3321.22
412.93	3468.67
413.12	3316.54
413.31	3478.04
413.50	3454.63
413.69	3461.65
413.88	3648.90
414.07	3499.10
414.26	3550.59
414.45	3630.17
414.64	3665.28
414.83	3782.31
415.02	3779.97
415.22	3836.14
415.41	3723.79
415.60	3859.54
415.79	3971.89
415.98	4058.49
416.17	4028.06
416.36	4044.45
416.55	3985.93
416.74	4098.28
416.93	4030.40
417.12	4194.24
417.31	4215.30
417.50	4344.03
417.69	4395.53
417.88	4283.18
418.07	4301.90
418.26	4248.07
418.45	4372.12
418.64	4383.82
418.83	4318.29
419.02	4449.36
419.21	4559.36
419.39	4552.34
419.58	4524.26
419.77	4477.44
419.96	4634.26
420.15	4596.81
420.34	4648.30
420.53	4533.62
420.72	4704.48
420.91	4660.01
421.10	4814.48
421.29	4828.53
421.48	4645.96
421.67	4816.82
421.86	4744.27
422.05	4924.49
422.24	4880.02
422.43	5041.51
422.61	5006.41
422.80	5011.09
422.99	4959.60
423.18	4954.91
423.37	5006.41
423.56	4905.76
423.75	4891.72
423.94	4877.68
424.13	4641.28
424.32	4692.77
424.50	5114.07
424.69	5111.73
424.88	5231.10
425.07	4861.29
425.26	5015.77
425.45	5015.77
425.64	5046.20
425.83	5057.90
426.01	4957.25
426.20	5020.45
426.39	5074.28
426.58	5046.20
426.77	5151.52
426.96	5114.07
427.15	5217.05
427.33	5235.78
427.52	5011.09
427.71	5313.02
427.90	5219.39
428.09	5270.89
428.28	5425.36
428.46	5235.78
428.65	5324.72
428.84	5556.43
429.03	5481.53
429.22	5284.93
429.40	5315.36
429.59	5462.81
429.78	5359.83
429.97	5289.61
430.16	5551.75
430.34	5736.65
430.53	5636.01
430.72	5706.23
430.91	5556.43
431.10	5533.03
431.28	5818.57
431.47	5804.53
431.66	5666.44
431.85	5898.15
432.03	5975.39
432.22	5928.58
432.41	5954.32
432.60	5963.68
432.79	6071.35
432.97	6045.60
433.16	6008.16
433.35	5839.64
433.54	5980.07
433.72	6115.82
433.91	5996.45
434.10	6153.27
434.28	6139.23
434.47	6279.66
434.66	6225.82
434.85	6384.98
435.03	6441.15
435.22	6298.38
435.41	6558.18
435.59	6492.65
435.78	6539.46
435.97	6527.75
436.16	6389.66
436.34	6478.60
436.53	6609.67
436.72	6820.32
436.90	6469.24
437.09	6623.72
437.28	6553.50
437.46	6553.50
437.65	6569.88
437.84	6658.82
438.02	6820.32
438.21	6794.58
438.40	6801.60
438.58	6913.94
438.77	7070.76
438.96	6909.26
439.14	7112.89
439.33	7218.21
439.52	7262.68
439.70	7185.44
439.89	7248.64
440.08	7318.86
440.26	7644.19
440.45	7452.27
440.63	7557.59
440.82	7536.52
441.01	7440.56
441.19	7585.68
441.38	7831.43
441.57	7735.47
441.75	7819.73
441.94	7866.54
442.12	8065.49
442.31	8074.85
442.50	8042.08
442.68	8016.33
442.87	8107.62
443.05	8156.77
443.24	8262.09
443.43	8093.57
443.61	8184.85
443.80	8437.63
443.98	8276.13
444.17	7847.82
444.35	8198.90
444.54	8444.65
444.73	8348.69
444.91	8217.62
445.10	8503.17
445.28	8161.45
445.47	8304.22
445.65	8379.12
445.84	8418.91
446.02	8355.71
446.21	8257.41
446.39	8397.84
446.58	8592.11
446.77	8491.46
446.95	8465.72
447.14	8456.36
447.32	8599.13
447.51	8582.74
447.69	8498.49
447.88	8477.42
448.06	8554.66
448.25	8519.55
448.43	8659.98
448.62	8533.59
448.80	8688.07
448.99	8908.08
449.17	8772.33
449.36	8812.12
449.54	8879.99
449.73	9046.17
449.91	9034.47
450.10	8992.34
450.28	9146.81
450.46	9121.07
450.65	9011.06
450.83	9034.47
451.02	9132.77
451.20	9242.78
451.39	9343.42
451.57	9301.29
451.76	9128.09
451.94	9132.77
452.13	9376.19
452.31	9500.23
452.49	9268.52
452.68	9430.02
452.86	9371.50
453.05	9572.79
453.23	9600.88
453.42	9418.32
453.60	9497.89
453.78	9661.73
453.97	9268.52
454.15	9568.11
454.34	9444.06
454.52	9722.59
454.70	9844.29
454.89	9778.76
455.07	9933.23
455.26	9856.00
455.44	10017.49
455.62	9956.64
455.81	10134.52
455.99	10066.64
456.17	10017.49
456.36	10174.31
456.54	10289.00
456.73	10445.81
456.91	10555.82
457.09	10597.95
457.28	10537.09
457.46	10139.20
457.64	10553.48
457.83	10658.80
458.01	10441.13
458.19	10726.68
458.38	10628.37
458.56	10717.31
458.74	10721.99
458.93	10637.73
459.11	10806.25
459.29	10637.73
459.48	10820.30
459.66	10766.46
459.84	10780.51
460.03	11208.83
460.21	10890.51
460.39	10925.62
460.57	11077.76
460.76	11180.74
460.94	11295.43
461.12	11541.18
461.31	11349.26
461.49	11300.11
461.67	11180.74
461.85	11475.65
462.04	11658.21
462.22	11400.75
462.40	11517.78
462.59	11508.41
462.77	11531.82
462.95	11803.32
463.13	11681.61
463.32	11754.17
463.50	11857.15
463.68	11831.41
463.86	12056.10
464.05	11908.65
464.23	11854.81
464.41	11852.47
464.59	11669.91
464.78	12271.43
464.96	11985.88
465.14	11943.75
465.32	12121.63
465.50	11922.69
465.69	12269.09
465.87	12100.57
466.05	12386.12
466.23	12203.55
466.41	12397.82
466.60	12594.42
466.78	12191.85
466.96	12355.69
467.14	12442.29
467.32	12505.48
467.51	12402.50
467.69	12142.70
467.87	12386.12
468.05	12657.62
468.23	12453.99
468.41	12772.30
468.60	12685.70
468.78	12678.68
468.96	12655.28
469.14	12978.27
469.32	13195.94
469.50	12847.20
469.69	13128.06
469.87	13296.58
470.05	13153.81
470.23	13462.76
470.41	13327.01
470.59	13329.35
470.77	13090.62
470.95	13420.63
471.14	13699.16
471.32	13266.16
471.50	13788.10
471.68	13914.48
471.86	13743.63
472.04	13818.52
472.22	13935.55
472.40	13668.73
472.58	13909.80
472.77	14113.43
472.95	14253.86
473.13	14656.43
473.31	14211.73
473.49	14101.73
473.67	14459.83
473.85	14588.56
474.03	14621.33
474.21	14539.41
474.39	14827.29
474.57	14862.40
474.75	14857.72
474.93	15108.16
475.12	15021.56
475.30	15206.46
475.48	15021.56
475.66	15164.33
475.84	15360.94
476.02	15410.09
476.20	15632.44
476.38	15733.08
476.56	16137.99
476.74	16023.31
476.92	15906.28
477.10	15775.21
477.28	16355.66
477.46	16559.29
477.64	16664.61
477.82	16491.41
478.00	17076.55
478.18	16776.96
478.36	17027.40
478.54	17249.75
478.72	17336.35
478.90	17554.02
479.08	17633.60
479.26	18082.98
479.44	17657.00
479.62	17804.46
479.80	18197.67
479.98	18401.29
480.16	18691.52
480.34	18511.30
480.52	18867.06
480.70	18743.01
480.88	18541.72
481.06	18974.72
481.24	19091.75
481.41	19431.13
481.59	19452.19
481.77	19325.80
481.95	19501.34
482.13	19995.20
482.31	19730.72
482.49	20470.33
482.67	20264.36
482.85	20414.15
483.03	20947.79
483.21	20943.11
483.39	20856.51
483.57	20840.13
483.74	21507.18
483.92	21504.84
484.10	21083.55
484.28	21771.66
484.46	22134.45
484.64	22569.79
484.82	22178.92
485.00	22445.74
485.18	22813.20
485.35	23068.32
485.53	22810.86
485.71	23426.42
485.89	23601.96
486.07	23278.97
486.25	23374.93
486.43	23697.92
486.61	23882.83
486.78	24339.23
486.96	24240.93
487.14	24720.74
487.32	24671.59
487.50	25167.78
487.68	25296.51
487.85	25729.51
488.03	25542.27
488.21	25685.04
488.39	25996.33
488.57	25956.54
488.75	26534.65
488.92	26677.43
489.10	26476.14
489.28	27002.76
489.46	27480.23
489.64	26855.31
489.81	27693.22
489.99	27644.07
490.17	27920.25
490.35	28472.62
490.53	28233.88
490.70	28596.67
490.88	28393.04
491.06	28940.72
491.24	29146.69
491.41	29319.89
491.59	29310.53
491.77	29525.86
491.95	29607.78
492.13	29696.72
492.30	30183.55
492.48	30096.95
492.66	30223.34
492.84	30773.36
493.01	30403.56
493.19	31241.47
493.37	31250.83
493.54	30803.79
493.72	31185.30
493.90	31805.54
494.08	32135.56
494.25	31976.40
494.43	32458.55
494.61	32552.17
494.79	32456.21
494.96	32240.88
495.14	32996.87
495.32	33296.46
495.49	33357.32
495.67	33242.63
495.85	33476.68
496.02	34073.52
496.20	34178.84
496.38	34220.97
496.55	34291.19
496.73	35157.19
496.91	34710.14
497.09	35332.73
497.26	35323.36
497.44	34803.77
497.62	35835.94
497.79	35590.19
497.97	35688.49
498.14	36177.66
498.32	36631.72
498.50	36554.49
498.67	37069.40
498.85	36613.00
499.03	36744.07
499.20	36554.49
499.38	36828.33
499.56	37460.27
499.73	37319.84
499.91	37972.85
500.08	37710.71
500.26	37593.68
500.44	38164.78
500.61	37668.58
500.79	38321.59
500.97	38527.56
501.14	38494.79
501.32	38740.55
501.49	38555.64
501.67	38939.49
501.84	39356.11
502.02	38995.67
502.20	39393.56
502.37	39529.31
502.55	39445.05
502.72	39854.64
502.90	39842.94
503.07	39997.41
503.25	40076.99
503.43	39770.38
503.60	40416.37
503.78	40687.87
503.95	40259.55
504.13	40739.36
504.30	41053.00
504.48	40610.64
504.65	40975.76
504.83	41125.55
505.01	41638.13
505.18	41273.01
505.36	42141.35
505.53	41507.06
505.71	41909.63
505.88	41918.99
506.06	41649.83
506.23	42319.23
506.41	41937.72
506.58	42155.39
506.76	42672.65
506.93	42848.19
507.11	42354.33
507.28	42459.66
507.46	42997.98
507.63	43253.10
507.81	43494.18
507.98	43416.94
508.16	43756.32
508.33	43807.81
508.50	43866.32
508.68	43632.27
508.85	43842.92
509.03	43922.49
509.20	44603.59
509.38	44531.03
509.55	44786.15
509.73	44442.09
509.90	44933.60
510.08	45244.90
510.25	45301.07
510.42	45067.02
510.60	45088.08
510.77	45392.35
510.95	45553.85
511.12	45483.63
511.30	45387.67
511.47	45855.78
511.64	45865.14
511.82	45783.22
511.99	45944.72
512.17	46237.28
512.34	46068.76
512.51	46501.76
512.69	46660.92
512.86	46721.77
513.04	46913.70
513.21	46754.54
513.38	46651.56
513.56	47007.32
513.73	46766.24
513.90	46754.54
514.08	47274.14
514.25	47236.69
514.43	47763.31
514.60	48200.99
514.77	47789.06
514.95	47842.89
515.12	47805.44
515.29	47859.27
515.47	48261.85
515.64	48334.40
515.81	48121.41
515.99	48409.30
516.16	48629.31
516.33	48617.61
516.51	48552.07
516.68	48573.14
516.85	48837.62
517.03	49167.63
517.20	49069.33
517.37	48575.48
517.54	49052.95
517.72	49607.65
517.89	48968.69
518.06	49392.33
518.24	49186.36
518.41	49095.08
518.58	49628.72
518.75	49787.88
518.93	49755.11
519.10	49532.76
519.27	49759.79
519.45	49834.69
519.62	50408.12
519.79	50391.73
519.96	50223.22
520.14	50319.18
520.31	50190.45
520.48	50581.32
520.65	50590.68
520.83	50749.84
521.00	51002.61
521.17	50658.56
521.34	50717.07
521.52	51098.58
521.69	51089.21
521.86	51213.26
522.03	51166.45
522.20	51423.91
522.38	51714.14
522.55	51885.00
522.72	51386.46
522.89	51473.06
523.07	52018.41
523.24	51870.95
523.41	51793.71
523.58	51716.48
523.75	52212.67
523.92	52006.70
524.10	52250.12
524.27	52423.32
524.44	52399.91
524.61	52261.82
524.78	52509.92
524.96	52364.81
525.13	52390.55
525.30	52484.17
525.47	52804.83
525.64	52364.81
525.81	52779.08
525.98	53095.05
526.16	52512.26
526.33	52861.00
526.50	53109.10
526.67	52980.37
526.84	53148.88
527.01	52907.81
527.18	53198.04
527.36	53095.05
527.53	53387.62
527.70	53586.57
527.87	53584.22
528.04	53399.32
528.21	53539.75
528.38	53794.87
528.55	53549.12
528.72	53654.44
528.89	53460.18
529.07	53722.32
529.24	53469.54
529.41	54085.10
529.58	53900.20
529.75	53848.71
529.92	54007.86
530.09	54344.90
530.26	54178.72
530.43	54162.34
530.60	53928.28
530.77	54117.87
530.94	54466.61
531.11	54319.15
531.28	54356.60
531.46	54557.89
531.63	54419.80
531.80	54321.49
531.97	54649.17
532.14	54464.27
532.31	54611.72
532.48	54553.21
532.65	54679.60
532.82	54707.68
532.99	54794.28
533.16	54581.29
533.33	55016.63
533.50	55370.05
533.67	54892.58
533.84	54557.89
534.01	55077.49
534.18	54918.33
534.35	55393.46
534.52	55253.03
534.69	55351.33
534.86	55477.72
535.03	55241.32
535.20	55140.68
535.37	55533.89
535.54	55405.16
535.71	55405.16
535.88	55641.56
536.05	55327.92
536.22	56011.36
536.38	55798.37
536.55	55810.07
536.72	55625.17
536.89	55887.31
537.06	55849.86
537.23	55863.91
537.40	55543.25
537.57	55716.45
537.74	55807.73
537.91	56299.25
538.08	55845.18
538.25	55613.47
538.42	56053.49
538.59	56432.66
538.75	56037.11
538.92	56147.11
539.09	56409.25
539.26	56470.11
539.43	56364.78
539.60	56348.40
539.77	56315.63
539.94	56647.99
540.11	56399.89
540.28	56519.26
540.44	56640.96
540.61	56512.23
540.78	56533.30
540.95	56603.52
541.12	56692.46
541.29	56587.13
541.46	56566.07
541.62	56788.42
541.79	56907.79
541.96	56435.00
542.13	56715.86
542.30	56734.59
542.47	56970.98
542.63	56940.55
542.80	56790.76
542.97	57069.28
543.14	57481.22
543.31	57333.76
543.48	57251.84
543.64	57703.57
543.81	57560.79
543.98	57631.01
544.15	57422.70
544.32	57584.20
544.48	57804.21
544.65	57425.04
544.82	57455.47
544.99	57563.14
545.16	57731.65
545.32	57633.35
545.49	57794.85
545.66	57696.55
545.83	57888.47
546.00	57694.21
546.16	57993.79
546.33	57911.88
546.50	57787.83
546.67	57984.43
546.83	57612.29
547.00	57909.53
547.17	57925.92
547.34	57848.68
547.50	58068.69
547.67	58213.80
547.84	58199.76
548.00	58019.54
548.17	58295.72
548.34	58089.76
548.51	58372.96
548.67	58424.45
548.84	58480.63
549.01	58209.12
549.18	58384.66
549.34	58309.77
549.51	58445.52
549.68	58368.28
549.84	58571.91
550.01	58569.57
550.18	58239.55
550.34	58728.72
550.51	58625.74
550.68	58731.06
550.84	58394.03
551.01	58658.51
551.18	58583.61
551.34	58389.34
551.51	58801.28
551.68	58607.01
551.84	58747.45
552.01	58705.32
552.18	58834.05
552.34	58801.28
552.51	59037.67
552.68	58805.96
552.84	58787.24
553.01	59079.80
553.18	58911.28
553.34	58927.67
553.51	58855.11
553.67	59028.31
553.84	59112.57
554.01	58925.33
554.17	59245.98
554.34	59267.05
554.51	59154.70
554.67	59327.90
554.84	59227.26
555.00	59042.35
555.17	59171.08
555.33	59098.53
555.50	59133.63
555.67	59255.34
555.83	59058.74
556.00	59243.64
556.16	59676.64
556.33	59414.50
556.50	59264.70
556.66	59400.46
556.83	59159.38
556.99	59477.69
557.16	59653.23
557.32	59545.57
557.49	59707.07
557.65	59643.87
557.82	59646.21
557.98	59440.24
558.15	59594.72
558.32	59505.78
558.48	59604.08
558.65	59510.46
558.81	59704.73
558.98	59674.30
559.14	59667.28
559.31	59896.65
559.47	59700.04
559.64	59788.98
559.80	59664.94
559.97	59779.62
560.13	59831.11
560.30	60001.97
560.46	59744.51
560.63	59943.46
560.79	59980.91
560.96	59959.84
561.12	60126.02
561.29	60172.83
561.45	59812.39
561.61	60001.97
561.78	59763.24
561.94	59805.37
562.11	59840.48
562.27	60081.55
562.44	60203.26
562.60	60210.28
562.77	59973.89
562.93	59997.29
563.10	60287.52
563.26	59915.37
563.42	60467.74
563.59	60030.06
563.75	60196.24
563.92	60200.92
564.08	60144.75
564.24	60247.73
564.41	60282.84
564.57	60119.00
564.74	60392.84
564.90	60231.35
565.07	60149.43
565.23	60322.63
565.39	60191.56
565.56	60477.10
565.72	60289.86
565.88	60257.09
566.05	60339.01
566.21	60430.29
566.38	60207.94
566.54	60292.20
566.70	60502.85
566.87	60500.51
567.03	60512.21
567.19	60552.00
567.36	60437.31
567.52	60285.18
567.68	60678.39
567.85	60484.12
568.01	60500.51
568.17	60411.57
568.34	60603.49
568.50	60577.75
568.66	60547.32
568.83	60495.83
568.99	60397.52
569.15	60643.28
569.32	60568.38
569.48	60491.15
569.64	60828.18
569.81	60750.94
569.97	60610.51
570.13	60718.18
570.30	60584.77
570.46	60652.64
570.62	60715.84
570.78	60741.58
570.95	60549.66
571.11	60622.22
571.27	60615.19
571.43	60603.49
571.60	60589.45
571.76	60753.29
571.92	60807.12
572.09	60779.03
572.25	60781.37
572.41	60680.73
572.57	60849.25
572.74	60884.36
572.90	60860.95
573.06	60830.52
573.22	60582.43
573.38	60860.95
573.55	60797.76
573.71	60931.17
573.87	60884.36
574.03	60575.40
574.20	60732.22
574.36	60732.22
574.52	60865.63
574.68	60947.55
574.84	60940.53
575.01	60935.85
575.17	60809.46
575.33	60732.22
575.49	60631.58
575.65	60905.42
575.82	60919.46
575.98	60933.51
576.14	61031.81
576.30	60893.72
576.46	60708.82
576.62	60863.29
576.79	60793.07
576.95	60832.86
577.11	61055.21
577.27	61214.37
577.43	60954.57
577.59	60699.45
577.75	60980.32
577.92	60741.58
578.08	61160.54
578.24	61031.81
578.40	61146.50
578.56	61069.26
578.72	61247.14
578.88	61095.00
579.04	61162.88
579.21	61087.98
579.37	61111.39
579.53	61022.45
579.69	60949.89
579.85	61015.43
580.01	61078.62
580.17	60776.69
580.33	60914.78
580.49	61024.79
580.65	61038.83
580.82	60931.17
580.98	60882.02
581.14	60961.59
581.30	61216.71
581.46	61087.98
581.62	61212.03
581.78	61024.79
581.94	61137.13
582.10	60921.80
582.26	60985.00
582.42	61055.21
582.58	60809.46
582.74	60956.91
582.90	61069.26
583.06	61092.66
583.22	60814.14
583.38	60870.31
583.54	61109.05
583.70	60989.68
583.86	60989.68
584.02	60900.74
584.18	61228.41
584.34	61240.12
584.50	61256.50
584.66	61188.63
584.82	60874.99
584.98	61387.57
585.14	60921.80
585.30	61057.56
585.46	61120.75
585.62	61221.39
585.78	61233.10
585.94	60992.02
586.10	61038.83
586.26	61099.68
586.42	61195.65
586.58	61219.05
586.74	61144.16
586.90	61282.25
587.06	61174.58
587.22	61380.55
587.38	61317.35
587.54	61396.93
587.70	61436.72
587.86	61020.11
588.02	61413.32
588.18	61279.91
588.34	61090.32
