SpectraSuite Data File
++++++++++++++++++++++++++++++++++++
Date: Fri Oct 25 10:44:39 EDT 2013
User: price-jones
Dark Spectrum Present: No
Reference Spectrum Present: No
Number of Sampled Component Spectra: 1
Spectrometers: USB2+H05261
Integration Time (usec): 100000 (USB2+H05261)
Spectra Averaged: 1 (USB2+H05261)
Boxcar Smoothing: 0 (USB2+H05261)
Correct for Electrical Dark: No (USB2+H05261)
Strobe/Lamp Enabled: No (USB2+H05261)
Correct for Detector Non-linearity: No (USB2+H05261)
Correct for Stray Light: No (USB2+H05261)
Number of Pixels in Processed Spectrum: 2048
>>>>>Begin Processed Spectral Data<<<<<
365.73	135.75
365.92	135.75
366.12	135.75
366.32	114.69
366.52	56.17
366.72	77.24
366.91	39.79
367.11	53.83
367.31	42.13
367.51	32.77
367.70	42.13
367.90	14.04
368.10	42.13
368.30	53.83
368.49	65.54
368.69	51.49
368.89	0.00
369.09	21.06
369.28	9.36
369.48	35.11
369.68	46.81
369.87	42.13
370.07	117.03
370.27	140.43
370.47	128.73
370.66	325.33
370.86	386.19
371.06	376.83
371.25	437.68
371.45	379.17
371.65	484.49
371.84	458.74
372.04	425.98
372.24	543.00
372.44	524.28
372.63	519.60
372.83	545.34
373.03	505.56
373.22	491.51
373.42	475.13
373.62	489.17
373.81	503.22
374.01	568.75
374.21	514.92
374.40	433.00
374.60	526.62
374.79	484.49
374.99	606.20
375.19	528.96
375.38	538.32
375.58	599.18
375.78	538.32
375.97	589.82
376.17	594.50
376.37	517.26
376.56	526.62
376.76	627.26
376.95	435.34
377.15	545.34
377.35	638.97
377.54	573.43
377.74	606.20
377.93	711.52
378.13	554.71
378.33	580.45
378.52	528.96
378.72	580.45
378.91	669.39
379.11	627.26
379.31	594.50
379.50	578.11
379.70	617.90
379.89	603.86
380.09	629.60
380.28	599.18
380.48	622.58
380.68	634.29
380.87	617.90
381.07	685.78
381.26	662.37
381.46	634.29
381.65	706.84
381.85	592.16
382.04	564.07
382.24	772.38
382.43	660.03
382.63	603.86
382.83	704.50
383.02	643.65
383.22	634.29
383.41	720.88
383.61	655.35
383.80	662.37
384.00	791.10
384.19	856.64
384.39	706.84
384.58	739.61
384.78	716.20
384.97	753.65
385.17	692.80
385.36	779.40
385.56	833.23
385.75	737.27
385.95	746.63
386.14	744.29
386.34	725.57
386.53	751.31
386.72	739.61
386.92	767.70
387.11	833.23
387.31	882.38
387.50	795.78
387.70	770.04
387.89	795.78
388.09	856.64
388.28	835.57
388.48	812.17
388.67	727.91
388.86	877.70
389.06	861.32
389.25	861.32
389.45	954.94
389.64	926.85
389.84	910.47
390.03	884.72
390.22	903.45
390.42	910.47
390.61	999.41
390.81	912.81
391.00	954.94
391.19	945.58
391.39	870.68
391.58	950.26
391.78	931.53
391.97	880.04
392.16	976.00
392.36	917.49
392.55	915.15
392.75	1001.75
392.94	957.28
393.13	826.21
393.33	926.85
393.52	957.28
393.71	976.00
393.91	1032.18
394.10	1022.81
394.29	1034.52
394.49	1001.75
394.68	1057.92
394.88	1062.60
395.07	1093.03
395.26	1193.67
395.46	1102.39
395.65	1036.86
395.84	1177.29
396.04	1130.48
396.23	1135.16
396.42	1111.75
396.62	1109.41
396.81	1165.59
397.00	1071.97
397.19	1160.91
397.39	1177.29
397.58	1233.46
397.77	1205.38
397.97	1221.76
398.16	1313.04
398.35	1322.40
398.55	1205.38
398.74	1343.47
398.93	1289.64
399.12	1324.74
399.32	1289.64
399.51	1317.72
399.70	1439.43
399.90	1439.43
400.09	1224.10
400.28	1418.36
400.47	1359.85
400.67	1427.73
400.86	1378.58
401.05	1486.24
401.24	1439.43
401.44	1495.60
401.63	1495.60
401.82	1500.28
402.01	1446.45
402.21	1537.73
402.40	1530.71
402.59	1448.79
402.78	1551.78
402.97	1514.33
403.17	1603.27
403.36	1612.63
403.55	1577.52
403.74	1607.95
403.93	1600.93
404.13	1680.50
404.32	1621.99
404.51	1554.12
404.70	1633.69
404.89	1650.08
405.09	1657.10
405.28	1778.81
405.47	1778.81
405.66	1755.40
405.85	1720.29
406.05	1776.47
406.24	1802.21
406.43	1647.74
406.62	1830.30
406.81	1921.58
407.00	1820.94
407.20	1783.49
407.39	1912.22
407.58	1935.62
407.77	1842.00
407.96	2033.93
408.15	1891.15
408.34	1900.52
408.54	1975.41
408.73	2073.71
408.92	1991.80
409.11	2026.90
409.30	2071.37
409.49	1982.43
409.68	1902.86
409.87	2064.35
410.07	2155.63
410.26	2186.06
410.45	2146.27
410.64	2200.10
410.83	2146.27
411.02	2150.95
411.21	2237.55
411.40	2200.10
411.59	2207.13
411.78	2420.11
411.98	2265.64
412.17	2296.07
412.36	2385.01
412.55	2328.83
412.74	2520.76
412.93	2431.82
413.12	2370.96
413.31	2464.58
413.50	2518.42
413.69	2487.99
413.88	2546.50
414.07	2551.18
414.26	2492.67
414.45	2616.72
414.64	2649.49
414.83	2597.99
415.02	2708.00
415.22	2778.22
415.41	2693.96
415.60	2874.18
415.79	2757.15
415.98	2853.11
416.17	2810.98
416.36	2827.37
416.55	2895.24
416.74	2916.31
416.93	2871.84
417.12	3000.57
417.31	2967.80
417.50	2984.18
417.69	3094.19
417.88	2991.20
418.07	3045.04
418.26	3054.40
418.45	2848.43
418.64	3190.15
418.83	3143.34
419.02	3243.98
419.21	3272.07
419.39	3253.34
419.58	3199.51
419.77	3176.11
419.96	3194.83
420.15	3435.91
420.34	3398.46
420.53	3243.98
420.72	3440.59
420.91	3382.07
421.10	3414.84
421.29	3337.60
421.48	3386.76
421.67	3396.12
421.86	3344.63
422.05	3290.79
422.24	3407.82
422.43	3428.88
422.61	3375.05
422.80	3496.76
422.99	3475.70
423.18	3555.27
423.37	3583.36
423.56	3487.40
423.75	3428.88
423.94	3361.01
424.13	3183.13
424.32	3361.01
424.50	3576.34
424.69	3623.15
424.88	3669.96
425.07	3543.57
425.26	3543.57
425.45	3524.85
425.64	3545.91
425.83	3482.72
426.01	3442.93
426.20	3611.45
426.39	3487.40
426.58	3541.23
426.77	3623.15
426.96	3592.72
427.15	3471.01
427.33	3627.83
427.52	3674.64
427.71	3794.01
427.90	3761.24
428.09	3784.65
428.28	3768.26
428.46	3653.58
428.65	3843.16
428.84	3833.80
429.03	3805.71
429.22	3798.69
429.40	3796.35
429.59	3758.90
429.78	3658.26
429.97	3630.17
430.16	3772.94
430.34	3691.02
430.53	3892.31
430.72	3875.93
430.91	3843.16
431.10	4060.83
431.28	3983.59
431.47	4198.92
431.66	4105.30
431.85	3971.89
432.03	4098.28
432.22	4070.19
432.41	4159.13
432.60	4152.11
432.79	4231.69
432.97	4351.06
433.16	4297.22
433.35	4074.87
433.54	4149.77
433.72	4337.01
433.91	4194.24
434.10	4332.33
434.28	4372.12
434.47	4266.80
434.66	4381.48
434.85	4468.08
435.03	4461.06
435.22	4320.63
435.41	4489.15
435.59	4503.19
435.78	4571.07
435.97	4638.94
436.16	4578.09
436.34	4430.63
436.53	4596.81
436.72	4697.46
436.90	4566.39
437.09	4540.64
437.28	4629.58
437.46	4531.28
437.65	4622.56
437.84	4638.94
438.02	4732.56
438.21	4528.94
438.40	4587.45
438.58	4884.70
438.77	4973.64
438.96	4791.08
439.14	4985.34
439.33	4915.12
439.52	5067.26
439.70	5132.79
439.89	5069.60
440.08	5217.05
440.26	5163.22
440.45	5100.03
440.63	5336.42
440.82	5235.78
441.01	5242.80
441.19	5394.93
441.38	5324.72
441.57	5439.40
441.75	5453.45
441.94	5544.73
442.12	5671.12
442.31	5598.56
442.50	5556.43
442.68	5685.16
442.87	5771.76
443.05	5654.73
443.24	5771.76
443.43	5727.29
443.61	5717.93
443.80	5905.17
443.98	5645.37
444.17	5504.94
444.35	5774.10
444.54	5825.59
444.73	5923.90
444.91	5933.26
445.10	5827.93
445.28	5746.02
445.47	5689.84
445.65	5905.17
445.84	5823.25
446.02	5879.43
446.21	5849.00
446.39	5853.68
446.58	5872.40
446.77	5888.79
446.95	5750.70
447.14	6015.18
447.32	6150.93
447.51	6045.60
447.69	5856.02
447.88	5991.77
448.06	5930.92
448.25	6038.58
448.43	5968.37
448.62	5886.45
448.80	6134.54
448.99	6148.59
449.17	6083.05
449.36	6064.33
449.54	6064.33
449.73	6218.80
449.91	6195.40
450.10	6354.55
450.28	6389.66
450.46	6387.32
450.65	6328.81
450.83	6457.54
451.02	6389.66
451.20	6558.18
451.39	6483.28
451.57	6382.64
451.76	6377.96
451.94	6370.94
452.13	6497.33
452.31	6530.09
452.49	6466.90
452.68	6600.31
452.86	6466.90
453.05	6530.09
453.23	6715.00
453.42	6637.76
453.60	6466.90
453.78	6551.16
453.97	6544.14
454.15	6553.50
454.34	6434.13
454.52	6736.06
454.70	6700.95
454.89	6750.10
455.07	6710.32
455.26	6733.72
455.44	7007.56
455.62	6860.11
455.81	6977.14
455.99	7045.01
456.17	6895.22
456.36	6967.77
456.54	6991.18
456.73	7091.82
456.91	7309.49
457.09	7056.72
457.28	7379.71
457.46	7288.43
457.64	7325.88
457.83	7309.49
458.01	7204.17
458.19	7365.67
458.38	7218.21
458.56	7424.18
458.74	7288.43
458.93	7311.83
459.11	7529.50
459.29	7475.67
459.48	7513.12
459.66	7307.15
459.84	7459.29
460.03	7616.10
460.21	7609.08
460.39	7440.56
460.57	7688.66
460.76	7658.23
460.94	7712.07
461.12	7796.32
461.31	7789.30
461.49	7735.47
461.67	7744.83
461.85	7803.35
462.04	7777.60
462.22	8035.06
462.40	7779.94
462.59	7894.63
462.77	7936.76
462.95	7971.86
463.13	8037.40
463.32	8126.34
463.50	8147.40
463.68	8063.15
463.86	8133.36
464.05	7932.08
464.23	8145.06
464.41	8105.28
464.59	8006.97
464.78	8517.21
464.96	8173.15
465.14	8266.77
465.32	8140.38
465.50	8257.41
465.69	8512.53
465.87	8285.50
466.05	8205.92
466.23	8121.66
466.41	8395.50
466.60	8360.39
466.78	8297.20
466.96	8250.39
467.14	8365.07
467.32	8304.22
467.51	8376.78
467.69	8226.98
467.87	8442.31
468.05	8648.28
468.23	8458.70
468.41	8449.33
468.60	8617.85
468.78	8554.66
468.96	8486.78
469.14	8788.71
469.32	8788.71
469.50	8500.83
469.69	8765.31
469.87	8786.37
470.05	8877.65
470.23	8863.61
470.41	8861.27
470.59	8990.00
470.77	8861.27
470.95	8943.19
471.14	9100.00
471.32	9142.13
471.50	9315.33
471.68	9275.54
471.86	9172.56
472.04	9088.30
472.22	9614.92
472.40	9317.67
472.58	9472.15
472.77	9502.58
472.95	9626.62
473.13	10012.81
473.31	9547.05
473.49	9572.79
473.67	9565.77
473.85	9376.19
474.03	9820.89
474.21	9860.68
474.39	9961.32
474.57	10094.73
474.75	9951.96
474.93	10164.95
475.12	10167.29
475.30	10298.36
475.48	10001.11
475.66	10375.59
475.84	10188.35
476.02	10356.87
476.20	10256.23
476.38	10644.76
476.56	10824.98
476.74	10553.48
476.92	10736.04
477.10	10820.30
477.28	10932.64
477.46	10726.68
477.64	10993.50
477.82	10906.90
478.00	11286.06
478.18	11330.53
478.36	11461.60
478.54	11353.94
478.72	11564.59
478.90	11679.27
479.08	11744.81
479.26	11744.81
479.44	11983.54
479.62	12065.46
479.80	12109.93
479.98	12072.48
480.16	12367.39
480.34	12046.74
480.52	12306.54
480.70	12432.93
480.88	12196.53
481.06	12318.24
481.24	12451.65
481.41	12709.11
481.59	12968.91
481.77	13146.79
481.95	12875.29
482.13	13125.72
482.31	13137.43
482.49	13638.30
482.67	13453.40
482.85	13635.96
483.03	13795.12
483.21	13710.86
483.39	13944.91
483.57	13907.46
483.74	14085.34
483.92	14441.11
484.10	14185.99
484.28	14391.95
484.46	14661.12
484.64	14745.38
484.82	14382.59
485.00	14649.41
485.18	14939.64
485.35	14998.15
485.53	14773.46
485.71	14686.86
485.89	15105.82
486.07	14958.36
486.25	15276.68
486.43	15405.41
486.61	15836.06
486.78	16049.05
486.96	15744.78
487.14	15936.71
487.32	16217.57
487.50	16432.90
487.68	16400.13
487.85	16638.87
488.03	16666.95
488.21	16978.25
488.39	16821.43
488.57	17252.09
488.75	17067.19
488.92	17551.68
489.10	17605.51
489.28	17839.56
489.46	18050.21
489.64	17572.74
489.81	18291.29
489.99	18230.43
490.17	18436.40
490.35	18668.11
490.53	18443.42
490.70	18829.61
490.88	18918.55
491.06	18642.37
491.24	18934.93
491.41	18899.83
491.59	19145.58
491.77	19278.99
491.95	19168.99
492.13	19426.45
492.30	19646.46
492.48	19936.68
492.66	19873.49
492.84	19786.89
493.01	20226.91
493.19	20053.71
493.37	20334.57
493.54	20482.03
493.72	20608.42
493.90	20460.96
494.08	20919.71
494.25	21088.23
494.43	21198.23
494.61	21170.15
494.79	21483.78
494.96	21298.88
495.14	21514.20
495.32	21834.86
495.49	21905.07
495.67	22024.44
495.85	22019.76
496.02	21598.46
496.20	22300.62
496.38	22188.28
496.55	22431.69
496.73	22670.43
496.91	22728.94
497.09	22754.69
497.26	22738.30
497.44	23255.56
497.62	23124.49
497.79	23517.70
497.97	23082.36
498.14	23435.78
498.32	23529.41
498.50	23718.99
498.67	23805.59
498.85	24041.98
499.03	23627.71
499.20	23939.00
499.38	24175.39
499.56	23913.25
499.73	24339.23
499.91	24446.90
500.08	24404.77
500.26	24044.32
500.44	24439.87
500.61	24587.33
500.79	24746.48
500.97	24601.37
501.14	24980.54
501.32	25242.68
501.49	24776.91
501.67	24657.54
501.84	25046.07
502.02	25291.83
502.20	25668.66
502.37	25406.52
502.55	25193.53
502.72	25694.40
502.90	25905.05
503.07	25544.61
503.25	25652.27
503.43	25792.70
503.60	26099.31
503.78	25743.55
503.95	26019.74
504.13	25853.56
504.30	26401.24
504.48	26274.85
504.65	26841.26
504.83	26663.38
505.01	26623.59
505.18	26974.67
505.36	27058.93
505.53	26904.46
505.71	27606.62
505.88	27297.67
506.06	26864.67
506.23	27573.85
506.41	27309.37
506.58	27290.65
506.76	27672.15
506.93	28034.94
507.11	27377.25
507.28	27220.43
507.46	27475.55
507.63	27723.65
507.81	27513.00
507.98	27896.85
508.16	27934.29
508.33	28112.17
508.50	28332.18
508.68	28156.64
508.85	28727.74
509.03	28526.45
509.20	28643.48
509.38	28734.76
509.55	28809.65
509.73	28840.08
509.90	28903.28
510.08	28968.81
510.25	28671.56
510.42	29165.42
510.60	29439.26
510.77	29692.04
510.95	29668.63
511.12	29507.13
511.30	29427.56
511.47	30258.45
511.64	29434.58
511.82	30017.37
511.99	29890.98
512.17	29769.27
512.34	29717.78
512.51	29872.26
512.69	30235.04
512.86	30410.58
513.04	30433.99
513.21	30291.21
513.38	30066.52
513.56	30534.63
513.73	30230.36
513.90	30698.47
514.08	30731.23
514.25	30813.15
514.43	30822.51
514.60	30387.18
514.77	30930.18
514.95	31014.44
515.12	30827.20
515.29	31105.72
515.47	31796.18
515.64	31302.32
515.81	31094.02
515.99	31559.78
516.16	31648.72
516.33	31555.10
516.51	31945.97
516.68	31147.85
516.85	31154.87
517.03	31772.77
517.20	31557.44
517.37	31655.75
517.54	31992.78
517.72	32105.13
517.89	31555.10
518.06	31660.43
518.24	31960.02
518.41	31861.71
518.58	32453.87
518.75	32142.58
518.93	32570.90
519.10	32212.79
519.27	32664.52
519.45	32591.96
519.62	33022.62
519.79	32868.14
519.96	32669.20
520.14	32936.02
520.31	32425.78
520.48	33235.61
520.65	32732.39
520.83	33263.69
521.00	33378.38
521.17	33242.63
521.34	33603.07
521.52	33837.12
521.69	33656.90
521.86	34061.82
522.03	33631.16
522.20	34000.96
522.38	34342.68
522.55	34169.48
522.72	33872.23
522.89	34108.63
523.07	34202.25
523.24	34075.86
523.41	34653.97
523.58	34103.95
523.75	34717.17
523.92	34782.70
524.10	34649.29
524.27	35058.88
524.44	34508.86
524.61	34728.87
524.78	35028.46
524.96	35016.75
525.13	35152.51
525.30	35028.46
525.47	35112.72
525.64	35328.05
525.81	34796.74
525.98	35316.34
526.16	34960.58
526.33	34824.83
526.50	35391.24
526.67	34686.74
526.84	35274.21
527.01	34866.96
527.18	35260.17
527.36	35700.19
527.53	35414.65
527.70	36067.66
527.87	35742.32
528.04	35800.83
528.21	36128.51
528.38	36105.10
528.55	35938.93
528.72	36091.06
528.89	36079.36
529.07	36243.20
529.24	35990.42
529.41	36226.81
529.58	36100.42
529.75	36362.56
529.92	36252.56
530.09	36252.56
530.26	36652.79
530.43	36376.61
530.60	36528.74
530.77	36605.98
530.94	37097.49
531.11	36711.30
531.28	36816.63
531.46	36842.37
531.63	36964.08
531.80	36608.32
531.97	36994.51
532.14	37022.59
532.31	36624.70
532.48	37078.77
532.65	37092.81
532.82	37158.34
532.99	37392.40
533.16	37060.04
533.33	37497.72
533.50	37214.52
533.67	37607.73
533.84	37322.18
534.01	37624.11
534.18	37184.09
534.35	37935.40
534.52	37724.75
534.69	37823.06
534.86	37830.08
535.03	37663.90
535.20	38340.32
535.37	38590.75
535.54	38246.69
535.71	37846.46
535.88	37563.26
536.05	37701.35
536.22	38316.91
536.38	38007.96
536.55	38160.09
536.72	38284.14
536.89	37855.82
537.06	38527.56
537.23	38532.24
537.40	38363.72
537.57	38658.63
537.74	38565.01
537.91	39241.42
538.08	38480.75
538.25	38539.26
538.42	38679.69
538.59	38960.56
538.75	38115.62
538.92	38782.68
539.09	38794.38
539.26	38948.85
539.43	39229.72
539.60	38972.26
539.77	39028.43
539.94	38630.54
540.11	38883.32
540.28	38824.81
540.44	39084.61
540.61	39346.75
540.78	39536.33
540.95	39150.14
541.12	38513.52
541.29	39433.35
541.46	39126.74
541.62	39342.06
541.79	40006.78
541.96	39213.34
542.13	39686.12
542.30	40039.54
542.47	40184.66
542.63	39796.13
542.80	39620.59
542.97	39917.84
543.14	40168.27
543.31	40187.00
543.48	39824.22
543.64	40502.97
543.81	40444.46
543.98	40598.93
544.15	40453.82
544.32	40191.68
544.48	41155.98
544.65	40072.31
544.82	40219.77
544.99	40247.85
545.16	40690.21
545.32	40563.82
545.49	40837.67
545.66	40669.15
545.83	41486.00
546.00	40865.75
546.16	40882.14
546.33	41029.59
546.50	40399.99
546.67	41106.83
546.83	40509.99
547.00	40921.93
547.17	40713.62
547.34	40741.71
547.50	41118.53
547.67	41050.66
547.84	40975.76
548.00	41064.70
548.17	41490.68
548.34	41628.77
548.51	41729.41
548.67	41455.57
548.84	41261.30
549.01	41031.93
549.18	41291.73
549.34	41881.55
549.51	41610.04
549.68	41062.36
549.84	41769.20
550.01	41422.80
550.18	42005.59
550.34	41862.82
550.51	41874.52
550.68	41724.73
550.84	41324.50
551.01	41993.89
551.18	42045.38
551.34	41832.39
551.51	41895.59
551.68	41893.25
551.84	41727.07
552.01	41886.23
552.18	42185.82
552.34	41668.56
552.51	41806.65
552.68	41879.21
552.84	42649.24
553.01	42323.91
553.18	42202.20
553.34	42286.46
553.51	41928.36
553.67	41963.46
553.84	42291.14
554.01	42525.19
554.17	42431.57
554.34	42178.79
554.51	42464.34
554.67	42457.32
554.84	41935.38
555.00	42263.05
555.17	42438.59
555.33	42241.99
555.50	41998.57
555.67	42520.51
555.83	42429.23
556.00	42522.85
556.16	42719.46
556.33	42670.31
556.50	42464.34
556.66	42962.87
556.83	42852.87
556.99	42377.74
557.16	43180.54
557.32	42873.93
557.49	42656.26
557.65	42136.66
557.82	42869.25
557.98	43147.78
558.15	42976.92
558.32	43349.06
558.48	43409.92
558.65	42871.59
558.81	42775.63
558.98	42911.38
559.14	43309.27
559.31	43030.75
559.47	43035.43
559.64	43086.92
559.80	43051.81
559.97	43332.68
560.13	43168.84
560.30	43213.31
560.46	43194.59
560.63	43384.17
560.79	43189.91
560.96	43318.64
561.12	43236.72
561.29	43587.80
561.45	43438.00
561.61	43131.39
561.78	43407.58
561.94	43248.42
562.11	43496.52
562.27	43557.37
562.44	43367.79
562.60	43508.22
562.77	43519.92
562.93	43409.92
563.10	43697.80
563.26	43138.41
563.42	43650.99
563.59	43000.32
563.75	43515.24
563.92	43650.99
564.08	43508.22
564.24	44023.14
564.41	43800.79
564.57	43667.37
564.74	43835.89
564.90	43910.79
565.07	43997.39
565.23	43533.96
565.39	43505.88
565.56	43459.07
565.72	43557.37
565.88	43742.27
566.05	43800.79
566.21	43517.58
566.38	43260.12
566.54	43381.83
566.70	43686.10
566.87	43779.72
567.03	43770.36
567.19	43845.26
567.36	43957.60
567.52	43910.79
567.68	43660.35
567.85	43660.35
568.01	43753.97
568.17	43779.72
568.34	43840.57
568.50	43714.19
568.66	43658.01
568.83	43728.23
568.99	43449.70
569.15	43531.62
569.32	43519.92
569.48	43414.60
569.64	44250.17
569.81	44369.54
569.97	44151.87
570.13	43908.45
570.30	43796.10
570.46	43381.83
570.62	43798.44
570.78	43833.55
570.95	43728.23
571.11	43847.60
571.27	43847.60
571.43	43779.72
571.60	43889.73
571.76	43866.32
571.92	43868.66
572.09	44275.91
572.25	43866.32
572.41	43618.22
572.57	44278.25
572.74	44531.03
572.90	44318.04
573.06	44219.74
573.22	43950.58
573.38	44306.34
573.55	43533.96
573.71	44222.08
573.87	44179.95
574.03	44069.95
574.20	44048.88
574.36	44086.33
574.52	44329.75
574.68	44268.89
574.84	44081.65
575.01	43908.45
575.17	44203.36
575.33	44011.43
575.49	43524.60
575.65	43849.94
575.82	44868.07
575.98	44076.97
576.14	44161.23
576.30	44299.32
576.46	44222.08
576.62	44149.53
576.79	44037.18
576.95	43997.39
577.11	44172.93
577.27	44456.14
577.43	44098.03
577.59	44170.59
577.75	44208.04
577.92	43789.08
578.08	43929.51
578.24	43716.53
578.40	44364.85
578.56	43697.80
578.72	44083.99
578.88	44376.56
579.04	44491.24
579.21	44406.98
579.37	44266.55
579.53	44191.65
579.69	44128.46
579.85	44371.88
580.01	44208.04
580.17	44030.16
580.33	44676.15
580.49	44385.92
580.65	44416.35
580.82	44385.92
580.98	44053.56
581.14	43866.32
581.30	44308.68
581.46	44737.00
581.62	44423.37
581.78	44266.55
581.94	44397.62
582.10	44140.16
582.26	44528.69
582.42	44371.88
582.58	44423.37
582.74	44336.77
582.90	44542.74
583.06	44472.52
583.22	44320.38
583.38	44643.38
583.54	44346.13
583.70	44432.73
583.86	44458.48
584.02	43763.34
584.18	44273.57
584.34	44397.62
584.50	44367.20
584.66	44313.36
584.82	44013.77
584.98	44488.90
585.14	44598.91
585.30	44184.63
585.46	44285.28
585.62	44259.53
585.78	44388.26
585.94	43618.22
586.10	44009.09
586.26	44603.59
586.42	44886.79
586.58	44760.40
586.74	44278.25
586.90	44121.44
587.06	43964.62
587.22	44449.11
587.38	43959.94
587.54	44512.31
587.70	44135.48
587.86	44449.11
588.02	44282.94
588.18	44500.61
588.34	44299.32
588.49	44142.50
588.65	43789.08
588.81	44191.65
588.97	44411.67
589.13	43758.66
589.29	44268.89
589.45	44203.36
589.61	44163.57
589.77	44409.32
589.93	44390.60
590.08	44596.57
590.24	44563.80
