SpectraSuite Data File
++++++++++++++++++++++++++++++++++++
Date: Fri Oct 25 11:33:18 EDT 2013
User: price-jones
Dark Spectrum Present: No
Reference Spectrum Present: No
Number of Sampled Component Spectra: 1
Spectrometers: USB2+H05261
Integration Time (usec): 100000 (USB2+H05261)
Spectra Averaged: 1 (USB2+H05261)
Boxcar Smoothing: 0 (USB2+H05261)
Correct for Electrical Dark: No (USB2+H05261)
Strobe/Lamp Enabled: No (USB2+H05261)
Correct for Detector Non-linearity: No (USB2+H05261)
Correct for Stray Light: No (USB2+H05261)
Number of Pixels in Processed Spectrum: 2048
>>>>>Begin Processed Spectral Data<<<<<
365.73	290.23
365.92	290.23
366.12	290.23
366.32	212.99
366.52	184.90
366.72	124.05
366.91	208.31
367.11	166.18
367.31	112.35
367.51	159.16
367.70	201.29
367.90	156.82
368.10	177.88
368.30	198.95
368.49	208.31
368.69	212.99
368.89	182.56
369.09	147.45
369.28	250.44
369.48	231.71
369.68	205.97
369.87	243.42
370.07	208.31
370.27	194.26
370.47	334.70
370.66	484.49
370.86	461.09
371.06	454.06
371.25	550.03
371.45	503.22
371.65	568.75
371.84	585.13
372.04	578.11
372.24	559.39
372.44	550.03
372.63	568.75
372.83	622.58
373.03	566.41
373.22	594.50
373.42	587.47
373.62	634.29
373.81	620.24
374.01	683.44
374.21	657.69
374.40	653.01
374.60	725.57
374.79	716.20
374.99	648.33
375.19	629.60
375.38	615.56
375.58	613.22
375.78	688.12
375.97	622.58
376.17	744.29
376.37	697.48
376.56	688.12
376.76	685.78
376.95	720.88
377.15	667.05
377.35	699.82
377.54	674.07
377.74	709.18
377.93	634.29
378.13	737.27
378.33	702.16
378.52	760.67
378.72	692.80
378.91	732.59
379.11	702.16
379.31	688.12
379.50	669.39
379.70	720.88
379.89	676.41
380.09	678.76
380.28	709.18
380.48	753.65
380.68	779.40
380.87	779.40
381.07	772.38
381.26	812.17
381.46	786.42
381.65	777.06
381.85	805.14
382.04	739.61
382.24	793.44
382.43	774.72
382.63	800.46
382.83	849.61
383.02	875.36
383.22	840.25
383.41	692.80
383.61	903.45
383.80	819.19
384.00	833.23
384.19	816.85
384.39	826.21
384.58	858.98
384.78	814.51
384.97	840.25
385.17	868.34
385.36	919.83
385.56	875.36
385.75	858.98
385.95	884.72
386.14	959.62
386.34	868.34
386.53	875.36
386.72	763.01
386.92	851.96
387.11	912.81
387.31	858.98
387.50	880.04
387.70	835.57
387.89	917.49
388.09	950.26
388.28	947.92
388.48	887.06
388.67	931.53
388.86	877.70
389.06	931.53
389.25	954.94
389.45	1032.18
389.64	940.90
389.84	964.30
390.03	1015.79
390.22	971.32
390.42	985.37
390.61	894.08
390.81	931.53
391.00	971.32
391.19	999.41
391.39	1036.86
391.58	987.71
391.78	971.32
391.97	1022.81
392.16	1041.54
392.36	1060.26
392.55	1011.11
392.75	1069.62
392.94	1160.91
393.13	1076.65
393.33	1034.52
393.52	1114.10
393.71	1158.57
393.91	1163.25
394.10	1093.03
394.29	1081.33
394.49	1149.20
394.68	1090.69
394.88	1025.15
395.07	1090.69
395.26	1151.54
395.46	1102.39
395.65	1210.06
395.84	1224.10
396.04	1128.14
396.23	1196.01
396.42	1245.16
396.62	1259.21
396.81	1224.10
397.00	1247.51
397.19	1231.12
397.39	1233.46
397.58	1263.89
397.77	1233.46
397.97	1245.16
398.16	1219.42
398.35	1380.92
398.55	1217.08
398.74	1299.00
398.93	1259.21
399.12	1301.34
399.32	1261.55
399.51	1371.55
399.70	1303.68
399.90	1352.83
400.09	1313.04
400.28	1383.26
400.47	1371.55
400.67	1448.79
400.86	1416.02
401.05	1432.41
401.24	1390.28
401.44	1476.88
401.63	1444.11
401.82	1488.58
402.01	1406.66
402.21	1519.01
402.40	1483.90
402.59	1542.41
402.78	1540.07
402.97	1544.75
403.17	1638.38
403.36	1549.43
403.55	1570.50
403.74	1685.19
403.93	1558.80
404.13	1645.40
404.32	1565.82
404.51	1643.06
404.70	1675.82
404.89	1687.53
405.09	1689.87
405.28	1661.78
405.47	1748.38
405.66	1732.00
405.85	1830.30
406.05	1732.00
406.24	1734.34
406.43	1804.55
406.62	1790.51
406.81	1872.43
407.00	1802.21
407.20	1813.92
407.39	1839.66
407.58	1909.88
407.77	1914.56
407.96	1839.66
408.15	1944.99
408.34	1865.41
408.54	1968.39
408.73	2045.63
408.92	2024.56
409.11	1994.14
409.30	2019.88
409.49	1963.71
409.68	2026.90
409.87	2026.90
410.07	2195.42
410.26	2136.91
410.45	2155.63
410.64	2207.13
410.83	1991.80
411.02	2160.31
411.21	2275.00
411.40	2183.72
411.59	2267.98
411.78	2132.23
411.98	2279.68
412.17	2225.85
412.36	2385.01
412.55	2349.90
412.74	2321.81
412.93	2417.77
413.12	2373.30
413.31	2525.44
413.50	2331.17
413.69	2424.80
413.88	2307.77
414.07	2565.23
414.26	2415.43
414.45	2530.12
414.64	2459.90
414.83	2506.71
415.02	2626.08
415.22	2562.89
415.41	2757.15
415.60	2619.06
415.79	2684.59
415.98	2787.58
416.17	2841.41
416.36	2752.47
416.55	2743.11
416.74	2670.55
416.93	2850.77
417.12	2820.35
417.31	2913.97
417.50	2881.20
417.69	2897.58
417.88	2979.50
418.07	2918.65
418.26	2949.08
418.45	2951.42
418.64	3007.59
418.83	3059.08
419.02	3070.78
419.21	2988.86
419.39	3105.89
419.58	3075.46
419.77	3117.59
419.96	3222.92
420.15	3267.39
420.34	3300.16
420.53	3213.56
420.72	3316.54
420.91	3316.54
421.10	3246.32
421.29	3243.98
421.48	3258.03
421.67	3370.37
421.86	3246.32
422.05	3391.44
422.24	3391.44
422.43	3353.99
422.61	3363.35
422.80	3468.67
422.99	3398.46
423.18	3433.57
423.37	3438.25
423.56	3344.63
423.75	3438.25
423.94	3440.59
424.13	3110.57
424.32	3396.12
424.50	3529.53
424.69	3389.10
424.88	3485.06
425.07	3302.50
425.26	3449.95
425.45	3461.65
425.64	3536.55
425.83	3602.08
426.01	3475.70
426.20	3611.45
426.39	3524.85
426.58	3508.46
426.77	3571.66
426.96	3623.15
427.15	3655.92
427.33	3618.47
427.52	3625.49
427.71	3641.87
427.90	3613.79
428.09	3583.36
428.28	3658.26
428.46	3857.20
428.65	3758.90
428.84	3723.79
429.03	3962.53
429.22	3801.03
429.40	3707.41
429.59	3815.07
429.78	3803.37
429.97	3548.25
430.16	3730.81
430.34	3861.88
430.53	3964.87
430.72	3908.69
430.91	3967.21
431.10	3925.08
431.28	3964.87
431.47	3981.25
431.66	4140.41
431.85	4063.17
432.03	4051.47
432.22	4107.64
432.41	3974.23
432.60	4077.21
432.79	4086.58
432.97	4145.09
433.16	4077.21
433.35	4163.81
433.54	4217.65
433.72	4287.86
433.91	4285.52
434.10	4297.22
434.28	4231.69
434.47	4168.49
434.66	4285.52
434.85	4365.10
435.03	4435.32
435.22	4266.80
435.41	4479.79
435.59	4505.53
435.78	4411.91
435.97	4507.87
436.16	4540.64
436.34	4470.42
436.53	4564.04
436.72	4531.28
436.90	4526.60
437.09	4589.79
437.28	4374.46
437.46	4449.36
437.65	4697.46
437.84	4645.96
438.02	4620.22
438.21	4730.22
438.40	4608.51
438.58	4798.10
438.77	4854.27
438.96	4894.06
439.14	4844.91
439.33	4894.06
439.52	4968.96
439.70	5029.81
439.89	4964.28
440.08	4891.72
440.26	5088.32
440.45	5064.92
440.63	5184.29
440.82	5200.67
441.01	5125.77
441.19	5146.84
441.38	5308.34
441.57	5252.16
441.75	5373.87
441.94	5453.45
442.12	5434.72
442.31	5373.87
442.50	5631.33
442.68	5495.58
442.87	5432.38
443.05	5640.69
443.24	5460.47
443.43	5736.65
443.61	5589.20
443.80	5771.76
443.98	5563.45
444.17	5380.89
444.35	5535.37
444.54	5703.89
444.73	5701.54
444.91	5650.05
445.10	5561.11
445.28	5715.59
445.47	5614.95
445.65	5783.46
445.84	5841.98
446.02	5830.27
446.21	5781.12
446.39	5771.76
446.58	5834.96
446.77	5790.49
446.95	5720.27
447.14	5565.79
447.32	5881.77
447.51	5776.44
447.69	5797.51
447.88	5746.02
448.06	5717.93
448.25	5844.32
448.43	5947.30
448.62	5846.66
448.80	5949.64
448.99	6064.33
449.17	5907.51
449.36	5907.51
449.54	6022.20
449.73	6050.28
449.91	6052.63
450.10	6174.33
450.28	6134.54
450.46	6225.82
450.65	6171.99
450.83	6183.70
451.02	6293.70
451.20	6218.80
451.39	6099.44
451.57	6207.10
451.76	6218.80
451.94	6216.46
452.13	6544.14
452.31	6277.32
452.49	6202.42
452.68	6384.98
452.86	6448.18
453.05	6368.60
453.23	6476.26
453.42	6293.70
453.60	6319.45
453.78	6548.82
453.97	6251.57
454.15	6469.24
454.34	6321.79
454.52	6455.20
454.70	6487.96
454.89	6630.74
455.07	6558.18
455.26	6602.65
455.44	6799.26
455.62	6825.00
455.81	6579.25
455.99	6993.52
456.17	6801.60
456.36	6747.76
456.54	6888.20
456.73	6970.12
456.91	7152.68
457.09	7115.23
457.28	7136.29
457.46	7091.82
457.64	7033.31
457.83	7119.91
458.01	6944.37
458.19	7337.58
458.38	7171.40
458.56	7346.94
458.74	7246.30
458.93	7293.11
459.11	7332.90
459.29	7452.27
459.48	7342.26
459.66	7339.92
459.84	7384.39
460.03	7578.65
460.21	7482.69
460.39	7297.79
460.57	7438.22
460.76	7393.75
460.94	7487.37
461.12	7569.29
461.31	7585.68
461.49	7541.21
461.67	7550.57
461.85	7903.99
462.04	7702.70
462.22	8077.19
462.40	7829.09
462.59	7817.39
462.77	7857.18
462.95	7789.30
463.13	7995.27
463.32	7829.09
463.50	7911.01
463.68	8154.43
463.86	7981.23
464.05	7838.45
464.23	7857.18
464.41	7978.89
464.59	7836.11
464.78	8058.46
464.96	7990.59
465.14	7901.65
465.32	8196.56
465.50	8138.04
465.69	8074.85
465.87	8088.89
466.05	8264.43
466.23	8327.63
466.41	8278.47
466.60	8493.80
466.78	8023.36
466.96	8170.81
467.14	8313.58
467.32	8606.15
467.51	8535.93
467.69	8304.22
467.87	8437.63
468.05	8304.22
468.23	8362.73
468.41	8266.77
468.60	8379.12
468.78	8615.51
468.96	8423.59
469.14	8795.73
469.32	8868.29
469.50	8390.82
469.69	8596.79
469.87	9027.45
470.05	9043.83
470.23	8791.05
470.41	8641.26
470.59	9165.54
470.77	8800.41
470.95	8889.35
471.14	9076.60
471.32	8702.11
471.50	9116.39
471.68	9261.50
471.86	9179.58
472.04	9125.75
472.22	9418.32
472.40	9186.60
472.58	9338.74
472.77	9392.57
472.95	9282.56
473.13	9823.23
473.31	9406.61
473.49	9703.86
473.67	9650.03
473.85	9701.52
474.03	10083.03
474.21	9884.08
474.39	9687.48
474.57	9954.30
474.75	10066.64
474.93	10204.74
475.12	9837.27
475.30	10303.04
475.48	9994.09
475.66	10164.95
475.84	10162.61
476.02	10190.69
476.20	10434.11
476.38	10417.72
476.56	10642.42
476.74	10665.82
476.92	10698.59
477.10	10518.37
477.28	10850.72
477.46	10988.82
477.64	11138.61
477.82	11073.07
478.00	11356.28
478.18	11197.12
478.36	11173.72
478.54	11304.79
478.72	11503.73
478.90	11449.90
479.08	11515.44
479.26	11850.13
479.44	11803.32
479.62	11971.84
479.80	12028.01
479.98	11990.56
480.16	12475.06
480.34	12194.19
480.52	12351.01
480.70	12362.71
480.88	12119.29
481.06	12395.48
481.24	12582.72
481.41	12706.77
481.59	13160.83
481.77	12847.20
481.95	12868.27
482.13	13207.64
482.31	13200.62
482.49	13593.83
482.67	13556.38
482.85	13530.64
483.03	13823.20
483.21	14008.11
483.39	13914.48
483.57	13844.27
483.74	14061.94
483.92	14303.01
484.10	13923.85
484.28	14527.71
484.46	14511.32
484.64	14857.72
484.82	14726.65
485.00	14747.72
485.18	15021.56
485.35	15370.30
485.53	15143.27
485.71	15267.31
485.89	15445.20
486.07	15382.00
486.25	15360.94
486.43	15634.78
486.61	15798.62
486.78	16128.63
486.96	16119.27
487.14	16390.77
487.32	16498.44
487.50	16306.51
487.68	16676.32
487.85	16821.43
488.03	16896.33
488.21	17521.25
488.39	17069.53
488.57	17439.33
488.75	17324.65
488.92	17556.36
489.10	17736.58
489.28	17804.46
489.46	18008.08
489.64	17820.84
489.81	18232.77
489.99	18398.95
490.17	18242.14
490.35	18494.91
490.53	18492.57
490.70	18628.32
490.88	19007.49
491.06	19227.50
491.24	19183.03
491.41	19274.31
491.59	19381.98
491.77	19426.45
491.95	19454.53
492.13	19758.80
492.30	19768.16
492.48	19948.39
492.66	20056.05
492.84	19983.49
493.01	20430.54
493.19	20332.23
493.37	20673.95
493.54	20489.05
493.72	20938.43
493.90	21041.42
494.08	20879.92
494.25	21238.02
494.43	21046.10
494.61	21261.43
494.79	21614.85
494.96	21488.46
495.14	21614.85
495.32	22148.49
495.49	21795.07
495.67	21664.00
495.85	22104.02
496.02	22588.51
496.20	22635.32
496.38	22457.44
496.55	22555.74
496.73	23227.48
496.91	22848.31
497.09	23220.45
497.26	23304.71
497.44	23520.04
497.62	23412.38
497.79	23793.89
497.97	23538.77
498.14	23807.93
498.32	24060.71
498.50	23990.49
498.67	24161.35
498.85	24020.92
499.03	24297.10
499.20	24503.07
499.38	24652.86
499.56	24840.11
499.73	24793.29
499.91	25060.12
500.08	25376.09
500.26	25165.44
500.44	25053.09
500.61	24783.93
500.79	24964.15
500.97	25553.97
501.14	25839.51
501.32	25277.79
501.49	25865.26
501.67	25434.60
501.84	25942.50
502.02	25795.04
502.20	25923.77
502.37	25944.84
502.55	26075.91
502.72	26253.79
502.90	26485.50
503.07	26422.31
503.25	26553.38
503.43	26354.43
503.60	26855.31
503.78	27065.96
503.95	26272.51
504.13	26808.50
504.30	27278.94
504.48	26845.94
504.65	26841.26
504.83	27281.28
505.01	27140.85
505.18	27192.34
505.36	27363.20
505.53	27531.72
505.71	27538.74
505.88	27716.62
506.06	27292.99
506.23	27892.16
506.41	27590.24
506.58	28020.89
506.76	28224.52
506.93	28280.69
507.11	28804.97
507.28	28472.62
507.46	28191.75
507.63	28371.97
507.81	28774.55
507.98	28538.15
508.16	28772.21
508.33	28669.22
508.50	29085.84
508.68	29221.59
508.85	29420.53
509.03	29233.29
509.20	29259.04
509.38	29544.58
509.55	29422.87
509.73	29879.28
509.90	29729.48
510.08	29776.30
510.25	29900.34
510.42	29713.10
510.60	29802.04
510.77	30106.31
510.95	30560.37
511.12	30202.27
511.30	30209.29
511.47	30574.42
511.64	30663.36
511.82	30691.44
511.99	30871.67
512.17	30574.42
512.34	30852.94
512.51	31335.09
512.69	31573.83
512.86	31035.50
513.04	31218.07
513.21	30948.90
513.38	31412.33
513.56	31379.56
513.73	31175.94
513.90	31686.17
514.08	31201.68
514.25	31674.47
514.43	31981.08
514.60	32158.96
514.77	32093.43
514.95	32142.58
515.12	31971.72
515.29	32325.14
515.47	32683.24
515.64	32650.47
515.81	31950.65
515.99	32596.64
516.16	32744.09
516.33	32556.85
516.51	32739.41
516.68	32924.32
516.85	32936.02
517.03	33434.55
517.20	32741.75
517.37	33071.77
517.54	33200.50
517.72	33188.80
517.89	33249.65
518.06	33291.78
518.24	33507.11
518.41	33230.93
518.58	33420.51
518.75	33235.61
518.93	33795.00
519.10	33722.44
519.27	34270.12
519.45	33752.87
519.62	34199.91
519.79	33694.35
519.96	33888.62
520.14	34057.14
520.31	34323.96
520.48	34476.09
520.65	34066.50
520.83	34801.43
521.00	35232.08
521.17	34696.10
521.34	34888.03
521.52	34993.35
521.69	34909.09
521.86	35019.10
522.03	35079.95
522.20	34836.53
522.38	35358.47
522.55	35498.91
522.72	35681.47
522.89	35491.88
523.07	35503.59
523.24	35395.92
523.41	35990.42
523.58	35648.70
523.75	35791.47
523.92	36039.57
524.10	36044.25
524.27	36163.62
524.44	35948.29
524.61	36346.18
524.78	36142.55
524.96	36271.28
525.13	36210.43
525.30	36825.99
525.47	36622.36
525.64	36292.35
525.81	36430.44
525.98	36818.97
526.16	36561.51
526.33	36652.79
526.50	36921.95
526.67	36751.09
526.84	37088.13
527.01	36858.76
527.18	36786.20
527.36	37163.03
527.53	37228.56
527.70	37469.64
527.87	37626.45
528.04	37467.30
528.21	37429.85
528.38	37607.73
528.55	37331.54
528.72	37860.51
528.89	37535.17
529.07	37638.15
529.24	37605.39
529.41	37993.92
529.58	37818.38
529.75	37797.31
529.92	38174.14
530.09	38010.30
530.26	38342.66
530.43	37890.93
530.60	38593.09
530.77	38220.95
530.94	38204.56
531.11	38038.39
531.28	38590.75
531.46	38588.41
531.63	38494.79
531.80	38864.60
531.97	38562.67
532.14	38660.97
532.31	38724.16
532.48	38609.48
532.65	38618.84
532.82	38714.80
532.99	39269.51
533.16	38976.94
533.33	39070.56
533.50	39285.89
533.67	39346.75
533.84	38883.32
534.01	39332.70
534.18	39377.17
534.35	39576.12
534.52	39744.64
534.69	39770.38
534.86	39849.96
535.03	39321.00
535.20	39878.05
535.37	39477.82
535.54	40156.57
535.71	40039.54
535.88	39917.84
536.05	40067.63
536.22	40477.22
536.38	40381.26
536.55	40088.70
536.72	40222.11
536.89	39466.11
537.06	40226.79
537.23	40767.45
537.40	40460.84
537.57	40299.34
537.74	40641.06
537.91	40765.11
538.08	40596.59
538.25	40238.49
538.42	40697.24
538.59	40371.90
538.75	40535.74
538.92	40842.35
539.09	40996.82
539.26	40645.74
539.43	41008.53
539.60	41237.90
539.77	41294.07
539.94	41216.83
540.11	41212.15
540.28	41233.22
540.44	41043.63
540.61	41043.63
540.78	41265.99
540.95	41673.24
541.12	41251.94
541.29	41450.89
541.46	41448.55
541.62	41141.94
541.79	41717.71
541.96	41549.19
542.13	41071.72
542.30	41710.69
542.47	41710.69
542.63	41626.43
542.80	42190.50
542.97	42780.31
543.14	42174.11
543.31	42234.97
543.48	42267.73
543.64	42373.06
543.81	42738.18
543.98	42487.74
544.15	42405.83
544.32	42878.61
544.48	42923.08
544.65	42452.64
544.82	42775.63
544.99	42380.08
545.16	42520.51
545.32	42504.13
545.49	43082.24
545.66	43337.36
545.83	42983.94
546.00	43117.35
546.16	42754.57
546.33	42857.55
546.50	42607.11
546.67	43447.36
546.83	42546.26
547.00	43110.33
547.17	43159.48
547.34	42972.24
547.50	43430.98
547.67	43805.47
547.84	43653.33
548.00	43323.32
548.17	43629.93
548.34	43920.15
548.51	43777.38
548.67	43578.43
548.84	43632.27
549.01	43913.13
549.18	43873.34
549.34	43957.60
549.51	44083.99
549.68	44163.57
549.84	43952.92
550.01	43894.41
550.18	44072.29
550.34	44123.78
550.51	44285.28
550.68	44126.12
550.84	44030.16
551.01	44329.75
551.18	43768.02
551.34	44360.17
551.51	44137.82
551.68	44416.35
551.84	44416.35
552.01	44212.72
552.18	44341.45
552.34	44215.06
552.51	44439.75
552.68	43969.30
552.84	44683.17
553.01	44589.55
553.18	44500.61
553.34	44236.12
553.51	44933.60
553.67	44758.06
553.84	44760.40
554.01	44737.00
554.17	44807.22
554.34	45045.95
554.51	44872.75
554.67	45111.49
554.84	45052.97
555.00	44699.55
555.17	44411.67
555.33	45125.53
555.50	45242.56
555.67	45450.86
555.83	45490.65
556.00	45085.74
556.16	45507.04
556.33	45652.15
556.50	44910.20
556.66	45392.35
556.83	44982.76
556.99	45560.87
557.16	45715.34
557.32	45715.34
557.49	45701.30
557.65	45448.52
557.82	45542.14
557.98	45514.06
558.15	45059.99
558.32	45516.40
558.48	45235.53
558.65	45497.67
558.81	45811.31
558.98	45336.18
559.14	45715.34
559.31	45457.88
559.47	45928.33
559.64	45624.06
559.80	45935.35
559.97	46017.27
560.13	45558.53
560.30	45862.80
560.46	46239.62
560.63	46167.07
560.79	46234.94
560.96	46089.83
561.12	46178.77
561.29	46323.88
561.45	46209.20
561.61	45755.13
561.78	45940.04
561.94	45848.75
562.11	46461.97
562.27	46059.40
562.44	46644.54
562.60	46356.65
562.77	46265.37
562.93	46050.04
563.10	46347.29
563.26	46188.13
563.42	46637.51
563.59	46436.23
563.75	46485.38
563.92	46836.46
564.08	46433.89
564.24	46534.53
564.41	46550.91
564.57	46309.84
564.74	46419.84
564.90	46632.83
565.07	46040.68
565.23	46330.90
565.39	46714.75
565.56	46639.86
565.72	46504.10
565.88	46754.54
566.05	47000.30
566.21	46897.31
566.38	46548.57
566.54	46707.73
566.70	46693.69
566.87	46775.61
567.03	46681.98
567.19	47100.94
567.36	46705.39
567.52	46979.23
567.68	46995.62
567.85	46799.01
568.01	47299.89
568.17	46693.69
568.34	47042.43
568.50	47004.98
568.66	46560.28
568.83	46953.49
568.99	47360.74
569.15	47166.48
569.32	46614.11
569.48	46829.44
569.64	47414.57
569.81	47093.92
569.97	47096.26
570.13	47082.22
570.30	46806.03
570.46	47091.58
570.62	47309.25
570.78	46850.50
570.95	47283.50
571.11	47519.90
571.27	46806.03
571.43	47061.15
571.60	46958.17
571.76	47356.06
571.92	47257.76
572.09	46899.65
572.25	47222.65
572.41	47012.00
572.57	47182.86
572.74	47505.85
572.90	47283.50
573.06	47124.35
573.22	47414.57
573.38	47086.90
573.55	47332.65
573.71	47360.74
573.87	47580.75
574.03	47302.23
574.20	47515.22
574.36	47657.99
574.52	47311.59
574.68	47117.32
574.84	47833.53
575.01	47529.26
575.17	47267.12
575.33	47358.40
575.49	47524.58
575.65	47241.37
575.82	47660.33
575.98	47831.19
576.14	47917.79
576.30	47814.80
576.46	47426.28
576.62	47082.22
576.79	47428.62
576.95	47379.46
577.11	47187.54
577.27	47536.28
577.43	47299.89
577.59	47208.61
577.75	47463.72
577.92	47323.29
578.08	47299.89
578.24	47508.19
578.40	48055.88
578.56	47559.69
578.72	47374.78
578.88	47346.70
579.04	47810.12
579.21	47452.02
579.37	47840.55
579.53	47547.98
579.69	47562.03
579.85	47466.06
580.01	47770.33
580.17	47393.51
580.33	47721.18
580.49	47863.96
580.65	47608.84
580.82	47648.63
580.98	47679.05
581.14	47604.16
581.30	47676.71
581.46	47753.95
581.62	47971.62
581.78	47540.96
581.94	47723.52
582.10	47887.36
582.26	47641.60
582.42	47737.57
582.58	47667.35
582.74	47955.24
582.90	47980.98
583.06	47767.99
583.22	47758.63
583.38	47903.74
583.54	47660.33
583.70	47547.98
583.86	47613.52
584.02	47482.45
584.18	48102.69
584.34	48193.97
584.50	48058.22
584.66	47978.64
584.82	47786.72
584.98	47739.91
585.14	47924.81
585.30	47442.66
585.46	48147.16
585.62	47894.38
585.78	48027.79
585.94	47840.55
586.10	48039.50
586.26	47538.62
586.42	47304.57
586.58	47772.67
586.74	47739.91
586.90	47962.26
587.06	47657.99
587.22	47908.43
587.38	47992.68
587.54	48027.79
587.70	48411.64
587.86	48215.04
588.02	47360.74
588.18	47660.33
588.34	48121.41
588.49	48182.27
588.65	47999.71
588.81	47861.61
588.97	48041.84
589.13	47800.76
589.29	47641.60
589.45	48406.96
589.61	48549.73
589.77	48016.09
589.93	48032.47
