SpectraSuite Data File
++++++++++++++++++++++++++++++++++++
Date: Fri Oct 25 11:23:24 EDT 2013
User: price-jones
Dark Spectrum Present: No
Reference Spectrum Present: No
Number of Sampled Component Spectra: 1
Spectrometers: USB2+H05261
Integration Time (usec): 100000 (USB2+H05261)
Spectra Averaged: 1 (USB2+H05261)
Boxcar Smoothing: 0 (USB2+H05261)
Correct for Electrical Dark: No (USB2+H05261)
Strobe/Lamp Enabled: No (USB2+H05261)
Correct for Detector Non-linearity: No (USB2+H05261)
Correct for Stray Light: No (USB2+H05261)
Number of Pixels in Processed Spectrum: 2048
>>>>>Begin Processed Spectral Data<<<<<
365.73	215.33
365.92	215.33
366.12	215.33
366.32	180.22
366.52	65.54
366.72	72.56
366.91	77.24
367.11	159.16
367.31	98.30
367.51	53.83
367.70	81.92
367.90	149.79
368.10	107.66
368.30	201.29
368.49	154.48
368.69	170.86
368.89	86.60
369.09	191.92
369.28	149.79
369.48	117.03
369.68	119.37
369.87	191.92
370.07	205.97
370.27	299.59
370.47	334.70
370.66	550.03
370.86	566.41
371.06	657.69
371.25	692.80
371.45	615.56
371.65	695.14
371.84	620.24
372.04	669.39
372.24	709.18
372.44	746.63
372.63	709.18
372.83	669.39
373.03	718.54
373.22	741.95
373.42	746.63
373.62	744.29
373.81	774.72
374.01	791.10
374.21	798.12
374.40	788.76
374.60	882.38
374.79	791.10
374.99	772.38
375.19	868.34
375.38	788.76
375.58	849.61
375.78	887.06
375.97	858.98
376.17	903.45
376.37	861.32
376.56	823.87
376.76	814.51
376.95	837.91
377.15	854.30
377.35	924.51
377.54	812.17
377.74	896.43
377.93	891.74
378.13	933.87
378.33	957.28
378.52	964.30
378.72	1013.45
378.91	966.64
379.11	992.39
379.31	938.55
379.50	894.08
379.70	992.39
379.89	1032.18
380.09	912.81
380.28	1004.09
380.48	1011.11
380.68	929.19
380.87	966.64
381.07	978.34
381.26	1095.37
381.46	931.53
381.65	985.37
381.85	1036.86
382.04	1001.75
382.24	1083.67
382.43	1050.90
382.63	1088.35
382.83	1114.10
383.02	1004.09
383.22	1001.75
383.41	1118.78
383.61	1078.99
383.80	1086.01
384.00	1022.81
384.19	1135.16
384.39	1104.73
384.58	1135.16
384.78	1130.48
384.97	1090.69
385.17	1240.48
385.36	1139.84
385.56	1153.88
385.75	1142.18
385.95	1163.25
386.14	1210.06
386.34	1158.57
386.53	1146.86
386.72	1188.99
386.92	1235.80
387.11	1259.21
387.31	1268.57
387.50	1217.08
387.70	1219.42
387.89	1409.00
388.09	1240.48
388.28	1242.82
388.48	1378.58
388.67	1247.51
388.86	1287.29
389.06	1338.79
389.25	1334.11
389.45	1380.92
389.64	1320.06
389.84	1352.83
390.03	1434.75
390.22	1303.68
390.42	1301.34
390.61	1315.38
390.81	1345.81
391.00	1413.68
391.19	1362.19
391.39	1392.62
391.58	1411.34
391.78	1404.32
391.97	1537.73
392.16	1507.30
392.36	1626.67
392.55	1521.35
392.75	1582.20
392.94	1507.30
393.13	1500.28
393.33	1490.92
393.52	1582.20
393.71	1556.46
393.91	1664.12
394.10	1519.01
394.29	1516.67
394.49	1605.61
394.68	1619.65
394.88	1600.93
395.07	1661.78
395.26	1727.32
395.46	1626.67
395.65	1717.95
395.84	1713.27
396.04	1769.44
396.23	1729.66
396.42	1703.91
396.62	1750.72
396.81	1764.76
397.00	1799.87
397.19	1919.24
397.39	1891.15
397.58	1860.73
397.77	1881.79
397.97	1872.43
398.16	1825.62
398.35	1952.01
398.55	1870.09
398.74	1893.49
398.93	2003.50
399.12	1973.07
399.32	1921.58
399.51	1806.89
399.70	2062.01
399.90	1926.26
400.09	2003.50
400.28	1973.07
400.47	1977.75
400.67	2047.97
400.86	2101.80
401.05	2101.80
401.24	2104.14
401.44	2078.40
401.63	2143.93
401.82	2150.95
402.01	2122.87
402.21	2237.55
402.40	2270.32
402.59	2258.62
402.78	2134.57
402.97	2197.76
403.17	2303.09
403.36	2326.49
403.55	2279.68
403.74	2424.80
403.93	2263.30
404.13	2399.05
404.32	2347.56
404.51	2354.58
404.70	2464.58
404.89	2415.43
405.09	2429.48
405.28	2466.92
405.47	2429.48
405.66	2539.48
405.85	2590.97
406.05	2574.59
406.24	2562.89
406.43	2544.16
406.62	2663.53
406.81	2548.84
407.00	2633.10
407.20	2715.02
407.39	2710.34
407.58	2689.28
407.77	2740.77
407.96	2729.06
408.15	2792.26
408.34	2670.55
408.54	2796.94
408.73	2906.95
408.92	2785.24
409.11	2789.92
409.30	2913.97
409.49	2979.50
409.68	2897.58
409.87	2904.60
410.07	3089.51
410.26	2984.18
410.45	3094.19
410.64	3096.53
410.83	3166.74
411.02	3157.38
411.21	3213.56
411.40	3176.11
411.59	3227.60
411.78	3213.56
411.98	3295.47
412.17	3197.17
412.36	3407.82
412.55	3379.73
412.74	3435.91
412.93	3482.72
413.12	3309.52
413.31	3513.14
413.50	3433.57
413.69	3417.18
413.88	3550.59
414.07	3527.19
414.26	3627.83
414.45	3728.47
414.64	3843.16
414.83	3702.73
415.02	3857.20
415.22	3772.94
415.41	3868.91
415.60	3808.05
415.79	3962.53
415.98	3896.99
416.17	4046.79
416.36	3971.89
416.55	4107.64
416.74	4051.47
416.93	4088.92
417.12	4128.70
417.31	4152.11
417.50	4140.41
417.69	4337.01
417.88	4339.35
418.07	4278.50
418.26	4386.16
418.45	4177.86
418.64	4437.66
418.83	4451.70
419.02	4545.32
419.21	4552.34
419.39	4533.62
419.58	4517.23
419.77	4554.68
419.96	4411.91
420.15	4564.04
420.34	4671.71
420.53	4533.62
420.72	4830.87
420.91	4692.77
421.10	4748.95
421.29	4767.67
421.48	4671.71
421.67	4903.42
421.86	4723.20
422.05	4901.08
422.24	4784.06
422.43	4952.57
422.61	4908.10
422.80	5006.41
422.99	4940.87
423.18	4994.70
423.37	5081.30
423.56	4915.12
423.75	4837.89
423.94	4898.74
424.13	4702.14
424.32	4807.46
424.50	4882.36
424.69	5195.99
424.88	5093.01
425.07	5064.92
425.26	4964.28
425.45	5114.07
425.64	4887.04
425.83	5078.96
426.01	5011.09
426.20	5032.15
426.39	5111.73
426.58	4985.34
426.77	5142.16
426.96	5078.96
427.15	5224.08
427.33	5111.73
427.52	5416.00
427.71	5336.42
427.90	5151.52
428.09	5305.99
428.28	5373.87
428.46	5390.25
428.65	5364.51
428.84	5483.88
429.03	5685.16
429.22	5341.10
429.40	5558.77
429.59	5549.41
429.78	5238.12
429.97	5418.34
430.16	5493.24
430.34	5591.54
430.53	5671.12
430.72	5689.84
430.91	5802.19
431.10	5533.03
431.28	5734.31
431.47	5975.39
431.66	5872.40
431.85	5905.17
432.03	5951.98
432.22	5870.06
432.41	5935.60
432.60	5888.79
432.79	5980.07
432.97	6157.95
433.16	5994.11
433.35	5984.75
433.54	6202.42
433.72	6202.42
433.91	6179.01
434.10	6057.31
434.28	6267.95
434.47	6092.41
434.66	6162.63
434.85	6284.34
435.03	6347.53
435.22	6459.88
435.41	6480.94
435.59	6654.14
435.78	6504.35
435.97	6450.52
436.16	6373.28
436.34	6417.75
436.53	6553.50
436.72	6684.57
436.90	6551.16
437.09	6729.04
437.28	6483.28
437.46	6525.41
437.65	6768.83
437.84	6825.00
438.02	6806.28
438.21	6764.15
438.40	6787.55
438.58	6841.39
438.77	7178.42
438.96	7045.01
439.14	7117.57
439.33	7138.63
439.52	7396.09
439.70	7248.64
439.89	7290.77
440.08	7438.22
440.26	7358.64
440.45	7473.33
440.63	7576.31
440.82	7644.19
441.01	7747.17
441.19	7651.21
441.38	7829.09
441.57	7723.77
441.75	7906.33
441.94	8067.83
442.12	7962.50
442.31	8257.41
442.50	8149.75
442.68	8147.40
442.87	7999.95
443.05	8168.47
443.24	8208.26
443.43	8255.07
443.61	8238.69
443.80	8454.02
443.98	8182.51
444.17	7770.58
444.35	8250.39
444.54	8430.61
444.73	8383.80
444.91	8264.43
445.10	8470.40
445.28	8468.06
445.47	8432.95
445.65	8496.14
445.84	8601.47
446.02	8416.57
446.21	8484.44
446.39	8606.15
446.58	8491.46
446.77	8500.83
446.95	8241.03
447.14	8318.26
447.32	8734.88
447.51	8519.55
447.69	8610.83
447.88	8571.04
448.06	8601.47
448.25	8617.85
448.43	8538.27
448.62	8372.10
448.80	8512.53
448.99	8760.63
449.17	8826.16
449.36	8723.18
449.54	8791.05
449.73	9114.05
449.91	9210.01
450.10	9025.11
450.28	9013.40
450.46	9296.61
450.65	9165.54
450.83	9153.84
451.02	9043.83
451.20	9357.46
451.39	9245.12
451.57	9296.61
451.76	9191.28
451.94	9055.53
452.13	9518.96
452.31	9338.74
452.49	9404.27
452.68	9516.62
452.86	9350.44
453.05	9528.32
453.23	9511.94
453.42	9497.89
453.60	9444.06
453.78	9626.62
453.97	9577.47
454.15	9727.27
454.34	9633.64
454.52	9792.80
454.70	9802.16
454.89	9760.03
455.07	9795.14
455.26	10064.30
455.44	10080.69
455.62	9886.42
455.81	10108.77
455.99	10174.31
456.17	10078.35
456.36	10059.62
456.54	10279.63
456.73	10375.59
456.91	10527.73
457.09	10551.14
457.28	10782.85
457.46	10532.41
457.64	10626.03
457.83	10293.68
458.01	10406.02
458.19	10719.65
458.38	10705.61
458.56	10640.08
458.74	10511.35
458.93	10803.91
459.11	10710.29
459.29	10827.32
459.48	11033.29
459.66	11037.97
459.84	11126.91
460.03	11061.37
460.21	10972.43
460.39	11171.38
460.57	11108.18
460.76	11234.57
460.94	11267.34
461.12	11070.73
461.31	11211.17
461.49	11309.47
461.67	11059.03
461.85	11669.91
462.04	11232.23
462.22	11721.40
462.40	11690.98
462.59	11634.80
462.77	11459.26
462.95	11723.74
463.13	11698.00
463.32	11653.53
463.50	11892.26
463.68	11882.90
463.86	11943.75
464.05	11641.82
464.23	11815.02
464.41	11992.90
464.59	11927.37
464.78	12222.28
464.96	12039.72
465.14	11772.89
465.32	12042.06
465.50	12243.34
465.69	12404.84
465.87	12184.83
466.05	12379.09
466.23	12196.53
466.41	12313.56
466.60	12610.81
466.78	12271.43
466.96	12531.23
467.14	12339.30
467.32	12479.74
467.51	12678.68
467.69	12283.13
467.87	12369.73
468.05	12592.08
468.23	12624.85
468.41	12650.60
468.60	13020.40
468.78	12594.42
468.96	12688.04
469.14	12814.43
469.32	13090.62
469.50	12779.32
469.69	13188.92
469.87	13088.28
470.05	13338.71
470.23	13186.58
470.41	13371.48
470.59	13472.12
470.77	13315.31
470.95	13348.08
471.14	13806.82
471.32	13188.92
471.50	13483.83
471.68	13720.22
471.86	13916.83
472.04	13958.96
472.22	14071.30
472.40	13851.29
472.58	13921.51
472.77	14167.26
472.95	14237.48
473.13	14621.33
473.31	14207.05
473.49	14218.75
473.67	14040.87
473.85	14420.04
474.03	14705.59
474.21	14913.89
474.39	15082.41
474.57	14717.29
474.75	14995.81
474.93	15283.70
475.12	15101.14
475.30	15215.82
475.48	14988.79
475.66	15063.69
475.84	14953.68
476.02	15199.44
476.20	15566.90
476.38	15885.22
476.56	16053.73
476.74	16236.30
476.92	16067.78
477.10	15800.96
477.28	16233.96
477.46	16397.79
477.64	16634.19
477.82	16477.37
478.00	17165.49
478.18	16929.09
478.36	17142.08
478.54	17305.92
478.72	17357.41
478.90	17703.81
479.08	17652.32
479.26	17949.57
479.44	17774.03
479.62	17806.80
479.80	18118.09
479.98	18174.26
480.16	18684.50
480.34	18459.81
480.52	18965.36
480.70	18768.76
480.88	18712.58
481.06	18881.10
481.24	19007.49
481.41	19243.88
481.59	19590.28
481.77	19646.46
481.95	19714.33
482.13	19868.81
482.31	19704.97
482.49	20641.18
482.67	20255.00
482.85	20533.52
483.03	20631.82
483.21	20718.42
483.39	21132.70
483.57	20608.42
483.74	21589.10
483.92	21535.27
484.10	21193.55
484.28	21752.94
484.46	21902.73
484.64	22541.70
484.82	22228.07
485.00	22576.81
485.18	22663.41
485.35	23419.40
485.53	22735.96
485.71	23358.55
485.89	23681.54
486.07	23538.77
486.25	23487.28
486.43	23728.35
486.61	24091.13
486.78	23950.70
486.96	24400.08
487.14	24931.39
487.32	24865.85
487.50	25336.30
487.68	25399.49
487.85	25366.73
488.03	25628.87
488.21	26195.28
488.39	25881.64
488.57	25942.50
488.75	26572.10
488.92	26497.20
489.10	26967.65
489.28	27201.71
489.46	27187.66
489.64	27215.75
489.81	27557.47
489.99	27976.42
490.17	28175.37
490.35	28371.97
490.53	28350.91
490.70	28430.49
490.88	28257.29
491.06	29165.42
491.24	29198.18
491.41	29235.63
491.59	29392.45
491.77	29387.77
491.95	29502.45
492.13	29853.53
492.30	30169.51
492.48	30408.24
492.66	30478.46
492.84	30651.66
493.01	30841.24
493.19	31040.18
493.37	31087.00
493.54	31386.58
493.72	31840.65
493.90	31377.22
494.08	31955.33
494.25	32610.68
494.43	32093.43
494.61	32540.47
494.79	32666.86
494.96	32655.15
495.14	33092.83
495.32	33633.50
495.49	33312.84
495.67	33523.49
495.85	33860.53
496.02	34384.81
496.20	34108.63
496.38	33933.09
496.55	34197.57
496.73	35271.87
496.91	34284.17
497.09	34986.33
497.26	35175.91
497.44	35325.71
497.62	35274.21
497.79	36025.53
497.97	35424.01
498.14	36004.46
498.32	36704.28
498.50	36348.52
498.67	36835.35
498.85	37088.13
499.03	36821.31
499.20	36851.73
499.38	37376.01
499.56	37038.98
499.73	37638.15
499.91	37345.59
500.08	38087.54
500.26	37785.61
500.44	37979.87
500.61	37846.46
500.79	38244.35
500.97	38328.61
501.14	39175.89
501.32	39302.28
501.49	39068.22
501.67	39105.67
501.84	39049.50
502.02	39096.31
502.20	39091.63
502.37	39452.07
502.55	39253.12
502.72	39711.87
502.90	40240.83
503.07	39739.96
503.25	40285.30
503.43	39688.46
503.60	40308.71
503.78	40374.24
503.95	40575.53
504.13	40774.47
504.30	40961.72
504.48	40840.01
504.65	41034.27
504.83	41308.11
505.01	41596.00
505.18	41680.26
505.36	41406.42
505.53	41481.31
505.71	42000.91
505.88	41652.17
506.06	41324.50
506.23	42857.55
506.41	42700.73
506.58	42363.70
506.76	42469.02
506.93	43124.37
507.11	42429.23
507.28	43056.50
507.46	42934.79
507.63	43196.93
507.81	43416.94
507.98	43281.19
508.16	43480.13
508.33	43793.76
508.50	43800.79
508.68	43976.33
508.85	44119.10
509.03	44397.62
509.20	44289.96
509.38	44722.96
509.55	44767.43
509.73	44844.66
509.90	44839.98
510.08	44933.60
510.25	45048.29
510.42	45441.50
510.60	45354.90
510.77	45670.87
510.95	46033.66
511.12	45581.93
511.30	45640.45
511.47	45897.91
511.64	46021.95
511.82	46356.65
511.99	45928.33
512.17	46036.00
512.34	46298.14
512.51	46358.99
512.69	46616.45
512.86	46703.05
513.04	46707.73
513.21	47150.09
513.38	47192.22
513.56	47374.78
513.73	47353.72
513.90	47381.80
514.08	47133.71
514.25	47466.06
514.43	47976.30
514.60	47728.20
514.77	47924.81
514.95	47983.32
515.12	48114.39
515.29	48144.82
515.47	48318.02
515.64	48437.39
515.81	48320.36
515.99	48713.57
516.16	48645.69
516.33	48793.15
516.51	49102.10
516.68	48589.52
516.85	48741.66
517.03	48872.73
517.20	49308.07
517.37	48942.94
517.54	49420.41
517.72	49141.89
517.89	49717.66
518.06	49397.01
518.24	49736.38
518.41	49298.70
518.58	49436.80
518.75	49432.11
518.93	49743.41
519.10	49705.96
519.27	50174.06
519.45	50286.41
519.62	50475.99
519.79	50122.57
519.96	50260.66
520.14	50426.84
520.31	50089.80
520.48	50644.51
520.65	50567.27
520.83	51049.42
521.00	51194.54
521.17	50798.99
521.34	50742.81
521.52	51037.72
521.69	51210.92
521.86	51224.96
522.03	51412.21
522.20	51459.02
522.38	51676.69
522.55	51517.53
522.72	51437.95
522.89	51611.15
523.07	52081.60
523.24	51849.89
523.41	51964.57
523.58	51906.06
523.75	52289.91
523.92	52184.58
524.10	52006.70
524.27	52207.99
524.44	52334.38
524.61	52343.74
524.78	52446.72
524.96	52369.49
525.13	52790.78
525.30	52975.69
525.47	52563.75
525.64	52612.90
525.81	52795.46
525.98	52963.98
526.16	53062.29
526.33	52973.34
526.50	53162.93
526.67	53279.96
526.84	53256.55
527.01	53085.69
527.18	52924.19
527.36	53031.86
527.53	53418.05
527.70	53743.38
527.87	53586.57
528.04	53471.88
528.21	53446.13
528.38	53514.01
528.55	53921.26
528.72	53792.53
528.89	53633.38
529.07	53633.38
529.24	53837.00
529.41	53963.39
529.58	53956.37
529.75	53851.05
529.92	53911.90
530.09	54005.52
530.26	54141.27
530.43	54110.85
530.60	54064.03
530.77	54085.10
530.94	54344.90
531.11	54321.49
531.28	54260.64
531.46	54721.72
531.63	54581.29
531.80	54571.93
531.97	54777.90
532.14	54845.77
532.31	54593.00
532.48	54897.27
532.65	54721.72
532.82	54756.83
532.99	55011.95
533.16	54979.18
533.33	55145.36
533.50	55040.04
533.67	54981.52
533.84	55030.68
534.01	55348.99
534.18	55288.13
534.35	55524.53
534.52	55175.79
534.69	55332.60
534.86	55229.62
535.03	55395.80
535.20	55554.96
535.37	55632.19
535.54	55714.11
535.71	55407.50
535.88	55868.59
536.05	55718.79
536.22	55894.33
536.38	56104.98
536.55	55831.14
536.72	55943.48
536.89	55573.68
537.06	55845.18
537.23	55863.91
537.40	55774.97
537.57	56034.77
537.74	56229.03
537.91	56116.68
538.08	56116.68
538.25	55936.46
538.42	56205.62
538.59	56383.51
538.75	56343.72
538.92	56271.16
539.09	56427.98
539.26	56142.43
539.43	56191.58
539.60	56486.49
539.77	56397.55
539.94	56671.39
540.11	56647.99
540.28	56449.04
540.44	56549.68
540.61	56690.12
540.78	56530.96
540.95	56650.33
541.12	56659.69
541.29	56638.62
541.46	56980.34
541.62	56760.33
541.79	56853.95
541.96	56547.34
542.13	56608.20
542.30	56762.67
542.47	57172.27
542.63	56963.96
542.80	57043.54
542.97	57123.11
543.14	57602.92
543.31	57350.15
543.48	57609.95
543.64	57633.35
543.81	57633.35
543.98	57289.29
544.15	57275.25
544.32	57502.28
544.48	57946.98
544.65	57638.03
544.82	57530.37
544.99	57357.17
545.16	57790.17
545.32	57513.98
545.49	57710.59
545.66	57907.19
545.83	57806.55
546.00	57841.66
546.16	57801.87
546.33	57832.30
546.50	57663.78
546.67	58071.03
546.83	57530.37
547.00	58127.20
547.17	57958.69
547.34	58014.86
547.50	58244.23
547.67	58145.93
547.84	58152.95
548.00	58401.05
548.17	58223.17
548.34	58277.00
548.51	58506.37
548.67	58293.38
548.84	58515.73
549.01	58244.23
549.18	58396.37
549.34	58354.24
549.51	58637.44
549.68	58487.65
549.84	58609.35
550.01	58681.91
550.18	58534.46
550.34	58752.13
550.51	58782.55
550.68	58775.53
550.84	58590.63
551.01	58548.50
551.18	58742.77
551.34	58677.23
551.51	58735.74
551.68	58749.79
551.84	58649.14
552.01	58646.80
552.18	58915.96
552.34	58724.04
552.51	58838.73
552.68	58766.17
552.84	58763.83
553.01	59079.80
553.18	58857.45
553.34	59049.38
553.51	58883.20
553.67	58986.18
553.84	59257.68
554.01	59028.31
554.17	59098.53
554.34	59367.69
554.51	59138.32
554.67	59164.06
554.84	59374.71
555.00	59157.04
555.17	59215.55
555.33	59386.41
555.50	59145.34
555.67	59124.27
555.83	59000.22
556.00	59297.47
556.16	59327.90
556.33	59487.06
556.50	59480.03
556.66	59454.29
556.83	59428.54
556.99	59554.93
557.16	59732.81
557.32	59721.11
557.49	59788.98
557.65	59491.74
557.82	59604.08
557.98	59634.51
558.15	59634.51
558.32	59765.58
558.48	59552.59
558.65	59664.94
558.81	59838.14
558.98	59716.43
559.14	59744.51
559.31	59545.57
559.47	59931.76
559.64	59962.18
559.80	59943.46
559.97	59887.29
560.13	59875.58
560.30	59927.08
560.46	60074.53
560.63	59987.93
560.79	59877.93
560.96	59966.87
561.12	60067.51
561.29	60100.28
561.45	60154.11
561.61	59997.29
561.78	60186.88
561.94	59966.87
562.11	59994.95
562.27	60093.25
562.44	60182.19
562.60	60182.19
562.77	60271.14
562.93	60111.98
563.10	60296.88
563.26	60044.10
563.42	60357.74
563.59	60243.05
563.75	60020.70
563.92	60184.54
564.08	60275.82
564.24	60273.48
564.41	60301.56
564.57	60392.84
564.74	60135.38
564.90	60390.50
565.07	60308.58
565.23	60254.75
565.39	60147.09
565.56	60399.86
565.72	60350.71
565.88	60409.23
566.05	60289.86
566.21	60369.44
566.38	60624.56
566.54	60420.93
566.70	60495.83
566.87	60664.35
567.03	60306.24
567.19	60427.95
567.36	60603.49
567.52	60626.90
567.68	60657.32
567.85	60392.84
568.01	60631.58
568.17	60547.32
568.34	60640.94
568.50	60477.10
568.66	60479.44
568.83	60596.47
568.99	60512.21
569.15	60507.53
569.32	60594.13
569.48	60830.52
569.64	60692.43
569.81	60706.47
569.97	60629.24
570.13	60535.62
570.30	60514.55
570.46	60662.00
570.62	60821.16
570.78	60587.11
570.95	60853.93
571.11	60846.91
571.27	60561.36
571.43	60612.85
571.60	60830.52
571.76	60713.50
571.92	60795.42
572.09	60788.39
572.25	60783.71
572.41	60807.12
572.57	60690.09
572.74	61148.84
572.90	60867.97
573.06	60769.67
573.22	60757.97
573.38	60921.80
573.55	60673.71
573.71	60975.64
573.87	60830.52
574.03	60704.13
574.20	60795.42
574.36	60830.52
574.52	60896.06
574.68	61038.83
574.84	61006.06
575.01	60877.33
575.17	60889.04
575.33	60814.14
575.49	60800.10
575.65	60818.82
575.82	60968.61
575.98	60889.04
576.14	61090.32
576.30	60996.70
576.46	60886.70
576.62	60832.86
576.79	61006.06
576.95	60973.30
577.11	60931.17
577.27	60837.54
577.43	61020.11
577.59	60996.70
577.75	60832.86
577.92	60727.54
578.08	61052.87
578.24	61106.71
578.40	61097.34
578.56	61057.56
578.72	61162.88
578.88	61153.52
579.04	61399.27
579.21	61165.22
579.37	61158.20
579.53	61478.85
579.69	60952.23
579.85	60956.91
580.01	60928.83
580.17	60973.30
580.33	61069.26
580.49	60926.49
580.65	61109.05
580.82	60926.49
580.98	61099.68
581.14	60977.98
581.30	61212.03
581.46	61062.24
581.62	61073.94
581.78	61062.24
581.94	61165.22
582.10	61181.60
582.26	61176.92
582.42	61172.24
582.58	61176.92
582.74	61038.83
582.90	61212.03
583.06	61165.22
583.22	60851.59
583.38	61071.60
583.54	61123.09
583.70	61251.82
583.86	61207.35
584.02	60968.61
584.18	61158.20
584.34	61125.43
584.50	61113.73
584.66	60910.10
584.82	61034.15
584.98	61209.69
585.14	61366.51
585.30	61256.50
585.46	61242.46
585.62	61254.16
585.78	61492.89
585.94	61001.38
586.10	61010.74
586.26	61249.48
586.42	61277.57
586.58	61139.47
586.74	61127.77
586.90	61263.52
587.06	61006.06
587.22	61226.07
587.38	61073.94
587.54	61396.93
587.70	61387.57
587.86	61193.31
588.02	61221.39
588.18	61219.05
588.34	61148.84
588.49	61151.18
