SpectraSuite Data File
++++++++++++++++++++++++++++++++++++
Date: Fri Oct 25 11:33:31 EDT 2013
User: price-jones
Dark Spectrum Present: No
Reference Spectrum Present: No
Number of Sampled Component Spectra: 1
Spectrometers: USB2+H05261
Integration Time (usec): 100000 (USB2+H05261)
Spectra Averaged: 1 (USB2+H05261)
Boxcar Smoothing: 0 (USB2+H05261)
Correct for Electrical Dark: No (USB2+H05261)
Strobe/Lamp Enabled: No (USB2+H05261)
Correct for Detector Non-linearity: No (USB2+H05261)
Correct for Stray Light: No (USB2+H05261)
Number of Pixels in Processed Spectrum: 2048
>>>>>Begin Processed Spectral Data<<<<<
365.73	264.48
365.92	264.48
366.12	264.48
366.32	217.67
366.52	112.35
366.72	149.79
366.91	168.52
367.11	163.84
367.31	203.63
367.51	131.07
367.70	161.50
367.90	147.45
368.10	140.43
368.30	128.73
368.49	152.13
368.69	241.08
368.89	224.69
369.09	194.26
369.28	173.20
369.48	180.22
369.68	168.52
369.87	243.42
370.07	273.84
370.27	308.95
370.47	325.33
370.66	496.19
370.86	489.17
371.06	585.13
371.25	505.56
371.45	550.03
371.65	587.47
371.84	479.81
372.04	629.60
372.24	503.22
372.44	524.28
372.63	585.13
372.83	571.09
373.03	585.13
373.22	622.58
373.42	613.22
373.62	557.05
373.81	629.60
374.01	624.92
374.21	681.10
374.40	585.13
374.60	592.16
374.79	650.67
374.99	585.13
375.19	573.43
375.38	571.09
375.58	725.57
375.78	655.35
375.97	657.69
376.17	662.37
376.37	610.88
376.56	688.12
376.76	699.82
376.95	667.05
377.15	660.03
377.35	688.12
377.54	699.82
377.74	671.73
377.93	704.50
378.13	629.60
378.33	713.86
378.52	737.27
378.72	770.04
378.91	709.18
379.11	664.71
379.31	695.14
379.50	678.76
379.70	730.25
379.89	678.76
380.09	671.73
380.28	713.86
380.48	676.41
380.68	718.54
380.87	734.93
381.07	655.35
381.26	753.65
381.46	816.85
381.65	770.04
381.85	720.88
382.04	805.14
382.24	791.10
382.43	795.78
382.63	767.70
382.83	718.54
383.02	713.86
383.22	819.19
383.41	772.38
383.61	875.36
383.80	863.66
384.00	767.70
384.19	833.23
384.39	786.42
384.58	842.59
384.78	910.47
384.97	866.00
385.17	854.30
385.36	835.57
385.56	807.48
385.75	826.21
385.95	774.72
386.14	858.98
386.34	858.98
386.53	720.88
386.72	894.08
386.92	889.40
387.11	985.37
387.31	931.53
387.50	950.26
387.70	856.64
387.89	887.06
388.09	880.04
388.28	880.04
388.48	929.19
388.67	1006.43
388.86	933.87
389.06	1008.77
389.25	947.92
389.45	999.41
389.64	912.81
389.84	990.05
390.03	1034.52
390.22	933.87
390.42	966.64
390.61	973.66
390.81	919.83
391.00	985.37
391.19	976.00
391.39	1086.01
391.58	1027.50
391.78	964.30
391.97	978.34
392.16	1032.18
392.36	1046.22
392.55	1046.22
392.75	1029.84
392.94	1069.62
393.13	1055.58
393.33	1034.52
393.52	1008.77
393.71	1149.20
393.91	1036.86
394.10	1174.95
394.29	1111.75
394.49	1078.99
394.68	1132.82
394.88	1158.57
395.07	1256.87
395.26	1203.04
395.46	1191.33
395.65	1188.99
395.84	1221.76
396.04	1167.93
396.23	1177.29
396.42	1200.69
396.62	1203.04
396.81	1217.08
397.00	1193.67
397.19	1266.23
397.39	1181.97
397.58	1238.14
397.77	1219.42
397.97	1235.80
398.16	1263.89
398.35	1254.53
398.55	1282.61
398.74	1306.02
398.93	1427.73
399.12	1320.06
399.32	1315.38
399.51	1303.68
399.70	1273.25
399.90	1336.45
400.09	1413.68
400.28	1434.75
400.47	1334.11
400.67	1413.68
400.86	1423.05
401.05	1385.60
401.24	1427.73
401.44	1427.73
401.63	1476.88
401.82	1418.36
402.01	1409.00
402.21	1451.13
402.40	1425.39
402.59	1399.64
402.78	1530.71
402.97	1490.92
403.17	1558.80
403.36	1481.56
403.55	1617.31
403.74	1579.86
403.93	1563.48
404.13	1598.59
404.32	1643.06
404.51	1659.44
404.70	1575.18
404.89	1746.04
405.09	1741.36
405.28	1755.40
405.47	1629.01
405.66	1708.59
405.85	1680.50
406.05	1699.23
406.24	1771.79
406.43	1741.36
406.62	1827.96
406.81	1860.73
407.00	1769.44
407.20	1825.62
407.39	1832.64
407.58	1802.21
407.77	1853.70
407.96	1720.29
408.15	1884.13
408.34	1820.94
408.54	1975.41
408.73	1914.56
408.92	1956.69
409.11	1956.69
409.30	1984.77
409.49	2202.44
409.68	1987.11
409.87	2054.99
410.07	2090.10
410.26	2083.08
410.45	2172.02
410.64	2005.84
410.83	2232.87
411.02	2172.02
411.21	2258.62
411.40	2183.72
411.59	2239.89
411.78	2270.32
411.98	2289.04
412.17	2242.23
412.36	2200.10
412.55	2200.10
412.74	2401.39
412.93	2413.09
413.12	2328.83
413.31	2392.03
413.50	2427.14
413.69	2403.73
413.88	2490.33
414.07	2516.08
414.26	2499.69
414.45	2565.23
414.64	2422.45
414.83	2649.49
415.02	2551.18
415.22	2560.55
415.41	2684.59
415.60	2572.25
415.79	2682.25
415.98	2731.41
416.17	2768.85
416.36	2668.21
416.55	2810.98
416.74	2876.52
416.93	2785.24
417.12	2780.56
417.31	2920.99
417.50	2958.44
417.69	3063.76
417.88	3009.93
418.07	2949.08
418.26	2944.39
418.45	2942.05
418.64	3061.42
418.83	3066.10
419.02	3000.57
419.21	3098.87
419.39	3117.59
419.58	2963.12
419.77	3052.06
419.96	3152.70
420.15	3131.64
420.34	3068.44
420.53	3185.47
420.72	3281.43
420.91	3112.91
421.10	3243.98
421.29	3169.09
421.48	3335.26
421.67	3288.45
421.86	3361.01
422.05	3456.97
422.24	3325.90
422.43	3398.46
422.61	3431.23
422.80	3377.39
422.99	3487.40
423.18	3468.67
423.37	3513.14
423.56	3459.31
423.75	3393.78
423.94	3255.69
424.13	3297.81
424.32	3351.65
424.50	3389.10
424.69	3463.99
424.88	3304.84
425.07	3466.33
425.26	3375.05
425.45	3346.97
425.64	3501.44
425.83	3419.52
426.01	3489.74
426.20	3452.29
426.39	3492.08
426.58	3440.59
426.77	3520.17
426.96	3454.63
427.15	3581.02
427.33	3592.72
427.52	3536.55
427.71	3655.92
427.90	3627.83
428.09	3693.37
428.28	3768.26
428.46	3684.00
428.65	3695.71
428.84	3761.24
429.03	3772.94
429.22	3698.05
429.40	3873.59
429.59	3810.39
429.78	3810.39
429.97	3672.30
430.16	3831.46
430.34	3824.44
430.53	3744.86
430.72	3885.29
430.91	3899.33
431.10	3854.86
431.28	3967.21
431.47	4042.11
431.66	4088.92
431.85	3770.60
432.03	4021.04
432.22	4102.96
432.41	4147.43
432.60	4109.98
432.79	3985.93
432.97	4032.74
433.16	4051.47
433.35	4063.17
433.54	4149.77
433.72	4276.16
433.91	4159.13
434.10	4294.88
434.28	4191.90
434.47	4205.94
434.66	4339.35
434.85	4337.01
435.03	4376.80
435.22	4266.80
435.41	4425.95
435.59	4423.61
435.78	4334.67
435.97	4351.06
436.16	4486.81
436.34	4365.10
436.53	4402.55
436.72	4554.68
436.90	4386.16
437.09	4685.75
437.28	4456.38
437.46	4638.94
437.65	4641.28
437.84	4664.69
438.02	4531.28
438.21	4521.92
438.40	4587.45
438.58	4699.80
438.77	4795.76
438.96	4807.46
439.14	4627.24
439.33	4865.97
439.52	4903.42
439.70	4929.17
439.89	5067.26
440.08	5125.77
440.26	5083.64
440.45	4947.89
440.63	5210.03
440.82	5116.41
441.01	5135.14
441.19	5069.60
441.38	5359.83
441.57	5296.63
441.75	5270.89
441.94	5317.70
442.12	5275.57
442.31	5390.25
442.50	5614.95
442.68	5584.52
442.87	5345.78
443.05	5493.24
443.24	5518.98
443.43	5551.75
443.61	5497.92
443.80	5832.62
443.98	5315.36
444.17	5301.31
444.35	5617.29
444.54	5708.57
444.73	5729.63
444.91	5614.95
445.10	5738.99
445.28	5710.91
445.47	5785.80
445.65	5596.22
445.84	5741.33
446.02	5820.91
446.21	5865.38
446.39	5743.67
446.58	5860.70
446.77	5699.20
446.95	5577.50
447.14	5795.17
447.32	5757.72
447.51	5727.29
447.69	5797.51
447.88	5636.01
448.06	5827.93
448.25	5762.40
448.43	5792.83
448.62	5841.98
448.80	5816.23
448.99	5921.56
449.17	6017.52
449.36	5858.36
449.54	6015.18
449.73	5959.00
449.91	6071.35
450.10	6141.57
450.28	6146.25
450.46	6190.72
450.65	6080.71
450.83	6214.12
451.02	6101.78
451.20	6038.58
451.39	6200.08
451.57	6239.87
451.76	6253.91
451.94	6300.72
452.13	6338.17
452.31	6307.74
452.49	6274.98
452.68	6368.60
452.86	6319.45
453.05	6403.71
453.23	6373.28
453.42	6249.23
453.60	6396.68
453.78	6399.02
453.97	6282.00
454.15	6401.37
454.34	6595.63
454.52	6464.56
454.70	6677.55
454.89	6520.73
455.07	6733.72
455.26	6649.46
455.44	6825.00
455.62	6626.06
455.81	6740.74
455.99	6806.28
456.17	6913.94
456.36	6825.00
456.54	6927.99
456.73	6977.14
456.91	6967.77
457.09	6979.48
457.28	7180.76
457.46	6939.69
457.64	7096.50
457.83	7000.54
458.01	7033.31
458.19	7068.42
458.38	7246.30
458.56	7089.48
458.74	7208.85
458.93	7262.68
459.11	7232.26
459.29	7258.00
459.48	7178.42
459.66	7318.86
459.84	7508.44
460.03	7433.54
460.21	7438.22
460.39	7459.29
460.57	7258.00
460.76	7379.71
460.94	7412.48
461.12	7658.23
461.31	7555.25
461.49	7552.91
461.67	7431.20
461.85	7485.03
462.04	7478.01
462.22	7992.93
462.40	7850.16
462.59	7824.41
462.77	7681.64
462.95	7747.17
463.13	7761.22
463.32	7623.12
463.50	7913.35
463.68	7960.16
463.86	7927.39
464.05	7812.71
464.23	7770.58
464.41	8058.46
464.59	7805.69
464.78	8126.34
464.96	8231.66
465.14	7906.33
465.32	8163.79
465.50	8140.38
465.69	8278.47
465.87	8072.51
466.05	7899.31
466.23	8292.52
466.41	8196.56
466.60	8454.02
466.78	8184.85
466.96	8194.22
467.14	8219.96
467.32	8208.26
467.51	8315.92
467.69	8222.30
467.87	8510.19
468.05	8517.21
468.23	8325.29
468.41	8318.26
468.60	8463.38
468.78	8664.66
468.96	8486.78
469.14	8524.23
469.32	8524.23
469.50	8545.30
469.69	8725.52
469.87	8585.08
470.05	8798.07
470.23	8655.30
470.41	8812.12
470.59	8702.11
470.77	8823.82
470.95	8938.51
471.14	8950.21
471.32	8816.80
471.50	8919.78
471.68	9198.31
471.86	9174.90
472.04	9081.28
472.22	9256.82
472.40	9104.68
472.58	9095.32
472.77	9202.99
472.95	9453.42
473.13	9834.93
473.31	9472.15
473.49	9448.74
473.67	9338.74
473.85	9472.15
474.03	9902.81
474.21	9678.12
474.39	9907.49
474.57	9963.66
474.75	9863.02
474.93	9907.49
475.12	9872.38
475.30	10047.92
475.48	10029.20
475.66	10157.92
475.84	10113.45
476.02	10300.70
476.20	10333.47
476.38	10420.06
476.56	10801.57
476.74	10600.29
476.92	10656.46
477.10	10473.90
477.28	10649.44
477.46	10766.46
477.64	10902.22
477.82	11087.12
478.00	11204.14
478.18	11206.48
478.36	11098.82
478.54	11463.94
478.72	11265.00
478.90	11510.75
479.08	11353.94
479.26	11843.11
479.44	11599.70
479.62	11714.38
479.80	11990.56
479.98	11906.31
480.16	12142.70
480.34	12301.86
480.52	12229.30
480.70	12315.90
480.88	12245.68
481.06	12346.33
481.24	12147.38
481.41	12526.55
481.59	12795.71
481.77	13006.36
481.95	12748.90
482.13	13057.85
482.31	12973.59
482.49	13425.31
482.67	13308.29
482.85	13483.83
483.03	13802.14
483.21	13921.51
483.39	13745.97
483.57	13771.71
483.74	13881.72
483.92	13919.17
484.10	13774.05
484.28	14134.50
484.46	14530.05
484.64	14731.33
484.82	14342.80
485.00	14792.19
485.18	15164.33
485.35	15269.66
485.53	15140.93
485.71	15115.18
485.89	15267.31
486.07	15496.69
486.25	15386.68
486.43	15634.78
486.61	15740.10
486.78	15992.88
486.96	16051.39
487.14	16374.39
487.32	16325.24
487.50	16453.97
487.68	16425.88
487.85	16578.01
488.03	16915.05
488.21	16971.22
488.39	17013.35
488.57	17156.13
488.75	17069.53
488.92	17469.76
489.10	17624.23
489.28	17797.43
489.46	17977.65
489.64	17701.47
489.81	18183.62
489.99	18321.71
490.17	18361.50
490.35	18403.63
490.53	18431.72
490.70	18579.17
490.88	18581.51
491.06	18925.57
491.24	18967.70
491.41	19269.63
491.59	19431.13
491.77	19028.56
491.95	19248.57
492.13	19447.51
492.30	19599.65
492.48	19850.08
492.66	19765.82
492.84	19971.79
493.01	20374.36
493.19	20189.46
493.37	20334.57
493.54	20439.90
493.72	20812.04
493.90	20657.57
494.08	20861.19
494.25	20929.07
494.43	20952.48
494.61	21113.97
494.79	21078.86
494.96	21460.37
495.14	21341.00
495.32	21584.42
495.49	21764.64
495.67	21926.14
495.85	21867.63
496.02	22162.53
496.20	22274.88
496.38	22246.79
496.55	22558.08
496.73	22927.89
496.91	22728.94
497.09	22958.31
497.26	23435.78
497.44	22909.16
497.62	23030.87
497.79	23543.45
497.97	23403.02
498.14	23419.40
498.32	23957.72
498.50	23868.78
498.67	24315.83
498.85	23833.68
499.03	23826.65
499.20	24166.03
499.38	24498.39
499.56	24208.16
499.73	24819.04
499.91	24503.07
500.08	24786.27
500.26	24477.32
500.44	24657.54
500.61	25015.65
500.79	24929.05
500.97	25104.59
501.14	25350.34
501.32	25813.77
501.49	25228.63
501.67	25427.58
501.84	25469.71
502.02	25425.24
502.20	25745.89
502.37	25930.80
502.55	25603.12
502.72	26192.94
502.90	25694.40
503.07	25844.20
503.25	26155.49
503.43	26326.35
503.60	26396.56
503.78	26698.49
503.95	26829.56
504.13	26820.20
504.30	26895.10
504.48	26525.29
504.65	27105.74
504.83	27047.23
505.01	27054.25
505.18	27197.02
505.36	27426.40
505.53	27314.05
505.71	27199.37
505.88	27246.18
506.06	27501.29
506.23	27608.96
506.41	27723.65
506.58	27915.57
506.76	27756.41
506.93	28027.92
507.11	28048.98
507.28	27887.48
507.46	28364.95
507.63	28430.49
507.81	28744.12
507.98	28568.58
508.16	28350.91
508.33	28411.76
508.50	28577.94
508.68	28643.48
508.85	29034.35
509.03	28746.46
509.20	28826.04
509.38	29235.63
509.55	29221.59
509.73	29797.36
509.90	29369.04
510.08	29390.11
510.25	29343.30
510.42	29638.20
510.60	29914.39
510.77	29745.87
510.95	30794.43
511.12	30043.12
511.30	29792.68
511.47	30328.66
511.64	29907.37
511.82	30405.90
511.99	30459.73
512.17	30616.55
512.34	30316.96
512.51	30976.99
512.69	30986.35
512.86	30621.23
513.04	30923.16
513.21	30778.04
513.38	31248.49
513.56	31234.45
513.73	31529.36
513.90	31480.21
514.08	31096.36
514.25	31208.70
514.43	31470.84
514.60	31618.30
514.77	31681.49
514.95	31943.63
515.12	31613.62
515.29	31929.59
515.47	31950.65
515.64	32081.72
515.81	32119.17
515.99	32430.46
516.16	32477.27
516.33	32371.95
516.51	32451.53
516.68	32694.94
516.85	32451.53
517.03	32133.21
517.20	32545.15
517.37	32575.58
517.54	32833.04
517.72	32996.87
517.89	33067.09
518.06	33266.03
518.24	32893.89
518.41	33251.99
518.58	33125.60
518.75	32849.42
518.93	33813.72
519.10	33507.11
519.27	33233.27
519.45	33406.47
519.62	34183.52
519.79	34171.82
519.96	33624.14
520.14	33926.07
520.31	33907.34
520.48	34433.96
520.65	34232.68
520.83	34595.46
521.00	34859.94
521.17	34174.16
521.34	34534.60
521.52	34550.99
521.69	34321.62
521.86	34822.49
522.03	35150.17
522.20	34885.68
522.38	34974.63
522.55	34679.72
522.72	34902.07
522.89	35285.92
523.07	35316.34
523.24	35323.36
523.41	35742.32
523.58	35171.23
523.75	35770.41
523.92	35414.65
524.10	35594.87
524.27	35817.22
524.44	35784.45
524.61	36002.12
524.78	36016.16
524.96	36060.63
525.13	36367.24
525.30	36545.12
525.47	36439.80
525.64	35756.36
525.81	36353.20
525.98	36437.46
526.16	36332.14
526.33	36847.05
526.50	36804.92
526.67	36348.52
526.84	36545.12
527.01	36802.58
527.18	36966.42
527.36	36947.70
527.53	37060.04
527.70	37310.48
527.87	37654.54
528.04	37116.22
528.21	37090.47
528.38	37158.34
528.55	37053.02
528.72	37120.90
528.89	37249.63
529.07	37186.43
529.24	37560.92
529.41	37750.50
529.58	37537.51
529.75	37490.70
529.92	37883.91
530.09	37385.38
530.26	38024.34
530.43	37785.61
530.60	37315.16
530.77	37682.62
530.94	37956.47
531.11	37610.07
531.28	38078.18
531.46	38122.65
531.63	38513.52
531.80	37722.41
531.97	38469.04
532.14	38642.24
532.31	38375.42
532.48	38478.41
532.65	38541.60
532.82	38501.81
532.99	38541.60
533.16	38370.74
533.33	38799.06
533.50	39189.93
533.67	38684.37
533.84	38462.02
534.01	38721.82
534.18	38866.94
534.35	38951.20
534.52	39140.78
534.69	39826.56
534.86	39346.75
535.03	39112.69
535.20	39321.00
535.37	39566.76
535.54	39681.44
535.71	39487.18
535.88	39798.47
536.05	39377.17
536.22	40275.94
536.38	39929.54
536.55	40025.50
536.72	40023.16
536.89	39421.64
537.06	39826.56
537.23	40678.51
537.40	40254.87
537.57	40289.98
537.74	39531.65
537.91	40554.46
538.08	40229.13
538.25	39597.18
538.42	40282.96
538.59	40458.50
538.75	40016.14
538.92	40573.19
539.09	40381.26
539.26	40460.84
539.43	40608.29
539.60	40905.54
539.77	40526.38
539.94	40907.88
540.11	41184.07
540.28	40725.32
540.44	40629.36
540.61	40957.03
540.78	41155.98
540.95	40416.37
541.12	40928.95
541.29	40875.12
541.46	41132.57
541.62	41338.54
541.79	41469.61
541.96	41036.61
542.13	41390.03
542.30	41226.20
542.47	41434.50
542.63	41303.43
542.80	41811.33
542.97	41818.35
543.14	42075.81
543.31	41691.96
543.48	41930.70
543.64	42742.86
543.81	42305.18
543.98	42366.04
544.15	42316.89
544.32	42307.52
544.48	42609.45
544.65	42281.78
544.82	42419.87
544.99	42059.43
545.16	42595.41
545.32	42155.39
545.49	42904.36
545.66	42665.63
545.83	42885.64
546.00	43072.88
546.16	42529.87
546.33	42431.57
546.50	42724.14
546.67	42724.14
546.83	42546.26
547.00	42885.64
547.17	42712.44
547.34	42637.54
547.50	43075.22
547.67	42995.64
547.84	43351.40
548.00	43196.93
548.17	43351.40
548.34	43433.32
548.51	43550.35
548.67	43550.35
548.84	43718.87
549.01	43484.81
549.18	43627.59
549.34	43620.56
549.51	43360.76
549.68	43693.12
549.84	43510.56
550.01	43674.40
550.18	43475.45
550.34	43438.00
550.51	43821.85
550.68	43646.31
550.84	43159.48
551.01	44102.71
551.18	43590.14
551.34	43510.56
551.51	44119.10
551.68	44245.49
551.84	43693.12
552.01	43885.04
552.18	44018.46
552.34	43751.63
552.51	44294.64
552.68	43831.21
552.84	44313.36
553.01	44308.68
553.18	44512.31
553.34	44582.52
553.51	44280.60
553.67	44425.71
553.84	44076.97
554.01	44425.71
554.17	44535.71
554.34	44821.26
554.51	44652.74
554.67	44617.63
554.84	44652.74
555.00	44460.82
555.17	44311.02
555.33	44779.13
555.50	44516.99
555.67	44847.00
555.83	44905.52
556.00	44884.45
556.16	44814.24
556.33	44814.24
556.50	44973.39
556.66	45006.16
556.83	44650.40
556.99	45076.38
557.16	45462.57
557.32	45113.83
557.49	45247.24
557.65	44786.15
557.82	45050.63
557.98	45448.52
558.15	45123.19
558.32	45237.87
558.48	45153.62
558.65	44964.03
558.81	45301.07
558.98	45263.62
559.14	45287.03
559.31	44975.73
559.47	45256.60
559.64	45429.80
559.80	45794.92
559.97	45478.95
560.13	45455.54
560.30	45492.99
560.46	45867.48
560.63	45876.84
560.79	45476.61
560.96	45949.40
561.12	46185.79
561.29	46066.42
561.45	46160.05
561.61	46045.36
561.78	45705.98
561.94	45787.90
562.11	45708.32
562.27	45638.11
562.44	45841.73
562.60	45890.88
562.77	45881.52
562.93	45956.42
563.10	46312.18
563.26	45549.17
563.42	46637.51
563.59	46122.60
563.75	45790.24
563.92	45921.31
564.08	45858.12
564.24	46124.94
564.41	46405.80
564.57	46136.64
564.74	46078.13
564.90	46171.75
565.07	45872.16
565.23	46281.75
565.39	46628.15
565.56	46314.52
565.72	46461.97
565.88	46066.42
566.05	46120.26
566.21	46293.46
566.38	46270.05
566.54	46672.62
566.70	46443.25
566.87	46059.40
567.03	46326.22
567.19	46829.44
567.36	46614.11
567.52	46571.98
567.68	46960.51
567.85	46410.48
568.01	46574.32
568.17	46656.24
568.34	46880.93
568.50	46789.65
568.66	46148.34
568.83	46370.69
568.99	46410.48
569.15	46899.65
569.32	46667.94
569.48	46628.15
569.64	47056.47
569.81	46628.15
569.97	47168.82
570.13	46674.96
570.30	46546.23
570.46	46564.96
570.62	46562.62
570.78	46773.27
570.95	46689.01
571.11	46625.81
571.27	46377.72
571.43	47084.56
571.60	46735.82
571.76	46813.05
571.92	46618.79
572.09	46679.64
572.25	46969.87
572.41	46628.15
572.57	46742.84
572.74	47220.31
572.90	46990.94
573.06	46768.58
573.22	47002.64
573.38	47152.43
573.55	46869.23
573.71	47136.05
573.87	47082.22
574.03	47014.34
574.20	47210.95
574.36	46939.44
574.52	46782.63
574.68	46876.25
574.84	47342.02
575.01	47122.01
575.17	47014.34
575.33	47150.09
575.49	46880.93
575.65	47292.86
575.82	47398.19
575.98	46822.42
576.14	47339.68
576.30	47604.16
576.46	47505.85
576.62	46920.72
576.79	46937.10
576.95	47107.96
577.11	46822.42
577.27	47002.64
577.43	47377.12
577.59	47140.73
577.75	47098.60
577.92	46887.95
578.08	47510.53
578.24	47232.01
578.40	47264.78
578.56	47409.89
578.72	47409.89
578.88	47665.01
579.04	47538.62
579.21	47084.56
579.37	47313.93
579.53	47346.70
579.69	46986.25
579.85	47302.23
580.01	47171.16
580.17	47199.24
580.33	47489.47
580.49	47302.23
580.65	46918.38
580.82	47304.57
580.98	47395.85
581.14	47016.68
581.30	47143.07
581.46	46801.35
581.62	46944.12
581.78	47262.44
581.94	47337.33
582.10	47016.68
582.26	47482.45
582.42	47215.63
582.58	47297.55
582.74	47180.52
582.90	47325.63
583.06	47082.22
583.22	47019.02
583.38	47601.82
583.54	47334.99
583.70	47611.18
583.86	47510.53
584.02	47063.49
584.18	47145.41
584.34	47669.69
584.50	47437.98
584.66	47618.20
584.82	47718.84
584.98	47992.68
585.14	47814.80
585.30	47477.77
585.46	47730.54
585.62	47325.63
585.78	47292.86
585.94	47512.88
586.10	47332.65
586.26	47171.16
586.42	47407.55
586.58	47629.90
586.74	47475.43
586.90	47407.55
587.06	47012.00
587.22	47414.57
587.38	47248.39
587.54	47669.69
587.70	47952.90
587.86	47770.33
588.02	47505.85
588.18	47505.85
588.34	47508.19
588.49	47349.04
588.65	47042.43
588.81	47512.88
588.97	47517.56
589.13	47716.50
589.29	47608.84
589.45	47803.10
589.61	48098.01
589.77	47980.98
589.93	47627.56
