SpectraSuite Data File
++++++++++++++++++++++++++++++++++++
Date: Fri Oct 25 11:25:04 EDT 2013
User: price-jones
Dark Spectrum Present: No
Reference Spectrum Present: No
Number of Sampled Component Spectra: 1
Spectrometers: USB2+H05261
Integration Time (usec): 100000 (USB2+H05261)
Spectra Averaged: 1 (USB2+H05261)
Boxcar Smoothing: 0 (USB2+H05261)
Correct for Electrical Dark: No (USB2+H05261)
Strobe/Lamp Enabled: No (USB2+H05261)
Correct for Detector Non-linearity: No (USB2+H05261)
Correct for Stray Light: No (USB2+H05261)
Number of Pixels in Processed Spectrum: 2048
>>>>>Begin Processed Spectral Data<<<<<
365.73	241.08
365.92	241.08
366.12	241.08
366.32	119.37
366.52	145.11
366.72	180.22
366.91	182.56
367.11	184.90
367.31	112.35
367.51	91.28
367.70	133.41
367.90	140.43
368.10	58.51
368.30	142.77
368.49	149.79
368.69	126.39
368.89	163.84
369.09	124.05
369.28	149.79
369.48	117.03
369.68	245.76
369.87	222.35
370.07	196.60
370.27	140.43
370.47	360.44
370.66	662.37
370.86	587.47
371.06	660.03
371.25	755.99
371.45	716.20
371.65	641.31
371.84	664.71
372.04	737.27
372.24	748.97
372.44	699.82
372.63	692.80
372.83	746.63
373.03	688.12
373.22	784.08
373.42	833.23
373.62	737.27
373.81	807.48
374.01	770.04
374.21	753.65
374.40	826.21
374.60	830.89
374.79	814.51
374.99	816.85
375.19	823.87
375.38	875.36
375.58	835.57
375.78	830.89
375.97	816.85
376.17	966.64
376.37	891.74
376.56	819.19
376.76	819.19
376.95	823.87
377.15	863.66
377.35	910.47
377.54	901.11
377.74	884.72
377.93	849.61
378.13	968.98
378.33	1013.45
378.52	915.15
378.72	985.37
378.91	924.51
379.11	863.66
379.31	947.92
379.50	929.19
379.70	968.98
379.89	924.51
380.09	912.81
380.28	992.39
380.48	1046.22
380.68	971.32
380.87	1041.54
381.07	990.05
381.26	1034.52
381.46	990.05
381.65	1121.12
381.85	1146.86
382.04	1090.69
382.24	1123.46
382.43	1057.92
382.63	1043.88
382.83	1032.18
383.02	1022.81
383.22	1093.03
383.41	1100.05
383.61	1097.71
383.80	1205.38
384.00	1008.77
384.19	1207.72
384.39	1125.80
384.58	1118.78
384.78	1268.57
384.97	1198.35
385.17	1081.33
385.36	1128.14
385.56	1177.29
385.75	1114.10
385.95	1224.10
386.14	1163.25
386.34	1158.57
386.53	1212.40
386.72	1203.04
386.92	1163.25
387.11	1160.91
387.31	1254.53
387.50	1289.64
387.70	1282.61
387.89	1287.29
388.09	1184.31
388.28	1296.66
388.48	1291.98
388.67	1320.06
388.86	1355.17
389.06	1334.11
389.25	1324.74
389.45	1329.42
389.64	1390.28
389.84	1423.05
390.03	1348.15
390.22	1399.64
390.42	1362.19
390.61	1460.49
390.81	1371.55
391.00	1387.94
391.19	1423.05
391.39	1341.13
391.58	1474.54
391.78	1500.28
391.97	1441.77
392.16	1533.05
392.36	1432.41
392.55	1444.11
392.75	1551.78
392.94	1605.61
393.13	1514.33
393.33	1612.63
393.52	1474.54
393.71	1558.80
393.91	1586.88
394.10	1563.48
394.29	1617.31
394.49	1572.84
394.68	1673.48
394.88	1734.34
395.07	1734.34
395.26	1706.25
395.46	1750.72
395.65	1748.38
395.84	1621.99
396.04	1809.23
396.23	1785.83
396.42	1762.42
396.62	1701.57
396.81	1778.81
397.00	1797.53
397.19	1722.63
397.39	1851.36
397.58	1785.83
397.77	1757.74
397.97	1844.34
398.16	1844.34
398.35	1813.92
398.55	1870.09
398.74	1956.69
398.93	1849.02
399.12	1823.28
399.32	1884.13
399.51	1940.30
399.70	1935.62
399.90	1937.96
400.09	1980.09
400.28	1982.43
400.47	2038.61
400.67	2057.33
400.86	2024.56
401.05	2099.46
401.24	2165.00
401.44	2165.00
401.63	2190.74
401.82	2225.85
402.01	2202.44
402.21	2279.68
402.40	2300.75
402.59	2174.36
402.78	2172.02
402.97	2136.91
403.17	2296.07
403.36	2157.97
403.55	2279.68
403.74	2356.92
403.93	2298.41
404.13	2420.11
404.32	2438.84
404.51	2363.94
404.70	2495.01
404.89	2361.60
405.09	2417.77
405.28	2392.03
405.47	2530.12
405.66	2548.84
405.85	2626.08
406.05	2436.50
406.24	2525.44
406.43	2658.85
406.62	2668.21
406.81	2626.08
407.00	2576.93
407.20	2574.59
407.39	2710.34
407.58	2757.15
407.77	2710.34
407.96	2663.53
408.15	2850.77
408.34	2743.11
408.54	2708.00
408.73	2801.62
408.92	2785.24
409.11	2904.60
409.30	2766.51
409.49	2946.73
409.68	2822.69
409.87	2960.78
410.07	2928.01
410.26	3023.97
410.45	3038.02
410.64	3005.25
410.83	3115.25
411.02	3115.25
411.21	3119.93
411.40	3183.13
411.59	3225.26
411.78	3258.03
411.98	3251.00
412.17	3321.22
412.36	3222.92
412.55	3262.71
412.74	3330.58
412.93	3391.44
413.12	3386.76
413.31	3482.72
413.50	3393.78
413.69	3559.95
413.88	3499.10
414.07	3574.00
414.26	3658.26
414.45	3632.51
414.64	3676.98
414.83	3784.65
415.02	3796.35
415.22	3885.29
415.41	3918.06
415.60	3810.39
415.79	3859.54
415.98	3915.72
416.17	3962.53
416.36	3981.25
416.55	3962.53
416.74	4117.00
416.93	3978.91
417.12	4109.98
417.31	4154.45
417.50	4175.52
417.69	4294.88
417.88	4276.16
418.07	4311.27
418.26	4390.84
418.45	4322.97
418.64	4365.10
418.83	4341.69
419.02	4355.74
419.21	4421.27
419.39	4531.28
419.58	4526.60
419.77	4369.78
419.96	4379.14
420.15	4498.51
420.34	4514.89
420.53	4571.07
420.72	4706.82
420.91	4566.39
421.10	4615.54
421.29	4816.82
421.48	4685.75
421.67	4805.12
421.86	4648.30
422.05	4781.71
422.24	4861.29
422.43	4819.16
422.61	4999.38
422.80	5039.17
422.99	4954.91
423.18	4844.91
423.37	5163.22
423.56	4975.98
423.75	4837.89
423.94	4674.05
424.13	4760.65
424.32	4723.20
424.50	4882.36
424.69	5121.09
424.88	5018.11
425.07	5041.51
425.26	4887.04
425.45	4971.30
425.64	4908.10
425.83	4847.25
426.01	5123.43
426.20	5121.09
426.39	5046.20
426.58	5004.07
426.77	5193.65
426.96	5249.82
427.15	5181.95
427.33	5282.59
427.52	5144.50
427.71	5352.81
427.90	5170.24
428.09	5249.82
428.28	5383.23
428.46	5448.77
428.65	5275.57
428.84	5530.69
429.03	5645.37
429.22	5378.55
429.40	5474.51
429.59	5460.47
429.78	5322.38
429.97	5231.10
430.16	5425.36
430.34	5511.96
430.53	5717.93
430.72	5792.83
430.91	5430.04
431.10	5680.48
431.28	5764.74
431.47	5764.74
431.66	5874.74
431.85	5877.09
432.03	5846.66
432.22	5954.32
432.41	5874.74
432.60	5881.77
432.79	5947.30
432.97	5879.43
433.16	5994.11
433.35	5944.96
433.54	6150.93
433.72	6120.50
433.91	6169.65
434.10	6260.93
434.28	5947.30
434.47	6253.91
434.66	6251.57
434.85	6176.67
435.03	6310.08
435.22	6225.82
435.41	6436.47
435.59	6286.68
435.78	6612.01
435.97	6387.32
436.16	6609.67
436.34	6420.09
436.53	6518.39
436.72	6555.84
436.90	6448.18
437.09	6668.19
437.28	6511.37
437.46	6579.25
437.65	6677.55
437.84	6719.68
438.02	6691.59
438.21	6750.10
438.40	6567.54
438.58	6942.03
438.77	7082.46
438.96	6904.58
439.14	7082.46
439.33	7047.35
439.52	7192.47
439.70	7316.51
439.89	7349.28
440.08	7407.80
440.26	7283.75
440.45	7304.81
440.63	7283.75
440.82	7566.95
441.01	7548.23
441.19	7569.29
441.38	7627.81
441.57	7702.70
441.75	7702.70
441.94	7782.28
442.12	7932.08
442.31	8044.42
442.50	7964.84
442.68	8161.45
442.87	8170.81
443.05	8091.23
443.24	8215.28
443.43	8072.51
443.61	8114.64
443.80	8388.48
443.98	8170.81
444.17	7726.11
444.35	8098.25
444.54	8205.92
444.73	8201.24
444.91	8308.90
445.10	8355.71
445.28	8236.35
445.47	8229.32
445.65	8346.35
445.84	8400.18
446.02	8369.76
446.21	8418.91
446.39	8428.27
446.58	8552.32
446.77	8545.30
446.95	8121.66
447.14	8365.07
447.32	8514.87
447.51	8383.80
447.69	8344.01
447.88	8526.57
448.06	8531.25
448.25	8388.48
448.43	8557.00
448.62	8727.86
448.80	8575.72
448.99	8505.51
449.17	8634.24
449.36	8706.79
449.54	8795.73
449.73	8938.51
449.91	8968.93
450.10	8938.51
450.28	8999.36
450.46	9104.68
450.65	8952.55
450.83	9125.75
451.02	9139.79
451.20	8910.42
451.39	9027.45
451.57	9179.58
451.76	9114.05
451.94	9238.09
452.13	9453.42
452.31	9280.22
452.49	9179.58
452.68	9331.72
452.86	9284.91
453.05	9460.45
453.23	9394.91
453.42	9312.99
453.60	9188.94
453.78	9617.26
453.97	9446.40
454.15	9486.19
454.34	9324.69
454.52	9621.94
454.70	9809.19
454.89	9699.18
455.07	9722.59
455.26	9603.22
455.44	9984.73
455.62	9825.57
455.81	9816.21
455.99	10001.11
456.17	9958.98
456.36	10078.35
456.54	10136.86
456.73	10204.74
456.91	10501.98
457.09	10427.09
457.28	10595.61
457.46	10169.63
457.64	10511.35
457.83	10579.22
458.01	10443.47
458.19	10703.27
458.38	10459.85
458.56	10775.83
458.74	10553.48
458.93	10602.63
459.11	10780.51
459.29	10766.46
459.48	10906.90
459.66	10843.70
459.84	10841.36
460.03	10920.94
460.21	10848.38
460.39	10857.75
460.57	10768.80
460.76	11253.30
460.94	11255.64
461.12	11304.79
461.31	11171.38
461.49	11154.99
461.67	11232.23
461.85	11412.45
462.04	11351.60
462.22	11871.20
462.40	11557.57
462.59	11257.98
462.77	11363.30
462.95	11527.14
463.13	11515.44
463.32	11503.73
463.50	11852.47
463.68	11866.52
463.86	11779.92
464.05	11627.78
464.23	11796.30
464.41	11791.62
464.59	11726.08
464.78	12037.38
464.96	11964.82
465.14	11864.18
465.32	12135.68
465.50	12128.66
465.69	12388.46
465.87	12297.17
466.05	12128.66
466.23	12262.07
466.41	12152.06
466.60	12358.03
466.78	12379.09
466.96	12002.27
467.14	12215.26
467.32	12414.20
467.51	12524.21
467.69	12287.81
467.87	12294.83
468.05	12575.70
468.23	12280.79
468.41	12554.63
468.60	12723.15
468.78	12868.27
468.96	12482.08
469.14	12716.13
469.32	13170.19
469.50	12453.99
469.69	12978.27
469.87	13050.83
470.05	12809.75
470.23	12929.12
470.41	12957.21
470.59	13238.07
470.77	13076.57
470.95	13188.92
471.14	13479.15
471.32	12908.05
471.50	13554.04
471.68	13549.36
471.86	13760.01
472.04	13764.69
472.22	14101.73
472.40	13642.98
472.58	13811.50
472.77	13888.74
472.95	14008.11
473.13	14607.28
473.31	14221.10
473.49	14153.22
473.67	14200.03
473.85	14429.40
474.03	14677.50
474.21	14740.69
474.39	14630.69
474.57	14693.88
474.75	14869.42
474.93	15044.96
475.12	14871.76
475.30	15204.12
475.48	14806.23
475.66	15040.28
475.84	15323.49
476.02	15300.08
476.20	15632.44
476.38	15836.06
476.56	16056.08
476.74	16102.89
476.92	15716.70
477.10	15716.70
477.28	15871.17
477.46	16376.73
477.64	16318.22
477.82	16690.36
478.00	16730.15
478.18	16954.84
478.36	16711.42
478.54	17224.00
478.72	17011.01
478.90	17202.94
479.08	17547.00
479.26	17649.98
479.44	17572.74
479.62	17783.39
479.80	18239.79
479.98	18209.37
480.16	18347.46
480.34	18207.03
480.52	18810.89
480.70	18618.96
480.88	18338.10
481.06	18864.72
481.24	18565.13
481.41	19187.71
481.59	19311.76
481.77	19405.38
481.95	19381.98
482.13	19681.56
482.31	19887.53
482.49	20159.03
482.67	19997.54
482.85	20329.89
483.03	20648.21
483.21	20957.16
483.39	20695.02
483.57	20898.64
483.74	21104.61
483.92	21357.39
484.10	21167.80
484.28	21591.44
484.46	21809.11
484.64	22389.56
484.82	22309.99
485.00	22429.35
485.18	22801.50
485.35	22843.63
485.53	22972.36
485.71	22904.48
485.89	23274.29
486.07	23126.83
486.25	23396.00
486.43	23388.97
486.61	23690.90
486.78	23782.18
486.96	24004.53
487.14	24332.21
487.32	24779.25
487.50	24950.11
487.68	24783.93
487.85	25090.54
488.03	25682.70
488.21	25530.56
488.39	25809.09
488.57	26120.38
488.75	26361.45
488.92	26251.45
489.10	26679.77
489.28	26977.01
489.46	26958.29
489.64	26644.66
489.81	27520.02
489.99	27585.55
490.17	27693.22
490.35	28229.20
490.53	28224.52
490.70	28692.63
490.88	28240.90
491.06	28823.70
491.24	28816.68
491.41	29039.03
491.59	29212.23
491.77	29303.51
491.95	29490.75
492.13	29673.31
492.30	29750.55
492.48	30092.27
492.66	29958.86
492.84	30122.69
493.01	30625.91
493.19	30630.59
493.37	31133.81
493.54	31262.54
493.72	31218.07
493.90	31578.51
494.08	31541.06
494.25	32091.09
494.43	32306.41
494.61	32144.92
494.79	32404.72
494.96	32582.60
495.14	32804.95
495.32	33020.28
495.49	33251.99
495.67	32989.85
495.85	33322.21
496.02	33764.57
496.20	33858.19
496.38	33879.25
496.55	33897.98
496.73	34768.66
496.91	34721.85
497.09	34651.63
497.26	34733.55
497.44	34850.58
497.62	35196.98
497.79	35959.99
497.97	35515.29
498.14	35887.43
498.32	35955.31
498.50	36102.76
498.67	36584.91
498.85	36451.50
499.03	36905.57
499.20	36903.23
499.38	37429.85
499.56	37095.15
499.73	37141.96
499.91	37315.16
500.08	37436.87
500.26	37631.13
500.44	37500.06
500.61	37954.13
500.79	37766.88
500.97	38291.16
501.14	38087.54
501.32	38532.24
501.49	38607.14
501.67	38848.21
501.84	39143.12
502.02	38983.96
502.20	38724.16
502.37	39129.08
502.55	39405.26
502.72	39292.91
502.90	39576.12
503.07	39079.92
503.25	39419.30
503.43	39613.57
503.60	40566.16
503.78	40418.71
503.95	40170.61
504.13	40411.69
504.30	40734.68
504.48	40942.99
504.65	40608.29
504.83	41008.53
505.01	41305.77
505.18	41308.11
505.36	41544.51
505.53	41155.98
505.71	41319.82
505.88	41675.58
506.06	41715.37
506.23	42057.09
506.41	42057.09
506.58	41722.39
506.76	42218.58
506.93	41708.35
507.11	42110.92
507.28	42885.64
507.46	42808.40
507.63	43166.50
507.81	43220.33
507.98	42560.30
508.16	43232.04
508.33	43335.02
508.50	43494.18
508.68	43861.64
508.85	43936.54
509.03	43955.26
509.20	43941.22
509.38	44402.30
509.55	44383.58
509.73	44311.02
509.90	44428.05
510.08	44648.06
510.25	44589.55
510.42	44722.96
510.60	45027.23
510.77	45446.18
510.95	45422.78
511.12	45118.51
511.30	45240.21
511.47	45132.55
511.64	45560.87
511.82	46146.00
511.99	45488.31
512.17	45872.16
512.34	45729.39
512.51	46319.20
512.69	46520.49
512.86	46321.54
513.04	46405.80
513.21	46586.02
513.38	46766.24
513.56	46827.10
513.73	46909.02
513.90	47030.72
514.08	46761.56
514.25	46904.34
514.43	47124.35
514.60	47208.61
514.77	47299.89
514.95	47845.23
515.12	47531.60
515.29	47976.30
515.47	48126.10
515.64	48498.24
515.81	47688.42
515.99	47990.34
516.16	48332.06
516.33	48325.04
516.51	48460.79
516.68	48053.54
516.85	48327.38
517.03	48917.20
517.20	48921.88
517.37	48905.49
517.54	49144.23
517.72	48954.64
517.89	48914.86
518.06	49443.82
518.24	49226.15
518.41	49453.18
518.58	49586.59
518.75	49270.62
518.93	49331.47
519.10	49600.63
519.27	49764.47
519.45	50005.55
519.62	49764.47
519.79	49865.11
519.96	49895.54
520.14	49942.35
520.31	50138.96
520.48	50272.37
520.65	50511.10
520.83	50628.13
521.00	50852.82
521.17	50541.53
521.34	50616.43
521.52	50387.05
521.69	50745.15
521.86	51147.73
522.03	51086.87
522.20	51569.02
522.38	51290.50
522.55	51262.41
522.72	51391.14
522.89	51461.36
523.07	51711.80
523.24	51672.01
523.41	51657.96
523.58	51564.34
523.75	51796.06
523.92	51774.99
524.10	51751.59
524.27	52048.83
524.44	51892.02
524.61	51990.32
524.78	51997.34
524.96	52215.01
525.13	52179.90
525.30	52348.42
525.47	52570.77
525.64	52282.89
525.81	52369.49
525.98	52526.30
526.16	52706.52
526.33	52739.29
526.50	52921.85
526.67	52802.49
526.84	52956.96
527.01	52676.10
527.18	53006.11
527.36	52870.36
527.53	53242.51
527.70	53301.02
527.87	53336.13
528.04	53146.54
528.21	53408.68
528.38	53616.99
528.55	53668.48
528.72	53635.72
528.89	53521.03
529.07	53322.08
529.24	53570.18
529.41	53825.30
529.58	53724.66
529.75	53897.86
529.92	53895.52
530.09	53790.19
530.26	54045.31
530.43	54017.22
530.60	53656.78
530.77	53776.15
530.94	54176.38
531.11	53806.58
531.28	54078.08
531.46	54213.83
531.63	54145.95
531.80	54227.87
531.97	54380.01
532.14	54223.19
532.31	54492.35
532.48	54424.48
532.65	54869.18
532.82	54651.51
532.99	54569.59
533.16	54665.55
533.33	54628.10
533.50	54920.67
533.67	54754.49
533.84	54534.48
534.01	54857.48
534.18	55086.85
534.35	55154.72
534.52	55002.59
534.69	55220.26
534.86	55297.50
535.03	55028.34
535.20	55196.85
535.37	55339.63
535.54	55402.82
535.71	55545.59
535.88	55435.59
536.05	55573.68
536.22	55697.73
536.38	55393.46
536.55	55664.96
536.72	55693.05
536.89	55337.29
537.06	55470.70
537.23	55842.84
537.40	55571.34
537.57	55756.24
537.74	55819.44
537.91	56104.98
538.08	55866.25
538.25	55580.70
538.42	55781.99
538.59	56023.06
538.75	56079.24
538.92	56179.88
539.09	56222.01
539.26	56051.15
539.43	56030.08
539.60	56030.08
539.77	56203.28
539.94	56336.69
540.11	56170.52
540.28	56357.76
540.44	56392.87
540.61	56357.76
540.78	56369.46
540.95	56608.20
541.12	56264.14
541.29	56535.64
541.46	56570.75
541.62	56868.00
541.79	56720.54
541.96	56603.52
542.13	56563.73
542.30	56699.48
542.47	56814.16
542.63	56652.67
542.80	56734.59
542.97	56994.39
543.14	57125.46
543.31	57106.73
543.48	57279.93
543.64	57460.15
543.81	57249.50
543.98	57308.02
544.15	57172.27
544.32	57469.51
544.48	57549.09
544.65	57357.17
544.82	57413.34
544.99	57268.23
545.16	57516.32
545.32	57366.53
545.49	57406.32
545.66	57820.59
545.83	57511.64
546.00	57628.67
546.16	57771.44
546.33	57614.63
546.50	57481.22
546.67	57832.30
546.83	57661.44
547.00	57811.23
547.17	57462.49
547.34	57900.17
547.50	57876.77
547.67	58000.82
547.84	57986.77
548.00	58232.53
548.17	58197.42
548.34	58143.59
548.51	58164.65
548.67	58183.38
548.84	58197.42
549.01	58007.84
549.18	58033.58
549.34	58127.20
549.51	58368.28
549.68	58548.50
549.84	58316.79
550.01	58382.32
550.18	58110.82
550.34	58480.63
550.51	58576.59
550.68	58398.71
550.84	58035.92
551.01	58356.58
551.18	58578.93
551.34	58408.07
551.51	58382.32
551.68	58569.57
551.84	58525.10
552.01	58375.30
552.18	58504.03
552.34	58576.59
552.51	58560.20
552.68	58424.45
552.84	58759.15
553.01	59040.01
553.18	58663.19
553.34	58990.86
553.51	58628.08
553.67	58766.17
553.84	58904.26
554.01	58857.45
554.17	58543.82
554.34	59128.95
554.51	58834.05
554.67	58965.12
554.84	58960.44
555.00	58951.07
555.17	58946.39
555.33	59051.72
555.50	59035.33
555.67	58990.86
555.83	59121.93
556.00	58955.75
556.16	59384.07
556.33	59426.20
556.50	59309.18
556.66	59264.70
556.83	59154.70
556.99	59306.83
557.16	59739.83
557.32	59386.41
557.49	59664.94
557.65	59255.34
557.82	59363.01
557.98	59355.99
558.15	59489.40
558.32	59465.99
558.48	59377.05
558.65	59554.93
558.81	59592.38
558.98	59463.65
559.14	59494.08
559.31	59730.47
559.47	59578.34
559.64	59573.66
559.80	59671.96
559.97	59751.54
560.13	59606.42
560.30	59742.17
560.46	59814.73
560.63	59629.83
560.79	59854.52
560.96	59877.93
561.12	59805.37
561.29	59840.48
561.45	59915.37
561.61	59793.67
561.78	59894.31
561.94	59606.42
562.11	59824.09
562.27	59910.69
562.44	60039.42
562.60	60051.12
562.77	60093.25
562.93	59683.66
563.10	60023.04
563.26	59810.05
563.42	60149.43
563.59	59969.21
563.75	59887.29
563.92	59847.50
564.08	59962.18
564.24	60189.22
564.41	59959.84
564.57	60086.23
564.74	60081.55
564.90	60135.38
565.07	60067.51
565.23	60016.02
565.39	59908.35
565.56	60179.85
565.72	60165.81
565.88	60140.07
566.05	60069.85
566.21	59971.55
566.38	60315.61
566.54	60140.07
566.70	60229.01
566.87	60432.63
567.03	60090.91
567.19	60369.44
567.36	60392.84
567.52	60245.39
567.68	60301.56
567.85	60299.22
568.01	60465.40
568.17	60404.55
568.34	60357.74
568.50	60226.66
568.66	60369.44
568.83	60477.10
568.99	60191.56
569.15	60261.77
569.32	60411.57
569.48	60193.90
569.64	60537.96
569.81	60594.13
569.97	60547.32
570.13	60416.25
570.30	60324.97
570.46	60336.67
570.62	60554.34
570.78	60708.82
570.95	60296.88
571.11	60587.11
571.27	60357.74
571.43	60465.40
571.60	60882.02
571.76	60697.11
571.92	60535.62
572.09	60697.11
572.25	60561.36
572.41	60374.12
572.57	60582.43
572.74	60821.16
572.90	60626.90
573.06	60809.46
573.22	60598.81
573.38	60645.62
573.55	60683.07
573.71	60575.40
573.87	60867.97
574.03	60498.17
574.20	60722.86
574.36	60645.62
574.52	60678.39
574.68	60849.25
574.84	60619.88
575.01	60671.37
575.17	60858.61
575.33	60856.27
575.49	60383.48
575.65	60659.66
575.82	60764.99
575.98	60750.94
576.14	60961.59
576.30	60673.71
576.46	60811.80
576.62	60678.39
576.79	60622.22
576.95	60750.94
577.11	60711.16
577.27	60982.66
577.43	60779.03
577.59	60729.88
577.75	60818.82
577.92	60591.79
578.08	60654.98
578.24	60748.60
578.40	61057.56
578.56	61059.90
578.72	60938.19
578.88	60977.98
579.04	60992.02
579.21	60610.51
579.37	60992.02
579.53	60919.46
579.69	60540.30
579.85	60900.74
580.01	60610.51
580.17	60662.00
580.33	60800.10
580.49	60996.70
580.65	60933.51
580.82	60631.58
580.98	60905.42
581.14	60949.89
581.30	61172.24
581.46	60835.20
581.62	60956.91
581.78	60622.22
581.94	61071.60
582.10	60781.37
582.26	60697.11
582.42	60823.50
582.58	61080.96
582.74	61027.13
582.90	60842.23
583.06	60926.49
583.22	60687.75
583.38	60935.85
583.54	60849.25
583.70	60844.57
583.86	60903.08
584.02	61001.38
584.18	61137.13
584.34	60917.12
584.50	61020.11
584.66	60652.64
584.82	60865.63
584.98	61205.01
585.14	61048.19
585.30	60748.60
585.46	60961.59
585.62	60877.33
585.78	61059.90
585.94	60753.29
586.10	61024.79
586.26	60905.42
586.42	61006.06
586.58	61073.94
586.74	61029.47
586.90	60872.65
587.06	60839.89
587.22	61174.58
587.38	61041.17
587.54	61062.24
587.70	61146.50
587.86	61038.83
588.02	61092.66
588.18	61258.84
588.34	61174.58
588.49	61048.19
