SpectraSuite Data File
++++++++++++++++++++++++++++++++++++
Date: Fri Oct 25 11:23:29 EDT 2013
User: price-jones
Dark Spectrum Present: No
Reference Spectrum Present: No
Number of Sampled Component Spectra: 1
Spectrometers: USB2+H05261
Integration Time (usec): 100000 (USB2+H05261)
Spectra Averaged: 1 (USB2+H05261)
Boxcar Smoothing: 0 (USB2+H05261)
Correct for Electrical Dark: No (USB2+H05261)
Strobe/Lamp Enabled: No (USB2+H05261)
Correct for Detector Non-linearity: No (USB2+H05261)
Correct for Stray Light: No (USB2+H05261)
Number of Pixels in Processed Spectrum: 2048
>>>>>Begin Processed Spectral Data<<<<<
365.73	215.33
365.92	215.33
366.12	215.33
366.32	149.79
366.52	91.28
366.72	142.77
366.91	100.64
367.11	117.03
367.31	140.43
367.51	126.39
367.70	175.54
367.90	63.19
368.10	28.09
368.30	124.05
368.49	145.11
368.69	180.22
368.89	149.79
369.09	98.30
369.28	126.39
369.48	112.35
369.68	184.90
369.87	255.12
370.07	175.54
370.27	248.10
370.47	360.44
370.66	624.92
370.86	620.24
371.06	791.10
371.25	617.90
371.45	683.44
371.65	676.41
371.84	706.84
372.04	718.54
372.24	711.52
372.44	732.59
372.63	744.29
372.83	737.27
373.03	760.67
373.22	730.25
373.42	716.20
373.62	763.01
373.81	840.25
374.01	765.36
374.21	851.96
374.40	765.36
374.60	915.15
374.79	795.78
374.99	791.10
375.19	880.04
375.38	882.38
375.58	784.08
375.78	816.85
375.97	898.77
376.17	842.59
376.37	898.77
376.56	854.30
376.76	751.31
376.95	849.61
377.15	887.06
377.35	884.72
377.54	919.83
377.74	919.83
377.93	870.68
378.13	844.93
378.33	980.68
378.52	866.00
378.72	992.39
378.91	915.15
379.11	950.26
379.31	964.30
379.50	1027.50
379.70	950.26
379.89	1015.79
380.09	1076.65
380.28	947.92
380.48	959.62
380.68	997.07
380.87	961.96
381.07	978.34
381.26	997.07
381.46	1060.26
381.65	959.62
381.85	1032.18
382.04	1086.01
382.24	1116.44
382.43	1036.86
382.63	1097.71
382.83	1111.75
383.02	1039.20
383.22	1095.37
383.41	1081.33
383.61	1093.03
383.80	1088.35
384.00	1170.27
384.19	1083.67
384.39	1139.84
384.58	1088.35
384.78	1158.57
384.97	1081.33
385.17	1121.12
385.36	1167.93
385.56	1116.44
385.75	1153.88
385.95	1205.38
386.14	1200.69
386.34	1200.69
386.53	1102.39
386.72	1186.65
386.92	1308.36
387.11	1378.58
387.31	1256.87
387.50	1170.27
387.70	1219.42
387.89	1249.85
388.09	1313.04
388.28	1273.25
388.48	1238.14
388.67	1308.36
388.86	1294.32
389.06	1336.45
389.25	1308.36
389.45	1359.85
389.64	1315.38
389.84	1504.96
390.03	1306.02
390.22	1406.66
390.42	1434.75
390.61	1371.55
390.81	1397.30
391.00	1345.81
391.19	1387.94
391.39	1439.43
391.58	1540.07
391.78	1373.89
391.97	1521.35
392.16	1350.49
392.36	1530.71
392.55	1563.48
392.75	1523.69
392.94	1490.92
393.13	1561.14
393.33	1563.48
393.52	1540.07
393.71	1507.30
393.91	1507.30
394.10	1631.35
394.29	1591.56
394.49	1621.99
394.68	1603.27
394.88	1619.65
395.07	1682.85
395.26	1647.74
395.46	1647.74
395.65	1664.12
395.84	1706.25
396.04	1792.85
396.23	1874.77
396.42	1722.63
396.62	1785.83
396.81	1823.28
397.00	1701.57
397.19	1811.57
397.39	1762.42
397.58	1792.85
397.77	1783.49
397.97	1823.28
398.16	1930.94
398.35	1928.60
398.55	1863.07
398.74	1982.43
398.93	1895.83
399.12	1935.62
399.32	1839.66
399.51	2029.24
399.70	2080.74
399.90	1933.28
400.09	2003.50
400.28	1975.41
400.47	2122.87
400.67	2043.29
400.86	2047.97
401.05	2062.01
401.24	2057.33
401.44	2031.58
401.63	2204.78
401.82	2118.18
402.01	2155.63
402.21	2197.76
402.40	2200.10
402.59	2202.44
402.78	2214.15
402.97	2307.77
403.17	2256.28
403.36	2312.45
403.55	2279.68
403.74	2296.07
403.93	2340.54
404.13	2527.78
404.32	2347.56
404.51	2431.82
404.70	2464.58
404.89	2359.26
405.09	2567.57
405.28	2520.76
405.47	2527.78
405.66	2551.18
405.85	2616.72
406.05	2574.59
406.24	2457.56
406.43	2560.55
406.62	2581.61
406.81	2773.53
407.00	2649.49
407.20	2637.78
407.39	2586.29
407.58	2693.96
407.77	2909.29
407.96	2803.96
408.15	2850.77
408.34	2775.88
408.54	2967.80
408.73	2775.88
408.92	2832.05
409.11	2843.75
409.30	2890.56
409.49	2806.30
409.68	2986.52
409.87	2949.08
410.07	3000.57
410.26	2974.82
410.45	2939.71
410.64	3112.91
410.83	3136.32
411.02	3148.02
411.21	3332.92
411.40	3206.53
411.59	3276.75
411.78	3197.17
411.98	3225.26
412.17	3353.99
412.36	3400.80
412.55	3297.81
412.74	3407.82
412.93	3365.69
413.12	3463.99
413.31	3524.85
413.50	3515.48
413.69	3632.51
413.88	3655.92
414.07	3581.02
414.26	3595.06
414.45	3712.09
414.64	3679.32
414.83	3681.66
415.02	3840.82
415.22	3765.92
415.41	3899.33
415.60	3829.12
415.79	3892.31
415.98	4093.60
416.17	3995.29
416.36	3936.78
416.55	3995.29
416.74	4119.34
416.93	3983.59
417.12	4117.00
417.31	4198.92
417.50	4170.83
417.69	4381.48
417.88	4339.35
418.07	4337.01
418.26	4404.89
418.45	4353.40
418.64	4503.19
418.83	4505.53
419.02	4475.10
419.21	4360.42
419.39	4575.75
419.58	4400.21
419.77	4435.32
419.96	4566.39
420.15	4484.47
420.34	4554.68
420.53	4709.16
420.72	4793.42
420.91	4774.69
421.10	4732.56
421.29	4851.93
421.48	4873.00
421.67	4793.42
421.86	4805.12
422.05	4657.67
422.24	4826.18
422.43	4840.23
422.61	4933.85
422.80	4910.44
422.99	4880.02
423.18	5013.43
423.37	5135.14
423.56	4863.63
423.75	4915.12
423.94	4915.12
424.13	4624.90
424.32	4777.03
424.50	5137.48
424.69	5125.77
424.88	5041.51
425.07	4919.81
425.26	4863.63
425.45	4992.36
425.64	4931.51
425.83	5109.39
426.01	5069.60
426.20	5071.94
426.39	5093.01
426.58	4910.44
426.77	5032.15
426.96	5081.30
427.15	5205.35
427.33	5245.14
427.52	5132.79
427.71	5493.24
427.90	5245.14
428.09	5277.91
428.28	5200.67
428.46	5322.38
428.65	5448.77
428.84	5495.58
429.03	5448.77
429.22	5329.40
429.40	5514.30
429.59	5521.32
429.78	5392.59
429.97	5416.00
430.16	5481.53
430.34	5561.11
430.53	5640.69
430.72	5825.59
430.91	5636.01
431.10	5614.95
431.28	5844.32
431.47	5806.87
431.66	5886.45
431.85	5900.49
432.03	5874.74
432.22	6010.50
432.41	5942.62
432.60	5827.93
432.79	5975.39
432.97	6029.22
433.16	6001.13
433.35	5975.39
433.54	5963.68
433.72	6085.39
433.91	6005.81
434.10	6211.78
434.28	6223.48
434.47	6162.63
434.66	6190.72
434.85	6340.51
435.03	6274.98
435.22	6361.58
435.41	6665.85
435.59	6373.28
435.78	6436.47
435.97	6476.26
436.16	6520.73
436.34	6445.84
436.53	6483.28
436.72	6553.50
436.90	6576.91
437.09	6593.29
437.28	6516.05
437.46	6670.53
437.65	6707.98
437.84	6810.96
438.02	6794.58
438.21	6745.42
438.40	6581.59
438.58	6956.07
438.77	7255.66
438.96	6937.35
439.14	7246.30
439.33	7178.42
439.52	7215.87
439.70	7122.25
439.89	7274.38
440.08	7431.20
440.26	7644.19
440.45	7538.87
440.63	7646.53
440.82	7485.03
441.01	7573.97
441.19	7730.79
441.38	7728.45
441.57	7929.74
441.75	7927.39
441.94	8065.49
442.12	7894.63
442.31	8154.43
442.50	8023.36
442.68	8138.04
442.87	8100.59
443.05	8229.32
443.24	8184.85
443.43	7971.86
443.61	8446.99
443.80	8393.16
443.98	8042.08
444.17	7882.92
444.35	8428.27
444.54	8503.17
444.73	8425.93
444.91	8248.05
445.10	8297.20
445.28	8409.54
445.47	8262.09
445.65	8425.93
445.84	8332.31
446.02	8596.79
446.21	8271.45
446.39	8425.93
446.58	8582.74
446.77	8489.12
446.95	8290.18
447.14	8407.20
447.32	8512.53
447.51	8592.11
447.69	8479.76
447.88	8486.78
448.06	8461.04
448.25	8479.76
448.43	8683.39
448.62	8627.21
448.80	8582.74
448.99	8791.05
449.17	8812.12
449.36	8702.11
449.54	8870.63
449.73	9004.04
449.91	9032.13
450.10	8961.91
450.28	9081.28
450.46	9188.94
450.65	9240.44
450.83	9076.60
451.02	9088.30
451.20	9186.60
451.39	9282.56
451.57	9097.66
451.76	9212.35
451.94	9320.01
452.13	9338.74
452.31	9174.90
452.49	9303.63
452.68	9497.89
452.86	9423.00
453.05	9514.28
453.23	9664.07
453.42	9275.54
453.60	9317.67
453.78	9556.41
453.97	9413.63
454.15	9465.13
454.34	9479.17
454.52	9879.40
454.70	9858.34
454.89	9703.86
455.07	9776.42
455.26	9944.94
455.44	9895.78
455.62	9781.10
455.81	9989.41
455.99	10029.20
456.17	10118.14
456.36	10171.97
456.54	9881.74
456.73	10469.22
456.91	10359.21
457.09	10530.07
457.28	10658.80
457.46	10335.81
457.64	10635.39
457.83	10569.86
458.01	10471.56
458.19	10630.71
458.38	10637.73
458.56	10635.39
458.74	10712.63
458.93	10759.44
459.11	10824.98
459.29	10761.78
459.48	10822.64
459.66	10705.61
459.84	10789.87
460.03	10958.39
460.21	11047.33
460.39	11103.50
460.57	11115.20
460.76	11325.85
460.94	11194.78
461.12	11391.39
461.31	11321.17
461.49	11386.71
461.67	11269.68
461.85	11438.20
462.04	11442.88
462.22	11758.85
462.40	11529.48
462.59	11585.65
462.77	11456.92
462.95	11836.09
463.13	11667.57
463.32	11679.27
463.50	11901.62
463.68	11960.14
463.86	11943.75
464.05	11875.88
464.23	11815.02
464.41	12030.35
464.59	11836.09
464.78	12287.81
464.96	12229.30
465.14	12421.22
465.32	12142.70
465.50	12271.43
465.69	12285.47
465.87	12119.29
466.05	12079.50
466.23	12102.91
466.41	12439.95
466.60	12713.79
466.78	12224.62
466.96	12456.33
467.14	12311.22
467.32	12498.46
467.51	12610.81
467.69	12266.75
467.87	12540.59
468.05	12542.93
468.23	12468.03
468.41	12734.85
468.60	12451.65
468.78	12849.54
468.96	12657.62
469.14	12929.12
469.32	13071.89
469.50	13029.76
469.69	12849.54
469.87	13345.73
470.05	13092.96
470.23	13226.37
470.41	13397.23
470.59	13521.27
470.77	13109.34
470.95	13254.45
471.14	13509.57
471.32	13149.13
471.50	13310.63
471.68	13642.98
471.86	13659.37
472.04	13802.14
472.22	14188.33
472.40	13879.38
472.58	14090.02
472.77	14064.28
472.95	14026.83
473.13	14633.03
473.31	14083.00
473.49	14080.66
473.67	13928.53
473.85	14427.06
474.03	14611.96
474.21	14728.99
474.39	14728.99
474.57	14647.07
474.75	14958.36
474.93	15154.97
475.12	15082.41
475.30	15094.11
475.48	15246.25
475.66	15342.21
475.84	15187.74
476.02	15712.02
476.20	15737.76
476.38	15716.70
476.56	16100.55
476.74	15852.45
476.92	15742.44
477.10	15892.24
477.28	15976.50
477.46	16189.49
477.64	16205.87
477.82	16643.55
478.00	17266.13
478.18	16943.14
478.36	16732.49
478.54	17146.76
478.72	17621.89
478.90	17668.70
479.08	17727.22
479.26	17406.56
479.44	17549.34
479.62	17722.54
479.80	18141.49
479.98	17881.69
480.16	18738.33
480.34	18520.66
480.52	18267.88
480.70	18445.76
480.88	18431.72
481.06	18780.46
481.24	18923.23
481.41	19131.54
481.59	19470.92
481.77	19587.94
481.95	19920.30
482.13	19793.91
482.31	19623.05
482.49	20222.23
482.67	20240.95
482.85	20666.93
483.03	20521.82
483.21	20673.95
483.39	21172.49
483.57	21104.61
483.74	21422.92
483.92	21572.72
484.10	21226.32
484.28	21865.28
484.46	22270.20
484.64	22614.26
484.82	22279.56
485.00	22513.61
485.18	22960.66
485.35	23227.48
485.53	22745.33
485.71	23185.35
485.89	23655.79
486.07	23599.62
486.25	23494.30
486.43	23726.01
486.61	24151.99
486.78	23917.93
486.96	24542.86
487.14	24570.94
487.32	24638.82
487.50	24900.96
487.68	24917.34
487.85	25745.89
488.03	25553.97
488.21	25703.76
488.39	26096.97
488.57	26288.90
488.75	26480.82
488.92	26834.24
489.10	26682.11
489.28	26916.16
489.46	27754.07
489.64	27225.11
489.81	27716.62
489.99	27653.43
490.17	27857.06
490.35	28322.82
490.53	28355.59
490.70	28587.30
490.88	28591.98
491.06	28840.08
491.24	29010.94
491.41	29120.95
491.59	29373.72
491.77	29514.16
491.95	29528.20
492.13	30389.52
492.30	30368.45
492.48	29738.85
492.66	30038.44
492.84	30565.06
493.01	30817.83
493.19	30370.79
493.37	31604.25
493.54	31330.41
493.72	31859.37
493.90	31615.96
494.08	31922.57
494.25	31871.07
494.43	32402.38
494.61	32608.34
494.79	32748.78
494.96	32533.45
495.14	32954.74
495.32	33298.80
495.49	33572.64
495.67	33134.96
495.85	33596.05
496.02	33926.07
496.20	33993.94
496.38	34345.02
496.55	34735.89
496.73	35009.73
496.91	34841.21
497.09	34892.71
497.26	35079.95
497.44	35229.74
497.62	35459.12
497.79	35878.07
497.97	35700.19
498.14	36229.15
498.32	36210.43
498.50	36526.40
498.67	36561.51
498.85	36687.90
499.03	36884.50
499.20	37081.11
499.38	37120.90
499.56	37280.05
499.73	37500.06
499.91	37787.95
500.08	38122.65
500.26	37834.76
500.44	38096.90
500.61	38026.68
500.79	38019.66
500.97	38141.37
501.14	38593.09
501.32	39269.51
501.49	38696.08
501.67	38834.17
501.84	39309.30
502.02	39143.12
502.20	39587.82
502.37	39608.89
502.55	39597.18
502.72	40060.61
502.90	39950.60
503.07	39557.39
503.25	39702.51
503.43	40135.51
503.60	40348.50
503.78	40407.01
503.95	40657.45
504.13	41067.04
504.30	41055.34
504.48	40727.66
504.65	41163.00
504.83	41167.68
505.01	41635.79
505.18	41804.31
505.36	42281.78
505.53	41666.22
505.71	41888.57
505.88	42211.56
506.06	42040.70
506.23	42160.07
506.41	42129.64
506.58	42759.25
506.76	42314.55
506.93	42887.98
507.11	42759.25
507.28	43028.41
507.46	42770.95
507.63	42953.51
507.81	43283.53
507.98	43227.35
508.16	43468.43
508.33	43084.58
508.50	43627.59
508.68	43962.28
508.85	44168.25
509.03	44041.86
509.20	44753.38
509.38	44584.86
509.55	44797.85
509.73	44727.64
509.90	44940.63
510.08	44538.05
510.25	44842.32
510.42	45153.62
510.60	45450.86
510.77	45333.84
510.95	45591.30
511.12	45371.28
511.30	45223.83
511.47	45825.35
511.64	45450.86
511.82	46169.41
511.99	45647.47
512.17	46452.61
512.34	46370.69
512.51	46696.03
512.69	46883.27
512.86	46485.38
513.04	46693.69
513.21	46623.47
513.38	47131.37
513.56	47091.58
513.73	46962.85
513.90	47285.84
514.08	47173.50
514.25	48016.09
514.43	47791.40
514.60	47536.28
514.77	47852.25
514.95	47606.50
515.12	47899.06
515.29	47807.78
515.47	48002.05
515.64	48217.38
515.81	48308.66
515.99	48465.47
516.16	48531.01
516.33	48509.94
516.51	48645.69
516.68	48758.04
516.85	48877.41
517.03	49043.59
517.20	49172.31
517.37	49153.59
517.54	49256.57
517.72	48982.73
517.89	49148.91
518.06	49750.43
518.24	49361.90
518.41	49446.16
518.58	49471.90
518.75	49492.97
518.93	49617.02
519.10	49986.82
519.27	50129.59
519.45	49914.26
519.62	50136.62
519.79	50169.38
519.96	50124.91
520.14	50113.21
520.31	50045.33
520.48	50443.23
520.65	50424.50
520.83	50806.01
521.00	51021.34
521.17	50911.33
521.34	50838.78
521.52	50871.54
521.69	50899.63
521.86	51201.56
522.03	51374.76
522.20	51341.99
522.38	51995.00
522.55	51470.72
522.72	51496.47
522.89	51749.24
523.07	52013.73
523.24	51774.99
523.41	52030.11
523.58	51531.57
523.75	52060.54
523.92	52109.69
524.10	52144.80
524.27	52170.54
524.44	52280.55
524.61	52179.90
524.78	52538.01
524.96	52430.34
525.13	52505.24
525.30	52769.72
525.47	52844.62
525.64	52584.82
525.81	52825.89
525.98	52968.66
526.16	52624.60
526.33	52821.21
526.50	53242.51
526.67	52933.56
526.84	53268.25
527.01	52870.36
527.18	53191.01
527.36	53315.06
527.53	53319.74
527.70	53745.72
527.87	53656.78
528.04	52980.37
528.21	53666.14
528.38	53808.92
528.55	53609.97
528.72	53523.37
528.89	53738.70
529.07	53542.10
529.24	53844.02
529.41	53652.10
529.58	54028.93
529.75	53745.72
529.92	53986.80
530.09	54087.44
530.26	54071.06
530.43	54504.06
530.60	53841.68
530.77	54265.32
530.94	54253.62
531.11	54321.49
531.28	54494.69
531.46	54548.53
531.63	54454.90
531.80	54403.41
531.97	54527.46
532.14	54777.90
532.31	54801.30
532.48	55058.76
532.65	54745.13
532.82	54684.28
532.99	54749.81
533.16	54930.03
533.33	54962.80
533.50	55281.11
533.67	55161.75
533.84	54827.05
534.01	55016.63
534.18	54831.73
534.35	55304.52
534.52	55391.12
534.69	55412.18
534.86	55281.11
535.03	55290.48
535.20	55337.29
535.37	55386.44
535.54	55728.16
535.71	55138.34
535.88	55896.67
536.05	55786.67
536.22	56039.45
536.38	55957.53
536.55	55629.85
536.72	55718.79
536.89	55650.92
537.06	55763.26
537.23	56039.45
537.40	55702.41
537.57	55994.98
537.74	56093.28
537.91	56102.64
538.08	56156.47
538.25	55983.27
538.42	55810.07
538.59	56254.78
538.75	56161.15
538.92	56121.37
539.09	56247.75
539.26	56182.22
539.43	56203.28
539.60	56329.67
539.77	56573.09
539.94	56645.65
540.11	56669.05
540.28	56425.64
540.44	56411.59
540.61	56662.03
540.78	56718.20
540.95	56640.96
541.12	56542.66
541.29	56568.41
541.46	56643.30
541.62	56631.60
541.79	56757.99
541.96	56523.94
542.13	56870.34
542.30	56844.59
542.47	56996.73
542.63	57083.33
542.80	57123.11
542.97	57249.50
543.14	57403.98
543.31	57265.89
543.48	57385.25
543.64	57661.44
543.81	57539.73
543.98	57546.75
544.15	57387.60
544.32	57483.56
544.48	57673.14
544.65	57432.07
544.82	57338.44
544.99	57537.39
545.16	57607.61
545.32	57490.58
545.49	57794.85
545.66	57771.44
545.83	57900.17
546.00	57827.62
546.16	58021.88
546.33	58024.22
546.50	57303.34
546.67	57804.21
546.83	57682.50
547.00	57799.53
547.17	58064.01
547.34	58248.91
547.50	58145.93
547.67	58316.79
547.84	58195.08
548.00	58260.62
548.17	58557.86
548.34	58384.66
548.51	58398.71
548.67	58340.19
548.84	58178.70
549.01	58087.42
549.18	58227.85
549.34	58522.76
549.51	58424.45
549.68	58553.18
549.84	58396.37
550.01	58515.73
550.18	58447.86
550.34	58314.45
550.51	58707.66
550.68	58623.40
550.84	58284.02
551.01	58618.72
551.18	58789.58
551.34	58583.61
551.51	58604.67
551.68	58607.01
551.84	58717.02
552.01	58805.96
552.18	58745.11
552.34	58672.55
552.51	58873.84
552.68	58639.78
552.84	58677.23
553.01	59025.97
553.18	58827.02
553.34	59260.02
553.51	59016.61
553.67	58934.69
553.84	59152.36
554.01	59007.25
554.17	59313.86
554.34	59231.94
554.51	59180.45
554.67	59428.54
554.84	59234.28
555.00	59210.87
555.17	59217.89
555.33	59016.61
555.50	59215.55
555.67	59159.38
555.83	59271.73
556.00	59224.92
556.16	59473.01
556.33	59414.50
556.50	59267.05
556.66	59348.96
556.83	59248.32
556.99	59433.22
557.16	59444.93
557.32	59538.55
557.49	59671.96
557.65	59304.49
557.82	59531.53
557.98	59753.88
558.15	59526.84
558.32	59538.55
558.48	59601.74
558.65	59751.54
558.81	59653.23
558.98	59519.82
559.14	59671.96
559.31	59973.89
559.47	59943.46
559.64	59952.82
559.80	59959.84
559.97	59945.80
560.13	59664.94
560.30	59793.67
560.46	59987.93
560.63	59952.82
560.79	59941.12
560.96	60114.32
561.12	59948.14
561.29	60048.78
561.45	60079.21
561.61	59959.84
561.78	59884.95
561.94	59807.71
562.11	60011.34
562.27	60090.91
562.44	60004.31
562.60	60219.64
562.77	60238.37
562.93	59793.67
563.10	60175.17
563.26	60107.30
563.42	60383.48
563.59	60051.12
563.75	60062.83
563.92	60175.17
564.08	60023.04
564.24	60413.91
564.41	60200.92
564.57	60193.90
564.74	60301.56
564.90	60301.56
565.07	60044.10
565.23	60275.82
565.39	60261.77
565.56	60341.35
565.72	60133.04
565.88	60376.46
566.05	60339.01
566.21	60238.37
566.38	60385.82
566.54	60425.61
566.70	60259.43
566.87	60713.50
567.03	60264.11
567.19	60701.79
567.36	60446.68
567.52	60271.14
567.68	60610.51
567.85	60512.21
568.01	60549.66
568.17	60495.83
568.34	60533.28
568.50	60327.31
568.66	60629.24
568.83	60537.96
568.99	60556.68
569.15	60676.05
569.32	60643.28
569.48	60509.87
569.64	60603.49
569.81	60500.51
569.97	60594.13
570.13	60540.30
570.30	60659.66
570.46	60542.64
570.62	60975.64
570.78	60760.31
570.95	60725.20
571.11	60669.03
571.27	60669.03
571.43	60629.24
571.60	60865.63
571.76	60825.84
571.92	60795.42
572.09	60732.22
572.25	60734.56
572.41	60582.43
572.57	60500.51
572.74	60949.89
572.90	60856.27
573.06	60786.05
573.22	60732.22
573.38	60786.05
573.55	60701.79
573.71	61078.62
573.87	60867.97
574.03	60680.73
574.20	60793.07
574.36	60781.37
574.52	60874.99
574.68	60757.97
574.84	60912.44
575.01	60886.70
575.17	60865.63
575.33	60837.54
575.49	60830.52
575.65	60863.29
575.82	61071.60
575.98	60781.37
576.14	61102.03
576.30	61102.03
576.46	60921.80
576.62	60863.29
576.79	60896.06
576.95	60650.30
577.11	61024.79
577.27	61059.90
577.43	60954.57
577.59	60945.21
577.75	60863.29
577.92	61097.34
578.08	61087.98
578.24	60999.04
578.40	61024.79
578.56	61066.92
578.72	61017.77
578.88	61167.56
579.04	61200.33
579.21	60987.34
579.37	61165.22
579.53	61190.97
579.69	60959.25
579.85	61034.15
580.01	61038.83
580.17	60942.87
580.33	61144.16
580.49	61048.19
580.65	61052.87
580.82	60903.08
580.98	60985.00
581.14	60982.66
581.30	61174.58
581.46	61059.90
581.62	60966.27
581.78	60851.59
581.94	61141.81
582.10	61083.30
582.26	61066.92
582.42	61052.87
582.58	61216.71
582.74	61109.05
582.90	61062.24
583.06	61031.81
583.22	60919.46
583.38	61050.53
583.54	61219.05
583.70	61116.07
583.86	61202.67
584.02	60886.70
584.18	61240.12
584.34	61099.68
584.50	61113.73
584.66	60912.44
584.82	60814.14
584.98	61305.65
585.14	61230.75
585.30	60860.95
585.46	61179.26
585.62	61186.28
585.78	61176.92
585.94	61059.90
586.10	61151.18
586.26	61169.90
586.42	61249.48
586.58	61254.16
586.74	61169.90
586.90	61104.37
587.06	61144.16
587.22	61186.28
587.38	61090.32
587.54	61216.71
587.70	61446.08
587.86	61130.11
588.02	61139.47
588.18	61223.73
588.34	61277.57
588.49	61179.26
