SpectraSuite Data File
++++++++++++++++++++++++++++++++++++
Date: Fri Oct 25 10:44:14 EDT 2013
User: price-jones
Dark Spectrum Present: No
Reference Spectrum Present: No
Number of Sampled Component Spectra: 1
Spectrometers: USB2+H05261
Integration Time (usec): 100000 (USB2+H05261)
Spectra Averaged: 1 (USB2+H05261)
Boxcar Smoothing: 0 (USB2+H05261)
Correct for Electrical Dark: No (USB2+H05261)
Strobe/Lamp Enabled: No (USB2+H05261)
Correct for Detector Non-linearity: No (USB2+H05261)
Correct for Stray Light: No (USB2+H05261)
Number of Pixels in Processed Spectrum: 2048
>>>>>Begin Processed Spectral Data<<<<<
365.73	102.98
365.92	102.98
366.12	102.98
366.32	16.38
366.52	0.00
366.72	114.69
366.91	0.00
367.11	4.68
367.31	39.79
367.51	16.38
367.70	0.00
367.90	28.09
368.10	16.38
368.30	11.70
368.49	18.72
368.69	140.43
368.89	159.16
369.09	0.00
369.28	0.00
369.48	0.00
369.68	53.83
369.87	145.11
370.07	138.09
370.27	163.84
370.47	245.76
370.66	355.76
370.86	418.96
371.06	465.77
371.25	425.98
371.45	397.89
371.65	425.98
371.84	437.68
372.04	437.68
372.24	505.56
372.44	470.45
372.63	507.90
372.83	498.53
373.03	477.47
373.22	468.11
373.42	482.15
373.62	475.13
373.81	491.51
374.01	535.98
374.21	543.00
374.40	470.45
374.60	667.05
374.79	559.39
374.99	559.39
375.19	641.31
375.38	571.09
375.58	613.22
375.78	622.58
375.97	667.05
376.17	734.93
376.37	606.20
376.56	599.18
376.76	585.13
376.95	636.63
377.15	627.26
377.35	657.69
377.54	629.60
377.74	596.84
377.93	711.52
378.13	645.99
378.33	620.24
378.52	671.73
378.72	643.65
378.91	664.71
379.11	631.94
379.31	610.88
379.50	671.73
379.70	753.65
379.89	709.18
380.09	636.63
380.28	641.31
380.48	657.69
380.68	741.95
380.87	690.46
381.07	758.33
381.26	720.88
381.46	695.14
381.65	751.31
381.85	702.16
382.04	734.93
382.24	734.93
382.43	779.40
382.63	741.95
382.83	664.71
383.02	842.59
383.22	690.46
383.41	669.39
383.61	681.10
383.80	809.83
384.00	840.25
384.19	760.67
384.39	819.19
384.58	828.55
384.78	835.57
384.97	837.91
385.17	812.17
385.36	784.08
385.56	723.23
385.75	823.87
385.95	784.08
386.14	905.79
386.34	882.38
386.53	826.21
386.72	795.78
386.92	936.21
387.11	851.96
387.31	898.77
387.50	851.96
387.70	882.38
387.89	910.47
388.09	1022.81
388.28	966.64
388.48	926.85
388.67	926.85
388.86	947.92
389.06	931.53
389.25	1006.43
389.45	933.87
389.64	931.53
389.84	1027.50
390.03	961.96
390.22	999.41
390.42	891.74
390.61	978.34
390.81	1011.11
391.00	1125.80
391.19	1067.28
391.39	978.34
391.58	1071.97
391.78	1057.92
391.97	1048.56
392.16	973.66
392.36	1043.88
392.55	973.66
392.75	961.96
392.94	926.85
393.13	1034.52
393.33	999.41
393.52	994.73
393.71	1034.52
393.91	1109.41
394.10	1088.35
394.29	1165.59
394.49	1097.71
394.68	1172.61
394.88	1125.80
395.07	1231.12
395.26	1219.42
395.46	1205.38
395.65	1249.85
395.84	1228.78
396.04	1224.10
396.23	1156.22
396.42	1179.63
396.62	1322.40
396.81	1235.80
397.00	1249.85
397.19	1275.59
397.39	1329.42
397.58	1394.96
397.77	1364.53
397.97	1394.96
398.16	1394.96
398.35	1488.58
398.55	1446.45
398.74	1437.09
398.93	1519.01
399.12	1570.50
399.32	1430.07
399.51	1516.67
399.70	1617.31
399.90	1572.84
400.09	1563.48
400.28	1624.33
400.47	1584.54
400.67	1591.56
400.86	1624.33
401.05	1687.53
401.24	1687.53
401.44	1753.06
401.63	1720.29
401.82	1633.69
402.01	1593.90
402.21	1799.87
402.40	1703.91
402.59	1671.14
402.78	1701.57
402.97	1750.72
403.17	1811.57
403.36	1783.49
403.55	1863.07
403.74	1909.88
403.93	1802.21
404.13	1825.62
404.32	1834.98
404.51	1830.30
404.70	1842.00
404.89	1863.07
405.09	1952.01
405.28	1961.37
405.47	1902.86
405.66	1916.90
405.85	1954.35
406.05	1905.20
406.24	1963.71
406.43	1987.11
406.62	2054.99
406.81	2146.27
407.00	1998.82
407.20	1989.46
407.39	2139.25
407.58	2207.13
407.77	2223.51
407.96	2284.36
408.15	2249.25
408.34	2249.25
408.54	2270.32
408.73	2204.78
408.92	2214.15
409.11	2263.30
409.30	2296.07
409.49	2265.64
409.68	2190.74
409.87	2263.30
410.07	2403.73
410.26	2392.03
410.45	2392.03
410.64	2289.04
410.83	2464.58
411.02	2476.29
411.21	2478.63
411.40	2597.99
411.59	2628.42
411.78	2609.70
411.98	2616.72
412.17	2609.70
412.36	2609.70
412.55	2747.79
412.74	2703.32
412.93	2642.46
413.12	2675.23
413.31	2862.48
413.50	2703.32
413.69	2839.07
413.88	2881.20
414.07	2829.71
414.26	2932.69
414.45	2874.18
414.64	2897.58
414.83	2967.80
415.02	2986.52
415.22	3098.87
415.41	3126.96
415.60	3222.92
415.79	3138.66
415.98	3112.91
416.17	3213.56
416.36	3248.66
416.55	3346.97
416.74	3288.45
416.93	3166.74
417.12	3410.16
417.31	3377.39
417.50	3332.92
417.69	3492.08
417.88	3419.52
418.07	3492.08
418.26	3361.01
418.45	3447.61
418.64	3583.36
418.83	3602.08
419.02	3644.21
419.21	3543.57
419.39	3585.70
419.58	3487.40
419.77	3611.45
419.96	3522.51
420.15	3721.45
420.34	3747.20
420.53	3700.39
420.72	3801.03
420.91	3641.87
421.10	3815.07
421.29	3777.62
421.48	3709.75
421.67	3929.76
421.86	3681.66
422.05	3782.31
422.24	3772.94
422.43	3836.14
422.61	3735.50
422.80	3887.63
422.99	3962.53
423.18	3803.37
423.37	3985.93
423.56	3829.12
423.75	4002.32
423.94	3878.27
424.13	3782.31
424.32	3901.67
424.50	3908.69
424.69	4060.83
424.88	4032.74
425.07	3779.97
425.26	3875.93
425.45	3936.78
425.64	3861.88
425.83	3953.16
426.01	4105.30
426.20	3981.25
426.39	3983.59
426.58	4009.34
426.77	3864.22
426.96	3974.23
427.15	3990.61
427.33	4009.34
427.52	4030.40
427.71	4109.98
427.90	4156.79
428.09	4241.05
428.28	4138.07
428.46	4037.42
428.65	4189.56
428.84	4231.69
429.03	4416.59
429.22	4086.58
429.40	4105.30
429.59	4201.26
429.78	3904.01
429.97	3901.67
430.16	3971.89
430.34	4077.21
430.53	4002.32
430.72	4093.60
430.91	4212.96
431.10	4177.86
431.28	4393.19
431.47	4688.09
431.66	4676.39
431.85	4557.02
432.03	4702.14
432.22	4786.40
432.41	4606.17
432.60	4648.30
432.79	4709.16
432.97	4751.29
433.16	4760.65
433.35	4545.32
433.54	4652.98
433.72	4660.01
433.91	4620.22
434.10	4606.17
434.28	4826.18
434.47	4800.44
434.66	4851.93
434.85	4856.61
435.03	4770.01
435.22	4931.51
435.41	4964.28
435.59	4994.70
435.78	5076.62
435.97	5128.11
436.16	4975.98
436.34	4980.66
436.53	5093.01
436.72	5238.12
436.90	5118.75
437.09	5177.26
437.28	5001.72
437.46	5078.96
437.65	5179.61
437.84	5247.48
438.02	5071.94
438.21	5153.86
438.40	5345.78
438.58	5387.91
438.77	5469.83
438.96	5252.16
439.14	5638.35
439.33	5591.54
439.52	5537.71
439.70	5664.10
439.89	5563.45
440.08	5760.06
440.26	5657.07
440.45	5589.20
440.63	5975.39
440.82	5980.07
441.01	6022.20
441.19	6087.73
441.38	6113.48
441.57	6047.94
441.75	6106.46
441.94	6134.54
442.12	6314.77
442.31	6267.95
442.50	6209.44
442.68	6342.85
442.87	6054.97
443.05	6352.21
443.24	6396.68
443.43	6424.77
443.61	6434.13
443.80	6661.16
443.98	6448.18
444.17	6321.79
444.35	6464.56
444.54	6635.42
444.73	6473.92
444.91	6345.19
445.10	6445.84
445.28	6427.11
445.47	6258.59
445.65	6270.30
445.84	6380.30
446.02	6677.55
446.21	6700.95
446.39	6700.95
446.58	6707.98
446.77	6682.23
446.95	6520.73
447.14	6633.08
447.32	6707.98
447.51	6754.79
447.69	6602.65
447.88	6644.78
448.06	6719.68
448.25	6703.29
448.43	6839.05
448.62	6581.59
448.80	6684.57
448.99	6829.68
449.17	6707.98
449.36	6750.10
449.54	7023.95
449.73	7059.06
449.91	7082.46
450.10	7232.26
450.28	7255.66
450.46	7089.48
450.65	7321.20
450.83	7360.98
451.02	7133.95
451.20	7084.80
451.39	7269.70
451.57	7307.15
451.76	7070.76
451.94	7276.73
452.13	7403.11
452.31	7073.10
452.49	7077.78
452.68	7185.44
452.86	7119.91
453.05	7185.44
453.23	7234.60
453.42	7194.81
453.60	7407.80
453.78	7239.28
453.97	7248.64
454.15	7346.94
454.34	7220.55
454.52	7578.65
454.70	7407.80
454.89	7595.04
455.07	7468.65
455.26	7494.40
455.44	7716.75
455.62	7604.40
455.81	7620.78
455.99	7838.45
456.17	7676.96
456.36	7726.11
456.54	8177.83
456.73	7864.20
456.91	8109.96
457.09	8023.36
457.28	8262.09
457.46	7833.77
457.64	8184.85
457.83	7995.27
458.01	7906.33
458.19	8217.62
458.38	7995.27
458.56	8114.64
458.74	8044.42
458.93	8283.16
459.11	8287.84
459.29	8248.05
459.48	8187.19
459.66	8168.47
459.84	8299.54
460.03	8461.04
460.21	8531.25
460.39	8432.95
460.57	8423.59
460.76	8613.17
460.94	8645.94
461.12	8716.16
461.31	8538.27
461.49	8606.15
461.67	8610.83
461.85	8767.65
462.04	8697.43
462.22	8805.10
462.40	8943.19
462.59	8779.35
462.77	8826.16
462.95	8950.21
463.13	8688.07
463.32	8690.41
463.50	8877.65
463.68	8924.46
463.86	9191.28
464.05	8987.66
464.23	8882.33
464.41	9006.38
464.59	9022.77
464.78	9247.46
464.96	8994.68
465.14	8959.57
465.32	9198.31
465.50	9207.67
465.69	9233.41
465.87	9130.43
466.05	9245.12
466.23	9053.19
466.41	9092.98
466.60	9301.29
466.78	9025.11
466.96	9036.81
467.14	9376.19
467.32	9280.22
467.51	9488.53
467.69	9254.48
467.87	9472.15
468.05	9598.54
468.23	9380.87
468.41	9221.71
468.60	9488.53
468.78	9514.28
468.96	9380.87
469.14	9664.07
469.32	9755.35
469.50	9479.17
469.69	9678.12
469.87	9727.27
470.05	9783.44
470.23	9820.89
470.41	9671.09
470.59	9830.25
470.77	9879.40
470.95	9951.96
471.14	9984.73
471.32	9886.42
471.50	10186.01
471.68	10143.88
471.86	10415.38
472.04	10413.04
472.22	10506.66
472.40	10181.33
472.58	10406.02
472.77	10406.02
472.95	10509.01
473.13	10789.87
473.31	10576.88
473.49	10682.20
473.67	10457.51
473.85	10483.26
474.03	10829.66
474.21	11030.94
474.39	11215.85
474.57	10829.66
474.75	11026.26
474.93	11527.14
475.12	11089.46
475.30	11218.19
475.48	11166.70
475.66	11283.72
475.84	11169.04
476.02	11344.58
476.20	11250.96
476.38	11410.11
476.56	11918.01
476.74	11838.43
476.92	11538.84
477.10	11932.05
477.28	12086.53
477.46	12028.01
477.64	12079.50
477.82	12360.37
478.00	12301.86
478.18	12475.06
478.36	12692.73
478.54	12503.14
478.72	12718.47
478.90	12699.75
479.08	12830.82
479.26	12999.34
479.44	12896.35
479.62	13170.19
479.80	13207.64
479.98	13385.52
480.16	13682.77
480.34	13596.17
480.52	13729.58
480.70	13621.92
480.88	13434.68
481.06	13865.33
481.24	13886.40
481.41	14324.08
481.59	14242.16
481.77	14373.23
481.95	14200.03
482.13	14359.19
482.31	14628.35
482.49	14757.08
482.67	15061.35
482.85	14850.70
483.03	15283.70
483.21	15115.18
483.39	15403.07
483.57	15419.45
483.74	15613.71
483.92	15599.67
484.10	15475.62
484.28	15920.32
484.46	16077.14
484.64	16217.57
484.82	16025.65
485.00	15929.69
485.18	16116.93
485.35	16542.91
485.53	16449.28
485.71	16369.71
485.89	16704.40
486.07	16299.49
486.25	16580.36
486.43	17015.69
486.61	17233.36
486.78	17275.49
486.96	17060.16
487.14	17664.02
487.32	17738.92
487.50	17965.95
487.68	17898.08
487.85	18583.85
488.03	18288.95
488.21	18534.70
488.39	18431.72
488.57	18539.38
488.75	18792.16
488.92	19117.50
489.10	19290.70
489.28	19426.45
489.46	19702.63
489.64	19543.47
489.81	20020.94
489.99	20116.90
490.17	20308.83
490.35	20439.90
490.53	20266.70
490.70	20318.19
490.88	20538.20
491.06	20676.29
491.24	20702.04
491.41	20741.83
491.59	20861.19
491.77	20879.92
491.95	20896.30
492.13	21095.25
492.30	21539.95
492.48	21682.72
492.66	21809.11
492.84	21809.11
493.01	22122.74
493.19	21909.75
493.37	22223.39
493.54	22361.48
493.72	22642.34
493.90	22309.99
494.08	22576.81
494.25	23073.00
494.43	23047.26
494.61	23463.87
494.79	23346.84
494.96	23515.36
495.14	23564.51
495.32	23332.80
495.49	23768.14
495.67	23981.13
495.85	24198.80
496.02	23861.76
496.20	24315.83
496.38	24173.05
496.55	24247.95
496.73	24634.14
496.91	24683.29
497.09	24844.79
497.26	25165.44
497.44	25055.43
497.62	25076.50
497.79	25350.34
497.97	25034.37
498.14	25535.24
498.32	25813.77
498.50	25706.10
498.67	25776.32
498.85	25940.16
499.03	26380.18
499.20	26127.40
499.38	26316.98
499.56	26396.56
499.73	26469.12
499.91	26221.02
500.08	26459.76
500.26	26316.98
500.44	26471.46
500.61	26478.48
500.79	26490.18
500.97	26647.00
501.14	27215.75
501.32	27154.90
501.49	26616.57
501.67	27248.52
501.84	27395.97
502.02	27103.40
502.20	27257.88
502.37	27679.18
502.55	27623.00
502.72	27885.14
502.90	28154.30
503.07	27835.99
503.25	28034.94
503.43	28006.85
503.60	28086.43
503.78	28393.04
503.95	28135.58
504.13	28549.85
504.30	28720.71
504.48	28858.81
504.65	29104.56
504.83	28933.70
505.01	28889.23
505.18	29390.11
505.36	29277.76
505.53	29350.32
505.71	29661.61
505.88	29600.76
506.06	29134.99
506.23	29649.91
506.41	29654.59
506.58	29979.92
506.76	29928.43
506.93	30181.21
507.11	30195.25
507.28	29996.31
507.46	29729.48
507.63	30050.14
507.81	29790.34
507.98	29928.43
508.16	30199.93
508.33	30803.79
508.50	30810.81
508.68	30590.80
508.85	30988.69
509.03	30768.68
509.20	30764.00
509.38	31201.68
509.55	31189.98
509.73	31290.62
509.90	31220.41
510.08	31388.92
510.25	31524.68
510.42	31449.78
510.60	31667.45
510.77	31732.98
510.95	32135.56
511.12	31564.46
511.30	32187.05
511.47	32395.35
511.64	32470.25
511.82	32362.59
511.99	32100.45
512.17	32238.54
512.34	31880.44
512.51	32655.15
512.69	32863.46
512.86	32629.41
513.04	32912.61
513.21	32357.91
513.38	32598.98
513.56	33062.41
513.73	32732.39
513.90	32945.38
514.08	32683.24
514.25	33425.19
514.43	33031.98
514.60	32762.82
514.77	33600.73
514.95	33483.70
515.12	33773.93
515.29	33872.23
515.47	34586.10
515.64	33979.90
515.81	33460.30
515.99	33773.93
516.16	34089.90
516.33	33799.68
516.51	33603.07
516.68	33270.72
516.85	33205.18
517.03	33638.18
517.20	33865.21
517.37	34244.38
517.54	34260.76
517.72	34216.29
517.89	34148.42
518.06	33954.15
518.24	34464.39
518.41	34319.28
518.58	34515.88
518.75	34405.88
518.93	34546.31
519.10	35257.83
519.27	35028.46
519.45	34899.73
519.62	35023.78
519.79	35536.35
519.96	35285.92
520.14	35227.40
520.31	35131.44
520.48	35580.82
520.65	35653.38
520.83	35744.66
521.00	36294.69
521.17	35920.20
521.34	35618.27
521.52	35892.12
521.69	35971.69
521.86	35838.28
522.03	36472.57
522.20	36439.80
522.38	36673.85
522.55	36170.64
522.72	36409.37
522.89	36774.50
523.07	36751.09
523.24	36416.40
523.41	37024.93
523.58	36741.73
523.75	37083.45
523.92	37273.03
524.10	37352.61
524.27	37184.09
524.44	37364.31
524.61	36959.40
524.78	37188.77
524.96	37841.78
525.13	37298.78
525.30	37886.25
525.47	37876.89
525.64	37553.90
525.81	37687.31
525.98	37853.48
526.16	37656.88
526.33	37432.19
526.50	37420.48
526.67	37654.54
526.84	37127.92
527.01	37701.35
527.18	37275.37
527.36	37986.89
527.53	38562.67
527.70	38401.17
527.87	37818.38
528.04	38220.95
528.21	38660.97
528.38	38621.18
528.55	38745.23
528.72	38944.17
528.89	39072.90
529.07	39037.80
529.24	38286.48
529.41	39220.36
529.58	38852.89
529.75	39203.97
529.92	38967.58
530.09	39112.69
530.26	39115.03
530.43	39508.24
530.60	39112.69
530.77	39077.58
530.94	39407.60
531.11	39063.54
531.28	39643.99
531.46	39728.25
531.63	39651.02
531.80	39014.39
531.97	39147.80
532.14	39775.06
532.31	39250.78
532.48	39868.69
532.65	39576.12
532.82	39648.68
532.99	40172.96
533.16	39709.53
533.33	40053.59
533.50	40147.21
533.67	39765.70
533.84	40034.86
534.01	39878.05
534.18	39924.86
534.35	40519.35
534.52	40236.15
534.69	40755.75
534.86	40540.42
535.03	40147.21
535.20	41045.97
535.37	40561.48
535.54	40809.58
535.71	40402.33
535.88	40931.29
536.05	40549.78
536.22	40898.52
536.38	41106.83
536.55	40655.11
536.72	40727.66
536.89	40524.04
537.06	41099.81
537.23	41116.19
537.40	40919.59
537.57	41258.96
537.74	41258.96
537.91	41083.42
538.08	41450.89
538.25	40966.40
538.42	41462.59
538.59	41258.96
538.75	40683.19
538.92	41556.21
539.09	41607.70
539.26	41415.78
539.43	41354.93
539.60	41532.81
539.77	41422.80
539.94	41390.03
540.11	41441.53
540.28	41511.74
540.44	41776.22
540.61	41645.15
540.78	41743.45
540.95	41631.11
541.12	41352.58
541.29	41813.67
541.46	41844.10
541.62	41853.46
541.79	42387.10
541.96	41621.75
542.13	42014.96
542.30	41867.50
542.47	42466.68
542.63	42127.30
542.80	42068.79
542.97	42518.17
543.14	42831.80
543.31	42698.39
543.48	42546.26
543.64	43576.09
543.81	43143.09
543.98	42834.14
544.15	42656.26
544.32	43124.37
544.48	43229.69
544.65	43098.62
544.82	42707.76
544.99	42541.58
545.16	42974.58
545.32	42679.67
545.49	42979.26
545.66	43573.75
545.83	43496.52
546.00	43196.93
546.16	43302.25
546.33	43194.59
546.50	43129.05
546.67	43255.44
546.83	42916.06
547.00	43503.54
547.17	43065.86
547.34	43297.57
547.50	43515.24
547.67	43288.21
547.84	43552.69
548.00	44058.24
548.17	43824.19
548.34	43555.03
548.51	43756.32
548.67	43976.33
548.84	44065.27
549.01	43562.05
549.18	43643.97
549.34	43456.73
549.51	44126.12
549.68	44179.95
549.84	44095.69
550.01	43988.03
550.18	43639.29
550.34	44016.11
550.51	44243.15
550.68	44170.59
550.84	43489.49
551.01	44135.48
551.18	44116.76
551.34	43985.69
551.51	44432.73
551.68	44617.63
551.84	44350.81
552.01	44039.52
552.18	44226.76
552.34	43934.20
552.51	44353.15
552.68	44121.44
552.84	44818.92
553.01	44259.53
553.18	44589.55
553.34	44744.02
553.51	44224.42
553.67	44772.11
553.84	44397.62
554.01	44811.90
554.17	45043.61
554.34	44842.32
554.51	44596.57
554.67	45062.33
554.84	45158.30
555.00	44610.61
555.17	44921.90
555.33	45148.93
555.50	44690.19
555.67	44605.93
555.83	45031.91
556.00	44722.96
556.16	44662.10
556.33	44561.46
556.50	44605.93
556.66	44713.59
556.83	44931.26
556.99	45113.83
557.16	44931.26
557.32	45109.14
557.49	45478.95
557.65	45024.89
557.82	45076.38
557.98	45532.78
558.15	45148.93
558.32	45193.40
558.48	44713.59
558.65	45022.54
558.81	44891.48
558.98	45209.79
559.14	45502.35
559.31	44989.78
559.47	45724.71
559.64	45694.28
559.80	45778.54
559.97	45139.57
560.13	45027.23
560.30	45432.14
560.46	45184.04
560.63	45652.15
560.79	45397.03
560.96	45900.25
561.12	45450.86
561.29	45315.11
561.45	45567.89
561.61	45530.44
561.78	45535.12
561.94	45029.57
562.11	45326.81
562.27	45581.93
562.44	45652.15
562.60	45560.87
562.77	45497.67
562.93	45464.91
563.10	45979.82
563.26	45158.30
563.42	45745.77
563.59	45750.45
563.75	45738.75
563.92	45425.12
564.08	45736.41
564.24	45956.42
564.41	45694.28
564.57	45893.22
564.74	45471.93
564.90	45827.69
565.07	45649.81
565.23	45872.16
565.39	45930.67
565.56	45815.99
565.72	45446.18
565.88	45507.04
566.05	45663.85
566.21	45790.24
566.38	45418.10
566.54	45991.53
566.70	45958.76
566.87	46155.36
567.03	45642.79
567.19	46286.43
567.36	45823.01
567.52	46087.49
567.68	46101.53
567.85	46230.26
568.01	46103.87
568.17	45724.71
568.34	45846.41
568.50	45956.42
568.66	45759.81
568.83	46005.57
568.99	45846.41
569.15	45694.28
569.32	45940.04
569.48	46117.92
569.64	46045.36
569.81	45933.01
569.97	45727.05
570.13	45907.27
570.30	45752.79
570.46	45780.88
570.62	45490.65
570.78	45352.56
570.95	45584.27
571.11	45998.55
571.27	45769.18
571.43	45581.93
571.60	46073.45
571.76	46068.76
571.92	46387.08
572.09	45998.55
572.25	45724.71
572.41	45694.28
572.57	46438.57
572.74	46562.62
572.90	46234.94
573.06	46164.73
573.22	46316.86
573.38	46115.58
573.55	45979.82
573.71	46319.20
573.87	45993.87
574.03	45961.10
574.20	46337.93
574.36	46148.34
574.52	45776.20
574.68	46206.86
574.84	46103.87
575.01	46174.09
575.17	46073.45
575.33	46012.59
575.49	46253.67
575.65	46094.51
575.82	46251.33
575.98	45647.47
576.14	46216.22
576.30	46160.05
576.46	46141.32
576.62	46237.28
576.79	46256.01
576.95	45867.48
577.11	46089.83
577.27	45916.63
577.43	46204.52
577.59	46106.21
577.75	46120.26
577.92	45741.09
578.08	45752.79
578.24	46096.85
578.40	46131.96
578.56	46394.10
578.72	46227.92
578.88	46483.04
579.04	46471.34
579.21	45755.13
579.37	46199.83
579.53	46232.60
579.69	45827.69
579.85	46080.47
580.01	46251.33
580.17	46087.49
580.33	46476.02
580.49	46398.78
580.65	46253.67
580.82	46174.09
580.98	45911.95
581.14	46581.34
581.30	46330.90
581.46	46108.55
581.62	46499.42
581.78	46373.03
581.94	46471.34
582.10	45991.53
582.26	45785.56
582.42	46340.27
582.58	46330.90
582.74	46185.79
582.90	46579.00
583.06	46557.94
583.22	46625.81
583.38	46204.52
583.54	46387.08
583.70	46600.07
583.86	46330.90
584.02	46223.24
584.18	46106.21
584.34	46101.53
584.50	46302.82
584.66	46335.59
584.82	46382.40
584.98	46717.09
585.14	46742.84
585.30	46321.54
585.46	46504.10
585.62	46131.96
585.78	46389.42
585.94	45942.38
586.10	46068.76
586.26	45989.19
586.42	46134.30
586.58	46681.98
586.74	46272.39
586.90	46045.36
587.06	46010.25
587.22	46340.27
587.38	46490.06
587.54	46213.88
587.70	46131.96
587.86	46759.22
588.02	46382.40
588.18	46525.17
588.34	46326.22
588.49	45738.75
588.65	45867.48
588.81	45806.62
588.97	45600.66
589.13	45937.69
589.29	45855.78
589.45	45940.04
589.61	45916.63
589.77	46637.51
589.93	46160.05
590.08	46237.28
