SpectraSuite Data File
++++++++++++++++++++++++++++++++++++
Date: Fri Oct 25 11:23:50 EDT 2013
User: price-jones
Dark Spectrum Present: No
Reference Spectrum Present: No
Number of Sampled Component Spectra: 1
Spectrometers: USB2+H05261
Integration Time (usec): 100000 (USB2+H05261)
Spectra Averaged: 1 (USB2+H05261)
Boxcar Smoothing: 0 (USB2+H05261)
Correct for Electrical Dark: No (USB2+H05261)
Strobe/Lamp Enabled: No (USB2+H05261)
Correct for Detector Non-linearity: No (USB2+H05261)
Correct for Stray Light: No (USB2+H05261)
Number of Pixels in Processed Spectrum: 2048
>>>>>Begin Processed Spectral Data<<<<<
365.73	255.12
365.92	255.12
366.12	255.12
366.32	182.56
366.52	67.88
366.72	147.45
366.91	170.86
367.11	161.50
367.31	175.54
367.51	170.86
367.70	138.09
367.90	117.03
368.10	77.24
368.30	201.29
368.49	133.41
368.69	147.45
368.89	173.20
369.09	70.22
369.28	135.75
369.48	159.16
369.68	173.20
369.87	217.67
370.07	140.43
370.27	194.26
370.47	348.74
370.66	629.60
370.86	594.50
371.06	636.63
371.25	741.95
371.45	690.46
371.65	741.95
371.84	688.12
372.04	643.65
372.24	741.95
372.44	772.38
372.63	725.57
372.83	688.12
373.03	732.59
373.22	770.04
373.42	760.67
373.62	805.14
373.81	800.46
374.01	812.17
374.21	851.96
374.40	777.06
374.60	837.91
374.79	819.19
374.99	821.53
375.19	851.96
375.38	840.25
375.58	863.66
375.78	880.04
375.97	887.06
376.17	901.11
376.37	823.87
376.56	945.58
376.76	926.85
376.95	835.57
377.15	940.90
377.35	889.40
377.54	966.64
377.74	856.64
377.93	938.55
378.13	837.91
378.33	861.32
378.52	926.85
378.72	957.28
378.91	891.74
379.11	985.37
379.31	894.08
379.50	926.85
379.70	905.79
379.89	931.53
380.09	973.66
380.28	1034.52
380.48	994.73
380.68	1064.94
380.87	1018.13
381.07	1013.45
381.26	1083.67
381.46	1013.45
381.65	997.07
381.85	1001.75
382.04	994.73
382.24	1055.58
382.43	1043.88
382.63	1086.01
382.83	1027.50
383.02	1153.88
383.22	1158.57
383.41	1083.67
383.61	1144.52
383.80	1081.33
384.00	1191.33
384.19	1081.33
384.39	1100.05
384.58	1111.75
384.78	1224.10
384.97	1184.31
385.17	1184.31
385.36	1167.93
385.56	1233.46
385.75	1210.06
385.95	1217.08
386.14	1200.69
386.34	1123.46
386.53	1181.97
386.72	1146.86
386.92	1219.42
387.11	1224.10
387.31	1303.68
387.50	1160.91
387.70	1266.23
387.89	1231.12
388.09	1310.70
388.28	1275.59
388.48	1313.04
388.67	1329.42
388.86	1345.81
389.06	1338.79
389.25	1282.61
389.45	1345.81
389.64	1282.61
389.84	1451.13
390.03	1317.72
390.22	1453.47
390.42	1385.60
390.61	1380.92
390.81	1390.28
391.00	1490.92
391.19	1495.60
391.39	1416.02
391.58	1455.81
391.78	1448.79
391.97	1453.47
392.16	1467.52
392.36	1668.80
392.55	1474.54
392.75	1589.22
392.94	1523.69
393.13	1493.26
393.33	1516.67
393.52	1598.59
393.71	1561.14
393.91	1570.50
394.10	1490.92
394.29	1717.95
394.49	1544.75
394.68	1575.18
394.88	1558.80
395.07	1661.78
395.26	1710.93
395.46	1671.14
395.65	1685.19
395.84	1720.29
396.04	1729.66
396.23	1687.53
396.42	1736.68
396.62	1827.96
396.81	1839.66
397.00	1813.92
397.19	1764.76
397.39	1818.60
397.58	1715.61
397.77	1844.34
397.97	1872.43
398.16	1830.30
398.35	1825.62
398.55	1813.92
398.74	1919.24
398.93	1865.41
399.12	1926.26
399.32	1916.90
399.51	1907.54
399.70	1959.03
399.90	1928.60
400.09	2120.53
400.28	2062.01
400.47	1970.73
400.67	2099.46
400.86	2165.00
401.05	2078.40
401.24	2090.10
401.44	2134.57
401.63	2069.03
401.82	2132.23
402.01	2221.17
402.21	2202.44
402.40	2230.53
402.59	2188.40
402.78	2153.29
402.97	2150.95
403.17	2363.94
403.36	2209.47
403.55	2193.08
403.74	2300.75
403.93	2385.01
404.13	2345.22
404.32	2387.35
404.51	2434.16
404.70	2253.94
404.89	2368.62
405.09	2462.24
405.28	2490.33
405.47	2429.48
405.66	2382.67
405.85	2424.80
406.05	2490.33
406.24	2562.89
406.43	2417.77
406.62	2642.46
406.81	2736.09
407.00	2630.76
407.20	2637.78
407.39	2619.06
407.58	2796.94
407.77	2719.70
407.96	2754.81
408.15	2827.37
408.34	2715.02
408.54	2789.92
408.73	2899.92
408.92	2785.24
409.11	2970.14
409.30	2843.75
409.49	2864.82
409.68	2960.78
409.87	2951.42
410.07	2850.77
410.26	2944.39
410.45	3000.57
410.64	3033.33
410.83	3084.83
411.02	3157.38
411.21	3281.43
411.40	3143.34
411.59	3103.55
411.78	3129.30
411.98	3236.96
412.17	3321.22
412.36	3297.81
412.55	3368.03
412.74	3353.99
412.93	3463.99
413.12	3492.08
413.31	3625.49
413.50	3517.83
413.69	3541.23
413.88	3492.08
414.07	3620.81
414.26	3676.98
414.45	3634.85
414.64	3698.05
414.83	3831.46
415.02	3779.97
415.22	3955.51
415.41	3927.42
415.60	3868.91
415.79	3838.48
415.98	3791.67
416.17	3887.63
416.36	3868.91
416.55	3964.87
416.74	4081.89
416.93	4007.00
417.12	4098.28
417.31	4170.83
417.50	4145.09
417.69	4376.80
417.88	4081.89
418.07	4198.92
418.26	4219.99
418.45	4236.37
418.64	4458.72
418.83	4346.37
419.02	4311.27
419.21	4507.87
419.39	4486.81
419.58	4468.08
419.77	4418.93
419.96	4475.10
420.15	4627.24
420.34	4734.90
420.53	4702.14
420.72	4727.88
420.91	4564.04
421.10	4814.48
421.29	4821.50
421.48	4585.11
421.67	4826.18
421.86	4830.87
422.05	4868.31
422.24	4877.68
422.43	4798.10
422.61	4903.42
422.80	4980.66
422.99	4922.15
423.18	5064.92
423.37	5001.72
423.56	4985.34
423.75	4971.30
423.94	4957.25
424.13	4631.92
424.32	4559.36
424.50	5046.20
424.69	5184.29
424.88	5163.22
425.07	4929.17
425.26	4959.60
425.45	4990.02
425.64	4983.00
425.83	4858.95
426.01	4901.08
426.20	4968.96
426.39	5055.56
426.58	5205.35
426.77	5121.09
426.96	5125.77
427.15	5200.67
427.33	5322.38
427.52	5224.08
427.71	5259.18
427.90	5252.16
428.09	5334.08
428.28	5259.18
428.46	5334.08
428.65	5233.44
428.84	5341.10
429.03	5394.93
429.22	5369.19
429.40	5451.11
429.59	5638.35
429.78	5231.10
429.97	5203.01
430.16	5516.64
430.34	5607.92
430.53	5640.69
430.72	5750.70
430.91	5586.86
431.10	5715.59
431.28	5724.95
431.47	5799.85
431.66	5933.26
431.85	5860.70
432.03	5926.24
432.22	5926.24
432.41	5881.77
432.60	5973.05
432.79	6052.63
432.97	6193.06
433.16	6083.05
433.35	5928.58
433.54	6150.93
433.72	6200.08
433.91	6197.74
434.10	6052.63
434.28	6076.03
434.47	6225.82
434.66	6338.17
434.85	6249.23
435.03	6310.08
435.22	6317.11
435.41	6502.01
435.59	6321.79
435.78	6244.55
435.97	6399.02
436.16	6424.77
436.34	6441.15
436.53	6335.83
436.72	6724.36
436.90	6459.88
437.09	6698.61
437.28	6420.09
437.46	6654.14
437.65	6509.03
437.84	6743.08
438.02	6752.45
438.21	6810.96
438.40	6717.34
438.58	7171.40
438.77	7068.42
438.96	6939.69
439.14	7068.42
439.33	7297.79
439.52	7133.95
439.70	7262.68
439.89	7454.61
440.08	7311.83
440.26	7375.03
440.45	7475.67
440.63	7573.97
440.82	7536.52
441.01	7480.35
441.19	7676.96
441.38	7779.94
441.57	7779.94
441.75	7683.98
441.94	7974.21
442.12	8060.80
442.31	7880.58
442.50	7997.61
442.68	7995.27
442.87	7976.55
443.05	8159.11
443.24	8259.75
443.43	8271.45
443.61	8215.28
443.80	8601.47
443.98	8093.57
444.17	7903.99
444.35	8198.90
444.54	8217.62
444.73	8287.84
444.91	8252.73
445.10	8514.87
445.28	8379.12
445.47	8234.00
445.65	8278.47
445.84	8812.12
446.02	8709.13
446.21	8470.40
446.39	8493.80
446.58	8575.72
446.77	8416.57
446.95	8198.90
447.14	8461.04
447.32	8533.59
447.51	8465.72
447.69	8468.06
447.88	8388.48
448.06	8496.14
448.25	8512.53
448.43	8779.35
448.62	8748.92
448.80	8622.53
448.99	8519.55
449.17	8769.99
449.36	8781.69
449.54	8884.67
449.73	8915.10
449.91	8966.59
450.10	9078.94
450.28	9163.20
450.46	8997.02
450.65	8947.87
450.83	9160.86
451.02	8997.02
451.20	9163.20
451.39	9114.05
451.57	9081.28
451.76	8952.55
451.94	9202.99
452.13	9324.69
452.31	9289.59
452.49	9146.81
452.68	9509.60
452.86	9371.50
453.05	9317.67
453.23	9362.14
453.42	9455.76
453.60	9415.98
453.78	9514.28
453.97	9561.09
454.15	9518.96
454.34	9359.80
454.52	9563.43
454.70	9874.72
454.89	9680.46
455.07	9804.50
455.26	9696.84
455.44	10071.33
455.62	9963.66
455.81	9839.61
455.99	10003.45
456.17	10083.03
456.36	10164.95
456.54	10207.08
456.73	10216.44
456.91	10649.44
457.09	10581.56
457.28	10677.52
457.46	10394.32
457.64	10604.97
457.83	10450.49
458.01	10279.63
458.19	10752.42
458.38	10541.77
458.56	10750.08
458.74	10586.24
458.93	10817.96
459.11	10850.72
459.29	10750.08
459.48	10806.25
459.66	10801.57
459.84	11077.76
460.03	11052.01
460.21	10897.53
460.39	10827.32
460.57	11042.65
460.76	10761.78
460.94	11316.49
461.12	11344.58
461.31	11117.54
461.49	11185.42
461.67	11154.99
461.85	11543.52
462.04	11482.67
462.22	11576.29
462.40	11770.55
462.59	11517.78
462.77	11506.07
462.95	11555.22
463.13	11510.75
463.32	11557.57
463.50	11885.24
463.68	11829.07
463.86	11819.71
464.05	11508.41
464.23	11644.17
464.41	12018.65
464.59	11836.09
464.78	12271.43
464.96	12044.40
465.14	12067.80
465.32	12119.29
465.50	12016.31
465.69	12180.15
465.87	12313.56
466.05	12154.40
466.23	12131.00
466.41	12210.57
466.60	12751.24
466.78	12079.50
466.96	12170.79
467.14	12168.45
467.32	12439.95
467.51	12795.71
467.69	12336.96
467.87	12404.84
468.05	12835.50
468.23	12339.30
468.41	12540.59
468.60	12566.34
468.78	13032.10
468.96	12524.21
469.14	12697.41
469.32	12975.93
469.50	12568.68
469.69	13069.55
469.87	13083.59
470.05	13369.14
470.23	13350.42
470.41	13191.26
470.59	13121.04
470.77	12961.89
470.95	13338.71
471.14	13319.99
471.32	13219.35
471.50	13666.39
471.68	13626.60
471.86	13448.72
472.04	13837.25
472.22	14038.53
472.40	13727.24
472.58	13834.91
472.77	14267.91
472.95	14284.29
473.13	14354.51
473.31	14083.00
473.49	14331.10
473.67	14270.25
473.85	14562.81
474.03	14569.83
474.21	14633.03
474.39	14705.59
474.57	14539.41
474.75	15129.22
474.93	14925.60
475.12	14583.88
475.30	15250.93
475.48	14979.43
475.66	15269.66
475.84	15272.00
476.02	15571.58
476.20	15438.17
476.38	15775.21
476.56	16306.51
476.74	16257.36
476.92	16140.33
477.10	15882.88
477.28	16091.18
477.46	16250.34
477.64	16404.81
477.82	16552.27
478.00	17022.72
478.18	16491.41
478.36	16877.60
478.54	17235.70
478.72	17013.35
478.90	17336.35
479.08	17649.98
479.26	17823.18
479.44	17589.13
479.62	17605.51
479.80	18097.02
479.98	18183.62
480.16	18649.39
480.34	18515.98
480.52	18469.17
480.70	18726.63
480.88	18616.62
481.06	18644.71
481.24	18792.16
481.41	19197.07
481.59	19435.81
481.77	19676.88
481.95	19707.31
482.13	19723.69
482.31	19644.12
482.49	20313.51
482.67	20266.70
482.85	20147.33
483.03	20577.99
483.21	20776.94
483.39	20695.02
483.57	21010.99
483.74	21144.40
483.92	21249.72
484.10	21287.17
484.28	21858.26
484.46	22207.00
484.64	22527.66
484.82	22068.91
485.00	22352.12
485.18	22848.31
485.35	23300.03
485.53	22855.33
485.71	23168.96
485.89	23330.46
486.07	23407.70
486.25	23417.06
486.43	23524.72
486.61	23838.36
486.78	24257.31
486.96	23927.30
487.14	24891.60
487.32	24725.42
487.50	24952.45
487.68	24872.87
487.85	25511.84
488.03	25661.63
488.21	25544.61
488.39	26111.02
488.57	26253.79
488.75	26209.32
488.92	26471.46
489.10	26778.07
489.28	26874.03
489.46	27438.10
489.64	27234.47
489.81	27704.92
489.99	27812.59
490.17	27501.29
490.35	28194.09
490.53	28322.82
490.70	28425.81
490.88	28116.86
491.06	29181.80
491.24	28938.38
491.41	29003.92
491.59	29230.95
491.77	29586.71
491.95	29465.00
492.13	29413.51
492.30	30047.80
492.48	30029.07
492.66	30288.87
492.84	30677.40
493.01	30672.72
493.19	30263.13
493.37	31246.15
493.54	31503.61
493.72	31742.35
493.90	31400.63
494.08	31831.29
494.25	31889.80
494.43	32023.21
494.61	32488.98
494.79	32690.26
494.96	32734.73
495.14	33261.35
495.32	33125.60
495.49	33186.46
495.67	33230.93
495.85	33633.50
496.02	33897.98
496.20	34033.73
496.38	34338.00
496.55	34244.38
496.73	35115.06
496.91	34658.65
497.09	34976.97
497.26	35311.66
497.44	35168.89
497.62	35398.26
497.79	35821.90
497.97	35578.48
498.14	36039.57
498.32	36222.13
498.50	36135.53
498.67	36285.33
498.85	36629.38
499.03	36699.60
499.20	36898.55
499.38	36802.58
499.56	36765.14
499.73	37074.09
499.91	37457.93
500.08	37872.21
500.26	37860.51
500.44	37699.01
500.61	37816.04
500.79	37893.27
500.97	38089.88
501.14	38831.83
501.32	38948.85
501.49	38745.23
501.67	39033.11
501.84	38859.91
502.02	39117.37
502.20	39276.53
502.37	39164.18
502.55	39449.73
502.72	39679.10
502.90	39620.59
503.07	39634.63
503.25	39997.41
503.43	39622.93
503.60	40067.63
503.78	40385.94
503.95	40313.39
504.13	40945.33
504.30	40545.10
504.48	40502.97
504.65	41074.06
504.83	40737.02
505.01	41600.68
505.18	41427.48
505.36	41659.20
505.53	41092.79
505.71	41755.16
505.88	41958.78
506.06	41823.03
506.23	41911.97
506.41	41961.12
506.58	42087.51
506.76	42522.85
506.93	42759.25
507.11	42684.35
507.28	42829.46
507.46	42630.52
507.63	43122.03
507.81	43667.37
507.98	43065.86
508.16	43281.19
508.33	43442.68
508.50	43782.06
508.68	43697.80
508.85	44114.42
509.03	43583.12
509.20	44182.29
509.38	44875.09
509.55	44601.25
509.73	44428.05
509.90	44416.35
510.08	44744.02
510.25	44699.55
510.42	44800.19
510.60	45099.78
510.77	45242.56
510.95	45045.95
511.12	44903.18
511.30	45687.26
511.47	45481.29
511.64	45933.01
511.82	46026.63
511.99	46094.51
512.17	46108.55
512.34	46064.08
512.51	46431.55
512.69	46864.55
512.86	46185.79
513.04	46656.24
513.21	46759.22
513.38	46836.46
513.56	47084.56
513.73	47133.71
513.90	47114.98
514.08	47044.77
514.25	47533.94
514.43	47538.62
514.60	47299.89
514.77	47634.58
514.95	47861.61
515.12	47655.65
515.29	47969.28
515.47	48233.76
515.64	48563.78
515.81	47941.19
515.99	48608.25
516.16	48542.71
516.33	48404.62
516.51	48779.10
516.68	48479.52
516.85	48753.36
517.03	48753.36
517.20	48903.15
517.37	49013.16
517.54	49045.93
517.72	49165.29
517.89	49155.93
518.06	49315.09
518.24	49378.28
518.41	49216.78
518.58	49315.09
518.75	49387.64
518.93	49628.72
519.10	49354.88
519.27	49813.62
519.45	49883.84
519.62	49984.48
519.79	49872.14
519.96	50380.03
520.14	50134.28
520.31	50103.85
520.48	50422.16
520.65	50471.31
520.83	50550.89
521.00	51084.53
521.17	50822.39
521.34	50866.86
521.52	50806.01
521.69	50721.75
521.86	51040.06
522.03	51100.92
522.20	51686.05
522.38	51426.25
522.55	51405.19
522.72	51302.20
522.89	51559.66
523.07	51608.81
523.24	51636.90
523.41	51681.37
523.58	51482.42
523.75	51934.15
523.92	51721.16
524.10	52123.73
524.27	52149.48
524.44	51987.98
524.61	52233.74
524.78	52488.85
524.96	52413.96
525.13	52566.09
525.30	52470.13
525.47	52423.32
525.64	52755.68
525.81	52786.10
525.98	52685.46
526.16	52310.97
526.33	52753.33
526.50	53151.23
526.67	52729.93
526.84	53088.03
527.01	53235.48
527.18	52947.60
527.36	53291.66
527.53	53008.45
527.70	53518.69
527.87	53425.07
528.04	53563.16
528.21	53609.97
528.38	53244.85
528.55	53806.58
528.72	53286.98
528.89	53579.54
529.07	53446.13
529.24	53408.68
529.41	53581.88
529.58	53649.76
529.75	53762.11
529.92	53745.72
530.09	53832.32
530.26	54213.83
530.43	54241.92
530.60	53956.37
530.77	54064.03
530.94	54202.13
531.11	54012.54
531.28	54394.05
531.46	54237.23
531.63	54213.83
531.80	54511.08
531.97	54403.41
532.14	54452.56
532.31	54695.98
532.48	54686.62
532.65	54609.38
532.82	54431.50
532.99	54728.75
533.16	54611.72
533.33	54852.80
533.50	54805.98
533.67	54988.55
533.84	54649.17
534.01	54794.28
534.18	55023.65
534.35	55309.20
534.52	55253.03
534.69	55077.49
534.86	55201.53
535.03	55295.16
535.20	55079.83
535.37	55393.46
535.54	55253.03
535.71	55201.53
535.88	55604.11
536.05	55707.09
536.22	55711.77
536.38	55835.82
536.55	55543.25
536.72	55664.96
536.89	55664.96
537.06	55732.84
537.23	56011.36
537.40	55732.84
537.57	55817.10
537.74	55742.20
537.91	56020.72
538.08	56236.05
538.25	55973.91
538.42	56044.13
538.59	56339.04
538.75	55908.38
538.92	55964.55
539.09	56296.91
539.26	56467.76
539.43	56240.73
539.60	56381.16
539.77	56357.76
539.94	56617.56
540.11	56624.58
540.28	56566.07
540.44	56432.66
540.61	56633.94
540.78	56491.17
540.95	56580.11
541.12	56533.30
541.29	56334.35
541.46	56708.84
541.62	56666.71
541.79	56598.83
541.96	56659.69
542.13	56568.41
542.30	56842.25
542.47	56755.65
542.63	57031.83
542.80	57165.24
542.97	57034.17
543.14	57162.90
543.31	57251.84
543.48	57308.02
543.64	57528.03
543.81	57488.24
543.98	57366.53
544.15	57272.91
544.32	57460.15
544.48	57535.05
544.65	57530.37
544.82	57528.03
544.99	57263.55
545.16	57460.15
545.32	57516.32
545.49	57818.25
545.66	57659.10
545.83	57841.66
546.00	57839.32
546.16	57680.16
546.33	57460.15
546.50	57565.48
546.67	57904.85
546.83	57586.54
547.00	57820.59
547.17	57640.37
547.34	58141.25
547.50	58049.97
547.67	58094.44
547.84	57918.90
548.00	58150.61
548.17	58314.45
548.34	58223.17
548.51	58258.27
548.67	58209.12
548.84	58230.19
549.01	58049.97
549.18	58295.72
549.34	58305.09
549.51	58298.06
549.68	58408.07
549.84	58562.54
550.01	58557.86
550.18	58213.80
550.34	58583.61
550.51	58473.60
550.68	58592.97
550.84	58379.98
551.01	58688.93
551.18	58468.92
551.34	58609.35
551.51	58581.27
551.68	58693.61
551.84	58611.70
552.01	58480.63
552.18	58492.33
552.34	58808.30
552.51	58859.79
552.68	58651.48
552.84	58780.21
553.01	59082.14
553.18	58742.77
553.34	59014.27
553.51	58777.87
553.67	58688.93
553.84	59075.12
554.01	59079.80
554.17	58946.39
554.34	58890.22
554.51	58986.18
554.67	59154.70
554.84	58906.60
555.00	59145.34
555.17	58969.80
555.33	58932.35
555.50	59040.01
555.67	59154.70
555.83	59105.55
556.00	59393.43
556.16	59407.48
556.33	59444.93
556.50	59220.23
556.66	59391.09
556.83	59166.40
556.99	59458.97
557.16	59545.57
557.32	59646.21
557.49	59646.21
557.65	59344.28
557.82	59501.10
557.98	59365.35
558.15	59458.97
558.32	59426.20
558.48	59501.10
558.65	59540.89
558.81	59428.54
558.98	59655.57
559.14	59615.79
559.31	59856.86
559.47	59840.48
559.64	59597.06
559.80	59683.66
559.97	59709.41
560.13	59767.92
560.30	59854.52
560.46	59910.69
560.63	59901.33
560.79	59793.67
560.96	59824.09
561.12	59980.91
561.29	59854.52
561.45	59910.69
561.61	59821.75
561.78	59955.16
561.94	59779.62
562.11	59896.65
562.27	59828.77
562.44	59917.71
562.60	60025.38
562.77	60170.49
562.93	59891.97
563.10	60016.02
563.26	60121.34
563.42	60114.32
563.59	59934.10
563.75	59945.80
563.92	60196.24
564.08	59969.21
564.24	60292.20
564.41	60278.16
564.57	60252.41
564.74	60067.51
564.90	60243.05
565.07	60055.81
565.23	60331.99
565.39	60104.96
565.56	60285.18
565.72	60243.05
565.88	60306.24
566.05	60299.22
566.21	60324.97
566.38	60266.45
566.54	60409.23
566.70	60346.03
566.87	60460.72
567.03	60317.95
567.19	60430.29
567.36	60320.29
567.52	60285.18
567.68	60484.12
567.85	60514.55
568.01	60587.11
568.17	60434.97
568.34	60357.74
568.50	60413.91
568.66	60200.92
568.83	60467.74
568.99	60378.80
569.15	60470.08
569.32	60418.59
569.48	60437.31
569.64	60589.45
569.81	60355.39
569.97	60491.15
570.13	60463.06
570.30	60327.31
570.46	60690.09
570.62	60617.53
570.78	60458.38
570.95	60495.83
571.11	60748.60
571.27	60624.56
571.43	60327.31
571.60	60659.66
571.76	60626.90
571.92	60582.43
572.09	60559.02
572.25	60734.56
572.41	60715.84
572.57	60844.57
572.74	60694.77
572.90	60580.09
573.06	60896.06
573.22	60727.54
573.38	60680.73
573.55	60612.85
573.71	60987.34
573.87	60800.10
574.03	60519.23
574.20	60776.69
574.36	60601.15
574.52	60879.67
574.68	60828.18
574.84	60753.29
575.01	60814.14
575.17	60846.91
575.33	60825.84
575.49	60821.16
575.65	60860.95
575.82	60893.72
575.98	60907.76
576.14	60900.74
576.30	60959.25
576.46	60753.29
576.62	60800.10
576.79	60762.65
576.95	60547.32
577.11	60917.12
577.27	60849.25
577.43	60935.85
577.59	60858.61
577.75	60774.35
577.92	60760.31
578.08	60877.33
578.24	60832.86
578.40	61069.26
578.56	61062.24
578.72	60830.52
578.88	61015.43
579.04	61162.88
579.21	60912.44
579.37	61045.85
579.53	61017.77
579.69	60732.22
579.85	60788.39
580.01	60882.02
580.17	60846.91
580.33	61015.43
580.49	61174.58
580.65	61109.05
580.82	60994.36
580.98	60882.02
581.14	60884.36
581.30	60970.96
581.46	60863.29
581.62	61029.47
581.78	61109.05
581.94	61151.18
582.10	60956.91
582.26	60961.59
582.42	60970.96
582.58	61050.53
582.74	61008.40
582.90	60928.83
583.06	60945.21
583.22	60596.47
583.38	61022.45
583.54	61085.64
583.70	61078.62
583.86	61134.79
584.02	60800.10
584.18	61146.50
584.34	61123.09
584.50	61006.06
584.66	60956.91
584.82	60795.42
584.98	61172.24
585.14	61116.07
585.30	60839.89
585.46	61228.41
585.62	61209.69
585.78	61251.82
585.94	60870.31
586.10	61066.92
586.26	61052.87
586.42	61141.81
586.58	61104.37
586.74	61027.13
586.90	61183.94
587.06	60835.20
587.22	61120.75
587.38	61127.77
587.54	61186.28
587.70	61279.91
587.86	61146.50
588.02	61092.66
588.18	61296.29
588.34	61024.79
588.49	61212.03
