SpectraSuite Data File
++++++++++++++++++++++++++++++++++++
Date: Fri Oct 25 11:25:42 EDT 2013
User: price-jones
Dark Spectrum Present: No
Reference Spectrum Present: No
Number of Sampled Component Spectra: 1
Spectrometers: USB2+H05261
Integration Time (usec): 100000 (USB2+H05261)
Spectra Averaged: 1 (USB2+H05261)
Boxcar Smoothing: 0 (USB2+H05261)
Correct for Electrical Dark: No (USB2+H05261)
Strobe/Lamp Enabled: No (USB2+H05261)
Correct for Detector Non-linearity: No (USB2+H05261)
Correct for Stray Light: No (USB2+H05261)
Number of Pixels in Processed Spectrum: 2048
>>>>>Begin Processed Spectral Data<<<<<
365.73	234.05
365.92	234.05
366.12	234.05
366.32	217.67
366.52	140.43
366.72	88.94
366.91	124.05
367.11	100.64
367.31	131.07
367.51	168.52
367.70	152.13
367.90	152.13
368.10	128.73
368.30	100.64
368.49	156.82
368.69	159.16
368.89	142.77
369.09	107.66
369.28	201.29
369.48	152.13
369.68	124.05
369.87	210.65
370.07	187.24
370.27	189.58
370.47	276.18
370.66	564.07
370.86	645.99
371.06	627.26
371.25	681.10
371.45	676.41
371.65	755.99
371.84	667.05
372.04	720.88
372.24	751.31
372.44	678.76
372.63	765.36
372.83	678.76
373.03	741.95
373.22	702.16
373.42	748.97
373.62	821.53
373.81	765.36
374.01	856.64
374.21	873.02
374.40	805.14
374.60	816.85
374.79	760.67
374.99	723.23
375.19	816.85
375.38	919.83
375.58	809.83
375.78	882.38
375.97	826.21
376.17	891.74
376.37	891.74
376.56	933.87
376.76	875.36
376.95	833.23
377.15	931.53
377.35	929.19
377.54	917.49
377.74	945.58
377.93	922.17
378.13	884.72
378.33	884.72
378.52	976.00
378.72	980.68
378.91	903.45
379.11	978.34
379.31	1022.81
379.50	903.45
379.70	1055.58
379.89	1011.11
380.09	966.64
380.28	983.02
380.48	968.98
380.68	959.62
380.87	901.11
381.07	1093.03
381.26	1067.28
381.46	966.64
381.65	1071.97
381.85	978.34
382.04	1041.54
382.24	1053.24
382.43	1008.77
382.63	1043.88
382.83	1011.11
383.02	1139.84
383.22	1184.31
383.41	1097.71
383.61	1078.99
383.80	1184.31
384.00	1109.41
384.19	1090.69
384.39	1125.80
384.58	1109.41
384.78	1259.21
384.97	1217.08
385.17	1174.95
385.36	1144.52
385.56	1111.75
385.75	1156.22
385.95	1128.14
386.14	1235.80
386.34	1184.31
386.53	1219.42
386.72	1287.29
386.92	1235.80
387.11	1289.64
387.31	1287.29
387.50	1294.32
387.70	1303.68
387.89	1179.63
388.09	1217.08
388.28	1235.80
388.48	1252.19
388.67	1404.32
388.86	1289.64
389.06	1306.02
389.25	1291.98
389.45	1378.58
389.64	1294.32
389.84	1418.36
390.03	1420.71
390.22	1441.77
390.42	1334.11
390.61	1345.81
390.81	1345.81
391.00	1378.58
391.19	1474.54
391.39	1406.66
391.58	1366.87
391.78	1472.20
391.97	1607.95
392.16	1420.71
392.36	1547.09
392.55	1519.01
392.75	1572.84
392.94	1467.52
393.13	1448.79
393.33	1519.01
393.52	1579.86
393.71	1572.84
393.91	1495.60
394.10	1544.75
394.29	1584.54
394.49	1589.22
394.68	1549.43
394.88	1645.40
395.07	1682.85
395.26	1682.85
395.46	1673.48
395.65	1774.13
395.84	1713.27
396.04	1778.81
396.23	1710.93
396.42	1746.04
396.62	1806.89
396.81	1783.49
397.00	1717.95
397.19	1832.64
397.39	1753.06
397.58	1863.07
397.77	1734.34
397.97	1785.83
398.16	1757.74
398.35	1860.73
398.55	1839.66
398.74	1825.62
398.93	1991.80
399.12	1942.64
399.32	1947.33
399.51	1912.22
399.70	2022.22
399.90	1980.09
400.09	1980.09
400.28	2022.22
400.47	2024.56
400.67	2083.08
400.86	2104.14
401.05	2069.03
401.24	2071.37
401.44	2097.12
401.63	2064.35
401.82	2111.16
402.01	2157.97
402.21	2104.14
402.40	2064.35
402.59	2169.68
402.78	2059.67
402.97	2204.78
403.17	2190.74
403.36	2307.77
403.55	2265.64
403.74	2300.75
403.93	2354.58
404.13	2363.94
404.32	2328.83
404.51	2272.66
404.70	2480.97
404.89	2333.51
405.09	2544.16
405.28	2586.29
405.47	2487.99
405.66	2476.29
405.85	2490.33
406.05	2572.25
406.24	2473.95
406.43	2623.74
406.62	2670.55
406.81	2548.84
407.00	2663.53
407.20	2539.48
407.39	2619.06
407.58	2782.90
407.77	2661.19
407.96	2752.47
408.15	2658.85
408.34	2761.83
408.54	2780.56
408.73	2860.13
408.92	2829.71
409.11	2918.65
409.30	2799.28
409.49	2757.15
409.68	2850.77
409.87	2832.05
410.07	3047.38
410.26	2906.95
410.45	2911.63
410.64	3021.63
410.83	3016.95
411.02	3002.91
411.21	3143.34
411.40	3208.87
411.59	3321.22
411.78	3206.53
411.98	3190.15
412.17	3138.66
412.36	3253.34
412.55	3428.88
412.74	3506.12
412.93	3339.94
413.12	3466.33
413.31	3478.04
413.50	3499.10
413.69	3606.77
413.88	3630.17
414.07	3637.19
414.26	3651.24
414.45	3686.34
414.64	3700.39
414.83	3705.07
415.02	3754.22
415.22	3789.33
415.41	3885.29
415.60	3878.27
415.79	3875.93
415.98	3913.38
416.17	3941.46
416.36	4023.38
416.55	3733.15
416.74	4091.26
416.93	4039.76
417.12	3999.98
417.31	4168.49
417.50	4084.23
417.69	4353.40
417.88	4430.63
418.07	4266.80
418.26	4290.20
418.45	4381.48
418.64	4545.32
418.83	4362.76
419.02	4432.97
419.21	4470.42
419.39	4528.94
419.58	4493.83
419.77	4479.79
419.96	4533.62
420.15	4573.41
420.34	4519.57
420.53	4547.66
420.72	4554.68
420.91	4526.60
421.10	4652.98
421.29	4975.98
421.48	4655.33
421.67	4770.01
421.86	4713.84
422.05	4861.29
422.24	4685.75
422.43	4842.57
422.61	4931.51
422.80	5004.07
422.99	4971.30
423.18	4940.87
423.37	4978.32
423.56	5088.32
423.75	4926.83
423.94	4826.18
424.13	4624.90
424.32	4809.80
424.50	4947.89
424.69	5027.47
424.88	5034.49
425.07	4858.95
425.26	4896.40
425.45	4929.17
425.64	4849.59
425.83	4868.31
426.01	4868.31
426.20	4959.60
426.39	5151.52
426.58	5025.13
426.77	4992.36
426.96	5160.88
427.15	5114.07
427.33	5158.54
427.52	5057.90
427.71	5298.97
427.90	5067.26
428.09	5228.76
428.28	5280.25
428.46	5259.18
428.65	5355.15
428.84	5647.71
429.03	5352.81
429.22	5284.93
429.40	5455.79
429.59	5605.58
429.78	5348.12
429.97	5401.96
430.16	5495.58
430.34	5542.39
430.53	5657.07
430.72	5652.39
430.91	5600.90
431.10	5624.31
431.28	5518.98
431.47	5617.29
431.66	5755.38
431.85	5785.80
432.03	5795.17
432.22	5926.24
432.41	5806.87
432.60	6031.56
432.79	5909.85
432.97	5954.32
433.16	5912.19
433.35	5919.21
433.54	6099.44
433.72	5982.41
433.91	5919.21
434.10	6134.54
434.28	6200.08
434.47	6150.93
434.66	6148.59
434.85	6167.31
435.03	6286.68
435.22	6282.00
435.41	6373.28
435.59	6352.21
435.78	6396.68
435.97	6319.45
436.16	6420.09
436.34	6361.58
436.53	6593.29
436.72	6492.65
436.90	6380.30
437.09	6586.27
437.28	6513.71
437.46	6567.54
437.65	6663.51
437.84	6579.25
438.02	6738.40
438.21	6656.48
438.40	6607.33
438.58	6986.50
438.77	7040.33
438.96	7068.42
439.14	6953.73
439.33	7164.38
439.52	7148.00
439.70	7140.97
439.89	7290.77
440.08	7396.09
440.26	7321.20
440.45	7258.00
440.63	7435.88
440.82	7573.97
441.01	7494.40
441.19	7503.76
441.38	7801.01
441.57	7637.17
441.75	7824.41
441.94	7847.82
442.12	7744.83
442.31	7885.26
442.50	8180.17
442.68	7939.10
442.87	8042.08
443.05	8124.00
443.24	8077.19
443.43	7953.14
443.61	8133.36
443.80	8411.89
443.98	7995.27
444.17	7852.50
444.35	7969.52
444.54	8411.89
444.73	8212.94
444.91	8276.13
445.10	8369.76
445.28	8351.03
445.47	8196.56
445.65	8259.75
445.84	8461.04
446.02	8493.80
446.21	8329.97
446.39	8376.78
446.58	8416.57
446.77	8386.14
446.95	8231.66
447.14	8318.26
447.32	8423.59
447.51	8540.61
447.69	8421.25
447.88	8510.19
448.06	8526.57
448.25	8592.11
448.43	8617.85
448.62	8439.97
448.80	8505.51
448.99	8671.68
449.17	8849.57
449.36	8517.21
449.54	8784.03
449.73	8807.44
449.91	9071.92
450.10	8891.70
450.28	9078.94
450.46	9088.30
450.65	8945.53
450.83	8936.17
451.02	8992.34
451.20	9142.13
451.39	9200.65
451.57	9245.12
451.76	9095.32
451.94	9200.65
452.13	9231.07
452.31	9205.33
452.49	9158.52
452.68	9434.70
452.86	9156.18
453.05	9343.42
453.23	9596.20
453.42	9408.95
453.60	9233.41
453.78	9525.98
453.97	9207.67
454.15	9376.19
454.34	9650.03
454.52	9675.77
454.70	9612.58
454.89	9834.93
455.07	9762.37
455.26	9846.63
455.44	9865.36
455.62	9940.26
455.81	9774.08
455.99	10017.49
456.17	9935.57
456.36	9930.89
456.54	10305.38
456.73	10118.14
456.91	10307.72
457.09	10270.27
457.28	10511.35
457.46	10265.59
457.64	10530.07
457.83	10410.70
458.01	10401.34
458.19	10693.91
458.38	10427.09
458.56	10696.25
458.74	10668.16
458.93	10525.39
459.11	10815.62
459.29	10565.18
459.48	10726.68
459.66	10721.99
459.84	10721.99
460.03	10883.49
460.21	10939.66
460.39	10949.03
460.57	11049.67
460.76	11035.63
460.94	10953.71
461.12	11012.22
461.31	11091.80
461.49	11140.95
461.67	11049.67
461.85	11440.54
462.04	11332.87
462.22	11985.88
462.40	11398.41
462.59	11602.04
462.77	11365.64
462.95	11477.99
463.13	11592.67
463.32	11763.53
463.50	11625.44
463.68	11470.97
463.86	11903.96
464.05	11716.72
464.23	11613.74
464.41	11896.94
464.59	11609.06
464.78	12191.85
464.96	12030.35
465.14	11866.52
465.32	11950.78
465.50	12114.61
465.69	12020.99
465.87	12465.69
466.05	12184.83
466.23	12198.87
466.41	12245.68
466.60	12589.74
466.78	11889.92
466.96	12135.68
467.14	12098.23
467.32	12421.22
467.51	12395.48
467.69	12154.40
467.87	12287.81
468.05	12287.81
468.23	12465.69
468.41	12723.15
468.60	12725.49
468.78	12762.94
468.96	12540.59
469.14	12744.22
469.32	13043.81
469.50	12545.27
469.69	13069.55
469.87	13022.74
470.05	13071.89
470.23	13039.12
470.41	12844.86
470.59	13174.88
470.77	13305.95
470.95	13184.24
471.14	13493.19
471.32	13022.74
471.50	13497.87
471.68	13483.83
471.86	13582.13
472.04	13841.93
472.22	14050.24
472.40	13535.32
472.58	13788.10
472.77	14061.94
472.95	14232.80
473.13	14588.56
473.31	14101.73
473.49	14202.37
473.67	14127.47
473.85	14099.39
474.03	14630.69
474.21	14429.40
474.39	14960.70
474.57	14850.70
474.75	14621.33
474.93	14946.66
475.12	14869.42
475.30	14956.02
475.48	14974.75
475.66	15304.76
475.84	15157.31
476.02	14993.47
476.20	15414.77
476.38	15569.24
476.56	16294.81
476.74	15903.94
476.92	15831.38
477.10	15644.14
477.28	16390.77
477.46	16079.48
477.64	16219.91
477.82	16397.79
478.00	16704.40
478.18	16734.83
478.36	16760.58
478.54	17071.87
478.72	17139.74
478.90	17315.28
479.08	17561.04
479.26	17547.00
479.44	17525.93
479.62	17855.95
479.80	17715.51
479.98	17877.01
480.16	18412.99
480.34	18031.49
480.52	18588.53
480.70	18518.32
480.88	18317.03
481.06	18534.70
481.24	18724.29
481.41	18890.46
481.59	19414.74
481.77	19639.44
481.95	19229.84
482.13	19782.21
482.31	19576.24
482.49	19962.43
482.67	20058.39
482.85	20519.48
483.03	20418.83
483.21	20491.39
483.39	20835.45
483.57	20882.26
483.74	21214.62
483.92	21376.11
484.10	21076.52
484.28	21699.11
484.46	21869.97
484.64	22125.08
484.82	21972.95
485.00	22333.39
485.18	22520.63
485.35	22979.38
485.53	22848.31
485.71	22941.93
485.89	23459.19
486.07	23342.16
486.25	23267.27
486.43	23321.10
486.61	23616.01
486.78	23990.49
486.96	23946.02
487.14	24390.72
487.32	24533.50
487.50	24727.76
487.68	24959.47
487.85	25378.43
488.03	25127.99
488.21	25591.42
488.39	25935.48
488.57	25881.64
488.75	26068.89
488.92	26553.38
489.10	26553.38
489.28	26541.68
489.46	26738.28
489.64	27012.12
489.81	27665.13
489.99	27733.01
490.17	27889.82
490.35	28002.17
490.53	28137.92
490.70	28601.35
490.88	27978.76
491.06	28765.18
491.24	28620.07
491.41	28940.72
491.59	29263.72
491.77	28767.52
491.95	29305.85
492.13	29469.69
492.30	30005.67
492.48	29888.64
492.66	30204.61
492.84	30307.60
493.01	30754.64
493.19	30462.07
493.37	30801.45
493.54	30859.96
493.72	31108.06
493.90	31295.30
494.08	31342.11
494.25	31587.87
494.43	31892.14
494.61	32376.63
494.79	32257.26
494.96	32304.07
495.14	32472.59
495.32	33060.07
495.49	33095.18
495.67	33127.94
495.85	33460.30
496.02	33645.20
496.20	33809.04
496.38	33947.13
496.55	33701.37
496.73	34733.55
496.91	34291.19
497.09	34321.62
497.26	34923.13
497.44	34656.31
497.62	35049.52
497.79	35526.99
497.97	35526.99
498.14	35709.55
498.32	35978.72
498.50	36046.59
498.67	36238.51
498.85	36203.41
499.03	36556.83
499.20	37081.11
499.38	36748.75
499.56	36980.46
499.73	36830.67
499.91	36935.99
500.08	37656.88
500.26	37031.96
500.44	37448.57
500.61	37893.27
500.79	37853.48
500.97	37708.37
501.14	38424.57
501.32	38469.04
501.49	38349.68
501.67	38588.41
501.84	38553.30
502.02	38829.49
502.20	38878.64
502.37	39159.50
502.55	39075.24
502.72	39431.01
502.90	38897.36
503.07	39267.17
503.25	39536.33
503.43	39948.26
503.60	39838.26
503.78	39828.90
503.95	40238.49
504.13	40208.06
504.30	40280.62
504.48	40168.27
504.65	40664.47
504.83	40989.80
505.01	41172.36
505.18	40978.10
505.36	41273.01
505.53	41111.51
505.71	41233.22
505.88	41816.01
506.06	41357.27
506.23	41865.16
506.41	41614.72
506.58	42169.43
506.76	41827.71
506.93	42288.80
507.11	41848.78
507.28	42293.48
507.46	42630.52
507.63	42356.67
507.81	43007.34
507.98	42763.93
508.16	43227.35
508.33	43065.86
508.50	43150.12
508.68	43344.38
508.85	44025.48
509.03	43768.02
509.20	43786.74
509.38	43353.74
509.55	44137.82
509.73	44273.57
509.90	44432.73
510.08	43917.81
510.25	44069.95
510.42	44900.84
510.60	44912.54
510.77	44935.95
510.95	45186.38
511.12	45525.76
511.30	44868.07
511.47	45186.38
511.64	44912.54
511.82	45591.30
511.99	45312.77
512.17	45647.47
512.34	45617.04
512.51	46344.95
512.69	46220.90
512.86	46167.07
513.04	46356.65
513.21	46532.19
513.38	46848.16
513.56	46726.46
513.73	46515.81
513.90	46707.73
514.08	46635.17
514.25	46995.62
514.43	47110.30
514.60	47299.89
514.77	47124.35
514.95	47590.11
515.12	47473.09
515.29	47388.83
515.47	47807.78
515.64	47842.89
515.81	47674.37
515.99	47922.47
516.16	48247.80
516.33	48364.83
516.51	48598.88
516.68	48168.22
516.85	48325.04
517.03	48692.50
517.20	48751.02
517.37	48512.28
517.54	48605.91
517.72	48779.10
517.89	48650.38
518.06	48863.36
518.24	49066.99
518.41	48971.03
518.58	49151.25
518.75	49015.50
518.93	49146.57
519.10	49605.31
519.27	49588.93
519.45	49469.56
519.62	49617.02
519.79	49750.43
519.96	49750.43
520.14	49918.95
520.31	49991.50
520.48	50092.15
520.65	50335.56
520.83	50571.96
521.00	50637.49
521.17	50312.16
521.34	50586.00
521.52	50602.38
521.69	50560.25
521.86	50873.88
522.03	51002.61
522.20	51344.33
522.38	51304.54
522.55	51346.67
522.72	51002.61
522.89	51236.67
523.07	51576.04
523.24	51292.84
523.41	51416.89
523.58	51243.69
523.75	51936.49
523.92	51426.25
524.10	51512.85
524.27	51978.62
524.44	51824.14
524.61	52055.85
524.78	52027.77
524.96	52170.54
525.13	52163.52
525.30	52250.12
525.47	52259.48
525.64	52428.00
525.81	52420.98
525.98	52554.39
526.16	52500.56
526.33	52788.44
526.50	52868.02
526.67	52809.51
526.84	52868.02
527.01	52945.26
527.18	52732.27
527.36	52587.16
527.53	52861.00
527.70	53301.02
527.87	53113.78
528.04	52893.77
528.21	53270.59
528.38	53235.48
528.55	53504.65
528.72	53106.76
528.89	53233.14
529.07	53298.68
529.24	53242.51
529.41	53794.87
529.58	53268.25
529.75	53588.91
529.92	53488.26
530.09	53792.53
530.26	53593.59
530.43	53895.52
530.60	53904.88
530.77	53687.21
530.94	53790.19
531.11	53717.64
531.28	54150.63
531.46	54124.89
531.63	54164.68
531.80	54309.79
531.97	54356.60
532.14	54169.36
532.31	54361.28
532.48	54365.96
532.65	54525.12
532.82	54368.30
532.99	54677.25
533.16	54461.93
533.33	54789.60
533.50	54740.45
533.67	54578.95
533.84	54873.86
534.01	54684.28
534.18	54780.24
534.35	55124.30
534.52	55105.57
534.69	55243.66
534.86	55091.53
535.03	54899.61
535.20	55264.73
535.37	55044.72
535.54	55173.45
535.71	55323.24
535.88	55121.96
536.05	55276.43
536.22	55508.14
536.38	55311.54
536.55	55194.51
536.72	55606.45
536.89	55536.23
537.06	55510.49
537.23	55550.27
537.40	55540.91
537.57	55554.96
537.74	55690.71
537.91	56044.13
538.08	55753.90
538.25	55676.66
538.42	55632.19
538.59	56023.06
538.75	56090.94
538.92	55721.13
539.09	56114.34
539.26	56069.87
539.43	55931.78
539.60	56172.86
539.77	56170.52
539.94	56336.69
540.11	56112.00
540.28	56451.38
540.44	56416.27
540.61	56306.27
540.78	56222.01
540.95	56214.99
541.12	56537.98
541.29	56097.96
541.46	56584.79
541.62	56500.53
541.79	56673.73
541.96	56317.97
542.13	56552.02
542.30	56605.86
542.47	56678.41
542.63	56683.09
542.80	56879.70
542.97	56985.02
543.14	57003.75
543.31	57179.29
543.48	57088.01
543.64	57153.54
543.81	57406.32
543.98	57071.62
544.15	57146.52
544.32	57055.24
544.48	57462.49
544.65	57350.15
544.82	57268.23
544.99	57216.74
545.16	57359.51
545.32	57453.13
545.49	57591.22
545.66	57631.01
545.83	57474.20
546.00	57584.20
546.16	57635.69
546.33	57425.04
546.50	57425.04
546.67	57490.58
546.83	57366.53
547.00	57631.01
547.17	57605.26
547.34	57715.27
547.50	57598.24
547.67	57829.96
547.84	57790.17
548.00	58000.82
548.17	58145.93
548.34	58176.36
548.51	58014.86
548.67	58124.86
548.84	58045.29
549.01	58014.86
549.18	57851.02
549.34	58019.54
549.51	58054.65
549.68	58094.44
549.84	58377.64
550.01	58288.70
550.18	58255.93
550.34	58375.30
550.51	58447.86
550.68	58291.04
550.84	58054.65
551.01	58401.05
551.18	58365.94
551.34	58445.52
551.51	58464.24
551.68	58576.59
551.84	58754.47
552.01	58284.02
552.18	58599.99
552.34	58585.95
552.51	58515.73
552.68	58375.30
552.84	58426.79
553.01	58866.81
553.18	58831.71
553.34	58803.62
553.51	58731.06
553.67	58864.47
553.84	58967.46
554.01	58908.94
554.17	58763.83
554.34	59082.14
554.51	58862.13
554.67	59047.04
554.84	58801.28
555.00	59023.63
555.17	59002.56
555.33	58958.09
555.50	58878.52
555.67	58918.31
555.83	58834.05
556.00	58967.46
556.16	59208.53
556.33	59243.64
556.50	59063.42
556.66	59133.63
556.83	58983.84
556.99	59374.71
557.16	59260.02
557.32	59313.86
557.49	59742.17
557.65	59152.36
557.82	59264.70
557.98	58906.60
558.15	59414.50
558.32	59395.77
558.48	59224.92
558.65	59374.71
558.81	59414.50
558.98	59618.13
559.14	59290.45
559.31	59568.97
559.47	59566.63
559.64	59756.22
559.80	59770.26
559.97	59592.38
560.13	59463.65
560.30	59367.69
560.46	59559.61
560.63	59664.94
560.79	59924.74
560.96	59863.88
561.12	59620.47
561.29	59599.40
561.45	59723.45
561.61	59810.05
561.78	59613.44
561.94	59695.36
562.11	59910.69
562.27	59948.14
562.44	59678.98
562.60	59744.51
562.77	59906.01
562.93	59669.62
563.10	60090.91
563.26	59791.33
563.42	59877.93
563.59	59882.61
563.75	60030.06
563.92	59777.28
564.08	59674.30
564.24	60004.31
564.41	59908.35
564.57	59896.65
564.74	59943.46
564.90	59845.16
565.07	59922.40
565.23	60013.68
565.39	60051.12
565.56	60135.38
565.72	60079.21
565.88	60023.04
566.05	60088.57
566.21	60039.42
566.38	60088.57
566.54	60238.37
566.70	60336.67
566.87	60238.37
567.03	59931.76
567.19	60413.91
567.36	60205.60
567.52	60254.75
567.68	60544.98
567.85	60109.64
568.01	60224.32
568.17	60280.50
568.34	60362.42
568.50	60081.55
568.66	60182.19
568.83	60271.14
568.99	60310.92
569.15	60327.31
569.32	60250.07
569.48	60301.56
569.64	60383.48
569.81	60282.84
569.97	60308.58
570.13	60306.24
570.30	60273.48
570.46	60477.10
570.62	60306.24
570.78	60296.88
570.95	60441.99
571.11	60563.70
571.27	60507.53
571.43	60441.99
571.60	60521.57
571.76	60420.93
571.92	60680.73
572.09	60463.06
572.25	60523.91
572.41	60348.37
572.57	60523.91
572.74	60645.62
572.90	60512.21
573.06	60533.28
573.22	60441.99
573.38	60568.38
573.55	60563.70
573.71	60889.04
573.87	60488.80
574.03	60430.29
574.20	60603.49
574.36	60392.84
574.52	60811.80
574.68	60537.96
574.84	60800.10
575.01	60636.26
575.17	60680.73
575.33	60542.64
575.49	60556.68
575.65	60519.23
575.82	60587.11
575.98	60739.24
576.14	60856.27
576.30	60640.94
576.46	60743.92
576.62	60750.94
576.79	60657.32
576.95	60629.24
577.11	60678.39
577.27	60748.60
577.43	60671.37
577.59	60594.13
577.75	60566.04
577.92	60664.35
578.08	60544.98
578.24	60690.09
578.40	60863.29
578.56	61015.43
578.72	60846.91
578.88	60903.08
579.04	60956.91
579.21	60743.92
579.37	60795.42
579.53	60832.86
579.69	60692.43
579.85	60673.71
580.01	60903.08
580.17	60638.60
580.33	60846.91
580.49	60814.14
580.65	60748.60
580.82	60774.35
580.98	60818.82
581.14	60701.79
581.30	60912.44
581.46	60786.05
581.62	60769.67
581.78	60741.58
581.94	60898.40
582.10	60837.54
582.26	60809.46
582.42	60652.64
582.58	60704.13
582.74	60893.72
582.90	60774.35
583.06	60779.03
583.22	60697.11
583.38	60825.84
583.54	60786.05
583.70	60830.52
583.86	61048.19
584.02	60774.35
584.18	61139.47
584.34	60839.89
584.50	60912.44
584.66	60903.08
584.82	60711.16
584.98	61099.68
585.14	61003.72
585.30	60846.91
585.46	60989.68
585.62	61041.17
585.78	61132.45
585.94	60872.65
586.10	60989.68
586.26	60879.67
586.42	60989.68
586.58	60985.00
586.74	60912.44
586.90	60975.64
587.06	60982.66
587.22	61214.37
587.38	60919.46
587.54	61057.56
587.70	61167.56
587.86	60935.85
588.02	60828.18
588.18	61071.60
588.34	60814.14
588.49	61029.47
