SpectraSuite Data File
++++++++++++++++++++++++++++++++++++
Date: Fri Oct 25 10:48:26 EDT 2013
User: price-jones
Dark Spectrum Present: No
Reference Spectrum Present: No
Number of Sampled Component Spectra: 1
Spectrometers: USB2+H05261
Integration Time (usec): 100000 (USB2+H05261)
Spectra Averaged: 1 (USB2+H05261)
Boxcar Smoothing: 0 (USB2+H05261)
Correct for Electrical Dark: No (USB2+H05261)
Strobe/Lamp Enabled: No (USB2+H05261)
Correct for Detector Non-linearity: No (USB2+H05261)
Correct for Stray Light: No (USB2+H05261)
Number of Pixels in Processed Spectrum: 2048
>>>>>Begin Processed Spectral Data<<<<<
365.73	91.28
365.92	91.28
366.12	91.28
366.32	67.88
366.52	60.85
366.72	95.96
366.91	37.45
367.11	14.04
367.31	0.00
367.51	39.79
367.70	91.28
367.90	81.92
368.10	16.38
368.30	105.32
368.49	63.19
368.69	14.04
368.89	74.90
369.09	56.17
369.28	177.88
369.48	11.70
369.68	128.73
369.87	100.64
370.07	138.09
370.27	205.97
370.47	229.37
370.66	346.40
370.86	437.68
371.06	440.02
371.25	493.85
371.45	482.15
371.65	470.45
371.84	486.83
372.04	482.15
372.24	528.96
372.44	496.19
372.63	524.28
372.83	503.22
373.03	526.62
373.22	493.85
373.42	486.83
373.62	608.54
373.81	566.41
374.01	575.77
374.21	533.64
374.40	493.85
374.60	613.22
374.79	617.90
374.99	535.98
375.19	545.34
375.38	596.84
375.58	610.88
375.78	592.16
375.97	550.03
376.17	568.75
376.37	643.65
376.56	645.99
376.76	641.31
376.95	641.31
377.15	559.39
377.35	643.65
377.54	727.91
377.74	627.26
377.93	645.99
378.13	734.93
378.33	727.91
378.52	667.05
378.72	690.46
378.91	638.97
379.11	629.60
379.31	723.23
379.50	653.01
379.70	667.05
379.89	688.12
380.09	643.65
380.28	690.46
380.48	695.14
380.68	718.54
380.87	706.84
381.07	737.27
381.26	734.93
381.46	755.99
381.65	662.37
381.85	624.92
382.04	746.63
382.24	748.97
382.43	746.63
382.63	692.80
382.83	734.93
383.02	730.25
383.22	685.78
383.41	711.52
383.61	653.01
383.80	760.67
384.00	807.48
384.19	727.91
384.39	779.40
384.58	791.10
384.78	805.14
384.97	812.17
385.17	781.74
385.36	772.38
385.56	875.36
385.75	800.46
385.95	788.76
386.14	781.74
386.34	744.29
386.53	826.21
386.72	903.45
386.92	823.87
387.11	880.04
387.31	786.42
387.50	772.38
387.70	830.89
387.89	858.98
388.09	870.68
388.28	968.98
388.48	933.87
388.67	929.19
388.86	924.51
389.06	901.11
389.25	954.94
389.45	999.41
389.64	809.83
389.84	1029.84
390.03	961.96
390.22	978.34
390.42	1100.05
390.61	915.15
390.81	933.87
391.00	1029.84
391.19	1025.15
391.39	1074.31
391.58	987.71
391.78	1083.67
391.97	1022.81
392.16	1039.20
392.36	1055.58
392.55	978.34
392.75	1008.77
392.94	936.21
393.13	1088.35
393.33	983.02
393.52	947.92
393.71	1109.41
393.91	1086.01
394.10	1149.20
394.29	1200.69
394.49	1095.37
394.68	1198.35
394.88	1217.08
395.07	1249.85
395.26	1179.63
395.46	1247.51
395.65	1259.21
395.84	1219.42
396.04	1287.29
396.23	1151.54
396.42	1160.91
396.62	1193.67
396.81	1228.78
397.00	1163.25
397.19	1214.74
397.39	1308.36
397.58	1357.51
397.77	1357.51
397.97	1256.87
398.16	1416.02
398.35	1413.68
398.55	1380.92
398.74	1502.62
398.93	1530.71
399.12	1493.26
399.32	1397.30
399.51	1444.11
399.70	1528.37
399.90	1497.94
400.09	1563.48
400.28	1572.84
400.47	1544.75
400.67	1584.54
400.86	1558.80
401.05	1465.18
401.24	1570.50
401.44	1624.33
401.63	1652.42
401.82	1713.27
402.01	1619.65
402.21	1689.87
402.40	1717.95
402.59	1724.97
402.78	1666.46
402.97	1736.68
403.17	1696.89
403.36	1732.00
403.55	1790.51
403.74	1755.40
403.93	1783.49
404.13	1811.57
404.32	1788.17
404.51	1685.19
404.70	1839.66
404.89	1834.98
405.09	1888.81
405.28	1895.83
405.47	1886.47
405.66	1860.73
405.85	1949.67
406.05	1863.07
406.24	1944.99
406.43	1996.48
406.62	1923.92
406.81	2005.84
407.00	2038.61
407.20	1982.43
407.39	2008.18
407.58	2001.16
407.77	2148.61
407.96	2050.31
408.15	2118.18
408.34	2216.49
408.54	2129.89
408.73	2094.78
408.92	2148.61
409.11	2221.17
409.30	2186.06
409.49	2165.00
409.68	2150.95
409.87	2232.87
410.07	2263.30
410.26	2232.87
410.45	2256.28
410.64	2338.20
410.83	2335.85
411.02	2415.43
411.21	2452.88
411.40	2382.67
411.59	2448.20
411.78	2506.71
411.98	2565.23
412.17	2457.56
412.36	2473.95
412.55	2649.49
412.74	2696.30
412.93	2572.25
413.12	2572.25
413.31	2745.45
413.50	2616.72
413.69	2719.70
413.88	2869.50
414.07	2668.21
414.26	2860.13
414.45	2822.69
414.64	2747.79
414.83	2827.37
415.02	3000.57
415.22	2925.67
415.41	3101.21
415.60	2967.80
415.79	3056.74
415.98	3019.29
416.17	3180.79
416.36	3152.70
416.55	3220.58
416.74	3012.27
416.93	3262.71
417.12	3265.05
417.31	3148.02
417.50	3227.60
417.69	3288.45
417.88	3421.86
418.07	3318.88
418.26	3297.81
418.45	3290.79
418.64	3463.99
418.83	3522.51
419.02	3442.93
419.21	3463.99
419.39	3515.48
419.58	3520.17
419.77	3414.84
419.96	3496.76
420.15	3548.25
420.34	3482.72
420.53	3566.98
420.72	3646.55
420.91	3749.54
421.10	3581.02
421.29	3641.87
421.48	3665.28
421.67	3758.90
421.86	3667.62
422.05	3625.49
422.24	3712.09
422.43	3651.24
422.61	3653.58
422.80	3728.47
422.99	3721.45
423.18	3873.59
423.37	3840.82
423.56	3810.39
423.75	3691.02
423.94	3768.26
424.13	3684.00
424.32	3613.79
424.50	3948.48
424.69	3911.04
424.88	3868.91
425.07	3777.62
425.26	3723.79
425.45	3826.78
425.64	3866.56
425.83	3950.82
426.01	3843.16
426.20	3810.39
426.39	3920.40
426.58	3817.41
426.77	3836.14
426.96	3775.28
427.15	3845.50
427.33	3880.61
427.52	4074.87
427.71	3901.67
427.90	3922.74
428.09	4009.34
428.28	3974.23
428.46	4100.62
428.65	3971.89
428.84	4081.89
429.03	4177.86
429.22	3943.80
429.40	3999.98
429.59	4046.79
429.78	3920.40
429.97	3833.80
430.16	3990.61
430.34	3983.59
430.53	4074.87
430.72	4121.68
430.91	4332.33
431.10	4327.65
431.28	4376.80
431.47	4428.29
431.66	4636.60
431.85	4458.72
432.03	4498.51
432.22	4641.28
432.41	4447.02
432.60	4456.38
432.79	4486.81
432.97	4617.88
433.16	4489.15
433.35	4498.51
433.54	4468.08
433.72	4456.38
433.91	4533.62
434.10	4592.13
434.28	4613.20
434.47	4662.35
434.66	4779.37
434.85	4800.44
435.03	4880.02
435.22	4657.67
435.41	4823.84
435.59	4964.28
435.78	4868.31
435.97	4910.44
436.16	4931.51
436.34	4943.21
436.53	5057.90
436.72	5011.09
436.90	4786.40
437.09	5123.43
437.28	4802.78
437.46	5095.35
437.65	4905.76
437.84	5029.81
438.02	4973.64
438.21	5259.18
438.40	5006.41
438.58	5121.09
438.77	5317.70
438.96	5193.65
439.14	5411.32
439.33	5486.22
439.52	5547.07
439.70	5526.00
439.89	5479.19
440.08	5645.37
440.26	5619.63
440.45	5668.78
440.63	5561.11
440.82	5755.38
441.01	5526.00
441.19	5741.33
441.38	5895.81
441.57	5893.47
441.75	5933.26
441.94	6221.14
442.12	6113.48
442.31	6265.61
442.50	6017.52
442.68	6134.54
442.87	6083.05
443.05	6176.67
443.24	6197.74
443.43	6071.35
443.61	6260.93
443.80	6310.08
443.98	6076.03
444.17	6080.71
444.35	6157.95
444.54	6513.71
444.73	6338.17
444.91	6150.93
445.10	6239.87
445.28	6216.46
445.47	6085.39
445.65	6155.61
445.84	6338.17
446.02	6420.09
446.21	6338.17
446.39	6389.66
446.58	6370.94
446.77	6326.47
446.95	6450.52
447.14	6485.62
447.32	6485.62
447.51	6389.66
447.69	6424.77
447.88	6534.78
448.06	6375.62
448.25	6504.35
448.43	6640.10
448.62	6406.05
448.80	6633.08
448.99	6682.23
449.17	6682.23
449.36	6443.49
449.54	6731.38
449.73	6827.34
449.91	6825.00
450.10	6862.45
450.28	6918.62
450.46	6867.13
450.65	6857.77
450.83	6820.32
451.02	6850.75
451.20	6937.35
451.39	6944.37
451.57	6803.94
451.76	6841.39
451.94	6808.62
452.13	6988.84
452.31	6834.36
452.49	6733.72
452.68	7061.40
452.86	6869.47
453.05	7009.90
453.23	7246.30
453.42	7302.47
453.60	7124.59
453.78	7129.27
453.97	7012.24
454.15	7211.19
454.34	7190.13
454.52	7316.51
454.70	7159.70
454.89	7229.91
455.07	7356.30
455.26	7452.27
455.44	7438.22
455.62	7463.97
455.81	7447.58
455.99	7529.50
456.17	7538.87
456.36	7641.85
456.54	7346.94
456.73	7639.51
456.91	7730.79
457.09	7875.90
457.28	7918.03
457.46	7602.06
457.64	7892.29
457.83	7747.17
458.01	7744.83
458.19	7906.33
458.38	7775.26
458.56	7964.84
458.74	8098.25
458.93	7852.50
459.11	7995.27
459.29	8042.08
459.48	7896.97
459.66	8037.40
459.84	8004.63
460.03	8255.07
460.21	8147.40
460.39	8222.30
460.57	7913.35
460.76	8222.30
460.94	8421.25
461.12	8482.10
461.31	8463.38
461.49	8238.69
461.67	8285.50
461.85	8404.86
462.04	8362.73
462.22	8924.46
462.40	8638.92
462.59	8674.03
462.77	8627.21
462.95	8568.70
463.13	8549.98
463.32	8582.74
463.50	8641.26
463.68	8678.71
463.86	8798.07
464.05	8592.11
464.23	8645.94
464.41	8814.46
464.59	8641.26
464.78	8957.23
464.96	8903.40
465.14	8877.65
465.32	8872.97
465.50	9104.68
465.69	8910.42
465.87	9011.06
466.05	8933.82
466.23	8919.78
466.41	8819.14
466.60	9074.26
466.78	8943.19
466.96	8922.12
467.14	9076.60
467.32	9085.96
467.51	9191.28
467.69	8924.46
467.87	9238.09
468.05	9245.12
468.23	8978.30
468.41	9289.59
468.60	9179.58
468.78	9359.80
468.96	9266.18
469.14	9284.91
469.32	9437.04
469.50	9352.78
469.69	9413.63
469.87	9511.94
470.05	9497.89
470.23	9551.73
470.41	9584.49
470.59	9563.43
470.77	9579.81
470.95	9741.31
471.14	9905.15
471.32	9760.03
471.50	9830.25
471.68	9830.25
471.86	9958.98
472.04	10125.16
472.22	10171.97
472.40	10080.69
472.58	10029.20
472.77	10097.07
472.95	10305.38
473.13	10485.60
473.31	10036.22
473.49	10061.96
473.67	10125.16
473.85	10197.71
474.03	10490.28
474.21	10511.35
474.39	10719.65
474.57	10644.76
474.75	10490.28
474.93	10930.30
475.12	10803.91
475.30	10942.00
475.48	10824.98
475.66	10909.24
475.84	10780.51
476.02	11152.65
476.20	11075.42
476.38	11438.20
476.56	11524.80
476.74	11370.32
476.92	11403.09
477.10	11576.29
477.28	11660.55
477.46	11620.76
477.64	11777.58
477.82	11918.01
478.00	12241.00
478.18	12138.02
478.36	12161.42
478.54	12449.31
478.72	12416.54
478.90	12503.14
479.08	12585.06
479.26	12746.56
479.44	12744.22
479.62	12805.07
479.80	12999.34
479.98	13121.04
480.16	13495.53
480.34	13041.46
480.52	13348.08
480.70	13411.27
480.88	13542.34
481.06	13497.87
481.24	13453.40
481.41	13862.99
481.59	13741.29
481.77	13998.74
481.95	14291.31
482.13	14368.55
482.31	14092.37
482.49	14457.49
482.67	14211.73
482.85	14516.00
483.03	14775.80
483.21	14810.91
483.39	14815.59
483.57	15037.94
483.74	15328.17
483.92	15311.78
484.10	15232.21
484.28	15281.36
484.46	15758.83
484.64	15840.75
484.82	15733.08
485.00	15873.51
485.18	16161.40
485.35	15822.02
485.53	15798.62
485.71	15765.85
485.89	16107.57
486.07	16027.99
486.25	16084.16
486.43	16374.39
486.61	16664.61
486.78	16688.02
486.96	17156.13
487.14	17366.78
487.32	17231.02
487.50	17664.02
487.68	17411.25
487.85	17813.82
488.03	17919.14
488.21	18036.17
488.39	17902.76
488.57	18373.21
488.75	18572.15
488.92	18356.82
489.10	18845.99
489.28	18883.44
489.46	18963.02
489.64	19461.55
489.81	19129.20
489.99	19634.75
490.17	19552.84
490.35	19599.65
490.53	19716.67
490.70	20025.62
490.88	19805.61
491.06	20517.14
491.24	20259.68
491.41	20437.56
491.59	20175.42
491.77	20294.79
491.95	20781.62
492.13	20809.70
492.30	21305.90
492.48	20945.45
492.66	21057.80
492.84	20971.20
493.01	21376.11
493.19	21181.85
493.37	21518.89
493.54	21774.00
493.72	22216.36
493.90	21944.86
494.08	22602.55
494.25	22324.03
494.43	22574.47
494.61	22647.02
494.79	22955.97
494.96	22757.03
495.14	22890.44
495.32	23271.95
495.49	23140.88
495.67	23260.24
495.85	23496.64
496.02	23674.52
496.20	23681.54
496.38	23889.85
496.55	23955.38
496.73	24584.99
496.91	24126.24
497.09	24254.97
497.26	24526.47
497.44	24357.96
497.62	24254.97
497.79	24875.21
497.97	24339.23
498.14	24758.19
498.32	25015.65
498.50	25083.52
498.67	25352.68
498.85	25511.84
499.03	25593.76
499.20	25556.31
499.38	25624.18
499.56	25942.50
499.73	25989.31
499.91	25867.60
500.08	25874.62
500.26	25963.56
500.44	26087.61
500.61	26129.74
500.79	26188.25
500.97	26338.05
501.14	26314.64
501.32	26558.06
501.49	26368.48
501.67	26415.29
501.84	27065.96
502.02	26986.38
502.20	27030.85
502.37	27435.76
502.55	27222.77
502.72	27428.74
502.90	27498.95
503.07	27454.48
503.25	27520.02
503.43	27220.43
503.60	27786.84
503.78	27812.59
503.95	27892.16
504.13	27744.71
504.30	28257.29
504.48	27885.14
504.65	27681.52
504.83	28102.81
505.01	28769.86
505.18	28313.46
505.36	29006.26
505.53	28540.49
505.71	29132.65
505.88	28823.70
506.06	28561.56
506.23	29254.36
506.41	28758.16
506.58	29186.48
506.76	29160.73
506.93	29811.40
507.11	29256.70
507.28	29357.34
507.46	29404.15
507.63	29717.78
507.81	29685.01
507.98	29331.59
508.16	29724.80
508.33	30103.97
508.50	30127.38
508.68	30286.53
508.85	30384.83
509.03	30174.19
509.20	30143.76
509.38	30518.25
509.55	30658.68
509.73	30419.94
509.90	30380.15
510.08	30532.29
510.25	30972.31
510.42	30881.03
510.60	31108.06
510.77	31208.70
510.95	31089.34
511.12	31101.04
511.30	31440.42
511.47	31889.80
511.64	31744.69
511.82	31810.22
511.99	31585.53
512.17	31674.47
512.34	31627.66
512.51	31920.23
512.69	31772.77
512.86	32077.04
513.04	32385.99
513.21	32030.23
513.38	31857.03
513.56	32177.68
513.73	32275.99
513.90	32318.12
514.08	32100.45
514.25	32737.07
514.43	32730.05
514.60	32765.16
514.77	32790.91
514.95	32685.58
515.12	32652.81
515.29	32987.51
515.47	33663.93
515.64	33289.44
515.81	33397.10
515.99	33186.46
516.16	33392.42
516.33	32746.44
516.51	33387.74
516.68	32624.73
516.85	32924.32
517.03	33298.80
517.20	33532.86
517.37	33837.12
517.54	33848.83
517.72	33741.16
517.89	33645.20
518.06	33532.86
518.24	33567.96
518.41	33797.34
518.58	33984.58
518.75	34338.00
518.93	34450.35
519.10	33963.51
519.27	34110.97
519.45	34541.63
519.62	34632.91
519.79	34747.59
519.96	34677.38
520.14	34965.26
520.31	34969.94
520.48	34995.69
520.65	35014.41
520.83	35552.74
521.00	35271.87
521.17	34904.41
521.34	35819.56
521.52	35292.94
521.69	35496.56
521.86	35739.98
522.03	35515.29
522.20	35461.46
522.38	35849.99
522.55	36147.23
522.72	36018.50
522.89	35917.86
523.07	36191.70
523.24	35646.36
523.41	36055.95
523.58	36416.40
523.75	36041.91
523.92	36449.16
524.10	36847.05
524.27	36889.18
524.44	36861.10
524.61	36835.35
524.78	36666.83
524.96	36912.59
525.13	36437.46
525.30	37546.87
525.47	36952.38
525.64	37076.43
525.81	37118.56
525.98	37163.03
526.16	37099.83
526.33	37055.36
526.50	37228.56
526.67	36842.37
526.84	37057.70
527.01	37074.09
527.18	37296.44
527.36	37816.04
527.53	37446.23
527.70	37287.07
527.87	38061.79
528.04	37771.57
528.21	38321.59
528.38	37603.05
528.55	38361.38
528.72	38005.62
528.89	38279.46
529.07	38422.23
529.24	38557.99
529.41	38326.27
529.58	38181.16
529.75	37820.72
529.92	38586.07
530.09	38398.83
530.26	38555.64
530.43	38520.54
530.60	38438.62
530.77	38469.04
530.94	39012.05
531.11	38462.02
531.28	38672.67
531.46	38998.01
531.63	38904.38
531.80	39105.67
531.97	39005.03
532.14	39248.44
532.31	38934.81
532.48	38630.54
532.65	39096.31
532.82	38801.40
532.99	39332.70
533.16	38843.53
533.33	39239.08
533.50	39697.83
533.67	39386.54
533.84	39669.74
534.01	39262.49
534.18	39363.13
534.35	39831.24
534.52	39611.23
534.69	39524.63
534.86	40226.79
535.03	39761.02
535.20	40322.75
535.37	39974.01
535.54	40353.18
535.71	40025.50
535.88	40271.26
536.05	39978.69
536.22	40608.29
536.38	40318.07
536.55	40306.37
536.72	40425.73
536.89	39981.03
537.06	40086.36
537.23	40517.01
537.40	40252.53
537.57	40641.06
537.74	40467.86
537.91	41045.97
538.08	41067.04
538.25	40161.25
538.42	40755.75
538.59	40938.31
538.75	40397.65
538.92	40472.54
539.09	40828.30
539.26	41345.56
539.43	40968.74
539.60	41151.30
539.77	40725.32
539.94	40877.46
540.11	40856.39
540.28	41024.91
540.44	40966.40
540.61	40622.34
540.78	41368.97
540.95	41022.57
541.12	41268.33
541.29	41090.44
541.46	41701.32
541.62	41387.69
541.79	41684.94
541.96	41301.09
542.13	41294.07
542.30	41645.15
542.47	41453.23
542.63	41507.06
542.80	42220.92
542.97	42031.34
543.14	42073.47
543.31	41731.75
543.48	42033.68
543.64	42356.67
543.81	43021.39
543.98	42232.63
544.15	42120.28
544.32	42351.99
544.48	42370.72
544.65	42646.90
544.82	43002.66
544.99	41975.17
545.16	41888.57
545.32	42667.97
545.49	42855.21
545.66	42866.91
545.83	42382.42
546.00	42852.87
546.16	42784.99
546.33	42843.51
546.50	42415.19
546.67	42387.10
546.83	42492.43
547.00	42553.28
547.17	42579.03
547.34	42995.64
547.50	42644.56
547.67	43189.91
547.84	42438.59
548.00	43459.07
548.17	43217.99
548.34	42962.87
548.51	43309.27
548.67	43489.49
548.84	43290.55
549.01	42953.51
549.18	43360.76
549.34	43484.81
549.51	43412.26
549.68	43969.30
549.84	43473.11
550.01	43587.80
550.18	43430.98
550.34	43798.44
550.51	43236.72
550.68	43562.05
550.84	43353.74
551.01	43700.14
551.18	43880.36
551.34	43735.25
551.51	43873.34
551.68	43943.56
551.84	44304.00
552.01	43826.53
552.18	44275.91
552.34	43117.35
552.51	43859.30
552.68	44177.61
552.84	44154.21
553.01	44313.36
553.18	43941.22
553.34	44168.25
553.51	44229.10
553.67	44151.87
553.84	44629.34
554.01	44229.10
554.17	44130.80
554.34	44542.74
554.51	44376.56
554.67	44748.70
554.84	44268.89
555.00	44509.97
555.17	44236.12
555.33	44711.25
555.50	44676.15
555.67	44678.49
555.83	44839.98
556.00	44610.61
556.16	45102.12
556.33	44652.74
556.50	44451.45
556.66	44364.85
556.83	44304.00
556.99	44849.35
557.16	44495.92
557.32	44886.79
557.49	44729.98
557.65	44610.61
557.82	44545.08
557.98	44891.48
558.15	44463.16
558.32	45109.14
558.48	44935.95
558.65	45003.82
558.81	44657.42
558.98	44945.31
559.14	45209.79
559.31	44683.17
559.47	45158.30
559.64	45319.79
559.80	45418.10
559.97	45151.27
560.13	45064.67
560.30	45043.61
560.46	44900.84
560.63	45158.30
560.79	44933.60
560.96	45319.79
561.12	45385.33
561.29	45083.40
561.45	45132.55
561.61	44856.37
561.78	45191.06
561.94	45165.32
562.11	45265.96
562.27	44980.42
562.44	45577.25
562.60	45392.35
562.77	45457.88
562.93	44982.76
563.10	45492.99
563.26	44779.13
563.42	45390.01
563.59	44774.45
563.75	45151.27
563.92	45415.76
564.08	45727.05
564.24	45813.65
564.41	45495.33
564.57	45326.81
564.74	45717.68
564.90	45703.64
565.07	45834.71
565.23	45291.71
565.39	45155.96
565.56	45640.45
565.72	45296.39
565.88	45799.60
566.05	45563.21
566.21	45485.97
566.38	45441.50
566.54	45242.56
566.70	45633.42
566.87	46323.88
567.03	45780.88
567.19	46043.02
567.36	45525.76
567.52	45511.72
567.68	45219.15
567.85	45460.23
568.01	45659.17
568.17	45198.09
568.34	45848.75
568.50	45944.72
568.66	45425.12
568.83	45521.08
568.99	45270.64
569.15	45764.49
569.32	45532.78
569.48	45462.57
569.64	46134.30
569.81	45958.76
569.97	45848.75
570.13	45663.85
570.30	45635.77
570.46	45560.87
570.62	45324.47
570.78	45280.00
570.95	45762.15
571.11	45815.99
571.27	45549.17
571.43	45570.23
571.60	46211.54
571.76	46078.13
571.92	45420.44
572.09	46054.72
572.25	45808.96
572.41	45694.28
572.57	46047.70
572.74	46731.14
572.90	46089.83
573.06	46223.24
573.22	45820.67
573.38	45605.34
573.55	45851.09
573.71	45804.28
573.87	45640.45
574.03	45815.99
574.20	45776.20
574.36	45778.54
574.52	45811.31
574.68	45783.22
574.84	46064.08
575.01	45820.67
575.17	45984.51
575.33	45717.68
575.49	45518.74
575.65	46340.27
575.82	46614.11
575.98	45567.89
576.14	46106.21
576.30	45867.48
576.46	45523.42
576.62	46003.23
576.79	45787.90
576.95	45448.52
577.11	45808.96
577.27	45813.65
577.43	46113.23
577.59	46061.74
577.75	46284.09
577.92	45380.65
578.08	45825.35
578.24	45780.88
578.40	45727.05
578.56	45696.62
578.72	45916.63
578.88	46092.17
579.04	46284.09
579.21	45961.10
579.37	45492.99
579.53	46082.81
579.69	45464.91
579.85	45851.09
580.01	46073.45
580.17	45984.51
580.33	46211.54
580.49	46003.23
580.65	46799.01
580.82	45970.46
580.98	45935.35
581.14	45729.39
581.30	46450.27
581.46	45790.24
581.62	45640.45
581.78	45958.76
581.94	46445.59
582.10	46169.41
582.26	46087.49
582.42	46064.08
582.58	46314.52
582.74	46237.28
582.90	46447.93
583.06	46342.61
583.22	46377.72
583.38	46431.55
583.54	46138.98
583.70	46195.15
583.86	46672.62
584.02	46263.03
584.18	46017.27
584.34	46092.17
584.50	45998.55
584.66	46185.79
584.82	46146.00
584.98	46340.27
585.14	46183.45
585.30	46050.04
585.46	46117.92
585.62	45677.90
585.78	45928.33
585.94	45914.29
586.10	45855.78
586.26	46092.17
586.42	46136.64
586.58	46368.35
586.74	46337.93
586.90	45823.01
587.06	46124.94
587.22	46160.05
587.38	45881.52
587.54	46199.83
587.70	46473.68
587.86	45872.16
588.02	46150.68
588.18	46012.59
588.34	46258.35
588.49	46003.23
588.65	45705.98
588.81	45916.63
588.97	45928.33
589.13	45640.45
589.29	45996.21
589.45	46000.89
589.61	46101.53
589.77	46536.87
589.93	45825.35
590.08	46539.21
