SpectraSuite Data File
++++++++++++++++++++++++++++++++++++
Date: Fri Oct 25 11:23:27 EDT 2013
User: price-jones
Dark Spectrum Present: No
Reference Spectrum Present: No
Number of Sampled Component Spectra: 1
Spectrometers: USB2+H05261
Integration Time (usec): 100000 (USB2+H05261)
Spectra Averaged: 1 (USB2+H05261)
Boxcar Smoothing: 0 (USB2+H05261)
Correct for Electrical Dark: No (USB2+H05261)
Strobe/Lamp Enabled: No (USB2+H05261)
Correct for Detector Non-linearity: No (USB2+H05261)
Correct for Stray Light: No (USB2+H05261)
Number of Pixels in Processed Spectrum: 2048
>>>>>Begin Processed Spectral Data<<<<<
365.73	266.82
365.92	266.82
366.12	266.82
366.32	142.77
366.52	95.96
366.72	135.75
366.91	138.09
367.11	119.37
367.31	131.07
367.51	74.90
367.70	84.26
367.90	105.32
368.10	124.05
368.30	138.09
368.49	65.54
368.69	112.35
368.89	107.66
369.09	105.32
369.28	161.50
369.48	126.39
369.68	121.71
369.87	231.71
370.07	217.67
370.27	203.63
370.47	304.27
370.66	575.77
370.86	606.20
371.06	650.67
371.25	645.99
371.45	660.03
371.65	695.14
371.84	650.67
372.04	746.63
372.24	653.01
372.44	634.29
372.63	739.61
372.83	685.78
373.03	763.01
373.22	795.78
373.42	779.40
373.62	772.38
373.81	819.19
374.01	774.72
374.21	835.57
374.40	770.04
374.60	758.33
374.79	746.63
374.99	882.38
375.19	833.23
375.38	830.89
375.58	760.67
375.78	912.81
375.97	870.68
376.17	856.64
376.37	887.06
376.56	840.25
376.76	917.49
376.95	779.40
377.15	966.64
377.35	858.98
377.54	802.80
377.74	896.43
377.93	842.59
378.13	938.55
378.33	950.26
378.52	940.90
378.72	870.68
378.91	1041.54
379.11	901.11
379.31	924.51
379.50	873.02
379.70	929.19
379.89	938.55
380.09	910.47
380.28	994.73
380.48	950.26
380.68	940.90
380.87	943.24
381.07	966.64
381.26	964.30
381.46	1029.84
381.65	1064.94
381.85	1067.28
382.04	1057.92
382.24	1067.28
382.43	1039.20
382.63	1039.20
382.83	1020.47
383.02	1011.11
383.22	1114.10
383.41	1048.56
383.61	971.32
383.80	1149.20
384.00	1118.78
384.19	1095.37
384.39	1184.31
384.58	1196.01
384.78	1121.12
384.97	1205.38
385.17	1228.78
385.36	1114.10
385.56	1090.69
385.75	1181.97
385.95	1097.71
386.14	1259.21
386.34	1174.95
386.53	1261.55
386.72	1203.04
386.92	1217.08
387.11	1219.42
387.31	1247.51
387.50	1245.16
387.70	1261.55
387.89	1357.51
388.09	1280.27
388.28	1188.99
388.48	1263.89
388.67	1376.24
388.86	1308.36
389.06	1336.45
389.25	1378.58
389.45	1392.62
389.64	1376.24
389.84	1399.64
390.03	1390.28
390.22	1523.69
390.42	1338.79
390.61	1446.45
390.81	1299.00
391.00	1345.81
391.19	1441.77
391.39	1418.36
391.58	1430.07
391.78	1481.56
391.97	1521.35
392.16	1439.43
392.36	1565.82
392.55	1460.49
392.75	1551.78
392.94	1493.26
393.13	1401.98
393.33	1488.58
393.52	1497.94
393.71	1603.27
393.91	1610.29
394.10	1598.59
394.29	1586.88
394.49	1540.07
394.68	1678.16
394.88	1589.22
395.07	1621.99
395.26	1631.35
395.46	1614.97
395.65	1675.82
395.84	1792.85
396.04	1834.98
396.23	1762.42
396.42	1715.61
396.62	1727.32
396.81	1713.27
397.00	1746.04
397.19	1844.34
397.39	1823.28
397.58	1879.45
397.77	1879.45
397.97	1921.58
398.16	1872.43
398.35	1921.58
398.55	1849.02
398.74	1902.86
398.93	1923.92
399.12	1827.96
399.32	1874.77
399.51	1881.79
399.70	2040.95
399.90	1956.69
400.09	2085.42
400.28	2040.95
400.47	2003.50
400.67	2076.06
400.86	2001.16
401.05	2015.20
401.24	2101.80
401.44	2054.99
401.63	2211.81
401.82	2209.47
402.01	2174.36
402.21	2101.80
402.40	2139.25
402.59	2183.72
402.78	2165.00
402.97	2289.04
403.17	2209.47
403.36	2214.15
403.55	2225.85
403.74	2445.86
403.93	2363.94
404.13	2401.39
404.32	2282.02
404.51	2335.85
404.70	2413.09
404.89	2368.62
405.09	2511.39
405.28	2445.86
405.47	2410.75
405.66	2464.58
405.85	2445.86
406.05	2518.42
406.24	2614.38
406.43	2583.95
406.62	2696.30
406.81	2555.86
407.00	2581.61
407.20	2642.46
407.39	2597.99
407.58	2766.51
407.77	2712.68
407.96	2764.17
408.15	2806.30
408.34	2691.62
408.54	2855.45
408.73	2864.82
408.92	2897.58
409.11	2825.03
409.30	2944.39
409.49	2925.67
409.68	2967.80
409.87	2937.37
410.07	2965.46
410.26	3005.25
410.45	3009.93
410.64	3096.53
410.83	3068.44
411.02	3066.10
411.21	3169.09
411.40	2991.20
411.59	3225.26
411.78	3152.70
411.98	3258.03
412.17	3201.85
412.36	3316.54
412.55	3400.80
412.74	3471.01
412.93	3304.84
413.12	3459.31
413.31	3676.98
413.50	3482.72
413.69	3482.72
413.88	3597.40
414.07	3705.07
414.26	3672.30
414.45	3751.88
414.64	3684.00
414.83	3824.44
415.02	3857.20
415.22	3782.31
415.41	3925.08
415.60	3896.99
415.79	3939.12
415.98	4058.49
416.17	3974.23
416.36	3976.57
416.55	4107.64
416.74	4056.15
416.93	3985.93
417.12	4156.79
417.31	4079.55
417.50	4004.66
417.69	4182.54
417.88	4217.65
418.07	4297.22
418.26	4341.69
418.45	4315.95
418.64	4510.21
418.83	4500.85
419.02	4404.89
419.21	4582.77
419.39	4638.94
419.58	4507.87
419.77	4461.06
419.96	4692.77
420.15	4573.41
420.34	4500.85
420.53	4564.04
420.72	4690.43
420.91	4816.82
421.10	4697.46
421.29	4664.69
421.48	4856.61
421.67	4617.88
421.86	4858.95
422.05	4940.87
422.24	4816.82
422.43	4964.28
422.61	4954.91
422.80	5015.77
422.99	4933.85
423.18	4908.10
423.37	4992.36
423.56	4891.72
423.75	4905.76
423.94	4601.49
424.13	4690.43
424.32	4919.81
424.50	4830.87
424.69	5090.67
424.88	4994.70
425.07	4961.94
425.26	5006.41
425.45	4919.81
425.64	4919.81
425.83	5008.75
426.01	5046.20
426.20	5097.69
426.39	5064.92
426.58	5060.24
426.77	4922.15
426.96	5310.68
427.15	5193.65
427.33	5256.84
427.52	5104.71
427.71	5334.08
427.90	5179.61
428.09	5179.61
428.28	5366.85
428.46	5362.17
428.65	5385.57
428.84	5455.79
429.03	5577.50
429.22	5341.10
429.40	5565.79
429.59	5504.94
429.78	5390.25
429.97	5277.91
430.16	5397.28
430.34	5685.16
430.53	5820.91
430.72	5816.23
430.91	5561.11
431.10	5640.69
431.28	5605.58
431.47	5781.12
431.66	5820.91
431.85	5755.38
432.03	5966.03
432.22	6015.18
432.41	5813.89
432.60	5863.04
432.79	5809.21
432.97	5959.00
433.16	5968.37
433.35	5944.96
433.54	6047.94
433.72	5954.32
433.91	6113.48
434.10	6204.76
434.28	6090.07
434.47	6171.99
434.66	6174.33
434.85	6289.02
435.03	6368.60
435.22	6342.85
435.41	6483.28
435.59	6384.98
435.78	6476.26
435.97	6478.60
436.16	6431.79
436.34	6443.49
436.53	6546.48
436.72	6869.47
436.90	6366.26
437.09	6593.29
437.28	6614.35
437.46	6689.25
437.65	6722.02
437.84	6719.68
438.02	6747.76
438.21	6883.52
438.40	6626.06
438.58	6890.54
438.77	7164.38
438.96	6965.43
439.14	7222.89
439.33	7162.04
439.52	7131.61
439.70	7180.76
439.89	7351.62
440.08	7424.18
440.26	7330.56
440.45	7494.40
440.63	7543.55
440.82	7705.04
441.01	7569.29
441.19	7559.93
441.38	7606.74
441.57	7793.98
441.75	8067.83
441.94	8067.83
442.12	8004.63
442.31	7896.97
442.50	7967.18
442.68	7946.12
442.87	8091.23
443.05	8203.58
443.24	8138.04
443.43	8248.05
443.61	8290.18
443.80	8173.15
443.98	8112.30
444.17	7878.24
444.35	8098.25
444.54	8454.02
444.73	8313.58
444.91	8266.77
445.10	8280.82
445.28	8383.80
445.47	8308.90
445.65	8468.06
445.84	8482.10
446.02	8444.65
446.21	8411.89
446.39	8395.50
446.58	8313.58
446.77	8379.12
446.95	8334.65
447.14	8294.86
447.32	8702.11
447.51	8449.33
447.69	8393.16
447.88	8664.66
448.06	8425.93
448.25	8463.38
448.43	8767.65
448.62	8748.92
448.80	8437.63
448.99	8669.34
449.17	9036.81
449.36	8599.13
449.54	8837.86
449.73	9097.66
449.91	9022.77
450.10	9029.79
450.28	9240.44
450.46	9011.06
450.65	8971.27
450.83	8990.00
451.02	8978.30
451.20	9177.24
451.39	9254.48
451.57	9069.58
451.76	9172.56
451.94	9205.33
452.13	9364.48
452.31	9481.51
452.49	9057.87
452.68	9406.61
452.86	9406.61
453.05	9390.23
453.23	9619.60
453.42	9408.95
453.60	9465.13
453.78	9514.28
453.97	9455.76
454.15	9671.09
454.34	9518.96
454.52	9832.59
454.70	9846.63
454.89	9720.24
455.07	9848.97
455.26	9977.70
455.44	10040.90
455.62	9804.50
455.81	10132.18
455.99	9916.85
456.17	10045.58
456.36	10076.01
456.54	9928.55
456.73	10366.23
456.91	10560.50
457.09	10464.54
457.28	10459.85
457.46	10188.35
457.64	10328.78
457.83	10387.30
458.01	10473.90
458.19	10658.80
458.38	10609.65
458.56	10651.78
458.74	10696.25
458.93	10771.15
459.11	10689.23
459.29	10899.87
459.48	10864.77
459.66	10803.91
459.84	11005.20
460.03	11019.24
460.21	10874.13
460.39	10895.19
460.57	11009.88
460.76	10904.56
460.94	11321.17
461.12	11311.81
461.31	11066.05
461.49	11229.89
461.67	11234.57
461.85	11470.97
462.04	11410.11
462.22	11819.71
462.40	11737.79
462.59	11527.14
462.77	11566.93
462.95	11548.20
463.13	11426.50
463.32	11522.46
463.50	11838.43
463.68	11793.96
463.86	11847.79
464.05	11721.40
464.23	11859.49
464.41	11936.73
464.59	11693.32
464.78	12170.79
464.96	11887.58
465.14	11800.98
465.32	12177.81
465.50	12009.29
465.69	12123.98
465.87	12278.45
466.05	11999.93
466.23	12212.92
466.41	12156.74
466.60	12358.03
466.78	12308.88
466.96	12189.51
467.14	12229.30
467.32	12332.28
467.51	12575.70
467.69	12154.40
467.87	12372.07
468.05	12517.18
468.23	12308.88
468.41	12531.23
468.60	12559.31
468.78	12638.89
468.96	12395.48
469.14	12856.56
469.32	12877.63
469.50	12835.50
469.69	13104.66
469.87	13158.49
470.05	13067.21
470.23	12994.65
470.41	13135.09
470.59	13437.02
470.77	13277.86
470.95	13310.63
471.14	13657.03
471.32	13083.59
471.50	13598.51
471.68	13504.89
471.86	13741.29
472.04	13654.69
472.22	14228.12
472.40	13404.25
472.58	13699.16
472.77	13860.65
472.95	14185.99
473.13	14513.66
473.31	14094.71
473.49	14101.73
473.67	14223.44
473.85	14368.55
474.03	14689.20
474.21	14750.06
474.39	14813.25
474.57	14686.86
474.75	14843.68
474.93	14911.55
475.12	14930.28
475.30	15328.17
475.48	15098.80
475.66	15365.62
475.84	15131.56
476.02	15587.97
476.20	15515.41
476.38	15896.92
476.56	16037.35
476.74	15976.50
476.92	16032.67
477.10	15922.66
477.28	16100.55
477.46	16067.78
477.64	16196.51
477.82	16578.01
478.00	16996.97
478.18	16823.77
478.36	16858.88
478.54	17261.45
478.72	17575.08
478.90	17348.05
479.08	17610.19
479.26	17806.80
479.44	17898.08
479.62	17748.28
479.80	18054.89
479.98	18288.95
480.16	18778.12
480.34	18082.98
480.52	18515.98
480.70	18621.30
480.88	18408.31
481.06	19033.24
481.24	18951.32
481.41	19248.57
481.59	19403.04
481.77	19548.15
481.95	19723.69
482.13	19700.29
482.31	19969.45
482.49	20430.54
482.67	20091.16
482.85	20624.80
483.03	20755.87
483.21	20833.11
483.39	20830.77
483.57	20950.14
483.74	21369.09
483.92	21329.30
484.10	21303.56
484.28	21570.38
484.46	21872.31
484.64	22464.46
484.82	22008.06
485.00	22256.15
485.18	22499.57
485.35	23035.55
485.53	23016.83
485.71	23028.53
485.89	23288.33
486.07	23384.29
486.25	23648.77
486.43	23325.78
486.61	24030.28
486.78	23985.81
486.96	24379.02
487.14	24491.37
487.32	24781.59
487.50	24491.37
487.68	25296.51
487.85	25645.25
488.03	25450.99
488.21	25958.88
488.39	25851.22
488.57	26167.19
488.75	26103.99
488.92	26263.15
489.10	26356.77
489.28	27035.53
489.46	27117.45
489.64	26841.26
489.81	27683.86
489.99	27534.06
490.17	27833.65
490.35	28268.99
490.53	28297.08
490.70	28336.87
490.88	28526.45
491.06	28725.39
491.24	28861.15
491.41	28821.36
491.59	29689.70
491.77	29369.04
491.95	29949.50
492.13	29741.19
492.30	29907.37
492.48	30405.90
492.66	30157.80
492.84	30235.04
493.01	31016.78
493.19	30773.36
493.37	31159.55
493.54	31353.82
493.72	31470.84
493.90	31475.52
494.08	32149.60
494.25	32367.27
494.43	32512.38
494.61	32212.79
494.79	32339.18
494.96	32865.80
495.14	32891.55
495.32	33207.52
495.49	33359.66
495.67	33177.09
495.85	33598.39
496.02	33762.23
496.20	34085.22
496.38	34277.15
496.55	34281.83
496.73	34958.24
496.91	34866.96
497.09	34866.96
497.26	34962.92
497.44	35475.50
497.62	35510.61
497.79	36123.83
497.97	35620.61
498.14	36257.24
498.32	36484.27
498.50	36388.31
498.67	36531.08
498.85	36278.30
499.03	36720.66
499.20	36931.31
499.38	36978.12
499.56	37174.73
499.73	37041.32
499.91	37502.40
500.08	37631.13
500.26	37486.02
500.44	38026.68
500.61	38029.02
500.79	37965.83
500.97	38237.33
501.14	38864.60
501.32	38953.54
501.49	39037.80
501.67	38623.52
501.84	38969.92
502.02	38782.68
502.20	38913.75
502.37	39580.80
502.55	39435.69
502.72	39454.41
502.90	39515.26
503.07	39585.48
503.25	39868.69
503.43	40135.51
503.60	40107.42
503.78	40442.12
503.95	40507.65
504.13	40678.51
504.30	40545.10
504.48	40395.31
504.65	40664.47
504.83	40898.52
505.01	41434.50
505.18	41146.62
505.36	41872.18
505.53	41401.74
505.71	41689.62
505.88	41469.61
506.06	41600.68
506.23	42267.73
506.41	41907.29
506.58	42146.03
506.76	42426.89
506.93	42658.60
507.11	42274.76
507.28	42260.71
507.46	43107.99
507.63	43119.69
507.81	43412.26
507.98	43056.50
508.16	43056.50
508.33	43386.51
508.50	43667.37
508.68	44238.47
508.85	44032.50
509.03	43526.94
509.20	43915.47
509.38	44404.64
509.55	44481.88
509.73	44189.31
509.90	44505.29
510.08	44793.17
510.25	44828.28
510.42	44720.62
510.60	45013.18
510.77	45532.78
510.95	45462.57
511.12	45258.94
511.30	44858.71
511.47	45434.48
511.64	45865.14
511.82	45949.40
511.99	45713.00
512.17	45907.27
512.34	46382.40
512.51	46469.00
512.69	46457.29
512.86	46548.57
513.04	46810.71
513.21	46810.71
513.38	46953.49
513.56	46731.14
513.73	46735.82
513.90	47192.22
514.08	47189.88
514.25	47400.53
514.43	47587.77
514.60	47943.53
514.77	47463.72
514.95	47704.80
515.12	47662.67
515.29	47725.86
515.47	47817.14
515.64	48383.55
515.81	48533.35
515.99	48446.75
516.16	48680.80
516.33	48566.12
516.51	48570.80
516.68	48451.43
516.85	48601.22
517.03	49052.95
517.20	49137.21
517.37	48924.22
517.54	49258.91
517.72	49242.53
517.89	49378.28
518.06	49429.77
518.24	49373.60
518.41	49481.27
518.58	49446.16
518.75	49474.24
518.93	49595.95
519.10	49574.89
519.27	50274.71
519.45	49970.44
519.62	50075.76
519.79	50092.15
519.96	50127.25
520.14	50253.64
520.31	50052.36
520.48	50382.37
520.65	50323.86
520.83	50834.10
521.00	50983.89
521.17	50571.96
521.34	50665.58
521.52	50967.51
521.69	51159.43
521.86	50813.03
522.03	51007.29
522.20	51152.41
522.38	51498.81
522.55	51435.61
522.72	51309.22
522.89	51459.02
523.07	51625.20
523.24	51632.22
523.41	51646.26
523.58	51379.44
523.75	51934.15
523.92	51763.29
524.10	52381.19
524.27	52266.50
524.44	52163.52
524.61	52046.49
524.78	52093.30
524.96	52404.59
525.13	52580.13
525.30	52430.34
525.47	52690.14
525.64	52643.33
525.81	52734.61
525.98	52584.82
526.16	52849.30
526.33	52905.47
526.50	52767.38
526.67	52713.55
526.84	52982.71
527.01	52987.39
527.18	52804.83
527.36	52928.87
527.53	53073.99
527.70	53443.79
527.87	53317.40
528.04	53492.94
528.21	53443.79
528.38	53317.40
528.55	53593.59
528.72	53205.06
528.89	53226.12
529.07	53506.99
529.24	53593.59
529.41	53675.51
529.58	53801.89
529.75	53762.11
529.92	53846.36
530.09	54026.59
530.26	54169.36
530.43	54253.62
530.60	53844.02
530.77	54162.34
530.94	54323.83
531.11	54237.23
531.28	54213.83
531.46	54183.40
531.63	54344.90
531.80	54169.36
531.97	54335.54
532.14	54560.23
532.31	54223.19
532.48	54632.78
532.65	54897.27
532.82	54527.46
532.99	54728.75
533.16	54564.91
533.33	54883.22
533.50	55105.57
533.67	54887.90
533.84	54965.14
534.01	54869.18
534.18	55150.04
534.35	55119.62
534.52	55150.04
534.69	55311.54
534.86	55098.55
535.03	55145.36
535.20	55299.84
535.37	55587.72
535.54	55416.86
535.71	55419.20
535.88	55377.08
536.05	55503.46
536.22	55639.22
536.38	55625.17
536.55	55674.32
536.72	55777.31
536.89	55622.83
537.06	55695.39
537.23	55992.64
537.40	55676.66
537.57	55606.45
537.74	55901.36
537.91	55929.44
538.08	56123.71
538.25	55847.52
538.42	56013.70
538.59	56233.71
538.75	55648.58
538.92	56004.34
539.09	56378.82
539.26	56271.16
539.43	56039.45
539.60	56058.17
539.77	56399.89
539.94	56465.42
540.11	56378.82
540.28	56416.27
540.44	56547.34
540.61	56423.29
540.78	56526.28
540.95	56727.56
541.12	56161.15
541.29	56509.89
541.46	56535.64
541.62	56580.11
541.79	56650.33
541.96	56385.85
542.13	56493.51
542.30	56849.27
542.47	56772.03
542.63	56903.10
542.80	57090.35
542.97	57064.60
543.14	56999.07
543.31	57286.95
543.48	57228.44
543.64	57450.79
543.81	57551.43
543.98	57116.09
544.15	57209.71
544.32	57544.41
544.48	57570.16
544.65	57502.28
544.82	57628.67
544.99	57371.21
545.16	57490.58
545.32	57478.88
545.49	57715.27
545.66	58092.10
545.83	57537.39
546.00	57696.55
546.16	57689.52
546.33	57748.04
546.50	57593.56
546.67	58040.60
546.83	57731.65
547.00	57888.47
547.17	57928.26
547.34	57862.72
547.50	58021.88
547.67	57879.11
547.84	58007.84
548.00	58183.38
548.17	58333.17
548.34	58124.86
548.51	58241.89
548.67	58202.10
548.84	58361.26
549.01	58349.56
549.18	58127.20
549.34	58281.68
549.51	58272.32
549.68	58426.79
549.84	58520.41
550.01	58539.14
550.18	58347.21
550.34	58471.26
550.51	58522.76
550.68	58504.03
550.84	58410.41
551.01	58525.10
551.18	58850.43
551.34	58590.63
551.51	58742.77
551.68	58607.01
551.84	58848.09
552.01	58611.70
552.18	58937.03
552.34	58525.10
552.51	58878.52
552.68	58504.03
552.84	58557.86
553.01	59044.69
553.18	58735.74
553.34	58841.07
553.51	58838.73
553.67	58724.04
553.84	58972.14
554.01	58965.12
554.17	59159.38
554.34	58850.43
554.51	58915.96
554.67	59086.82
554.84	58988.52
555.00	59243.64
555.17	58988.52
555.33	59128.95
555.50	59131.29
555.67	59143.00
555.83	59084.48
556.00	59231.94
556.16	59344.28
556.33	59416.84
556.50	59309.18
556.66	59632.17
556.83	59260.02
556.99	59573.66
557.16	59437.90
557.32	59526.84
557.49	59650.89
557.65	59428.54
557.82	59208.53
557.98	59447.27
558.15	59517.48
558.32	59580.68
558.48	59391.09
558.65	59510.46
558.81	59669.62
558.98	59728.13
559.14	59683.66
559.31	59683.66
559.47	59765.58
559.64	59779.62
559.80	59592.38
559.97	59723.45
560.13	59709.41
560.30	59838.14
560.46	59810.05
560.63	59751.54
560.79	59788.98
560.96	60107.30
561.12	59929.42
561.29	59831.11
561.45	59987.93
561.61	59721.11
561.78	60060.49
561.94	59948.14
562.11	59978.57
562.27	59959.84
562.44	59955.16
562.60	60067.51
562.77	60137.72
562.93	59835.80
563.10	60060.49
563.26	59866.22
563.42	60083.89
563.59	60144.75
563.75	60090.91
563.92	60212.62
564.08	59784.30
564.24	60306.24
564.41	59997.29
564.57	60051.12
564.74	60207.94
564.90	60193.90
565.07	59952.82
565.23	60210.28
565.39	60182.19
565.56	60212.62
565.72	60149.43
565.88	59976.23
566.05	60018.36
566.21	60126.02
566.38	60296.88
566.54	60423.27
566.70	60566.04
566.87	60250.07
567.03	60116.66
567.19	60486.46
567.36	60135.38
567.52	60343.69
567.68	60542.64
567.85	60388.16
568.01	60449.02
568.17	60317.95
568.34	60446.68
568.50	60289.86
568.66	60418.59
568.83	60486.46
568.99	60399.86
569.15	60507.53
569.32	60456.04
569.48	60465.40
569.64	60683.07
569.81	60610.51
569.97	60399.86
570.13	60568.38
570.30	60402.21
570.46	60573.06
570.62	60491.15
570.78	60563.70
570.95	60556.68
571.11	60596.47
571.27	60519.23
571.43	60439.65
571.60	60736.90
571.76	60542.64
571.92	60664.35
572.09	60556.68
572.25	60624.56
572.41	60626.90
572.57	60472.42
572.74	60748.60
572.90	60636.26
573.06	60650.30
573.22	60750.94
573.38	60837.54
573.55	60638.60
573.71	60856.27
573.87	60921.80
574.03	60449.02
574.20	60793.07
574.36	60626.90
574.52	60884.36
574.68	60802.44
574.84	60959.25
575.01	61015.43
575.17	60874.99
575.33	60814.14
575.49	60566.04
575.65	60926.49
575.82	60896.06
575.98	60736.90
576.14	60996.70
576.30	60874.99
576.46	60828.18
576.62	60802.44
576.79	60914.78
576.95	60748.60
577.11	60907.76
577.27	60891.38
577.43	60896.06
577.59	60776.69
577.75	60755.63
577.92	60617.53
578.08	60790.73
578.24	60961.59
578.40	61055.21
578.56	61069.26
578.72	60804.78
578.88	61062.24
579.04	61233.10
579.21	60961.59
579.37	61162.88
579.53	61034.15
579.69	60662.00
579.85	60818.82
580.01	61069.26
580.17	61022.45
580.33	61017.77
580.49	60996.70
580.65	60947.55
580.82	60722.86
580.98	60858.61
581.14	60940.53
581.30	61043.51
581.46	60900.74
581.62	61141.81
581.78	60987.34
581.94	61113.73
582.10	60982.66
582.26	61010.74
582.42	60809.46
582.58	60938.19
582.74	60898.40
582.90	61022.45
583.06	60853.93
583.22	60699.45
583.38	60945.21
583.54	61221.39
583.70	61057.56
583.86	60977.98
584.02	60872.65
584.18	61165.22
584.34	61148.84
584.50	60933.51
584.66	60933.51
584.82	60828.18
584.98	60947.55
585.14	61155.86
585.30	60889.04
585.46	61303.31
585.62	61123.09
585.78	61216.71
585.94	60846.91
586.10	60898.40
586.26	61062.24
586.42	61083.30
586.58	61153.52
586.74	61186.28
586.90	61066.92
587.06	60985.00
587.22	61277.57
587.38	61160.54
587.54	61043.51
587.70	61244.80
587.86	61062.24
588.02	61087.98
588.18	61083.30
588.34	61010.74
588.49	61169.90
