SpectraSuite Data File
++++++++++++++++++++++++++++++++++++
Date: Fri Oct 25 11:33:16 EDT 2013
User: price-jones
Dark Spectrum Present: No
Reference Spectrum Present: No
Number of Sampled Component Spectra: 1
Spectrometers: USB2+H05261
Integration Time (usec): 100000 (USB2+H05261)
Spectra Averaged: 1 (USB2+H05261)
Boxcar Smoothing: 0 (USB2+H05261)
Correct for Electrical Dark: No (USB2+H05261)
Strobe/Lamp Enabled: No (USB2+H05261)
Correct for Detector Non-linearity: No (USB2+H05261)
Correct for Stray Light: No (USB2+H05261)
Number of Pixels in Processed Spectrum: 2048
>>>>>Begin Processed Spectral Data<<<<<
365.73	290.23
365.92	290.23
366.12	290.23
366.32	231.71
366.52	159.16
366.72	212.99
366.91	184.90
367.11	126.39
367.31	145.11
367.51	175.54
367.70	194.26
367.90	177.88
368.10	159.16
368.30	149.79
368.49	145.11
368.69	201.29
368.89	201.29
369.09	180.22
369.28	259.80
369.48	159.16
369.68	236.39
369.87	243.42
370.07	187.24
370.27	304.27
370.47	297.25
370.66	524.28
370.86	507.90
371.06	631.94
371.25	540.66
371.45	470.45
371.65	589.82
371.84	510.24
372.04	550.03
372.24	559.39
372.44	568.75
372.63	582.79
372.83	545.34
373.03	601.52
373.22	571.09
373.42	573.43
373.62	648.33
373.81	664.71
374.01	643.65
374.21	674.07
374.40	608.54
374.60	592.16
374.79	573.43
374.99	627.26
375.19	706.84
375.38	688.12
375.58	669.39
375.78	697.48
375.97	725.57
376.17	704.50
376.37	655.35
376.56	660.03
376.76	699.82
376.95	685.78
377.15	718.54
377.35	779.40
377.54	711.52
377.74	713.86
377.93	669.39
378.13	727.91
378.33	699.82
378.52	727.91
378.72	667.05
378.91	730.25
379.11	732.59
379.31	681.10
379.50	695.14
379.70	655.35
379.89	795.78
380.09	732.59
380.28	683.44
380.48	720.88
380.68	755.99
380.87	730.25
381.07	837.91
381.26	753.65
381.46	802.80
381.65	767.70
381.85	753.65
382.04	739.61
382.24	744.29
382.43	758.33
382.63	781.74
382.83	725.57
383.02	861.32
383.22	788.76
383.41	798.12
383.61	779.40
383.80	854.30
384.00	767.70
384.19	809.83
384.39	786.42
384.58	851.96
384.78	849.61
384.97	688.12
385.17	802.80
385.36	891.74
385.56	833.23
385.75	901.11
385.95	933.87
386.14	826.21
386.34	826.21
386.53	760.67
386.72	861.32
386.92	821.53
387.11	910.47
387.31	919.83
387.50	807.48
387.70	880.04
387.89	929.19
388.09	840.25
388.28	835.57
388.48	889.40
388.67	940.90
388.86	968.98
389.06	901.11
389.25	903.45
389.45	912.81
389.64	933.87
389.84	964.30
390.03	943.24
390.22	966.64
390.42	1020.47
390.61	926.85
390.81	1025.15
391.00	1069.62
391.19	1048.56
391.39	985.37
391.58	997.07
391.78	929.19
391.97	1086.01
392.16	978.34
392.36	1114.10
392.55	938.55
392.75	1064.94
392.94	1041.54
393.13	999.41
393.33	1015.79
393.52	1039.20
393.71	1151.54
393.91	1088.35
394.10	1121.12
394.29	1104.73
394.49	1064.94
394.68	1196.01
394.88	1226.44
395.07	1149.20
395.26	1184.31
395.46	1165.59
395.65	1249.85
395.84	1252.19
396.04	1242.82
396.23	1235.80
396.42	1158.57
396.62	1238.14
396.81	1242.82
397.00	1270.91
397.19	1196.01
397.39	1231.12
397.58	1167.93
397.77	1207.72
397.97	1423.05
398.16	1252.19
398.35	1282.61
398.55	1313.04
398.74	1329.42
398.93	1390.28
399.12	1359.85
399.32	1261.55
399.51	1355.17
399.70	1336.45
399.90	1329.42
400.09	1397.30
400.28	1329.42
400.47	1387.94
400.67	1413.68
400.86	1441.77
401.05	1451.13
401.24	1425.39
401.44	1558.80
401.63	1629.01
401.82	1458.15
402.01	1490.92
402.21	1481.56
402.40	1486.24
402.59	1486.24
402.78	1565.82
402.97	1504.96
403.17	1521.35
403.36	1523.69
403.55	1556.46
403.74	1732.00
403.93	1654.76
404.13	1617.31
404.32	1579.86
404.51	1736.68
404.70	1544.75
404.89	1657.10
405.09	1717.95
405.28	1678.16
405.47	1647.74
405.66	1769.44
405.85	1785.83
406.05	1607.95
406.24	1654.76
406.43	1600.93
406.62	1816.26
406.81	1851.36
407.00	1783.49
407.20	1715.61
407.39	1827.96
407.58	1799.87
407.77	1895.83
407.96	1937.96
408.15	1935.62
408.34	1900.52
408.54	1900.52
408.73	1928.60
408.92	1989.46
409.11	1888.81
409.30	1984.77
409.49	2008.18
409.68	1977.75
409.87	2099.46
410.07	2106.48
410.26	2263.30
410.45	2165.00
410.64	2045.63
410.83	2127.55
411.02	2157.97
411.21	2179.04
411.40	2270.32
411.59	2195.42
411.78	2202.44
411.98	2094.78
412.17	2258.62
412.36	2232.87
412.55	2235.21
412.74	2331.17
412.93	2415.43
413.12	2387.35
413.31	2483.31
413.50	2555.86
413.69	2487.99
413.88	2516.08
414.07	2466.92
414.26	2562.89
414.45	2471.61
414.64	2605.02
414.83	2619.06
415.02	2565.23
415.22	2684.59
415.41	2609.70
415.60	2792.26
415.79	2513.74
415.98	2775.88
416.17	2700.98
416.36	2766.51
416.55	2689.28
416.74	2799.28
416.93	2895.24
417.12	2792.26
417.31	2841.41
417.50	2902.26
417.69	2874.18
417.88	2963.12
418.07	3016.95
418.26	3021.63
418.45	3110.57
418.64	3246.32
418.83	3094.19
419.02	3108.23
419.21	3126.96
419.39	3225.26
419.58	3122.27
419.77	3145.68
419.96	3187.81
420.15	3211.22
420.34	3192.49
420.53	3061.42
420.72	3110.57
420.91	3185.47
421.10	3267.39
421.29	3267.39
421.48	3290.79
421.67	3349.31
421.86	3325.90
422.05	3258.03
422.24	3307.18
422.43	3384.41
422.61	3337.60
422.80	3398.46
422.99	3447.61
423.18	3496.76
423.37	3538.89
423.56	3452.29
423.75	3426.54
423.94	3405.48
424.13	3171.43
424.32	3232.28
424.50	3534.21
424.69	3611.45
424.88	3684.00
425.07	3428.88
425.26	3485.06
425.45	3503.78
425.64	3576.34
425.83	3454.63
426.01	3510.80
426.20	3613.79
426.39	3531.87
426.58	3492.08
426.77	3569.32
426.96	3604.42
427.15	3632.51
427.33	3648.90
427.52	3552.93
427.71	3751.88
427.90	3646.55
428.09	3747.20
428.28	3735.50
428.46	3721.45
428.65	3723.79
428.84	3700.39
429.03	3854.86
429.22	3637.19
429.40	3599.74
429.59	3777.62
429.78	3562.30
429.97	3597.40
430.16	3845.50
430.34	3798.69
430.53	3882.95
430.72	3889.97
430.91	3922.74
431.10	3985.93
431.28	4009.34
431.47	4044.45
431.66	4088.92
431.85	4021.04
432.03	4016.36
432.22	4138.07
432.41	4252.75
432.60	4100.62
432.79	4124.02
432.97	4112.32
433.16	4081.89
433.35	4051.47
433.54	4152.11
433.72	4229.35
433.91	4264.46
434.10	4264.46
434.28	4173.18
434.47	4369.78
434.66	4285.52
434.85	4339.35
435.03	4468.08
435.22	4365.10
435.41	4414.25
435.59	4411.91
435.78	4498.51
435.97	4451.70
436.16	4468.08
436.34	4477.44
436.53	4400.21
436.72	4589.79
436.90	4547.66
437.09	4538.30
437.28	4456.38
437.46	4716.18
437.65	4496.17
437.84	4622.56
438.02	4617.88
438.21	4683.41
438.40	4690.43
438.58	4795.76
438.77	4837.89
438.96	4744.27
439.14	4875.34
439.33	4940.87
439.52	4854.27
439.70	4987.68
439.89	5055.56
440.08	5277.91
440.26	5057.90
440.45	4961.94
440.63	5163.22
440.82	5291.95
441.01	4968.96
441.19	5174.92
441.38	5193.65
441.57	5298.97
441.75	5586.86
441.94	5305.99
442.12	5352.81
442.31	5563.45
442.50	5469.83
442.68	5399.62
442.87	5446.43
443.05	5612.60
443.24	5577.50
443.43	5610.26
443.61	5605.58
443.80	5748.36
443.98	5589.20
444.17	5444.09
444.35	5502.60
444.54	5687.50
444.73	5568.13
444.91	5682.82
445.10	5722.61
445.28	5827.93
445.47	5568.13
445.65	5640.69
445.84	5867.72
446.02	5790.49
446.21	5738.99
446.39	5722.61
446.58	5757.72
446.77	5928.58
446.95	5575.16
447.14	5652.39
447.32	5949.64
447.51	5856.02
447.69	5783.46
447.88	5689.84
448.06	5708.57
448.25	5841.98
448.43	5947.30
448.62	5973.05
448.80	5748.36
448.99	5944.96
449.17	5942.62
449.36	5858.36
449.54	5994.11
449.73	6106.46
449.91	6146.25
450.10	6235.19
450.28	6246.89
450.46	6120.50
450.65	6207.10
450.83	6132.20
451.02	6272.64
451.20	6272.64
451.39	6200.08
451.57	6279.66
451.76	6260.93
451.94	6225.82
452.13	6384.98
452.31	6345.19
452.49	6434.13
452.68	6389.66
452.86	6321.79
453.05	6523.07
453.23	6462.22
453.42	6359.24
453.60	6370.94
453.78	6581.59
453.97	6459.88
454.15	6518.39
454.34	6511.37
454.52	6569.88
454.70	6581.59
454.89	6647.12
455.07	6654.14
455.26	6609.67
455.44	6696.27
455.62	6682.23
455.81	6710.32
455.99	6911.60
456.17	6827.34
456.36	6848.41
456.54	7035.65
456.73	6792.23
456.91	6810.96
457.09	7098.84
457.28	7096.50
457.46	6820.32
457.64	7140.97
457.83	7159.70
458.01	6942.03
458.19	7339.92
458.38	7117.57
458.56	7241.62
458.74	7389.07
458.93	7323.54
459.11	7365.67
459.29	7164.38
459.48	7293.11
459.66	7393.75
459.84	7405.46
460.03	7592.70
460.21	7283.75
460.39	7440.56
460.57	7569.29
460.76	7510.78
460.94	7581.00
461.12	7562.27
461.31	7581.00
461.49	7611.42
461.67	7480.35
461.85	7857.18
462.04	7595.04
462.22	8180.17
462.40	7822.07
462.59	7871.22
462.77	7957.82
462.95	7693.34
463.13	7674.62
463.32	7840.79
463.50	7943.78
463.68	8042.08
463.86	8170.81
464.05	8049.10
464.23	8065.49
464.41	7906.33
464.59	7754.19
464.78	8163.79
464.96	8219.96
465.14	7934.42
465.32	8102.93
465.50	8177.83
465.69	8252.73
465.87	8011.65
466.05	8234.00
466.23	8308.90
466.41	8318.26
466.60	8468.06
466.78	8304.22
466.96	8325.29
467.14	8252.73
467.32	8374.44
467.51	8421.25
467.69	8156.77
467.87	8383.80
468.05	8695.09
468.23	8255.07
468.41	8339.33
468.60	8603.81
468.78	8458.70
468.96	8557.00
469.14	8585.08
469.32	8704.45
469.50	8580.40
469.69	8786.37
469.87	8692.75
470.05	8912.76
470.23	8919.78
470.41	8879.99
470.59	9013.40
470.77	8966.59
470.95	8964.25
471.14	9193.62
471.32	8915.10
471.50	9006.38
471.68	9210.01
471.86	9240.44
472.04	9242.78
472.22	9387.89
472.40	9303.63
472.58	9170.22
472.77	9462.79
472.95	9493.21
473.13	10026.86
473.31	9579.81
473.49	9483.85
473.67	9458.10
473.85	9635.99
474.03	9982.38
474.21	9542.36
474.39	10050.26
474.57	10059.62
474.75	9966.00
474.93	10148.56
475.12	10064.30
475.30	10211.76
475.48	10244.52
475.66	10235.16
475.84	10394.32
476.02	10225.80
476.20	10218.78
476.38	10352.19
476.56	10686.89
476.74	10691.57
476.92	10607.31
477.10	10644.76
477.28	10815.62
477.46	10888.17
477.64	11129.25
477.82	11208.83
478.00	11197.12
478.18	11267.34
478.36	11447.56
478.54	11499.05
478.72	11461.60
478.90	11576.29
479.08	11922.69
479.26	11887.58
479.44	11552.88
479.62	11929.71
479.80	12250.36
479.98	12175.47
480.16	12306.54
480.34	12156.74
480.52	12264.41
480.70	12379.09
480.88	12123.98
481.06	12271.43
481.24	12582.72
481.41	12666.98
481.59	12879.97
481.77	12837.84
481.95	13076.57
482.13	13146.79
482.31	13004.02
482.49	13476.80
482.67	13413.61
482.85	13593.83
483.03	13811.50
483.21	13893.42
483.39	14033.85
483.57	13811.50
483.74	13963.64
483.92	14104.07
484.10	14167.26
484.28	14469.19
484.46	14815.59
484.64	15087.09
484.82	14490.26
485.00	14853.04
485.18	15042.62
485.35	15309.44
485.53	14799.21
485.71	15234.55
485.89	15674.57
486.07	15515.41
486.25	15283.70
486.43	15618.39
486.61	15831.38
486.78	15852.45
486.96	15831.38
487.14	16386.09
487.32	16128.63
487.50	16631.85
487.68	16505.46
487.85	16868.24
488.03	16943.14
488.21	17319.96
488.39	16989.95
488.57	17549.34
488.75	17635.94
488.92	17291.88
489.10	17788.07
489.28	17701.47
489.46	17788.07
489.64	17963.61
489.81	18314.69
489.99	18370.86
490.17	18515.98
490.35	18434.06
490.53	18789.82
490.70	18429.38
490.88	18902.17
491.06	19176.01
491.24	19239.20
491.41	19304.74
491.59	19234.52
491.77	19374.95
491.95	19576.24
492.13	19536.45
492.30	19651.14
492.48	19583.26
492.66	20128.61
492.84	20130.95
493.01	20400.11
493.19	20467.98
493.37	20795.66
493.54	20992.26
493.72	20840.13
493.90	20978.22
494.08	20973.54
494.25	21106.95
494.43	21083.55
494.61	21369.09
494.79	21600.80
494.96	21448.67
495.14	21678.04
495.32	21855.92
495.49	21851.24
495.67	21998.70
495.85	22221.05
496.02	22457.44
496.20	22771.07
496.38	22574.47
496.55	22759.37
496.73	23183.01
496.91	22778.09
497.09	22810.86
497.26	22953.63
497.44	23168.96
497.62	23243.86
497.79	23735.37
497.97	23370.25
498.14	23693.24
498.32	23899.21
498.50	23915.59
498.67	24205.82
498.85	24521.79
499.03	24489.03
499.20	24301.78
499.38	24594.35
499.56	24767.55
499.73	24762.87
499.91	24687.97
500.08	25170.12
500.26	24776.91
500.44	25048.41
500.61	24800.32
500.79	25074.16
500.97	25142.03
501.14	25666.31
501.32	25254.38
501.49	25181.82
501.67	25745.89
501.84	26122.72
502.02	25727.17
502.20	25729.51
502.37	25680.36
502.55	26082.93
502.72	26553.38
502.90	26174.21
503.07	26415.29
503.25	26345.07
503.43	26370.82
503.60	26813.18
503.78	26665.72
503.95	26679.77
504.13	26859.99
504.30	27281.28
504.48	26916.16
504.65	27370.22
504.83	27342.14
505.01	27470.87
505.18	27182.98
505.36	27674.49
505.53	27751.73
505.71	28095.79
505.88	27948.34
506.06	27520.02
506.23	27805.56
506.41	27590.24
506.58	28032.60
506.76	27992.81
506.93	28339.21
507.11	28547.51
507.28	28596.67
507.46	28601.35
507.63	28451.55
507.81	28769.86
507.98	28858.81
508.16	29020.30
508.33	29048.39
508.50	28919.66
508.68	28840.08
508.85	29312.87
509.03	29109.24
509.20	29298.83
509.38	29326.91
509.55	29584.37
509.73	29511.81
509.90	29785.66
510.08	29666.29
510.25	29942.47
510.42	29958.86
510.60	29853.53
510.77	29907.37
510.95	30389.52
511.12	30204.61
511.30	30326.32
511.47	30513.56
511.64	30527.61
511.82	30756.98
511.99	30419.94
512.17	31042.53
512.34	30649.32
512.51	31096.36
512.69	31508.29
512.86	30941.88
513.04	31381.90
513.21	31580.85
513.38	31831.29
513.56	31840.65
513.73	31321.05
513.90	31716.60
514.08	31487.23
514.25	31707.24
514.43	31665.11
514.60	31686.17
514.77	31854.69
514.95	32264.28
515.12	32189.39
515.29	32128.53
515.47	32084.06
515.64	32643.45
515.81	32465.57
515.99	32397.70
516.16	32636.43
516.33	32723.03
516.51	33127.94
516.68	32549.83
516.85	32636.43
517.03	33256.67
517.20	33167.73
517.37	33163.05
517.54	33141.99
517.72	33237.95
517.89	33186.46
518.06	33352.63
518.24	33544.56
518.41	33406.47
518.58	33729.46
518.75	33163.05
518.93	33923.72
519.10	33652.22
519.27	33755.21
519.45	33865.21
519.62	34024.37
519.79	34040.75
519.96	33909.68
520.14	34244.38
520.31	34487.79
520.48	34216.29
520.65	34469.07
520.83	34616.52
521.00	34787.38
521.17	35267.19
521.34	35016.75
521.52	34906.75
521.69	35077.61
521.86	34841.21
522.03	35089.31
522.20	35051.86
522.38	35388.90
522.55	35449.75
522.72	35524.65
522.89	35807.86
523.07	35952.97
523.24	35990.42
523.41	35847.64
523.58	35318.68
523.75	35721.26
523.92	36095.74
524.10	36271.28
524.27	35931.90
524.44	36376.61
524.61	36311.07
524.78	36261.92
524.96	36687.90
525.13	36320.43
525.30	36601.30
525.47	36807.26
525.64	36669.17
525.81	36715.98
525.98	36662.15
526.16	36905.57
526.33	36364.90
526.50	37125.58
526.67	36575.55
526.84	36849.39
527.01	37038.98
527.18	36818.97
527.36	36933.65
527.53	37141.96
527.70	37755.18
527.87	37675.60
528.04	37174.73
528.21	37844.12
528.38	37305.80
528.55	37680.28
528.72	37710.71
528.89	37741.14
529.07	37628.79
529.24	37825.40
529.41	37916.68
529.58	37860.51
529.75	37928.38
529.92	38352.02
530.09	37954.13
530.26	37790.29
530.43	38396.49
530.60	37984.55
530.77	37921.36
530.94	38541.60
531.11	37977.53
531.28	38572.03
531.46	38513.52
531.63	38623.52
531.80	38438.62
531.97	38848.21
532.14	38841.19
532.31	38522.88
532.48	38745.23
532.65	39077.58
532.82	38883.32
532.99	39234.40
533.16	39000.35
533.33	39360.79
533.50	39150.14
533.67	39178.23
533.84	38990.98
534.01	39400.58
534.18	39299.94
534.35	39791.45
534.52	39625.27
534.69	39849.96
534.86	39651.02
535.03	39721.23
535.20	39480.16
535.37	39751.66
535.54	39974.01
535.71	39896.77
535.88	39763.36
536.05	39812.51
536.22	40184.66
536.38	40233.81
536.55	40126.14
536.72	40205.72
536.89	39983.37
537.06	40032.52
537.23	40753.41
537.40	40203.38
537.57	40025.50
537.74	40301.68
537.91	40116.78
538.08	40428.07
538.25	40144.87
538.42	40713.62
538.59	40755.75
538.75	41099.81
538.92	41076.40
539.09	41303.43
539.26	41116.19
539.43	41172.36
539.60	41041.29
539.77	40699.58
539.94	41406.42
540.11	41134.92
540.28	41303.43
540.44	41263.64
540.61	41375.99
540.78	41193.43
540.95	41174.70
541.12	41202.79
541.29	41240.24
541.46	41663.88
541.62	41645.15
541.79	42059.43
541.96	41537.49
542.13	41111.51
542.30	41214.49
542.47	41282.37
542.63	42218.58
542.80	41827.71
542.97	41944.74
543.14	42162.41
543.31	42029.00
543.48	42223.26
543.64	42548.60
543.81	42258.37
543.98	42857.55
544.15	42347.31
544.32	42878.61
544.48	42906.70
544.65	42918.40
544.82	42763.93
544.99	42391.78
545.16	42660.94
545.32	42438.59
545.49	43065.86
545.66	43234.38
545.83	43353.74
546.00	42787.33
546.16	43171.18
546.33	42628.18
546.50	42586.05
546.67	43484.81
546.83	42721.80
547.00	43306.93
547.17	43007.34
547.34	42883.30
547.50	43517.58
547.67	43908.45
547.84	43491.83
548.00	43674.40
548.17	43833.55
548.34	43374.81
548.51	43679.08
548.67	43613.54
548.84	43339.70
549.01	43716.53
549.18	43761.00
549.34	43824.19
549.51	44531.03
549.68	44009.09
549.84	43871.00
550.01	44067.61
550.18	43601.84
550.34	44196.34
550.51	44088.67
550.68	44484.22
550.84	43648.65
551.01	43756.32
551.18	44397.62
551.34	44304.00
551.51	44147.18
551.68	44304.00
551.84	44353.15
552.01	44275.91
552.18	43992.71
552.34	44093.35
552.51	44470.18
552.68	44493.58
552.84	44222.08
553.01	44650.40
553.18	44395.28
553.34	44779.13
553.51	44521.67
553.67	44725.30
553.84	44882.11
554.01	45170.00
554.17	44910.20
554.34	44587.21
554.51	44746.36
554.67	45127.87
554.84	44790.83
555.00	44896.16
555.17	44875.09
555.33	45113.83
555.50	45230.85
555.67	45390.01
555.83	45202.77
556.00	45186.38
556.16	45778.54
556.33	45385.33
556.50	45158.30
556.66	45284.68
556.83	44781.47
556.99	45787.90
557.16	45860.46
557.32	45661.51
557.49	45301.07
557.65	45397.03
557.82	45181.70
557.98	45708.32
558.15	45708.32
558.32	45233.19
558.48	45535.12
558.65	45874.50
558.81	45649.81
558.98	45794.92
559.14	45799.60
559.31	45525.76
559.47	45778.54
559.64	45478.95
559.80	45741.09
559.97	45996.21
560.13	45928.33
560.30	45741.09
560.46	46335.59
560.63	46501.76
560.79	46263.03
560.96	45991.53
561.12	46108.55
561.29	45748.11
561.45	46092.17
561.61	46010.25
561.78	45682.58
561.94	46162.39
562.11	46019.61
562.27	46251.33
562.44	46005.57
562.60	46160.05
562.77	46085.15
562.93	46302.82
563.10	46057.06
563.26	46256.01
563.42	46564.96
563.59	46447.93
563.75	45750.45
563.92	46026.63
564.08	46319.20
564.24	46630.49
564.41	46471.34
564.57	46681.98
564.74	46731.14
564.90	46438.57
565.07	46681.98
565.23	46199.83
565.39	46747.52
565.56	46923.06
565.72	46574.32
565.88	46485.38
566.05	46838.80
566.21	46539.21
566.38	46674.96
566.54	46815.40
566.70	46426.87
566.87	46733.48
567.03	46681.98
567.19	46747.52
567.36	46679.64
567.52	46763.90
567.68	47246.05
567.85	46635.17
568.01	47131.37
568.17	47105.62
568.34	46934.76
568.50	47049.45
568.66	46689.01
568.83	46642.20
568.99	46960.51
569.15	46749.86
569.32	46817.74
569.48	46726.46
569.64	47210.95
569.81	47262.44
569.97	47262.44
570.13	47210.95
570.30	46738.16
570.46	46920.72
570.62	47533.94
570.78	47075.19
570.95	46965.19
571.11	46738.16
571.27	47426.28
571.43	47363.08
571.60	46726.46
571.76	47164.14
571.92	46658.58
572.09	46990.94
572.25	46780.29
572.41	46988.60
572.57	47248.39
572.74	47634.58
572.90	47337.33
573.06	47358.40
573.22	47374.78
573.38	47505.85
573.55	47220.31
573.71	47784.38
573.87	47330.31
574.03	47412.23
574.20	47744.59
574.36	47426.28
574.52	47653.31
574.68	47421.59
574.84	47576.07
575.01	47613.52
575.17	47796.08
575.33	47477.77
575.49	47196.90
575.65	47330.31
575.82	47063.49
575.98	47356.06
576.14	47632.24
576.30	47498.83
576.46	47526.92
576.62	47463.72
576.79	47868.64
576.95	47215.63
577.11	47292.86
577.27	47180.52
577.43	47440.32
577.59	47639.26
577.75	47459.04
577.92	47253.08
578.08	47320.95
578.24	47253.08
578.40	47594.79
578.56	47547.98
578.72	47302.23
578.88	47770.33
579.04	47571.39
579.21	47473.09
579.37	47468.40
579.53	47634.58
579.69	47402.87
579.85	47545.64
580.01	47711.82
580.17	47175.84
580.33	47913.11
580.49	47538.62
580.65	47693.10
580.82	47763.31
580.98	47271.80
581.14	47253.08
581.30	47669.69
581.46	47363.08
581.62	47445.00
581.78	47187.54
581.94	47777.36
582.10	47793.74
582.26	47615.86
582.42	47622.88
582.58	47782.04
582.74	47812.46
582.90	47868.64
583.06	47945.87
583.22	47456.70
583.38	47533.94
583.54	47976.30
583.70	47735.23
583.86	47903.74
584.02	47767.99
584.18	47908.43
584.34	47868.64
584.50	47934.17
584.66	47545.64
584.82	47590.11
584.98	47852.25
585.14	47517.56
585.30	47618.20
585.46	48081.63
585.62	47533.94
585.78	47964.60
585.94	47880.34
586.10	47915.45
586.26	47730.54
586.42	47903.74
586.58	48065.24
586.74	48037.16
586.90	47791.40
587.06	47948.21
587.22	47929.49
587.38	47934.17
587.54	48126.10
587.70	47709.48
587.86	47957.58
588.02	48006.73
588.18	47583.09
588.34	47847.57
588.49	47833.53
588.65	47917.79
588.81	48037.16
588.97	48395.26
589.13	47936.51
589.29	47814.80
589.45	48275.89
589.61	48437.39
589.77	47978.64
589.93	47821.83
