SpectraSuite Data File
++++++++++++++++++++++++++++++++++++
Date: Fri Oct 25 11:23:00 EDT 2013
User: price-jones
Dark Spectrum Present: No
Reference Spectrum Present: No
Number of Sampled Component Spectra: 1
Spectrometers: USB2+H05261
Integration Time (usec): 100000 (USB2+H05261)
Spectra Averaged: 1 (USB2+H05261)
Boxcar Smoothing: 0 (USB2+H05261)
Correct for Electrical Dark: No (USB2+H05261)
Strobe/Lamp Enabled: No (USB2+H05261)
Correct for Detector Non-linearity: No (USB2+H05261)
Correct for Stray Light: No (USB2+H05261)
Number of Pixels in Processed Spectrum: 2048
>>>>>Begin Processed Spectral Data<<<<<
365.73	217.67
365.92	217.67
366.12	217.67
366.32	138.09
366.52	74.90
366.72	182.56
366.91	152.13
367.11	56.17
367.31	145.11
367.51	91.28
367.70	93.62
367.90	81.92
368.10	95.96
368.30	49.15
368.49	77.24
368.69	177.88
368.89	173.20
369.09	163.84
369.28	212.99
369.48	105.32
369.68	217.67
369.87	168.52
370.07	201.29
370.27	238.73
370.47	360.44
370.66	613.22
370.86	655.35
371.06	641.31
371.25	608.54
371.45	561.73
371.65	739.61
371.84	692.80
372.04	685.78
372.24	662.37
372.44	662.37
372.63	692.80
372.83	772.38
373.03	795.78
373.22	716.20
373.42	795.78
373.62	798.12
373.81	800.46
374.01	847.27
374.21	844.93
374.40	809.83
374.60	905.79
374.79	786.42
374.99	809.83
375.19	910.47
375.38	805.14
375.58	866.00
375.78	812.17
375.97	830.89
376.17	898.77
376.37	866.00
376.56	959.62
376.76	915.15
376.95	924.51
377.15	851.96
377.35	894.08
377.54	912.81
377.74	926.85
377.93	976.00
378.13	861.32
378.33	973.66
378.52	966.64
378.72	908.13
378.91	983.02
379.11	894.08
379.31	891.74
379.50	1004.09
379.70	992.39
379.89	933.87
380.09	1025.15
380.28	940.90
380.48	961.96
380.68	1004.09
380.87	980.68
381.07	943.24
381.26	1022.81
381.46	1008.77
381.65	1025.15
381.85	966.64
382.04	1025.15
382.24	950.26
382.43	1036.86
382.63	1055.58
382.83	1062.60
383.02	1071.97
383.22	1151.54
383.41	1135.16
383.61	1095.37
383.80	1104.73
384.00	1153.88
384.19	1137.50
384.39	1111.75
384.58	1146.86
384.78	1219.42
384.97	1076.65
385.17	1228.78
385.36	1132.82
385.56	1184.31
385.75	1196.01
385.95	1156.22
386.14	1107.07
386.34	1158.57
386.53	1221.76
386.72	1170.27
386.92	1256.87
387.11	1233.46
387.31	1287.29
387.50	1196.01
387.70	1240.48
387.89	1329.42
388.09	1291.98
388.28	1313.04
388.48	1245.16
388.67	1287.29
388.86	1350.49
389.06	1334.11
389.25	1310.70
389.45	1345.81
389.64	1397.30
389.84	1425.39
390.03	1352.83
390.22	1320.06
390.42	1387.94
390.61	1324.74
390.81	1320.06
391.00	1409.00
391.19	1411.34
391.39	1336.45
391.58	1397.30
391.78	1462.83
391.97	1460.49
392.16	1486.24
392.36	1509.65
392.55	1462.83
392.75	1530.71
392.94	1572.84
393.13	1582.20
393.33	1514.33
393.52	1437.09
393.71	1542.41
393.91	1582.20
394.10	1558.80
394.29	1650.08
394.49	1589.22
394.68	1685.19
394.88	1710.93
395.07	1689.87
395.26	1659.44
395.46	1699.23
395.65	1678.16
395.84	1750.72
396.04	1825.62
396.23	1703.91
396.42	1743.70
396.62	1809.23
396.81	1788.17
397.00	1769.44
397.19	1809.23
397.39	1722.63
397.58	1898.17
397.77	1851.36
397.97	1832.64
398.16	1806.89
398.35	1998.82
398.55	1884.13
398.74	1914.56
398.93	1954.35
399.12	1856.04
399.32	1851.36
399.51	1949.67
399.70	2036.27
399.90	1963.71
400.09	2017.54
400.28	2064.35
400.47	2008.18
400.67	2024.56
400.86	2078.40
401.05	2059.67
401.24	2113.50
401.44	2106.48
401.63	2150.95
401.82	2069.03
402.01	2108.82
402.21	2157.97
402.40	2157.97
402.59	2190.74
402.78	2221.17
402.97	2111.16
403.17	2172.02
403.36	2317.13
403.55	2277.34
403.74	2434.16
403.93	2326.49
404.13	2296.07
404.32	2342.88
404.51	2319.47
404.70	2363.94
404.89	2452.88
405.09	2520.76
405.28	2497.35
405.47	2605.02
405.66	2527.78
405.85	2464.58
406.05	2427.14
406.24	2469.27
406.43	2583.95
406.62	2614.38
406.81	2656.51
407.00	2605.02
407.20	2626.08
407.39	2583.95
407.58	2628.42
407.77	2801.62
407.96	2775.88
408.15	2754.81
408.34	2832.05
408.54	2822.69
408.73	2869.50
408.92	2874.18
409.11	2832.05
409.30	2757.15
409.49	2953.76
409.68	2902.26
409.87	2913.97
410.07	3009.93
410.26	3138.66
410.45	3012.27
410.64	3042.70
410.83	2986.52
411.02	2974.82
411.21	3370.37
411.40	3045.04
411.59	3293.13
411.78	3138.66
411.98	3152.70
412.17	3461.65
412.36	3211.22
412.55	3379.73
412.74	3499.10
412.93	3410.16
413.12	3211.22
413.31	3574.00
413.50	3459.31
413.69	3487.40
413.88	3562.30
414.07	3616.13
414.26	3595.06
414.45	3712.09
414.64	3702.73
414.83	3751.88
415.02	3679.32
415.22	3838.48
415.41	3953.16
415.60	3985.93
415.79	4072.53
415.98	4079.55
416.17	3920.40
416.36	3906.35
416.55	3995.29
416.74	4135.73
416.93	3953.16
417.12	4117.00
417.31	4032.74
417.50	4152.11
417.69	4306.59
417.88	4325.31
418.07	4369.78
418.26	4344.03
418.45	4390.84
418.64	4535.96
418.83	4470.42
419.02	4461.06
419.21	4552.34
419.39	4521.92
419.58	4470.42
419.77	4477.44
419.96	4620.22
420.15	4608.51
420.34	4592.13
420.53	4580.43
420.72	4669.37
420.91	4676.39
421.10	4727.88
421.29	4873.00
421.48	4622.56
421.67	4873.00
421.86	4765.33
422.05	4945.55
422.24	4912.78
422.43	4770.01
422.61	4868.31
422.80	4990.02
422.99	5039.17
423.18	5055.56
423.37	5034.49
423.56	5055.56
423.75	4933.85
423.94	4908.10
424.13	4624.90
424.32	4730.22
424.50	5060.24
424.69	5090.67
424.88	5083.64
425.07	5001.72
425.26	4924.49
425.45	5088.32
425.64	4975.98
425.83	5036.83
426.01	5107.05
426.20	5008.75
426.39	5100.03
426.58	4950.23
426.77	5153.86
426.96	5153.86
427.15	5067.26
427.33	5334.08
427.52	5275.57
427.71	5376.21
427.90	5195.99
428.09	5308.34
428.28	5441.75
428.46	5359.83
428.65	5565.79
428.84	5528.35
429.03	5603.24
429.22	5212.37
429.40	5547.07
429.59	5554.09
429.78	5366.85
429.97	5184.29
430.16	5490.90
430.34	5514.30
430.53	5806.87
430.72	5685.16
430.91	5628.99
431.10	5664.10
431.28	5767.08
431.47	5771.76
431.66	5849.00
431.85	5746.02
432.03	6087.73
432.22	5926.24
432.41	5825.59
432.60	6008.16
432.79	5956.66
432.97	6031.56
433.16	6141.57
433.35	5949.64
433.54	6164.97
433.72	6211.78
433.91	6160.29
434.10	6218.80
434.28	6148.59
434.47	6228.17
434.66	6321.79
434.85	6305.40
435.03	6473.92
435.22	6272.64
435.41	6525.41
435.59	6382.64
435.78	6342.85
435.97	6527.75
436.16	6459.88
436.34	6321.79
436.53	6504.35
436.72	6857.77
436.90	6504.35
437.09	6719.68
437.28	6602.65
437.46	6604.99
437.65	6703.29
437.84	6862.45
438.02	6773.51
438.21	6604.99
438.40	6942.03
438.58	7047.35
438.77	6972.46
438.96	7002.88
439.14	7197.15
439.33	7194.81
439.52	7323.54
439.70	7307.15
439.89	7335.24
440.08	7449.93
440.26	7597.38
440.45	7552.91
440.63	7520.14
440.82	7693.34
441.01	7691.00
441.19	7726.11
441.38	7878.24
441.57	7775.26
441.75	7873.56
441.94	8074.85
442.12	7943.78
442.31	8126.34
442.50	8159.11
442.68	7911.01
442.87	7997.61
443.05	8093.57
443.24	8386.14
443.43	8205.92
443.61	8280.82
443.80	8554.66
443.98	7953.14
444.17	7948.46
444.35	8234.00
444.54	8601.47
444.73	8365.07
444.91	8329.97
445.10	8339.33
445.28	8367.42
445.47	8346.35
445.65	8489.12
445.84	8465.72
446.02	8287.84
446.21	8505.51
446.39	8379.12
446.58	8601.47
446.77	8514.87
446.95	8367.42
447.14	8421.25
447.32	8421.25
447.51	8620.19
447.69	8526.57
447.88	8549.98
448.06	8571.04
448.25	8402.52
448.43	8484.44
448.62	8657.64
448.80	8781.69
448.99	8875.31
449.17	8725.52
449.36	8767.65
449.54	8997.02
449.73	8901.06
449.91	9071.92
450.10	9146.81
450.28	9233.41
450.46	9018.08
450.65	9172.56
450.83	9221.71
451.02	9160.86
451.20	9186.60
451.39	9207.67
451.57	9217.03
451.76	9081.28
451.94	9214.69
452.13	9308.31
452.31	9460.45
452.49	9128.09
452.68	9385.55
452.86	9336.40
453.05	9624.28
453.23	9795.14
453.42	9362.14
453.60	9430.02
453.78	9425.34
453.97	9411.29
454.15	9446.40
454.34	9628.96
454.52	9860.68
454.70	9795.14
454.89	9867.70
455.07	9940.26
455.26	9872.38
455.44	9923.87
455.62	9909.83
455.81	10005.79
455.99	10342.83
456.17	10230.48
456.36	10326.44
456.54	10361.55
456.73	10239.84
456.91	10438.79
457.09	10537.09
457.28	10649.44
457.46	10523.05
457.64	10562.84
457.83	10752.42
458.01	10394.32
458.19	10846.04
458.38	10511.35
458.56	10792.21
458.74	10710.29
458.93	10752.42
459.11	10721.99
459.29	10764.12
459.48	10991.16
459.66	10876.47
459.84	10801.57
460.03	11187.76
460.21	11171.38
460.39	11119.89
460.57	11101.16
460.76	11066.05
460.94	11300.11
461.12	11370.32
461.31	11112.86
461.49	11119.89
461.67	11267.34
461.85	11337.56
462.04	11110.52
462.22	11693.32
462.40	11616.08
462.59	11435.86
462.77	11681.61
462.95	11894.60
463.13	11929.71
463.32	11819.71
463.50	12058.44
463.68	11943.75
463.86	11960.14
464.05	11796.30
464.23	11580.97
464.41	12098.23
464.59	11864.18
464.78	12339.30
464.96	12182.49
465.14	11936.73
465.32	12231.64
465.50	12358.03
465.69	12266.75
465.87	12229.30
466.05	12175.47
466.23	12451.65
466.41	12559.31
466.60	12659.96
466.78	12507.82
466.96	12215.26
467.14	12294.83
467.32	12615.49
467.51	12599.10
467.69	12432.93
467.87	12507.82
468.05	12732.51
468.23	12746.56
468.41	12571.02
468.60	12950.18
468.78	12690.38
468.96	12791.03
469.14	12674.00
469.32	12903.37
469.50	12842.52
469.69	13188.92
469.87	13142.11
470.05	13331.69
470.23	13064.87
470.41	13362.12
470.59	13177.22
470.77	13123.38
470.95	13528.30
471.14	13392.55
471.32	13434.68
471.50	13977.68
471.68	13525.96
471.86	13898.10
472.04	13851.29
472.22	14232.80
472.40	13792.78
472.58	14246.84
472.77	14068.96
472.95	14382.59
473.13	14487.92
473.31	14420.04
473.49	14356.85
473.67	14408.34
473.85	14171.94
474.03	14712.61
474.21	14721.97
474.39	14869.42
474.57	14775.80
474.75	15241.57
474.93	15213.48
475.12	14977.09
475.30	15204.12
475.48	15154.97
475.66	15559.88
475.84	15047.30
476.02	15513.07
476.20	15681.59
476.38	16147.36
476.56	16369.71
476.74	16175.44
476.92	16163.74
477.10	15765.85
477.28	16135.65
477.46	16542.91
477.64	16486.73
477.82	16723.13
478.00	16924.41
478.18	17008.67
478.36	17102.29
478.54	17284.86
478.72	17348.05
478.90	17605.51
479.08	17661.68
479.26	17741.26
479.44	17762.33
479.62	17846.58
479.80	18066.60
479.98	18546.40
480.16	18750.03
480.34	18539.38
480.52	18714.92
480.70	18911.53
480.88	18345.12
481.06	19103.45
481.24	19089.41
481.41	19183.03
481.59	19630.07
481.77	19587.94
481.95	19871.15
482.13	20011.58
482.31	19758.80
482.49	20369.68
482.67	20329.89
482.85	20833.11
483.03	20805.02
483.21	21088.23
483.39	20856.51
483.57	21385.47
483.74	21376.11
483.92	21474.42
484.10	21158.44
484.28	21858.26
484.46	22190.62
484.64	22642.34
484.82	22452.76
485.00	22677.45
485.18	22855.33
485.35	22916.19
485.53	23068.32
485.71	23260.24
485.89	23721.33
486.07	23489.62
486.25	23442.81
486.43	23999.85
486.61	24196.46
486.78	24154.33
486.96	24510.09
487.14	24678.61
487.32	25294.17
487.50	25188.85
487.68	25270.76
487.85	25317.57
488.03	25516.52
488.21	25848.88
488.39	25958.88
488.57	26434.01
488.75	26265.49
488.92	26831.90
489.10	26647.00
489.28	26871.69
489.46	27683.86
489.64	27520.02
489.81	27873.44
489.99	27859.40
490.17	28039.62
490.35	28379.00
490.53	28079.41
490.70	28582.62
490.88	28723.05
491.06	28865.83
491.24	29177.12
491.41	29364.36
491.59	29312.87
491.77	29792.68
491.95	29902.68
492.13	30300.58
492.30	29802.04
492.48	30139.08
492.66	30513.56
492.84	30188.23
493.01	30623.57
493.19	30909.11
493.37	31761.07
493.54	31716.60
493.72	31578.51
493.90	31995.12
494.08	32355.57
494.25	32177.68
494.43	32430.46
494.61	32451.53
494.79	32793.25
494.96	32786.22
495.14	32744.09
495.32	33310.50
495.49	33200.50
495.67	33684.99
495.85	33940.11
496.02	33717.76
496.20	34096.92
496.38	34176.50
496.55	34209.27
496.73	35005.05
496.91	34696.10
497.09	34796.74
497.26	35601.89
497.44	35337.41
497.62	35398.26
497.79	35849.99
497.97	35779.77
498.14	36018.50
498.32	36598.96
498.50	36568.53
498.67	36844.71
498.85	36587.25
499.03	37156.00
499.20	36879.82
499.38	37446.23
499.56	37378.36
499.73	37593.68
499.91	37900.29
500.08	37937.74
500.26	37298.78
500.44	37958.81
500.61	38225.63
500.79	37888.59
500.97	38911.41
501.14	38953.54
501.32	38562.67
501.49	38511.17
501.67	39005.03
501.84	39325.68
502.02	39351.43
502.20	39129.08
502.37	39412.28
502.55	40044.23
502.72	40144.87
502.90	40044.23
503.07	39849.96
503.25	40112.10
503.43	40018.48
503.60	40404.67
503.78	40884.48
503.95	40624.68
504.13	40924.27
504.30	40980.44
504.48	40610.64
504.65	40987.46
504.83	41268.33
505.01	41827.71
505.18	41530.47
505.36	41900.27
505.53	41605.36
505.71	42164.75
505.88	42454.98
506.06	42108.58
506.23	42457.32
506.41	42373.06
506.58	42454.98
506.76	42710.10
506.93	42239.65
507.11	42967.55
507.28	43199.27
507.46	42962.87
507.63	43405.23
507.81	44020.80
507.98	43313.95
508.16	43456.73
508.33	43863.98
508.50	44259.53
508.68	43793.76
508.85	44521.67
509.03	44072.29
509.20	44376.56
509.38	44886.79
509.55	44896.16
509.73	44699.55
509.90	44828.28
510.08	44954.67
510.25	44985.10
510.42	45078.72
510.60	45404.05
510.77	45813.65
510.95	45713.00
511.12	45815.99
511.30	45691.94
511.47	45918.97
511.64	46115.58
511.82	45907.27
511.99	46197.49
512.17	46169.41
512.34	46174.09
512.51	46913.70
512.69	46862.21
512.86	46696.03
513.04	46635.17
513.21	46916.04
513.38	46658.58
513.56	47077.54
513.73	47023.70
513.90	47409.89
514.08	46988.60
514.25	47430.96
514.43	47688.42
514.60	48083.97
514.77	47941.19
514.95	47587.77
515.12	47805.44
515.29	48198.65
515.47	48383.55
515.64	48755.70
515.81	48149.50
515.99	48453.77
516.16	48889.11
516.33	48589.52
516.51	48786.13
516.68	49050.61
516.85	48884.43
517.03	49214.44
517.20	49134.87
517.37	48954.64
517.54	49326.79
517.72	49303.38
517.89	49450.84
518.06	49481.27
518.24	49932.99
518.41	49490.63
518.58	49876.82
518.75	49652.12
518.93	49837.03
519.10	49600.63
519.27	50064.06
519.45	49846.39
519.62	50431.52
519.79	50387.05
519.96	50209.17
520.14	50464.29
520.31	50623.45
520.48	50738.13
520.65	50806.01
520.83	50784.94
521.00	50712.39
521.17	50958.14
521.34	50700.68
521.52	51030.70
521.69	50951.12
521.86	51255.39
522.03	51667.33
522.20	51246.03
522.38	51892.02
522.55	51578.39
522.72	51597.11
522.89	51356.03
523.07	51784.35
523.24	51503.49
523.41	52130.75
523.58	51538.60
523.75	52325.02
523.92	51779.67
524.10	52140.11
524.27	52519.28
524.44	52442.04
524.61	52439.70
524.78	52388.21
524.96	52257.14
525.13	52332.04
525.30	52762.70
525.47	52722.91
525.64	52931.22
525.81	52931.22
525.98	52968.66
526.16	52996.75
526.33	53167.61
526.50	53097.39
526.67	53160.59
526.84	53003.77
527.01	53010.79
527.18	53031.86
527.36	53294.00
527.53	53247.19
527.70	53748.06
527.87	53139.52
528.04	53186.33
528.21	53516.35
528.38	53598.27
528.55	53869.77
528.72	53633.38
528.89	53865.09
529.07	53563.16
529.24	53961.05
529.41	54085.10
529.58	53832.32
529.75	53811.26
529.92	53977.43
530.09	54089.78
530.26	54167.02
530.43	54436.18
530.60	54108.50
530.77	54321.49
530.94	54490.01
531.11	54258.30
531.28	54574.27
531.46	54284.04
531.63	54555.55
531.80	54375.33
531.97	54623.42
532.14	54820.03
532.31	54731.09
532.48	54836.41
532.65	55021.31
532.82	54719.38
532.99	55011.95
533.16	55070.46
533.33	55136.00
533.50	55311.54
533.67	55070.46
533.84	55143.02
534.01	55009.61
534.18	55173.45
534.35	55538.57
534.52	55320.90
534.69	55606.45
534.86	55732.84
535.03	55482.40
535.20	55327.92
535.37	55538.57
535.54	55746.88
535.71	55458.99
535.88	55627.51
536.05	55826.46
536.22	55824.12
536.38	55772.63
536.55	55999.66
536.72	55814.76
536.89	55833.48
537.06	55859.23
537.23	55999.66
537.40	55704.75
537.57	55824.12
537.74	56463.08
537.91	56219.67
538.08	55969.23
538.25	56037.11
538.42	56112.00
538.59	56420.95
538.75	56142.43
538.92	56229.03
539.09	56545.00
539.26	56472.45
539.43	56521.60
539.60	56435.00
539.77	56350.74
539.94	56655.01
540.11	56655.01
540.28	56645.65
540.44	56715.86
540.61	56615.22
540.78	56664.37
540.95	56713.52
541.12	56374.14
541.29	56814.16
541.46	56647.99
541.62	56961.62
541.79	57092.69
541.96	56708.84
542.13	56917.15
542.30	56900.76
542.47	56963.96
542.63	56877.36
542.80	57195.67
542.97	57216.74
543.14	57460.15
543.31	57261.21
543.48	57413.34
543.64	57687.18
543.81	57741.02
543.98	57516.32
544.15	57497.60
544.32	57567.82
544.48	57813.57
544.65	57542.07
544.82	57764.42
544.99	57399.30
545.16	57616.97
545.32	57790.17
545.49	57745.70
545.66	58024.22
545.83	57839.32
546.00	58012.52
546.16	57698.89
546.33	57897.83
546.50	57689.52
546.67	58117.84
546.83	57649.74
547.00	58145.93
547.17	58106.14
547.34	57865.06
547.50	58087.42
547.67	58239.55
547.84	58185.72
548.00	58611.70
548.17	58225.51
548.34	58178.70
548.51	58520.41
548.67	58527.44
548.84	58209.12
549.01	58480.63
549.18	58422.11
549.34	58468.92
549.51	58335.51
549.68	58501.69
549.84	58890.22
550.01	58616.38
550.18	58681.91
550.34	58681.91
550.51	58745.11
550.68	58688.93
550.84	58592.97
551.01	58869.15
551.18	58604.67
551.34	58702.98
551.51	58766.17
551.68	59004.91
551.84	58497.01
552.01	58717.02
552.18	58812.98
552.34	58820.00
552.51	59112.57
552.68	58866.81
552.84	58897.24
553.01	59180.45
553.18	59056.40
553.34	58937.03
553.51	58876.18
553.67	59068.10
553.84	59061.08
554.01	59302.15
554.17	59341.94
554.34	59133.63
554.51	59178.10
554.67	59241.30
554.84	59182.79
555.00	59131.29
555.17	59171.08
555.33	59360.67
555.50	59255.34
555.67	59241.30
555.83	59161.72
556.00	59297.47
556.16	59522.16
556.33	59707.07
556.50	59604.08
556.66	59512.80
556.83	59264.70
556.99	59676.64
557.16	59564.29
557.32	59529.19
557.49	59786.64
557.65	59477.69
557.82	59786.64
557.98	59620.47
558.15	59718.77
558.32	59896.65
558.48	59524.50
558.65	59716.43
558.81	59711.75
558.98	59779.62
559.14	59927.08
559.31	59781.96
559.47	59898.99
559.64	59920.05
559.80	59964.52
559.97	59931.76
560.13	59870.90
560.30	60039.42
560.46	59856.86
560.63	59950.48
560.79	59891.97
560.96	59997.29
561.12	60193.90
561.29	60177.51
561.45	60135.38
561.61	59863.88
561.78	60060.49
561.94	60109.64
562.11	60294.54
562.27	60032.40
562.44	60252.41
562.60	60331.99
562.77	60189.22
562.93	60018.36
563.10	60198.58
563.26	59955.16
563.42	60449.02
563.59	60175.17
563.75	60236.03
563.92	60353.05
564.08	60200.92
564.24	60341.35
564.41	60268.79
564.57	60420.93
564.74	60252.41
564.90	60322.63
565.07	60493.49
565.23	60193.90
565.39	60397.52
565.56	60294.54
565.72	60388.16
565.88	60439.65
566.05	60425.61
566.21	60322.63
566.38	60439.65
566.54	60594.13
566.70	60470.08
566.87	60509.87
567.03	60331.99
567.19	60732.22
567.36	60488.80
567.52	60596.47
567.68	60676.05
567.85	60633.92
568.01	60657.32
568.17	60453.70
568.34	60399.86
568.50	60594.13
568.66	60516.89
568.83	60575.40
568.99	60374.12
569.15	60654.98
569.32	60720.52
569.48	60603.49
569.64	60704.13
569.81	60722.86
569.97	60715.84
570.13	60624.56
570.30	60577.75
570.46	60692.43
570.62	60741.58
570.78	60825.84
570.95	60664.35
571.11	60931.17
571.27	60718.18
571.43	60692.43
571.60	60945.21
571.76	60804.78
571.92	60781.37
572.09	60874.99
572.25	60835.20
572.41	60772.01
572.57	60743.92
572.74	60999.04
572.90	60823.50
573.06	60786.05
573.22	60807.12
573.38	60856.27
573.55	60884.36
573.71	61027.13
573.87	60940.53
574.03	60734.56
574.20	60975.64
574.36	60879.67
574.52	61038.83
574.68	60882.02
574.84	61022.45
575.01	61057.56
575.17	60994.36
575.33	60879.67
575.49	60788.39
575.65	60938.19
575.82	60977.98
575.98	60968.61
576.14	61209.69
576.30	60992.02
576.46	60762.65
576.62	60884.36
576.79	60687.75
576.95	60900.74
577.11	61139.47
577.27	61062.24
577.43	61034.15
577.59	61092.66
577.75	61001.38
577.92	60898.40
578.08	60905.42
578.24	61141.81
578.40	61151.18
578.56	60989.68
578.72	61076.28
578.88	61268.20
579.04	61034.15
579.21	61027.13
579.37	61352.46
579.53	61240.12
579.69	60985.00
579.85	61172.24
580.01	61141.81
580.17	60914.78
580.33	61265.86
580.49	61174.58
580.65	61071.60
580.82	61247.14
580.98	60975.64
581.14	60963.93
581.30	61160.54
581.46	61064.58
581.62	61102.03
581.78	61041.17
581.94	61265.86
582.10	61197.99
582.26	61148.84
582.42	61216.71
582.58	61233.10
582.74	61095.00
582.90	61155.86
583.06	61038.83
583.22	61174.58
583.38	61244.80
583.54	61205.01
583.70	61226.07
583.86	61293.95
584.02	61137.13
584.18	61282.25
584.34	61134.79
584.50	61322.04
584.66	61118.41
584.82	61116.07
584.98	61474.17
585.14	61322.04
585.30	61162.88
585.46	61291.61
585.62	61277.57
585.78	61331.40
585.94	61043.51
586.10	61329.06
586.26	61146.50
586.42	61359.48
586.58	61359.48
586.74	61291.61
586.90	61134.79
587.06	61235.44
587.22	61300.97
587.38	61364.17
587.54	61492.89
587.70	61614.60
587.86	61450.77
588.02	61422.68
588.18	61422.68
588.34	61263.52
588.49	61277.57
