SpectraSuite Data File
++++++++++++++++++++++++++++++++++++
Date: Fri Oct 25 11:26:05 EDT 2013
User: price-jones
Dark Spectrum Present: No
Reference Spectrum Present: No
Number of Sampled Component Spectra: 1
Spectrometers: USB2+H05261
Integration Time (usec): 100000 (USB2+H05261)
Spectra Averaged: 1 (USB2+H05261)
Boxcar Smoothing: 0 (USB2+H05261)
Correct for Electrical Dark: No (USB2+H05261)
Strobe/Lamp Enabled: No (USB2+H05261)
Correct for Detector Non-linearity: No (USB2+H05261)
Correct for Stray Light: No (USB2+H05261)
Number of Pixels in Processed Spectrum: 2048
>>>>>Begin Processed Spectral Data<<<<<
365.73	243.42
365.92	243.42
366.12	243.42
366.32	182.56
366.52	152.13
366.72	124.05
366.91	154.48
367.11	161.50
367.31	140.43
367.51	56.17
367.70	124.05
367.90	161.50
368.10	189.58
368.30	140.43
368.49	128.73
368.69	175.54
368.89	271.50
369.09	114.69
369.28	173.20
369.48	201.29
369.68	149.79
369.87	184.90
370.07	191.92
370.27	194.26
370.47	313.63
370.66	587.47
370.86	599.18
371.06	683.44
371.25	645.99
371.45	610.88
371.65	767.70
371.84	723.23
372.04	678.76
372.24	741.95
372.44	711.52
372.63	807.48
372.83	767.70
373.03	734.93
373.22	770.04
373.42	760.67
373.62	716.20
373.81	753.65
374.01	835.57
374.21	816.85
374.40	828.55
374.60	915.15
374.79	854.30
374.99	877.70
375.19	835.57
375.38	870.68
375.58	889.40
375.78	798.12
375.97	896.43
376.17	924.51
376.37	840.25
376.56	877.70
376.76	896.43
376.95	802.80
377.15	849.61
377.35	894.08
377.54	868.34
377.74	901.11
377.93	856.64
378.13	919.83
378.33	894.08
378.52	898.77
378.72	875.36
378.91	919.83
379.11	1036.86
379.31	873.02
379.50	943.24
379.70	994.73
379.89	1018.13
380.09	964.30
380.28	1020.47
380.48	971.32
380.68	1013.45
380.87	1048.56
381.07	987.71
381.26	1029.84
381.46	997.07
381.65	987.71
381.85	971.32
382.04	1039.20
382.24	1048.56
382.43	1011.11
382.63	1076.65
382.83	1107.07
383.02	1107.07
383.22	1156.22
383.41	1053.24
383.61	1095.37
383.80	1081.33
384.00	1144.52
384.19	1060.26
384.39	1177.29
384.58	1156.22
384.78	1238.14
384.97	1027.50
385.17	1123.46
385.36	1102.39
385.56	1254.53
385.75	1212.40
385.95	1186.65
386.14	1179.63
386.34	1212.40
386.53	1186.65
386.72	1217.08
386.92	1287.29
387.11	1256.87
387.31	1214.74
387.50	1181.97
387.70	1184.31
387.89	1205.38
388.09	1217.08
388.28	1291.98
388.48	1338.79
388.67	1425.39
388.86	1277.93
389.06	1334.11
389.25	1401.98
389.45	1345.81
389.64	1338.79
389.84	1366.87
390.03	1359.85
390.22	1355.17
390.42	1369.21
390.61	1390.28
390.81	1359.85
391.00	1444.11
391.19	1434.75
391.39	1401.98
391.58	1547.09
391.78	1490.92
391.97	1521.35
392.16	1551.78
392.36	1507.30
392.55	1603.27
392.75	1558.80
392.94	1586.88
393.13	1584.54
393.33	1528.37
393.52	1638.38
393.71	1530.71
393.91	1565.82
394.10	1626.67
394.29	1544.75
394.49	1643.06
394.68	1689.87
394.88	1563.48
395.07	1673.48
395.26	1689.87
395.46	1638.38
395.65	1692.21
395.84	1682.85
396.04	1757.74
396.23	1811.57
396.42	1722.63
396.62	1788.17
396.81	1743.70
397.00	1865.41
397.19	1717.95
397.39	1799.87
397.58	1863.07
397.77	1839.66
397.97	1893.49
398.16	1834.98
398.35	1921.58
398.55	1933.28
398.74	1905.20
398.93	2012.86
399.12	1930.94
399.32	1771.79
399.51	1902.86
399.70	2052.65
399.90	2010.52
400.09	2043.29
400.28	2094.78
400.47	2005.84
400.67	2052.65
400.86	2003.50
401.05	2162.66
401.24	2122.87
401.44	2015.20
401.63	2186.06
401.82	2172.02
402.01	2188.40
402.21	2132.23
402.40	2204.78
402.59	2174.36
402.78	2202.44
402.97	2286.70
403.17	2331.17
403.36	2284.36
403.55	2282.02
403.74	2427.14
403.93	2246.91
404.13	2450.54
404.32	2377.98
404.51	2375.64
404.70	2502.03
404.89	2312.45
405.09	2511.39
405.28	2438.84
405.47	2511.39
405.66	2495.01
405.85	2560.55
406.05	2509.05
406.24	2534.80
406.43	2539.48
406.62	2506.71
406.81	2724.38
407.00	2593.31
407.20	2586.29
407.39	2633.10
407.58	2698.64
407.77	2715.02
407.96	2747.79
408.15	2700.98
408.34	2605.02
408.54	2808.64
408.73	2864.82
408.92	2647.15
409.11	2881.20
409.30	2883.54
409.49	2829.71
409.68	2909.29
409.87	2850.77
410.07	2995.89
410.26	3066.10
410.45	3068.44
410.64	3038.02
410.83	3096.53
411.02	3133.98
411.21	3248.66
411.40	3276.75
411.59	3112.91
411.78	3187.81
411.98	3105.89
412.17	3206.53
412.36	3220.58
412.55	3330.58
412.74	3384.41
412.93	3335.26
413.12	3396.12
413.31	3456.97
413.50	3503.78
413.69	3466.33
413.88	3513.14
414.07	3435.91
414.26	3634.85
414.45	3756.56
414.64	3609.11
414.83	3658.26
415.02	3742.52
415.22	3887.63
415.41	3857.20
415.60	3782.31
415.79	3887.63
415.98	3866.56
416.17	3941.46
416.36	3920.40
416.55	3896.99
416.74	4002.32
416.93	3974.23
417.12	4011.68
417.31	4112.32
417.50	4201.26
417.69	4287.86
417.88	4442.34
418.07	4292.54
418.26	4236.37
418.45	4430.63
418.64	4503.19
418.83	4353.40
419.02	4449.36
419.21	4482.13
419.39	4461.06
419.58	4374.46
419.77	4423.61
419.96	4456.38
420.15	4613.20
420.34	4552.34
420.53	4608.51
420.72	4627.24
420.91	4662.35
421.10	4812.14
421.29	4784.06
421.48	4800.44
421.67	4812.14
421.86	4880.02
422.05	4882.36
422.24	4990.02
422.43	4868.31
422.61	4880.02
422.80	4938.53
422.99	4840.23
423.18	4968.96
423.37	5064.92
423.56	4973.64
423.75	4903.42
423.94	4957.25
424.13	4582.77
424.32	4669.37
424.50	4917.47
424.69	4929.17
424.88	5095.35
425.07	4908.10
425.26	4917.47
425.45	5041.51
425.64	5078.96
425.83	4908.10
426.01	4983.00
426.20	4931.51
426.39	4971.30
426.58	5116.41
426.77	5128.11
426.96	5207.69
427.15	5247.48
427.33	5163.22
427.52	5135.14
427.71	5053.22
427.90	5254.50
428.09	5369.19
428.28	5394.93
428.46	5348.12
428.65	5420.68
428.84	5416.00
429.03	5500.26
429.22	5397.28
429.40	5558.77
429.59	5416.00
429.78	5200.67
429.97	5357.49
430.16	5437.06
430.34	5495.58
430.53	5664.10
430.72	5710.91
430.91	5673.46
431.10	5643.03
431.28	5645.37
431.47	5760.06
431.66	5853.68
431.85	5767.08
432.03	5738.99
432.22	5961.34
432.41	5944.96
432.60	5954.32
432.79	5980.07
432.97	6033.90
433.16	6008.16
433.35	5968.37
433.54	6026.88
433.72	6122.84
433.91	6197.74
434.10	6092.41
434.28	5975.39
434.47	6090.07
434.66	6104.12
434.85	6443.49
435.03	6303.06
435.22	6277.32
435.41	6415.41
435.59	6331.15
435.78	6459.88
435.97	6373.28
436.16	6256.25
436.34	6483.28
436.53	6586.27
436.72	6544.14
436.90	6532.44
437.09	6602.65
437.28	6427.11
437.46	6635.42
437.65	6705.63
437.84	6712.66
438.02	6696.27
438.21	6832.02
438.40	6698.61
438.58	6883.52
438.77	7042.67
438.96	6913.94
439.14	7091.82
439.33	7286.09
439.52	7272.04
439.70	7229.91
439.89	7318.86
440.08	7295.45
440.26	7372.69
440.45	7426.52
440.63	7485.03
440.82	7688.66
441.01	7543.55
441.19	7623.12
441.38	7761.22
441.57	7831.43
441.75	7719.09
441.94	7784.62
442.12	7812.71
442.31	8229.32
442.50	8079.53
442.68	7911.01
442.87	8006.97
443.05	8322.94
443.24	8105.28
443.43	8060.80
443.61	8332.31
443.80	8461.04
443.98	8131.02
444.17	7831.43
444.35	8198.90
444.54	8402.52
444.73	8241.03
444.91	8276.13
445.10	8381.46
445.28	8175.49
445.47	8224.64
445.65	8236.35
445.84	8266.77
446.02	8428.27
446.21	8461.04
446.39	8262.09
446.58	8400.18
446.77	8423.59
446.95	8081.87
447.14	8552.32
447.32	8468.06
447.51	8360.39
447.69	8376.78
447.88	8580.40
448.06	8381.46
448.25	8402.52
448.43	8711.47
448.62	8418.91
448.80	8690.41
448.99	8688.07
449.17	8819.14
449.36	8589.77
449.54	8826.16
449.73	9078.94
449.91	9029.79
450.10	8889.35
450.28	9015.74
450.46	9008.72
450.65	8786.37
450.83	9263.84
451.02	8990.00
451.20	9181.92
451.39	9029.79
451.57	9046.17
451.76	9181.92
451.94	9125.75
452.13	9364.48
452.31	9291.93
452.49	9305.97
452.68	9095.32
452.86	9254.48
453.05	9497.89
453.23	9415.98
453.42	9212.35
453.60	9394.91
453.78	9603.22
453.97	9694.50
454.15	9612.58
454.34	9493.21
454.52	9895.78
454.70	9619.60
454.89	9762.37
455.07	9774.08
455.26	9858.34
455.44	9909.83
455.62	9710.88
455.81	9727.27
455.99	9994.09
456.17	9935.57
456.36	9980.04
456.54	10146.22
456.73	10125.16
456.91	10204.74
457.09	10214.10
457.28	10384.96
457.46	10319.42
457.64	10387.30
457.83	10408.36
458.01	10366.23
458.19	10595.61
458.38	10492.62
458.56	10707.95
458.74	10602.63
458.93	10747.74
459.11	10876.47
459.29	10803.91
459.48	10696.25
459.66	10555.82
459.84	10815.62
460.03	11054.35
460.21	10839.02
460.39	10923.28
460.57	10972.43
460.76	11119.89
460.94	11075.42
461.12	11070.73
461.31	11061.37
461.49	10927.96
461.67	10949.03
461.85	11332.87
462.04	11461.60
462.22	11688.64
462.40	11449.90
462.59	11580.97
462.77	11349.26
462.95	11557.57
463.13	11683.95
463.32	11410.11
463.50	11913.33
463.68	11815.02
463.86	11709.70
464.05	11473.31
464.23	11871.20
464.41	11992.90
464.59	11693.32
464.78	11967.16
464.96	11950.78
465.14	11978.86
465.32	12046.74
465.50	12290.15
465.69	12250.36
465.87	12004.61
466.05	12119.29
466.23	12248.02
466.41	12248.02
466.60	12439.95
466.78	12280.79
466.96	12098.23
467.14	12140.36
467.32	12152.06
467.51	12709.11
467.69	12095.89
467.87	12208.23
468.05	12437.61
468.23	12404.84
468.41	12650.60
468.60	12685.70
468.78	12442.29
468.96	12421.22
469.14	12847.20
469.32	13146.79
469.50	12379.09
469.69	12952.52
469.87	13032.10
470.05	13128.06
470.23	13331.69
470.41	12905.71
470.59	13500.21
470.77	13111.68
470.95	13390.20
471.14	13399.57
471.32	12746.56
471.50	13453.40
471.68	13582.13
471.86	13727.24
472.04	13771.71
472.22	13982.36
472.40	13757.67
472.58	13940.23
472.77	14026.83
472.95	14324.08
473.13	14600.26
473.31	13865.33
473.49	14258.54
473.67	14115.77
473.85	14143.86
474.03	14366.21
474.21	14649.41
474.39	14773.46
474.57	14572.18
474.75	14806.23
474.93	14930.28
475.12	14902.19
475.30	15009.86
475.48	15009.86
475.66	15222.84
475.84	14939.64
476.02	15328.17
476.20	15171.35
476.38	15679.25
476.56	15819.68
476.74	15683.93
476.92	15655.84
477.10	15576.27
477.28	16051.39
477.46	16023.31
477.64	16311.19
477.82	16341.62
478.00	17092.93
478.18	16718.45
478.36	16828.45
478.54	17020.38
478.72	16858.88
478.90	17570.40
479.08	17617.21
479.26	17631.26
479.44	17783.39
479.62	17895.74
479.80	17914.46
479.98	18029.15
480.16	18452.78
480.34	18293.63
480.52	18721.95
480.70	18710.24
480.88	18389.59
481.06	18820.25
481.24	18670.45
481.41	19323.46
481.59	19363.25
481.77	19262.61
481.95	19571.56
482.13	19213.46
482.31	19604.33
482.49	20411.81
482.67	19992.86
482.85	20655.23
483.03	20549.90
483.21	20994.61
483.39	20924.39
483.57	20767.57
483.74	21025.03
483.92	21184.19
484.10	20865.88
484.28	21500.16
484.46	21968.27
484.64	22377.86
484.82	21844.22
485.00	22635.32
485.18	22490.21
485.35	22810.86
485.53	22871.72
485.71	22967.68
485.89	23576.22
486.07	23054.28
486.25	23187.69
486.43	23543.45
486.61	23974.11
486.78	23709.63
486.96	24147.31
487.14	24528.81
487.32	24814.36
487.50	24900.96
487.68	24842.45
487.85	25111.61
488.03	25425.24
488.21	25694.40
488.39	25844.20
488.57	26178.89
488.75	26136.76
488.92	26347.41
489.10	26815.52
489.28	26522.95
489.46	27070.64
489.64	26759.34
489.81	27999.83
489.99	27615.98
490.17	27442.78
490.35	27875.78
490.53	27744.71
490.70	28343.89
490.88	28046.64
491.06	28512.41
491.24	28673.90
491.41	28744.12
491.59	29235.63
491.77	29415.85
491.95	29551.60
492.13	29741.19
492.30	29905.02
492.48	29813.74
492.66	30113.33
492.84	30352.07
493.01	30654.00
493.19	30382.49
493.37	30401.22
493.54	30932.52
493.72	31667.45
493.90	30991.03
494.08	31613.62
494.25	31983.42
494.43	32037.25
494.61	32147.26
494.79	32491.32
494.96	32254.92
495.14	32912.61
495.32	32966.45
495.49	32929.00
495.67	33139.65
495.85	33589.03
496.02	33694.35
496.20	34125.01
496.38	34242.04
496.55	34188.21
496.73	35150.17
496.91	33998.62
497.09	34597.80
497.26	35049.52
497.44	34462.05
497.62	34780.36
497.79	35728.28
497.97	35519.97
498.14	35573.80
498.32	35910.84
498.50	35601.89
498.67	36666.83
498.85	36603.64
499.03	36624.70
499.20	36540.44
499.38	36779.18
499.56	36624.70
499.73	37123.24
499.91	37160.69
500.08	37266.01
500.26	37207.50
500.44	37694.33
500.61	37729.44
500.79	37951.79
500.97	37972.85
501.14	38543.94
501.32	38543.94
501.49	38211.59
501.67	38553.30
501.84	38820.13
502.02	39009.71
502.20	38733.53
502.37	39227.38
502.55	39056.52
502.72	39587.82
502.90	39461.43
503.07	39854.64
503.25	39934.22
503.43	39718.89
503.60	39927.20
503.78	39873.37
503.95	40098.06
504.13	40428.07
504.30	40900.86
504.48	40187.00
504.65	40947.67
504.83	41148.96
505.01	41331.52
505.18	40861.07
505.36	41476.63
505.53	41284.71
505.71	41317.48
505.88	41663.88
506.06	41453.23
506.23	41567.91
506.41	41752.82
506.58	41874.52
506.76	42295.82
506.93	42092.19
507.11	42211.56
507.28	42459.66
507.46	42536.90
507.63	43044.79
507.81	43342.04
507.98	42911.38
508.16	43536.30
508.33	43367.79
508.50	43007.34
508.68	43714.19
508.85	43849.94
509.03	43842.92
509.20	43840.57
509.38	44236.12
509.55	44378.90
509.73	44718.28
509.90	44720.62
510.08	44229.10
510.25	44264.21
510.42	44868.07
510.60	45387.67
510.77	45202.77
510.95	45404.05
511.12	44961.69
511.30	45275.32
511.47	45415.76
511.64	45387.67
511.82	45970.46
511.99	45500.01
512.17	45738.75
512.34	45998.55
512.51	46555.60
512.69	46487.72
512.86	46335.59
513.04	46295.80
513.21	46162.39
513.38	46241.96
513.56	46916.04
513.73	46639.86
513.90	47019.02
514.08	46763.90
514.25	47159.45
514.43	47168.82
514.60	47299.89
514.77	47367.76
514.95	47482.45
515.12	47372.44
515.29	47164.14
515.47	47674.37
515.64	48512.28
515.81	47732.89
515.99	47849.91
516.16	48608.25
516.33	48252.48
516.51	48446.75
516.68	48748.68
516.85	48280.57
517.03	48385.89
517.20	49078.69
517.37	49038.90
517.54	48470.15
517.72	48875.07
517.89	48849.32
518.06	49439.14
518.24	48954.64
518.41	49095.08
518.58	49322.11
518.75	49160.61
518.93	49345.51
519.10	49223.81
519.27	49804.26
519.45	49490.63
519.62	49759.79
519.79	49923.63
519.96	50284.07
520.14	50227.90
520.31	49893.20
520.48	50195.13
520.65	50206.83
520.83	50225.56
521.00	50724.09
521.17	50461.95
521.34	50454.93
521.52	51320.93
521.69	50747.50
521.86	50740.47
522.03	51079.85
522.20	51274.12
522.38	51529.23
522.55	51082.19
522.72	51021.34
522.89	51213.26
523.07	51655.62
523.24	51384.12
523.41	51676.69
523.58	51426.25
523.75	51721.16
523.92	51728.18
524.10	51894.36
524.27	52044.15
524.44	51896.70
524.61	51959.89
524.78	51995.00
524.96	52236.08
525.13	52210.33
525.30	52397.57
525.47	52343.74
525.64	52626.95
525.81	52500.56
525.98	52413.96
526.16	52720.57
526.33	52610.56
526.50	52846.96
526.67	52643.33
526.84	52706.52
527.01	52750.99
527.18	52933.56
527.36	53059.94
527.53	52722.91
527.70	53219.10
527.87	53448.47
528.04	52947.60
528.21	53125.48
528.38	53347.83
528.55	53420.39
528.72	53294.00
528.89	53382.94
529.07	53249.53
529.24	53502.31
529.41	53717.64
529.58	53584.22
529.75	53717.64
529.92	53565.50
530.09	53675.51
530.26	53851.05
530.43	53914.24
530.60	53752.74
530.77	53815.94
530.94	53989.14
531.11	53881.47
531.28	53937.65
531.46	54042.97
531.63	54267.66
531.80	54380.01
531.97	54323.83
532.14	54129.57
532.31	54293.41
532.48	54438.52
532.65	54688.96
532.82	54244.26
532.99	54543.84
533.16	54162.34
533.33	54960.46
533.50	54972.16
533.67	54852.80
533.84	54688.96
534.01	54852.80
534.18	54850.45
534.35	55133.66
534.52	54958.12
534.69	55262.39
534.86	55185.15
535.03	55168.77
535.20	55117.28
535.37	55510.49
535.54	55143.02
535.71	55288.13
535.88	55487.08
536.05	55517.51
536.22	55437.93
536.38	55557.30
536.55	55306.86
536.72	55547.93
536.89	55199.19
537.06	55480.06
537.23	55590.06
537.40	55543.25
537.57	55538.57
537.74	55524.53
537.91	55716.45
538.08	55891.99
538.25	55407.50
538.42	55859.23
538.59	56107.32
538.75	55828.80
538.92	55955.19
539.09	56041.79
539.26	56184.56
539.43	56229.03
539.60	56142.43
539.77	56048.81
539.94	56411.59
540.11	56226.69
540.28	56537.98
540.44	56542.66
540.61	56566.07
540.78	56332.01
540.95	56493.51
541.12	56158.81
541.29	56554.36
541.46	56364.78
541.62	56385.85
541.79	56776.72
541.96	56416.27
542.13	56657.35
542.30	56296.91
542.47	56898.42
542.63	56910.13
542.80	56786.08
542.97	57181.63
543.14	57057.58
543.31	56963.96
543.48	57277.59
543.64	57301.00
543.81	57251.84
543.98	57148.86
544.15	57371.21
544.32	57226.10
544.48	57453.13
544.65	57155.88
544.82	57350.15
544.99	57340.78
545.16	57446.11
545.32	57497.60
545.49	57673.14
545.66	57689.52
545.83	57530.37
546.00	57600.58
546.16	57530.37
546.33	57432.07
546.50	57286.95
546.67	57523.35
546.83	57483.56
547.00	57647.39
547.17	57628.67
547.34	57719.95
547.50	57982.09
547.67	57939.96
547.84	57818.25
548.00	58162.31
548.17	58398.71
548.34	57951.66
548.51	58206.78
548.67	58082.73
548.84	58113.16
549.01	57996.13
549.18	58190.40
549.34	58185.72
549.51	58096.78
549.68	58244.23
549.84	58232.53
550.01	58443.18
550.18	58316.79
550.34	58375.30
550.51	58487.65
550.68	58188.06
550.84	58202.10
551.01	58438.50
551.18	58344.87
551.34	58335.51
551.51	58578.93
551.68	58487.65
551.84	58213.80
552.01	58171.67
552.18	58529.78
552.34	58403.39
552.51	58653.82
552.68	58356.58
552.84	58417.43
553.01	59175.76
553.18	58700.64
553.34	59119.59
553.51	58625.74
553.67	58932.35
553.84	58752.13
554.01	58628.08
554.17	59044.69
554.34	58836.39
554.51	58894.90
554.67	59154.70
554.84	58883.20
555.00	59040.01
555.17	58742.77
555.33	59121.93
555.50	58927.67
555.67	58946.39
555.83	58892.56
556.00	59128.95
556.16	59299.81
556.33	59409.82
556.50	59192.15
556.66	59269.39
556.83	59072.78
556.99	59348.96
557.16	59442.59
557.32	59620.47
557.49	59559.61
557.65	59323.22
557.82	59311.52
557.98	59416.84
558.15	59264.70
558.32	59496.42
558.48	59348.96
558.65	59196.83
558.81	59655.57
558.98	59580.68
559.14	59447.27
559.31	59545.57
559.47	59519.82
559.64	59601.74
559.80	59697.70
559.97	59767.92
560.13	59465.99
560.30	59611.10
560.46	59728.13
560.63	59744.51
560.79	59718.77
560.96	59861.54
561.12	59842.82
561.29	59948.14
561.45	59884.95
561.61	59711.75
561.78	59810.05
561.94	59627.49
562.11	59718.77
562.27	59786.64
562.44	60032.40
562.60	59929.42
562.77	59943.46
562.93	59828.77
563.10	60126.02
563.26	59847.50
563.42	60212.62
563.59	59882.61
563.75	59828.77
563.92	59835.80
564.08	59948.14
564.24	60135.38
564.41	60093.25
564.57	59999.63
564.74	60140.07
564.90	59955.16
565.07	60163.47
565.23	60069.85
565.39	60135.38
565.56	60348.37
565.72	60147.09
565.88	60081.55
566.05	60083.89
566.21	60111.98
566.38	60179.85
566.54	60177.51
566.70	59983.25
566.87	60299.22
567.03	60062.83
567.19	60371.78
567.36	60238.37
567.52	60350.71
567.68	60500.51
567.85	60437.31
568.01	60406.89
568.17	60224.32
568.34	60336.67
568.50	60308.58
568.66	60313.26
568.83	60313.26
568.99	60329.65
569.15	60287.52
569.32	60458.38
569.48	60364.76
569.64	60446.68
569.81	60339.01
569.97	60472.42
570.13	60355.39
570.30	60423.27
570.46	60544.98
570.62	60397.52
570.78	60299.22
570.95	60449.02
571.11	60420.93
571.27	60512.21
571.43	60507.53
571.60	60519.23
571.76	60467.74
571.92	60488.80
572.09	60474.76
572.25	60556.68
572.41	60390.50
572.57	60537.96
572.74	60598.81
572.90	60467.74
573.06	60683.07
573.22	60573.06
573.38	60626.90
573.55	60437.31
573.71	60729.88
573.87	60832.86
574.03	60441.99
574.20	60657.32
574.36	60523.91
574.52	60647.96
574.68	60776.69
574.84	60652.64
575.01	60659.66
575.17	60603.49
575.33	60629.24
575.49	60807.12
575.65	60615.19
575.82	60687.75
575.98	60807.12
576.14	60907.76
576.30	60893.72
576.46	60781.37
576.62	60687.75
576.79	60683.07
576.95	60446.68
577.11	60647.96
577.27	60757.97
577.43	60697.11
577.59	60502.85
577.75	60647.96
577.92	60676.05
578.08	60837.54
578.24	60961.59
578.40	60844.57
578.56	60938.19
578.72	60858.61
578.88	60793.07
579.04	60870.31
579.21	60704.13
579.37	60910.10
579.53	60987.34
579.69	60683.07
579.85	60760.31
580.01	60570.72
580.17	60924.14
580.33	60802.44
580.49	60783.71
580.65	60989.68
580.82	60746.26
580.98	60774.35
581.14	60732.22
581.30	60863.29
581.46	60977.98
581.62	60542.64
581.78	60610.51
581.94	60849.25
582.10	60905.42
582.26	60917.12
582.42	60748.60
582.58	60807.12
582.74	60900.74
582.90	60772.01
583.06	60914.78
583.22	60790.73
583.38	60835.20
583.54	60891.38
583.70	61010.74
583.86	60931.17
584.02	60849.25
584.18	61162.88
584.34	60966.27
584.50	60945.21
584.66	60685.41
584.82	60846.91
584.98	61048.19
585.14	60889.04
585.30	60968.61
585.46	60917.12
585.62	61015.43
585.78	60945.21
585.94	60774.35
586.10	61071.60
586.26	61097.34
586.42	60996.70
586.58	61123.09
586.74	61048.19
586.90	61071.60
587.06	60982.66
587.22	61169.90
587.38	60999.04
587.54	61160.54
587.70	61059.90
587.86	60970.96
588.02	60645.62
588.18	61116.07
588.34	60889.04
588.49	61141.81
