SpectraSuite Data File
++++++++++++++++++++++++++++++++++++
Date: Fri Oct 25 11:22:41 EDT 2013
User: price-jones
Dark Spectrum Present: No
Reference Spectrum Present: No
Number of Sampled Component Spectra: 1
Spectrometers: USB2+H05261
Integration Time (usec): 100000 (USB2+H05261)
Spectra Averaged: 1 (USB2+H05261)
Boxcar Smoothing: 0 (USB2+H05261)
Correct for Electrical Dark: No (USB2+H05261)
Strobe/Lamp Enabled: No (USB2+H05261)
Correct for Detector Non-linearity: No (USB2+H05261)
Correct for Stray Light: No (USB2+H05261)
Number of Pixels in Processed Spectrum: 2048
>>>>>Begin Processed Spectral Data<<<<<
365.73	212.99
365.92	212.99
366.12	212.99
366.32	191.92
366.52	126.39
366.72	124.05
366.91	128.73
367.11	135.75
367.31	58.51
367.51	140.43
367.70	180.22
367.90	88.94
368.10	168.52
368.30	126.39
368.49	63.19
368.69	119.37
368.89	198.95
369.09	177.88
369.28	121.71
369.48	187.24
369.68	173.20
369.87	180.22
370.07	168.52
370.27	205.97
370.47	407.25
370.66	613.22
370.86	617.90
371.06	770.04
371.25	667.05
371.45	603.86
371.65	662.37
371.84	575.77
372.04	671.73
372.24	713.86
372.44	657.69
372.63	727.91
372.83	763.01
373.03	763.01
373.22	674.07
373.42	795.78
373.62	798.12
373.81	723.23
374.01	786.42
374.21	802.80
374.40	781.74
374.60	830.89
374.79	837.91
374.99	854.30
375.19	837.91
375.38	842.59
375.58	912.81
375.78	903.45
375.97	823.87
376.17	884.72
376.37	851.96
376.56	805.14
376.76	889.40
376.95	887.06
377.15	990.05
377.35	837.91
377.54	950.26
377.74	866.00
377.93	976.00
378.13	964.30
378.33	894.08
378.52	994.73
378.72	959.62
378.91	842.59
379.11	999.41
379.31	980.68
379.50	943.24
379.70	1074.31
379.89	931.53
380.09	987.71
380.28	987.71
380.48	1057.92
380.68	1034.52
380.87	999.41
381.07	887.06
381.26	1111.75
381.46	990.05
381.65	1055.58
381.85	1022.81
382.04	1025.15
382.24	1022.81
382.43	1025.15
382.63	1032.18
382.83	1095.37
383.02	1078.99
383.22	1160.91
383.41	1095.37
383.61	1062.60
383.80	1156.22
384.00	1153.88
384.19	1125.80
384.39	1144.52
384.58	1165.59
384.78	1128.14
384.97	1139.84
385.17	1144.52
385.36	1132.82
385.56	1100.05
385.75	1167.93
385.95	1210.06
386.14	1179.63
386.34	1219.42
386.53	1217.08
386.72	1247.51
386.92	1179.63
387.11	1383.26
387.31	1266.23
387.50	1249.85
387.70	1207.72
387.89	1268.57
388.09	1228.78
388.28	1275.59
388.48	1261.55
388.67	1341.13
388.86	1303.68
389.06	1376.24
389.25	1299.00
389.45	1306.02
389.64	1350.49
389.84	1364.53
390.03	1313.04
390.22	1425.39
390.42	1420.71
390.61	1320.06
390.81	1371.55
391.00	1320.06
391.19	1481.56
391.39	1444.11
391.58	1427.73
391.78	1397.30
391.97	1432.41
392.16	1451.13
392.36	1523.69
392.55	1591.56
392.75	1469.86
392.94	1544.75
393.13	1469.86
393.33	1488.58
393.52	1458.15
393.71	1722.63
393.91	1736.68
394.10	1603.27
394.29	1607.95
394.49	1556.46
394.68	1593.90
394.88	1584.54
395.07	1671.14
395.26	1657.10
395.46	1717.95
395.65	1717.95
395.84	1694.55
396.04	1823.28
396.23	1795.19
396.42	1764.76
396.62	1844.34
396.81	1839.66
397.00	1629.01
397.19	1785.83
397.39	1863.07
397.58	1834.98
397.77	1750.72
397.97	1881.79
398.16	1739.02
398.35	1849.02
398.55	1963.71
398.74	1921.58
398.93	1926.26
399.12	1947.33
399.32	1919.24
399.51	1984.77
399.70	2026.90
399.90	1973.07
400.09	2026.90
400.28	2012.86
400.47	1959.03
400.67	2038.61
400.86	2064.35
401.05	2125.21
401.24	2045.63
401.44	2083.08
401.63	2141.59
401.82	2174.36
402.01	2183.72
402.21	2120.53
402.40	2242.23
402.59	2260.96
402.78	2209.47
402.97	2279.68
403.17	2260.96
403.36	2230.53
403.55	2289.04
403.74	2356.92
403.93	2232.87
404.13	2424.80
404.32	2312.45
404.51	2377.98
404.70	2410.75
404.89	2359.26
405.09	2532.46
405.28	2436.50
405.47	2387.35
405.66	2497.35
405.85	2546.50
406.05	2565.23
406.24	2583.95
406.43	2607.36
406.62	2630.76
406.81	2822.69
407.00	2572.25
407.20	2583.95
407.39	2663.53
407.58	2729.06
407.77	2682.25
407.96	2916.31
408.15	2864.82
408.34	2677.57
408.54	2876.52
408.73	2946.73
408.92	2789.92
409.11	2778.22
409.30	2874.18
409.49	2942.05
409.68	2916.31
409.87	2834.39
410.07	2930.35
410.26	2974.82
410.45	3068.44
410.64	3000.57
410.83	3122.27
411.02	3112.91
411.21	3157.38
411.40	3040.36
411.59	3197.17
411.78	3194.83
411.98	3234.62
412.17	3314.20
412.36	3330.58
412.55	3459.31
412.74	3492.08
412.93	3398.46
413.12	3414.84
413.31	3463.99
413.50	3431.23
413.69	3471.01
413.88	3653.58
414.07	3630.17
414.26	3595.06
414.45	3595.06
414.64	3623.15
414.83	3782.31
415.02	3887.63
415.22	3929.76
415.41	3894.65
415.60	3866.56
415.79	3756.56
415.98	3967.21
416.17	3981.25
416.36	4086.58
416.55	3936.78
416.74	4182.54
416.93	4065.51
417.12	4135.73
417.31	4180.20
417.50	4173.18
417.69	4308.93
417.88	4217.65
418.07	4292.54
418.26	4358.08
418.45	4512.55
418.64	4344.03
418.83	4465.74
419.02	4491.49
419.21	4608.51
419.39	4592.13
419.58	4573.41
419.77	4615.54
419.96	4575.75
420.15	4678.73
420.34	4774.69
420.53	4578.09
420.72	4688.09
420.91	4798.10
421.10	4718.52
421.29	4652.98
421.48	4847.25
421.67	4732.56
421.86	4805.12
422.05	4884.70
422.24	4746.61
422.43	4821.50
422.61	4807.46
422.80	4980.66
422.99	5048.54
423.18	4985.34
423.37	5078.96
423.56	4964.28
423.75	5025.13
423.94	4905.76
424.13	4622.56
424.32	4699.80
424.50	5027.47
424.69	5195.99
424.88	5139.82
425.07	5004.07
425.26	4994.70
425.45	4896.40
425.64	4964.28
425.83	5069.60
426.01	5062.58
426.20	5064.92
426.39	5095.35
426.58	4973.64
426.77	5055.56
426.96	5231.10
427.15	5132.79
427.33	5233.44
427.52	5144.50
427.71	5177.26
427.90	5380.89
428.09	5287.27
428.28	5242.80
428.46	5308.34
428.65	5291.95
428.84	5493.24
429.03	5547.07
429.22	5352.81
429.40	5439.40
429.59	5605.58
429.78	5191.31
429.97	5242.80
430.16	5610.26
430.34	5589.20
430.53	5626.65
430.72	5565.79
430.91	5802.19
431.10	5584.52
431.28	5687.50
431.47	5799.85
431.66	5860.70
431.85	5959.00
432.03	5914.53
432.22	6015.18
432.41	5743.67
432.60	5980.07
432.79	5919.21
432.97	5933.26
433.16	6097.10
433.35	6132.20
433.54	6108.80
433.72	6176.67
433.91	6092.41
434.10	6216.46
434.28	6115.82
434.47	6300.72
434.66	6239.87
434.85	6384.98
435.03	6267.95
435.22	6204.76
435.41	6450.52
435.59	6457.54
435.78	6424.77
435.97	6403.71
436.16	6478.60
436.34	6485.62
436.53	6607.33
436.72	6595.63
436.90	6443.49
437.09	6597.97
437.28	6560.52
437.46	6590.95
437.65	6600.31
437.84	6825.00
438.02	6750.10
438.21	6780.53
438.40	6771.17
438.58	7131.61
438.77	7143.32
438.96	6911.60
439.14	7344.60
439.33	7269.70
439.52	7279.07
439.70	7342.26
439.89	7384.39
440.08	7424.18
440.26	7559.93
440.45	7424.18
440.63	7623.12
440.82	7686.32
441.01	7634.83
441.19	7564.61
441.38	7634.83
441.57	7714.41
441.75	7763.56
441.94	8018.68
442.12	7925.05
442.31	8086.55
442.50	8002.29
442.68	8124.00
442.87	8105.28
443.05	7960.16
443.24	8198.90
443.43	8140.38
443.61	8236.35
443.80	8329.97
443.98	8149.75
444.17	7941.44
444.35	8205.92
444.54	8304.22
444.73	8332.31
444.91	8432.95
445.10	8365.07
445.28	8432.95
445.47	8435.29
445.65	8514.87
445.84	8468.06
446.02	8561.68
446.21	8472.74
446.39	8402.52
446.58	8580.40
446.77	8376.78
446.95	8346.35
447.14	8437.63
447.32	8758.28
447.51	8472.74
447.69	8500.83
447.88	8592.11
448.06	8709.13
448.25	8655.30
448.43	8702.11
448.62	8620.19
448.80	8376.78
448.99	8772.33
449.17	8872.97
449.36	8800.41
449.54	8858.93
449.73	9221.71
449.91	9069.58
450.10	9092.98
450.28	8999.36
450.46	9085.96
450.65	9055.53
450.83	8903.40
451.02	9001.70
451.20	9322.35
451.39	9118.73
451.57	9153.84
451.76	9235.75
451.94	9071.92
452.13	9371.50
452.31	9303.63
452.49	9231.07
452.68	9474.49
452.86	9460.45
453.05	9334.06
453.23	9423.00
453.42	9425.34
453.60	9460.45
453.78	9652.37
453.97	9467.47
454.15	9383.21
454.34	9654.71
454.52	9757.69
454.70	9745.99
454.89	9792.80
455.07	9923.87
455.26	9863.02
455.44	10115.80
455.62	9832.59
455.81	10043.24
455.99	9942.60
456.17	9921.53
456.36	10216.44
456.54	10258.57
456.73	10209.42
456.91	10487.94
457.09	10366.23
457.28	10602.63
457.46	10345.17
457.64	10345.17
457.83	10675.18
458.01	10621.35
458.19	10607.31
458.38	10576.88
458.56	10717.31
458.74	10595.61
458.93	10799.23
459.11	10871.79
459.29	10647.10
459.48	10855.40
459.66	10834.34
459.84	10937.32
460.03	10951.37
460.21	10871.79
460.39	11110.52
460.57	10949.03
460.76	11037.97
460.94	11269.68
461.12	11194.78
461.31	11126.91
461.49	11056.69
461.67	11185.42
461.85	11587.99
462.04	11311.81
462.22	12070.14
462.40	11557.57
462.59	11676.93
462.77	11468.62
462.95	11658.21
463.13	11618.42
463.32	11688.64
463.50	11667.57
463.68	11997.59
463.86	11976.52
464.05	11576.29
464.23	11955.46
464.41	12023.33
464.59	11756.51
464.78	12009.29
464.96	11953.12
465.14	11737.79
465.32	12133.34
465.50	12210.57
465.69	12278.45
465.87	12016.31
466.05	12032.69
466.23	11964.82
466.41	12425.90
466.60	12545.27
466.78	12217.60
466.96	12191.85
467.14	12493.78
467.32	12372.07
467.51	12760.60
467.69	12318.24
467.87	12526.55
468.05	12662.30
468.23	12379.09
468.41	12795.71
468.60	12554.63
468.78	12936.14
468.96	12688.04
469.14	12844.86
469.32	13139.77
469.50	12894.01
469.69	13027.42
469.87	13270.84
470.05	13217.01
470.23	13064.87
470.41	13259.13
470.59	13336.37
470.77	12959.55
470.95	13231.05
471.14	13902.78
471.32	13303.60
471.50	13603.19
471.68	13504.89
471.86	13750.65
472.04	13722.56
472.22	13951.93
472.40	13652.34
472.58	13980.02
472.77	14118.11
472.95	14148.54
473.13	14757.08
473.31	14352.16
473.49	14387.27
473.67	14384.93
473.85	14513.66
474.03	14750.06
474.21	14897.51
474.39	14518.34
474.57	14480.89
474.75	14911.55
474.93	15108.16
475.12	14808.57
475.30	15293.06
475.48	15035.60
475.66	15335.19
475.84	15091.77
476.02	15484.98
476.20	15302.42
476.38	15754.15
476.56	16039.69
476.74	16079.48
476.92	16112.25
477.10	15932.03
477.28	16533.54
477.46	16437.58
477.64	16673.98
477.82	16510.14
478.00	17046.12
478.18	16776.96
478.36	17338.69
478.54	17268.47
478.72	17249.75
478.90	17472.10
479.08	17790.41
479.26	17692.11
479.44	18019.78
479.62	18008.08
479.80	17970.63
479.98	18162.56
480.16	18672.79
480.34	18370.86
480.52	18817.91
480.70	18752.37
480.88	18478.53
481.06	18995.79
481.24	18892.80
481.41	19206.44
481.59	19522.41
481.77	19531.77
481.95	19655.82
482.13	19929.66
482.31	19735.40
482.49	20306.49
482.67	20245.63
482.85	20463.30
483.03	20732.47
483.21	21025.03
483.39	20828.43
483.57	21036.74
483.74	21067.16
483.92	21923.80
484.10	21331.64
484.28	22005.72
484.46	22448.08
484.64	22497.23
484.82	22195.30
485.00	22548.72
485.18	22918.53
485.35	23117.47
485.53	22789.80
485.71	23501.32
485.89	23735.37
486.07	23924.96
486.25	23779.84
486.43	24002.19
486.61	24123.90
486.78	24088.79
486.96	24364.98
487.14	24606.05
487.32	24514.77
487.50	25076.50
487.68	25123.31
487.85	24849.47
488.03	25860.58
488.21	25921.43
488.39	26366.13
488.57	26361.45
488.75	26408.26
488.92	26511.25
489.10	26820.20
489.28	26918.50
489.46	27115.11
489.64	27239.15
489.81	27653.43
489.99	27924.93
490.17	27892.16
490.35	28552.20
490.53	28357.93
490.70	28837.74
490.88	28659.86
491.06	29088.18
491.24	28790.93
491.41	29160.73
491.59	29820.77
491.77	29640.54
491.95	30024.39
492.13	29638.20
492.30	30164.82
492.48	29888.64
492.66	30569.74
492.84	30394.20
493.01	30726.55
493.19	30834.22
493.37	31213.38
493.54	31307.01
493.72	32304.07
493.90	31924.91
494.08	32098.11
494.25	32540.47
494.43	32070.02
494.61	32652.81
494.79	32488.98
494.96	32687.92
495.14	32641.11
495.32	33298.80
495.49	33137.30
495.67	33226.24
495.85	33715.42
496.02	33897.98
496.20	34237.36
496.38	33979.90
496.55	34148.42
496.73	34986.33
496.91	34937.18
497.09	34951.22
497.26	35154.85
497.44	34735.89
497.62	35669.76
497.79	35952.97
497.97	35831.26
498.14	36100.42
498.32	36187.02
498.50	36285.33
498.67	36898.55
498.85	36580.23
499.03	36961.74
499.20	36858.76
499.38	36662.15
499.56	37132.60
499.73	37195.79
499.91	37366.65
500.08	37766.88
500.26	37780.93
500.44	37956.47
500.61	38094.56
500.79	37780.93
500.97	38494.79
501.14	39082.27
501.32	38817.78
501.49	38604.80
501.67	39168.87
501.84	38925.45
502.02	39122.05
502.20	39152.48
502.37	39594.84
502.55	39648.68
502.72	39665.06
502.90	39849.96
503.07	40044.23
503.25	39587.82
503.43	39924.86
503.60	40514.67
503.78	40664.47
503.95	40507.65
504.13	41303.43
504.30	41081.08
504.48	40680.85
504.65	41191.09
504.83	41560.89
505.01	41415.78
505.18	41612.38
505.36	41846.44
505.53	42000.91
505.71	41401.74
505.88	41661.54
506.06	41434.50
506.23	42597.75
506.41	41979.85
506.58	42263.05
506.76	42469.02
506.93	42595.41
507.11	42782.65
507.28	43007.34
507.46	43056.50
507.63	43440.34
507.81	43414.60
507.98	43166.50
508.16	43548.01
508.33	43732.91
508.50	43723.55
508.68	43482.47
508.85	44044.20
509.03	44119.10
509.20	44397.62
509.38	44818.92
509.55	44748.70
509.73	44804.88
509.90	44577.84
510.08	44610.61
510.25	45366.60
510.42	45017.86
510.60	45394.69
510.77	45366.60
510.95	45301.07
511.12	45305.75
511.30	45359.58
511.47	45682.58
511.64	45797.26
511.82	46340.27
511.99	46014.93
512.17	45972.80
512.34	46136.64
512.51	46974.55
512.69	46845.82
512.86	46717.09
513.04	47051.79
513.21	47007.32
513.38	47297.55
513.56	47161.79
513.73	47196.90
513.90	46986.25
514.08	47185.20
514.25	47585.43
514.43	48072.26
514.60	47529.26
514.77	47693.10
514.95	48037.16
515.12	47547.98
515.29	47971.62
515.47	48229.08
515.64	48519.31
515.81	47842.89
515.99	48158.86
516.16	48626.97
516.33	48727.61
516.51	49048.27
516.68	48540.37
516.85	48889.11
517.03	48968.69
517.20	49130.19
517.37	49090.40
517.54	48910.17
517.72	49169.97
517.89	49361.90
518.06	49521.05
518.24	49254.23
518.41	49418.07
518.58	49588.93
518.75	49851.07
518.93	49881.50
519.10	49481.27
519.27	49963.42
519.45	49937.67
519.62	50031.29
519.79	50314.50
519.96	50284.07
520.14	50323.86
520.31	50110.87
520.48	50457.27
520.65	50501.74
520.83	51047.08
521.00	50965.17
521.17	50616.43
521.34	50623.45
521.52	51061.13
521.69	50925.38
521.86	51171.13
522.03	51402.85
522.20	51402.85
522.38	51791.37
522.55	51545.62
522.72	51468.38
522.89	51423.91
523.07	52207.99
523.24	51791.37
523.41	51744.56
523.58	51388.80
523.75	52119.05
523.92	51798.40
524.10	52149.48
524.27	52018.41
524.44	52355.44
524.61	52004.36
524.78	52268.84
524.96	52282.89
525.13	52444.38
525.30	52605.88
525.47	52884.40
525.64	52624.60
525.81	52917.17
525.98	52963.98
526.16	52685.46
526.33	53029.52
526.50	53029.52
526.67	53212.08
526.84	53085.69
527.01	53153.57
527.18	53265.91
527.36	52949.94
527.53	53258.89
527.70	53425.07
527.87	53385.28
528.04	53474.22
528.21	53455.50
528.38	53586.57
528.55	53989.14
528.72	53628.69
528.89	53656.78
529.07	53614.65
529.24	53558.48
529.41	53745.72
529.58	53745.72
529.75	53844.02
529.92	54028.93
530.09	54145.95
530.26	54026.59
530.43	54328.52
530.60	54150.63
530.77	53911.90
530.94	54525.12
531.11	54265.32
531.28	54445.54
531.46	54445.54
531.63	54438.52
531.80	54370.64
531.97	54534.48
532.14	54459.58
532.31	54670.23
532.48	54667.89
532.65	54995.57
532.82	54817.69
532.99	54665.55
533.16	54499.37
533.33	54892.58
533.50	55126.64
533.67	55061.10
533.84	55000.25
534.01	55316.22
534.18	55037.70
534.35	55391.12
534.52	55098.55
534.69	55299.84
534.86	55557.30
535.03	55131.32
535.20	55288.13
535.37	55622.83
535.54	55735.18
535.71	55484.74
535.88	55686.03
536.05	55625.17
536.22	55786.67
536.38	55779.65
536.55	55774.97
536.72	55807.73
536.89	55547.93
537.06	55758.58
537.23	55913.06
537.40	55838.16
537.57	56030.08
537.74	56034.77
537.91	56037.11
538.08	56107.32
538.25	56032.42
538.42	56126.05
538.59	56327.33
538.75	56196.26
538.92	56119.02
539.09	56315.63
539.26	56156.47
539.43	56376.48
539.60	56317.97
539.77	56369.46
539.94	56423.29
540.11	56542.66
540.28	56793.10
540.44	56750.97
540.61	56823.53
540.78	56577.77
540.95	56624.58
541.12	56655.01
541.29	56458.40
541.46	56872.68
541.62	56765.01
541.79	56825.87
541.96	56760.33
542.13	56753.31
542.30	56961.62
542.47	57003.75
542.63	57158.22
542.80	56914.81
542.97	56919.49
543.14	57315.04
543.31	57183.97
543.48	57434.41
543.64	57481.22
543.81	57453.13
543.98	57387.60
544.15	57612.29
544.32	57513.98
544.48	57813.57
544.65	57406.32
544.82	57476.54
544.99	57343.12
545.16	57813.57
545.32	57659.10
545.49	57918.90
545.66	58148.27
545.83	57696.55
546.00	58038.26
546.16	57921.24
546.33	57923.58
546.50	57619.31
546.67	58021.88
546.83	57642.71
547.00	57975.07
547.17	58042.95
547.34	57961.03
547.50	57911.88
547.67	58382.32
547.84	58199.76
548.00	58188.06
548.17	58389.34
548.34	58129.54
548.51	58464.24
548.67	58307.43
548.84	58255.93
549.01	58150.61
549.18	58255.93
549.34	58286.36
549.51	58298.06
549.68	58497.01
549.84	58412.75
550.01	58511.05
550.18	58431.47
550.34	58728.72
550.51	58651.48
550.68	58520.41
550.84	58379.98
551.01	58754.47
551.18	58742.77
551.34	58805.96
551.51	58674.89
551.68	58609.35
551.84	58688.93
552.01	58595.31
552.18	58857.45
552.34	58913.62
552.51	58990.86
552.68	58745.11
552.84	59028.31
553.01	59150.02
553.18	59248.32
553.34	58937.03
553.51	58932.35
553.67	58908.94
553.84	59330.24
554.01	59028.31
554.17	59161.72
554.34	59110.23
554.51	59159.38
554.67	59194.49
554.84	59143.00
555.00	59110.23
555.17	59084.48
555.33	59164.06
555.50	58969.80
555.67	59157.04
555.83	59206.19
556.00	59014.27
556.16	59693.02
556.33	59374.71
556.50	59292.79
556.66	59590.04
556.83	59313.86
556.99	59395.77
557.16	59540.89
557.32	59491.74
557.49	59650.89
557.65	59503.44
557.82	59629.83
557.98	59662.60
558.15	59657.91
558.32	59550.25
558.48	59517.48
558.65	59590.04
558.81	59774.94
558.98	59891.97
559.14	59833.46
559.31	59987.93
559.47	59721.11
559.64	59824.09
559.80	59863.88
559.97	59877.93
560.13	59625.15
560.30	59999.63
560.46	59852.18
560.63	60041.76
560.79	59920.05
560.96	60170.49
561.12	60144.75
561.29	60079.21
561.45	60116.66
561.61	60065.17
561.78	59938.78
561.94	60088.57
562.11	59908.35
562.27	60016.02
562.44	60023.04
562.60	60037.08
562.77	60123.68
562.93	60051.12
563.10	60205.60
563.26	60018.36
563.42	60409.23
563.59	60102.62
563.75	60060.49
563.92	60186.88
564.08	60095.60
564.24	60339.01
564.41	60140.07
564.57	60451.36
564.74	60385.82
564.90	60420.93
565.07	60168.15
565.23	60205.60
565.39	60210.28
565.56	60540.30
565.72	60149.43
565.88	60441.99
566.05	60252.41
566.21	60271.14
566.38	60500.51
566.54	60364.76
566.70	60535.62
566.87	60718.18
567.03	60289.86
567.19	60587.11
567.36	60535.62
567.52	60292.20
567.68	60626.90
567.85	60444.33
568.01	60612.85
568.17	60591.79
568.34	60427.95
568.50	60467.74
568.66	60509.87
568.83	60549.66
568.99	60493.49
569.15	60498.17
569.32	60608.17
569.48	60486.46
569.64	60872.65
569.81	60491.15
569.97	60437.31
570.13	60486.46
570.30	60720.52
570.46	60764.99
570.62	60767.33
570.78	60589.45
570.95	60355.39
571.11	60636.26
571.27	60732.22
571.43	60636.26
571.60	61013.08
571.76	60800.10
571.92	60495.83
572.09	60764.99
572.25	60795.42
572.41	60673.71
572.57	60638.60
572.74	61006.06
572.90	60886.70
573.06	60935.85
573.22	60896.06
573.38	60671.37
573.55	60781.37
573.71	60977.98
573.87	60676.05
574.03	60603.49
574.20	60879.67
574.36	60772.01
574.52	60903.08
574.68	60860.95
574.84	61036.49
575.01	61064.58
575.17	61022.45
575.33	61085.64
575.49	60683.07
575.65	61020.11
575.82	60912.44
575.98	60879.67
576.14	60874.99
576.30	61130.11
576.46	60809.46
576.62	60797.76
576.79	60867.97
576.95	60800.10
577.11	61003.72
577.27	61010.74
577.43	60889.04
577.59	60636.26
577.75	60905.42
577.92	60750.94
578.08	61045.85
578.24	61055.21
578.40	61064.58
578.56	61102.03
578.72	60701.79
578.88	61197.99
579.04	61137.13
579.21	60999.04
579.37	61244.80
579.53	61261.18
579.69	60804.78
579.85	61001.38
580.01	61062.24
580.17	60851.59
580.33	61172.24
580.49	60996.70
580.65	61104.37
580.82	60764.99
580.98	60804.78
581.14	60970.96
581.30	60924.14
581.46	61001.38
581.62	61020.11
581.78	61003.72
581.94	61118.41
582.10	61237.78
582.26	61118.41
582.42	61031.81
582.58	61041.17
582.74	60732.22
582.90	61048.19
583.06	61169.90
583.22	61027.13
583.38	61272.88
583.54	61125.43
583.70	61069.26
583.86	61275.22
584.02	61167.56
584.18	61296.29
584.34	61247.14
584.50	61268.20
584.66	61038.83
584.82	60954.57
584.98	61275.22
585.14	61167.56
585.30	61127.77
585.46	61249.48
585.62	61141.81
585.78	61371.19
585.94	61155.86
586.10	61137.13
586.26	61282.25
586.42	61127.77
586.58	61214.37
586.74	61120.75
586.90	60949.89
587.06	61312.67
587.22	61333.74
587.38	61022.45
587.54	61240.12
587.70	61439.06
587.86	61113.73
588.02	61216.71
588.18	61205.01
588.34	61197.99
588.49	61394.59
