SpectraSuite Data File
++++++++++++++++++++++++++++++++++++
Date: Fri Oct 25 10:43:14 EDT 2013
User: price-jones
Dark Spectrum Present: No
Reference Spectrum Present: No
Number of Sampled Component Spectra: 1
Spectrometers: USB2+H05261
Integration Time (usec): 100000 (USB2+H05261)
Spectra Averaged: 1 (USB2+H05261)
Boxcar Smoothing: 0 (USB2+H05261)
Correct for Electrical Dark: No (USB2+H05261)
Strobe/Lamp Enabled: No (USB2+H05261)
Correct for Detector Non-linearity: No (USB2+H05261)
Correct for Stray Light: No (USB2+H05261)
Number of Pixels in Processed Spectrum: 2048
>>>>>Begin Processed Spectral Data<<<<<
365.73	77.24
365.92	77.24
366.12	77.24
366.32	0.00
366.52	0.00
366.72	58.51
366.91	0.00
367.11	42.13
367.31	28.09
367.51	16.38
367.70	7.02
367.90	28.09
368.10	53.83
368.30	11.70
368.49	65.54
368.69	81.92
368.89	105.32
369.09	110.01
369.28	91.28
369.48	79.58
369.68	74.90
369.87	42.13
370.07	4.68
370.27	154.48
370.47	173.20
370.66	337.04
370.86	353.42
371.06	482.15
371.25	416.62
371.45	367.46
371.65	479.81
371.84	430.66
372.04	468.11
372.24	512.58
372.44	479.81
372.63	545.34
372.83	514.92
373.03	543.00
373.22	486.83
373.42	435.34
373.62	550.03
373.81	437.68
374.01	503.22
374.21	557.05
374.40	540.66
374.60	533.64
374.79	517.26
374.99	552.37
375.19	547.69
375.38	664.71
375.58	613.22
375.78	531.30
375.97	608.54
376.17	554.71
376.37	552.37
376.56	641.31
376.76	643.65
376.95	615.56
377.15	622.58
377.35	664.71
377.54	596.84
377.74	671.73
377.93	641.31
378.13	613.22
378.33	692.80
378.52	648.33
378.72	683.44
378.91	671.73
379.11	669.39
379.31	657.69
379.50	594.50
379.70	671.73
379.89	784.08
380.09	690.46
380.28	678.76
380.48	695.14
380.68	671.73
380.87	580.45
381.07	744.29
381.26	697.48
381.46	791.10
381.65	711.52
381.85	645.99
382.04	723.23
382.24	737.27
382.43	671.73
382.63	636.63
382.83	638.97
383.02	770.04
383.22	739.61
383.41	751.31
383.61	723.23
383.80	711.52
384.00	737.27
384.19	763.01
384.39	706.84
384.58	816.85
384.78	699.82
384.97	851.96
385.17	704.50
385.36	751.31
385.56	833.23
385.75	788.76
385.95	751.31
386.14	884.72
386.34	788.76
386.53	851.96
386.72	793.44
386.92	849.61
387.11	901.11
387.31	856.64
387.50	901.11
387.70	823.87
387.89	915.15
388.09	823.87
388.28	828.55
388.48	976.00
388.67	823.87
388.86	952.60
389.06	961.96
389.25	898.77
389.45	945.58
389.64	933.87
389.84	990.05
390.03	1013.45
390.22	1043.88
390.42	931.53
390.61	940.90
390.81	1046.22
391.00	997.07
391.19	966.64
391.39	1078.99
391.58	1067.28
391.78	1039.20
391.97	1060.26
392.16	954.94
392.36	983.02
392.55	1090.69
392.75	1011.11
392.94	945.58
393.13	1015.79
393.33	1020.47
393.52	1076.65
393.71	1107.07
393.91	1081.33
394.10	1135.16
394.29	1032.18
394.49	1153.88
394.68	1153.88
394.88	1254.53
395.07	1238.14
395.26	1118.78
395.46	1196.01
395.65	1310.70
395.84	1252.19
396.04	1231.12
396.23	1193.67
396.42	1186.65
396.62	1228.78
396.81	1100.05
397.00	1188.99
397.19	1179.63
397.39	1277.93
397.58	1383.26
397.77	1401.98
397.97	1441.77
398.16	1420.71
398.35	1439.43
398.55	1387.94
398.74	1418.36
398.93	1509.65
399.12	1350.49
399.32	1462.83
399.51	1437.09
399.70	1540.07
399.90	1591.56
400.09	1589.22
400.28	1570.50
400.47	1600.93
400.67	1598.59
400.86	1598.59
401.05	1640.72
401.24	1687.53
401.44	1811.57
401.63	1647.74
401.82	1699.23
402.01	1640.72
402.21	1666.46
402.40	1736.68
402.59	1668.80
402.78	1701.57
402.97	1739.02
403.17	1774.13
403.36	1696.89
403.55	1842.00
403.74	1895.83
403.93	1982.43
404.13	1823.28
404.32	1830.30
404.51	1879.45
404.70	1837.32
404.89	1989.46
405.09	1963.71
405.28	1989.46
405.47	1919.24
405.66	1914.56
405.85	2052.65
406.05	2036.27
406.24	1909.88
406.43	1989.46
406.62	2064.35
406.81	2153.29
407.00	2069.03
407.20	1949.67
407.39	2160.31
407.58	2113.50
407.77	2211.81
407.96	2153.29
408.15	2279.68
408.34	2181.38
408.54	2260.96
408.73	2342.88
408.92	2284.36
409.11	2328.83
409.30	2387.35
409.49	2251.60
409.68	2174.36
409.87	2256.28
410.07	2277.34
410.26	2303.09
410.45	2392.03
410.64	2408.41
410.83	2443.52
411.02	2523.10
411.21	2619.06
411.40	2607.36
411.59	2544.16
411.78	2621.40
411.98	2527.78
412.17	2696.30
412.36	2738.43
412.55	2703.32
412.74	2768.85
412.93	2738.43
413.12	2682.25
413.31	2796.94
413.50	2913.97
413.69	2920.99
413.88	2911.63
414.07	2825.03
414.26	2888.22
414.45	2899.92
414.64	2949.08
414.83	3049.72
415.02	3066.10
415.22	3138.66
415.41	3112.91
415.60	3009.93
415.79	3206.53
415.98	3162.06
416.17	3328.24
416.36	3183.13
416.55	3353.99
416.74	3260.37
416.93	3208.87
417.12	3269.73
417.31	3267.39
417.50	3393.78
417.69	3466.33
417.88	3393.78
418.07	3412.50
418.26	3543.57
418.45	3454.63
418.64	3651.24
418.83	3510.80
419.02	3466.33
419.21	3506.12
419.39	3552.93
419.58	3585.70
419.77	3344.63
419.96	3585.70
420.15	3728.47
420.34	3716.77
420.53	3840.82
420.72	3756.56
420.91	3803.37
421.10	3815.07
421.29	3885.29
421.48	3826.78
421.67	4007.00
421.86	3831.46
422.05	3985.93
422.24	3803.37
422.43	3768.26
422.61	3892.31
422.80	3941.46
422.99	3864.22
423.18	3836.14
423.37	3934.44
423.56	3896.99
423.75	3957.85
423.94	3866.56
424.13	3772.94
424.32	3737.84
424.50	4058.49
424.69	4044.45
424.88	4084.23
425.07	3768.26
425.26	3822.09
425.45	3934.44
425.64	3906.35
425.83	3859.54
426.01	4042.11
426.20	4079.55
426.39	3941.46
426.58	3887.63
426.77	3960.19
426.96	3873.59
427.15	3918.06
427.33	4063.17
427.52	4053.81
427.71	4184.88
427.90	4018.70
428.09	4044.45
428.28	4255.09
428.46	4152.11
428.65	4074.87
428.84	4257.43
429.03	4367.44
429.22	4114.66
429.40	4060.83
429.59	4224.67
429.78	4079.55
429.97	3906.35
430.16	3948.48
430.34	4079.55
430.53	4187.22
430.72	4126.36
430.91	4217.65
431.10	4248.07
431.28	4465.74
431.47	4566.39
431.66	4648.30
431.85	4507.87
432.03	4557.02
432.22	4664.69
432.41	4636.60
432.60	4662.35
432.79	4758.31
432.97	4732.56
433.16	4723.20
433.35	4664.69
433.54	4624.90
433.72	4664.69
433.91	4477.44
434.10	4674.05
434.28	4648.30
434.47	4805.12
434.66	4910.44
434.85	5069.60
435.03	5008.75
435.22	4905.76
435.41	5123.43
435.59	4943.21
435.78	5228.76
435.97	5160.88
436.16	5078.96
436.34	5081.30
436.53	5118.75
436.72	5289.61
436.90	5085.98
437.09	5074.28
437.28	5039.17
437.46	5172.58
437.65	5207.69
437.84	5078.96
438.02	5298.97
438.21	5296.63
438.40	5022.79
438.58	5336.42
438.77	5366.85
438.96	5458.13
439.14	5631.33
439.33	5659.42
439.52	5556.43
439.70	5753.04
439.89	5582.18
440.08	5717.93
440.26	5614.95
440.45	5600.90
440.63	5818.57
440.82	6057.31
441.01	5994.11
441.19	5921.56
441.38	6195.40
441.57	5961.34
441.75	6251.57
441.94	6232.85
442.12	6085.39
442.31	6277.32
442.50	6434.13
442.68	6282.00
442.87	6403.71
443.05	6249.23
443.24	6527.75
443.43	6464.56
443.61	6340.51
443.80	6614.35
443.98	6436.47
444.17	6401.37
444.35	6579.25
444.54	6555.84
444.73	6511.37
444.91	6436.47
445.10	6565.20
445.28	6576.91
445.47	6366.26
445.65	6487.96
445.84	6459.88
446.02	6691.59
446.21	6490.31
446.39	6483.28
446.58	6647.12
446.77	6621.38
446.95	6612.01
447.14	6710.32
447.32	6600.31
447.51	6693.93
447.69	6527.75
447.88	6850.75
448.06	6670.53
448.25	6710.32
448.43	6785.21
448.62	6738.40
448.80	6661.16
448.99	6754.79
449.17	6913.94
449.36	6810.96
449.54	7002.88
449.73	7159.70
449.91	7140.97
450.10	7279.07
450.28	7407.80
450.46	7166.72
450.65	7241.62
450.83	7208.85
451.02	7201.83
451.20	7290.77
451.39	7269.70
451.57	7410.14
451.76	7005.22
451.94	7187.79
452.13	7302.47
452.31	7239.28
452.49	7159.70
452.68	7243.96
452.86	7152.68
453.05	7440.56
453.23	7349.28
453.42	7297.79
453.60	7360.98
453.78	7475.67
453.97	7478.01
454.15	7232.26
454.34	7218.21
454.52	7571.63
454.70	7651.21
454.89	7648.87
455.07	7492.05
455.26	7665.25
455.44	7882.92
455.62	7606.74
455.81	7784.62
455.99	7887.61
456.17	7786.96
456.36	7829.09
456.54	8009.31
456.73	7850.16
456.91	8177.83
457.09	8173.15
457.28	8273.79
457.46	7901.65
457.64	8102.93
457.83	8189.53
458.01	8098.25
458.19	8166.13
458.38	8032.72
458.56	8212.94
458.74	8294.86
458.93	8173.15
459.11	8093.57
459.29	8067.83
459.48	8234.00
459.66	8226.98
459.84	8468.06
460.03	8514.87
460.21	8528.91
460.39	8540.61
460.57	8524.23
460.76	8292.52
460.94	8608.49
461.12	8549.98
461.31	8652.96
461.49	8482.10
461.67	8559.34
461.85	8870.63
462.04	8872.97
462.22	9334.06
462.40	8945.53
462.59	8889.35
462.77	8987.66
462.95	8713.81
463.13	8847.22
463.32	9116.39
463.50	9022.77
463.68	9123.41
463.86	9029.79
464.05	8910.42
464.23	8634.24
464.41	8945.53
464.59	8959.57
464.78	9202.99
464.96	9055.53
465.14	9074.26
465.32	9118.73
465.50	9235.75
465.69	9397.25
465.87	9172.56
466.05	9118.73
466.23	9193.62
466.41	9198.31
466.60	9455.76
466.78	9158.52
466.96	9235.75
467.14	9212.35
467.32	9352.78
467.51	9420.66
467.69	9266.18
467.87	9586.83
468.05	9598.54
468.23	9275.54
468.41	9423.00
468.60	9537.68
468.78	9635.99
468.96	9399.59
469.14	9769.40
469.32	9722.59
469.50	9383.21
469.69	9638.33
469.87	9863.02
470.05	9785.78
470.23	9706.20
470.41	9809.19
470.59	9769.40
470.77	9795.14
470.95	10092.39
471.14	10178.99
471.32	10068.98
471.50	10256.23
471.68	10195.37
471.86	10370.91
472.04	10164.95
472.22	10469.22
472.40	10361.55
472.58	10462.19
472.77	10387.30
472.95	10370.91
473.13	10960.73
473.31	10363.89
473.49	10429.43
473.67	10551.14
473.85	10738.38
474.03	10911.58
474.21	10944.34
474.39	11080.10
474.57	10885.83
474.75	11344.58
474.93	11150.31
475.12	11108.18
475.30	11112.86
475.48	11288.40
475.66	11342.24
475.84	11323.51
476.02	11377.34
476.20	11555.22
476.38	11730.76
476.56	11831.41
476.74	11847.79
476.92	11597.35
477.10	11913.33
477.28	12170.79
477.46	12140.36
477.64	12102.91
477.82	12404.84
478.00	12538.25
478.18	12320.58
478.36	12617.83
478.54	12559.31
478.72	12816.77
478.90	12638.89
479.08	13034.44
479.26	12989.97
479.44	13057.85
479.62	13254.45
479.80	13315.31
479.98	13352.76
480.16	13687.45
480.34	13558.72
480.52	13706.18
480.70	13563.40
480.88	13467.44
481.06	14097.05
481.24	14115.77
481.41	14174.28
481.59	14553.45
481.77	14469.19
481.95	14345.14
482.13	14647.07
482.31	14471.53
482.49	14759.42
482.67	14611.96
482.85	14883.47
483.03	15229.87
483.21	15073.05
483.39	15524.77
483.57	15459.24
483.74	15272.00
483.92	15571.58
484.10	15396.04
484.28	15777.55
484.46	15901.60
484.64	16194.17
484.82	16035.01
485.00	16236.30
485.18	16177.78
485.35	16123.95
485.53	15861.81
485.71	16023.31
485.89	16369.71
486.07	16336.94
486.25	16578.01
486.43	16732.49
486.61	16929.09
486.78	17284.86
486.96	17301.24
487.14	17481.46
487.32	17549.34
487.50	17961.27
487.68	18052.55
487.85	18349.80
488.03	18625.98
488.21	18555.77
488.39	18373.21
488.57	18728.97
488.75	18740.67
488.92	19192.39
489.10	19604.33
489.28	19417.08
489.46	19433.47
489.64	19648.80
489.81	20137.97
489.99	20100.52
490.17	20030.30
490.35	20346.28
490.53	20297.13
490.70	20538.20
490.88	20496.07
491.06	20683.31
491.24	20781.62
491.41	20367.34
491.59	20486.71
491.77	20989.92
491.95	21113.97
492.13	21078.86
492.30	21436.97
492.48	21642.93
492.66	21563.36
492.84	21762.30
493.01	22054.87
493.19	22017.42
493.37	22111.04
493.54	22232.75
493.72	22368.50
493.90	22309.99
494.08	22977.04
494.25	22946.61
494.43	23056.62
494.61	23517.70
494.79	23473.23
494.96	23473.23
495.14	23513.02
495.32	23440.47
495.49	23569.19
495.67	23892.19
495.85	23941.34
496.02	23733.03
496.20	24280.72
496.38	24496.05
496.55	24517.11
496.73	24800.32
496.91	24723.08
497.09	25062.46
497.26	25069.48
497.44	25053.09
497.62	25294.17
497.79	25308.21
497.97	25069.48
498.14	25411.20
498.32	25560.99
498.50	25652.27
498.67	25675.68
498.85	25949.52
499.03	26078.25
499.20	25928.45
499.38	25942.50
499.56	26211.66
499.73	26639.98
499.91	26679.77
500.08	26342.73
500.26	26422.31
500.44	26398.90
500.61	26473.80
500.79	26536.99
500.97	26867.01
501.14	27145.53
501.32	27257.88
501.49	26859.99
501.67	27033.19
501.84	27295.33
502.02	27527.04
502.20	27704.92
502.37	27557.47
502.55	27597.26
502.72	27800.88
502.90	27985.79
503.07	27538.74
503.25	28025.57
503.43	27857.06
503.60	28105.15
503.78	28161.33
503.95	28151.96
504.13	28191.75
504.30	28643.48
504.48	28491.34
504.65	28643.48
504.83	28767.52
505.01	29343.30
505.18	28847.10
505.36	29465.00
505.53	29060.09
505.71	29553.94
505.88	29256.70
506.06	29064.77
506.23	29689.70
506.41	29418.19
506.58	30054.82
506.76	29912.05
506.93	30082.91
507.11	29942.47
507.28	29813.74
507.46	29848.85
507.63	30197.59
507.81	29935.45
507.98	29986.94
508.16	30305.26
508.33	30436.33
508.50	30499.52
508.68	30700.81
508.85	31054.23
509.03	30735.92
509.20	31035.50
509.38	31276.58
509.55	31166.57
509.73	31262.54
509.90	31225.09
510.08	31182.96
510.25	31072.95
510.42	31917.89
510.60	31747.03
510.77	31903.84
510.95	31725.96
511.12	31704.90
511.30	31585.53
511.47	32231.52
511.64	32428.12
511.82	32009.17
511.99	32346.20
512.17	32601.32
512.34	32329.82
512.51	32496.00
512.69	32687.92
512.86	32526.42
513.04	32891.55
513.21	32556.85
513.38	32760.48
513.56	32854.10
513.73	32811.97
513.90	33046.02
514.08	32617.71
514.25	33008.58
514.43	33099.86
514.60	32856.44
514.77	33291.78
514.95	33706.05
515.12	33738.82
515.29	33429.87
515.47	33703.71
515.64	34068.84
515.81	34007.98
515.99	34073.52
516.16	33486.04
516.33	33333.91
516.51	33780.95
516.68	33394.76
516.85	33193.48
517.03	33289.44
517.20	34061.82
517.37	34497.16
517.54	34319.28
517.72	34068.84
517.89	33720.10
518.06	33909.68
518.24	34108.63
518.41	34167.14
518.58	34349.70
518.75	34429.28
518.93	34838.87
519.10	34590.78
519.27	34841.21
519.45	35161.87
519.62	35374.86
519.79	35014.41
519.96	35487.20
520.14	35044.84
520.31	34895.05
520.48	35466.14
520.65	35241.45
520.83	35819.56
521.00	36091.06
521.17	36027.87
521.34	35901.48
521.52	35983.40
521.69	36074.68
521.86	36268.94
522.03	36168.30
522.20	36130.85
522.38	36329.80
522.55	35875.73
522.72	35978.72
522.89	36479.59
523.07	36507.68
523.24	36524.06
523.41	36945.36
523.58	36811.95
523.75	37326.86
523.92	37003.87
524.10	37064.72
524.27	37184.09
524.44	37174.73
524.61	37263.67
524.78	36935.99
524.96	37560.92
525.13	37181.75
525.30	37090.47
525.47	37425.17
525.64	37738.80
525.81	37207.50
525.98	37352.61
526.16	37338.57
526.33	37312.82
526.50	36954.72
526.67	37163.03
526.84	37034.30
527.01	37207.50
527.18	38230.31
527.36	38150.73
527.53	38272.44
527.70	38246.69
527.87	38206.90
528.04	38153.07
528.21	38249.03
528.38	38244.35
528.55	38660.97
528.72	38494.79
528.89	38946.51
529.07	38749.91
529.24	38230.31
529.41	38869.28
529.58	38469.04
529.75	38698.42
529.92	38890.34
530.09	38590.75
530.26	39360.79
530.43	38918.43
530.60	38726.50
530.77	38696.08
530.94	39552.71
531.11	38799.06
531.28	39082.27
531.46	39194.61
531.63	39075.24
531.80	38948.85
531.97	38969.92
532.14	38953.54
532.31	39487.18
532.48	39143.12
532.65	39674.42
532.82	39585.48
532.99	40046.57
533.16	39466.11
533.33	39648.68
533.50	39871.03
533.67	39913.16
533.84	39962.31
534.01	40156.57
534.18	39498.88
534.35	40280.62
534.52	40107.42
534.69	40374.24
534.86	40765.11
535.03	40093.38
535.20	40325.09
535.37	40547.44
535.54	40999.16
535.71	40509.99
535.88	40402.33
536.05	40236.15
536.22	40788.52
536.38	40437.44
536.55	40416.37
536.72	40407.01
536.89	40240.83
537.06	40573.19
537.23	40793.20
537.40	40912.56
537.57	40631.70
537.74	41078.74
537.91	41593.66
538.08	41099.81
538.25	40465.52
538.42	40861.07
538.59	41305.77
538.75	41118.53
538.92	41359.61
539.09	41240.24
539.26	40816.60
539.43	41233.22
539.60	41202.79
539.77	41024.91
539.94	41364.29
540.11	41273.01
540.28	41530.47
540.44	41179.39
540.61	41418.12
540.78	40982.78
540.95	41219.17
541.12	41401.74
541.29	41493.02
541.46	41439.18
541.62	41368.97
541.79	41722.39
541.96	41298.75
542.13	41490.68
542.30	41741.11
542.47	41752.82
542.63	41783.24
542.80	41897.93
542.97	42356.67
543.14	42368.38
543.31	42330.93
543.48	42307.52
543.64	42827.12
543.81	42501.79
543.98	42813.08
544.15	42384.76
544.32	42707.76
544.48	43227.35
544.65	42770.95
544.82	43037.77
544.99	42160.07
545.16	42593.07
545.32	42719.46
545.49	43084.58
545.66	43012.02
545.83	43047.13
546.00	43065.86
546.16	42941.81
546.33	42691.37
546.50	42660.94
546.67	43325.66
546.83	42440.93
547.00	43033.09
547.17	42951.17
547.34	42895.00
547.50	42972.24
547.67	43210.97
547.84	43248.42
548.00	43051.81
548.17	43732.91
548.34	43840.57
548.51	44039.52
548.67	43709.50
548.84	43636.95
549.01	43049.47
549.18	43330.34
549.34	43129.05
549.51	43634.61
549.68	43583.12
549.84	43814.83
550.01	43641.63
550.18	43594.82
550.34	43620.56
550.51	43969.30
550.68	44086.33
550.84	43480.13
551.01	44002.07
551.18	43650.99
551.34	44062.93
551.51	43903.77
551.68	44128.46
551.84	43878.02
552.01	43587.80
552.18	44016.11
552.34	43622.90
552.51	44385.92
552.68	43779.72
552.84	44383.58
553.01	44437.41
553.18	43814.83
553.34	43945.90
553.51	44172.93
553.67	44474.86
553.84	44921.90
554.01	44847.00
554.17	44776.79
554.34	44580.18
554.51	44175.27
554.67	44554.44
554.84	44421.03
555.00	44369.54
555.17	44245.49
555.33	44341.45
555.50	44896.16
555.67	44737.00
555.83	44336.77
556.00	44519.33
556.16	45024.89
556.33	44811.90
556.50	44715.93
556.66	44402.30
556.83	44491.24
556.99	44722.96
557.16	44814.24
557.32	45198.09
557.49	44889.13
557.65	44797.85
557.82	44495.92
557.98	44802.53
558.15	45193.40
558.32	45069.36
558.48	44032.50
558.65	44739.34
558.81	44495.92
558.98	44739.34
559.14	44727.64
559.31	44744.02
559.47	45160.64
559.64	44982.76
559.80	45071.70
559.97	45516.40
560.13	44978.07
560.30	44921.90
560.46	45399.37
560.63	45411.07
560.79	45453.20
560.96	45102.12
561.12	45151.27
561.29	45296.39
561.45	45191.06
561.61	45319.79
561.78	45359.58
561.94	44933.60
562.11	45326.81
562.27	44926.58
562.44	45359.58
562.60	45385.33
562.77	45212.13
562.93	45258.94
563.10	45588.95
563.26	45158.30
563.42	45226.17
563.59	45092.76
563.75	45090.42
563.92	45537.46
564.08	45181.70
564.24	45551.51
564.41	45364.26
564.57	45560.87
564.74	45237.87
564.90	45895.56
565.07	45558.53
565.23	45277.66
565.39	45308.09
565.56	45282.34
565.72	44971.05
565.88	45141.91
566.05	45394.69
566.21	45024.89
566.38	45408.73
566.54	45584.27
566.70	45895.56
566.87	45663.85
567.03	45635.77
567.19	45778.54
567.36	45617.04
567.52	45787.90
567.68	45715.34
567.85	45322.13
568.01	45792.58
568.17	45315.11
568.34	45827.69
568.50	45329.16
568.66	45523.42
568.83	45841.73
568.99	45193.40
569.15	45834.71
569.32	45626.40
569.48	45804.28
569.64	45469.59
569.81	45600.66
569.97	45897.91
570.13	45523.42
570.30	45123.19
570.46	45097.44
570.62	45347.88
570.78	45759.81
570.95	45230.85
571.11	45476.61
571.27	45544.48
571.43	45759.81
571.60	45942.38
571.76	45467.25
571.92	45675.55
572.09	45603.00
572.25	45876.84
572.41	45769.18
572.57	46241.96
572.74	46036.00
572.90	46007.91
573.06	45661.51
573.22	45879.18
573.38	45535.12
573.55	45301.07
573.71	45890.88
573.87	45762.15
574.03	45420.44
574.20	45869.82
574.36	45965.78
574.52	46075.79
574.68	45970.46
574.84	45560.87
575.01	45659.17
575.17	45890.88
575.33	45577.25
575.49	45558.53
575.65	45783.22
575.82	45656.83
575.98	45731.73
576.14	45848.75
576.30	45958.76
576.46	45815.99
576.62	45673.21
576.79	45663.85
576.95	45272.98
577.11	45649.81
577.27	45675.55
577.43	45776.20
577.59	45563.21
577.75	45378.31
577.92	45399.37
578.08	45509.38
578.24	45336.18
578.40	45172.34
578.56	46096.85
578.72	45603.00
578.88	46040.68
579.04	45834.71
579.21	45584.27
579.37	46202.18
579.53	45682.58
579.69	45415.76
579.85	46185.79
580.01	45820.67
580.17	45752.79
580.33	45797.26
580.49	45518.74
580.65	45975.14
580.82	46043.02
580.98	45572.57
581.14	45514.06
581.30	45705.98
581.46	45705.98
581.62	45748.11
581.78	45883.86
581.94	46244.30
582.10	46256.01
582.26	45710.66
582.42	45799.60
582.58	45874.50
582.74	45684.92
582.90	45684.92
583.06	46050.04
583.22	45918.97
583.38	46576.66
583.54	45935.35
583.70	45895.56
583.86	45434.48
584.02	45900.25
584.18	45907.27
584.34	46131.96
584.50	46337.93
584.66	46108.55
584.82	45881.52
584.98	45876.84
585.14	45925.99
585.30	45673.21
585.46	45872.16
585.62	45282.34
585.78	45551.51
585.94	45628.74
586.10	45595.98
586.26	45933.01
586.42	45986.85
586.58	46003.23
586.74	45867.48
586.90	45827.69
587.06	45876.84
587.22	45825.35
587.38	45865.14
587.54	45874.50
587.70	46127.28
587.86	45516.40
588.02	46021.95
588.18	46080.47
588.34	45804.28
588.49	45436.82
588.65	45577.25
588.81	45226.17
588.97	45401.71
589.13	45270.64
589.29	45579.59
589.45	45272.98
589.61	46052.38
589.77	45804.28
589.93	46300.48
590.08	46026.63
