SpectraSuite Data File
++++++++++++++++++++++++++++++++++++
Date: Fri Oct 25 10:48:17 EDT 2013
User: price-jones
Dark Spectrum Present: No
Reference Spectrum Present: No
Number of Sampled Component Spectra: 1
Spectrometers: USB2+H05261
Integration Time (usec): 100000 (USB2+H05261)
Spectra Averaged: 1 (USB2+H05261)
Boxcar Smoothing: 0 (USB2+H05261)
Correct for Electrical Dark: No (USB2+H05261)
Strobe/Lamp Enabled: No (USB2+H05261)
Correct for Detector Non-linearity: No (USB2+H05261)
Correct for Stray Light: No (USB2+H05261)
Number of Pixels in Processed Spectrum: 2048
>>>>>Begin Processed Spectral Data<<<<<
365.73	177.88
365.92	177.88
366.12	177.88
366.32	0.00
366.52	46.81
366.72	95.96
366.91	16.38
367.11	46.81
367.31	0.00
367.51	16.38
367.70	11.70
367.90	51.49
368.10	51.49
368.30	44.47
368.49	39.79
368.69	0.00
368.89	65.54
369.09	53.83
369.28	65.54
369.48	119.37
369.68	88.94
369.87	84.26
370.07	107.66
370.27	215.33
370.47	273.84
370.66	383.85
370.86	447.04
371.06	580.45
371.25	477.47
371.45	479.81
371.65	500.87
371.84	479.81
372.04	454.06
372.24	484.49
372.44	510.24
372.63	430.66
372.83	489.17
373.03	540.66
373.22	517.26
373.42	564.07
373.62	603.86
373.81	636.63
374.01	638.97
374.21	589.82
374.40	592.16
374.60	566.41
374.79	603.86
374.99	601.52
375.19	608.54
375.38	648.33
375.58	603.86
375.78	643.65
375.97	622.58
376.17	629.60
376.37	660.03
376.56	615.56
376.76	568.75
376.95	613.22
377.15	667.05
377.35	704.50
377.54	676.41
377.74	657.69
377.93	615.56
378.13	709.18
378.33	585.13
378.52	653.01
378.72	690.46
378.91	699.82
379.11	688.12
379.31	713.86
379.50	582.79
379.70	699.82
379.89	692.80
380.09	683.44
380.28	662.37
380.48	725.57
380.68	636.63
380.87	737.27
381.07	674.07
381.26	777.06
381.46	760.67
381.65	758.33
381.85	720.88
382.04	758.33
382.24	781.74
382.43	706.84
382.63	706.84
382.83	716.20
383.02	748.97
383.22	695.14
383.41	781.74
383.61	840.25
383.80	814.51
384.00	786.42
384.19	760.67
384.39	819.19
384.58	807.48
384.78	739.61
384.97	828.55
385.17	732.59
385.36	748.97
385.56	800.46
385.75	812.17
385.95	837.91
386.14	828.55
386.34	812.17
386.53	849.61
386.72	826.21
386.92	866.00
387.11	891.74
387.31	830.89
387.50	851.96
387.70	929.19
387.89	931.53
388.09	908.13
388.28	891.74
388.48	884.72
388.67	950.26
388.86	929.19
389.06	931.53
389.25	1001.75
389.45	957.28
389.64	924.51
389.84	1090.69
390.03	1071.97
390.22	1013.45
390.42	1055.58
390.61	983.02
390.81	1057.92
391.00	987.71
391.19	1018.13
391.39	1100.05
391.58	1104.73
391.78	990.05
391.97	1062.60
392.16	966.64
392.36	1095.37
392.55	1055.58
392.75	1071.97
392.94	1093.03
393.13	1025.15
393.33	1013.45
393.52	1078.99
393.71	1050.90
393.91	1032.18
394.10	1050.90
394.29	1146.86
394.49	1184.31
394.68	1233.46
394.88	1207.72
395.07	1240.48
395.26	1233.46
395.46	1217.08
395.65	1256.87
395.84	1203.04
396.04	1224.10
396.23	1212.40
396.42	1170.27
396.62	1224.10
396.81	1219.42
397.00	1191.33
397.19	1294.32
397.39	1270.91
397.58	1345.81
397.77	1214.74
397.97	1483.90
398.16	1359.85
398.35	1327.08
398.55	1432.41
398.74	1540.07
398.93	1493.26
399.12	1519.01
399.32	1444.11
399.51	1432.41
399.70	1544.75
399.90	1519.01
400.09	1551.78
400.28	1554.12
400.47	1572.84
400.67	1563.48
400.86	1734.34
401.05	1668.80
401.24	1788.17
401.44	1678.16
401.63	1680.50
401.82	1755.40
402.01	1666.46
402.21	1762.42
402.40	1650.08
402.59	1732.00
402.78	1739.02
402.97	1739.02
403.17	1816.26
403.36	1788.17
403.55	1827.96
403.74	1844.34
403.93	1834.98
404.13	1834.98
404.32	1837.32
404.51	1900.52
404.70	1820.94
404.89	1844.34
405.09	1886.47
405.28	2092.44
405.47	1912.22
405.66	1928.60
405.85	1914.56
406.05	1884.13
406.24	1973.07
406.43	1975.41
406.62	1886.47
406.81	2150.95
407.00	2040.95
407.20	2031.58
407.39	2097.12
407.58	2050.31
407.77	2047.97
407.96	2230.53
408.15	2176.70
408.34	2202.44
408.54	2214.15
408.73	2207.13
408.92	2361.60
409.11	2363.94
409.30	2303.09
409.49	2162.66
409.68	2253.94
409.87	2244.57
410.07	2298.41
410.26	2373.30
410.45	2431.82
410.64	2385.01
410.83	2483.31
411.02	2544.16
411.21	2485.65
411.40	2544.16
411.59	2684.59
411.78	2635.44
411.98	2593.31
412.17	2649.49
412.36	2651.83
412.55	2677.57
412.74	2808.64
412.93	2747.79
413.12	2609.70
413.31	2862.48
413.50	2841.41
413.69	2881.20
413.88	2848.43
414.07	2902.26
414.26	2916.31
414.45	2977.16
414.64	2946.73
414.83	2970.14
415.02	2939.71
415.22	3054.40
415.41	3098.87
415.60	3038.02
415.79	3098.87
415.98	3234.62
416.17	3171.43
416.36	3197.17
416.55	3225.26
416.74	3316.54
416.93	3190.15
417.12	3353.99
417.31	3332.92
417.50	3232.28
417.69	3449.95
417.88	3353.99
418.07	3293.13
418.26	3400.80
418.45	3396.12
418.64	3578.68
418.83	3571.66
419.02	3400.80
419.21	3562.30
419.39	3520.17
419.58	3421.86
419.77	3641.87
419.96	3634.85
420.15	3639.53
420.34	3709.75
420.53	3667.62
420.72	3885.29
420.91	3723.79
421.10	3784.65
421.29	3990.61
421.48	3686.34
421.67	3808.05
421.86	3758.90
422.05	3730.81
422.24	3868.91
422.43	3714.43
422.61	3824.44
422.80	3939.12
422.99	3761.24
423.18	3770.60
423.37	3929.76
423.56	3918.06
423.75	3854.86
423.94	3859.54
424.13	3655.92
424.32	3705.07
424.50	3971.89
424.69	4079.55
424.88	4007.00
425.07	3894.65
425.26	3957.85
425.45	3864.22
425.64	3936.78
425.83	3901.67
426.01	3964.87
426.20	4070.19
426.39	3927.42
426.58	3943.80
426.77	3983.59
426.96	3899.33
427.15	3929.76
427.33	3967.21
427.52	4042.11
427.71	4011.68
427.90	4131.05
428.09	4093.60
428.28	4238.71
428.46	4121.68
428.65	4147.43
428.84	4212.96
429.03	4208.28
429.22	4154.45
429.40	4081.89
429.59	4107.64
429.78	3861.88
429.97	3999.98
430.16	3976.57
430.34	4156.79
430.53	4147.43
430.72	4222.33
430.91	4271.48
431.10	4355.74
431.28	4411.91
431.47	4484.47
431.66	4594.47
431.85	4524.26
432.03	4571.07
432.22	4601.49
432.41	4517.23
432.60	4627.24
432.79	4814.48
432.97	4641.28
433.16	4674.05
433.35	4634.26
433.54	4718.52
433.72	4615.54
433.91	4791.08
434.10	4655.33
434.28	4685.75
434.47	4697.46
434.66	4802.78
434.85	4952.57
435.03	5032.15
435.22	4812.14
435.41	4894.06
435.59	5015.77
435.78	4840.23
435.97	5132.79
436.16	5060.24
436.34	5057.90
436.53	5036.83
436.72	5228.76
436.90	5121.09
437.09	5160.88
437.28	5071.94
437.46	5245.14
437.65	5039.17
437.84	5111.73
438.02	4975.98
438.21	5221.74
438.40	5184.29
438.58	5186.63
438.77	5205.35
438.96	5423.02
439.14	5404.30
439.33	5619.63
439.52	5451.11
439.70	5420.68
439.89	5715.59
440.08	5612.60
440.26	5638.35
440.45	5781.12
440.63	5877.09
440.82	5926.24
441.01	5706.23
441.19	5881.77
441.38	5827.93
441.57	5849.00
441.75	6015.18
441.94	6296.04
442.12	6258.59
442.31	6291.36
442.50	6235.19
442.68	6195.40
442.87	6340.51
443.05	6389.66
443.24	6342.85
443.43	6349.87
443.61	6403.71
443.80	6485.62
443.98	6270.30
444.17	6272.64
444.35	6427.11
444.54	6619.04
444.73	6424.77
444.91	6361.58
445.10	6333.49
445.28	6277.32
445.47	6321.79
445.65	6284.34
445.84	6530.09
446.02	6588.61
446.21	6289.02
446.39	6429.45
446.58	6534.78
446.77	6583.93
446.95	6272.64
447.14	6712.66
447.32	6588.61
447.51	6567.54
447.69	6670.53
447.88	6675.21
448.06	6553.50
448.25	6649.46
448.43	6633.08
448.62	6511.37
448.80	6612.01
448.99	6562.86
449.17	6909.26
449.36	6668.19
449.54	6902.24
449.73	6857.77
449.91	7087.14
450.10	6981.82
450.28	7026.29
450.46	7150.34
450.65	6963.09
450.83	7005.22
451.02	7232.26
451.20	7126.93
451.39	7122.25
451.57	7105.87
451.76	7075.44
451.94	7073.10
452.13	7220.55
452.31	7250.98
452.49	7035.65
452.68	7073.10
452.86	7056.72
453.05	7063.74
453.23	7213.53
453.42	7286.09
453.60	7164.38
453.78	7396.09
453.97	7227.57
454.15	7386.73
454.34	7400.77
454.52	7468.65
454.70	7391.41
454.89	7463.97
455.07	7405.46
455.26	7375.03
455.44	7681.64
455.62	7634.83
455.81	7688.66
455.99	7595.04
456.17	7695.68
456.36	7660.57
456.54	7866.54
456.73	7946.12
456.91	8077.19
457.09	7887.61
457.28	8135.70
457.46	8018.68
457.64	7978.89
457.83	8025.70
458.01	7831.43
458.19	8100.59
458.38	8105.28
458.56	8156.77
458.74	8100.59
458.93	8287.84
459.11	8142.72
459.29	8208.26
459.48	8194.22
459.66	8325.29
459.84	8201.24
460.03	8564.02
460.21	8241.03
460.39	8376.78
460.57	8549.98
460.76	8517.21
460.94	8634.24
461.12	8561.68
461.31	8344.01
461.49	8456.36
461.67	8587.43
461.85	8643.60
462.04	8615.51
462.22	9163.20
462.40	8774.67
462.59	8629.56
462.77	8865.95
462.95	9006.38
463.13	8777.01
463.32	8863.61
463.50	9025.11
463.68	8821.48
463.86	8910.42
464.05	8741.90
464.23	8910.42
464.41	8894.04
464.59	8786.37
464.78	9078.94
464.96	9057.87
465.14	8835.52
465.32	9060.21
465.50	9188.94
465.69	9233.41
465.87	8961.91
466.05	9238.09
466.23	9261.50
466.41	8985.32
466.60	9146.81
466.78	9071.92
466.96	9132.77
467.14	9296.61
467.32	9130.43
467.51	9425.34
467.69	9256.82
467.87	9266.18
468.05	9472.15
468.23	9338.74
468.41	9383.21
468.60	9334.06
468.78	9563.43
468.96	9282.56
469.14	9448.74
469.32	9584.49
469.50	9455.76
469.69	9680.46
469.87	9816.21
470.05	9675.77
470.23	9682.80
470.41	9834.93
470.59	9661.73
470.77	9750.67
470.95	9827.91
471.14	10045.58
471.32	9982.38
471.50	10195.37
471.68	10293.68
471.86	10263.25
472.04	10284.31
472.22	10431.77
472.40	10291.34
472.58	10345.17
472.77	10286.65
472.95	10270.27
473.13	10750.08
473.31	10572.20
473.49	10413.04
473.67	10328.78
473.85	10593.26
474.03	10867.11
474.21	10899.87
474.39	10911.58
474.57	11040.31
474.75	10789.87
474.93	11066.05
475.12	11166.70
475.30	11468.62
475.48	11169.04
475.66	11047.33
475.84	11103.50
476.02	11208.83
476.20	11346.92
476.38	11414.79
476.56	11754.17
476.74	11536.50
476.92	11644.17
477.10	11786.94
477.28	12046.74
477.46	12140.36
477.64	12002.27
477.82	12278.45
478.00	12486.76
478.18	12545.27
478.36	12582.72
478.54	12439.95
478.72	12638.89
478.90	12996.99
479.08	12912.74
479.26	12863.58
479.44	13053.17
479.62	12905.71
479.80	13373.82
479.98	13530.64
480.16	13511.91
480.34	13380.84
480.52	13741.29
480.70	13767.03
480.88	13486.17
481.06	13673.41
481.24	13741.29
481.41	14008.11
481.59	14377.91
481.77	14148.54
481.95	14321.74
482.13	14555.79
482.31	14300.67
482.49	14789.85
482.67	14670.48
482.85	14850.70
483.03	15117.52
483.21	15112.84
483.39	15000.49
483.57	15054.33
483.74	15501.37
483.92	15363.28
484.10	15250.93
484.28	15704.99
484.46	15791.59
484.64	16350.98
484.82	15812.66
485.00	16325.24
485.18	16414.18
485.35	16287.79
485.53	16184.80
485.71	16212.89
485.89	16620.14
486.07	16538.23
486.25	16472.69
486.43	16915.05
486.61	16917.39
486.78	17036.76
486.96	17268.47
487.14	17539.97
487.32	17490.82
487.50	17855.95
487.68	18043.19
487.85	18368.52
488.03	18082.98
488.21	18223.41
488.39	18228.09
488.57	18345.12
488.75	18780.46
488.92	18850.67
489.10	19002.81
489.28	19342.19
489.46	19424.11
489.64	19393.68
489.81	19536.45
489.99	20196.48
490.17	20095.84
490.35	20137.97
490.53	19878.17
490.70	20334.57
490.88	20484.37
491.06	20645.87
491.24	20673.95
491.41	20650.55
491.59	20807.36
491.77	20643.52
491.95	21025.03
492.13	21315.26
492.30	21544.63
492.48	21537.61
492.66	21467.39
492.84	21607.83
493.01	21453.35
493.19	21764.64
493.37	21944.86
493.54	22026.78
493.72	22572.13
493.90	22319.35
494.08	22906.82
494.25	23054.28
494.43	23000.44
494.61	23009.81
494.79	23255.56
494.96	23206.41
495.14	23391.31
495.32	23435.78
495.49	23594.94
495.67	23583.24
495.85	24088.79
496.02	24421.15
496.20	24233.91
496.38	24367.32
496.55	24350.93
496.73	24517.11
496.91	24938.41
497.09	25116.29
497.26	25088.20
497.44	24751.17
497.62	24797.98
497.79	25036.71
497.97	25090.54
498.14	25233.32
498.32	25200.55
498.50	25298.85
498.67	25638.23
498.85	25745.89
499.03	26246.77
499.20	25902.71
499.38	26218.68
499.56	26150.81
499.73	26281.88
499.91	26085.27
500.08	26438.69
500.26	26338.05
500.44	26567.42
500.61	26532.31
500.79	26080.59
500.97	26857.65
501.14	27311.71
501.32	26841.26
501.49	26822.54
501.67	26923.18
501.84	27328.10
502.02	27370.22
502.20	27367.88
502.37	27615.98
502.55	27449.80
502.72	27861.74
502.90	28137.92
503.07	27644.07
503.25	28112.17
503.43	27988.13
503.60	27854.72
503.78	28194.09
503.95	28374.31
504.13	28390.70
504.30	28481.98
504.48	28374.31
504.65	28493.68
504.83	28835.40
505.01	29542.24
505.18	28676.24
505.36	29219.25
505.53	29209.89
505.71	29317.55
505.88	29209.89
506.06	29308.19
506.23	29546.92
506.41	29291.80
506.58	29722.46
506.76	29816.08
506.93	29986.94
507.11	30115.67
507.28	29778.64
507.46	29872.26
507.63	29975.24
507.81	30078.22
507.98	30075.88
508.16	30003.33
508.33	30277.17
508.50	30331.00
508.68	30614.21
508.85	30946.56
509.03	30831.88
509.20	31297.64
509.38	31232.11
509.55	31087.00
509.73	31262.54
509.90	31229.77
510.08	31784.48
510.25	31049.55
510.42	31424.03
510.60	31541.06
510.77	31407.65
510.95	31744.69
511.12	31634.68
511.30	32135.56
511.47	32348.54
511.64	32374.29
511.82	32203.43
511.99	32072.36
512.17	32217.47
512.34	32070.02
512.51	32531.11
512.69	32648.13
512.86	32931.34
513.04	32781.54
513.21	32936.02
513.38	32617.71
513.56	32563.87
513.73	32767.50
513.90	32865.80
514.08	32694.94
514.25	33064.75
514.43	33071.77
514.60	33226.24
514.77	33347.95
514.95	33631.16
515.12	33399.44
515.29	33535.20
515.47	33771.59
515.64	33813.72
515.81	33467.32
515.99	33905.00
516.16	33406.47
516.33	33844.15
516.51	33764.57
516.68	33130.28
516.85	33181.77
517.03	33858.19
517.20	34003.30
517.37	34143.74
517.54	34272.46
517.72	34211.61
517.89	33818.40
518.06	33944.79
518.24	34000.96
518.41	33928.41
518.58	34438.64
518.75	34284.17
518.93	34902.07
519.10	34611.84
519.27	35255.49
519.45	34660.99
519.62	35070.59
519.79	35456.78
519.96	35253.15
520.14	35587.85
520.31	35407.62
520.48	35229.74
520.65	35402.94
520.83	35658.06
521.00	35697.85
521.17	36114.47
521.34	36032.55
521.52	36222.13
521.69	36123.83
521.86	35873.39
522.03	36257.24
522.20	36072.34
522.38	36486.61
522.55	36091.06
522.72	36287.67
522.89	35976.37
523.07	36446.82
523.24	36818.97
523.41	36444.48
523.58	36678.54
523.75	37024.93
523.92	37092.81
524.10	36903.23
524.27	36741.73
524.44	37373.67
524.61	37675.60
524.78	37617.09
524.96	37628.79
525.13	37457.93
525.30	37439.21
525.47	37532.83
525.64	37762.20
525.81	37429.85
525.98	37165.37
526.16	37261.33
526.33	37406.44
526.50	37745.82
526.67	37148.98
526.84	37453.25
527.01	37357.29
527.18	37635.81
527.36	38000.94
527.53	38366.06
527.70	38309.89
527.87	38824.81
528.04	38260.74
528.21	38117.96
528.38	38270.10
528.55	38782.68
528.72	38993.32
528.89	39150.14
529.07	38532.24
529.24	38384.79
529.41	38855.23
529.58	38621.18
529.75	39012.05
529.92	38930.13
530.09	38990.98
530.26	38632.88
530.43	38967.58
530.60	39194.61
530.77	38836.51
530.94	39599.52
531.11	39620.59
531.28	39501.22
531.46	39428.66
531.63	39285.89
531.80	39292.91
531.97	39601.86
532.14	39274.19
532.31	39049.50
532.48	39466.11
532.65	39833.58
532.82	39620.59
532.99	39391.22
533.16	39576.12
533.33	39800.81
533.50	39966.99
533.67	40053.59
533.84	39613.57
534.01	40226.79
534.18	39927.20
534.35	40334.45
534.52	40332.11
534.69	40907.88
534.86	40545.10
535.03	40495.95
535.20	40648.08
535.37	41095.13
535.54	40708.94
535.71	40722.98
535.88	40762.77
536.05	40472.54
536.22	40699.58
536.38	40612.98
536.55	40505.31
536.72	40744.05
536.89	40264.24
537.06	40711.28
537.23	41067.04
537.40	41067.04
537.57	40996.82
537.74	41116.19
537.91	41195.77
538.08	41202.79
538.25	40802.56
538.42	41116.19
538.59	41570.25
538.75	40802.56
538.92	41207.47
539.09	41434.50
539.26	41593.66
539.43	41493.02
539.60	41509.40
539.77	41050.66
539.94	41518.76
540.11	41146.62
540.28	41469.61
540.44	41357.27
540.61	41324.50
540.78	41710.69
540.95	41427.48
541.12	41560.89
541.29	41993.89
541.46	41996.23
541.62	41490.68
541.79	42185.82
541.96	41619.41
542.13	41860.48
542.30	42064.11
542.47	42225.60
542.63	41970.49
542.80	42553.28
542.97	42335.61
543.14	43023.73
543.31	42799.04
543.48	42335.61
543.64	43662.69
543.81	42813.08
543.98	42433.91
544.15	42960.53
544.32	43185.22
544.48	43157.14
544.65	43222.67
544.82	43405.23
544.99	42515.83
545.16	43140.75
545.32	42775.63
545.49	43243.74
545.66	43330.34
545.83	43363.11
546.00	43000.32
546.16	43379.49
546.33	43030.75
546.50	43007.34
546.67	42834.14
546.83	42960.53
547.00	43171.18
547.17	43203.95
547.34	43040.11
547.50	43335.02
547.67	43461.41
547.84	43452.05
548.00	43213.31
548.17	43442.68
548.34	43477.79
548.51	44098.03
548.67	44058.24
548.84	43976.33
549.01	43871.00
549.18	43508.22
549.34	43817.17
549.51	44055.90
549.68	43962.28
549.84	44282.94
550.01	43934.20
550.18	44119.10
550.34	43686.10
550.51	44144.84
550.68	44030.16
550.84	43508.22
551.01	43838.23
551.18	43957.60
551.34	44032.50
551.51	44596.57
551.68	44502.95
551.84	44519.33
552.01	44210.38
552.18	44172.93
552.34	43812.49
552.51	44182.29
552.68	44222.08
552.84	44261.87
553.01	44683.17
553.18	43995.05
553.34	44547.42
553.51	44463.16
553.67	44538.05
553.84	44734.66
554.01	44528.69
554.17	44531.03
554.34	44971.05
554.51	45113.83
554.67	45010.84
554.84	44823.60
555.00	44800.19
555.17	44580.18
555.33	44839.98
555.50	44793.17
555.67	45263.62
555.83	45294.05
556.00	45237.87
556.16	45698.96
556.33	44685.51
556.50	44669.12
556.66	44926.58
556.83	45055.31
556.99	45443.84
557.16	45029.57
557.32	44886.79
557.49	45099.78
557.65	44463.16
557.82	45209.79
557.98	45429.80
558.15	44870.41
558.32	45097.44
558.48	44968.71
558.65	45462.57
558.81	44989.78
558.98	45191.06
559.14	45127.87
559.31	45024.89
559.47	45301.07
559.64	45563.21
559.80	45820.67
559.97	45532.78
560.13	45359.58
560.30	45235.53
560.46	45277.66
560.63	45392.35
560.79	45614.70
560.96	45860.46
561.12	45153.62
561.29	45839.39
561.45	45837.05
561.61	45310.43
561.78	45188.72
561.94	45153.62
562.11	45272.98
562.27	45642.79
562.44	45272.98
562.60	45748.11
562.77	45640.45
562.93	45195.74
563.10	45818.33
563.26	45853.44
563.42	45296.39
563.59	45607.68
563.75	45687.26
563.92	46028.98
564.08	46117.92
564.24	45549.17
564.41	45771.52
564.57	46017.27
564.74	45605.34
564.90	45940.04
565.07	46202.18
565.23	45815.99
565.39	45652.15
565.56	46012.59
565.72	45743.43
565.88	45708.32
566.05	45904.93
566.21	45539.80
566.38	45993.87
566.54	46085.15
566.70	45925.99
566.87	46445.59
567.03	46136.64
567.19	46136.64
567.36	45963.44
567.52	45478.95
567.68	46054.72
567.85	45680.24
568.01	46014.93
568.17	45925.99
568.34	46129.62
568.50	45837.05
568.66	45727.05
568.83	46167.07
568.99	45708.32
569.15	46162.39
569.32	46284.09
569.48	45558.53
569.64	45954.08
569.81	46188.13
569.97	45886.20
570.13	46073.45
570.30	45911.95
570.46	45865.14
570.62	45368.94
570.78	45944.72
570.95	45975.14
571.11	46567.30
571.27	45757.47
571.43	46021.95
571.60	46344.95
571.76	46017.27
571.92	46085.15
572.09	46307.50
572.25	46054.72
572.41	46188.13
572.57	46625.81
572.74	46738.16
572.90	46321.54
573.06	46148.34
573.22	46342.61
573.38	45794.92
573.55	46178.77
573.71	46370.69
573.87	46223.24
574.03	46124.94
574.20	46028.98
574.36	46263.03
574.52	45993.87
574.68	46368.35
574.84	46347.29
575.01	46061.74
575.17	46188.13
575.33	45734.07
575.49	46024.29
575.65	46361.33
575.82	46705.39
575.98	46057.06
576.14	46609.43
576.30	46457.29
576.46	46244.30
576.62	46150.68
576.79	46052.38
576.95	45879.18
577.11	46410.48
577.27	46031.32
577.43	46181.11
577.59	46031.32
577.75	46134.30
577.92	45698.96
578.08	46337.93
578.24	46019.61
578.40	46209.20
578.56	46183.45
578.72	46543.89
578.88	46251.33
579.04	46642.20
579.21	45869.82
579.37	46143.66
579.53	46005.57
579.69	46330.90
579.85	46340.27
580.01	47023.70
580.17	46564.96
580.33	46611.77
580.49	46656.24
580.65	46263.03
580.82	46174.09
580.98	45977.48
581.14	46019.61
581.30	46403.46
581.46	46557.94
581.62	46433.89
581.78	46117.92
581.94	46775.61
582.10	46047.70
582.26	46892.63
582.42	46330.90
582.58	46934.76
582.74	46312.18
582.90	46433.89
583.06	46520.49
583.22	46518.15
583.38	46806.03
583.54	46602.41
583.70	46181.11
583.86	46522.83
584.02	46122.60
584.18	46763.90
584.34	46190.47
584.50	46696.03
584.66	46398.78
584.82	46443.25
584.98	46712.41
585.14	46646.88
585.30	46450.27
585.46	46422.19
585.62	46190.47
585.78	46328.56
585.94	46438.57
586.10	45911.95
586.26	46099.19
586.42	46384.74
586.58	46461.97
586.74	46277.07
586.90	46146.00
587.06	46108.55
587.22	46607.09
587.38	46155.36
587.54	46712.41
587.70	46616.45
587.86	46555.60
588.02	46600.07
588.18	46850.50
588.34	46227.92
588.49	45808.96
588.65	45722.37
588.81	45968.12
588.97	45986.85
589.13	45790.24
589.29	46064.08
589.45	46078.13
589.61	46354.31
589.77	46759.22
589.93	46232.60
