SpectraSuite Data File
++++++++++++++++++++++++++++++++++++
Date: Fri Oct 25 11:23:05 EDT 2013
User: price-jones
Dark Spectrum Present: No
Reference Spectrum Present: No
Number of Sampled Component Spectra: 1
Spectrometers: USB2+H05261
Integration Time (usec): 100000 (USB2+H05261)
Spectra Averaged: 1 (USB2+H05261)
Boxcar Smoothing: 0 (USB2+H05261)
Correct for Electrical Dark: No (USB2+H05261)
Strobe/Lamp Enabled: No (USB2+H05261)
Correct for Detector Non-linearity: No (USB2+H05261)
Correct for Stray Light: No (USB2+H05261)
Number of Pixels in Processed Spectrum: 2048
>>>>>Begin Processed Spectral Data<<<<<
365.73	198.95
365.92	198.95
366.12	198.95
366.32	248.10
366.52	201.29
366.72	191.92
366.91	159.16
367.11	128.73
367.31	149.79
367.51	110.01
367.70	175.54
367.90	119.37
368.10	124.05
368.30	121.71
368.49	117.03
368.69	166.18
368.89	88.94
369.09	149.79
369.28	149.79
369.48	191.92
369.68	191.92
369.87	276.18
370.07	131.07
370.27	210.65
370.47	276.18
370.66	603.86
370.86	587.47
371.06	601.52
371.25	678.76
371.45	688.12
371.65	779.40
371.84	697.48
372.04	634.29
372.24	692.80
372.44	702.16
372.63	674.07
372.83	732.59
373.03	755.99
373.22	692.80
373.42	725.57
373.62	784.08
373.81	779.40
374.01	875.36
374.21	763.01
374.40	858.98
374.60	908.13
374.79	882.38
374.99	835.57
375.19	880.04
375.38	873.02
375.58	800.46
375.78	875.36
375.97	912.81
376.17	868.34
376.37	800.46
376.56	858.98
376.76	896.43
376.95	873.02
377.15	936.21
377.35	926.85
377.54	821.53
377.74	856.64
377.93	866.00
378.13	938.55
378.33	903.45
378.52	910.47
378.72	1025.15
378.91	976.00
379.11	990.05
379.31	971.32
379.50	929.19
379.70	1013.45
379.89	1034.52
380.09	961.96
380.28	924.51
380.48	978.34
380.68	1011.11
380.87	1001.75
381.07	1041.54
381.26	1097.71
381.46	994.73
381.65	1064.94
381.85	1048.56
382.04	1015.79
382.24	1078.99
382.43	1139.84
382.63	997.07
382.83	1034.52
383.02	1142.18
383.22	1050.90
383.41	1151.54
383.61	1163.25
383.80	1097.71
384.00	1064.94
384.19	1100.05
384.39	1076.65
384.58	1118.78
384.78	1217.08
384.97	1165.59
385.17	1235.80
385.36	1083.67
385.56	1210.06
385.75	1100.05
385.95	1123.46
386.14	1093.03
386.34	1273.25
386.53	1226.44
386.72	1233.46
386.92	1256.87
387.11	1247.51
387.31	1240.48
387.50	1282.61
387.70	1270.91
387.89	1287.29
388.09	1207.72
388.28	1327.08
388.48	1240.48
388.67	1284.95
388.86	1256.87
389.06	1369.21
389.25	1357.51
389.45	1228.78
389.64	1266.23
389.84	1432.41
390.03	1334.11
390.22	1362.19
390.42	1376.24
390.61	1390.28
390.81	1369.21
391.00	1432.41
391.19	1509.65
391.39	1451.13
391.58	1411.34
391.78	1504.96
391.97	1455.81
392.16	1455.81
392.36	1537.73
392.55	1516.67
392.75	1535.39
392.94	1535.39
393.13	1500.28
393.33	1535.39
393.52	1488.58
393.71	1603.27
393.91	1661.78
394.10	1640.72
394.29	1682.85
394.49	1633.69
394.68	1666.46
394.88	1589.22
395.07	1722.63
395.26	1631.35
395.46	1643.06
395.65	1699.23
395.84	1802.21
396.04	1736.68
396.23	1783.49
396.42	1774.13
396.62	1778.81
396.81	1907.54
397.00	1778.81
397.19	1748.38
397.39	1839.66
397.58	1820.94
397.77	1799.87
397.97	1839.66
398.16	1858.39
398.35	1867.75
398.55	1825.62
398.74	1975.41
398.93	2031.58
399.12	1832.64
399.32	1809.23
399.51	2012.86
399.70	1968.39
399.90	1952.01
400.09	2005.84
400.28	2097.12
400.47	2005.84
400.67	2033.93
400.86	2176.70
401.05	2169.68
401.24	2155.63
401.44	2078.40
401.63	2237.55
401.82	2165.00
402.01	2108.82
402.21	2174.36
402.40	2165.00
402.59	2190.74
402.78	2324.15
402.97	2256.28
403.17	2335.85
403.36	2361.60
403.55	2340.54
403.74	2356.92
403.93	2431.82
404.13	2464.58
404.32	2387.35
404.51	2452.88
404.70	2506.71
404.89	2380.32
405.09	2541.82
405.28	2473.95
405.47	2504.37
405.66	2413.09
405.85	2663.53
406.05	2581.61
406.24	2644.81
406.43	2544.16
406.62	2766.51
406.81	2661.19
407.00	2672.89
407.20	2602.68
407.39	2682.25
407.58	2764.17
407.77	2712.68
407.96	2789.92
408.15	2724.38
408.34	2731.41
408.54	2930.35
408.73	2778.22
408.92	2874.18
409.11	2949.08
409.30	2916.31
409.49	2972.48
409.68	2995.89
409.87	3030.99
410.07	3021.63
410.26	2958.44
410.45	3068.44
410.64	2998.23
410.83	3115.25
411.02	3141.00
411.21	3232.28
411.40	3035.67
411.59	3330.58
411.78	3279.09
411.98	3339.94
412.17	3391.44
412.36	3246.32
412.55	3349.31
412.74	3361.01
412.93	3384.41
413.12	3325.90
413.31	3660.60
413.50	3454.63
413.69	3501.44
413.88	3571.66
414.07	3667.62
414.26	3679.32
414.45	3630.17
414.64	3700.39
414.83	3758.90
415.02	3859.54
415.22	3889.97
415.41	3981.25
415.60	3878.27
415.79	4112.32
415.98	4011.68
416.17	4007.00
416.36	3978.91
416.55	3929.76
416.74	4030.40
416.93	3948.48
417.12	4138.07
417.31	4056.15
417.50	4196.58
417.69	4229.35
417.88	4465.74
418.07	4435.32
418.26	4432.97
418.45	4238.71
418.64	4592.13
418.83	4545.32
419.02	4559.36
419.21	4512.55
419.39	4540.64
419.58	4524.26
419.77	4493.83
419.96	4692.77
420.15	4685.75
420.34	4510.21
420.53	4732.56
420.72	4706.82
420.91	4713.84
421.10	4645.96
421.29	4807.46
421.48	4746.61
421.67	4772.35
421.86	4894.06
422.05	4971.30
422.24	4830.87
422.43	4884.70
422.61	4985.34
422.80	4964.28
422.99	4865.97
423.18	5071.94
423.37	5109.39
423.56	5020.45
423.75	4985.34
423.94	4891.72
424.13	4552.34
424.32	4730.22
424.50	5050.88
424.69	5100.03
424.88	5111.73
425.07	4975.98
425.26	4992.36
425.45	5064.92
425.64	4971.30
425.83	5128.11
426.01	5242.80
426.20	5036.83
426.39	5149.18
426.58	5032.15
426.77	5095.35
426.96	5184.29
427.15	5107.05
427.33	5242.80
427.52	5210.03
427.71	5217.05
427.90	5259.18
428.09	5355.15
428.28	5509.62
428.46	5348.12
428.65	5376.21
428.84	5537.71
429.03	5598.56
429.22	5441.75
429.40	5406.64
429.59	5628.99
429.78	5254.50
429.97	5254.50
430.16	5490.90
430.34	5472.17
430.53	5638.35
430.72	5689.84
430.91	5624.31
431.10	5650.05
431.28	5806.87
431.47	5825.59
431.66	5841.98
431.85	5790.49
432.03	5994.11
432.22	6127.52
432.41	5928.58
432.60	6022.20
432.79	5937.94
432.97	6279.66
433.16	6312.42
433.35	6010.50
433.54	6235.19
433.72	6129.86
433.91	6097.10
434.10	6092.41
434.28	6186.04
434.47	6356.90
434.66	6237.53
434.85	6232.85
435.03	6396.68
435.22	6387.32
435.41	6394.34
435.59	6483.28
435.78	6450.52
435.97	6548.82
436.16	6455.20
436.34	6754.79
436.53	6579.25
436.72	6782.87
436.90	6581.59
437.09	6668.19
437.28	6696.27
437.46	6700.95
437.65	6789.89
437.84	6822.66
438.02	6832.02
438.21	6878.83
438.40	6689.25
438.58	7101.19
438.77	7281.41
438.96	7133.95
439.14	7211.19
439.33	7155.02
439.52	7358.64
439.70	7269.70
439.89	7442.90
440.08	7351.62
440.26	7480.35
440.45	7599.72
440.63	7398.43
440.82	7536.52
441.01	7620.78
441.19	7819.73
441.38	7662.91
441.57	7878.24
441.75	7922.71
441.94	8021.02
442.12	8102.93
442.31	8320.60
442.50	8100.59
442.68	8013.99
442.87	8088.89
443.05	8304.22
443.24	8315.92
443.43	8093.57
443.61	8306.56
443.80	8599.13
443.98	8147.40
444.17	7964.84
444.35	8353.37
444.54	8428.27
444.73	8318.26
444.91	8208.26
445.10	8320.60
445.28	8236.35
445.47	8367.42
445.65	8266.77
445.84	8533.59
446.02	8587.43
446.21	8638.92
446.39	8505.51
446.58	8659.98
446.77	8692.75
446.95	8503.17
447.14	8503.17
447.32	8526.57
447.51	8470.40
447.69	8374.44
447.88	8636.58
448.06	8477.42
448.25	8587.43
448.43	8748.92
448.62	8706.79
448.80	8610.83
448.99	8727.86
449.17	8758.28
449.36	8847.22
449.54	8819.14
449.73	9048.51
449.91	9029.79
450.10	9198.31
450.28	9207.67
450.46	9212.35
450.65	9135.11
450.83	9036.81
451.02	9179.58
451.20	9191.28
451.39	9172.56
451.57	9455.76
451.76	9263.84
451.94	9320.01
452.13	9476.83
452.31	9399.59
452.49	9268.52
452.68	9467.47
452.86	9397.25
453.05	9722.59
453.23	9593.86
453.42	9486.19
453.60	9490.87
453.78	9607.90
453.97	9394.91
454.15	9577.47
454.34	9586.83
454.52	9874.72
454.70	9420.66
454.89	9905.15
455.07	9884.08
455.26	9980.04
455.44	10061.96
455.62	9895.78
455.81	10054.94
455.99	10029.20
456.17	10265.59
456.36	10270.27
456.54	10403.68
456.73	10279.63
456.91	10429.43
457.09	10457.51
457.28	10539.43
457.46	10459.85
457.64	10558.16
457.83	10492.62
458.01	10537.09
458.19	10827.32
458.38	10794.55
458.56	10743.06
458.74	10853.06
458.93	10766.46
459.11	10951.37
459.29	10764.12
459.48	10977.11
459.66	10925.62
459.84	10911.58
460.03	11190.10
460.21	11157.33
460.39	11084.78
460.57	11096.48
460.76	11290.74
460.94	11199.46
461.12	11129.25
461.31	11461.60
461.49	11143.29
461.67	11274.36
461.85	11660.55
462.04	11658.21
462.22	11616.08
462.40	11742.47
462.59	11702.68
462.77	11573.95
462.95	11859.49
463.13	11721.40
463.32	11854.81
463.50	11887.58
463.68	11800.98
463.86	12065.46
464.05	11667.57
464.23	11976.52
464.41	12002.27
464.59	11903.96
464.78	12229.30
464.96	12093.55
465.14	12060.78
465.32	12152.06
465.50	12276.11
465.69	12276.11
465.87	12278.45
466.05	12116.95
466.23	12283.13
466.41	12236.32
466.60	12521.87
466.78	12468.03
466.96	12353.35
467.14	12339.30
467.32	12718.47
467.51	12704.43
467.69	12624.85
467.87	12650.60
468.05	12919.76
468.23	12365.05
468.41	12552.29
468.60	12688.04
468.78	13025.08
468.96	12610.81
469.14	12943.16
469.32	13181.90
469.50	12634.21
469.69	13212.32
469.87	13245.09
470.05	13352.76
470.23	13334.03
470.41	13198.28
470.59	13345.73
470.77	13345.73
470.95	13270.84
471.14	13528.30
471.32	13418.29
471.50	13902.78
471.68	13731.92
471.86	13774.05
472.04	13818.52
472.22	14298.33
472.40	13776.39
472.58	13961.30
472.77	14040.87
472.95	14239.82
473.13	14897.51
473.31	14141.52
473.49	14354.51
473.67	14375.57
473.85	14406.00
474.03	14806.23
474.21	14801.55
474.39	15115.18
474.57	14883.47
474.75	15143.27
474.93	15225.18
475.12	15239.23
475.30	15286.04
475.48	15274.34
475.66	15400.72
475.84	15377.32
476.02	15459.24
476.20	15534.14
476.38	15721.38
476.56	16203.53
476.74	16383.75
476.92	16077.14
477.10	15868.83
477.28	16631.85
477.46	16470.35
477.64	16507.80
477.82	16704.40
478.00	16655.25
478.18	17184.21
478.36	17312.94
478.54	17462.74
478.72	17221.66
478.90	17720.20
479.08	17614.87
479.26	17797.43
479.44	18155.54
479.62	18228.09
479.80	18410.65
479.98	18267.88
480.16	18759.39
480.34	18525.34
480.52	18689.18
480.70	18981.74
480.88	18675.13
481.06	19103.45
481.24	19077.71
481.41	19716.67
481.59	19527.09
481.77	19838.38
481.95	19866.47
482.13	19796.25
482.31	19840.72
482.49	20608.42
482.67	20446.92
482.85	20500.75
483.03	20868.22
483.21	20772.25
483.39	21598.46
483.57	20547.56
483.74	21504.84
483.92	21621.87
484.10	21535.27
484.28	22209.34
484.46	22354.46
484.64	22565.10
484.82	22307.65
485.00	22843.63
485.18	23098.75
485.35	22831.93
485.53	22860.01
485.71	23250.88
485.89	23784.52
486.07	23850.06
486.25	23782.18
486.43	23435.78
486.61	24065.39
486.78	24259.65
486.96	24442.21
487.14	24996.92
487.32	24812.02
487.50	25331.62
487.68	25181.82
487.85	25649.93
488.03	25465.03
488.21	26232.72
488.39	26148.46
488.57	26298.26
488.75	26279.54
488.92	26918.50
489.10	27117.45
489.28	26843.60
489.46	27190.00
489.64	27388.95
489.81	28048.98
489.99	27917.91
490.17	28287.71
490.35	28697.31
490.53	28907.96
490.70	29008.60
490.88	28470.28
491.06	29338.62
491.24	29064.77
491.41	29532.88
491.59	29720.12
491.77	29722.46
491.95	30038.44
492.13	30242.06
492.30	30284.19
492.48	30169.51
492.66	30658.68
492.84	30501.86
493.01	31234.45
493.19	31058.91
493.37	31594.89
493.54	31700.22
493.72	31541.06
493.90	31976.40
494.08	32034.91
494.25	32278.33
494.43	32217.47
494.61	32896.23
494.79	32896.23
494.96	32636.43
495.14	33242.63
495.32	33713.08
495.49	33289.44
495.67	33785.63
495.85	33787.97
496.02	34213.95
496.20	34693.76
496.38	34520.56
496.55	34223.31
496.73	35131.44
496.91	34560.35
497.09	35297.62
497.26	35754.02
497.44	35548.06
497.62	35866.37
497.79	36313.41
497.97	35641.68
498.14	36573.21
498.32	36776.84
498.50	36292.35
498.67	37041.32
498.85	37118.56
499.03	37177.07
499.20	36900.89
499.38	37338.57
499.56	37530.49
499.73	37645.18
499.91	37511.77
500.08	38361.38
500.26	37621.77
500.44	38122.65
500.61	38232.65
500.79	37530.49
500.97	38628.20
501.14	39093.97
501.32	38590.75
501.49	38873.96
501.67	39082.27
501.84	39372.49
502.02	39171.21
502.20	39487.18
502.37	39828.90
502.55	39807.83
502.72	39704.85
502.90	40301.68
503.07	39620.59
503.25	40039.54
503.43	39807.83
503.60	40547.44
503.78	40397.65
503.95	40741.71
504.13	40814.26
504.30	40954.69
504.48	40865.75
504.65	41375.99
504.83	41626.43
505.01	41727.07
505.18	41310.46
505.36	41790.27
505.53	41949.42
505.71	42359.02
505.88	42204.54
506.06	41797.29
506.23	42466.68
506.41	43009.68
506.58	42375.40
506.76	42270.08
506.93	42983.94
507.11	42742.86
507.28	42972.24
507.46	43257.78
507.63	43325.66
507.81	43573.75
507.98	43402.89
508.16	43538.65
508.33	44231.44
508.50	44149.53
508.68	44376.56
508.85	44182.29
509.03	44428.05
509.20	44648.06
509.38	44727.64
509.55	44872.75
509.73	45247.24
509.90	44952.33
510.08	45303.41
510.25	44715.93
510.42	45085.74
510.60	45521.08
510.77	45495.33
510.95	45801.94
511.12	45202.77
511.30	45474.27
511.47	45961.10
511.64	45886.20
511.82	46506.44
511.99	46216.22
512.17	46295.80
512.34	46241.96
512.51	46930.08
512.69	46686.67
512.86	47103.28
513.04	47047.11
513.21	47311.59
513.38	47234.35
513.56	47082.22
513.73	47292.86
513.90	47379.46
514.08	47363.08
514.25	47517.56
514.43	47782.04
514.60	47892.04
514.77	47870.98
514.95	48329.72
515.12	47849.91
515.29	48126.10
515.47	48390.58
515.64	48477.18
515.81	48294.61
515.99	48481.86
516.16	48839.96
516.33	48896.13
516.51	49319.77
516.68	49078.69
516.85	48851.66
517.03	49457.86
517.20	49345.51
517.37	48917.20
517.54	49137.21
517.72	49490.63
517.89	49670.85
518.06	49380.62
518.24	49780.85
518.41	49844.05
518.58	50024.27
518.75	49818.30
518.93	50164.70
519.10	49521.05
519.27	50120.23
519.45	50347.26
519.62	50377.69
519.79	50298.11
519.96	50632.81
520.14	50473.65
520.31	50667.92
520.48	50490.04
520.65	50885.59
520.83	51503.49
521.00	50822.39
521.17	50908.99
521.34	51215.60
521.52	51292.84
521.69	51276.46
521.86	51487.10
522.03	51620.52
522.20	51870.95
522.38	51915.42
522.55	51899.04
522.72	51592.43
522.89	51765.63
523.07	52172.88
523.24	52081.60
523.41	52072.24
523.58	51657.96
523.75	52306.29
523.92	52205.65
524.10	52353.10
524.27	52676.10
524.44	52364.81
524.61	52842.27
524.78	52444.38
524.96	52423.32
525.13	52720.57
525.30	52610.56
525.47	52856.32
525.64	52889.09
525.81	53036.54
525.98	52982.71
526.16	52917.17
526.33	53123.14
526.50	53605.29
526.67	53336.13
526.84	53350.17
527.01	53167.61
527.18	53165.27
527.36	53308.04
527.53	53394.64
527.70	53785.51
527.87	53570.18
528.04	53467.20
528.21	53719.98
528.38	53467.20
528.55	53975.09
528.72	53757.42
528.89	53900.20
529.07	53860.41
529.24	54017.22
529.41	53916.58
529.58	54206.81
529.75	53813.60
529.92	54059.35
530.09	53947.01
530.26	54120.21
530.43	54436.18
530.60	54162.34
530.77	54403.41
530.94	54731.09
531.11	54398.73
531.28	54389.37
531.46	54637.47
531.63	54656.19
531.80	54529.80
531.97	54801.30
532.14	54632.78
532.31	54693.64
532.48	54841.09
532.65	54995.57
532.82	54920.67
532.99	54976.84
533.16	54827.05
533.33	55224.94
533.50	55395.80
533.67	55011.95
533.84	55079.83
534.01	55203.88
534.18	55292.82
534.35	55470.70
534.52	55367.71
534.69	55449.63
534.86	55636.87
535.03	55505.80
535.20	55515.17
535.37	55580.70
535.54	55604.11
535.71	55625.17
535.88	55852.20
536.05	55796.03
536.22	55976.25
536.38	55969.23
536.55	55976.25
536.72	56016.04
536.89	55854.54
537.06	56058.17
537.23	56060.51
537.40	56027.74
537.57	56095.62
537.74	56278.18
537.91	56317.97
538.08	56184.56
538.25	56107.32
538.42	56119.02
538.59	56430.32
538.75	56177.54
538.92	56406.91
539.09	56678.41
539.26	56582.45
539.43	56453.72
539.60	56774.37
539.77	56631.60
539.94	56924.17
540.11	56657.35
540.28	56662.03
540.44	56872.68
540.61	56739.27
540.78	56552.02
540.95	56449.04
541.12	56690.12
541.29	56643.30
541.46	56729.90
541.62	56837.57
541.79	56846.93
541.96	56582.45
542.13	56886.72
542.30	57242.48
542.47	57345.47
542.63	57066.94
542.80	57249.50
542.97	57226.10
543.14	57635.69
543.31	57254.18
543.48	57418.02
543.64	57787.83
543.81	57544.41
543.98	57588.88
544.15	57710.59
544.32	57570.16
544.48	57977.41
544.65	57694.21
544.82	57649.74
544.99	57455.47
545.16	57785.49
545.32	57677.82
545.49	57996.13
545.66	58223.17
545.83	57804.21
546.00	58169.33
546.16	57954.00
546.33	58035.92
546.50	57626.33
546.67	58145.93
546.83	57829.96
547.00	57993.79
547.17	58218.49
547.34	58054.65
547.50	58260.62
547.67	58450.20
547.84	58351.90
548.00	58429.13
548.17	58553.18
548.34	58337.85
548.51	58429.13
548.67	58471.26
548.84	58506.37
549.01	58372.96
549.18	58489.99
549.34	58401.05
549.51	58585.95
549.68	58656.17
549.84	58571.91
550.01	58834.05
550.18	58527.44
550.34	58672.55
550.51	58988.52
550.68	58740.42
550.84	58452.54
551.01	58939.37
551.18	58918.31
551.34	58890.22
551.51	58719.36
551.68	58740.42
551.84	58796.60
552.01	58815.32
552.18	59075.12
552.34	58951.07
552.51	59063.42
552.68	59028.31
552.84	58836.39
553.01	59393.43
553.18	59297.47
553.34	59213.21
553.51	58953.41
553.67	59234.28
553.84	59297.47
554.01	59140.66
554.17	59241.30
554.34	59435.56
554.51	59194.49
554.67	59185.13
554.84	59264.70
555.00	59381.73
555.17	59173.42
555.33	59442.59
555.50	59395.77
555.67	59341.94
555.83	59402.80
556.00	59505.78
556.16	59662.60
556.33	59615.79
556.50	59353.65
556.66	59648.55
556.83	59355.99
556.99	59519.82
557.16	59615.79
557.32	59693.02
557.49	59969.21
557.65	59650.89
557.82	59742.17
557.98	59526.84
558.15	59580.68
558.32	59728.13
558.48	59751.54
558.65	59695.36
558.81	59870.90
558.98	59866.22
559.14	59819.41
559.31	60076.87
559.47	59906.01
559.64	60048.78
559.80	60069.85
559.97	60156.45
560.13	59688.34
560.30	60168.15
560.46	60081.55
560.63	60093.25
560.79	60116.66
560.96	60076.87
561.12	60088.57
561.29	60245.39
561.45	60034.74
561.61	60051.12
561.78	60147.09
561.94	59980.91
562.11	60081.55
562.27	60126.02
562.44	60133.04
562.60	60259.43
562.77	60432.63
562.93	60140.07
563.10	60257.09
563.26	60268.79
563.42	60645.62
563.59	60535.62
563.75	60299.22
563.92	60214.96
564.08	60226.66
564.24	60449.02
564.41	60537.96
564.57	60404.55
564.74	60299.22
564.90	60404.55
565.07	60458.38
565.23	60355.39
565.39	60346.03
565.56	60556.68
565.72	60479.44
565.88	60521.57
566.05	60404.55
566.21	60374.12
566.38	60472.42
566.54	60622.22
566.70	60519.23
566.87	60800.10
567.03	60460.72
567.19	60680.73
567.36	60739.24
567.52	60587.11
567.68	60734.56
567.85	60713.50
568.01	60750.94
568.17	60493.49
568.34	60734.56
568.50	60629.24
568.66	60537.96
568.83	60608.17
568.99	60547.32
569.15	60624.56
569.32	60491.15
569.48	60584.77
569.64	60966.27
569.81	60671.37
569.97	60601.15
570.13	60708.82
570.30	60671.37
570.46	60587.11
570.62	60814.14
570.78	60823.50
570.95	60685.41
571.11	60725.20
571.27	60685.41
571.43	60617.53
571.60	60935.85
571.76	60720.52
571.92	60879.67
572.09	60680.73
572.25	61059.90
572.41	60797.76
572.57	60949.89
572.74	60961.59
572.90	60793.07
573.06	61073.94
573.22	61104.37
573.38	60713.50
573.55	60865.63
573.71	61024.79
573.87	60949.89
574.03	60975.64
574.20	61066.92
574.36	60905.42
574.52	61151.18
574.68	60928.83
574.84	61027.13
575.01	61071.60
575.17	61034.15
575.33	60926.49
575.49	60844.57
575.65	61113.73
575.82	61036.49
575.98	60933.51
576.14	61242.46
576.30	61071.60
576.46	61043.51
576.62	60746.26
576.79	61118.41
576.95	60772.01
577.11	61062.24
577.27	61050.53
577.43	61006.06
577.59	60945.21
577.75	60872.65
577.92	60994.36
578.08	61041.17
578.24	61233.10
578.40	61155.86
578.56	61254.16
578.72	61010.74
578.88	61244.80
579.04	61310.33
579.21	61102.03
579.37	61263.52
579.53	61293.95
579.69	61001.38
579.85	60989.68
580.01	61242.46
580.17	61240.12
580.33	61338.42
580.49	61396.93
580.65	61216.71
580.82	61275.22
580.98	61146.50
581.14	61179.26
581.30	61188.63
581.46	61148.84
581.62	61167.56
581.78	61216.71
581.94	61240.12
582.10	61006.06
582.26	61176.92
582.42	61104.37
582.58	61212.03
582.74	61167.56
582.90	61162.88
583.06	61174.58
583.22	60851.59
583.38	61235.44
583.54	61291.61
583.70	61226.07
583.86	61396.93
584.02	61181.60
584.18	61478.85
584.34	61401.61
584.50	61212.03
584.66	61160.54
584.82	60952.23
584.98	61368.85
585.14	61221.39
585.30	60992.02
585.46	61137.13
585.62	61343.10
585.78	61333.74
585.94	61127.77
586.10	61331.40
586.26	61324.38
586.42	61495.24
586.58	61504.60
586.74	61408.64
586.90	61272.88
587.06	61221.39
587.22	61268.20
587.38	61329.06
587.54	61612.26
587.70	61389.91
587.86	61392.25
588.02	61286.93
588.18	61549.07
588.34	61289.27
