SpectraSuite Data File
++++++++++++++++++++++++++++++++++++
Date: Fri Oct 25 11:34:12 EDT 2013
User: price-jones
Dark Spectrum Present: No
Reference Spectrum Present: No
Number of Sampled Component Spectra: 1
Spectrometers: USB2+H05261
Integration Time (usec): 100000 (USB2+H05261)
Spectra Averaged: 1 (USB2+H05261)
Boxcar Smoothing: 0 (USB2+H05261)
Correct for Electrical Dark: No (USB2+H05261)
Strobe/Lamp Enabled: No (USB2+H05261)
Correct for Detector Non-linearity: No (USB2+H05261)
Correct for Stray Light: No (USB2+H05261)
Number of Pixels in Processed Spectrum: 2048
>>>>>Begin Processed Spectral Data<<<<<
365.73	362.78
365.92	362.78
366.12	362.78
366.32	168.52
366.52	201.29
366.72	131.07
366.91	114.69
367.11	180.22
367.31	102.98
367.51	191.92
367.70	152.13
367.90	224.69
368.10	180.22
368.30	191.92
368.49	196.60
368.69	210.65
368.89	205.97
369.09	166.18
369.28	227.03
369.48	170.86
369.68	180.22
369.87	264.48
370.07	215.33
370.27	269.16
370.47	358.10
370.66	461.09
370.86	470.45
371.06	585.13
371.25	578.11
371.45	519.60
371.65	589.82
371.84	601.52
372.04	557.05
372.24	496.19
372.44	538.32
372.63	629.60
372.83	613.22
373.03	638.97
373.22	547.69
373.42	674.07
373.62	592.16
373.81	603.86
374.01	655.35
374.21	669.39
374.40	636.63
374.60	678.76
374.79	681.10
374.99	685.78
375.19	660.03
375.38	641.31
375.58	681.10
375.78	704.50
375.97	692.80
376.17	692.80
376.37	638.97
376.56	709.18
376.76	713.86
376.95	648.33
377.15	678.76
377.35	667.05
377.54	627.26
377.74	653.01
377.93	657.69
378.13	638.97
378.33	685.78
378.52	718.54
378.72	702.16
378.91	716.20
379.11	688.12
379.31	720.88
379.50	706.84
379.70	709.18
379.89	695.14
380.09	770.04
380.28	695.14
380.48	744.29
380.68	784.08
380.87	760.67
381.07	746.63
381.26	716.20
381.46	716.20
381.65	748.97
381.85	709.18
382.04	704.50
382.24	751.31
382.43	802.80
382.63	699.82
382.83	802.80
383.02	774.72
383.22	772.38
383.41	744.29
383.61	807.48
383.80	821.53
384.00	734.93
384.19	798.12
384.39	774.72
384.58	835.57
384.78	758.33
384.97	842.59
385.17	823.87
385.36	866.00
385.56	774.72
385.75	821.53
385.95	816.85
386.14	840.25
386.34	826.21
386.53	821.53
386.72	812.17
386.92	821.53
387.11	875.36
387.31	725.57
387.50	835.57
387.70	847.27
387.89	882.38
388.09	887.06
388.28	833.23
388.48	805.14
388.67	931.53
388.86	814.51
389.06	919.83
389.25	854.30
389.45	954.94
389.64	952.60
389.84	947.92
390.03	931.53
390.22	936.21
390.42	959.62
390.61	999.41
390.81	950.26
391.00	964.30
391.19	990.05
391.39	903.45
391.58	961.96
391.78	978.34
391.97	1011.11
392.16	959.62
392.36	1074.31
392.55	1081.33
392.75	968.98
392.94	1046.22
393.13	1025.15
393.33	1015.79
393.52	1076.65
393.71	1102.39
393.91	1123.46
394.10	1046.22
394.29	1116.44
394.49	1032.18
394.68	1074.31
394.88	1078.99
395.07	1149.20
395.26	1057.92
395.46	1071.97
395.65	1139.84
395.84	1123.46
396.04	1200.69
396.23	1149.20
396.42	1165.59
396.62	1217.08
396.81	1268.57
397.00	1233.46
397.19	1160.91
397.39	1153.88
397.58	1219.42
397.77	1184.31
397.97	1228.78
398.16	1224.10
398.35	1254.53
398.55	1219.42
398.74	1275.59
398.93	1261.55
399.12	1413.68
399.32	1217.08
399.51	1268.57
399.70	1284.95
399.90	1338.79
400.09	1378.58
400.28	1317.72
400.47	1385.60
400.67	1324.74
400.86	1409.00
401.05	1453.47
401.24	1380.92
401.44	1432.41
401.63	1458.15
401.82	1425.39
402.01	1441.77
402.21	1425.39
402.40	1537.73
402.59	1409.00
402.78	1380.92
402.97	1474.54
403.17	1497.94
403.36	1600.93
403.55	1495.60
403.74	1511.99
403.93	1497.94
404.13	1579.86
404.32	1579.86
404.51	1523.69
404.70	1645.40
404.89	1547.09
405.09	1675.82
405.28	1619.65
405.47	1577.52
405.66	1631.35
405.85	1689.87
406.05	1708.59
406.24	1666.46
406.43	1734.34
406.62	1762.42
406.81	1692.21
407.00	1764.76
407.20	1771.79
407.39	1760.08
407.58	1846.68
407.77	1872.43
407.96	1912.22
408.15	1785.83
408.34	1844.34
408.54	1909.88
408.73	1879.45
408.92	1919.24
409.11	1947.33
409.30	1947.33
409.49	1912.22
409.68	2017.54
409.87	1949.67
410.07	2071.37
410.26	2015.20
410.45	2029.24
410.64	1947.33
410.83	2092.44
411.02	2069.03
411.21	2078.40
411.40	1977.75
411.59	2134.57
411.78	2143.93
411.98	2111.16
412.17	2204.78
412.36	2230.53
412.55	2218.83
412.74	2307.77
412.93	2307.77
413.12	2209.47
413.31	2230.53
413.50	2132.23
413.69	2277.34
413.88	2396.71
414.07	2483.31
414.26	2427.14
414.45	2392.03
414.64	2490.33
414.83	2537.14
415.02	2609.70
415.22	2621.40
415.41	2633.10
415.60	2640.12
415.79	2682.25
415.98	2654.17
416.17	2736.09
416.36	2605.02
416.55	2686.94
416.74	2834.39
416.93	2754.81
417.12	2796.94
417.31	2794.60
417.50	2923.33
417.69	2977.16
417.88	2806.30
418.07	2726.72
418.26	2836.73
418.45	2867.16
418.64	2979.50
418.83	2949.08
419.02	3019.29
419.21	2981.84
419.39	3014.61
419.58	2991.20
419.77	3026.31
419.96	3042.70
420.15	3110.57
420.34	2949.08
420.53	3040.36
420.72	3199.51
420.91	3166.74
421.10	3143.34
421.29	3136.32
421.48	3101.21
421.67	3276.75
421.86	3288.45
422.05	3190.15
422.24	3133.98
422.43	3166.74
422.61	3300.16
422.80	3372.71
422.99	3386.76
423.18	3508.46
423.37	3288.45
423.56	3276.75
423.75	3335.26
423.94	3314.20
424.13	3077.80
424.32	3192.49
424.50	3449.95
424.69	3417.18
424.88	3412.50
425.07	3304.84
425.26	3361.01
425.45	3459.31
425.64	3297.81
425.83	3389.10
426.01	3386.76
426.20	3433.57
426.39	3325.90
426.58	3480.38
426.77	3365.69
426.96	3440.59
427.15	3365.69
427.33	3499.10
427.52	3456.97
427.71	3604.42
427.90	3527.19
428.09	3536.55
428.28	3548.25
428.46	3506.12
428.65	3531.87
428.84	3805.71
429.03	3751.88
429.22	3552.93
429.40	3588.04
429.59	3627.83
429.78	3597.40
429.97	3592.72
430.16	3714.43
430.34	3824.44
430.53	3939.12
430.72	3878.27
430.91	3861.88
431.10	3737.84
431.28	3878.27
431.47	3836.14
431.66	3997.64
431.85	3946.14
432.03	3997.64
432.22	4051.47
432.41	3955.51
432.60	3911.04
432.79	4007.00
432.97	4028.06
433.16	4063.17
433.35	4002.32
433.54	4140.41
433.72	4095.94
433.91	4049.13
434.10	4147.43
434.28	4070.19
434.47	4147.43
434.66	4325.31
434.85	4255.09
435.03	4219.99
435.22	4208.28
435.41	4447.02
435.59	4266.80
435.78	4372.12
435.97	4294.88
436.16	4187.22
436.34	4358.08
436.53	4318.29
436.72	4517.23
436.90	4367.44
437.09	4468.08
437.28	4428.29
437.46	4287.86
437.65	4400.21
437.84	4493.83
438.02	4566.39
438.21	4449.36
438.40	4447.02
438.58	4596.81
438.77	4716.18
438.96	4615.54
439.14	4755.97
439.33	4912.78
439.52	4896.40
439.70	4812.14
439.89	4947.89
440.08	4968.96
440.26	4990.02
440.45	4973.64
440.63	5102.37
440.82	5027.47
441.01	4922.15
441.19	5053.22
441.38	5252.16
441.57	5067.26
441.75	5334.08
441.94	5359.83
442.12	5179.61
442.31	5371.53
442.50	5334.08
442.68	5245.14
442.87	5385.57
443.05	5343.44
443.24	5657.07
443.43	5345.78
443.61	5598.56
443.80	5680.48
443.98	5336.42
444.17	5362.17
444.35	5352.81
444.54	5348.12
444.73	5460.47
444.91	5537.71
445.10	5394.93
445.28	5479.19
445.47	5490.90
445.65	5523.66
445.84	5537.71
446.02	5696.86
446.21	5551.75
446.39	5373.87
446.58	5621.97
446.77	5717.93
446.95	5352.81
447.14	5584.52
447.32	5540.05
447.51	5493.24
447.69	5708.57
447.88	5603.24
448.06	5706.23
448.25	5668.78
448.43	5699.20
448.62	5673.46
448.80	5795.17
448.99	5741.33
449.17	5755.38
449.36	5720.27
449.54	5750.70
449.73	5804.53
449.91	5973.05
450.10	5804.53
450.28	6085.39
450.46	5909.85
450.65	5926.24
450.83	5970.71
451.02	5860.70
451.20	6139.23
451.39	6008.16
451.57	6108.80
451.76	5954.32
451.94	6246.89
452.13	6101.78
452.31	6174.33
452.49	6127.52
452.68	6146.25
452.86	6094.76
453.05	6157.95
453.23	6244.55
453.42	6183.70
453.60	6146.25
453.78	6347.53
453.97	6279.66
454.15	6260.93
454.34	6223.48
454.52	6256.25
454.70	6282.00
454.89	6368.60
455.07	6448.18
455.26	6434.13
455.44	6462.22
455.62	6284.34
455.81	6480.94
455.99	6506.69
456.17	6642.44
456.36	6574.56
456.54	6846.07
456.73	6967.77
456.91	6876.49
457.09	6946.71
457.28	6972.46
457.46	6799.26
457.64	6820.32
457.83	6860.11
458.01	6927.99
458.19	7028.63
458.38	6991.18
458.56	7026.29
458.74	7082.46
458.93	6953.73
459.11	7091.82
459.29	7035.65
459.48	6970.12
459.66	7162.04
459.84	7082.46
460.03	7288.43
460.21	7276.73
460.39	7136.29
460.57	7356.30
460.76	7304.81
460.94	7321.20
461.12	7246.30
461.31	7342.26
461.49	7309.49
461.67	7258.00
461.85	7531.84
462.04	7513.12
462.22	7859.52
462.40	7651.21
462.59	7417.16
462.77	7501.42
462.95	7698.02
463.13	7667.60
463.32	7590.36
463.50	7691.00
463.68	7749.51
463.86	7978.89
464.05	7604.40
464.23	7691.00
464.41	7791.64
464.59	7606.74
464.78	7775.26
464.96	7969.52
465.14	7698.02
465.32	8011.65
465.50	8004.63
465.69	7974.21
465.87	8025.70
466.05	7953.14
466.23	7906.33
466.41	7889.95
466.60	8102.93
466.78	7817.39
466.96	8046.76
467.14	7880.58
467.32	8039.74
467.51	8058.46
467.69	7971.86
467.87	8156.77
468.05	8163.79
468.23	8135.70
468.41	8006.97
468.60	8294.86
468.78	8336.99
468.96	8114.64
469.14	8264.43
469.32	8575.72
469.50	8046.76
469.69	8482.10
469.87	8589.77
470.05	8351.03
470.23	8442.31
470.41	8634.24
470.59	8781.69
470.77	8404.86
470.95	8664.66
471.14	8692.75
471.32	8688.07
471.50	8814.46
471.68	8795.73
471.86	8741.90
472.04	8807.44
472.22	9064.89
472.40	8980.64
472.58	8879.99
472.77	9184.26
472.95	9179.58
473.13	9263.84
473.31	9195.96
473.49	9151.49
473.67	9184.26
473.85	9282.56
474.03	9699.18
474.21	9544.70
474.39	9628.96
474.57	9558.75
474.75	9647.69
474.93	9771.74
475.12	9554.07
475.30	9703.86
475.48	9792.80
475.66	9816.21
475.84	9652.37
476.02	9893.44
476.20	9949.62
476.38	10167.29
476.56	10188.35
476.74	10274.95
476.92	10246.87
477.10	10181.33
477.28	10373.25
477.46	10696.25
477.64	10544.11
477.82	10595.61
478.00	11014.56
478.18	10841.36
478.36	11028.60
478.54	11019.24
478.72	10930.30
478.90	11061.37
479.08	11279.04
479.26	11445.22
479.44	11344.58
479.62	11515.44
479.80	11578.63
479.98	11492.03
480.16	11871.20
480.34	11833.75
480.52	11962.48
480.70	11999.93
480.88	11723.74
481.06	12070.14
481.24	12182.49
481.41	12299.52
481.59	12575.70
481.77	12411.86
481.95	12645.91
482.13	12849.54
482.31	12765.28
482.49	12968.91
482.67	13046.15
482.85	12980.61
483.03	13198.28
483.21	13319.99
483.39	13420.63
483.57	13350.42
483.74	13682.77
483.92	13659.37
484.10	13493.19
484.28	14024.49
484.46	14202.37
484.64	14181.31
484.82	14190.67
485.00	14345.14
485.18	14476.21
485.35	14635.37
485.53	14406.00
485.71	14991.13
485.89	15014.54
486.07	15197.10
486.25	14850.70
486.43	14991.13
486.61	15255.61
486.78	15330.51
486.96	15688.61
487.14	15545.84
487.32	15868.83
487.50	15892.24
487.68	16093.52
487.85	16269.06
488.03	16425.88
488.21	16652.91
488.39	16666.95
488.57	16664.61
488.75	16725.47
488.92	16863.56
489.10	17081.23
489.28	17099.95
489.46	17343.37
489.64	17144.42
489.81	17703.81
489.99	17696.79
490.17	17750.62
490.35	18019.78
490.53	17853.61
490.70	18270.22
490.88	18192.98
491.06	18420.02
491.24	18686.84
491.41	18415.34
491.59	18735.99
491.77	18771.10
491.95	18789.82
492.13	19028.56
492.30	19365.59
492.48	19311.76
492.66	19396.02
492.84	19346.87
493.01	19761.14
493.19	19662.84
493.37	19803.27
493.54	19845.40
493.72	19999.88
493.90	20231.59
494.08	20608.42
494.25	20517.14
494.43	20390.75
494.61	20540.54
494.79	21008.65
494.96	20641.18
495.14	21036.74
495.32	21458.03
495.49	20844.81
495.67	21174.83
495.85	21474.42
496.02	21530.59
496.20	21743.58
496.38	21656.98
496.55	21699.11
496.73	22415.31
496.91	22113.38
497.09	22511.27
497.26	22490.21
497.44	22291.26
497.62	22740.64
497.79	22862.35
497.97	22934.91
498.14	23194.71
498.32	23124.49
498.50	23173.64
498.67	23267.27
498.85	23353.87
499.03	23480.25
499.20	23199.39
499.38	23524.72
499.56	23700.26
499.73	23789.20
499.91	24018.58
500.08	24013.90
500.26	24173.05
500.44	23850.06
500.61	24137.94
500.79	24018.58
500.97	24442.21
501.14	24629.46
501.32	24659.88
501.49	25006.28
501.67	24849.47
501.84	25170.12
502.02	24683.29
502.20	24559.24
502.37	25064.80
502.55	25074.16
502.72	24931.39
502.90	25104.59
503.07	25216.93
503.25	25696.74
503.43	25530.56
503.60	25497.80
503.78	25790.36
503.95	25631.21
504.13	25963.56
504.30	25912.07
504.48	25764.62
504.65	26302.94
504.83	26494.86
505.01	26260.81
505.18	26448.05
505.36	26291.24
505.53	26579.12
505.71	26581.46
505.88	26841.26
506.06	26717.22
506.23	27002.76
506.41	27000.42
506.58	26890.41
506.76	26897.44
506.93	27220.43
507.11	27021.48
507.28	27428.74
507.46	27758.75
507.63	27707.26
507.81	27859.40
507.98	27311.71
508.16	27803.22
508.33	27770.46
508.50	27910.89
508.68	28369.63
508.85	28147.28
509.03	27814.93
509.20	28201.11
509.38	28491.34
509.55	28416.44
509.73	28767.52
509.90	28603.69
510.08	28107.49
510.25	28741.78
510.42	29034.35
510.60	29104.56
510.77	29027.32
510.95	29350.32
511.12	29237.97
511.30	28795.61
511.47	29177.12
511.64	29514.16
511.82	29708.42
511.99	29383.09
512.17	29689.70
512.34	29841.83
512.51	30078.22
512.69	30054.82
512.86	30174.19
513.04	30405.90
513.21	29977.58
513.38	30602.50
513.56	30600.16
513.73	30249.08
513.90	30281.85
514.08	30305.26
514.25	30607.19
514.43	31072.95
514.60	31218.07
514.77	30850.60
514.95	30960.61
515.12	30897.41
515.29	31194.66
515.47	31122.10
515.64	31276.58
515.81	30651.66
515.99	31695.53
516.16	31292.96
516.33	31592.55
516.51	31737.66
516.68	31606.59
516.85	32004.49
517.03	31798.52
517.20	31353.82
517.37	31747.03
517.54	32077.04
517.72	31882.78
517.89	32369.61
518.06	32318.12
518.24	32215.13
518.41	32243.22
518.58	32311.10
518.75	32163.64
518.93	32259.60
519.10	32395.35
519.27	32741.75
519.45	33036.66
519.62	32783.88
519.79	32732.39
519.96	32704.31
520.14	33120.92
520.31	33078.79
520.48	33001.55
520.65	33563.28
520.83	33518.81
521.00	33560.94
521.17	33518.81
521.34	33319.87
521.52	33996.28
521.69	33579.67
521.86	33928.41
522.03	33949.47
522.20	34117.99
522.38	34286.51
522.55	33713.08
522.72	33989.26
522.89	34710.14
523.07	34141.39
523.24	34129.69
523.41	34209.27
523.58	34120.33
523.75	34384.81
523.92	34368.43
524.10	34782.70
524.27	35019.10
524.44	34651.63
524.61	34660.99
524.78	34801.43
524.96	34998.03
525.13	34857.60
525.30	35468.48
525.47	35262.51
525.64	34932.50
525.81	35374.86
525.98	35243.79
526.16	35363.15
526.33	35442.73
526.50	35564.44
526.67	35562.10
526.84	35709.55
527.01	35742.32
527.18	35477.84
527.36	36100.42
527.53	35995.10
527.70	36180.00
527.87	36257.24
528.04	35938.93
528.21	35681.47
528.38	36196.38
528.55	36568.53
528.72	36070.00
528.89	36299.37
529.07	36081.70
529.24	36304.05
529.41	36746.41
529.58	36339.16
529.75	36383.63
529.92	36657.47
530.09	36821.31
530.26	36503.00
530.43	37088.13
530.60	36395.33
530.77	36706.62
530.94	36877.48
531.11	36959.40
531.28	37275.37
531.46	37340.91
531.63	37338.57
531.80	37151.32
531.97	37556.24
532.14	37464.96
532.31	37130.26
532.48	37738.80
532.65	37420.48
532.82	37579.64
532.99	37549.21
533.16	37191.11
533.33	37954.13
533.50	37804.33
533.67	37624.11
533.84	37488.36
534.01	38124.99
534.18	38029.02
534.35	38251.38
534.52	38068.81
534.69	38438.62
534.86	38756.93
535.03	38096.90
535.20	38340.32
535.37	38623.52
535.54	38614.16
535.71	38604.80
535.88	38773.31
536.05	38401.17
536.22	38806.08
536.38	38525.22
536.55	38478.41
536.72	38401.17
536.89	38721.82
537.06	38724.16
537.23	39143.12
537.40	38731.18
537.57	39000.35
537.74	38787.36
537.91	38976.94
538.08	39381.85
538.25	39246.10
538.42	39133.76
538.59	39201.63
538.75	39091.63
538.92	39391.22
539.09	39332.70
539.26	39178.23
539.43	39627.61
539.60	40093.38
539.77	39707.19
539.94	39583.14
540.11	39833.58
540.28	39576.12
540.44	39915.50
540.61	39344.41
540.78	39646.33
540.95	40112.10
541.12	39730.59
541.29	40048.91
541.46	40194.02
541.62	40002.10
541.79	40273.60
541.96	39927.20
542.13	39622.93
542.30	40229.13
542.47	40449.14
542.63	40371.90
542.80	40383.60
542.97	40577.87
543.14	40898.52
543.31	40634.04
543.48	40912.56
543.64	41118.53
543.81	40879.80
543.98	40687.87
544.15	40758.09
544.32	41221.52
544.48	41677.92
544.65	41153.64
544.82	41223.86
544.99	41001.50
545.16	40893.84
545.32	41539.83
545.49	41689.62
545.66	41703.67
545.83	41570.25
546.00	41816.01
546.16	41359.61
546.33	41844.10
546.50	41666.22
546.67	41504.72
546.83	41310.46
547.00	41565.57
547.17	41649.83
547.34	42000.91
547.50	41773.88
547.67	42309.86
547.84	41666.22
548.00	42335.61
548.17	41921.34
548.34	41970.49
548.51	42323.91
548.67	41911.97
548.84	42014.96
549.01	42532.22
549.18	41954.10
549.34	42050.06
549.51	42525.19
549.68	42014.96
549.84	42375.40
550.01	42553.28
550.18	42115.60
550.34	42539.24
550.51	42644.56
550.68	42583.71
550.84	42450.30
551.01	42775.63
551.18	42557.96
551.34	42572.00
551.51	42574.34
551.68	42665.63
551.84	42670.31
552.01	42447.96
552.18	43000.32
552.34	42721.80
552.51	42609.45
552.68	42852.87
552.84	42918.40
553.01	43510.56
553.18	43145.44
553.34	42939.47
553.51	43030.75
553.67	43178.20
553.84	43320.98
554.01	43112.67
554.17	43452.05
554.34	43168.84
554.51	43548.01
554.67	43753.97
554.84	43213.31
555.00	43222.67
555.17	43178.20
555.33	43796.10
555.50	43597.16
555.67	43725.89
555.83	43297.57
556.00	43847.60
556.16	44247.83
556.33	43756.32
556.50	43636.95
556.66	43861.64
556.83	43625.25
556.99	43950.58
557.16	44093.35
557.32	44250.17
557.49	44402.30
557.65	43625.25
557.82	44170.59
557.98	43775.04
558.15	43634.61
558.32	44060.58
558.48	43833.55
558.65	44177.61
558.81	44280.60
558.98	44140.16
559.14	44130.80
559.31	44458.48
559.47	44158.89
559.64	43948.24
559.80	44261.87
559.97	44404.64
560.13	44128.46
560.30	44369.54
560.46	44484.22
560.63	44575.50
560.79	44568.48
560.96	44774.45
561.12	44882.11
561.29	44938.29
561.45	44587.21
561.61	44355.49
561.78	44488.90
561.94	44341.45
562.11	44626.99
562.27	44196.34
562.44	44975.73
562.60	44657.42
562.77	44814.24
562.93	44641.04
563.10	44666.78
563.26	44680.83
563.42	44793.17
563.59	44484.22
563.75	45001.48
563.92	44921.90
564.08	44690.19
564.24	44575.50
564.41	44608.27
564.57	44818.92
564.74	44847.00
564.90	44905.52
565.07	44854.03
565.23	45141.91
565.39	44924.24
565.56	44788.49
565.72	44697.21
565.88	44945.31
566.05	44924.24
566.21	45511.72
566.38	45165.32
566.54	45340.86
566.70	45425.12
566.87	45275.32
567.03	45162.98
567.19	45677.90
567.36	45052.97
567.52	45013.18
567.68	45322.13
567.85	45235.53
568.01	45539.80
568.17	44949.99
568.34	45591.30
568.50	45663.85
568.66	45153.62
568.83	45404.05
568.99	45170.00
569.15	45415.76
569.32	45282.34
569.48	45198.09
569.64	45633.42
569.81	45764.49
569.97	45490.65
570.13	45441.50
570.30	45343.20
570.46	45755.13
570.62	45607.68
570.78	45170.00
570.95	45553.85
571.11	45918.97
571.27	45815.99
571.43	45443.84
571.60	45694.28
571.76	45509.38
571.92	45469.59
572.09	46099.19
572.25	45581.93
572.41	45509.38
572.57	45507.04
572.74	46150.68
572.90	45469.59
573.06	45846.41
573.22	45439.16
573.38	45666.19
573.55	45762.15
573.71	46171.75
573.87	45638.11
574.03	45722.37
574.20	45984.51
574.36	45909.61
574.52	45516.40
574.68	45846.41
574.84	45872.16
575.01	45394.69
575.17	46241.96
575.33	46223.24
575.49	45935.35
575.65	46253.67
575.82	46068.76
575.98	45603.00
576.14	46113.23
576.30	46188.13
576.46	46087.49
576.62	45640.45
576.79	46260.69
576.95	45382.99
577.11	45806.62
577.27	45834.71
577.43	46080.47
577.59	45516.40
577.75	45586.61
577.92	45565.55
578.08	45691.94
578.24	46012.59
578.40	46316.86
578.56	46061.74
578.72	46239.62
578.88	45984.51
579.04	46375.37
579.21	46045.36
579.37	46024.29
579.53	46220.90
579.69	45872.16
579.85	45876.84
580.01	46127.28
580.17	45956.42
580.33	46110.89
580.49	46337.93
580.65	46370.69
580.82	46377.72
580.98	45799.60
581.14	45951.74
581.30	46185.79
581.46	46202.18
581.62	45914.29
581.78	45343.20
581.94	46101.53
582.10	45925.99
582.26	46394.10
582.42	46124.94
582.58	46447.93
582.74	46246.65
582.90	46220.90
583.06	46401.12
583.22	45942.38
583.38	46150.68
583.54	46429.21
583.70	46436.23
583.86	46478.36
584.02	46417.50
584.18	46375.37
584.34	46384.74
584.50	46307.50
584.66	46384.74
584.82	46443.25
584.98	46412.82
585.14	45909.61
585.30	46209.20
585.46	46513.47
585.62	45738.75
585.78	46021.95
585.94	46354.31
586.10	46000.89
586.26	46106.21
586.42	45909.61
586.58	46309.84
586.74	46223.24
586.90	46174.09
587.06	46080.47
587.22	46705.39
587.38	45951.74
587.54	46263.03
587.70	46604.75
587.86	46567.30
588.02	46178.77
588.18	46398.78
588.34	46213.88
588.49	46293.46
588.65	46483.04
588.81	46396.44
588.97	46576.66
589.13	46443.25
589.29	46618.79
589.45	46876.25
589.61	46658.58
589.77	46436.23
589.93	46567.30
590.08	46923.06
