SpectraSuite Data File
++++++++++++++++++++++++++++++++++++
Date: Fri Oct 25 10:47:46 EDT 2013
User: price-jones
Dark Spectrum Present: No
Reference Spectrum Present: No
Number of Sampled Component Spectra: 1
Spectrometers: USB2+H05261
Integration Time (usec): 100000 (USB2+H05261)
Spectra Averaged: 1 (USB2+H05261)
Boxcar Smoothing: 0 (USB2+H05261)
Correct for Electrical Dark: No (USB2+H05261)
Strobe/Lamp Enabled: No (USB2+H05261)
Correct for Detector Non-linearity: No (USB2+H05261)
Correct for Stray Light: No (USB2+H05261)
Number of Pixels in Processed Spectrum: 2048
>>>>>Begin Processed Spectral Data<<<<<
365.73	126.39
365.92	126.39
366.12	126.39
366.32	56.17
366.52	18.72
366.72	39.79
366.91	49.15
367.11	74.90
367.31	30.43
367.51	32.77
367.70	37.45
367.90	131.07
368.10	56.17
368.30	51.49
368.49	21.06
368.69	95.96
368.89	39.79
369.09	0.00
369.28	102.98
369.48	93.62
369.68	112.35
369.87	35.11
370.07	117.03
370.27	138.09
370.47	250.44
370.66	351.08
370.86	409.59
371.06	334.70
371.25	440.02
371.45	458.74
371.65	484.49
371.84	465.77
372.04	526.62
372.24	571.09
372.44	458.74
372.63	535.98
372.83	554.71
373.03	470.45
373.22	479.81
373.42	449.38
373.62	517.26
373.81	479.81
374.01	514.92
374.21	564.07
374.40	585.13
374.60	482.15
374.79	496.19
374.99	578.11
375.19	521.94
375.38	587.47
375.58	599.18
375.78	578.11
375.97	564.07
376.17	620.24
376.37	582.79
376.56	594.50
376.76	629.60
376.95	585.13
377.15	596.84
377.35	571.09
377.54	653.01
377.74	617.90
377.93	575.77
378.13	585.13
378.33	615.56
378.52	531.30
378.72	587.47
378.91	631.94
379.11	636.63
379.31	606.20
379.50	617.90
379.70	653.01
379.89	660.03
380.09	629.60
380.28	645.99
380.48	753.65
380.68	730.25
380.87	674.07
381.07	664.71
381.26	671.73
381.46	589.82
381.65	795.78
381.85	718.54
382.04	685.78
382.24	674.07
382.43	671.73
382.63	681.10
382.83	699.82
383.02	702.16
383.22	695.14
383.41	660.03
383.61	718.54
383.80	741.95
384.00	744.29
384.19	725.57
384.39	746.63
384.58	746.63
384.78	709.18
384.97	711.52
385.17	770.04
385.36	688.12
385.56	793.44
385.75	716.20
385.95	837.91
386.14	786.42
386.34	781.74
386.53	833.23
386.72	814.51
386.92	706.84
387.11	786.42
387.31	779.40
387.50	849.61
387.70	826.21
387.89	758.33
388.09	828.55
388.28	840.25
388.48	779.40
388.67	842.59
388.86	833.23
389.06	919.83
389.25	889.40
389.45	819.19
389.64	915.15
389.84	994.73
390.03	917.49
390.22	957.28
390.42	938.55
390.61	924.51
390.81	950.26
391.00	952.60
391.19	992.39
391.39	1022.81
391.58	983.02
391.78	912.81
391.97	1006.43
392.16	1027.50
392.36	1011.11
392.55	966.64
392.75	959.62
392.94	887.06
393.13	983.02
393.33	933.87
393.52	924.51
393.71	994.73
393.91	985.37
394.10	1018.13
394.29	1050.90
394.49	1104.73
394.68	1167.93
394.88	1064.94
395.07	1198.35
395.26	1132.82
395.46	1128.14
395.65	1074.31
395.84	1144.52
396.04	1181.97
396.23	1109.41
396.42	1100.05
396.62	1165.59
396.81	1165.59
397.00	1186.65
397.19	1188.99
397.39	1177.29
397.58	1217.08
397.77	1259.21
397.97	1233.46
398.16	1287.29
398.35	1287.29
398.55	1217.08
398.74	1343.47
398.93	1352.83
399.12	1245.16
399.32	1362.19
399.51	1406.66
399.70	1373.89
399.90	1380.92
400.09	1432.41
400.28	1516.67
400.47	1392.62
400.67	1533.05
400.86	1362.19
401.05	1371.55
401.24	1474.54
401.44	1446.45
401.63	1544.75
401.82	1570.50
402.01	1476.88
402.21	1584.54
402.40	1540.07
402.59	1523.69
402.78	1537.73
402.97	1554.12
403.17	1652.42
403.36	1624.33
403.55	1687.53
403.74	1638.38
403.93	1621.99
404.13	1596.25
404.32	1579.86
404.51	1760.08
404.70	1619.65
404.89	1727.32
405.09	1746.04
405.28	1785.83
405.47	1750.72
405.66	1703.91
405.85	1638.38
406.05	1750.72
406.24	1858.39
406.43	1736.68
406.62	1797.53
406.81	1874.77
407.00	1914.56
407.20	1802.21
407.39	1739.02
407.58	1865.41
407.77	1846.68
407.96	1846.68
408.15	1928.60
408.34	1893.49
408.54	1961.37
408.73	2003.50
408.92	1870.09
409.11	2022.22
409.30	2040.95
409.49	1952.01
409.68	2005.84
409.87	2050.31
410.07	2045.63
410.26	2186.06
410.45	2120.53
410.64	2167.34
410.83	2120.53
411.02	2279.68
411.21	2300.75
411.40	2218.83
411.59	2209.47
411.78	2317.13
411.98	2300.75
412.17	2359.26
412.36	2328.83
412.55	2487.99
412.74	2473.95
412.93	2455.22
413.12	2422.45
413.31	2541.82
413.50	2527.78
413.69	2499.69
413.88	2567.57
414.07	2480.97
414.26	2539.48
414.45	2466.92
414.64	2672.89
414.83	2668.21
415.02	2722.04
415.22	2679.91
415.41	2710.34
415.60	2761.83
415.79	2862.48
415.98	2928.01
416.17	2850.77
416.36	2813.32
416.55	2747.79
416.74	2860.13
416.93	2815.66
417.12	2890.56
417.31	2932.69
417.50	2848.43
417.69	3045.04
417.88	2984.18
418.07	3066.10
418.26	3073.12
418.45	3094.19
418.64	3141.00
418.83	3159.72
419.02	3220.58
419.21	3166.74
419.39	3225.26
419.58	3110.57
419.77	3136.32
419.96	3243.98
420.15	3286.11
420.34	3192.49
420.53	3286.11
420.72	3431.23
420.91	3323.56
421.10	3337.60
421.29	3356.33
421.48	3353.99
421.67	3473.36
421.86	3445.27
422.05	3494.42
422.24	3405.48
422.43	3375.05
422.61	3461.65
422.80	3552.93
422.99	3433.57
423.18	3566.98
423.37	3667.62
423.56	3433.57
423.75	3463.99
423.94	3468.67
424.13	3218.24
424.32	3496.76
424.50	3630.17
424.69	3637.19
424.88	3648.90
425.07	3536.55
425.26	3623.15
425.45	3562.30
425.64	3506.12
425.83	3463.99
426.01	3550.59
426.20	3719.11
426.39	3691.02
426.58	3583.36
426.77	3672.30
426.96	3686.34
427.15	3641.87
427.33	3669.96
427.52	3761.24
427.71	3857.20
427.90	3686.34
428.09	3658.26
428.28	3702.73
428.46	3779.97
428.65	3688.68
428.84	3922.74
429.03	3896.99
429.22	3726.13
429.40	3831.46
429.59	3758.90
429.78	3698.05
429.97	3698.05
430.16	3754.22
430.34	3714.43
430.53	3815.07
430.72	3999.98
430.91	3885.29
431.10	3859.54
431.28	4021.04
431.47	4035.08
431.66	4124.02
431.85	4140.41
432.03	4117.00
432.22	4283.18
432.41	4128.70
432.60	4205.94
432.79	4245.73
432.97	4353.40
433.16	4444.68
433.35	4138.07
433.54	4229.35
433.72	4383.82
433.91	4360.42
434.10	4271.48
434.28	4344.03
434.47	4379.14
434.66	4346.37
434.85	4496.17
435.03	4334.67
435.22	4435.32
435.41	4533.62
435.59	4557.02
435.78	4573.41
435.97	4685.75
436.16	4657.67
436.34	4496.17
436.53	4358.08
436.72	4723.20
436.90	4550.00
437.09	4638.94
437.28	4538.30
437.46	4627.24
437.65	4514.89
437.84	4608.51
438.02	4835.55
438.21	4706.82
438.40	4631.92
438.58	4734.90
438.77	4863.63
438.96	4896.40
439.14	4985.34
439.33	5097.69
439.52	5083.64
439.70	5135.14
439.89	5245.14
440.08	4990.02
440.26	5392.59
440.45	5095.35
440.63	5228.76
440.82	5444.09
441.01	5270.89
441.19	5394.93
441.38	5392.59
441.57	5411.32
441.75	5416.00
441.94	5542.39
442.12	5612.60
442.31	5701.54
442.50	5727.29
442.68	5701.54
442.87	5708.57
443.05	5706.23
443.24	5734.31
443.43	5708.57
443.61	5558.77
443.80	6022.20
443.98	5661.76
444.17	5526.00
444.35	6059.65
444.54	5923.90
444.73	5689.84
444.91	5888.79
445.10	5769.42
445.28	5816.23
445.47	5731.97
445.65	5680.48
445.84	5837.30
446.02	6033.90
446.21	5888.79
446.39	5839.64
446.58	5898.15
446.77	5923.90
446.95	5795.17
447.14	5900.49
447.32	6167.31
447.51	5933.26
447.69	5973.05
447.88	6160.29
448.06	5921.56
448.25	6052.63
448.43	6097.10
448.62	6001.13
448.80	5933.26
448.99	6050.28
449.17	6143.91
449.36	6139.23
449.54	6150.93
449.73	6232.85
449.91	6443.49
450.10	6230.51
450.28	6504.35
450.46	6207.10
450.65	6410.73
450.83	6464.56
451.02	6537.12
451.20	6438.81
451.39	6296.04
451.57	6443.49
451.76	6429.45
451.94	6565.20
452.13	6686.91
452.31	6401.37
452.49	6539.46
452.68	6384.98
452.86	6551.16
453.05	6649.46
453.23	6754.79
453.42	6518.39
453.60	6717.34
453.78	6630.74
453.97	6553.50
454.15	6679.89
454.34	6722.02
454.52	6787.55
454.70	6703.29
454.89	6768.83
455.07	6937.35
455.26	6813.30
455.44	6825.00
455.62	6773.51
455.81	6862.45
455.99	7014.59
456.17	7077.78
456.36	7049.69
456.54	7021.61
456.73	6984.16
456.91	7393.75
457.09	7349.28
457.28	7328.22
457.46	7148.00
457.64	7246.30
457.83	7243.96
458.01	7098.84
458.19	7489.71
458.38	7433.54
458.56	7421.84
458.74	7328.22
458.93	7534.18
459.11	7461.63
459.29	7501.42
459.48	7440.56
459.66	7503.76
459.84	7470.99
460.03	7686.32
460.21	7829.09
460.39	7653.55
460.57	7637.17
460.76	7770.58
460.94	7925.05
461.12	7494.40
461.31	7728.45
461.49	7702.70
461.67	7878.24
461.85	7918.03
462.04	7847.82
462.22	8383.80
462.40	8159.11
462.59	7882.92
462.77	7889.95
462.95	7908.67
463.13	7885.26
463.32	8084.21
463.50	7967.18
463.68	8175.49
463.86	8241.03
464.05	7927.39
464.23	8070.17
464.41	8154.43
464.59	7992.93
464.78	8369.76
464.96	8311.24
465.14	8142.72
465.32	8348.69
465.50	8421.25
465.69	8351.03
465.87	8234.00
466.05	8217.62
466.23	8329.97
466.41	8400.18
466.60	8568.70
466.78	8358.05
466.96	8379.12
467.14	8451.67
467.32	8603.81
467.51	8786.37
467.69	8390.82
467.87	8512.53
468.05	8645.94
468.23	8397.84
468.41	8617.85
468.60	8437.63
468.78	8791.05
468.96	8667.00
469.14	8786.37
469.32	8971.27
469.50	8603.81
469.69	8971.27
469.87	8713.81
470.05	8814.46
470.23	8858.93
470.41	8978.30
470.59	9078.94
470.77	8952.55
470.95	9071.92
471.14	9053.19
471.32	9025.11
471.50	9324.69
471.68	9231.07
471.86	9362.14
472.04	9177.24
472.22	9460.45
472.40	9469.81
472.58	9331.72
472.77	9284.91
472.95	9666.41
473.13	9717.90
473.31	9584.49
473.49	9694.50
473.67	9687.48
473.85	9556.41
474.03	9778.76
474.21	9895.78
474.39	10277.29
474.57	9949.62
474.75	10197.71
474.93	10057.28
475.12	10076.01
475.30	10391.98
475.48	10101.75
475.66	10300.70
475.84	10169.63
476.02	10361.55
476.20	10157.92
476.38	10413.04
476.56	10712.63
476.74	10836.68
476.92	10939.66
477.10	10876.47
477.28	11075.42
477.46	10923.28
477.64	11009.88
477.82	11047.33
478.00	11485.01
478.18	11302.45
478.36	11234.57
478.54	11068.39
478.72	11527.14
478.90	11529.48
479.08	11772.89
479.26	12152.06
479.44	12009.29
479.62	11705.02
479.80	12219.94
479.98	12107.59
480.16	12407.18
480.34	12224.62
480.52	12615.49
480.70	12659.96
480.88	12315.90
481.06	12737.20
481.24	12861.24
481.41	12697.41
481.59	13130.41
481.77	13130.41
481.95	13085.94
482.13	13191.26
482.31	13200.62
482.49	13415.95
482.67	13584.47
482.85	13472.12
483.03	13694.47
483.21	13865.33
483.39	13891.08
483.57	14221.10
483.74	14251.52
483.92	14457.49
484.10	14178.97
484.28	14380.25
484.46	14733.67
484.64	14864.74
484.82	14518.34
485.00	14932.62
485.18	14661.12
485.35	15442.85
485.53	14820.27
485.71	15014.54
485.89	15283.70
486.07	15503.71
486.25	15302.42
486.43	15597.33
486.61	15618.39
486.78	15506.05
486.96	15807.98
487.14	16301.83
487.32	16442.26
487.50	16716.11
487.68	16655.25
487.85	16830.79
488.03	17032.08
488.21	17146.76
488.39	17013.35
488.57	17338.69
488.75	16978.25
488.92	17334.01
489.10	17233.36
489.28	17642.96
489.46	18029.15
489.64	17893.40
489.81	18207.03
489.99	18342.78
490.17	18246.82
490.35	18389.59
490.53	18576.83
490.70	18824.93
490.88	18745.35
491.06	19391.34
491.24	19030.90
491.41	18941.96
491.59	19218.14
491.77	19105.79
491.95	19686.25
492.13	19534.11
492.30	20034.99
492.48	19873.49
492.66	19871.15
492.84	19976.47
493.01	20126.27
493.19	20224.57
493.37	20556.93
493.54	20538.20
493.72	20634.16
493.90	20704.38
494.08	21064.82
494.25	21097.59
494.43	21589.10
494.61	21542.29
494.79	21811.45
494.96	21247.38
495.14	21495.48
495.32	21757.62
495.49	21687.40
495.67	21972.95
495.85	22305.31
496.02	22279.56
496.20	22522.98
496.38	22457.44
496.55	22403.61
496.73	22974.70
496.91	22937.25
497.09	22923.21
497.26	23236.84
497.44	23049.60
497.62	23016.83
497.79	23133.86
497.97	23218.11
498.14	23770.48
498.32	23557.49
498.50	23683.88
498.67	23880.49
498.85	23775.16
499.03	24034.96
499.20	24318.17
499.38	24472.64
499.56	24439.87
499.73	24004.53
499.91	24655.20
500.08	24697.33
500.26	24587.33
500.44	24451.58
500.61	24776.91
500.79	24788.61
500.97	25158.42
501.14	24936.07
501.32	25448.64
501.49	25350.34
501.67	25425.24
501.84	25640.57
502.02	25216.93
502.20	25790.36
502.37	25860.58
502.55	25891.01
502.72	25809.09
502.90	25975.27
503.07	25764.62
503.25	25907.39
503.43	26082.93
503.60	26347.41
503.78	26415.29
503.95	26221.02
504.13	26410.60
504.30	26637.64
504.48	26799.13
504.65	26637.64
504.83	26483.16
505.01	27042.55
505.18	27044.89
505.36	27377.25
505.53	26969.99
505.71	27419.38
505.88	27557.47
506.06	27386.61
506.23	27239.15
506.41	27491.93
506.58	27599.60
506.76	27807.90
506.93	27929.61
507.11	27578.53
507.28	27807.90
507.46	27892.16
507.63	28095.79
507.81	28212.82
507.98	27770.46
508.16	28166.01
508.33	28456.23
508.50	28601.35
508.68	28430.49
508.85	28816.68
509.03	28563.90
509.20	28973.49
509.38	29186.48
509.55	29273.08
509.73	29223.93
509.90	28933.70
510.08	29078.82
510.25	29429.90
510.42	29371.38
510.60	29673.31
510.77	29376.06
510.95	29680.33
511.12	29357.34
511.30	29762.25
511.47	30036.09
511.64	30139.08
511.82	30164.82
511.99	29832.47
512.17	30380.15
512.34	30113.33
512.51	30394.20
512.69	30450.37
512.86	30586.12
513.04	30483.14
513.21	30803.79
513.38	30644.63
513.56	30649.32
513.73	30759.32
513.90	30656.34
514.08	30813.15
514.25	31023.80
514.43	30948.90
514.60	30941.88
514.77	31084.65
514.95	31351.48
515.12	31510.63
515.29	31438.08
515.47	31763.41
515.64	31725.96
515.81	31433.39
515.99	31702.56
516.16	31955.33
516.33	31634.68
516.51	31807.88
516.68	31461.48
516.85	31669.79
517.03	31700.22
517.20	32100.45
517.37	31768.09
517.54	32570.90
517.72	32362.59
517.89	32077.04
518.06	32395.35
518.24	31955.33
518.41	31887.46
518.58	32580.26
518.75	32397.70
518.93	33333.91
519.10	32840.06
519.27	33240.29
519.45	33132.62
519.62	33130.28
519.79	32910.27
519.96	33567.96
520.14	33228.59
520.31	33090.49
520.48	33556.26
520.65	33354.97
520.83	33406.47
521.00	33869.89
521.17	33851.17
521.34	33811.38
521.52	34122.67
521.69	34178.84
521.86	34237.36
522.03	33799.68
522.20	34195.23
522.38	34272.46
522.55	34478.43
522.72	34167.14
522.89	33837.12
523.07	34639.93
523.24	34270.12
523.41	34658.65
523.58	34433.96
523.75	35241.45
523.92	34469.07
524.10	34780.36
524.27	35358.47
524.44	34635.25
524.61	35344.43
524.78	35070.59
524.96	35136.12
525.13	35101.01
525.30	35716.58
525.47	35686.15
525.64	35349.11
525.81	35323.36
525.98	35269.53
526.16	35526.99
526.33	35283.58
526.50	35536.35
526.67	35225.06
526.84	35545.72
527.01	35608.91
527.18	35864.03
527.36	36128.51
527.53	35903.82
527.70	36261.92
527.87	36109.78
528.04	36301.71
528.21	36137.87
528.38	35971.69
528.55	36451.50
528.72	36751.09
528.89	36591.94
529.07	36388.31
529.24	36580.23
529.41	36559.17
529.58	36690.24
529.75	36495.97
529.92	36935.99
530.09	36861.10
530.26	36701.94
530.43	36825.99
530.60	36732.37
530.77	36891.52
530.94	36940.68
531.11	37345.59
531.28	36982.80
531.46	37291.76
531.63	37570.28
531.80	37055.36
531.97	36952.38
532.14	37497.72
532.31	37237.92
532.48	37380.70
532.65	37247.29
532.82	37090.47
532.99	37776.25
533.16	36954.72
533.33	37305.80
533.50	38000.94
533.67	38052.43
533.84	37762.20
534.01	37888.59
534.18	38000.94
534.35	38202.22
534.52	38192.86
534.69	38209.25
534.86	38550.96
535.03	37809.01
535.20	38277.12
535.37	38532.24
535.54	38768.63
535.71	38550.96
535.88	38693.74
536.05	38705.44
536.22	38560.33
536.38	38532.24
536.55	38679.69
536.72	38433.94
536.89	38864.60
537.06	38576.71
537.23	38782.68
537.40	38684.37
537.57	38873.96
537.74	38656.29
537.91	39236.74
538.08	39021.41
538.25	38911.41
538.42	38955.88
538.59	39330.36
538.75	38754.59
538.92	38990.98
539.09	39232.06
539.26	39173.55
539.43	39559.73
539.60	39248.44
539.77	39194.61
539.94	39517.60
540.11	39264.83
540.28	39431.01
540.44	39285.89
540.61	39601.86
540.78	39636.97
540.95	39309.30
541.12	39461.43
541.29	39777.40
541.46	39669.74
541.62	39515.26
541.79	40224.45
541.96	39494.20
542.13	39629.95
542.30	40156.57
542.47	40154.23
542.63	40091.04
542.80	39882.73
542.97	40451.48
543.14	40914.90
543.31	40584.89
543.48	40430.41
543.64	41237.90
543.81	40985.12
543.98	40935.97
544.15	40662.13
544.32	41045.97
544.48	41060.02
544.65	40879.80
544.82	41064.70
544.99	40219.77
545.16	40556.80
545.32	40624.68
545.49	41174.70
545.66	41352.58
545.83	40975.76
546.00	40828.30
546.16	41050.66
546.33	41165.34
546.50	40486.59
546.67	40865.75
546.83	41029.59
547.00	41160.66
547.17	40957.03
547.34	41287.05
547.50	41439.18
547.67	41401.74
547.84	41268.33
548.00	41874.52
548.17	41467.27
548.34	41453.23
548.51	41736.43
548.67	41855.80
548.84	42068.79
549.01	41556.21
549.18	41301.09
549.34	41624.09
549.51	41830.05
549.68	42010.28
549.84	42277.10
550.01	42270.08
550.18	41830.05
550.34	41951.76
550.51	41979.85
550.68	41670.90
550.84	41605.36
551.01	42277.10
551.18	41982.19
551.34	41773.88
551.51	42127.30
551.68	42171.77
551.84	42199.86
552.01	42321.57
552.18	42225.60
552.34	42422.21
552.51	42408.17
552.68	41823.03
552.84	42749.88
553.01	42562.64
553.18	42548.60
553.34	42181.13
553.51	42209.22
553.67	42590.73
553.84	42576.69
554.01	42724.14
554.17	42632.86
554.34	43203.95
554.51	42710.10
554.67	42993.30
554.84	43150.12
555.00	42712.44
555.17	42761.59
555.33	42197.52
555.50	43021.39
555.67	42777.97
555.83	43005.00
556.00	42920.74
556.16	42864.57
556.33	43302.25
556.50	42941.81
556.66	43426.30
556.83	42932.45
556.99	43517.58
557.16	43164.16
557.32	43515.24
557.49	43505.88
557.65	42810.74
557.82	43100.97
557.98	42869.25
558.15	43480.13
558.32	43665.03
558.48	43414.60
558.65	43442.68
558.81	43445.02
558.98	43473.11
559.14	43370.13
559.31	43150.12
559.47	43449.70
559.64	43709.50
559.80	43826.53
559.97	43814.83
560.13	43152.46
560.30	43838.23
560.46	43555.03
560.63	43482.47
560.79	43730.57
560.96	43847.60
561.12	43604.18
561.29	43627.59
561.45	43587.80
561.61	43721.21
561.78	43599.50
561.94	43592.48
562.11	43510.56
562.27	43421.62
562.44	43849.94
562.60	44069.95
562.77	43999.73
562.93	43990.37
563.10	44044.20
563.26	44039.52
563.42	43812.49
563.59	43608.86
563.75	43379.49
563.92	44135.48
564.08	44060.58
564.24	43981.01
564.41	44311.02
564.57	43882.70
564.74	43817.17
564.90	44053.56
565.07	44048.88
565.23	44006.75
565.39	43519.92
565.56	43983.35
565.72	44320.38
565.88	43882.70
566.05	44128.46
566.21	44266.55
566.38	43667.37
566.54	44144.84
566.70	44142.50
566.87	44318.04
567.03	43917.81
567.19	44121.44
567.36	44493.58
567.52	43978.67
567.68	44184.63
567.85	44556.78
568.01	44105.06
568.17	44126.12
568.34	44432.73
568.50	44507.63
568.66	44161.23
568.83	44306.34
568.99	44074.63
569.15	44011.43
569.32	44409.32
569.48	43978.67
569.64	44814.24
569.81	44399.96
569.97	44168.25
570.13	44416.35
570.30	44318.04
570.46	44088.67
570.62	43938.88
570.78	44385.92
570.95	44135.48
571.11	44540.39
571.27	44421.03
571.43	44327.41
571.60	44442.09
571.76	44421.03
571.92	44172.93
572.09	44659.76
572.25	44690.19
572.41	44414.01
572.57	44524.01
572.74	45041.27
572.90	44502.95
573.06	44488.90
573.22	44669.12
573.38	44348.47
573.55	44219.74
573.71	44903.18
573.87	44769.77
574.03	44446.77
574.20	44591.89
574.36	44336.77
574.52	44556.78
574.68	44346.13
574.84	44790.83
575.01	44697.21
575.17	45034.25
575.33	44547.42
575.49	44713.59
575.65	44968.71
575.82	44687.85
575.98	44594.23
576.14	44713.59
576.30	44952.33
576.46	43999.73
576.62	44516.99
576.79	44390.60
576.95	43995.05
577.11	44566.14
577.27	44488.90
577.43	44825.94
577.59	44343.79
577.75	44444.43
577.92	44608.27
578.08	44109.74
578.24	44191.65
578.40	44374.22
578.56	44353.15
578.72	44542.74
578.88	44905.52
579.04	44729.98
579.21	44854.03
579.37	44472.52
579.53	44346.13
579.69	44306.34
579.85	44802.53
580.01	44704.23
580.17	44505.29
580.33	45219.15
580.49	44608.27
580.65	45104.46
580.82	44547.42
580.98	44701.89
581.14	44320.38
581.30	44858.71
581.46	44741.68
581.62	44992.12
581.78	44872.75
581.94	44879.77
582.10	44919.56
582.26	44973.39
582.42	44664.44
582.58	44861.05
582.74	44577.84
582.90	44495.92
583.06	44842.32
583.22	44708.91
583.38	44844.66
583.54	44879.77
583.70	44261.87
583.86	44823.60
584.02	44533.37
584.18	44912.54
584.34	45069.36
584.50	45200.43
584.66	44481.88
584.82	44428.05
584.98	45076.38
585.14	44896.16
585.30	44542.74
585.46	44729.98
585.62	44526.35
585.78	44158.89
585.94	44662.10
586.10	44652.74
586.26	44350.81
586.42	45048.29
586.58	44966.37
586.74	44954.67
586.90	44711.25
587.06	44105.06
587.22	44828.28
587.38	44294.64
587.54	44919.56
587.70	45228.51
587.86	44828.28
588.02	44879.77
588.18	44832.96
588.34	45116.17
588.49	44610.61
588.65	44521.67
588.81	44718.28
588.97	45048.29
589.13	44535.71
589.29	44729.98
589.45	44722.96
589.61	44832.96
589.77	45120.85
589.93	44992.12
590.08	44949.99
590.24	44509.97
