SpectraSuite Data File
++++++++++++++++++++++++++++++++++++
Date: Fri Oct 25 10:44:17 EDT 2013
User: price-jones
Dark Spectrum Present: No
Reference Spectrum Present: No
Number of Sampled Component Spectra: 1
Spectrometers: USB2+H05261
Integration Time (usec): 100000 (USB2+H05261)
Spectra Averaged: 1 (USB2+H05261)
Boxcar Smoothing: 0 (USB2+H05261)
Correct for Electrical Dark: No (USB2+H05261)
Strobe/Lamp Enabled: No (USB2+H05261)
Correct for Detector Non-linearity: No (USB2+H05261)
Correct for Stray Light: No (USB2+H05261)
Number of Pixels in Processed Spectrum: 2048
>>>>>Begin Processed Spectral Data<<<<<
365.73	149.79
365.92	149.79
366.12	149.79
366.32	51.49
366.52	0.00
366.72	67.88
366.91	14.04
367.11	0.00
367.31	0.00
367.51	42.13
367.70	37.45
367.90	0.00
368.10	16.38
368.30	46.81
368.49	4.68
368.69	72.56
368.89	91.28
369.09	0.00
369.28	98.30
369.48	67.88
369.68	37.45
369.87	100.64
370.07	121.71
370.27	107.66
370.47	126.39
370.66	402.57
370.86	409.59
371.06	505.56
371.25	470.45
371.45	360.44
371.65	395.55
371.84	440.02
372.04	428.32
372.24	482.15
372.44	561.73
372.63	503.22
372.83	521.94
373.03	472.79
373.22	491.51
373.42	521.94
373.62	571.09
373.81	554.71
374.01	603.86
374.21	496.19
374.40	538.32
374.60	606.20
374.79	517.26
374.99	571.09
375.19	582.79
375.38	596.84
375.58	608.54
375.78	667.05
375.97	573.43
376.17	622.58
376.37	638.97
376.56	568.75
376.76	568.75
376.95	660.03
377.15	643.65
377.35	655.35
377.54	669.39
377.74	746.63
377.93	662.37
378.13	678.76
378.33	624.92
378.52	617.90
378.72	702.16
378.91	674.07
379.11	601.52
379.31	624.92
379.50	653.01
379.70	723.23
379.89	716.20
380.09	723.23
380.28	662.37
380.48	727.91
380.68	627.26
380.87	685.78
381.07	713.86
381.26	781.74
381.46	795.78
381.65	692.80
381.85	685.78
382.04	711.52
382.24	781.74
382.43	678.76
382.63	748.97
382.83	720.88
383.02	653.01
383.22	704.50
383.41	734.93
383.61	784.08
383.80	791.10
384.00	755.99
384.19	805.14
384.39	814.51
384.58	788.76
384.78	837.91
384.97	805.14
385.17	739.61
385.36	842.59
385.56	802.80
385.75	849.61
385.95	819.19
386.14	889.40
386.34	772.38
386.53	753.65
386.72	823.87
386.92	873.02
387.11	807.48
387.31	828.55
387.50	802.80
387.70	858.98
387.89	875.36
388.09	851.96
388.28	884.72
388.48	849.61
388.67	973.66
388.86	901.11
389.06	931.53
389.25	1062.60
389.45	1011.11
389.64	1020.47
389.84	987.71
390.03	1025.15
390.22	1032.18
390.42	1064.94
390.61	1057.92
390.81	1083.67
391.00	1039.20
391.19	1102.39
391.39	985.37
391.58	1057.92
391.78	1146.86
391.97	1114.10
392.16	1128.14
392.36	1174.95
392.55	1071.97
392.75	1057.92
392.94	1083.67
393.13	940.90
393.33	1006.43
393.52	1041.54
393.71	1067.28
393.91	1114.10
394.10	1158.57
394.29	1177.29
394.49	1207.72
394.68	1210.06
394.88	1256.87
395.07	1343.47
395.26	1289.64
395.46	1249.85
395.65	1245.16
395.84	1270.91
396.04	1348.15
396.23	1203.04
396.42	1088.35
396.62	1116.44
396.81	1172.61
397.00	1205.38
397.19	1226.44
397.39	1387.94
397.58	1383.26
397.77	1357.51
397.97	1425.39
398.16	1418.36
398.35	1406.66
398.55	1488.58
398.74	1371.55
398.93	1535.39
399.12	1554.12
399.32	1521.35
399.51	1423.05
399.70	1626.67
399.90	1554.12
400.09	1561.14
400.28	1647.74
400.47	1579.86
400.67	1530.71
400.86	1577.52
401.05	1734.34
401.24	1687.53
401.44	1713.27
401.63	1774.13
401.82	1755.40
402.01	1633.69
402.21	1736.68
402.40	1743.70
402.59	1736.68
402.78	1675.82
402.97	1799.87
403.17	1790.51
403.36	1760.08
403.55	1884.13
403.74	1867.75
403.93	1790.51
404.13	1930.94
404.32	1919.24
404.51	1884.13
404.70	1942.64
404.89	1769.44
405.09	2024.56
405.28	1954.35
405.47	1963.71
405.66	1928.60
405.85	1980.09
406.05	2008.18
406.24	1994.14
406.43	1994.14
406.62	2012.86
406.81	2141.59
407.00	2038.61
407.20	2015.20
407.39	2092.44
407.58	2057.33
407.77	2239.89
407.96	2211.81
408.15	2279.68
408.34	2188.40
408.54	2347.56
408.73	2284.36
408.92	2256.28
409.11	2434.16
409.30	2296.07
409.49	2319.47
409.68	2272.66
409.87	2296.07
410.07	2363.94
410.26	2349.90
410.45	2406.07
410.64	2443.52
410.83	2473.95
411.02	2492.67
411.21	2553.52
411.40	2609.70
411.59	2651.83
411.78	2602.68
411.98	2654.17
412.17	2710.34
412.36	2698.64
412.55	2740.77
412.74	2665.87
412.93	2750.13
413.12	2663.53
413.31	2932.69
413.50	2740.77
413.69	2895.24
413.88	2895.24
414.07	2951.42
414.26	2895.24
414.45	2874.18
414.64	2937.37
414.83	3035.67
415.02	3059.08
415.22	3087.17
415.41	3115.25
415.60	3155.04
415.79	3150.36
415.98	3171.43
416.17	3241.64
416.36	3199.51
416.55	3297.81
416.74	3351.65
416.93	3169.09
417.12	3297.81
417.31	3382.07
417.50	3358.67
417.69	3398.46
417.88	3356.33
418.07	3400.80
418.26	3473.36
418.45	3562.30
418.64	3581.02
418.83	3655.92
419.02	3637.19
419.21	3559.95
419.39	3543.57
419.58	3538.89
419.77	3606.77
419.96	3679.32
420.15	3566.98
420.34	3590.38
420.53	3742.52
420.72	3822.09
420.91	3838.48
421.10	3920.40
421.29	3845.50
421.48	3831.46
421.67	3786.99
421.86	3712.09
422.05	3908.69
422.24	3808.05
422.43	3786.99
422.61	3819.75
422.80	3875.93
422.99	3904.01
423.18	3892.31
423.37	3981.25
423.56	4044.45
423.75	3911.04
423.94	3925.08
424.13	3847.84
424.32	3873.59
424.50	4004.66
424.69	4011.68
424.88	3974.23
425.07	3868.91
425.26	3871.25
425.45	3810.39
425.64	3976.57
425.83	3936.78
426.01	4037.42
426.20	4018.70
426.39	3992.95
426.58	3892.31
426.77	3948.48
426.96	4238.71
427.15	3995.29
427.33	4035.08
427.52	4065.51
427.71	4138.07
427.90	4021.04
428.09	4093.60
428.28	4231.69
428.46	4046.79
428.65	4140.41
428.84	4189.56
429.03	4313.61
429.22	4187.22
429.40	4297.22
429.59	4210.62
429.78	4018.70
429.97	3875.93
430.16	3967.21
430.34	4128.70
430.53	4196.58
430.72	4283.18
430.91	4189.56
431.10	4365.10
431.28	4669.37
431.47	4566.39
431.66	4692.77
431.85	4435.32
432.03	4664.69
432.22	4652.98
432.41	4643.62
432.60	4592.13
432.79	4571.07
432.97	4865.97
433.16	4828.53
433.35	4713.84
433.54	4669.37
433.72	4837.89
433.91	4739.58
434.10	4774.69
434.28	4746.61
434.47	4912.78
434.66	4865.97
434.85	4980.66
435.03	4938.53
435.22	4896.40
435.41	5130.45
435.59	5135.14
435.78	5116.41
435.97	5146.84
436.16	5102.37
436.34	5205.35
436.53	5118.75
436.72	5203.01
436.90	5081.30
437.09	5252.16
437.28	5088.32
437.46	5289.61
437.65	5245.14
437.84	5207.69
438.02	5259.18
438.21	5151.52
438.40	5160.88
438.58	5411.32
438.77	5315.36
438.96	5507.28
439.14	5612.60
439.33	5596.22
439.52	5685.16
439.70	5701.54
439.89	5657.07
440.08	5762.40
440.26	5682.82
440.45	5755.38
440.63	5863.04
440.82	5877.09
441.01	6029.22
441.19	6029.22
441.38	6080.71
441.57	6183.70
441.75	6195.40
441.94	6148.59
442.12	6242.21
442.31	6186.04
442.50	6352.21
442.68	6209.44
442.87	6415.41
443.05	6195.40
443.24	6408.39
443.43	6492.65
443.61	6450.52
443.80	6633.08
443.98	6253.91
444.17	6230.51
444.35	6413.07
444.54	6558.18
444.73	6478.60
444.91	6406.05
445.10	6406.05
445.28	6445.84
445.47	6370.94
445.65	6403.71
445.84	6532.44
446.02	6665.85
446.21	6677.55
446.39	6574.56
446.58	6637.76
446.77	6715.00
446.95	6675.21
447.14	6768.83
447.32	6731.38
447.51	6670.53
447.69	6506.69
447.88	6675.21
448.06	6787.55
448.25	6794.58
448.43	6637.76
448.62	6808.62
448.80	6782.87
448.99	6810.96
449.17	6743.08
449.36	6649.46
449.54	6820.32
449.73	6960.75
449.91	7169.06
450.10	7140.97
450.28	7304.81
450.46	7236.94
450.65	7194.81
450.83	7227.57
451.02	7028.63
451.20	7300.13
451.39	7267.36
451.57	7335.24
451.76	7089.48
451.94	7171.40
452.13	7405.46
452.31	7162.04
452.49	7112.89
452.68	7307.15
452.86	7276.73
453.05	7192.47
453.23	7335.24
453.42	7379.71
453.60	7529.50
453.78	7445.24
453.97	7316.51
454.15	7283.75
454.34	7438.22
454.52	7613.76
454.70	7639.51
454.89	7660.57
455.07	7293.11
455.26	7747.17
455.44	7864.20
455.62	7705.04
455.81	7742.49
455.99	7796.32
456.17	7679.30
456.36	7962.50
456.54	7988.25
456.73	8018.68
456.91	8243.37
457.09	8299.54
457.28	8217.62
457.46	7981.23
457.64	8173.15
457.83	8344.01
458.01	7943.78
458.19	8224.64
458.38	8107.62
458.56	8152.09
458.74	8196.56
458.93	8297.20
459.11	8484.44
459.29	8491.46
459.48	8477.42
459.66	8189.53
459.84	8182.51
460.03	8620.19
460.21	8486.78
460.39	8568.70
460.57	8386.14
460.76	8608.49
460.94	8730.20
461.12	8697.43
461.31	8585.08
461.49	8645.94
461.67	8603.81
461.85	9022.77
462.04	8755.94
462.22	8917.44
462.40	9008.72
462.59	8912.76
462.77	8894.04
462.95	8917.44
463.13	9046.17
463.32	8809.78
463.50	9078.94
463.68	8945.53
463.86	9217.03
464.05	8781.69
464.23	8929.14
464.41	9172.56
464.59	8917.44
464.78	9369.16
464.96	9008.72
465.14	9083.62
465.32	9214.69
465.50	9364.48
465.69	9404.27
465.87	9116.39
466.05	9172.56
466.23	9104.68
466.41	9263.84
466.60	9322.35
466.78	9142.13
466.96	9186.60
467.14	9247.46
467.32	9322.35
467.51	9647.69
467.69	9266.18
467.87	9511.94
468.05	9596.20
468.23	9572.79
468.41	9650.03
468.60	9479.17
468.78	9685.14
468.96	9645.35
469.14	9668.75
469.32	9652.37
469.50	9523.64
469.69	9659.39
469.87	9741.31
470.05	9973.02
470.23	9909.83
470.41	9895.78
470.59	9994.09
470.77	9856.00
470.95	9848.97
471.14	10033.88
471.32	9823.23
471.50	10197.71
471.68	10279.63
471.86	10249.21
472.04	10244.52
472.22	10527.73
472.40	10209.42
472.58	10520.71
472.77	10532.41
472.95	10555.82
473.13	10857.75
473.31	10562.84
473.49	10448.15
473.67	10810.93
473.85	10682.20
474.03	11180.74
474.21	11063.71
474.39	10979.45
474.57	11096.48
474.75	11133.93
474.93	11108.18
475.12	11190.10
475.30	11375.00
475.48	11047.33
475.66	11353.94
475.84	11260.32
476.02	11398.41
476.20	11414.79
476.38	11702.68
476.56	11957.80
476.74	11850.13
476.92	11674.59
477.10	11754.17
477.28	12170.79
477.46	12131.00
477.64	12149.72
477.82	12407.18
478.00	12650.60
478.18	12603.78
478.36	12400.16
478.54	12762.94
478.72	12751.24
478.90	13078.91
479.08	13109.34
479.26	13303.60
479.44	13317.65
479.62	13413.61
479.80	13287.22
479.98	13486.17
480.16	13741.29
480.34	13572.77
480.52	13710.86
480.70	13785.76
480.88	13645.32
481.06	13778.73
481.24	14127.47
481.41	14363.87
481.59	14434.08
481.77	14806.23
481.95	14719.63
482.13	14600.26
482.31	14611.96
482.49	14934.96
482.67	15012.20
482.85	15033.26
483.03	15339.87
483.21	15204.12
483.39	15487.32
483.57	15133.90
483.74	15658.18
483.92	15805.64
484.10	15360.94
484.28	16058.42
484.46	16002.24
484.64	16276.09
484.82	15927.35
485.00	16142.67
485.18	16465.67
485.35	16563.97
485.53	16184.80
485.71	16224.59
485.89	16453.97
486.07	16400.13
486.25	16528.86
486.43	16978.25
486.61	17252.09
486.78	17404.22
486.96	17289.54
487.14	17994.04
487.32	17818.50
487.50	17949.57
487.68	18148.51
487.85	18274.90
488.03	18607.26
488.21	18822.59
488.39	18789.82
488.57	18754.71
488.75	18988.77
488.92	19147.92
489.10	19534.11
489.28	19496.66
489.46	19845.40
489.64	19775.19
489.81	20294.79
489.99	20107.54
490.17	20357.98
490.35	20477.35
490.53	20505.43
490.70	20486.71
490.88	20657.57
491.06	20765.23
491.24	20987.58
491.41	20704.38
491.59	20594.37
491.77	20800.34
491.95	21081.21
492.13	21577.40
492.30	21713.15
492.48	21792.73
492.66	22071.25
492.84	21790.39
493.01	21884.01
493.19	22183.60
493.37	22068.91
493.54	22595.53
493.72	22799.16
493.90	22537.02
494.08	22754.69
494.25	23342.16
494.43	23220.45
494.61	23393.65
494.79	23639.41
494.96	23700.26
495.14	23288.33
495.32	23763.46
495.49	23641.75
495.67	23791.55
495.85	24142.63
496.02	24386.04
496.20	24290.08
496.38	24467.96
496.55	24353.27
496.73	24943.09
496.91	24856.49
497.09	25123.31
497.26	25593.76
497.44	25172.46
497.62	25277.79
497.79	25422.90
497.97	25200.55
498.14	25371.41
498.32	25675.68
498.50	25741.21
498.67	26211.66
498.85	26103.99
499.03	26436.35
499.20	26169.53
499.38	26274.85
499.56	26548.70
499.73	26251.45
499.91	26820.20
500.08	26731.26
500.26	26197.62
500.44	26595.51
500.61	26855.31
500.79	26834.24
500.97	27058.93
501.14	27363.20
501.32	27199.37
501.49	27353.84
501.67	27660.45
501.84	27800.88
502.02	27735.35
502.20	27751.73
502.37	28058.34
502.55	27728.33
502.72	27903.87
502.90	28161.33
503.07	28276.01
503.25	28479.64
503.43	28025.57
503.60	28432.83
503.78	28236.22
503.95	28437.51
504.13	28514.75
504.30	28573.26
504.48	28811.99
504.65	29092.86
504.83	29406.49
505.01	29434.58
505.18	29216.91
505.36	29429.90
505.53	29535.22
505.71	30319.30
505.88	29628.84
506.06	29825.45
506.23	30316.96
506.41	29476.71
506.58	29837.15
506.76	30162.48
506.93	30218.66
507.11	30010.35
507.28	29867.58
507.46	30146.10
507.63	29930.77
507.81	30263.13
507.98	30235.04
508.16	30527.61
508.33	30565.06
508.50	30483.14
508.68	30845.92
508.85	31417.01
509.03	31302.32
509.20	30796.77
509.38	31349.14
509.55	31166.57
509.73	31566.81
509.90	31257.85
510.08	31442.76
510.25	31421.69
510.42	31854.69
510.60	31885.12
510.77	31873.42
510.95	32240.88
511.12	32306.41
511.30	32196.41
511.47	32280.67
511.64	32540.47
511.82	32261.94
511.99	32278.33
512.17	32425.78
512.34	32147.26
512.51	32425.78
512.69	33277.74
512.86	32783.88
513.04	33394.76
513.21	32907.93
513.38	33160.71
513.56	32823.67
513.73	32699.62
513.90	33228.59
514.08	33015.60
514.25	33088.15
514.43	33390.08
514.60	33493.07
514.77	33888.62
514.95	33628.82
515.12	33820.74
515.29	33790.31
515.47	33823.08
515.64	34206.93
515.81	33965.85
515.99	33844.15
516.16	34185.86
516.33	33748.18
516.51	33631.16
516.68	33362.00
516.85	33542.22
517.03	33713.08
517.20	34003.30
517.37	34478.43
517.54	34515.88
517.72	34801.43
517.89	34394.17
518.06	33947.13
518.24	34424.60
518.41	34347.36
518.58	34749.93
518.75	34675.04
518.93	34794.40
519.10	35005.05
519.27	35171.23
519.45	34892.71
519.62	35337.41
519.79	35463.80
519.96	35363.15
520.14	35793.81
520.31	35110.38
520.48	35339.75
520.65	35379.54
520.83	36191.70
521.00	36041.91
521.17	36004.46
521.34	36025.53
521.52	36341.50
521.69	36198.73
521.86	36446.82
522.03	36495.97
522.20	36575.55
522.38	36610.66
522.55	36383.63
522.72	36964.08
522.89	36678.54
523.07	36332.14
523.24	36945.36
523.41	37062.38
523.58	37167.71
523.75	37525.81
523.92	37560.92
524.10	37572.62
524.27	37544.53
524.44	37184.09
524.61	37703.69
524.78	37827.74
524.96	37631.13
525.13	37928.38
525.30	37787.95
525.47	38106.26
525.64	38089.88
525.81	38012.64
525.98	37696.67
526.16	37706.03
526.33	37233.24
526.50	37413.46
526.67	37502.40
526.84	37832.42
527.01	37652.20
527.18	38007.96
527.36	38345.00
527.53	38136.69
527.70	39262.49
527.87	38251.38
528.04	38410.53
528.21	38815.44
528.38	39030.77
528.55	38948.85
528.72	38808.42
528.89	38728.84
529.07	39072.90
529.24	38768.63
529.41	38848.21
529.58	38855.23
529.75	38920.77
529.92	38857.57
530.09	39108.01
530.26	39330.36
530.43	39356.11
530.60	39206.31
530.77	39746.98
530.94	39922.52
531.11	39033.11
531.28	40058.27
531.46	39983.37
531.63	40224.45
531.80	39852.30
531.97	39613.57
532.14	39489.52
532.31	39264.83
532.48	40137.85
532.65	39920.18
532.82	40037.20
532.99	40004.44
533.16	40088.70
533.33	40231.47
533.50	40289.98
533.67	40245.51
533.84	40458.50
534.01	40224.45
534.18	40341.47
534.35	40215.08
534.52	40418.71
534.69	40589.57
534.86	40713.62
535.03	40346.15
535.20	40837.67
535.37	40971.08
535.54	41024.91
535.71	40966.40
535.88	40919.59
536.05	41043.63
536.22	41010.87
536.38	41158.32
536.55	41015.55
536.72	40938.31
536.89	40928.95
537.06	41092.79
537.23	41027.25
537.40	41230.88
537.57	41425.14
537.74	41387.69
537.91	41544.51
538.08	41762.18
538.25	40985.12
538.42	41511.74
538.59	41303.43
538.75	40868.09
538.92	41387.69
539.09	41240.24
539.26	41792.61
539.43	41453.23
539.60	41394.71
539.77	41698.98
539.94	42073.47
540.11	41223.86
540.28	41888.57
540.44	42036.02
540.61	41574.94
540.78	41696.64
540.95	41598.34
541.12	41413.44
541.29	41830.05
541.46	41958.78
541.62	42295.82
541.79	41911.97
541.96	41883.89
542.13	42017.30
542.30	42291.14
542.47	42286.46
542.63	42143.69
542.80	42092.19
542.97	42740.52
543.14	42817.76
543.31	42920.74
543.48	43217.99
543.64	42913.72
543.81	43442.68
543.98	42988.62
544.15	42866.91
544.32	43126.71
544.48	43147.78
544.65	43138.41
544.82	43140.75
544.99	43126.71
545.16	43143.09
545.32	43070.54
545.49	43613.54
545.66	43545.67
545.83	43482.47
546.00	43515.24
546.16	43243.74
546.33	43854.62
546.50	43007.34
546.67	43384.17
546.83	43220.33
547.00	43601.84
547.17	43386.51
547.34	43395.87
547.50	43725.89
547.67	43746.95
547.84	43714.19
548.00	44137.82
548.17	43882.70
548.34	43770.36
548.51	44231.44
548.67	43983.35
548.84	44018.46
549.01	44023.14
549.18	43866.32
549.34	43821.85
549.51	44247.83
549.68	44121.44
549.84	44362.51
550.01	44156.55
550.18	44280.60
550.34	44149.53
550.51	44294.64
550.68	44032.50
550.84	44072.29
551.01	44348.47
551.18	44149.53
551.34	44580.18
551.51	44222.08
551.68	44516.99
551.84	44505.29
552.01	44308.68
552.18	44638.70
552.34	44264.21
552.51	44226.76
552.68	44577.84
552.84	44802.53
553.01	44996.80
553.18	44788.49
553.34	44645.72
553.51	44285.28
553.67	44699.55
553.84	45240.21
554.01	44957.01
554.17	45123.19
554.34	45237.87
554.51	45226.17
554.67	45450.86
554.84	45308.09
555.00	45177.02
555.17	44900.84
555.33	44870.41
555.50	44531.03
555.67	45099.78
555.83	45132.55
556.00	44619.97
556.16	45240.21
556.33	45111.49
556.50	44942.97
556.66	45134.89
556.83	44935.95
556.99	44975.73
557.16	45184.04
557.32	45471.93
557.49	45514.06
557.65	45064.67
557.82	45361.92
557.98	45228.51
558.15	45162.98
558.32	45216.81
558.48	44924.24
558.65	45244.90
558.81	45050.63
558.98	44999.14
559.14	45223.83
559.31	45633.42
559.47	45350.22
559.64	45397.03
559.80	45172.34
559.97	45890.88
560.13	45354.90
560.30	45422.78
560.46	45394.69
560.63	45485.97
560.79	45663.85
560.96	45603.00
561.12	45549.17
561.29	45832.37
561.45	45221.49
561.61	45698.96
561.78	45769.18
561.94	45177.02
562.11	45801.94
562.27	45467.25
562.44	45481.29
562.60	45993.87
562.77	46036.00
562.93	45567.89
563.10	46146.00
563.26	45537.46
563.42	45968.12
563.59	45549.17
563.75	45853.44
563.92	45904.93
564.08	45696.62
564.24	45989.19
564.41	46176.43
564.57	45579.59
564.74	46043.02
564.90	46232.60
565.07	45764.49
565.23	46007.91
565.39	45656.83
565.56	46169.41
565.72	45268.30
565.88	45631.08
566.05	45537.46
566.21	46059.40
566.38	45701.30
566.54	45773.86
566.70	45736.41
566.87	46429.21
567.03	46096.85
567.19	46265.37
567.36	46024.29
567.52	45942.38
567.68	46106.21
567.85	45904.93
568.01	45918.97
568.17	45717.68
568.34	46298.14
568.50	45855.78
568.66	45792.58
568.83	46073.45
568.99	45837.05
569.15	46096.85
569.32	45923.65
569.48	45680.24
569.64	45984.51
569.81	46295.80
569.97	46220.90
570.13	45813.65
570.30	45965.78
570.46	46087.49
570.62	45830.03
570.78	46026.63
570.95	46103.87
571.11	46136.64
571.27	45710.66
571.43	46206.86
571.60	46216.22
571.76	46445.59
571.92	46291.12
572.09	46195.15
572.25	45982.16
572.41	45769.18
572.57	46440.91
572.74	46328.56
572.90	46293.46
573.06	46113.23
573.22	45673.21
573.38	46099.19
573.55	45963.44
573.71	46209.20
573.87	46253.67
574.03	45862.80
574.20	46323.88
574.36	46192.81
574.52	46120.26
574.68	46164.73
574.84	46337.93
575.01	45741.09
575.17	45937.69
575.33	46003.23
575.49	46312.18
575.65	46567.30
575.82	46590.70
575.98	46110.89
576.14	46408.14
576.30	46185.79
576.46	46337.93
576.62	46246.65
576.79	45682.58
576.95	46232.60
577.11	46115.58
577.27	46326.22
577.43	46436.23
577.59	46354.31
577.75	46309.84
577.92	46148.34
578.08	46089.83
578.24	46160.05
578.40	45743.43
578.56	45713.00
578.72	46759.22
578.88	46431.55
579.04	46096.85
579.21	46162.39
579.37	46354.31
579.53	46319.20
579.69	46256.01
579.85	46316.86
580.01	46267.71
580.17	46073.45
580.33	46431.55
580.49	46398.78
580.65	46464.32
580.82	46337.93
580.98	46068.76
581.14	46251.33
581.30	46632.83
581.46	46763.90
581.62	46246.65
581.78	46438.57
581.94	46684.33
582.10	46534.53
582.26	46129.62
582.42	46445.59
582.58	46597.73
582.74	46550.91
582.90	46515.81
583.06	46459.63
583.22	46373.03
583.38	46719.43
583.54	46628.15
583.70	46557.94
583.86	46438.57
584.02	45914.29
584.18	46541.55
584.34	46604.75
584.50	46373.03
584.66	46045.36
584.82	46263.03
584.98	46176.43
585.14	46838.80
585.30	46391.76
585.46	46637.51
585.62	46146.00
585.78	46340.27
585.94	46204.52
586.10	46494.74
586.26	46204.52
586.42	46623.47
586.58	46614.11
586.74	46471.34
586.90	46291.12
587.06	46307.50
587.22	46520.49
587.38	46227.92
587.54	46625.81
587.70	46415.16
587.86	46092.17
588.02	46817.74
588.18	46571.98
588.34	46241.96
588.49	45858.12
588.65	45736.41
588.81	45687.26
588.97	46532.19
589.13	45921.31
589.29	46246.65
589.45	46080.47
589.61	46148.34
589.77	46199.83
589.93	46394.10
