SpectraSuite Data File
++++++++++++++++++++++++++++++++++++
Date: Fri Oct 25 11:25:16 EDT 2013
User: price-jones
Dark Spectrum Present: No
Reference Spectrum Present: No
Number of Sampled Component Spectra: 1
Spectrometers: USB2+H05261
Integration Time (usec): 100000 (USB2+H05261)
Spectra Averaged: 1 (USB2+H05261)
Boxcar Smoothing: 0 (USB2+H05261)
Correct for Electrical Dark: No (USB2+H05261)
Strobe/Lamp Enabled: No (USB2+H05261)
Correct for Detector Non-linearity: No (USB2+H05261)
Correct for Stray Light: No (USB2+H05261)
Number of Pixels in Processed Spectrum: 2048
>>>>>Begin Processed Spectral Data<<<<<
365.73	128.73
365.92	128.73
366.12	128.73
366.32	168.52
366.52	58.51
366.72	227.03
366.91	117.03
367.11	152.13
367.31	112.35
367.51	149.79
367.70	112.35
367.90	184.90
368.10	91.28
368.30	56.17
368.49	168.52
368.69	147.45
368.89	147.45
369.09	166.18
369.28	138.09
369.48	198.95
369.68	180.22
369.87	163.84
370.07	173.20
370.27	212.99
370.47	294.91
370.66	559.39
370.86	655.35
371.06	599.18
371.25	601.52
371.45	650.67
371.65	720.88
371.84	704.50
372.04	697.48
372.24	702.16
372.44	713.86
372.63	770.04
372.83	662.37
373.03	758.33
373.22	725.57
373.42	805.14
373.62	720.88
373.81	814.51
374.01	812.17
374.21	858.98
374.40	826.21
374.60	814.51
374.79	877.70
374.99	784.08
375.19	821.53
375.38	800.46
375.58	854.30
375.78	851.96
375.97	901.11
376.17	922.17
376.37	786.42
376.56	875.36
376.76	854.30
376.95	847.27
377.15	903.45
377.35	877.70
377.54	873.02
377.74	950.26
377.93	805.14
378.13	947.92
378.33	896.43
378.52	896.43
378.72	866.00
378.91	924.51
379.11	933.87
379.31	933.87
379.50	901.11
379.70	994.73
379.89	1057.92
380.09	978.34
380.28	973.66
380.48	992.39
380.68	945.58
380.87	980.68
381.07	954.94
381.26	964.30
381.46	957.28
381.65	1022.81
381.85	999.41
382.04	1036.86
382.24	1062.60
382.43	1025.15
382.63	1018.13
382.83	1116.44
383.02	1111.75
383.22	1107.07
383.41	1074.31
383.61	1067.28
383.80	1107.07
384.00	1111.75
384.19	1055.58
384.39	1139.84
384.58	1128.14
384.78	1088.35
384.97	1158.57
385.17	1184.31
385.36	1109.41
385.56	1125.80
385.75	1121.12
385.95	1170.27
386.14	1121.12
386.34	1109.41
386.53	1158.57
386.72	1139.84
386.92	1179.63
387.11	1191.33
387.31	1228.78
387.50	1198.35
387.70	1196.01
387.89	1291.98
388.09	1313.04
388.28	1240.48
388.48	1317.72
388.67	1315.38
388.86	1345.81
389.06	1277.93
389.25	1348.15
389.45	1343.47
389.64	1322.40
389.84	1416.02
390.03	1399.64
390.22	1411.34
390.42	1409.00
390.61	1439.43
390.81	1378.58
391.00	1329.42
391.19	1336.45
391.39	1343.47
391.58	1418.36
391.78	1430.07
391.97	1406.66
392.16	1474.54
392.36	1469.86
392.55	1490.92
392.75	1483.90
392.94	1479.22
393.13	1488.58
393.33	1497.94
393.52	1509.65
393.71	1657.10
393.91	1533.05
394.10	1547.09
394.29	1556.46
394.49	1596.25
394.68	1701.57
394.88	1551.78
395.07	1614.97
395.26	1647.74
395.46	1701.57
395.65	1666.46
395.84	1778.81
396.04	1795.19
396.23	1769.44
396.42	1739.02
396.62	1792.85
396.81	1842.00
397.00	1762.42
397.19	1827.96
397.39	1713.27
397.58	1717.95
397.77	1879.45
397.97	1886.47
398.16	1785.83
398.35	1940.30
398.55	1785.83
398.74	1984.77
398.93	1923.92
399.12	1928.60
399.32	1865.41
399.51	1879.45
399.70	2017.54
399.90	1830.30
400.09	2040.95
400.28	2008.18
400.47	2003.50
400.67	2052.65
400.86	2008.18
401.05	2090.10
401.24	2125.21
401.44	2157.97
401.63	2054.99
401.82	2162.66
402.01	2186.06
402.21	2160.31
402.40	2223.51
402.59	2165.00
402.78	2249.25
402.97	2284.36
403.17	2289.04
403.36	2340.54
403.55	2244.57
403.74	2342.88
403.93	2300.75
404.13	2249.25
404.32	2399.05
404.51	2284.36
404.70	2434.16
404.89	2289.04
405.09	2492.67
405.28	2516.08
405.47	2450.54
405.66	2539.48
405.85	2541.82
406.05	2597.99
406.24	2553.52
406.43	2523.10
406.62	2736.09
406.81	2658.85
407.00	2562.89
407.20	2546.50
407.39	2668.21
407.58	2675.23
407.77	2670.55
407.96	2696.30
408.15	2700.98
408.34	2738.43
408.54	2752.47
408.73	2731.41
408.92	2799.28
409.11	2801.62
409.30	2850.77
409.49	2932.69
409.68	3014.61
409.87	2904.60
410.07	2913.97
410.26	2977.16
410.45	2974.82
410.64	2951.42
410.83	3005.25
411.02	3047.38
411.21	3141.00
411.40	3063.76
411.59	3206.53
411.78	3070.78
411.98	3211.22
412.17	3323.56
412.36	3272.07
412.55	3330.58
412.74	3318.88
412.93	3433.57
413.12	3363.35
413.31	3536.55
413.50	3609.11
413.69	3480.38
413.88	3501.44
414.07	3604.42
414.26	3545.91
414.45	3585.70
414.64	3681.66
414.83	3700.39
415.02	3714.43
415.22	3777.62
415.41	3833.80
415.60	3847.84
415.79	3859.54
415.98	4021.04
416.17	4018.70
416.36	3894.65
416.55	3796.35
416.74	4025.72
416.93	4004.66
417.12	4177.86
417.31	4203.60
417.50	4081.89
417.69	4091.26
417.88	4212.96
418.07	4166.15
418.26	4280.84
418.45	4362.76
418.64	4397.87
418.83	4435.32
419.02	4444.68
419.21	4447.02
419.39	4594.47
419.58	4416.59
419.77	4449.36
419.96	4575.75
420.15	4608.51
420.34	4535.96
420.53	4578.09
420.72	4613.20
420.91	4643.62
421.10	4795.76
421.29	4833.21
421.48	4706.82
421.67	4751.29
421.86	4800.44
422.05	4702.14
422.24	4812.14
422.43	4690.43
422.61	5046.20
422.80	4772.35
422.99	4835.55
423.18	4945.55
423.37	4926.83
423.56	5008.75
423.75	4802.78
423.94	4692.77
424.13	4669.37
424.32	4877.68
424.50	4978.32
424.69	5064.92
424.88	4997.04
425.07	4910.44
425.26	4947.89
425.45	4987.68
425.64	4945.55
425.83	4880.02
426.01	5137.48
426.20	5006.41
426.39	5034.49
426.58	4971.30
426.77	5029.81
426.96	5008.75
427.15	5142.16
427.33	5261.52
427.52	5078.96
427.71	5149.18
427.90	5247.48
428.09	5165.56
428.28	5336.42
428.46	5224.08
428.65	5247.48
428.84	5413.66
429.03	5399.62
429.22	5425.36
429.40	5493.24
429.59	5570.48
429.78	5336.42
429.97	5203.01
430.16	5397.28
430.34	5659.42
430.53	5631.33
430.72	5556.43
430.91	5521.32
431.10	5507.28
431.28	5696.86
431.47	5675.80
431.66	5867.72
431.85	5671.12
432.03	5827.93
432.22	5923.90
432.41	5987.09
432.60	6010.50
432.79	5998.79
432.97	6078.37
433.16	5865.38
433.35	5951.98
433.54	6099.44
433.72	6064.33
433.91	6076.03
434.10	5998.79
434.28	6001.13
434.47	6139.23
434.66	6155.61
434.85	6190.72
435.03	6359.24
435.22	6146.25
435.41	6396.68
435.59	6420.09
435.78	6389.66
435.97	6347.53
436.16	6235.19
436.34	6464.56
436.53	6375.62
436.72	6523.07
436.90	6230.51
437.09	6747.76
437.28	6401.37
437.46	6595.63
437.65	6560.52
437.84	6829.68
438.02	6668.19
438.21	6595.63
438.40	6710.32
438.58	6874.15
438.77	6848.41
438.96	6953.73
439.14	7007.56
439.33	7267.36
439.52	7122.25
439.70	7218.21
439.89	7253.32
440.08	7274.38
440.26	7386.73
440.45	7122.25
440.63	7379.71
440.82	7527.16
441.01	7461.63
441.19	7531.84
441.38	7609.08
441.57	7782.28
441.75	7747.17
441.94	7875.90
442.12	7882.92
442.31	7796.32
442.50	7796.32
442.68	8013.99
442.87	7922.71
443.05	8180.17
443.24	8229.32
443.43	7866.54
443.61	7833.77
443.80	8367.42
443.98	7997.61
444.17	7829.09
444.35	8053.78
444.54	8390.82
444.73	8170.81
444.91	8177.83
445.10	8287.84
445.28	8355.71
445.47	8255.07
445.65	8177.83
445.84	8304.22
446.02	8528.91
446.21	8212.94
446.39	8255.07
446.58	8367.42
446.77	8346.35
446.95	8131.02
447.14	8369.76
447.32	8596.79
447.51	8468.06
447.69	8348.69
447.88	8336.99
448.06	8416.57
448.25	8571.04
448.43	8524.23
448.62	8470.40
448.80	8531.25
448.99	8545.30
449.17	8615.51
449.36	8592.11
449.54	8931.48
449.73	8842.54
449.91	8805.10
450.10	8926.80
450.28	9090.64
450.46	9018.08
450.65	8994.68
450.83	9076.60
451.02	9006.38
451.20	9200.65
451.39	9092.98
451.57	9294.27
451.76	9060.21
451.94	8987.66
452.13	9284.91
452.31	9336.40
452.49	9123.41
452.68	9097.66
452.86	9303.63
453.05	9322.35
453.23	9256.82
453.42	9294.27
453.60	9348.10
453.78	9500.23
453.97	9308.31
454.15	9345.76
454.34	9343.42
454.52	9640.67
454.70	9699.18
454.89	9750.67
455.07	9806.84
455.26	9390.23
455.44	9785.78
455.62	9839.61
455.81	9640.67
455.99	10064.30
456.17	10085.37
456.36	9797.48
456.54	9977.70
456.73	10319.42
456.91	10490.28
457.09	10183.67
457.28	10640.08
457.46	10356.87
457.64	10307.72
457.83	10352.19
458.01	10593.26
458.19	10520.71
458.38	10319.42
458.56	10431.77
458.74	10567.52
458.93	10750.08
459.11	10558.16
459.29	10600.29
459.48	10719.65
459.66	10654.12
459.84	10806.25
460.03	10815.62
460.21	10970.09
460.39	10792.21
460.57	10876.47
460.76	11019.24
460.94	11073.07
461.12	10944.34
461.31	10902.22
461.49	11052.01
461.67	11026.26
461.85	11337.56
462.04	11033.29
462.22	11840.77
462.40	11702.68
462.59	11290.74
462.77	11426.50
462.95	11562.25
463.13	11342.24
463.32	11538.84
463.50	11641.82
463.68	11606.72
463.86	11520.12
464.05	11602.04
464.23	11744.81
464.41	11728.42
464.59	11714.38
464.78	12131.00
464.96	11878.22
465.14	11803.32
465.32	12011.63
465.50	11817.36
465.69	11969.50
465.87	12168.45
466.05	12004.61
466.23	12086.53
466.41	12123.98
466.60	12542.93
466.78	12093.55
466.96	11941.41
467.14	12133.34
467.32	12231.64
467.51	12409.52
467.69	12217.60
467.87	12322.92
468.05	12617.83
468.23	12339.30
468.41	12594.42
468.60	12369.73
468.78	12627.19
468.96	12514.84
469.14	12531.23
469.32	12798.05
469.50	12531.23
469.69	12589.74
469.87	13029.76
470.05	12734.85
470.23	12919.76
470.41	13050.83
470.59	13081.25
470.77	13200.62
470.95	13020.40
471.14	13378.50
471.32	13249.77
471.50	13352.76
471.68	13535.32
471.86	13394.89
472.04	13626.60
472.22	14127.47
472.40	13645.32
472.58	13848.95
472.77	13928.53
472.95	14101.73
473.13	14410.68
473.31	14012.79
473.49	14104.07
473.67	13928.53
473.85	14085.34
474.03	14389.61
474.21	14508.98
474.39	14766.44
474.57	14569.83
474.75	14752.40
474.93	15044.96
475.12	14909.21
475.30	14944.32
475.48	14609.62
475.66	15293.06
475.84	15047.30
476.02	15295.40
476.20	15311.78
476.38	15660.52
476.56	15859.47
476.74	15920.32
476.92	15742.44
477.10	15644.14
477.28	15882.88
477.46	15768.19
477.64	16299.49
477.82	16280.77
478.00	16669.30
478.18	16526.52
478.36	16610.78
478.54	16994.63
478.72	17146.76
478.90	17071.87
479.08	17362.09
479.26	17401.88
479.44	17537.63
479.62	17720.20
479.80	17853.61
479.98	18038.51
480.16	18618.96
480.34	18216.39
480.52	18338.10
480.70	18195.32
480.88	17996.38
481.06	18663.43
481.24	18909.19
481.41	18813.23
481.59	19190.05
481.77	19311.76
481.95	19417.08
482.13	19379.64
482.31	19932.00
482.49	20222.23
482.67	19946.05
482.85	20732.47
483.03	20505.43
483.21	20517.14
483.39	20952.48
483.57	20762.89
483.74	20908.01
483.92	21451.01
484.10	20903.32
484.28	21476.76
484.46	21493.14
484.64	22052.53
484.82	21675.70
485.00	22230.41
485.18	22604.89
485.35	22586.17
485.53	22705.54
485.71	23026.19
485.89	23494.30
486.07	23030.87
486.25	23381.95
486.43	23578.56
486.61	23761.12
486.78	24095.82
486.96	24154.33
487.14	24285.40
487.32	24584.99
487.50	24751.17
487.68	25017.99
487.85	24975.86
488.03	25661.63
488.21	25687.38
488.39	25926.11
488.57	25406.52
488.75	25626.53
488.92	26050.16
489.10	26558.06
489.28	26455.08
489.46	26852.97
489.64	26969.99
489.81	27363.20
489.99	27721.30
490.17	27510.66
490.35	27639.39
490.53	28009.19
490.70	28233.88
490.88	28229.20
491.06	28636.45
491.24	28486.66
491.41	28968.81
491.59	28776.89
491.77	29013.28
491.95	29654.59
492.13	29710.76
492.30	29865.24
492.48	29853.53
492.66	30024.39
492.84	30249.08
493.01	30775.70
493.19	30253.76
493.37	30602.50
493.54	30803.79
493.72	30756.98
493.90	31131.47
494.08	31538.72
494.25	31466.16
494.43	31938.95
494.61	32046.62
494.79	32238.54
494.96	32217.47
495.14	32144.92
495.32	33261.35
495.49	32807.29
495.67	33134.96
495.85	33378.38
496.02	33277.74
496.20	33560.94
496.38	33266.03
496.55	33640.52
496.73	34862.28
496.91	34251.40
497.09	34843.56
497.26	34883.34
497.44	34604.82
497.62	35023.78
497.79	35484.86
497.97	35386.56
498.14	35959.99
498.32	36245.54
498.50	35732.96
498.67	36531.08
498.85	36144.89
499.03	36172.98
499.20	36510.02
499.38	36383.63
499.56	36662.15
499.73	36849.39
499.91	36989.83
500.08	37137.28
500.26	37006.21
500.44	37270.69
500.61	37706.03
500.79	36938.33
500.97	38005.62
501.14	38050.09
501.32	38000.94
501.49	38455.00
501.67	38153.07
501.84	38625.86
502.02	38806.08
502.20	38621.18
502.37	38909.07
502.55	38742.89
502.72	39786.77
502.90	39526.97
503.07	39321.00
503.25	39321.00
503.43	39608.89
503.60	40086.36
503.78	39789.11
503.95	39714.21
504.13	39835.92
504.30	40437.44
504.48	39840.60
504.65	40594.25
504.83	40790.86
505.01	40641.06
505.18	41226.20
505.36	40945.33
505.53	40715.96
505.71	41305.77
505.88	41464.93
506.06	41549.19
506.23	41776.22
506.41	41383.01
506.58	41509.40
506.76	41968.15
506.93	42426.89
507.11	41516.42
507.28	42101.56
507.46	43002.66
507.63	42445.62
507.81	43103.31
507.98	42768.61
508.16	42934.79
508.33	43765.68
508.50	43283.53
508.68	43239.06
508.85	43452.05
509.03	43440.34
509.20	44065.27
509.38	43749.29
509.55	43997.39
509.73	43976.33
509.90	44074.63
510.08	44119.10
510.25	44428.05
510.42	44439.75
510.60	44554.44
510.77	44959.35
510.95	45160.64
511.12	45125.53
511.30	44624.65
511.47	45048.29
511.64	45338.52
511.82	45626.40
511.99	45703.64
512.17	45827.69
512.34	45715.34
512.51	46071.10
512.69	45965.78
512.86	46326.22
513.04	46499.42
513.21	46307.50
513.38	46700.71
513.56	46571.98
513.73	46248.99
513.90	46836.46
514.08	46492.40
514.25	46866.89
514.43	47126.69
514.60	47278.82
514.77	47175.84
514.95	47232.01
515.12	47096.26
515.29	47323.29
515.47	47842.89
515.64	47646.29
515.81	47430.96
515.99	47819.49
516.16	48004.39
516.33	48287.59
516.51	48411.64
516.68	48481.86
516.85	48240.78
517.03	48720.59
517.20	48905.49
517.37	48105.03
517.54	48781.45
517.72	48641.01
517.89	48619.95
518.06	48933.58
518.24	48900.81
518.41	49024.86
518.58	49177.00
518.75	49137.21
518.93	49132.53
519.10	49294.02
519.27	49385.30
519.45	49434.45
519.62	49647.44
519.79	49509.35
519.96	49900.22
520.14	50260.66
520.31	49830.01
520.48	50103.85
520.65	49977.46
520.83	50569.61
521.00	50541.53
521.17	50031.29
521.34	50363.65
521.52	50506.42
521.69	50314.50
521.86	50454.93
522.03	50962.82
522.20	50852.82
522.38	51199.22
522.55	50820.05
522.72	51011.98
522.89	50831.75
523.07	51536.26
523.24	51297.52
523.41	51484.76
523.58	51021.34
523.75	51821.80
523.92	51449.66
524.10	52097.98
524.27	51847.55
524.44	51906.06
524.61	51908.40
524.78	51760.95
524.96	51913.08
525.13	52163.52
525.30	52348.42
525.47	52032.45
525.64	52004.36
525.81	52275.87
525.98	52243.10
526.16	52374.17
526.33	52378.85
526.50	52779.08
526.67	52406.94
526.84	52844.62
527.01	52542.69
527.18	52664.39
527.36	52701.84
527.53	52659.71
527.70	53256.55
527.87	53095.05
528.04	52872.70
528.21	52996.75
528.38	53137.18
528.55	53279.96
528.72	53429.75
528.89	53148.88
529.07	53289.32
529.24	53272.93
529.41	53448.47
529.58	53539.75
529.75	53434.43
529.92	53570.18
530.09	53689.55
530.26	53710.61
530.43	53624.01
530.60	53354.85
530.77	53715.29
530.94	53900.20
531.11	53965.73
531.28	54124.89
531.46	54120.21
531.63	54007.86
531.80	54068.72
531.97	54248.94
532.14	54494.69
532.31	53982.12
532.48	54431.50
532.65	54307.45
532.82	54246.60
532.99	54712.36
533.16	54412.77
533.33	54796.62
533.50	54534.48
533.67	54550.87
533.84	54251.28
534.01	54583.63
534.18	54412.77
534.35	55068.12
534.52	54770.88
534.69	55014.29
534.86	55150.04
535.03	54871.52
535.20	54934.71
535.37	55056.42
535.54	55267.07
535.71	55093.87
535.88	55196.85
536.05	55213.24
536.22	55632.19
536.38	55473.04
536.55	55253.03
536.72	55412.18
536.89	55723.47
537.06	55309.20
537.23	55746.88
537.40	55194.51
537.57	55552.62
537.74	55639.22
537.91	55742.20
538.08	55686.03
538.25	55501.12
538.42	55529.21
538.59	55945.83
538.75	55817.10
538.92	55866.25
539.09	55819.44
539.26	55800.71
539.43	55789.01
539.60	56112.00
539.77	55948.17
539.94	56137.75
540.11	56083.92
540.28	56245.41
540.44	56299.25
540.61	56327.33
540.78	56051.15
540.95	56266.48
541.12	56261.80
541.29	56233.71
541.46	56189.24
541.62	56411.59
541.79	56240.73
541.96	56217.33
542.13	56313.29
542.30	56545.00
542.47	56584.79
542.63	56750.97
542.80	56615.22
542.97	56851.61
543.14	57015.45
543.31	57097.37
543.48	56900.76
543.64	57354.83
543.81	57160.56
543.98	56921.83
544.15	57165.24
544.32	57212.06
544.48	57387.60
544.65	57139.50
544.82	57172.27
544.99	57396.96
545.16	57256.53
545.32	57265.89
545.49	57497.60
545.66	57619.31
545.83	57476.54
546.00	57577.18
546.16	57207.37
546.33	57193.33
546.50	57137.16
546.67	57469.51
546.83	57078.64
547.00	57708.25
547.17	57558.45
547.34	57722.29
547.50	57836.98
547.67	58124.86
547.84	57808.89
548.00	58028.90
548.17	58040.60
548.34	57937.62
548.51	57785.49
548.67	58113.16
548.84	57792.51
549.01	57965.71
549.18	58005.50
549.34	57883.79
549.51	58003.16
549.68	58155.29
549.84	58192.74
550.01	58115.50
550.18	58059.33
550.34	58129.54
550.51	58342.53
550.68	58368.28
550.84	58014.86
551.01	58382.32
551.18	58211.46
551.34	58321.47
551.51	58370.62
551.68	58375.30
551.84	58286.36
552.01	58265.30
552.18	58494.67
552.34	58461.90
552.51	58710.00
552.68	58379.98
552.84	58326.15
553.01	58817.66
553.18	58801.28
553.34	58412.75
553.51	58597.65
553.67	58810.64
553.84	58803.62
554.01	58787.24
554.17	58901.92
554.34	58880.86
554.51	58780.21
554.67	58616.38
554.84	58766.17
555.00	58859.79
555.17	58808.30
555.33	58850.43
555.50	58787.24
555.67	58866.81
555.83	58880.86
556.00	58887.88
556.16	59128.95
556.33	59084.48
556.50	58944.05
556.66	59208.53
556.83	59110.23
556.99	59288.11
557.16	59337.26
557.32	59283.43
557.49	59341.94
557.65	59311.52
557.82	59360.67
557.98	59327.90
558.15	59327.90
558.32	59419.18
558.48	59196.83
558.65	59323.22
558.81	59121.93
558.98	59437.90
559.14	59435.56
559.31	59339.60
559.47	59552.59
559.64	59632.17
559.80	59662.60
559.97	59554.93
560.13	59477.69
560.30	59470.67
560.46	59465.99
560.63	59583.02
560.79	59641.53
560.96	59671.96
561.12	59634.51
561.29	59547.91
561.45	59674.30
561.61	59632.17
561.78	59686.00
561.94	59447.27
562.11	59648.55
562.27	59554.93
562.44	59927.08
562.60	59847.50
562.77	59767.92
562.93	59634.51
563.10	59786.64
563.26	59475.35
563.42	59913.03
563.59	59854.52
563.75	59735.15
563.92	59835.80
564.08	59704.73
564.24	60121.34
564.41	59962.18
564.57	60062.83
564.74	59901.33
564.90	59964.52
565.07	60009.00
565.23	59910.69
565.39	59934.10
565.56	60093.25
565.72	60076.87
565.88	59983.25
566.05	60058.15
566.21	60119.00
566.38	59957.50
566.54	60065.17
566.70	60233.69
566.87	60247.73
567.03	59906.01
567.19	60264.11
567.36	60140.07
567.52	60198.58
567.68	60381.14
567.85	60238.37
568.01	60397.52
568.17	60018.36
568.34	60303.90
568.50	60238.37
568.66	60229.01
568.83	60236.03
568.99	60420.93
569.15	60163.47
569.32	60182.19
569.48	60156.45
569.64	60444.33
569.81	60362.42
569.97	60126.02
570.13	60409.23
570.30	60151.77
570.46	60186.88
570.62	60381.14
570.78	60259.43
570.95	60491.15
571.11	60486.46
571.27	60273.48
571.43	60364.76
571.60	60479.44
571.76	60252.41
571.92	60425.61
572.09	60203.26
572.25	60453.70
572.41	60453.70
572.57	60439.65
572.74	60671.37
572.90	60250.07
573.06	60264.11
573.22	60509.87
573.38	60474.76
573.55	60629.24
573.71	60659.66
573.87	60430.29
574.03	60491.15
574.20	60477.10
574.36	60423.27
574.52	60638.60
574.68	60568.38
574.84	60764.99
575.01	60647.96
575.17	60392.84
575.33	60364.76
575.49	60467.74
575.65	60739.24
575.82	60706.47
575.98	60601.15
576.14	60638.60
576.30	60662.00
576.46	60575.40
576.62	60596.47
576.79	60544.98
576.95	60439.65
577.11	60636.26
577.27	60547.32
577.43	60797.76
577.59	60458.38
577.75	60596.47
577.92	60650.30
578.08	60561.36
578.24	60559.02
578.40	60615.19
578.56	60769.67
578.72	60846.91
578.88	60903.08
579.04	60860.95
579.21	60760.31
579.37	60643.28
579.53	60659.66
579.69	60481.78
579.85	60502.85
580.01	60601.15
580.17	60514.55
580.33	60828.18
580.49	60856.27
580.65	60832.86
580.82	60779.03
580.98	60708.82
581.14	60528.59
581.30	60776.69
581.46	60715.84
581.62	61008.40
581.78	60664.35
581.94	60832.86
582.10	60764.99
582.26	60882.02
582.42	60739.24
582.58	60870.31
582.74	60762.65
582.90	60797.76
583.06	60886.70
583.22	60566.04
583.38	60882.02
583.54	60584.77
583.70	60662.00
583.86	60975.64
584.02	60673.71
584.18	60882.02
584.34	60914.78
584.50	60783.71
584.66	60678.39
584.82	60687.75
584.98	60811.80
585.14	60874.99
585.30	60818.82
585.46	60741.58
585.62	60676.05
585.78	61071.60
585.94	60685.41
586.10	60800.10
586.26	60917.12
586.42	60891.38
586.58	60919.46
586.74	60772.01
586.90	60931.17
587.06	60858.61
587.22	60989.68
587.38	60781.37
587.54	60891.38
587.70	61104.37
587.86	60977.98
588.02	60914.78
588.18	61015.43
588.34	60704.13
588.49	60963.93
