SpectraSuite Data File
++++++++++++++++++++++++++++++++++++
Date: Fri Oct 25 11:23:08 EDT 2013
User: price-jones
Dark Spectrum Present: No
Reference Spectrum Present: No
Number of Sampled Component Spectra: 1
Spectrometers: USB2+H05261
Integration Time (usec): 100000 (USB2+H05261)
Spectra Averaged: 1 (USB2+H05261)
Boxcar Smoothing: 0 (USB2+H05261)
Correct for Electrical Dark: No (USB2+H05261)
Strobe/Lamp Enabled: No (USB2+H05261)
Correct for Detector Non-linearity: No (USB2+H05261)
Correct for Stray Light: No (USB2+H05261)
Number of Pixels in Processed Spectrum: 2048
>>>>>Begin Processed Spectral Data<<<<<
365.73	220.01
365.92	220.01
366.12	220.01
366.32	184.90
366.52	177.88
366.72	91.28
366.91	135.75
367.11	147.45
367.31	84.26
367.51	95.96
367.70	114.69
367.90	114.69
368.10	163.84
368.30	138.09
368.49	131.07
368.69	152.13
368.89	147.45
369.09	128.73
369.28	154.48
369.48	159.16
369.68	180.22
369.87	154.48
370.07	170.86
370.27	236.39
370.47	346.40
370.66	561.73
370.86	648.33
371.06	664.71
371.25	685.78
371.45	660.03
371.65	688.12
371.84	660.03
372.04	723.23
372.24	765.36
372.44	730.25
372.63	702.16
372.83	706.84
373.03	643.65
373.22	753.65
373.42	767.70
373.62	807.48
373.81	795.78
374.01	889.40
374.21	819.19
374.40	828.55
374.60	819.19
374.79	891.74
374.99	816.85
375.19	847.27
375.38	849.61
375.58	842.59
375.78	896.43
375.97	842.59
376.17	917.49
376.37	851.96
376.56	877.70
376.76	854.30
376.95	891.74
377.15	854.30
377.35	873.02
377.54	929.19
377.74	889.40
377.93	819.19
378.13	894.08
378.33	884.72
378.52	922.17
378.72	910.47
378.91	910.47
379.11	954.94
379.31	922.17
379.50	940.90
379.70	971.32
379.89	1015.79
380.09	940.90
380.28	994.73
380.48	898.77
380.68	973.66
380.87	997.07
381.07	997.07
381.26	1071.97
381.46	1001.75
381.65	990.05
381.85	1064.94
382.04	1095.37
382.24	1011.11
382.43	1050.90
382.63	997.07
382.83	1039.20
383.02	1142.18
383.22	1041.54
383.41	1111.75
383.61	1032.18
383.80	1186.65
384.00	1067.28
384.19	1139.84
384.39	1097.71
384.58	1057.92
384.78	1121.12
384.97	1217.08
385.17	1137.50
385.36	1128.14
385.56	1212.40
385.75	1188.99
385.95	1153.88
386.14	1273.25
386.34	1231.12
386.53	1207.72
386.72	1273.25
386.92	1144.52
387.11	1324.74
387.31	1348.15
387.50	1231.12
387.70	1249.85
387.89	1371.55
388.09	1366.87
388.28	1261.55
388.48	1233.46
388.67	1310.70
388.86	1327.08
389.06	1303.68
389.25	1214.74
389.45	1378.58
389.64	1336.45
389.84	1401.98
390.03	1322.40
390.22	1425.39
390.42	1406.66
390.61	1343.47
390.81	1399.64
391.00	1364.53
391.19	1446.45
391.39	1418.36
391.58	1439.43
391.78	1479.22
391.97	1455.81
392.16	1448.79
392.36	1521.35
392.55	1612.63
392.75	1561.14
392.94	1533.05
393.13	1516.67
393.33	1502.62
393.52	1493.26
393.71	1570.50
393.91	1647.74
394.10	1575.18
394.29	1664.12
394.49	1652.42
394.68	1617.31
394.88	1551.78
395.07	1650.08
395.26	1694.55
395.46	1722.63
395.65	1673.48
395.84	1717.95
396.04	1802.21
396.23	1755.40
396.42	1753.06
396.62	1764.76
396.81	1816.26
397.00	1757.74
397.19	1746.04
397.39	1879.45
397.58	1839.66
397.77	1799.87
397.97	1895.83
398.16	1895.83
398.35	1863.07
398.55	1877.11
398.74	1820.94
398.93	2052.65
399.12	1888.81
399.32	1893.49
399.51	1977.75
399.70	1956.69
399.90	1998.82
400.09	2083.08
400.28	2057.33
400.47	1968.39
400.67	2141.59
400.86	2026.90
401.05	2094.78
401.24	2069.03
401.44	2040.95
401.63	2118.18
401.82	2279.68
402.01	2092.44
402.21	2216.49
402.40	2235.21
402.59	2193.08
402.78	2221.17
402.97	2251.60
403.17	2270.32
403.36	2200.10
403.55	2253.94
403.74	2253.94
403.93	2392.03
404.13	2396.71
404.32	2455.22
404.51	2480.97
404.70	2588.63
404.89	2394.37
405.09	2490.33
405.28	2555.86
405.47	2579.27
405.66	2466.92
405.85	2534.80
406.05	2588.63
406.24	2693.96
406.43	2574.59
406.62	2630.76
406.81	2768.85
407.00	2588.63
407.20	2691.62
407.39	2715.02
407.58	2696.30
407.77	2794.60
407.96	2850.77
408.15	2815.66
408.34	2689.28
408.54	2806.30
408.73	2778.22
408.92	2801.62
409.11	2864.82
409.30	2942.05
409.49	2803.96
409.68	3038.02
409.87	2993.55
410.07	3070.78
410.26	3066.10
410.45	2995.89
410.64	3052.06
410.83	3178.45
411.02	3187.81
411.21	3218.24
411.40	3178.45
411.59	3276.75
411.78	3330.58
411.98	3342.28
412.17	3368.03
412.36	3339.94
412.55	3396.12
412.74	3391.44
412.93	3335.26
413.12	3454.63
413.31	3599.74
413.50	3510.80
413.69	3578.68
413.88	3712.09
414.07	3695.71
414.26	3716.77
414.45	3585.70
414.64	3695.71
414.83	3723.79
415.02	3779.97
415.22	3880.61
415.41	3936.78
415.60	3857.20
415.79	3939.12
415.98	3967.21
416.17	4180.20
416.36	4102.96
416.55	3946.14
416.74	4086.58
416.93	4140.41
417.12	4070.19
417.31	4259.78
417.50	4196.58
417.69	4306.59
417.88	4194.24
418.07	4358.08
418.26	4447.02
418.45	4449.36
418.64	4472.76
418.83	4500.85
419.02	4484.47
419.21	4648.30
419.39	4624.90
419.58	4507.87
419.77	4430.63
419.96	4585.11
420.15	4596.81
420.34	4758.31
420.53	4531.28
420.72	4777.03
420.91	4837.89
421.10	4723.20
421.29	4917.47
421.48	4805.12
421.67	4739.58
421.86	4861.29
422.05	4788.74
422.24	4957.25
422.43	4856.61
422.61	4908.10
422.80	4966.62
422.99	5060.24
423.18	5053.22
423.37	4985.34
423.56	5004.07
423.75	5008.75
423.94	4891.72
424.13	4690.43
424.32	4812.14
424.50	5015.77
424.69	5247.48
424.88	5118.75
425.07	5078.96
425.26	4917.47
425.45	4940.87
425.64	5097.69
425.83	5088.32
426.01	4997.04
426.20	5083.64
426.39	5132.79
426.58	5174.92
426.77	5256.84
426.96	5226.42
427.15	5217.05
427.33	5179.61
427.52	5217.05
427.71	5605.58
427.90	5329.40
428.09	5371.53
428.28	5460.47
428.46	5378.55
428.65	5291.95
428.84	5568.13
429.03	5542.39
429.22	5240.46
429.40	5465.15
429.59	5460.47
429.78	5465.15
429.97	5373.87
430.16	5394.93
430.34	5659.42
430.53	5678.14
430.72	5607.92
430.91	5692.18
431.10	5561.11
431.28	5738.99
431.47	5692.18
431.66	5879.43
431.85	5849.00
432.03	5987.09
432.22	5996.45
432.41	5832.62
432.60	6164.97
432.79	6139.23
432.97	6005.81
433.16	6045.60
433.35	5994.11
433.54	5987.09
433.72	6136.88
433.91	6190.72
434.10	6375.62
434.28	6115.82
434.47	6354.55
434.66	6455.20
434.85	6307.74
435.03	6181.35
435.22	6312.42
435.41	6476.26
435.59	6455.20
435.78	6506.69
435.97	6553.50
436.16	6450.52
436.34	6546.48
436.53	6544.14
436.72	6583.93
436.90	6541.80
437.09	6604.99
437.28	6523.07
437.46	6696.27
437.65	6635.42
437.84	6855.43
438.02	6832.02
438.21	6773.51
438.40	6724.36
438.58	6970.12
438.77	7218.21
438.96	6881.18
439.14	7166.72
439.33	7173.74
439.52	7360.98
439.70	7166.72
439.89	7398.43
440.08	7613.76
440.26	7346.94
440.45	7447.58
440.63	7499.08
440.82	7634.83
441.01	7604.40
441.19	7733.13
441.38	7815.05
441.57	7840.79
441.75	7829.09
441.94	7791.64
442.12	8084.21
442.31	8044.42
442.50	8189.53
442.68	8149.75
442.87	8154.43
443.05	8189.53
443.24	8229.32
443.43	8166.13
443.61	8091.23
443.80	8465.72
443.98	8217.62
444.17	8145.06
444.35	8166.13
444.54	8456.36
444.73	8435.29
444.91	8332.31
445.10	8477.42
445.28	8336.99
445.47	8416.57
445.65	8381.46
445.84	8554.66
446.02	8358.05
446.21	8180.17
446.39	8374.44
446.58	8547.64
446.77	8575.72
446.95	8393.16
447.14	8648.28
447.32	8500.83
447.51	8477.42
447.69	8456.36
447.88	8409.54
448.06	8554.66
448.25	8542.96
448.43	8615.51
448.62	8835.52
448.80	8688.07
448.99	8559.34
449.17	8648.28
449.36	8812.12
449.54	8898.72
449.73	9090.64
449.91	9224.05
450.10	8908.08
450.28	9085.96
450.46	9341.08
450.65	9158.52
450.83	9233.41
451.02	9083.62
451.20	9226.39
451.39	9476.83
451.57	9191.28
451.76	9172.56
451.94	9315.33
452.13	9376.19
452.31	9371.50
452.49	9247.46
452.68	9523.64
452.86	9174.90
453.05	9633.64
453.23	9572.79
453.42	9411.29
453.60	9371.50
453.78	9694.50
453.97	9596.20
454.15	9610.24
454.34	9533.00
454.52	9802.16
454.70	9961.32
454.89	9898.13
455.07	9944.94
455.26	10045.58
455.44	10031.54
455.62	9848.97
455.81	10061.96
455.99	10073.67
456.17	10349.85
456.36	10085.37
456.54	10202.40
456.73	10429.43
456.91	10637.73
457.09	10572.20
457.28	10626.03
457.46	10436.45
457.64	10504.32
457.83	10504.32
458.01	10675.18
458.19	10998.18
458.38	10487.94
458.56	10925.62
458.74	10782.85
458.93	10773.49
459.11	10897.53
459.29	10780.51
459.48	10906.90
459.66	10902.22
459.84	11019.24
460.03	11208.83
460.21	11232.23
460.39	11192.44
460.57	11016.90
460.76	11154.99
460.94	11246.27
461.12	11384.37
461.31	11360.96
461.49	11295.43
461.67	11274.36
461.85	11723.74
462.04	11517.78
462.22	11583.31
462.40	11693.32
462.59	11625.44
462.77	11587.99
462.95	11873.54
463.13	11871.20
463.32	11789.28
463.50	12004.61
463.68	11712.04
463.86	12058.44
464.05	12201.21
464.23	11854.81
464.41	12002.27
464.59	11941.41
464.78	12077.16
464.96	12325.26
465.14	11885.24
465.32	12198.87
465.50	12044.40
465.69	12205.89
465.87	12084.19
466.05	12416.54
466.23	12311.22
466.41	12449.31
466.60	12561.66
466.78	12421.22
466.96	12491.44
467.14	12475.06
467.32	12456.33
467.51	12753.58
467.69	12383.77
467.87	12578.04
468.05	12727.83
468.23	12737.20
468.41	12512.50
468.60	12741.88
468.78	12697.41
468.96	12479.74
469.14	12769.96
469.32	13174.88
469.50	12573.36
469.69	13039.12
469.87	13144.45
470.05	13170.19
470.23	13441.70
470.41	13537.66
470.59	13554.04
470.77	13350.42
470.95	13640.64
471.14	13816.18
471.32	13221.69
471.50	13724.90
471.68	13556.38
471.86	13961.30
472.04	13577.45
472.22	14061.94
472.40	13926.19
472.58	14054.92
472.77	14190.67
472.95	14249.18
473.13	14817.93
473.31	14202.37
473.49	14600.26
473.67	14471.53
473.85	14389.61
474.03	14888.15
474.21	15047.30
474.39	14953.68
474.57	14909.21
474.75	14946.66
474.93	15199.44
475.12	14974.75
475.30	15470.94
475.48	15204.12
475.66	15286.04
475.84	15555.20
476.02	15501.37
476.20	15566.90
476.38	15517.75
476.56	16194.17
476.74	16121.61
476.92	16203.53
477.10	15772.87
477.28	16245.66
477.46	16308.85
477.64	16484.39
477.82	16603.76
478.00	16924.41
478.18	16596.74
478.36	17268.47
478.54	17057.82
478.72	17214.64
478.90	17764.67
479.08	17649.98
479.26	18015.10
479.44	17982.34
479.62	17935.53
479.80	18141.49
479.98	18195.32
480.16	18829.61
480.34	18595.56
480.52	18609.60
480.70	18693.86
480.88	18675.13
481.06	18827.27
481.24	18953.66
481.41	19367.93
481.59	19154.94
481.77	19960.09
481.95	19679.22
482.13	19625.39
482.31	19711.99
482.49	20353.30
482.67	20374.36
482.85	20886.94
483.03	20844.81
483.21	21074.18
483.39	21163.12
483.57	21163.12
483.74	21575.06
483.92	21612.51
484.10	21479.10
484.28	22080.61
484.46	22258.49
484.64	22705.54
484.82	22031.46
485.00	22717.24
485.18	23084.70
485.35	23381.95
485.53	23063.64
485.71	23332.80
485.89	23800.91
486.07	23433.44
486.25	23510.68
486.43	23524.72
486.61	23985.81
486.78	24336.89
486.96	24496.05
487.14	24664.57
487.32	24992.24
487.50	24842.45
487.68	25228.63
487.85	25385.45
488.03	25888.67
488.21	26258.47
488.39	26150.81
488.57	26267.83
488.75	26471.46
488.92	26621.25
489.10	27211.07
489.28	27159.58
489.46	27527.04
489.64	27295.33
489.81	28140.26
489.99	27901.53
490.17	28011.53
490.35	28222.18
490.53	28432.83
490.70	28648.16
490.88	28437.51
491.06	29457.98
491.24	29436.92
491.41	29483.73
491.59	29500.11
491.77	29717.78
491.95	30146.10
492.13	29823.11
492.30	30494.84
492.48	30061.84
492.66	30494.84
492.84	30597.82
493.01	31119.76
493.19	30986.35
493.37	31435.74
493.54	31517.65
493.72	31391.26
493.90	31428.71
494.08	32397.70
494.25	32411.74
494.43	32613.02
494.61	32690.26
494.79	32734.73
494.96	32716.01
495.14	33165.39
495.32	33612.43
495.49	33684.99
495.67	33436.89
495.85	34167.14
496.02	34298.21
496.20	34380.13
496.38	34515.88
496.55	34541.63
496.73	35182.93
496.91	35033.14
497.09	35309.32
497.26	35590.19
497.44	35110.38
497.62	35424.01
497.79	36259.58
497.97	36072.34
498.14	36271.28
498.32	36435.12
498.50	36762.79
498.67	36914.93
498.85	37188.77
499.03	37083.45
499.20	37097.49
499.38	36800.24
499.56	37446.23
499.73	37565.60
499.91	38082.86
500.08	38066.47
500.26	38202.22
500.44	38052.43
500.61	38389.47
500.79	38265.42
500.97	38583.73
501.14	38763.95
501.32	38953.54
501.49	38756.93
501.67	39075.24
501.84	39543.35
502.02	39213.34
502.20	39360.79
502.37	39697.83
502.55	39426.32
502.72	39805.49
502.90	40357.86
503.07	39789.11
503.25	39908.47
503.43	39861.66
503.60	40414.03
503.78	40657.45
503.95	40795.54
504.13	40933.63
504.30	41067.04
504.48	40868.09
504.65	41235.56
504.83	40942.99
505.01	41813.67
505.18	41516.42
505.36	42082.83
505.53	41443.87
505.71	42054.75
505.88	42075.81
506.06	41766.86
506.23	42438.59
506.41	42328.59
506.58	42520.51
506.76	42932.45
506.93	43194.59
507.11	43196.93
507.28	42857.55
507.46	43342.04
507.63	42899.68
507.81	44083.99
507.98	43557.37
508.16	43880.36
508.33	43882.70
508.50	44161.23
508.68	44177.61
508.85	44325.07
509.03	44053.56
509.20	44568.48
509.38	44842.32
509.55	44556.78
509.73	45289.37
509.90	45013.18
510.08	44949.99
510.25	45294.05
510.42	45134.89
510.60	45432.14
510.77	45818.33
510.95	45827.69
511.12	45610.02
511.30	46244.30
511.47	46227.92
511.64	45968.12
511.82	46188.13
511.99	46380.06
512.17	46773.27
512.34	46256.01
512.51	46452.61
512.69	46656.24
512.86	46714.75
513.04	47203.92
513.21	47096.26
513.38	47063.49
513.56	47318.61
513.73	46836.46
513.90	47304.57
514.08	47346.70
514.25	47519.90
514.43	47587.77
514.60	47805.44
514.77	47894.38
514.95	48062.90
515.12	48051.20
515.29	48158.86
515.47	48493.56
515.64	48720.59
515.81	48526.33
515.99	48748.68
516.16	48910.17
516.33	48839.96
516.51	49146.57
516.68	49001.46
516.85	49113.80
517.03	49340.83
517.20	49429.77
517.37	49233.17
517.54	49272.96
517.72	49488.29
517.89	49511.69
518.06	49460.20
518.24	49752.77
518.41	49696.59
518.58	50003.20
518.75	50028.95
518.93	49830.01
519.10	50197.47
519.27	49977.46
519.45	50244.28
519.62	50457.27
519.79	50274.71
519.96	50333.22
520.14	50501.74
520.31	50803.67
520.48	50885.59
520.65	50653.87
520.83	50967.51
521.00	50913.67
521.17	51072.83
521.34	51114.96
521.52	51316.25
521.69	51484.76
521.86	51447.32
522.03	51578.39
522.20	51688.39
522.38	51903.72
522.55	51756.27
522.72	51835.84
522.89	51634.56
523.07	52034.79
523.24	52055.85
523.41	51877.97
523.58	51906.06
523.75	51824.14
523.92	52135.43
524.10	52355.44
524.27	52409.28
524.44	52697.16
524.61	52411.62
524.78	52648.01
524.96	52690.14
525.13	52821.21
525.30	52800.15
525.47	52935.90
525.64	52903.13
525.81	52931.22
525.98	53183.99
526.16	52821.21
526.33	53439.11
526.50	53502.31
526.67	53092.71
526.84	53106.76
527.01	53109.10
527.18	53380.60
527.36	52914.83
527.53	53532.73
527.70	53818.28
527.87	53965.73
528.04	53191.01
528.21	53862.75
528.38	53797.21
528.55	53925.94
528.72	53841.68
528.89	53675.51
529.07	53876.79
529.24	53701.25
529.41	53982.12
529.58	53930.62
529.75	54138.93
529.92	54085.10
530.09	54246.60
530.26	54017.22
530.43	54370.64
530.60	54103.82
530.77	54094.46
530.94	54494.69
531.11	54349.58
531.28	54527.46
531.46	54272.34
531.63	54571.93
531.80	54419.80
531.97	54965.14
532.14	54593.00
532.31	54962.80
532.48	55025.99
532.65	54857.48
532.82	54836.41
532.99	55075.15
533.16	55140.68
533.33	55140.68
533.50	55161.75
533.67	55346.65
533.84	55089.19
534.01	55330.26
534.18	55264.73
534.35	55447.29
534.52	55351.33
534.69	55384.10
534.86	55674.32
535.03	55377.08
535.20	55730.50
535.37	55531.55
535.54	55704.75
535.71	55611.13
535.88	55730.50
536.05	55641.56
536.22	55842.84
536.38	55838.16
536.55	55824.12
536.72	56032.42
536.89	55660.28
537.06	56090.94
537.23	56273.50
537.40	55852.20
537.57	56058.17
537.74	56140.09
537.91	56313.29
538.08	56196.26
538.25	55980.93
538.42	56196.26
538.59	56573.09
538.75	56343.72
538.92	56360.10
539.09	56259.46
539.26	56479.47
539.43	56282.86
539.60	56456.06
539.77	56556.70
539.94	56699.48
540.11	56746.29
540.28	56757.99
540.44	56596.49
540.61	56982.68
540.78	56779.06
540.95	56577.77
541.12	56640.96
541.29	56776.72
541.46	56849.27
541.62	56947.57
541.79	56907.79
541.96	56830.55
542.13	57059.92
542.30	57179.29
542.47	57233.12
542.63	56882.04
542.80	57333.76
542.97	57352.49
543.14	57579.52
543.31	57481.22
543.48	57446.11
543.64	57836.98
543.81	57698.89
543.98	57659.10
544.15	57565.48
544.32	57820.59
544.48	57652.08
544.65	57602.92
544.82	57649.74
544.99	57403.98
545.16	57778.46
545.32	57766.76
545.49	58040.60
545.66	57893.15
545.83	57822.93
546.00	58052.31
546.16	58197.42
546.33	57769.10
546.50	57801.87
546.67	57968.05
546.83	57687.18
547.00	58080.39
547.17	57989.11
547.34	57904.85
547.50	58169.33
547.67	58272.32
547.84	58129.54
548.00	58567.23
548.17	58597.65
548.34	58234.87
548.51	58412.75
548.67	58595.31
548.84	58398.71
549.01	58408.07
549.18	58295.72
549.34	58597.65
549.51	58599.99
549.68	58478.28
549.84	58511.05
550.01	58532.12
550.18	58569.57
550.34	58763.83
550.51	58953.41
550.68	58817.66
550.84	58361.26
551.01	58810.64
551.18	58649.14
551.34	58836.39
551.51	58691.27
551.68	58780.21
551.84	58887.88
552.01	58679.57
552.18	59077.46
552.34	58642.12
552.51	59021.29
552.68	58607.01
552.84	58810.64
553.01	59267.05
553.18	59065.76
553.34	59327.90
553.51	58852.77
553.67	58953.41
553.84	59194.49
554.01	59091.51
554.17	59185.13
554.34	59206.19
554.51	59470.67
554.67	59274.07
554.84	59260.02
555.00	59330.24
555.17	59323.22
555.33	59332.58
555.50	59311.52
555.67	59344.28
555.83	59208.53
556.00	59414.50
556.16	59711.75
556.33	59522.16
556.50	59519.82
556.66	59721.11
556.83	59395.77
556.99	59465.99
557.16	59817.07
557.32	59992.61
557.49	59936.44
557.65	59704.73
557.82	59730.47
557.98	59580.68
558.15	59758.56
558.32	59597.06
558.48	59580.68
558.65	59842.82
558.81	59894.31
558.98	59749.20
559.14	59915.37
559.31	59803.03
559.47	59931.76
559.64	59945.80
559.80	59831.11
559.97	59938.78
560.13	59753.88
560.30	60032.40
560.46	59873.24
560.63	59894.31
560.79	59934.10
560.96	60116.66
561.12	60142.41
561.29	60006.65
561.45	60102.62
561.61	60093.25
561.78	60053.47
561.94	60193.90
562.11	59915.37
562.27	60053.47
562.44	60296.88
562.60	60390.50
562.77	60168.15
562.93	60016.02
563.10	60245.39
563.26	60172.83
563.42	60411.57
563.59	60257.09
563.75	60456.04
563.92	60474.76
564.08	60388.16
564.24	60439.65
564.41	60343.69
564.57	60411.57
564.74	60367.10
564.90	60460.72
565.07	60514.55
565.23	60610.51
565.39	60280.50
565.56	60514.55
565.72	60336.67
565.88	60432.63
566.05	60289.86
566.21	60474.76
566.38	60362.42
566.54	60505.19
566.70	60542.64
566.87	60566.04
567.03	60324.97
567.19	60872.65
567.36	60608.17
567.52	60542.64
567.68	60860.95
567.85	60425.61
568.01	60755.63
568.17	60647.96
568.34	60809.46
568.50	60594.13
568.66	60493.49
568.83	60685.41
568.99	60598.81
569.15	60622.22
569.32	60673.71
569.48	60566.04
569.64	60804.78
569.81	60617.53
569.97	60617.53
570.13	60654.98
570.30	60830.52
570.46	60776.69
570.62	60797.76
570.78	60823.50
570.95	60711.16
571.11	60694.77
571.27	60893.72
571.43	60898.40
571.60	60942.87
571.76	60779.03
571.92	60870.31
572.09	60725.20
572.25	60963.93
572.41	60772.01
572.57	60673.71
572.74	61118.41
572.90	60793.07
573.06	60835.20
573.22	60839.89
573.38	60893.72
573.55	60715.84
573.71	61116.07
573.87	60893.72
574.03	60683.07
574.20	61078.62
574.36	60767.33
574.52	60851.59
574.68	60926.49
574.84	61137.13
575.01	61141.81
575.17	60896.06
575.33	60963.93
575.49	60994.36
575.65	61010.74
575.82	61169.90
575.98	61024.79
576.14	61045.85
576.30	61233.10
576.46	61109.05
576.62	61109.05
576.79	61036.49
576.95	60853.93
577.11	61003.72
577.27	61073.94
577.43	61038.83
577.59	61055.21
577.75	61029.47
577.92	61024.79
578.08	61212.03
578.24	61134.79
578.40	61193.31
578.56	61155.86
578.72	60893.72
578.88	61186.28
579.04	61153.52
579.21	61125.43
579.37	61296.29
579.53	61080.96
579.69	61216.71
579.85	61052.87
580.01	61120.75
580.17	61052.87
580.33	61167.56
580.49	61179.26
580.65	61095.00
580.82	61183.94
580.98	61048.19
581.14	61181.60
581.30	61270.54
581.46	61071.60
581.62	61095.00
581.78	61244.80
581.94	61095.00
582.10	61130.11
582.26	61092.66
582.42	60996.70
582.58	61078.62
582.74	61137.13
582.90	61099.68
583.06	61242.46
583.22	60956.91
583.38	61151.18
583.54	61291.61
583.70	61331.40
583.86	61366.51
584.02	61095.00
584.18	61197.99
584.34	61429.70
584.50	61329.06
584.66	60980.32
584.82	61015.43
584.98	61350.12
585.14	61345.44
585.30	61120.75
585.46	61425.02
585.62	61354.80
585.78	61432.04
585.94	61003.72
586.10	61291.61
586.26	61422.68
586.42	61158.20
586.58	61207.35
586.74	61329.06
586.90	61322.04
587.06	61141.81
587.22	61476.51
587.38	61293.95
587.54	61474.17
587.70	61535.02
587.86	61289.27
588.02	61338.42
588.18	61418.00
588.34	61359.48
588.49	61375.87
