SpectraSuite Data File
++++++++++++++++++++++++++++++++++++
Date: Fri Oct 25 11:23:39 EDT 2013
User: price-jones
Dark Spectrum Present: No
Reference Spectrum Present: No
Number of Sampled Component Spectra: 1
Spectrometers: USB2+H05261
Integration Time (usec): 100000 (USB2+H05261)
Spectra Averaged: 1 (USB2+H05261)
Boxcar Smoothing: 0 (USB2+H05261)
Correct for Electrical Dark: No (USB2+H05261)
Strobe/Lamp Enabled: No (USB2+H05261)
Correct for Detector Non-linearity: No (USB2+H05261)
Correct for Stray Light: No (USB2+H05261)
Number of Pixels in Processed Spectrum: 2048
>>>>>Begin Processed Spectral Data<<<<<
365.73	264.48
365.92	264.48
366.12	264.48
366.32	170.86
366.52	114.69
366.72	210.65
366.91	88.94
367.11	74.90
367.31	117.03
367.51	74.90
367.70	145.11
367.90	133.41
368.10	119.37
368.30	191.92
368.49	152.13
368.69	177.88
368.89	107.66
369.09	117.03
369.28	140.43
369.48	170.86
369.68	227.03
369.87	208.31
370.07	180.22
370.27	184.90
370.47	269.16
370.66	634.29
370.86	578.11
371.06	718.54
371.25	758.33
371.45	627.26
371.65	685.78
371.84	718.54
372.04	662.37
372.24	676.41
372.44	741.95
372.63	676.41
372.83	791.10
373.03	788.76
373.22	760.67
373.42	805.14
373.62	849.61
373.81	772.38
374.01	807.48
374.21	809.83
374.40	809.83
374.60	854.30
374.79	877.70
374.99	816.85
375.19	837.91
375.38	844.93
375.58	844.93
375.78	844.93
375.97	828.55
376.17	922.17
376.37	809.83
376.56	849.61
376.76	896.43
376.95	896.43
377.15	910.47
377.35	933.87
377.54	882.38
377.74	875.36
377.93	835.57
378.13	905.79
378.33	912.81
378.52	894.08
378.72	901.11
378.91	908.13
379.11	971.32
379.31	947.92
379.50	1001.75
379.70	919.83
379.89	952.60
380.09	964.30
380.28	910.47
380.48	976.00
380.68	924.51
380.87	976.00
381.07	938.55
381.26	966.64
381.46	983.02
381.65	1008.77
381.85	1008.77
382.04	1057.92
382.24	966.64
382.43	1027.50
382.63	1090.69
382.83	1111.75
383.02	1130.48
383.22	1170.27
383.41	1074.31
383.61	1088.35
383.80	1109.41
384.00	1057.92
384.19	1144.52
384.39	1174.95
384.58	1090.69
384.78	1107.07
384.97	1151.54
385.17	1135.16
385.36	1149.20
385.56	1076.65
385.75	1165.59
385.95	1149.20
386.14	1177.29
386.34	1167.93
386.53	1256.87
386.72	1198.35
386.92	1266.23
387.11	1261.55
387.31	1242.82
387.50	1235.80
387.70	1266.23
387.89	1224.10
388.09	1329.42
388.28	1273.25
388.48	1294.32
388.67	1299.00
388.86	1296.66
389.06	1296.66
389.25	1448.79
389.45	1373.89
389.64	1273.25
389.84	1327.08
390.03	1336.45
390.22	1401.98
390.42	1277.93
390.61	1406.66
390.81	1423.05
391.00	1404.32
391.19	1437.09
391.39	1416.02
391.58	1462.83
391.78	1434.75
391.97	1437.09
392.16	1502.62
392.36	1472.20
392.55	1495.60
392.75	1537.73
392.94	1488.58
393.13	1404.32
393.33	1521.35
393.52	1460.49
393.71	1643.06
393.91	1554.12
394.10	1682.85
394.29	1504.96
394.49	1540.07
394.68	1603.27
394.88	1650.08
395.07	1746.04
395.26	1675.82
395.46	1671.14
395.65	1703.91
395.84	1706.25
396.04	1689.87
396.23	1760.08
396.42	1753.06
396.62	1687.53
396.81	1813.92
397.00	1715.61
397.19	1767.10
397.39	1732.00
397.58	1846.68
397.77	1837.32
397.97	1846.68
398.16	1905.20
398.35	1839.66
398.55	1921.58
398.74	1921.58
398.93	1961.37
399.12	1982.43
399.32	1860.73
399.51	1816.26
399.70	1970.73
399.90	1970.73
400.09	2003.50
400.28	2029.24
400.47	2073.71
400.67	1998.82
400.86	2066.69
401.05	2054.99
401.24	2094.78
401.44	2157.97
401.63	2232.87
401.82	2162.66
402.01	2134.57
402.21	2211.81
402.40	2167.34
402.59	2244.57
402.78	2207.13
402.97	2211.81
403.17	2303.09
403.36	2321.81
403.55	2237.55
403.74	2326.49
403.93	2324.15
404.13	2338.20
404.32	2375.64
404.51	2394.37
404.70	2478.63
404.89	2469.27
405.09	2476.29
405.28	2506.71
405.47	2502.03
405.66	2499.69
405.85	2623.74
406.05	2567.57
406.24	2637.78
406.43	2696.30
406.62	2586.29
406.81	2546.50
407.00	2548.84
407.20	2661.19
407.39	2597.99
407.58	2724.38
407.77	2764.17
407.96	2841.41
408.15	2764.17
408.34	2745.45
408.54	2724.38
408.73	2867.16
408.92	2885.88
409.11	2864.82
409.30	2904.60
409.49	2857.79
409.68	2878.86
409.87	2846.09
410.07	2984.18
410.26	2988.86
410.45	3101.21
410.64	3009.93
410.83	3091.85
411.02	3148.02
411.21	3152.70
411.40	3110.57
411.59	3190.15
411.78	3077.80
411.98	3276.75
412.17	3260.37
412.36	3269.73
412.55	3295.47
412.74	3478.04
412.93	3391.44
413.12	3272.07
413.31	3599.74
413.50	3562.30
413.69	3433.57
413.88	3515.48
414.07	3449.95
414.26	3695.71
414.45	3569.32
414.64	3660.60
414.83	3758.90
415.02	3782.31
415.22	3798.69
415.41	3791.67
415.60	3950.82
415.79	3875.93
415.98	3873.59
416.17	4124.02
416.36	3918.06
416.55	3939.12
416.74	4016.36
416.93	4002.32
417.12	4161.47
417.31	4109.98
417.50	4161.47
417.69	4344.03
417.88	4266.80
418.07	4292.54
418.26	4297.22
418.45	4287.86
418.64	4416.59
418.83	4458.72
419.02	4432.97
419.21	4524.26
419.39	4470.42
419.58	4540.64
419.77	4428.29
419.96	4430.63
420.15	4746.61
420.34	4589.79
420.53	4739.58
420.72	4683.41
420.91	4690.43
421.10	4636.60
421.29	4812.14
421.48	4620.22
421.67	4758.31
421.86	4690.43
422.05	4865.97
422.24	4849.59
422.43	4795.76
422.61	4994.70
422.80	4929.17
422.99	4950.23
423.18	4865.97
423.37	4992.36
423.56	4891.72
423.75	4999.38
423.94	4975.98
424.13	4723.20
424.32	4805.12
424.50	5041.51
424.69	5083.64
424.88	5055.56
425.07	4959.60
425.26	5022.79
425.45	4856.61
425.64	4910.44
425.83	5015.77
426.01	5025.13
426.20	4954.91
426.39	5116.41
426.58	5071.94
426.77	5008.75
426.96	4957.25
427.15	5043.85
427.33	5207.69
427.52	5270.89
427.71	5111.73
427.90	5125.77
428.09	5387.91
428.28	5518.98
428.46	5467.49
428.65	5249.82
428.84	5600.90
429.03	5441.75
429.22	5254.50
429.40	5397.28
429.59	5453.45
429.78	5345.78
429.97	5394.93
430.16	5544.73
430.34	5600.90
430.53	5621.97
430.72	5678.14
430.91	5755.38
431.10	5547.07
431.28	5963.68
431.47	5816.23
431.66	5837.30
431.85	5708.57
432.03	6001.13
432.22	6017.52
432.41	5753.04
432.60	5895.81
432.79	6036.24
432.97	5959.00
433.16	5923.90
433.35	5996.45
433.54	6113.48
433.72	6195.40
433.91	5973.05
434.10	6073.69
434.28	6108.80
434.47	6059.65
434.66	6239.87
434.85	6366.26
435.03	6359.24
435.22	6349.87
435.41	6511.37
435.59	6422.43
435.78	6527.75
435.97	6399.02
436.16	6410.73
436.34	6345.19
436.53	6420.09
436.72	6663.51
436.90	6333.49
437.09	6586.27
437.28	6471.58
437.46	6684.57
437.65	6743.08
437.84	6689.25
438.02	6817.98
438.21	6841.39
438.40	6766.49
438.58	6930.33
438.77	7030.97
438.96	6977.14
439.14	7171.40
439.33	7269.70
439.52	7262.68
439.70	7169.06
439.89	7468.65
440.08	7454.61
440.26	7520.14
440.45	7400.77
440.63	7581.00
440.82	7522.48
441.01	7538.87
441.19	7625.47
441.38	7508.44
441.57	7791.64
441.75	7775.26
441.94	7985.91
442.12	8021.02
442.31	8163.79
442.50	7894.63
442.68	7990.59
442.87	8002.29
443.05	8262.09
443.24	8229.32
443.43	8231.66
443.61	8322.94
443.80	8400.18
443.98	7889.95
444.17	7913.35
444.35	8182.51
444.54	8109.96
444.73	8437.63
444.91	8379.12
445.10	8255.07
445.28	8255.07
445.47	8067.83
445.65	8463.38
445.84	8545.30
446.02	8454.02
446.21	8439.97
446.39	8187.19
446.58	8372.10
446.77	8418.91
446.95	8496.14
447.14	8526.57
447.32	8793.39
447.51	8566.36
447.69	8355.71
447.88	8542.96
448.06	8585.08
448.25	8428.27
448.43	8617.85
448.62	8589.77
448.80	8610.83
448.99	8851.91
449.17	8526.57
449.36	8629.56
449.54	8957.23
449.73	8652.96
449.91	9025.11
450.10	9219.37
450.28	8849.57
450.46	9139.79
450.65	9046.17
450.83	9200.65
451.02	9142.13
451.20	9320.01
451.39	8973.61
451.57	9156.18
451.76	9020.42
451.94	9188.94
452.13	9434.70
452.31	9301.29
452.49	9088.30
452.68	9497.89
452.86	9287.25
453.05	9523.64
453.23	9563.43
453.42	9441.72
453.60	9242.78
453.78	9420.66
453.97	9486.19
454.15	9652.37
454.34	9408.95
454.52	9767.06
454.70	9748.33
454.89	9731.95
455.07	9582.15
455.26	9947.28
455.44	10017.49
455.62	9912.17
455.81	9909.83
455.99	10033.88
456.17	10333.47
456.36	10024.51
456.54	9893.44
456.73	10469.22
456.91	10345.17
457.09	10281.97
457.28	10595.61
457.46	10331.12
457.64	10616.67
457.83	10415.38
458.01	10541.77
458.19	10892.85
458.38	10637.73
458.56	10738.38
458.74	10607.31
458.93	10717.31
459.11	10806.25
459.29	10691.57
459.48	10846.04
459.66	10871.79
459.84	10782.85
460.03	11201.80
460.21	11070.73
460.39	10953.71
460.57	11049.67
460.76	10864.77
460.94	11215.85
461.12	11328.19
461.31	11232.23
461.49	11199.46
461.67	11213.51
461.85	11644.17
462.04	11281.38
462.22	11492.03
462.40	11859.49
462.59	11623.10
462.77	11515.44
462.95	11775.24
463.13	11742.47
463.32	11861.84
463.50	11613.74
463.68	11934.39
463.86	11765.87
464.05	11578.63
464.23	11672.25
464.41	11761.19
464.59	11800.98
464.78	12184.83
464.96	11887.58
465.14	11852.47
465.32	12229.30
465.50	12229.30
465.69	12348.67
465.87	12175.47
466.05	12210.57
466.23	12304.20
466.41	12257.39
466.60	12564.00
466.78	12051.42
466.96	12292.49
467.14	12264.41
467.32	12297.17
467.51	12585.06
467.69	12273.77
467.87	12538.25
468.05	12547.61
468.23	12528.89
468.41	12678.68
468.60	12652.94
468.78	12491.44
468.96	12800.39
469.14	12933.80
469.32	12858.90
469.50	12456.33
469.69	13020.40
469.87	13069.55
470.05	13205.30
470.23	13160.83
470.41	12758.26
470.59	13312.97
470.77	13357.44
470.95	13376.16
471.14	13605.53
471.32	13099.98
471.50	13483.83
471.68	13577.45
471.86	13699.16
472.04	13823.20
472.22	13970.66
472.40	13706.18
472.58	13685.11
472.77	13940.23
472.95	14071.30
473.13	14487.92
473.31	13977.68
473.49	14160.24
473.67	14387.27
473.85	14464.51
474.03	14487.92
474.21	14595.58
474.39	14836.66
474.57	14869.42
474.75	14904.53
474.93	15007.52
475.12	15077.73
475.30	15138.58
475.48	14913.89
475.66	15124.54
475.84	15253.27
476.02	15480.30
476.20	15545.84
476.38	15676.91
476.56	15990.54
476.74	15925.00
476.92	15901.60
477.10	15836.06
477.28	16460.99
477.46	16280.77
477.64	16278.43
477.82	16627.17
478.00	17312.94
478.18	16908.03
478.36	16842.50
478.54	17156.13
478.72	17280.18
478.90	17020.38
479.08	17729.56
479.26	17790.41
479.44	17930.84
479.62	17994.04
479.80	18026.81
479.98	18008.08
480.16	18548.75
480.34	18221.07
480.52	18628.32
480.70	18637.69
480.88	18398.95
481.06	18637.69
481.24	19154.94
481.41	19379.64
481.59	19454.53
481.77	19580.92
481.95	19449.85
482.13	19641.78
482.31	19735.40
482.49	20596.71
482.67	20453.94
482.85	20198.82
483.03	20631.82
483.21	20807.36
483.39	21144.40
483.57	20985.24
483.74	21514.20
483.92	21149.08
484.10	21207.59
484.28	21682.72
484.46	22335.73
484.64	22377.86
484.82	21916.78
485.00	22246.79
485.18	22618.94
485.35	23023.85
485.53	22972.36
485.71	23087.04
485.89	23779.84
486.07	23157.26
486.25	23173.64
486.43	23686.22
486.61	23894.53
486.78	24009.22
486.96	24060.71
487.14	24542.86
487.32	24826.06
487.50	24350.93
487.68	25315.23
487.85	25219.27
488.03	25663.97
488.21	25638.23
488.39	25951.86
488.57	26167.19
488.75	26305.28
488.92	26527.63
489.10	26565.08
489.28	27051.91
489.46	26995.74
489.64	27138.51
489.81	27587.89
489.99	27578.53
490.17	27438.10
490.35	28238.56
490.53	28315.80
490.70	28467.94
490.88	28308.78
491.06	28723.05
491.24	28807.31
491.41	28725.39
491.59	29156.05
491.77	29383.09
491.95	29685.01
492.13	29834.81
492.30	30279.51
492.48	30139.08
492.66	29944.81
492.84	30487.82
493.01	30799.11
493.19	30600.16
493.37	30948.90
493.54	31124.44
493.72	31519.99
493.90	31510.63
494.08	31913.20
494.25	31889.80
494.43	32257.26
494.61	32215.13
494.79	32762.82
494.96	32453.87
495.14	32865.80
495.32	33111.56
495.49	33226.24
495.67	33034.32
495.85	33692.01
496.02	33905.00
496.20	33825.42
496.38	34033.73
496.55	34024.37
496.73	35229.74
496.91	34836.53
497.09	34909.09
497.26	34822.49
497.44	35159.53
497.62	35304.64
497.79	35665.08
497.97	35505.93
498.14	36348.52
498.32	36444.48
498.50	36664.49
498.67	36385.97
498.85	36196.38
499.03	36858.76
499.20	36804.92
499.38	36907.91
499.56	37544.53
499.73	37315.16
499.91	37457.93
500.08	37521.13
500.26	37696.67
500.44	37656.88
500.61	37984.55
500.79	37729.44
500.97	38412.87
501.14	39089.29
501.32	38845.87
501.49	38616.50
501.67	38892.68
501.84	39007.37
502.02	39306.96
502.20	39012.05
502.37	39505.90
502.55	39248.44
502.72	39541.01
502.90	39201.63
503.07	39976.35
503.25	40051.25
503.43	39901.45
503.60	40170.61
503.78	40219.77
503.95	40397.65
504.13	40622.34
504.30	40690.21
504.48	40587.23
504.65	40865.75
504.83	40935.97
505.01	41289.39
505.18	41003.85
505.36	41429.82
505.53	41240.24
505.71	41663.88
505.88	41628.77
506.06	41607.70
506.23	41986.87
506.41	41776.22
506.58	41986.87
506.76	42443.27
506.93	42110.92
507.11	42422.21
507.28	42447.96
507.46	42712.44
507.63	43208.63
507.81	43171.18
507.98	42803.72
508.16	43395.87
508.33	43489.49
508.50	43405.23
508.68	43744.61
508.85	44205.70
509.03	43737.59
509.20	44357.83
509.38	44135.48
509.55	44636.36
509.73	44224.42
509.90	44875.09
510.08	44641.04
510.25	44402.30
510.42	45352.56
510.60	45141.91
510.77	45123.19
510.95	45495.33
511.12	45361.92
511.30	45450.86
511.47	45329.16
511.64	45801.94
511.82	46410.48
511.99	45794.92
512.17	45951.74
512.34	45956.42
512.51	46026.63
512.69	46560.28
512.86	46433.89
513.04	46752.20
513.21	46377.72
513.38	46890.29
513.56	47037.75
513.73	47173.50
513.90	47496.49
514.08	47070.51
514.25	46869.23
514.43	47435.64
514.60	47676.71
514.77	47463.72
514.95	47700.12
515.12	47447.34
515.29	47552.66
515.47	47931.83
515.64	48261.85
515.81	47896.72
515.99	47985.66
516.16	48832.94
516.33	48311.00
516.51	48985.07
516.68	48296.95
516.85	48545.05
517.03	48706.55
517.20	49034.22
517.37	49003.80
517.54	48617.61
517.72	48912.52
517.89	48999.12
518.06	49434.45
518.24	49177.00
518.41	49350.20
518.58	49345.51
518.75	49329.13
518.93	49659.15
519.10	49443.82
519.27	49675.53
519.45	50080.44
519.62	50019.59
519.79	50103.85
519.96	49921.29
520.14	50415.14
520.31	50148.32
520.48	50475.99
520.65	50740.47
520.83	50609.40
521.00	50756.86
521.17	50583.66
521.34	50590.68
521.52	50639.83
521.69	50848.14
521.86	51040.06
522.03	50974.53
522.20	51290.50
522.38	51554.98
522.55	51477.74
522.72	51320.93
522.89	51051.76
523.07	51765.63
523.24	51709.46
523.41	52023.09
523.58	51508.17
523.75	51627.54
523.92	51683.71
524.10	51978.62
524.27	52280.55
524.44	52355.44
524.61	52224.37
524.78	52076.92
524.96	52215.01
525.13	52612.90
525.30	52303.95
525.47	52652.69
525.64	52718.23
525.81	52851.64
525.98	52636.31
526.16	52538.01
526.33	52626.95
526.50	52896.11
526.67	52853.98
526.84	52989.73
527.01	53111.44
527.18	52587.16
527.36	53148.88
527.53	52931.22
527.70	53595.93
527.87	53174.63
528.04	53183.99
528.21	53401.66
528.38	53385.28
528.55	53558.48
528.72	53212.08
528.89	53389.96
529.07	53628.69
529.24	53535.07
529.41	53694.23
529.58	53649.76
529.75	53691.89
529.92	53853.39
530.09	53991.48
530.26	54150.63
530.43	53888.49
530.60	54073.40
530.77	54035.95
530.94	54145.95
531.11	54167.02
531.28	54244.26
531.46	54246.60
531.63	54267.66
531.80	54340.22
531.97	54429.16
532.14	54422.14
532.31	54478.31
532.48	54628.10
532.65	54724.07
532.82	54445.54
532.99	54611.72
533.16	54321.49
533.33	54885.56
533.50	54794.28
533.67	54857.48
533.84	54710.02
534.01	54934.71
534.18	54937.05
534.35	55323.24
534.52	55402.82
534.69	55196.85
534.86	55140.68
535.03	55100.89
535.20	55269.41
535.37	55433.25
535.54	55526.87
535.71	55033.02
535.88	55304.52
536.05	55786.67
536.22	55671.98
536.38	55491.76
536.55	55847.52
536.72	55655.60
536.89	55566.66
537.06	56023.06
537.23	55765.60
537.40	55597.09
537.57	55798.37
537.74	55849.86
537.91	56039.45
538.08	55880.29
538.25	55887.31
538.42	55739.86
538.59	56196.26
538.75	55959.87
538.92	55842.84
539.09	56163.50
539.26	56184.56
539.43	56369.46
539.60	56238.39
539.77	56442.02
539.94	56584.79
540.11	56451.38
540.28	56505.21
540.44	56573.09
540.61	56402.23
540.78	56657.35
540.95	56306.27
541.12	56542.66
541.29	56666.71
541.46	56303.93
541.62	56495.85
541.79	56659.69
541.96	56720.54
542.13	56420.95
542.30	56690.12
542.47	56807.14
542.63	56839.91
542.80	56947.57
542.97	57209.71
543.14	57132.48
543.31	57041.20
543.48	57378.23
543.64	57286.95
543.81	57509.30
543.98	57462.49
544.15	57350.15
544.32	57609.95
544.48	57616.97
544.65	57389.94
544.82	57411.00
544.99	57401.64
545.16	57673.14
545.32	57631.01
545.49	57616.97
545.66	57776.12
545.83	57701.23
546.00	57766.76
546.16	57499.94
546.33	57619.31
546.50	57509.30
546.67	57595.90
546.83	57598.24
547.00	57792.51
547.17	57804.21
547.34	57820.59
547.50	58019.54
547.67	58274.66
547.84	58169.33
548.00	58075.71
548.17	58314.45
548.34	58213.80
548.51	58211.46
548.67	58152.95
548.84	58136.57
549.01	58377.64
549.18	58155.29
549.34	58518.07
549.51	58347.21
549.68	58513.39
549.84	58457.22
550.01	58667.87
550.18	58377.64
550.34	58417.43
550.51	58536.80
550.68	58585.95
550.84	58230.19
551.01	58651.48
551.18	58557.86
551.34	58550.84
551.51	58672.55
551.68	58611.70
551.84	58698.30
552.01	58452.54
552.18	58845.75
552.34	58379.98
552.51	58862.13
552.68	58637.44
552.84	58658.51
553.01	58939.37
553.18	58876.18
553.34	58913.62
553.51	58904.26
553.67	58780.21
553.84	58827.02
554.01	59025.97
554.17	59042.35
554.34	59131.29
554.51	59021.29
554.67	58904.26
554.84	59128.95
555.00	58838.73
555.17	59011.93
555.33	59182.79
555.50	59161.72
555.67	58962.78
555.83	59119.59
556.00	59138.32
556.16	59503.44
556.33	59400.46
556.50	59178.10
556.66	59454.29
556.83	59339.60
556.99	59480.03
557.16	59550.25
557.32	59671.96
557.49	59606.42
557.65	59402.80
557.82	59585.36
557.98	59451.95
558.15	59482.37
558.32	59650.89
558.48	59292.79
558.65	59512.80
558.81	59601.74
558.98	59669.62
559.14	59697.70
559.31	59765.58
559.47	59770.26
559.64	59601.74
559.80	59758.56
559.97	59718.77
560.13	59704.73
560.30	59800.69
560.46	59765.58
560.63	59891.97
560.79	59793.67
560.96	59920.05
561.12	59873.24
561.29	60058.15
561.45	59945.80
561.61	59880.27
561.78	59723.45
561.94	59803.03
562.11	59934.10
562.27	59950.48
562.44	60083.89
562.60	60142.41
562.77	59948.14
562.93	59721.11
563.10	60186.88
563.26	59952.82
563.42	60100.28
563.59	59838.14
563.75	60104.96
563.92	60051.12
564.08	59847.50
564.24	60086.23
564.41	60144.75
564.57	60247.73
564.74	60135.38
564.90	60264.11
565.07	60154.11
565.23	60175.17
565.39	60240.71
565.56	60299.22
565.72	60214.96
565.88	60182.19
566.05	60303.90
566.21	60016.02
566.38	60357.74
566.54	60301.56
566.70	60390.50
566.87	60430.29
567.03	60196.24
567.19	60488.80
567.36	60390.50
567.52	60322.63
567.68	60453.70
567.85	60392.84
568.01	60439.65
568.17	60301.56
568.34	60313.26
568.50	60467.74
568.66	60460.72
568.83	60334.33
568.99	60406.89
569.15	60460.72
569.32	60350.71
569.48	60434.97
569.64	60530.93
569.81	60622.22
569.97	60498.17
570.13	60575.40
570.30	60346.03
570.46	60624.56
570.62	60750.94
570.78	60444.33
570.95	60598.81
571.11	60741.58
571.27	60502.85
571.43	60409.23
571.60	60650.30
571.76	60486.46
571.92	60544.98
572.09	60671.37
572.25	60825.84
572.41	60549.66
572.57	60624.56
572.74	61045.85
572.90	60804.78
573.06	60669.03
573.22	60640.94
573.38	60790.73
573.55	60605.83
573.71	60505.19
573.87	60795.42
574.03	60596.47
574.20	60776.69
574.36	60404.55
574.52	60774.35
574.68	60800.10
574.84	60772.01
575.01	60818.82
575.17	60764.99
575.33	60914.78
575.49	60711.16
575.65	60903.08
575.82	60851.59
575.98	60811.80
576.14	61036.49
576.30	60872.65
576.46	60786.05
576.62	60720.52
576.79	60690.09
576.95	60645.62
577.11	60666.69
577.27	60687.75
577.43	60685.41
577.59	60654.98
577.75	60645.62
577.92	60729.88
578.08	60889.04
578.24	60846.91
578.40	61120.75
578.56	60968.61
578.72	60931.17
578.88	60889.04
579.04	61085.64
579.21	60926.49
579.37	60999.04
579.53	60973.30
579.69	60683.07
579.85	60851.59
580.01	60910.10
580.17	60811.80
580.33	60945.21
580.49	61055.21
580.65	60912.44
580.82	60832.86
580.98	60844.57
581.14	60781.37
581.30	60973.30
581.46	61048.19
581.62	61057.56
581.78	61038.83
581.94	61050.53
582.10	60949.89
582.26	60898.40
582.42	61106.71
582.58	61366.51
582.74	61034.15
582.90	61029.47
583.06	60963.93
583.22	60748.60
583.38	60977.98
583.54	60912.44
583.70	60835.20
583.86	61289.27
584.02	60952.23
584.18	61055.21
584.34	61083.30
584.50	61109.05
584.66	61041.17
584.82	60732.22
584.98	61106.71
585.14	61144.16
585.30	60963.93
585.46	61064.58
585.62	61155.86
585.78	61125.43
585.94	61099.68
586.10	61062.24
586.26	61158.20
586.42	61387.57
586.58	61102.03
586.74	61111.39
586.90	60961.59
587.06	61111.39
587.22	61272.88
587.38	61050.53
587.54	61251.82
587.70	61190.97
587.86	60994.36
588.02	61155.86
588.18	61209.69
588.34	61116.07
588.49	61160.54
