SpectraSuite Data File
++++++++++++++++++++++++++++++++++++
Date: Fri Oct 25 11:23:21 EDT 2013
User: price-jones
Dark Spectrum Present: No
Reference Spectrum Present: No
Number of Sampled Component Spectra: 1
Spectrometers: USB2+H05261
Integration Time (usec): 100000 (USB2+H05261)
Spectra Averaged: 1 (USB2+H05261)
Boxcar Smoothing: 0 (USB2+H05261)
Correct for Electrical Dark: No (USB2+H05261)
Strobe/Lamp Enabled: No (USB2+H05261)
Correct for Detector Non-linearity: No (USB2+H05261)
Correct for Stray Light: No (USB2+H05261)
Number of Pixels in Processed Spectrum: 2048
>>>>>Begin Processed Spectral Data<<<<<
365.73	156.82
365.92	156.82
366.12	156.82
366.32	98.30
366.52	133.41
366.72	107.66
366.91	56.17
367.11	156.82
367.31	152.13
367.51	114.69
367.70	93.62
367.90	126.39
368.10	175.54
368.30	117.03
368.49	131.07
368.69	184.90
368.89	145.11
369.09	88.94
369.28	163.84
369.48	159.16
369.68	222.35
369.87	56.17
370.07	187.24
370.27	191.92
370.47	276.18
370.66	589.82
370.86	587.47
371.06	641.31
371.25	702.16
371.45	585.13
371.65	706.84
371.84	690.46
372.04	695.14
372.24	692.80
372.44	741.95
372.63	709.18
372.83	737.27
373.03	732.59
373.22	830.89
373.42	730.25
373.62	779.40
373.81	840.25
374.01	770.04
374.21	823.87
374.40	727.91
374.60	800.46
374.79	863.66
374.99	767.70
375.19	842.59
375.38	786.42
375.58	774.72
375.78	837.91
375.97	821.53
376.17	905.79
376.37	873.02
376.56	922.17
376.76	875.36
376.95	849.61
377.15	903.45
377.35	917.49
377.54	866.00
377.74	983.02
377.93	919.83
378.13	938.55
378.33	915.15
378.52	968.98
378.72	936.21
378.91	903.45
379.11	915.15
379.31	1015.79
379.50	901.11
379.70	978.34
379.89	994.73
380.09	952.60
380.28	870.68
380.48	1027.50
380.68	952.60
380.87	947.92
381.07	1046.22
381.26	1029.84
381.46	990.05
381.65	1004.09
381.85	1008.77
382.04	1139.84
382.24	1083.67
382.43	1064.94
382.63	1034.52
382.83	1118.78
383.02	1186.65
383.22	1107.07
383.41	1076.65
383.61	1118.78
383.80	1090.69
384.00	1004.09
384.19	1121.12
384.39	1050.90
384.58	1149.20
384.78	1135.16
384.97	1177.29
385.17	1165.59
385.36	1100.05
385.56	1095.37
385.75	1156.22
385.95	1184.31
386.14	1205.38
386.34	1102.39
386.53	1165.59
386.72	1249.85
386.92	1214.74
387.11	1261.55
387.31	1177.29
387.50	1224.10
387.70	1163.25
387.89	1240.48
388.09	1352.83
388.28	1247.51
388.48	1303.68
388.67	1366.87
388.86	1275.59
389.06	1355.17
389.25	1301.34
389.45	1245.16
389.64	1320.06
389.84	1378.58
390.03	1430.07
390.22	1404.32
390.42	1380.92
390.61	1364.53
390.81	1425.39
391.00	1467.52
391.19	1469.86
391.39	1495.60
391.58	1425.39
391.78	1430.07
391.97	1526.03
392.16	1453.47
392.36	1479.22
392.55	1547.09
392.75	1500.28
392.94	1469.86
393.13	1514.33
393.33	1416.02
393.52	1521.35
393.71	1535.39
393.91	1526.03
394.10	1502.62
394.29	1490.92
394.49	1474.54
394.68	1689.87
394.88	1722.63
395.07	1650.08
395.26	1549.43
395.46	1687.53
395.65	1675.82
395.84	1692.21
396.04	1692.21
396.23	1661.78
396.42	1729.66
396.62	1746.04
396.81	1764.76
397.00	1708.59
397.19	1757.74
397.39	1736.68
397.58	1839.66
397.77	1788.17
397.97	1874.77
398.16	1804.55
398.35	1895.83
398.55	1891.15
398.74	1947.33
398.93	1795.19
399.12	1959.03
399.32	1853.70
399.51	1928.60
399.70	1989.46
399.90	2026.90
400.09	1987.11
400.28	2017.54
400.47	1949.67
400.67	2015.20
400.86	2040.95
401.05	1907.54
401.24	2047.97
401.44	1996.48
401.63	2155.63
401.82	2099.46
402.01	2052.65
402.21	2045.63
402.40	2080.74
402.59	2127.55
402.78	2195.42
402.97	2228.19
403.17	2200.10
403.36	2090.10
403.55	2162.66
403.74	2321.81
403.93	2338.20
404.13	2314.79
404.32	2312.45
404.51	2413.09
404.70	2377.98
404.89	2317.13
405.09	2368.62
405.28	2516.08
405.47	2401.39
405.66	2513.74
405.85	2450.54
406.05	2471.61
406.24	2506.71
406.43	2583.95
406.62	2541.82
406.81	2684.59
407.00	2562.89
407.20	2497.35
407.39	2588.63
407.58	2621.40
407.77	2712.68
407.96	2644.81
408.15	2644.81
408.34	2787.58
408.54	2808.64
408.73	2712.68
408.92	2712.68
409.11	2752.47
409.30	2848.43
409.49	2738.43
409.68	2979.50
409.87	2787.58
410.07	2892.90
410.26	2897.58
410.45	2956.10
410.64	2958.44
410.83	3042.70
411.02	2993.55
411.21	2988.86
411.40	2998.23
411.59	3141.00
411.78	3180.79
411.98	3176.11
412.17	3157.38
412.36	3187.81
412.55	3339.94
412.74	3253.34
412.93	3262.71
413.12	3365.69
413.31	3471.01
413.50	3442.93
413.69	3506.12
413.88	3478.04
414.07	3501.44
414.26	3627.83
414.45	3574.00
414.64	3597.40
414.83	3524.85
415.02	3744.86
415.22	3684.00
415.41	3810.39
415.60	3728.47
415.79	3801.03
415.98	3693.37
416.17	3808.05
416.36	3911.04
416.55	3992.95
416.74	3939.12
416.93	3955.51
417.12	3941.46
417.31	4196.58
417.50	4109.98
417.69	4259.78
417.88	4215.30
418.07	4252.75
418.26	4278.50
418.45	4201.26
418.64	4449.36
418.83	4390.84
419.02	4507.87
419.21	4369.78
419.39	4662.35
419.58	4327.65
419.77	4402.55
419.96	4552.34
420.15	4489.15
420.34	4475.10
420.53	4538.30
420.72	4662.35
420.91	4580.43
421.10	4599.15
421.29	4725.54
421.48	4713.84
421.67	4819.16
421.86	4767.67
422.05	4762.99
422.24	4887.04
422.43	4861.29
422.61	4723.20
422.80	4945.55
422.99	4858.95
423.18	4791.08
423.37	4844.91
423.56	4952.57
423.75	4884.70
423.94	4793.42
424.13	4456.38
424.32	4674.05
424.50	4788.74
424.69	4926.83
424.88	4978.32
425.07	4664.69
425.26	4851.93
425.45	4828.53
425.64	4807.46
425.83	4809.80
426.01	4987.68
426.20	5067.26
426.39	5125.77
426.58	4851.93
426.77	5064.92
426.96	4961.94
427.15	4975.98
427.33	5132.79
427.52	5123.43
427.71	5217.05
427.90	5097.69
428.09	5207.69
428.28	5088.32
428.46	5322.38
428.65	5282.59
428.84	5549.41
429.03	5350.46
429.22	5296.63
429.40	5441.75
429.59	5177.26
429.78	5252.16
429.97	5121.09
430.16	5350.46
430.34	5589.20
430.53	5476.85
430.72	5558.77
430.91	5479.19
431.10	5511.96
431.28	5537.71
431.47	5701.54
431.66	5788.14
431.85	5778.78
432.03	5755.38
432.22	6040.92
432.41	5678.14
432.60	5755.38
432.79	5694.52
432.97	5930.92
433.16	5760.06
433.35	5879.43
433.54	6078.37
433.72	6061.99
433.91	5916.87
434.10	6083.05
434.28	6022.20
434.47	6033.90
434.66	6181.35
434.85	6221.14
435.03	6242.21
435.22	6235.19
435.41	6202.42
435.59	6141.57
435.78	6333.49
435.97	6352.21
436.16	6448.18
436.34	6459.88
436.53	6497.33
436.72	6656.48
436.90	6338.17
437.09	6513.71
437.28	6382.64
437.46	6621.38
437.65	6539.46
437.84	6544.14
438.02	6745.42
438.21	6616.69
438.40	6630.74
438.58	6963.09
438.77	6724.36
438.96	6850.75
439.14	6937.35
439.33	7148.00
439.52	6981.82
439.70	7136.29
439.89	7052.03
440.08	7208.85
440.26	7262.68
440.45	7201.83
440.63	7391.41
440.82	7478.01
441.01	7288.43
441.19	7576.31
441.38	7492.05
441.57	7644.19
441.75	7653.55
441.94	7854.84
442.12	7779.94
442.31	7850.16
442.50	7960.16
442.68	7765.90
442.87	7927.39
443.05	7950.80
443.24	8035.06
443.43	8013.99
443.61	7985.91
443.80	8166.13
443.98	8037.40
444.17	7733.13
444.35	8072.51
444.54	8152.09
444.73	8138.04
444.91	8170.81
445.10	8245.71
445.28	8329.97
445.47	8170.81
445.65	8196.56
445.84	8138.04
446.02	8140.38
446.21	8060.80
446.39	8463.38
446.58	8329.97
446.77	8362.73
446.95	8077.19
447.14	8461.04
447.32	8423.59
447.51	8346.35
447.69	8159.11
447.88	8388.48
448.06	8510.19
448.25	8175.49
448.43	8554.66
448.62	8498.49
448.80	8435.29
448.99	8411.89
449.17	8765.31
449.36	8273.79
449.54	8760.63
449.73	8627.21
449.91	8938.51
450.10	8746.58
450.28	9191.28
450.46	8816.80
450.65	8807.44
450.83	8844.88
451.02	8959.57
451.20	8994.68
451.39	9029.79
451.57	8938.51
451.76	8908.08
451.94	8987.66
452.13	9284.91
452.31	9074.26
452.49	8854.25
452.68	8945.53
452.86	9233.41
453.05	9380.87
453.23	9413.63
453.42	9109.36
453.60	9177.24
453.78	9406.61
453.97	9277.88
454.15	9291.93
454.34	9205.33
454.52	9804.50
454.70	9572.79
454.89	9607.90
455.07	9568.11
455.26	9851.31
455.44	9792.80
455.62	9643.01
455.81	9699.18
455.99	9764.72
456.17	10094.73
456.36	9916.85
456.54	10057.28
456.73	10211.76
456.91	10202.40
457.09	10314.74
457.28	10436.45
457.46	10129.84
457.64	10164.95
457.83	10314.74
458.01	10043.24
458.19	10595.61
458.38	10459.85
458.56	10408.36
458.74	10513.69
458.93	10480.92
459.11	10773.49
459.29	10523.05
459.48	10775.83
459.66	10757.10
459.84	10487.94
460.03	10799.23
460.21	10965.41
460.39	10876.47
460.57	10829.66
460.76	10958.39
460.94	11241.59
461.12	11059.03
461.31	10677.52
461.49	10817.96
461.67	11054.35
461.85	11314.15
462.04	11211.17
462.22	11222.87
462.40	11358.62
462.59	11311.81
462.77	11265.00
462.95	11576.29
463.13	11440.54
463.32	11520.12
463.50	11590.33
463.68	11548.20
463.86	11618.42
464.05	11459.26
464.23	11389.05
464.41	11501.39
464.59	11576.29
464.78	11742.47
464.96	11826.73
465.14	11705.02
465.32	11857.15
465.50	11885.24
465.69	11967.16
465.87	12011.63
466.05	11896.94
466.23	11913.33
466.41	12149.72
466.60	12311.22
466.78	12025.67
466.96	12011.63
467.14	12283.13
467.32	12180.15
467.51	12599.10
467.69	12058.44
467.87	12294.83
468.05	12339.30
468.23	12241.00
468.41	12407.18
468.60	12329.94
468.78	12629.53
468.96	12355.69
469.14	12437.61
469.32	12711.45
469.50	12674.00
469.69	12709.11
469.87	12732.51
470.05	12784.01
470.23	12840.18
470.41	12922.10
470.59	13156.15
470.77	12917.42
470.95	13160.83
471.14	13275.52
471.32	12961.89
471.50	13455.74
471.68	13221.69
471.86	13439.36
472.04	13523.62
472.22	13860.65
472.40	13516.59
472.58	13591.49
472.77	13650.00
472.95	13804.48
473.13	14150.88
473.31	14040.87
473.49	14047.90
473.67	13886.40
473.85	14136.84
474.03	14410.68
474.21	14656.43
474.39	14560.47
474.57	14579.20
474.75	14871.76
474.93	14888.15
475.12	14462.17
475.30	14977.09
475.48	14707.93
475.66	15178.37
475.84	15016.88
476.02	14956.02
476.20	15033.26
476.38	15492.01
476.56	15517.75
476.74	15840.75
476.92	15819.68
477.10	15421.79
477.28	15896.92
477.46	15985.86
477.64	16163.74
477.82	16196.51
478.00	16638.87
478.18	16748.87
478.36	16837.81
478.54	16769.94
478.72	16844.84
478.90	17177.19
479.08	17373.80
479.26	17397.20
479.44	17376.14
479.62	17460.40
479.80	17458.06
479.98	17851.27
480.16	18251.50
480.34	17724.88
480.52	18253.84
480.70	18572.15
480.88	17998.72
481.06	18312.35
481.24	18640.03
481.41	18864.72
481.59	19328.14
481.77	19246.23
481.95	19531.77
482.13	19323.46
482.31	19330.48
482.49	19932.00
482.67	19924.98
482.85	20362.66
483.03	20465.64
483.21	20341.60
483.39	20877.58
483.57	20535.86
483.74	21245.04
483.92	20943.11
484.10	20821.41
484.28	21495.48
484.46	21561.02
484.64	21893.37
484.82	21811.45
485.00	21923.80
485.18	22202.32
485.35	22520.63
485.53	22569.79
485.71	23063.64
485.89	23220.45
486.07	22717.24
486.25	23089.38
486.43	23150.24
486.61	23510.68
486.78	23765.80
486.96	23435.78
487.14	24276.04
487.32	24210.50
487.50	24486.68
487.68	24542.86
487.85	24643.50
488.03	24966.49
488.21	25174.80
488.39	25158.42
488.57	25771.64
488.75	25891.01
488.92	25827.81
489.10	26190.59
489.28	26600.19
489.46	26405.92
489.64	26628.27
489.81	26979.36
489.99	26977.01
490.17	27665.13
490.35	27468.53
490.53	27927.27
490.70	27969.40
490.88	27845.35
491.06	28334.53
491.24	27817.27
491.41	28676.24
491.59	28765.18
491.77	28718.37
491.95	29476.71
492.13	29106.90
492.30	29418.19
492.48	29457.98
492.66	29846.51
492.84	30115.67
493.01	29858.21
493.19	30022.05
493.37	30375.47
493.54	30869.33
493.72	31077.63
493.90	30869.33
494.08	31124.44
494.25	31854.69
494.43	31557.44
494.61	31644.04
494.79	31894.48
494.96	31887.46
495.14	32079.38
495.32	32645.79
495.49	32662.18
495.67	32400.04
495.85	32540.47
496.02	33322.21
496.20	33268.37
496.38	33818.40
496.55	33699.03
496.73	34064.16
496.91	34099.26
497.09	34508.86
497.26	35012.07
497.44	34462.05
497.62	34806.11
497.79	35601.89
497.97	34768.66
498.14	35182.93
498.32	35353.79
498.50	35489.54
498.67	36268.94
498.85	36081.70
499.03	36245.54
499.20	36187.02
499.38	36463.21
499.56	36229.15
499.73	36615.34
499.91	36589.59
500.08	37209.84
500.26	36769.82
500.44	37373.67
500.61	37710.71
500.79	37357.29
500.97	38014.98
501.14	37860.51
501.32	37977.53
501.49	38017.32
501.67	38223.29
501.84	38113.28
502.02	38139.03
502.20	38422.23
502.37	38689.06
502.55	38649.27
502.72	39063.54
502.90	38843.53
503.07	38651.61
503.25	39414.62
503.43	38916.09
503.60	39590.16
503.78	39730.59
503.95	39814.85
504.13	39906.13
504.30	40215.08
504.48	39618.25
504.65	40074.65
504.83	40264.24
505.01	40727.66
505.18	40538.08
505.36	41139.60
505.53	40439.78
505.71	41034.27
505.88	41392.37
506.06	41228.54
506.23	41759.84
506.41	41422.80
506.58	41141.94
506.76	41902.61
506.93	42391.78
507.11	41668.56
507.28	41708.35
507.46	42092.19
507.63	42492.43
507.81	42389.44
507.98	41853.46
508.16	42213.90
508.33	42817.76
508.50	42880.95
508.68	42953.51
508.85	43402.89
509.03	43433.32
509.20	43503.54
509.38	43669.72
509.55	43817.17
509.73	43768.02
509.90	43779.72
510.08	43981.01
510.25	44121.44
510.42	43952.92
510.60	44472.52
510.77	44701.89
510.95	44390.60
511.12	44439.75
511.30	44657.42
511.47	44828.28
511.64	45172.34
511.82	45539.80
511.99	45282.34
512.17	45329.16
512.34	45024.89
512.51	45705.98
512.69	45811.31
512.86	45427.46
513.04	46248.99
513.21	45825.35
513.38	46108.55
513.56	46263.03
513.73	46300.48
513.90	46295.80
514.08	46274.73
514.25	46932.42
514.43	46440.91
514.60	46770.93
514.77	46621.13
514.95	47051.79
515.12	47049.45
515.29	46759.22
515.47	47447.34
515.64	47400.53
515.81	47445.00
515.99	47601.82
516.16	48182.27
516.33	47700.12
516.51	48444.41
516.68	47840.55
516.85	47503.51
517.03	48456.11
517.20	48357.81
517.37	48308.66
517.54	48334.40
517.72	48437.39
517.89	48608.25
518.06	48758.04
518.24	48638.67
518.41	48722.93
518.58	48804.85
518.75	48809.53
518.93	49057.63
519.10	48987.41
519.27	49144.23
519.45	49237.85
519.62	49352.54
519.79	49352.54
519.96	49481.27
520.14	49469.56
520.31	49731.70
520.48	50019.59
520.65	49872.14
520.83	49949.37
521.00	50085.12
521.17	49991.50
521.34	50164.70
521.52	50089.80
521.69	50616.43
521.86	50312.16
522.03	50703.03
522.20	50726.43
522.38	51136.02
522.55	50707.71
522.72	50747.50
522.89	50880.91
523.07	51143.05
523.24	51084.53
523.41	51194.54
523.58	50756.86
523.75	51271.78
523.92	51264.75
524.10	51491.79
524.27	51412.21
524.44	51782.01
524.61	51517.53
524.78	51735.20
524.96	51856.91
525.13	51995.00
525.30	52186.92
525.47	52006.70
525.64	51866.27
525.81	52439.70
525.98	52193.95
526.16	52296.93
526.33	52135.43
526.50	52495.88
526.67	52430.34
526.84	52257.14
527.01	52378.85
527.18	52268.84
527.36	52339.06
527.53	52734.61
527.70	52640.99
527.87	52893.77
528.04	52570.77
528.21	52905.47
528.38	52966.32
528.55	53095.05
528.72	53059.94
528.89	53022.50
529.07	53092.71
529.24	52746.31
529.41	53265.91
529.58	53169.95
529.75	53275.27
529.92	53481.24
530.09	53165.27
530.26	53579.54
530.43	53619.33
530.60	53193.36
530.77	53436.77
530.94	53755.08
531.11	53687.21
531.28	53633.38
531.46	53640.40
531.63	53792.53
531.80	53764.45
531.97	53989.14
532.14	53965.73
532.31	53829.98
532.48	54223.19
532.65	54110.85
532.82	53766.79
532.99	54375.33
533.16	54003.18
533.33	54569.59
533.50	54326.17
533.67	54497.03
533.84	54312.13
534.01	54482.99
534.18	54543.84
534.35	54766.20
534.52	54567.25
534.69	54850.45
534.86	54801.30
535.03	54365.96
535.20	54838.75
535.37	54663.21
535.54	54951.10
535.71	54688.96
535.88	55136.00
536.05	55178.13
536.22	55222.60
536.38	55428.57
536.55	55114.94
536.72	55189.83
536.89	55231.96
537.06	54983.86
537.23	55402.82
537.40	55384.10
537.57	55407.50
537.74	55327.92
537.91	55393.46
538.08	55594.74
538.25	55395.80
538.42	55536.23
538.59	55828.80
538.75	55402.82
538.92	55524.53
539.09	55980.93
539.26	55819.44
539.43	55760.92
539.60	55990.30
539.77	55718.79
539.94	56018.38
540.11	56088.60
540.28	55985.61
540.44	56140.09
540.61	56100.30
540.78	55842.84
540.95	55859.23
541.12	55826.46
541.29	56048.81
541.46	56053.49
541.62	56308.61
541.79	56498.19
541.96	55938.80
542.13	56383.51
542.30	56306.27
542.47	56268.82
542.63	56467.76
542.80	56465.42
542.97	56797.78
543.14	56755.65
543.31	56708.84
543.48	56772.03
543.64	57176.95
543.81	57029.49
543.98	56757.99
544.15	56879.70
544.32	56889.06
544.48	57364.19
544.65	57034.17
544.82	56956.94
544.99	56900.76
545.16	57139.50
545.32	56999.07
545.49	57296.31
545.66	57265.89
545.83	57434.41
546.00	57270.57
546.16	57509.30
546.33	57535.05
546.50	57322.06
546.67	57291.63
546.83	57167.58
547.00	57315.04
547.17	57577.18
547.34	57612.29
547.50	57626.33
547.67	57558.45
547.84	57804.21
548.00	57872.09
548.17	58174.02
548.34	57900.17
548.51	57790.17
548.67	57851.02
548.84	57813.57
549.01	57972.73
549.18	57925.92
549.34	58127.20
549.51	57928.26
549.68	57972.73
549.84	58019.54
550.01	58241.89
550.18	58045.29
550.34	58244.23
550.51	58389.34
550.68	58066.35
550.84	57853.36
551.01	58349.56
551.18	58115.50
551.34	58122.52
551.51	58255.93
551.68	58216.14
551.84	58141.25
552.01	58234.87
552.18	58379.98
552.34	58035.92
552.51	58637.44
552.68	58202.10
552.84	58232.53
553.01	58707.66
553.18	58309.77
553.34	58571.91
553.51	58284.02
553.67	58349.56
553.84	58710.00
554.01	58644.46
554.17	58784.90
554.34	58623.40
554.51	58623.40
554.67	58665.53
554.84	58796.60
555.00	58571.91
555.17	58768.51
555.33	58845.75
555.50	58824.68
555.67	58747.45
555.83	58714.68
556.00	58857.45
556.16	58908.94
556.33	59007.25
556.50	59051.72
556.66	59100.87
556.83	58834.05
556.99	59079.80
557.16	59302.15
557.32	59257.68
557.49	59341.94
557.65	59044.69
557.82	59063.42
557.98	58862.13
558.15	59159.38
558.32	59110.23
558.48	59000.22
558.65	59075.12
558.81	59175.76
558.98	59363.01
559.14	59339.60
559.31	59269.39
559.47	59339.60
559.64	59318.54
559.80	59318.54
559.97	59262.36
560.13	59400.46
560.30	59451.95
560.46	59367.69
560.63	59419.18
560.79	59576.00
560.96	59554.93
561.12	59430.88
561.29	59229.60
561.45	59496.42
561.61	59456.63
561.78	59664.94
561.94	59522.16
562.11	59454.29
562.27	59550.25
562.44	59561.95
562.60	59636.85
562.77	59784.30
562.93	59318.54
563.10	59751.54
563.26	59451.95
563.42	59636.85
563.59	59760.90
563.75	59643.87
563.92	59681.32
564.08	59629.83
564.24	59840.48
564.41	59913.03
564.57	59831.11
564.74	59667.28
564.90	59732.81
565.07	59796.01
565.23	59552.59
565.39	59917.71
565.56	59796.01
565.72	59868.56
565.88	59770.26
566.05	59814.73
566.21	59753.88
566.38	59927.08
566.54	59908.35
566.70	60142.41
566.87	59891.97
567.03	59887.29
567.19	60137.72
567.36	60058.15
567.52	59924.74
567.68	60128.36
567.85	60055.81
568.01	60086.23
568.17	60168.15
568.34	59985.59
568.50	59828.77
568.66	60247.73
568.83	60203.26
568.99	60032.40
569.15	60245.39
569.32	60217.30
569.48	59861.54
569.64	60156.45
569.81	60069.85
569.97	60051.12
570.13	60285.18
570.30	60238.37
570.46	60315.61
570.62	60196.24
570.78	60266.45
570.95	60142.41
571.11	60020.70
571.27	60367.10
571.43	60210.28
571.60	60343.69
571.76	60257.09
571.92	60133.04
572.09	60339.01
572.25	60069.85
572.41	60229.01
572.57	60346.03
572.74	60666.69
572.90	60341.35
573.06	60121.34
573.22	60182.19
573.38	60212.62
573.55	60446.68
573.71	60507.53
573.87	60472.42
574.03	60261.77
574.20	60404.55
574.36	60172.83
574.52	60357.74
574.68	60523.91
574.84	60437.31
575.01	60250.07
575.17	60250.07
575.33	60378.80
575.49	60161.13
575.65	60530.93
575.82	60280.50
575.98	60381.14
576.14	60479.44
576.30	60385.82
576.46	60397.52
576.62	60303.90
576.79	60441.99
576.95	60266.45
577.11	60563.70
577.27	60458.38
577.43	60434.97
577.59	60383.48
577.75	60535.62
577.92	60465.40
578.08	60383.48
578.24	60486.46
578.40	60556.68
578.56	60629.24
578.72	60474.76
578.88	60746.26
579.04	60884.36
579.21	60343.69
579.37	60596.47
579.53	60760.31
579.69	60570.72
579.85	60533.28
580.01	60542.64
580.17	60488.80
580.33	60790.73
580.49	60626.90
580.65	60486.46
580.82	60516.89
580.98	60526.25
581.14	60364.76
581.30	60816.48
581.46	60463.06
581.62	60711.16
581.78	60764.99
581.94	60566.04
582.10	60640.94
582.26	60615.19
582.42	60568.38
582.58	60484.12
582.74	60570.72
582.90	60615.19
583.06	60739.24
583.22	60479.44
583.38	60797.76
583.54	60793.07
583.70	60844.57
583.86	60750.94
584.02	60505.19
584.18	60767.33
584.34	60533.28
584.50	60865.63
584.66	60519.23
584.82	60535.62
584.98	60874.99
585.14	60636.26
585.30	60430.29
585.46	60629.24
585.62	60788.39
585.78	60823.50
585.94	60582.43
586.10	60542.64
586.26	60573.06
586.42	60697.11
586.58	60783.71
586.74	60776.69
586.90	60685.41
587.06	60662.00
587.22	60657.32
587.38	60678.39
587.54	60776.69
587.70	61006.06
587.86	60566.04
588.02	60706.47
588.18	60921.80
588.34	60708.82
588.49	60830.52
