SpectraSuite Data File
++++++++++++++++++++++++++++++++++++
Date: Fri Oct 25 11:34:33 EDT 2013
User: price-jones
Dark Spectrum Present: No
Reference Spectrum Present: No
Number of Sampled Component Spectra: 1
Spectrometers: USB2+H05261
Integration Time (usec): 100000 (USB2+H05261)
Spectra Averaged: 1 (USB2+H05261)
Boxcar Smoothing: 0 (USB2+H05261)
Correct for Electrical Dark: No (USB2+H05261)
Strobe/Lamp Enabled: No (USB2+H05261)
Correct for Detector Non-linearity: No (USB2+H05261)
Correct for Stray Light: No (USB2+H05261)
Number of Pixels in Processed Spectrum: 2048
>>>>>Begin Processed Spectral Data<<<<<
365.73	358.10
365.92	358.10
366.12	358.10
366.32	154.48
366.52	161.50
366.72	210.65
366.91	159.16
367.11	142.77
367.31	194.26
367.51	142.77
367.70	243.42
367.90	145.11
368.10	154.48
368.30	201.29
368.49	131.07
368.69	205.97
368.89	182.56
369.09	191.92
369.28	201.29
369.48	173.20
369.68	210.65
369.87	276.18
370.07	191.92
370.27	280.86
370.47	299.59
370.66	465.77
370.86	465.77
371.06	540.66
371.25	627.26
371.45	538.32
371.65	545.34
371.84	519.60
372.04	596.84
372.24	538.32
372.44	543.00
372.63	575.77
372.83	535.98
373.03	559.39
373.22	622.58
373.42	564.07
373.62	669.39
373.81	580.45
374.01	578.11
374.21	657.69
374.40	671.73
374.60	671.73
374.79	645.99
374.99	734.93
375.19	629.60
375.38	636.63
375.58	660.03
375.78	676.41
375.97	587.47
376.17	650.67
376.37	739.61
376.56	674.07
376.76	629.60
376.95	690.46
377.15	720.88
377.35	655.35
377.54	760.67
377.74	692.80
377.93	688.12
378.13	770.04
378.33	690.46
378.52	676.41
378.72	718.54
378.91	655.35
379.11	617.90
379.31	678.76
379.50	688.12
379.70	716.20
379.89	720.88
380.09	601.52
380.28	692.80
380.48	709.18
380.68	795.78
380.87	741.95
381.07	746.63
381.26	720.88
381.46	767.70
381.65	685.78
381.85	713.86
382.04	727.91
382.24	795.78
382.43	765.36
382.63	746.63
382.83	753.65
383.02	767.70
383.22	788.76
383.41	699.82
383.61	676.41
383.80	720.88
384.00	812.17
384.19	779.40
384.39	828.55
384.58	793.44
384.78	856.64
384.97	791.10
385.17	791.10
385.36	741.95
385.56	858.98
385.75	863.66
385.95	814.51
386.14	837.91
386.34	823.87
386.53	816.85
386.72	896.43
386.92	858.98
387.11	905.79
387.31	844.93
387.50	791.10
387.70	887.06
387.89	882.38
388.09	905.79
388.28	889.40
388.48	819.19
388.67	905.79
388.86	990.05
389.06	898.77
389.25	882.38
389.45	931.53
389.64	952.60
389.84	1006.43
390.03	999.41
390.22	973.66
390.42	1036.86
390.61	940.90
390.81	1043.88
391.00	994.73
391.19	938.55
391.39	978.34
391.58	1081.33
391.78	973.66
391.97	971.32
392.16	999.41
392.36	1076.65
392.55	1022.81
392.75	1011.11
392.94	1004.09
393.13	1088.35
393.33	1104.73
393.52	1053.24
393.71	1001.75
393.91	1090.69
394.10	1067.28
394.29	1071.97
394.49	1102.39
394.68	1095.37
394.88	1142.18
395.07	1095.37
395.26	1107.07
395.46	1093.03
395.65	1078.99
395.84	1179.63
396.04	1132.82
396.23	1116.44
396.42	1069.62
396.62	1273.25
396.81	1186.65
397.00	1226.44
397.19	1170.27
397.39	1224.10
397.58	1186.65
397.77	1231.12
397.97	1280.27
398.16	1245.16
398.35	1242.82
398.55	1226.44
398.74	1142.18
398.93	1228.78
399.12	1341.13
399.32	1188.99
399.51	1160.91
399.70	1299.00
399.90	1327.08
400.09	1320.06
400.28	1287.29
400.47	1275.59
400.67	1380.92
400.86	1357.51
401.05	1291.98
401.24	1430.07
401.44	1399.64
401.63	1425.39
401.82	1401.98
402.01	1341.13
402.21	1437.09
402.40	1420.71
402.59	1469.86
402.78	1465.18
402.97	1516.67
403.17	1511.99
403.36	1542.41
403.55	1488.58
403.74	1603.27
403.93	1474.54
404.13	1490.92
404.32	1591.56
404.51	1502.62
404.70	1528.37
404.89	1519.01
405.09	1549.43
405.28	1605.61
405.47	1617.31
405.66	1600.93
405.85	1565.82
406.05	1607.95
406.24	1689.87
406.43	1657.10
406.62	1724.97
406.81	1715.61
407.00	1713.27
407.20	1612.63
407.39	1722.63
407.58	1778.81
407.77	1734.34
407.96	1834.98
408.15	1818.60
408.34	1813.92
408.54	1783.49
408.73	1818.60
408.92	1839.66
409.11	1902.86
409.30	1928.60
409.49	1902.86
409.68	1987.11
409.87	1968.39
410.07	2078.40
410.26	1989.46
410.45	2003.50
410.64	2073.71
410.83	2097.12
411.02	1987.11
411.21	2054.99
411.40	2069.03
411.59	2118.18
411.78	2146.27
411.98	2101.80
412.17	2162.66
412.36	2183.72
412.55	2232.87
412.74	2218.83
412.93	2258.62
413.12	2239.89
413.31	2305.43
413.50	2256.28
413.69	2228.19
413.88	2265.64
414.07	2382.67
414.26	2387.35
414.45	2443.52
414.64	2335.85
414.83	2361.60
415.02	2459.90
415.22	2523.10
415.41	2658.85
415.60	2654.17
415.79	2612.04
415.98	2647.15
416.17	2612.04
416.36	2562.89
416.55	2623.74
416.74	2684.59
416.93	2794.60
417.12	2736.09
417.31	2593.31
417.50	2708.00
417.69	2766.51
417.88	2792.26
418.07	2810.98
418.26	2757.15
418.45	2834.39
418.64	2995.89
418.83	2904.60
419.02	3042.70
419.21	2881.20
419.39	2988.86
419.58	2953.76
419.77	2895.24
419.96	3094.19
420.15	3002.91
420.34	3063.76
420.53	3052.06
420.72	3131.64
420.91	3194.83
421.10	3166.74
421.29	3122.27
421.48	3098.87
421.67	3136.32
421.86	3105.89
422.05	3222.92
422.24	3166.74
422.43	3213.56
422.61	3211.22
422.80	3234.62
422.99	3251.00
423.18	3272.07
423.37	3330.58
423.56	3213.56
423.75	3286.11
423.94	3307.18
424.13	3002.91
424.32	3286.11
424.50	3295.47
424.69	3302.50
424.88	3335.26
425.07	3225.26
425.26	3325.90
425.45	3365.69
425.64	3286.11
425.83	3304.84
426.01	3407.82
426.20	3332.92
426.39	3412.50
426.58	3304.84
426.77	3300.16
426.96	3379.73
427.15	3339.94
427.33	3456.97
427.52	3393.78
427.71	3531.87
427.90	3435.91
428.09	3403.14
428.28	3534.21
428.46	3693.37
428.65	3536.55
428.84	3672.30
429.03	3676.98
429.22	3487.40
429.40	3595.06
429.59	3618.47
429.78	3471.01
429.97	3501.44
430.16	3679.32
430.34	3730.81
430.53	3691.02
430.72	3801.03
430.91	3770.60
431.10	3742.52
431.28	3735.50
431.47	3801.03
431.66	3761.24
431.85	3688.68
432.03	3960.19
432.22	3971.89
432.41	3978.91
432.60	3784.65
432.79	3946.14
432.97	3985.93
433.16	3866.56
433.35	3889.97
433.54	3955.51
433.72	3964.87
433.91	3918.06
434.10	4109.98
434.28	3918.06
434.47	4126.36
434.66	4180.20
434.85	4166.15
435.03	4208.28
435.22	4102.96
435.41	4341.69
435.59	4163.81
435.78	4149.77
435.97	4189.56
436.16	4149.77
436.34	4236.37
436.53	4163.81
436.72	4367.44
436.90	4315.95
437.09	4245.73
437.28	4264.46
437.46	4360.42
437.65	4435.32
437.84	4531.28
438.02	4428.29
438.21	4477.44
438.40	4454.04
438.58	4592.13
438.77	4573.41
438.96	4603.83
439.14	4709.16
439.33	4854.27
439.52	4788.74
439.70	4631.92
439.89	4786.40
440.08	4894.06
440.26	4823.84
440.45	4781.71
440.63	4786.40
440.82	4980.66
441.01	4978.32
441.19	4943.21
441.38	5001.72
441.57	5050.88
441.75	5034.49
441.94	5298.97
442.12	5090.67
442.31	5191.31
442.50	5156.20
442.68	5235.78
442.87	5146.84
443.05	5320.04
443.24	5268.55
443.43	5350.46
443.61	5357.49
443.80	5486.22
443.98	5174.92
444.17	5041.51
444.35	5385.57
444.54	5427.70
444.73	5331.74
444.91	5418.34
445.10	5348.12
445.28	5247.48
445.47	5301.31
445.65	5509.62
445.84	5523.66
446.02	5376.21
446.21	5537.71
446.39	5481.53
446.58	5589.20
446.77	5586.86
446.95	5392.59
447.14	5556.43
447.32	5586.86
447.51	5586.86
447.69	5479.19
447.88	5495.58
448.06	5521.32
448.25	5582.18
448.43	5563.45
448.62	5469.83
448.80	5486.22
448.99	5600.90
449.17	5664.10
449.36	5771.76
449.54	5753.04
449.73	5757.72
449.91	5696.86
450.10	5893.47
450.28	5834.96
450.46	5818.57
450.65	5919.21
450.83	5959.00
451.02	5849.00
451.20	6197.74
451.39	6015.18
451.57	5994.11
451.76	5884.11
451.94	6019.86
452.13	5935.60
452.31	6045.60
452.49	5947.30
452.68	5858.36
452.86	5921.56
453.05	6052.63
453.23	6251.57
453.42	5933.26
453.60	6045.60
453.78	6214.12
453.97	5949.64
454.15	6061.99
454.34	6122.84
454.52	6218.80
454.70	6274.98
454.89	6146.25
455.07	6200.08
455.26	6310.08
455.44	6368.60
455.62	6539.46
455.81	6553.50
455.99	6483.28
456.17	6331.15
456.36	6319.45
456.54	6504.35
456.73	6626.06
456.91	6649.46
457.09	6846.07
457.28	6817.98
457.46	6607.33
457.64	6892.88
457.83	6726.70
458.01	6640.10
458.19	6918.62
458.38	6782.87
458.56	6895.22
458.74	7002.88
458.93	6967.77
459.11	6892.88
459.29	6885.86
459.48	7002.88
459.66	6977.14
459.84	6899.90
460.03	7101.19
460.21	7227.57
460.39	7007.56
460.57	7091.82
460.76	7180.76
460.94	7272.04
461.12	7157.36
461.31	7208.85
461.49	7185.44
461.67	7145.66
461.85	7148.00
462.04	7183.10
462.22	7613.76
462.40	7410.14
462.59	7396.09
462.77	7309.49
462.95	7646.53
463.13	7400.77
463.32	7466.31
463.50	7449.93
463.68	7538.87
463.86	7644.19
464.05	7658.23
464.23	7644.19
464.41	7602.06
464.59	7323.54
464.78	7735.47
464.96	7936.76
465.14	7513.12
465.32	7700.36
465.50	7793.98
465.69	7840.79
465.87	7918.03
466.05	7770.58
466.23	7899.31
466.41	7955.48
466.60	7950.80
466.78	7740.15
466.96	7913.35
467.14	7981.23
467.32	8049.10
467.51	7962.50
467.69	7964.84
467.87	7901.65
468.05	7974.21
468.23	7693.34
468.41	7822.07
468.60	7962.50
468.78	8126.34
468.96	7997.61
469.14	8217.62
469.32	8250.39
469.50	8098.25
469.69	8416.57
469.87	8339.33
470.05	8271.45
470.23	8355.71
470.41	8400.18
470.59	8603.81
470.77	8449.33
470.95	8636.58
471.14	8589.77
471.32	8329.97
471.50	8564.02
471.68	8629.56
471.86	8777.01
472.04	8819.14
472.22	8971.27
472.40	8681.05
472.58	9090.64
472.77	8835.52
472.95	8863.61
473.13	9327.03
473.31	8889.35
473.49	8973.61
473.67	8863.61
473.85	9167.88
474.03	9071.92
474.21	9401.93
474.39	9355.12
474.57	9376.19
474.75	9373.85
474.93	9142.13
475.12	9554.07
475.30	9488.53
475.48	9624.28
475.66	9572.79
475.84	9633.64
476.02	9671.09
476.20	9909.83
476.38	10076.01
476.56	10157.92
476.74	10083.03
476.92	9980.04
477.10	10160.27
477.28	10284.31
477.46	10099.41
477.64	10305.38
477.82	10492.62
478.00	10719.65
478.18	10644.76
478.36	10759.44
478.54	10883.49
478.72	10890.51
478.90	11101.16
479.08	11122.23
479.26	10944.34
479.44	11297.77
479.62	11119.89
479.80	11082.44
479.98	11407.77
480.16	11749.49
480.34	11583.31
480.52	11838.43
480.70	11822.05
480.88	11405.43
481.06	11686.29
481.24	12056.10
481.41	11953.12
481.59	12170.79
481.77	12315.90
481.95	12624.85
482.13	12311.22
482.31	12404.84
482.49	12826.14
482.67	12823.80
482.85	12814.43
483.03	13081.25
483.21	12952.52
483.39	12985.29
483.57	13107.00
483.74	13184.24
483.92	13437.02
484.10	13205.30
484.28	13486.17
484.46	13839.59
484.64	14207.05
484.82	13790.44
485.00	14078.32
485.18	14359.19
485.35	14354.51
485.53	14185.99
485.71	14370.89
485.89	14586.22
486.07	14555.79
486.25	14377.91
486.43	14965.39
486.61	15080.07
486.78	15084.75
486.96	14963.04
487.14	15592.65
487.32	15435.83
487.50	15459.24
487.68	15697.97
487.85	15674.57
488.03	16004.58
488.21	16156.72
488.39	16308.85
488.57	16285.45
488.75	16395.45
488.92	16744.19
489.10	16762.92
489.28	16833.13
489.46	17095.27
489.64	17135.06
489.81	17247.41
489.99	17245.07
490.17	17547.00
490.35	17755.30
490.53	17439.33
490.70	17649.98
490.88	17804.46
491.06	18040.85
491.24	17949.57
491.41	17834.88
491.59	18218.73
491.77	18223.41
491.95	18396.61
492.13	18424.70
492.30	19012.17
492.48	18576.83
492.66	18927.91
492.84	19166.65
493.01	19225.16
493.19	18862.38
493.37	19419.42
493.54	19297.72
493.72	19873.49
493.90	19545.81
494.08	19690.93
494.25	19999.88
494.43	20081.80
494.61	20262.02
494.79	20428.20
494.96	20390.75
495.14	20645.87
495.32	20606.08
495.49	20638.84
495.67	20631.82
495.85	20879.92
496.02	20802.68
496.20	21053.12
496.38	21207.59
496.55	21158.44
496.73	21575.06
496.91	21591.44
497.09	21926.14
497.26	22174.24
497.44	21949.54
497.62	22097.00
497.79	22469.14
497.97	22326.37
498.14	22698.52
498.32	22628.30
498.50	22700.86
498.67	22995.76
498.85	22483.19
499.03	22759.37
499.20	22958.31
499.38	23014.49
499.56	23033.21
499.73	23227.48
499.91	23494.30
500.08	23655.79
500.26	23480.25
500.44	23433.44
500.61	23482.59
500.79	23578.56
500.97	23836.02
501.14	24070.07
501.32	24067.73
501.49	24231.57
501.67	24175.39
501.84	24606.05
502.02	24151.99
502.20	24594.35
502.37	24442.21
502.55	24615.41
502.72	24456.26
502.90	24666.91
503.07	24854.15
503.25	24996.92
503.43	24676.27
503.60	24952.45
503.78	25130.33
503.95	24912.66
504.13	25369.07
504.30	25610.14
504.48	25137.35
504.65	25752.91
504.83	25493.12
505.01	26096.97
505.18	25919.09
505.36	26192.94
505.53	25888.67
505.71	26146.12
505.88	26309.96
506.06	26569.76
506.23	26480.82
506.41	26478.48
506.58	26473.80
506.76	26305.28
506.93	26424.65
507.11	26417.63
507.28	26569.76
507.46	26574.44
507.63	26965.31
507.81	27152.55
507.98	26948.93
508.16	27063.61
508.33	27536.40
508.50	27566.83
508.68	27632.36
508.85	27747.05
509.03	27309.37
509.20	27630.02
509.38	28114.52
509.55	28013.87
509.73	27793.86
509.90	28156.64
510.08	27709.60
510.25	27953.02
510.42	28421.13
510.60	28006.85
510.77	28580.28
510.95	28683.27
511.12	28697.31
511.30	28383.68
511.47	28854.12
511.64	28638.80
511.82	29156.05
511.99	29067.11
512.17	29113.92
512.34	28926.68
512.51	29294.14
512.69	29654.59
512.86	29628.84
513.04	29357.34
513.21	29607.78
513.38	29607.78
513.56	29752.89
513.73	29270.74
513.90	29582.03
514.08	29703.74
514.25	29570.33
514.43	30125.04
514.60	30206.95
514.77	30190.57
514.95	29837.15
515.12	30059.50
515.29	30326.32
515.47	30429.30
515.64	30373.13
515.81	30110.99
515.99	30852.94
516.16	30532.29
516.33	30422.28
516.51	30857.62
516.68	30803.79
516.85	31349.14
517.03	30913.80
517.20	31016.78
517.37	31503.61
517.54	31269.56
517.72	31332.75
517.89	31070.61
518.06	31519.99
518.24	31311.69
518.41	31016.78
518.58	31349.14
518.75	31388.92
518.93	32231.52
519.10	31669.79
519.27	31756.39
519.45	32559.19
519.62	32294.71
519.79	32107.47
519.96	32243.22
520.14	32243.22
520.31	31941.29
520.48	32079.38
520.65	32367.27
520.83	32505.36
521.00	32327.48
521.17	32666.86
521.34	32858.78
521.52	32966.45
521.69	32861.12
521.86	33249.65
522.03	33378.38
522.20	33296.46
522.38	33010.92
522.55	33226.24
522.72	33268.37
522.89	33001.55
523.07	33661.58
523.24	33399.44
523.41	33785.63
523.58	33511.79
523.75	34092.24
523.92	33682.65
524.10	33883.94
524.27	33715.42
524.44	34218.63
524.61	34045.43
524.78	34033.73
524.96	34515.88
525.13	33916.70
525.30	34216.29
525.47	34735.89
525.64	34429.28
525.81	34756.96
525.98	34574.39
526.16	34656.31
526.33	34829.51
526.50	34817.81
526.67	34583.76
526.84	35075.27
527.01	34621.20
527.18	35009.73
527.36	35103.35
527.53	35194.64
527.70	35311.66
527.87	35629.98
528.04	35271.87
528.21	35316.34
528.38	35185.27
528.55	35730.62
528.72	35601.89
528.89	35679.13
529.07	35419.33
529.24	35402.94
529.41	35438.05
529.58	36079.36
529.75	35468.48
529.92	36044.25
530.09	35782.11
530.26	35896.80
530.43	36322.77
530.60	35723.60
530.77	36062.97
530.94	36123.83
531.11	35964.67
531.28	36219.79
531.46	36053.61
531.63	36287.67
531.80	35887.43
531.97	36912.59
532.14	36531.08
532.31	36566.19
532.48	37057.70
532.65	36671.51
532.82	36615.34
532.99	36872.80
533.16	36346.18
533.33	37036.64
533.50	36821.31
533.67	36884.50
533.84	36727.69
534.01	37067.06
534.18	36893.86
534.35	37584.32
534.52	37216.86
534.69	37757.52
534.86	37589.00
535.03	36943.02
535.20	37214.52
535.37	37895.61
535.54	37811.35
535.71	37724.75
535.88	37366.65
536.05	37490.70
536.22	38071.15
536.38	38078.18
536.55	37542.19
536.72	37670.92
536.89	37151.32
537.06	37860.51
537.23	37841.78
537.40	38134.35
537.57	37961.15
537.74	37680.28
537.91	38548.62
538.08	38206.90
538.25	38300.53
538.42	38345.00
538.59	38295.85
538.75	38143.71
538.92	38522.88
539.09	38920.77
539.26	38822.47
539.43	38904.38
539.60	39309.30
539.77	38567.35
539.94	39262.49
540.11	38785.02
540.28	39456.75
540.44	38911.41
540.61	38761.61
540.78	38843.53
540.95	39255.46
541.12	38939.49
541.29	39070.56
541.46	39225.04
541.62	38817.78
541.79	39487.18
541.96	39086.95
542.13	39262.49
542.30	39461.43
542.47	39234.40
542.63	39201.63
542.80	40002.10
542.97	39498.88
543.14	39929.54
543.31	39594.84
543.48	39669.74
543.64	40041.88
543.81	40397.65
543.98	39936.56
544.15	40102.74
544.32	40821.28
544.48	40072.31
544.65	40297.00
544.82	40369.56
544.99	40247.85
545.16	40112.10
545.32	40048.91
545.49	40687.87
545.66	40772.13
545.83	40620.00
546.00	40896.18
546.16	40758.09
546.33	40357.86
546.50	40657.45
546.67	41221.52
546.83	40320.41
547.00	40500.63
547.17	40137.85
547.34	40545.10
547.50	40854.05
547.67	41097.47
547.84	40821.28
548.00	41031.93
548.17	41443.87
548.34	40875.12
548.51	41301.09
548.67	41464.93
548.84	40954.69
549.01	40947.67
549.18	41289.39
549.34	41516.42
549.51	41876.86
549.68	41277.69
549.84	41624.09
550.01	41991.55
550.18	41191.09
550.34	41663.88
550.51	41535.15
550.68	41633.45
550.84	41652.17
551.01	41738.77
551.18	41687.28
551.34	41607.70
551.51	42089.85
551.68	41914.31
551.84	41986.87
552.01	42115.60
552.18	41947.08
552.34	41928.36
552.51	42223.26
552.68	42066.45
552.84	42064.11
553.01	42122.62
553.18	41968.15
553.34	41895.59
553.51	42216.24
553.67	42117.94
553.84	42377.74
554.01	42380.08
554.17	42160.07
554.34	42621.16
554.51	42412.85
554.67	42553.28
554.84	42845.85
555.00	42918.40
555.17	42361.36
555.33	42625.84
555.50	42473.70
555.67	42529.87
555.83	42590.73
556.00	42831.80
556.16	43016.71
556.33	42962.87
556.50	42607.11
556.66	43002.66
556.83	42656.26
556.99	43091.60
557.16	43063.52
557.32	43086.92
557.49	43051.81
557.65	42756.91
557.82	42674.99
557.98	43138.41
558.15	42761.59
558.32	42920.74
558.48	42913.72
558.65	42972.24
558.81	43538.65
558.98	43072.88
559.14	43035.43
559.31	43143.09
559.47	43323.32
559.64	42967.55
559.80	43342.04
559.97	43089.26
560.13	43353.74
560.30	43498.86
560.46	43711.84
560.63	44109.74
560.79	43468.43
560.96	43779.72
561.12	43817.17
561.29	43349.06
561.45	43812.49
561.61	43763.34
561.78	43571.41
561.94	43625.25
562.11	43487.15
562.27	43686.10
562.44	43260.12
562.60	43419.28
562.77	43995.05
562.93	43676.74
563.10	44151.87
563.26	43957.60
563.42	43899.09
563.59	44191.65
563.75	43777.38
563.92	43730.57
564.08	43646.31
564.24	43798.44
564.41	43777.38
564.57	44009.09
564.74	43856.96
564.90	44156.55
565.07	43718.87
565.23	44196.34
565.39	43765.68
565.56	44016.11
565.72	44264.21
565.88	44128.46
566.05	44467.84
566.21	44252.51
566.38	43964.62
566.54	44105.06
566.70	44378.90
566.87	44575.50
567.03	44105.06
567.19	44091.01
567.36	44051.22
567.52	44081.65
567.68	44425.71
567.85	44156.55
568.01	44582.52
568.17	44259.53
568.34	44348.47
568.50	44053.56
568.66	43611.20
568.83	44191.65
568.99	43913.13
569.15	44713.59
569.32	44254.85
569.48	44425.71
569.64	44603.59
569.81	44538.05
569.97	44921.90
570.13	44851.69
570.30	43992.71
570.46	44638.70
570.62	44683.17
570.78	45120.85
570.95	44402.30
571.11	44996.80
571.27	44411.67
571.43	44507.63
571.60	44589.55
571.76	44016.11
571.92	44825.94
572.09	44701.89
572.25	44509.97
572.41	44348.47
572.57	44374.22
572.74	44982.76
572.90	44456.14
573.06	44744.02
573.22	44790.83
573.38	45312.77
573.55	44715.93
573.71	45111.49
573.87	45162.98
574.03	44996.80
574.20	45165.32
574.36	44596.57
574.52	45064.67
574.68	44917.22
574.84	45345.54
575.01	45172.34
575.17	44699.55
575.33	44889.13
575.49	44650.40
575.65	45008.50
575.82	45001.48
575.98	44554.44
576.14	45380.65
576.30	45446.18
576.46	44795.51
576.62	44690.19
576.79	44940.63
576.95	44271.23
577.11	44502.95
577.27	44559.12
577.43	44989.78
577.59	45305.75
577.75	44800.19
577.92	44598.91
578.08	45034.25
578.24	44992.12
578.40	45277.66
578.56	44832.96
578.72	44893.82
578.88	45617.04
579.04	45378.31
579.21	45235.53
579.37	45045.95
579.53	44992.12
579.69	44500.61
579.85	45043.61
580.01	45432.14
580.17	44734.66
580.33	45333.84
580.49	45254.26
580.65	44919.56
580.82	44650.40
580.98	44748.70
581.14	44912.54
581.30	45289.37
581.46	44830.62
581.62	44891.48
581.78	44737.00
581.94	45200.43
582.10	45235.53
582.26	45237.87
582.42	45226.17
582.58	45371.28
582.74	45125.53
582.90	45130.21
583.06	45427.46
583.22	45099.78
583.38	45427.46
583.54	45034.25
583.70	45570.23
583.86	45261.28
584.02	45375.97
584.18	45492.99
584.34	45289.37
584.50	45102.12
584.66	45298.73
584.82	45326.81
584.98	45844.07
585.14	45675.55
585.30	45249.58
585.46	45057.65
585.62	45034.25
585.78	45516.40
585.94	45284.68
586.10	45193.40
586.26	44767.43
586.42	45010.84
586.58	45387.67
586.74	44830.62
586.90	44938.29
587.06	45399.37
587.22	45607.68
587.38	45277.66
587.54	45228.51
587.70	45825.35
587.86	45315.11
588.02	45432.14
588.18	44980.42
588.34	45600.66
588.49	45380.65
588.65	45448.52
588.81	45942.38
588.97	45406.39
589.13	45453.20
589.29	45247.24
589.45	45436.82
589.61	45368.94
589.77	45598.32
589.93	45497.67
590.08	45984.51
