SpectraSuite Data File
++++++++++++++++++++++++++++++++++++
Date: Fri Oct 25 11:34:12 EDT 2013
User: price-jones
Dark Spectrum Present: No
Reference Spectrum Present: No
Number of Sampled Component Spectra: 1
Spectrometers: USB2+H05261
Integration Time (usec): 100000 (USB2+H05261)
Spectra Averaged: 1 (USB2+H05261)
Boxcar Smoothing: 0 (USB2+H05261)
Correct for Electrical Dark: No (USB2+H05261)
Strobe/Lamp Enabled: No (USB2+H05261)
Correct for Detector Non-linearity: No (USB2+H05261)
Correct for Stray Light: No (USB2+H05261)
Number of Pixels in Processed Spectrum: 2048
>>>>>Begin Processed Spectral Data<<<<<
365.73	278.52
365.92	278.52
366.12	278.52
366.32	166.18
366.52	117.03
366.72	189.58
366.91	175.54
367.11	191.92
367.31	91.28
367.51	166.18
367.70	156.82
367.90	159.16
368.10	224.69
368.30	198.95
368.49	177.88
368.69	138.09
368.89	220.01
369.09	180.22
369.28	184.90
369.48	189.58
369.68	168.52
369.87	203.63
370.07	278.52
370.27	264.48
370.47	365.12
370.66	477.47
370.86	540.66
371.06	442.36
371.25	554.71
371.45	519.60
371.65	592.16
371.84	550.03
372.04	521.94
372.24	557.05
372.44	521.94
372.63	594.50
372.83	624.92
373.03	585.13
373.22	650.67
373.42	676.41
373.62	645.99
373.81	608.54
374.01	692.80
374.21	653.01
374.40	695.14
374.60	648.33
374.79	650.67
374.99	648.33
375.19	601.52
375.38	643.65
375.58	683.44
375.78	650.67
375.97	638.97
376.17	713.86
376.37	655.35
376.56	697.48
376.76	617.90
376.95	622.58
377.15	709.18
377.35	730.25
377.54	711.52
377.74	643.65
377.93	653.01
378.13	662.37
378.33	732.59
378.52	718.54
378.72	760.67
378.91	676.41
379.11	674.07
379.31	718.54
379.50	734.93
379.70	788.76
379.89	734.93
380.09	723.23
380.28	746.63
380.48	688.12
380.68	732.59
380.87	709.18
381.07	667.05
381.26	763.01
381.46	720.88
381.65	777.06
381.85	727.91
382.04	763.01
382.24	774.72
382.43	741.95
382.63	699.82
382.83	840.25
383.02	781.74
383.22	807.48
383.41	730.25
383.61	814.51
383.80	826.21
384.00	800.46
384.19	833.23
384.39	842.59
384.58	760.67
384.78	774.72
384.97	737.27
385.17	866.00
385.36	805.14
385.56	898.77
385.75	781.74
385.95	784.08
386.14	877.70
386.34	915.15
386.53	856.64
386.72	837.91
386.92	964.30
387.11	842.59
387.31	788.76
387.50	854.30
387.70	837.91
387.89	894.08
388.09	866.00
388.28	891.74
388.48	866.00
388.67	938.55
388.86	919.83
389.06	821.53
389.25	917.49
389.45	1029.84
389.64	990.05
389.84	947.92
390.03	1074.31
390.22	990.05
390.42	905.79
390.61	964.30
390.81	901.11
391.00	947.92
391.19	1062.60
391.39	994.73
391.58	954.94
391.78	1036.86
391.97	968.98
392.16	1011.11
392.36	973.66
392.55	1135.16
392.75	1081.33
392.94	1053.24
393.13	1046.22
393.33	1041.54
393.52	983.02
393.71	1104.73
393.91	961.96
394.10	1146.86
394.29	1029.84
394.49	1102.39
394.68	1057.92
394.88	1043.88
395.07	1139.84
395.26	1170.27
395.46	1104.73
395.65	1240.48
395.84	1186.65
396.04	1210.06
396.23	1184.31
396.42	1177.29
396.62	1186.65
396.81	1191.33
397.00	1130.48
397.19	1266.23
397.39	1139.84
397.58	1228.78
397.77	1242.82
397.97	1277.93
398.16	1233.46
398.35	1263.89
398.55	1256.87
398.74	1284.95
398.93	1322.40
399.12	1320.06
399.32	1291.98
399.51	1203.04
399.70	1327.08
399.90	1301.34
400.09	1362.19
400.28	1430.07
400.47	1306.02
400.67	1345.81
400.86	1397.30
401.05	1441.77
401.24	1383.26
401.44	1376.24
401.63	1401.98
401.82	1469.86
402.01	1476.88
402.21	1376.24
402.40	1483.90
402.59	1565.82
402.78	1434.75
402.97	1483.90
403.17	1523.69
403.36	1502.62
403.55	1483.90
403.74	1561.14
403.93	1537.73
404.13	1565.82
404.32	1528.37
404.51	1591.56
404.70	1589.22
404.89	1643.06
405.09	1729.66
405.28	1607.95
405.47	1659.44
405.66	1645.40
405.85	1701.57
406.05	1724.97
406.24	1661.78
406.43	1748.38
406.62	1717.95
406.81	1760.08
407.00	1703.91
407.20	1675.82
407.39	1792.85
407.58	1750.72
407.77	1888.81
407.96	1851.36
408.15	1823.28
408.34	1820.94
408.54	1919.24
408.73	1954.35
408.92	1966.05
409.11	1984.77
409.30	2026.90
409.49	1959.03
409.68	1916.90
409.87	2071.37
410.07	2031.58
410.26	2066.69
410.45	2085.42
410.64	2111.16
410.83	2054.99
411.02	1966.05
411.21	2118.18
411.40	2148.61
411.59	2097.12
411.78	2106.48
411.98	2120.53
412.17	2132.23
412.36	2190.74
412.55	2298.41
412.74	2340.54
412.93	2223.51
413.12	2291.38
413.31	2349.90
413.50	2300.75
413.69	2286.70
413.88	2370.96
414.07	2450.54
414.26	2483.31
414.45	2443.52
414.64	2373.30
414.83	2569.91
415.02	2499.69
415.22	2525.44
415.41	2560.55
415.60	2574.59
415.79	2675.23
415.98	2623.74
416.17	2597.99
416.36	2771.19
416.55	2705.66
416.74	2752.47
416.93	2818.00
417.12	2740.77
417.31	2754.81
417.50	2799.28
417.69	2902.26
417.88	2904.60
418.07	2928.01
418.26	2925.67
418.45	2923.33
418.64	2965.46
418.83	2977.16
419.02	3119.93
419.21	2932.69
419.39	2993.55
419.58	3066.10
419.77	2916.31
419.96	3026.31
420.15	3040.36
420.34	3105.89
420.53	3208.87
420.72	3283.77
420.91	3143.34
421.10	3150.36
421.29	3225.26
421.48	3112.91
421.67	3229.94
421.86	3281.43
422.05	3183.13
422.24	3208.87
422.43	3368.03
422.61	3419.52
422.80	3356.33
422.99	3344.63
423.18	3293.13
423.37	3293.13
423.56	3358.67
423.75	3480.38
423.94	3318.88
424.13	3185.47
424.32	3227.60
424.50	3288.45
424.69	3499.10
424.88	3421.86
425.07	3269.73
425.26	3356.33
425.45	3344.63
425.64	3330.58
425.83	3368.03
426.01	3428.88
426.20	3466.33
426.39	3480.38
426.58	3335.26
426.77	3398.46
426.96	3461.65
427.15	3513.14
427.33	3433.57
427.52	3368.03
427.71	3524.85
427.90	3550.59
428.09	3574.00
428.28	3667.62
428.46	3618.47
428.65	3541.23
428.84	3754.22
429.03	3651.24
429.22	3569.32
429.40	3726.13
429.59	3630.17
429.78	3597.40
429.97	3566.98
430.16	3700.39
430.34	3763.58
430.53	3712.09
430.72	3866.56
430.91	3798.69
431.10	3817.41
431.28	3868.91
431.47	3808.05
431.66	3962.53
431.85	3843.16
432.03	3920.40
432.22	4037.42
432.41	4039.76
432.60	3927.42
432.79	3960.19
432.97	4058.49
433.16	4145.09
433.35	4121.68
433.54	4044.45
433.72	4121.68
433.91	4142.75
434.10	4056.15
434.28	4088.92
434.47	4184.88
434.66	4304.25
434.85	4002.32
435.03	4196.58
435.22	4196.58
435.41	4269.14
435.59	4100.62
435.78	4348.72
435.97	4358.08
436.16	4311.27
436.34	4241.05
436.53	4496.17
436.72	4470.42
436.90	4374.46
437.09	4287.86
437.28	4222.33
437.46	4407.23
437.65	4313.61
437.84	4409.57
438.02	4608.51
438.21	4533.62
438.40	4517.23
438.58	4643.62
438.77	4620.22
438.96	4620.22
439.14	4774.69
439.33	4720.86
439.52	4812.14
439.70	4692.77
439.89	4805.12
440.08	4865.97
440.26	4961.94
440.45	4868.31
440.63	4968.96
440.82	5217.05
441.01	5029.81
441.19	5050.88
441.38	5064.92
441.57	5160.88
441.75	5158.54
441.94	5308.34
442.12	5228.76
442.31	5427.70
442.50	5418.34
442.68	5474.51
442.87	5420.68
443.05	5373.87
443.24	5343.44
443.43	5228.76
443.61	5355.15
443.80	5699.20
443.98	5254.50
444.17	5217.05
444.35	5378.55
444.54	5603.24
444.73	5509.62
444.91	5408.98
445.10	5621.97
445.28	5448.77
445.47	5385.57
445.65	5390.25
445.84	5518.98
446.02	5652.39
446.21	5577.50
446.39	5565.79
446.58	5614.95
446.77	5614.95
446.95	5324.72
447.14	5493.24
447.32	5570.48
447.51	5631.33
447.69	5434.72
447.88	5631.33
448.06	5867.72
448.25	5647.71
448.43	5631.33
448.62	5673.46
448.80	5687.50
448.99	5827.93
449.17	5987.09
449.36	5827.93
449.54	5699.20
449.73	5912.19
449.91	5923.90
450.10	5940.28
450.28	5984.75
450.46	5909.85
450.65	6001.13
450.83	6108.80
451.02	5926.24
451.20	5959.00
451.39	5947.30
451.57	6092.41
451.76	6031.56
451.94	5959.00
452.13	6153.27
452.31	6146.25
452.49	6099.44
452.68	6176.67
452.86	6146.25
453.05	6265.61
453.23	6197.74
453.42	6277.32
453.60	6125.18
453.78	6232.85
453.97	6125.18
454.15	6200.08
454.34	6298.38
454.52	6200.08
454.70	6497.33
454.89	6506.69
455.07	6466.90
455.26	6614.35
455.44	6705.63
455.62	6483.28
455.81	6473.92
455.99	6609.67
456.17	6576.91
456.36	6700.95
456.54	6663.51
456.73	6553.50
456.91	6920.96
457.09	6862.45
457.28	6897.56
457.46	6785.21
457.64	6970.12
457.83	6876.49
458.01	6942.03
458.19	7070.76
458.38	6930.33
458.56	6974.80
458.74	6906.92
458.93	6960.75
459.11	7101.19
459.29	6977.14
459.48	7068.42
459.66	7169.06
459.84	7143.32
460.03	7318.86
460.21	7274.38
460.39	7262.68
460.57	7126.93
460.76	7164.38
460.94	7295.45
461.12	7431.20
461.31	7386.73
461.49	7145.66
461.67	7325.88
461.85	7480.35
462.04	7456.95
462.22	7861.86
462.40	7417.16
462.59	7508.44
462.77	7538.87
462.95	7681.64
463.13	7541.21
463.32	7763.56
463.50	7747.17
463.68	7639.51
463.86	7691.00
464.05	7700.36
464.23	7482.69
464.41	7737.81
464.59	7545.89
464.78	7871.22
464.96	7779.94
465.14	7826.75
465.32	7808.03
465.50	7875.90
465.69	7850.16
465.87	7857.18
466.05	7978.89
466.23	8025.70
466.41	7892.29
466.60	8086.55
466.78	7784.62
466.96	7929.74
467.14	8156.77
467.32	8105.28
467.51	8112.30
467.69	7899.31
467.87	8397.84
468.05	8278.47
468.23	8154.43
468.41	7997.61
468.60	8215.28
468.78	8315.92
468.96	8065.49
469.14	8344.01
469.32	8468.06
469.50	8313.58
469.69	8465.72
469.87	8676.37
470.05	8425.93
470.23	8554.66
470.41	8643.60
470.59	8608.49
470.77	8681.05
470.95	8580.40
471.14	8865.95
471.32	8533.59
471.50	8847.22
471.68	8800.41
471.86	9011.06
472.04	8828.50
472.22	9078.94
472.40	8779.35
472.58	8975.95
472.77	9132.77
472.95	9320.01
473.13	9565.77
473.31	9177.24
473.49	9202.99
473.67	9165.54
473.85	9359.80
474.03	9441.72
474.21	9479.17
474.39	9614.92
474.57	9530.66
474.75	9767.06
474.93	9856.00
475.12	9708.54
475.30	9989.41
475.48	10040.90
475.66	10003.45
475.84	9841.95
476.02	9916.85
476.20	9998.77
476.38	10076.01
476.56	10310.06
476.74	10356.87
476.92	10029.20
477.10	10104.09
477.28	10211.76
477.46	10338.15
477.64	10569.86
477.82	10686.89
478.00	10906.90
478.18	10853.06
478.36	10913.92
478.54	11082.44
478.72	10785.19
478.90	11332.87
479.08	11325.85
479.26	11197.12
479.44	11386.71
479.62	11751.83
479.80	11613.74
479.98	11477.99
480.16	11833.75
480.34	11585.65
480.52	11967.16
480.70	11906.31
480.88	12032.69
481.06	12175.47
481.24	12163.76
481.41	12346.33
481.59	12531.23
481.77	12711.45
481.95	12561.66
482.13	12622.51
482.31	12706.77
482.49	13266.16
482.67	12650.60
482.85	13046.15
483.03	13312.97
483.21	13514.25
483.39	13642.98
483.57	13549.36
483.74	13385.52
483.92	13467.44
484.10	13610.22
484.28	14005.77
484.46	14003.43
484.64	14265.57
484.82	14022.15
485.00	14059.60
485.18	14787.50
485.35	14626.01
485.53	14314.72
485.71	15063.69
485.89	15157.31
486.07	14862.40
486.25	15108.16
486.43	14951.34
486.61	15119.86
486.78	15304.76
486.96	15328.17
487.14	15747.12
487.32	15889.90
487.50	15857.13
487.68	15995.22
487.85	16070.12
488.03	16191.83
488.21	16561.63
488.39	16538.23
488.57	16783.98
488.75	17055.48
488.92	16982.93
489.10	17053.14
489.28	16828.45
489.46	17181.87
489.64	17439.33
489.81	17825.52
489.99	17811.48
490.17	17727.22
490.35	17933.18
490.53	17820.84
490.70	18333.42
490.88	18190.64
491.06	18469.17
491.24	18375.55
491.41	18560.45
491.59	18698.54
491.77	18597.90
491.95	19173.67
492.13	18972.38
492.30	19173.67
492.48	19023.87
492.66	19417.08
492.84	19386.66
493.01	19716.67
493.19	19672.20
493.37	20042.01
493.54	19908.60
493.72	20297.13
493.90	20102.86
494.08	20416.49
494.25	20245.63
494.43	20460.96
494.61	20624.80
494.79	20521.82
494.96	20706.72
495.14	20842.47
495.32	21109.29
495.49	21469.73
495.67	21350.37
495.85	21259.09
496.02	21743.58
496.20	21949.54
496.38	21624.21
496.55	21937.84
496.73	22141.47
496.91	22010.40
497.09	22075.93
497.26	22225.73
497.44	22361.48
497.62	22106.36
497.79	22937.25
497.97	22937.25
498.14	23044.91
498.32	22970.02
498.50	22824.90
498.67	23288.33
498.85	23229.82
499.03	23616.01
499.20	23557.49
499.38	23810.27
499.56	23807.93
499.73	23882.83
499.91	24030.28
500.08	24123.90
500.26	24114.54
500.44	23953.04
500.61	24489.03
500.79	24229.23
500.97	24004.53
501.14	24655.20
501.32	24842.45
501.49	25282.47
501.67	24718.40
501.84	24840.11
502.02	24868.19
502.20	24830.74
502.37	25025.01
502.55	25055.43
502.72	25378.43
502.90	25111.61
503.07	25242.68
503.25	25458.01
503.43	25532.90
503.60	25340.98
503.78	26033.78
503.95	25518.86
504.13	26155.49
504.30	25743.55
504.48	25755.26
504.65	26118.04
504.83	26127.40
505.01	26670.40
505.18	26618.91
505.36	26984.04
505.53	26515.93
505.71	26684.45
505.88	26431.67
506.06	26630.62
506.23	26742.96
506.41	27211.07
506.58	27218.09
506.76	27358.52
506.93	27550.45
507.11	27344.48
507.28	27365.54
507.46	27297.67
507.63	27866.42
507.81	27756.41
507.98	27529.38
508.16	27695.56
508.33	27555.13
508.50	27714.28
508.68	28247.93
508.85	28435.17
509.03	28046.64
509.20	28048.98
509.38	28561.56
509.55	28528.79
509.73	28755.82
509.90	28489.00
510.08	28711.35
510.25	28753.48
510.42	28636.45
510.60	28945.41
510.77	28826.04
510.95	29516.50
511.12	29223.93
511.30	29291.80
511.47	29387.77
511.64	29441.60
511.82	29315.21
511.99	29280.10
512.17	29560.97
512.34	29820.77
512.51	30169.51
512.69	30206.95
512.86	30003.33
513.04	30199.93
513.21	30118.01
513.38	30347.39
513.56	30679.74
513.73	30085.25
513.90	30213.98
514.08	29881.62
514.25	30455.05
514.43	30609.53
514.60	30726.55
514.77	31246.15
514.95	31026.14
515.12	31000.40
515.29	31152.53
515.47	31358.50
515.64	31372.54
515.81	31173.60
515.99	31194.66
516.16	31667.45
516.33	31409.99
516.51	31601.91
516.68	31332.75
516.85	31772.77
517.03	31927.25
517.20	31901.50
517.37	31641.70
517.54	32491.32
517.72	32002.14
517.89	32100.45
518.06	32313.44
518.24	32039.59
518.41	32374.29
518.58	32198.75
518.75	32362.59
518.93	32376.63
519.10	32381.31
519.27	32727.71
519.45	32374.29
519.62	32755.80
519.79	32987.51
519.96	32910.27
520.14	32877.51
520.31	32528.77
520.48	33022.62
520.65	33397.10
520.83	33139.65
521.00	33883.94
521.17	33603.07
521.34	33322.21
521.52	33394.76
521.69	33654.56
521.86	33919.04
522.03	33612.43
522.20	34071.18
522.38	34103.95
522.55	34338.00
522.72	33813.72
522.89	34094.58
523.07	34375.45
523.24	34045.43
523.41	34284.17
523.58	33947.13
523.75	34497.16
523.92	34321.62
524.10	34852.92
524.27	34778.02
524.44	34756.96
524.61	35246.13
524.78	34991.01
524.96	35379.54
525.13	35049.52
525.30	34925.47
525.47	35035.48
525.64	35098.67
525.81	35278.89
525.98	35658.06
526.16	35311.66
526.33	34918.45
526.50	35232.08
526.67	35402.94
526.84	35599.55
527.01	35950.63
527.18	35882.75
527.36	35697.85
527.53	35716.58
527.70	36311.07
527.87	36538.10
528.04	35672.10
528.21	36163.62
528.38	35845.30
528.55	36252.56
528.72	35791.47
528.89	36252.56
529.07	36172.98
529.24	36247.88
529.41	36264.26
529.58	36315.75
529.75	36290.01
529.92	36725.35
530.09	36725.35
530.26	36545.12
530.43	36725.35
530.60	36582.57
530.77	36751.09
530.94	36898.55
531.11	37060.04
531.28	37518.79
531.46	36854.08
531.63	37446.23
531.80	37394.74
531.97	37055.36
532.14	37474.32
532.31	37263.67
532.48	37284.73
532.65	37361.97
532.82	37514.11
532.99	37963.49
533.16	37762.20
533.33	37762.20
533.50	37397.08
533.67	37825.40
533.84	37408.78
534.01	37684.97
534.18	37745.82
534.35	38110.94
534.52	38466.70
534.69	38146.05
534.86	38555.64
535.03	38199.88
535.20	38419.89
535.37	38197.54
535.54	38836.51
535.71	38361.38
535.88	38609.48
536.05	38440.96
536.22	38663.31
536.38	38719.48
536.55	38569.69
536.72	38766.29
536.89	38616.50
537.06	38782.68
537.23	39063.54
537.40	39108.01
537.57	38946.51
537.74	38396.49
537.91	39215.68
538.08	38759.27
538.25	38574.37
538.42	39419.30
538.59	39445.05
538.75	38983.96
538.92	39562.08
539.09	39201.63
539.26	39784.43
539.43	39435.69
539.60	39669.74
539.77	39704.85
539.94	39739.96
540.11	40006.78
540.28	39763.36
540.44	39885.07
540.61	39948.26
540.78	39814.85
540.95	39704.85
541.12	39452.07
541.29	39615.91
541.46	39915.50
541.62	39782.09
541.79	40535.74
541.96	39854.64
542.13	39873.37
542.30	39871.03
542.47	39948.26
542.63	40718.30
542.80	40374.24
542.97	40884.48
543.14	40917.25
543.31	40135.51
543.48	40931.29
543.64	40992.14
543.81	41640.47
543.98	40884.48
544.15	41310.46
544.32	40982.78
544.48	41404.08
544.65	41067.04
544.82	41233.22
544.99	41216.83
545.16	41226.20
545.32	41280.03
545.49	41418.12
545.66	41668.56
545.83	41588.98
546.00	42010.28
546.16	41511.74
546.33	41090.44
546.50	41350.24
546.67	41790.27
546.83	41219.17
547.00	41844.10
547.17	41614.72
547.34	41979.85
547.50	41453.23
547.67	42019.64
547.84	41680.26
548.00	42089.85
548.17	42342.63
548.34	41851.12
548.51	42295.82
548.67	42141.35
548.84	41881.55
549.01	41951.76
549.18	42160.07
549.34	42323.91
549.51	42597.75
549.68	42253.69
549.84	42382.42
550.01	42492.43
550.18	42096.88
550.34	42487.74
550.51	42309.86
550.68	42611.79
550.84	42174.11
551.01	42719.46
551.18	42621.16
551.34	42679.67
551.51	42852.87
551.68	42328.59
551.84	42536.90
552.01	42749.88
552.18	42518.17
552.34	42763.93
552.51	42827.12
552.68	42897.34
552.84	42773.29
553.01	43171.18
553.18	43246.08
553.34	43213.31
553.51	43042.45
553.67	43133.73
553.84	43571.41
554.01	43269.48
554.17	43316.29
554.34	43360.76
554.51	43129.05
554.67	43840.57
554.84	43466.09
555.00	43487.15
555.17	43540.99
555.33	43648.65
555.50	43173.52
555.67	43426.30
555.83	43749.29
556.00	43613.54
556.16	44322.72
556.33	44065.27
556.50	43952.92
556.66	43601.84
556.83	43430.98
556.99	43852.28
557.16	44329.75
557.32	44294.64
557.49	44301.66
557.65	43711.84
557.82	43920.15
557.98	44081.65
558.15	44322.72
558.32	43936.54
558.48	44203.36
558.65	44374.22
558.81	44208.04
558.98	43962.28
559.14	44240.81
559.31	44341.45
559.47	44364.85
559.64	44369.54
559.80	44018.46
559.97	44428.05
560.13	44259.53
560.30	44788.49
560.46	44385.92
560.63	44212.72
560.79	44542.74
560.96	44928.92
561.12	44500.61
561.29	44652.74
561.45	44465.50
561.61	44409.32
561.78	44488.90
561.94	44282.94
562.11	44538.05
562.27	44428.05
562.44	44725.30
562.60	44304.00
562.77	44610.61
562.93	44751.04
563.10	45280.00
563.26	44577.84
563.42	45668.53
563.59	44631.68
563.75	44128.46
563.92	44790.83
564.08	44662.10
564.24	44954.67
564.41	45216.81
564.57	44849.35
564.74	44996.80
564.90	44872.75
565.07	44900.84
565.23	44570.82
565.39	44776.79
565.56	44463.16
565.72	44748.70
565.88	45233.19
566.05	44982.76
566.21	45001.48
566.38	44910.20
566.54	45050.63
566.70	45530.44
566.87	45572.57
567.03	44863.39
567.19	45703.64
567.36	45446.18
567.52	44828.28
567.68	45261.28
567.85	45352.56
568.01	45291.71
568.17	45104.46
568.34	45324.47
568.50	45221.49
568.66	45172.34
568.83	45612.36
568.99	45350.22
569.15	45415.76
569.32	45361.92
569.48	45144.25
569.64	45368.94
569.81	45584.27
569.97	45713.00
570.13	45567.89
570.30	45181.70
570.46	45467.25
570.62	45495.33
570.78	45603.00
570.95	45448.52
571.11	45558.53
571.27	45471.93
571.43	45558.53
571.60	45900.25
571.76	45474.27
571.92	45294.05
572.09	45858.12
572.25	45478.95
572.41	45209.79
572.57	45457.88
572.74	45532.78
572.90	45633.42
573.06	45993.87
573.22	45469.59
573.38	46363.67
573.55	45830.03
573.71	46054.72
573.87	45780.88
574.03	45888.54
574.20	45907.27
574.36	45701.30
574.52	45982.16
574.68	45703.64
574.84	46211.54
575.01	46120.26
575.17	46007.91
575.33	45750.45
575.49	45621.72
575.65	45890.88
575.82	46113.23
575.98	45280.00
576.14	46298.14
576.30	46202.18
576.46	46043.02
576.62	45553.85
576.79	45982.16
576.95	45553.85
577.11	45605.34
577.27	45610.02
577.43	45886.20
577.59	45731.73
577.75	45734.07
577.92	45783.22
578.08	46080.47
578.24	46028.98
578.40	46344.95
578.56	45900.25
578.72	45951.74
578.88	46347.29
579.04	46230.26
579.21	46260.69
579.37	45635.77
579.53	46295.80
579.69	46124.94
579.85	45764.49
580.01	46153.02
580.17	46314.52
580.33	46220.90
580.49	46246.65
580.65	46103.87
580.82	46387.08
580.98	46251.33
581.14	45839.39
581.30	45970.46
581.46	46225.58
581.62	45785.56
581.78	45666.19
581.94	46138.98
582.10	46202.18
582.26	45876.84
582.42	45972.80
582.58	46279.41
582.74	46667.94
582.90	45977.48
583.06	46274.73
583.22	45956.42
583.38	46110.89
583.54	46227.92
583.70	46363.67
583.86	46019.61
584.02	45811.31
584.18	46651.56
584.34	46342.61
584.50	46206.86
584.66	46464.32
584.82	46057.06
584.98	46190.47
585.14	46047.70
585.30	46246.65
585.46	46127.28
585.62	46155.36
585.78	46323.88
585.94	45970.46
586.10	46211.54
586.26	46146.00
586.42	46106.21
586.58	46113.23
586.74	46050.04
586.90	46295.80
587.06	46162.39
587.22	46492.40
587.38	46548.57
587.54	46454.95
587.70	46508.79
587.86	46494.74
588.02	46436.23
588.18	46021.95
588.34	46127.28
588.49	46532.19
588.65	46213.88
588.81	46302.82
588.97	46621.13
589.13	46534.53
589.29	46366.01
589.45	46679.64
589.61	46583.68
589.77	46534.53
589.93	46419.84
590.08	46623.47
