SpectraSuite Data File
++++++++++++++++++++++++++++++++++++
Date: Fri Oct 25 11:25:30 EDT 2013
User: price-jones
Dark Spectrum Present: No
Reference Spectrum Present: No
Number of Sampled Component Spectra: 1
Spectrometers: USB2+H05261
Integration Time (usec): 100000 (USB2+H05261)
Spectra Averaged: 1 (USB2+H05261)
Boxcar Smoothing: 0 (USB2+H05261)
Correct for Electrical Dark: No (USB2+H05261)
Strobe/Lamp Enabled: No (USB2+H05261)
Correct for Detector Non-linearity: No (USB2+H05261)
Correct for Stray Light: No (USB2+H05261)
Number of Pixels in Processed Spectrum: 2048
>>>>>Begin Processed Spectral Data<<<<<
365.73	217.67
365.92	217.67
366.12	217.67
366.32	121.71
366.52	100.64
366.72	163.84
366.91	161.50
367.11	14.04
367.31	170.86
367.51	121.71
367.70	208.31
367.90	194.26
368.10	100.64
368.30	100.64
368.49	142.77
368.69	170.86
368.89	112.35
369.09	182.56
369.28	161.50
369.48	191.92
369.68	135.75
369.87	161.50
370.07	175.54
370.27	287.89
370.47	285.55
370.66	571.09
370.86	648.33
371.06	725.57
371.25	720.88
371.45	681.10
371.65	664.71
371.84	622.58
372.04	744.29
372.24	674.07
372.44	730.25
372.63	772.38
372.83	765.36
373.03	770.04
373.22	720.88
373.42	821.53
373.62	763.01
373.81	725.57
374.01	723.23
374.21	835.57
374.40	844.93
374.60	851.96
374.79	819.19
374.99	758.33
375.19	795.78
375.38	858.98
375.58	828.55
375.78	795.78
375.97	840.25
376.17	908.13
376.37	856.64
376.56	868.34
376.76	833.23
376.95	877.70
377.15	835.57
377.35	926.85
377.54	894.08
377.74	849.61
377.93	833.23
378.13	866.00
378.33	1048.56
378.52	952.60
378.72	926.85
378.91	903.45
379.11	896.43
379.31	973.66
379.50	961.96
379.70	961.96
379.89	971.32
380.09	919.83
380.28	952.60
380.48	901.11
380.68	943.24
380.87	1020.47
381.07	1025.15
381.26	999.41
381.46	1036.86
381.65	968.98
381.85	1076.65
382.04	1088.35
382.24	1076.65
382.43	1076.65
382.63	1032.18
382.83	1109.41
383.02	1186.65
383.22	1025.15
383.41	1116.44
383.61	1184.31
383.80	1104.73
384.00	1193.67
384.19	1067.28
384.39	1179.63
384.58	1109.41
384.78	1104.73
384.97	1137.50
385.17	1151.54
385.36	1095.37
385.56	1160.91
385.75	1123.46
385.95	1086.01
386.14	1144.52
386.34	1214.74
386.53	1228.78
386.72	1184.31
386.92	1188.99
387.11	1289.64
387.31	1233.46
387.50	1254.53
387.70	1277.93
387.89	1287.29
388.09	1249.85
388.28	1226.44
388.48	1266.23
388.67	1284.95
388.86	1322.40
389.06	1275.59
389.25	1371.55
389.45	1423.05
389.64	1210.06
389.84	1390.28
390.03	1387.94
390.22	1394.96
390.42	1401.98
390.61	1416.02
390.81	1378.58
391.00	1469.86
391.19	1519.01
391.39	1401.98
391.58	1474.54
391.78	1434.75
391.97	1467.52
392.16	1511.99
392.36	1607.95
392.55	1441.77
392.75	1460.49
392.94	1540.07
393.13	1535.39
393.33	1502.62
393.52	1600.93
393.71	1687.53
393.91	1551.78
394.10	1540.07
394.29	1591.56
394.49	1614.97
394.68	1668.80
394.88	1633.69
395.07	1579.86
395.26	1598.59
395.46	1699.23
395.65	1790.51
395.84	1671.14
396.04	1715.61
396.23	1685.19
396.42	1713.27
396.62	1799.87
396.81	1825.62
397.00	1834.98
397.19	1844.34
397.39	1797.53
397.58	1832.64
397.77	1846.68
397.97	1741.36
398.16	1886.47
398.35	1877.11
398.55	1937.96
398.74	1930.94
398.93	1989.46
399.12	1952.01
399.32	1806.89
399.51	1954.35
399.70	2012.86
399.90	1968.39
400.09	2043.29
400.28	2001.16
400.47	2031.58
400.67	2012.86
400.86	2022.22
401.05	2073.71
401.24	2094.78
401.44	2064.35
401.63	1963.71
401.82	2167.34
402.01	2160.31
402.21	2157.97
402.40	2097.12
402.59	2132.23
402.78	2204.78
402.97	2279.68
403.17	2188.40
403.36	2284.36
403.55	2246.91
403.74	2431.82
403.93	2232.87
404.13	2324.15
404.32	2452.88
404.51	2368.62
404.70	2403.73
404.89	2408.41
405.09	2457.56
405.28	2504.37
405.47	2469.27
405.66	2476.29
405.85	2443.52
406.05	2457.56
406.24	2502.03
406.43	2455.22
406.62	2565.23
406.81	2705.66
407.00	2523.10
407.20	2590.97
407.39	2658.85
407.58	2712.68
407.77	2633.10
407.96	2717.36
408.15	2661.19
408.34	2808.64
408.54	2810.98
408.73	2736.09
408.92	2750.13
409.11	2913.97
409.30	2825.03
409.49	2871.84
409.68	2897.58
409.87	2759.49
410.07	2944.39
410.26	2899.92
410.45	2937.37
410.64	3035.67
410.83	3014.61
411.02	3063.76
411.21	3082.49
411.40	3141.00
411.59	3267.39
411.78	3164.40
411.98	3026.31
412.17	3136.32
412.36	3183.13
412.55	3265.05
412.74	3290.79
412.93	3344.63
413.12	3335.26
413.31	3531.87
413.50	3382.07
413.69	3473.36
413.88	3695.71
414.07	3602.08
414.26	3475.70
414.45	3679.32
414.64	3667.62
414.83	3698.05
415.02	3779.97
415.22	3854.86
415.41	3871.25
415.60	3920.40
415.79	3840.82
415.98	3946.14
416.17	3913.38
416.36	3911.04
416.55	4016.36
416.74	4081.89
416.93	4053.81
417.12	4156.79
417.31	4088.92
417.50	4100.62
417.69	4159.13
417.88	4290.20
418.07	4184.88
418.26	4227.01
418.45	4318.29
418.64	4458.72
418.83	4393.19
419.02	4400.21
419.21	4535.96
419.39	4503.19
419.58	4472.76
419.77	4510.21
419.96	4451.70
420.15	4631.92
420.34	4482.13
420.53	4580.43
420.72	4650.64
420.91	4678.73
421.10	4809.80
421.29	4664.69
421.48	4622.56
421.67	4720.86
421.86	4865.97
422.05	4716.18
422.24	4781.71
422.43	4842.57
422.61	4800.44
422.80	4926.83
422.99	4880.02
423.18	4795.76
423.37	4968.96
423.56	4938.53
423.75	4943.21
423.94	4905.76
424.13	4690.43
424.32	4601.49
424.50	4959.60
424.69	4950.23
424.88	5153.86
425.07	4975.98
425.26	4683.41
425.45	4830.87
425.64	4961.94
425.83	4833.21
426.01	4994.70
426.20	5055.56
426.39	5100.03
426.58	5018.11
426.77	4905.76
426.96	5228.76
427.15	5022.79
427.33	5341.10
427.52	5114.07
427.71	5313.02
427.90	5107.05
428.09	5121.09
428.28	5254.50
428.46	5238.12
428.65	5221.74
428.84	5352.81
429.03	5488.56
429.22	5294.29
429.40	5408.98
429.59	5434.72
429.78	5200.67
429.97	5348.12
430.16	5563.45
430.34	5507.28
430.53	5514.30
430.72	5511.96
430.91	5582.18
431.10	5434.72
431.28	5680.48
431.47	5699.20
431.66	5755.38
431.85	5673.46
432.03	5837.30
432.22	5996.45
432.41	5921.56
432.60	5956.66
432.79	5809.21
432.97	5849.00
433.16	6001.13
433.35	5900.49
433.54	6031.56
433.72	6122.84
433.91	6120.50
434.10	6099.44
434.28	5935.60
434.47	6015.18
434.66	6043.26
434.85	6085.39
435.03	6169.65
435.22	6202.42
435.41	6361.58
435.59	6333.49
435.78	6422.43
435.97	6176.67
436.16	6438.81
436.34	6249.23
436.53	6436.47
436.72	6682.23
436.90	6492.65
437.09	6609.67
437.28	6345.19
437.46	6700.95
437.65	6619.04
437.84	6834.36
438.02	6668.19
438.21	6789.89
438.40	6619.04
438.58	6836.70
438.77	7084.80
438.96	6923.30
439.14	6906.92
439.33	7000.54
439.52	7183.10
439.70	7126.93
439.89	7206.51
440.08	7342.26
440.26	7314.17
440.45	7323.54
440.63	7442.90
440.82	7428.86
441.01	7569.29
441.19	7686.32
441.38	7698.02
441.57	7660.57
441.75	7616.10
441.94	8039.74
442.12	7779.94
442.31	8079.53
442.50	8009.31
442.68	7927.39
442.87	7882.92
443.05	8077.19
443.24	8252.73
443.43	8016.33
443.61	8196.56
443.80	8383.80
443.98	8004.63
444.17	7754.19
444.35	8226.98
444.54	8521.89
444.73	8241.03
444.91	8215.28
445.10	8465.72
445.28	8292.52
445.47	8430.61
445.65	8229.32
445.84	8353.37
446.02	8477.42
446.21	8376.78
446.39	8311.24
446.58	8428.27
446.77	8318.26
446.95	8128.68
447.14	8416.57
447.32	8540.61
447.51	8390.82
447.69	8372.10
447.88	8510.19
448.06	8535.93
448.25	8451.67
448.43	8376.78
448.62	8554.66
448.80	8425.93
448.99	8737.22
449.17	8468.06
449.36	8767.65
449.54	8788.71
449.73	8861.27
449.91	8945.53
450.10	8798.07
450.28	9200.65
450.46	8851.91
450.65	8875.31
450.83	8910.42
451.02	8781.69
451.20	9310.65
451.39	9027.45
451.57	8966.59
451.76	9081.28
451.94	9336.40
452.13	9254.48
452.31	9191.28
452.49	9219.37
452.68	9163.20
452.86	9298.95
453.05	9371.50
453.23	9507.26
453.42	9132.77
453.60	9455.76
453.78	9525.98
453.97	9441.72
454.15	9387.89
454.34	9179.58
454.52	9549.39
454.70	9699.18
454.89	9715.56
455.07	9631.30
455.26	9809.19
455.44	9755.35
455.62	9905.15
455.81	10068.98
455.99	10029.20
456.17	9834.93
456.36	10008.13
456.54	10043.24
456.73	10068.98
456.91	10478.58
457.09	10125.16
457.28	10689.23
457.46	10321.76
457.64	10586.24
457.83	10354.53
458.01	10354.53
458.19	10551.14
458.38	10478.58
458.56	10457.51
458.74	10633.05
458.93	10539.43
459.11	10583.90
459.29	10616.67
459.48	10707.95
459.66	10857.75
459.84	10860.09
460.03	10913.92
460.21	10832.00
460.39	10855.40
460.57	10946.69
460.76	10911.58
460.94	11124.57
461.12	11199.46
461.31	10890.51
461.49	10846.04
461.67	11091.80
461.85	11470.97
462.04	11255.64
462.22	11798.64
462.40	11501.39
462.59	11262.66
462.77	11257.98
462.95	11417.13
463.13	11475.65
463.32	11377.34
463.50	11676.93
463.68	11831.41
463.86	11585.65
464.05	11573.95
464.23	11634.80
464.41	12016.31
464.59	11379.68
464.78	12138.02
464.96	11803.32
465.14	11779.92
465.32	12063.12
465.50	12058.44
465.69	12159.08
465.87	11910.99
466.05	11941.41
466.23	12149.72
466.41	12086.53
466.60	12203.55
466.78	12187.17
466.96	12306.54
467.14	12173.13
467.32	12334.62
467.51	12383.77
467.69	12304.20
467.87	12524.21
468.05	12468.03
468.23	12173.13
468.41	12173.13
468.60	12463.35
468.78	12901.03
468.96	12507.82
469.14	12697.41
469.32	12821.45
469.50	12533.57
469.69	12788.69
469.87	12865.92
470.05	13053.17
470.23	13008.70
470.41	12975.93
470.59	13099.98
470.77	13074.23
470.95	13252.11
471.14	13378.50
471.32	12912.74
471.50	13296.58
471.68	13483.83
471.86	13638.30
472.04	13418.29
472.22	13888.74
472.40	13561.06
472.58	13540.00
472.77	13778.73
472.95	13968.32
473.13	14630.69
473.31	13916.83
473.49	14221.10
473.67	14176.62
473.85	14146.20
474.03	14272.59
474.21	14614.30
474.39	14890.49
474.57	14614.30
474.75	14679.84
474.93	14839.00
475.12	14899.85
475.30	14747.72
475.48	15096.46
475.66	15293.06
475.84	14801.55
476.02	15260.29
476.20	15199.44
476.38	15466.26
476.56	15887.56
476.74	15784.57
476.92	15662.86
477.10	15632.44
477.28	15885.22
477.46	16161.40
477.64	16273.74
477.82	16360.34
478.00	16812.07
478.18	16844.84
478.36	16854.20
478.54	17083.57
478.72	16905.69
478.90	17245.07
479.08	17486.14
479.26	17549.34
479.44	17666.36
479.62	17809.14
479.80	17909.78
479.98	18230.43
480.16	18366.18
480.34	18111.07
480.52	18434.06
480.70	18359.16
480.88	18403.63
481.06	18675.13
481.24	18548.75
481.41	18829.61
481.59	19183.03
481.77	19386.66
481.95	19311.76
482.13	19564.54
482.31	19307.08
482.49	20086.48
482.67	19934.34
482.85	20446.92
483.03	20437.56
483.21	20463.30
483.39	20905.66
483.57	20900.98
483.74	20863.54
483.92	21319.94
484.10	20978.22
484.28	21401.86
484.46	21703.79
484.64	22059.55
484.82	21766.98
485.00	22141.47
485.18	22270.20
485.35	23016.83
485.53	22738.30
485.71	22843.63
485.89	23147.90
486.07	23309.40
486.25	22890.44
486.43	23344.50
486.61	23578.56
486.78	23697.92
486.96	23990.49
487.14	24381.36
487.32	24458.60
487.50	24662.22
487.68	24819.04
487.85	25177.14
488.03	25490.77
488.21	25556.31
488.39	25656.95
488.57	26001.01
488.75	25795.04
488.92	26199.96
489.10	26492.52
489.28	26522.95
489.46	27119.79
489.64	27000.42
489.81	27337.46
489.99	27695.56
490.17	27431.08
490.35	28503.04
490.53	27812.59
490.70	28077.07
490.88	28133.24
491.06	28762.84
491.24	28332.18
491.41	28858.81
491.59	28882.21
491.77	28800.29
491.95	29614.80
492.13	29483.73
492.30	30129.72
492.48	29813.74
492.66	30096.95
492.84	30040.78
493.01	30682.08
493.19	30656.34
493.37	30761.66
493.54	31063.59
493.72	31227.43
493.90	30731.23
494.08	31747.03
494.25	31508.29
494.43	32222.16
494.61	32100.45
494.79	32388.33
494.96	32063.00
495.14	32580.26
495.32	33034.32
495.49	32566.21
495.67	33078.79
495.85	33247.31
496.02	33324.55
496.20	33551.58
496.38	33865.21
496.55	33830.10
496.73	34946.54
496.91	34520.56
497.09	34401.19
497.26	34466.73
497.44	34836.53
497.62	35269.53
497.79	35290.60
497.97	35075.27
498.14	35524.65
498.32	36018.50
498.50	36044.25
498.67	36474.91
498.85	36123.83
499.03	36336.82
499.20	36554.49
499.38	36458.52
499.56	37029.62
499.73	36400.01
499.91	36896.20
500.08	37125.58
500.26	37095.15
500.44	37420.48
500.61	37968.17
500.79	37464.96
500.97	37883.91
501.14	38265.42
501.32	38302.87
501.49	38356.70
501.67	38401.17
501.84	38686.71
502.02	38520.54
502.20	38831.83
502.37	38794.38
502.55	38796.72
502.72	39313.98
502.90	39597.18
503.07	39246.10
503.25	39271.85
503.43	39009.71
503.60	39873.37
503.78	39868.69
503.95	40179.98
504.13	40114.44
504.30	39922.52
504.48	40301.68
504.65	40367.22
504.83	40643.40
505.01	41001.50
505.18	41329.18
505.36	41371.31
505.53	40933.63
505.71	41193.43
505.88	41216.83
506.06	41146.62
506.23	41694.30
506.41	41677.92
506.58	41783.24
506.76	41907.29
506.93	42492.43
507.11	42080.49
507.28	42639.88
507.46	42384.76
507.63	42279.44
507.81	42820.10
507.98	42927.77
508.16	42820.10
508.33	43098.62
508.50	42946.49
508.68	42981.60
508.85	43648.65
509.03	43533.96
509.20	43784.40
509.38	44011.43
509.55	44051.22
509.73	44353.15
509.90	44191.65
510.08	44151.87
510.25	44215.06
510.42	44175.27
510.60	45015.52
510.77	44910.20
510.95	44999.14
511.12	44900.84
511.30	44526.35
511.47	45401.71
511.64	45139.57
511.82	45947.06
511.99	45537.46
512.17	45125.53
512.34	45102.12
512.51	46188.13
512.69	46124.94
512.86	45741.09
513.04	46609.43
513.21	46244.30
513.38	46209.20
513.56	46700.71
513.73	46403.46
513.90	46787.31
514.08	46319.20
514.25	46738.16
514.43	47136.05
514.60	47014.34
514.77	46873.91
514.95	47349.04
515.12	47269.46
515.29	47379.46
515.47	47765.65
515.64	48154.18
515.81	47674.37
515.99	47920.13
516.16	47920.13
516.33	48083.97
516.51	48266.53
516.68	48229.08
516.85	48416.32
517.03	48795.49
517.20	48685.48
517.37	48451.43
517.54	48603.56
517.72	48790.81
517.89	48215.04
518.06	48484.20
518.24	48732.29
518.41	48865.70
518.58	48945.28
518.75	49071.67
518.93	49357.22
519.10	49123.16
519.27	49542.12
519.45	49586.59
519.62	49661.49
519.79	49778.51
519.96	49862.77
520.14	49867.45
520.31	49731.70
520.48	50309.82
520.65	49535.10
520.83	50389.39
521.00	50525.14
521.17	50225.56
521.34	50108.53
521.52	50197.47
521.69	50368.33
521.86	50628.13
522.03	50916.01
522.20	51360.72
522.38	51033.04
522.55	51229.65
522.72	51208.58
522.89	50653.87
523.07	51358.38
523.24	51278.80
523.41	51459.02
523.58	51068.15
523.75	51812.44
523.92	51707.12
524.10	51622.86
524.27	51674.35
524.44	51896.70
524.61	51763.29
524.78	51973.94
524.96	51690.73
525.13	52030.11
525.30	52243.10
525.47	52411.62
525.64	52271.18
525.81	52704.18
525.98	52523.96
526.16	52367.15
526.33	52266.50
526.50	52783.76
526.67	52472.47
526.84	52402.25
527.01	52633.97
527.18	52566.09
527.36	52563.75
527.53	52669.08
527.70	53275.27
527.87	53223.78
528.04	53003.77
528.21	53127.82
528.38	53038.88
528.55	53600.61
528.72	52989.73
528.89	53427.41
529.07	52982.71
529.24	53146.54
529.41	53523.37
529.58	53429.75
529.75	53186.33
529.92	53588.91
530.09	53595.93
530.26	53579.54
530.43	53745.72
530.60	53649.76
530.77	53712.95
530.94	53785.51
531.11	53804.24
531.28	53846.36
531.46	53918.92
531.63	53708.27
531.80	53965.73
531.97	54309.79
532.14	54248.94
532.31	54192.76
532.48	54382.35
532.65	54218.51
532.82	54260.64
532.99	54300.43
533.16	54265.32
533.33	54632.78
533.50	54688.96
533.67	54560.23
533.84	54536.82
534.01	54803.64
534.18	54621.08
534.35	54997.91
534.52	54850.45
534.69	54871.52
534.86	54899.61
535.03	54951.10
535.20	54813.01
535.37	55044.72
535.54	55084.51
535.71	54817.69
535.88	55128.98
536.05	55288.13
536.22	55379.42
536.38	55444.95
536.55	55285.79
536.72	55405.16
536.89	55145.36
537.06	55501.12
537.23	55447.29
537.40	55618.15
537.57	55466.02
537.74	55391.12
537.91	55674.32
538.08	55676.66
538.25	55533.89
538.42	55714.11
538.59	55838.16
538.75	55910.72
538.92	56128.39
539.09	56182.22
539.26	56053.49
539.43	55870.93
539.60	56081.58
539.77	55978.59
539.94	55971.57
540.11	56151.79
540.28	56168.18
540.44	56299.25
540.61	56383.51
540.78	56238.39
540.95	56189.24
541.12	56245.41
541.29	56353.08
541.46	56250.09
541.62	56488.83
541.79	56486.49
541.96	56058.17
542.13	56453.72
542.30	56355.42
542.47	56692.46
542.63	56914.81
542.80	56545.00
542.97	56793.10
543.14	56903.10
543.31	56818.84
543.48	57020.13
543.64	57165.24
543.81	57282.27
543.98	57144.18
544.15	57006.09
544.32	57195.67
544.48	57392.28
544.65	56914.81
544.82	56968.64
544.99	57092.69
545.16	57237.80
545.32	57118.43
545.49	57581.86
545.66	57364.19
545.83	57244.82
546.00	57392.28
546.16	57446.11
546.33	57364.19
546.50	57350.15
546.67	57499.94
546.83	57329.08
547.00	57563.14
547.17	57593.56
547.34	57556.11
547.50	58052.31
547.67	57937.62
547.84	57918.90
548.00	57701.23
548.17	57954.00
548.34	57979.75
548.51	58033.58
548.67	57949.32
548.84	57731.65
549.01	57841.66
549.18	57942.30
549.34	57972.73
549.51	58024.22
549.68	58206.78
549.84	58211.46
550.01	58216.14
550.18	58061.67
550.34	58321.47
550.51	58202.10
550.68	58220.83
550.84	58038.26
551.01	58487.65
551.18	58244.23
551.34	58401.05
551.51	58319.13
551.68	58445.52
551.84	58384.66
552.01	58145.93
552.18	58375.30
552.34	58340.19
552.51	58532.12
552.68	58209.12
552.84	58695.95
553.01	58784.90
553.18	58714.68
553.34	58581.27
553.51	58702.98
553.67	58651.48
553.84	58635.10
554.01	58717.02
554.17	58906.60
554.34	58899.58
554.51	58841.07
554.67	59002.56
554.84	58756.81
555.00	58920.65
555.17	58850.43
555.33	58745.11
555.50	58747.45
555.67	58515.73
555.83	58906.60
556.00	58871.49
556.16	59175.76
556.33	58951.07
556.50	59030.65
556.66	59161.72
556.83	59143.00
556.99	59325.56
557.16	59121.93
557.32	59290.45
557.49	59480.03
557.65	59325.56
557.82	59253.00
557.98	59023.63
558.15	59355.99
558.32	59210.87
558.48	59274.07
558.65	59388.75
558.81	59285.77
558.98	59463.65
559.14	59318.54
559.31	59423.86
559.47	59423.86
559.64	59522.16
559.80	59414.50
559.97	59683.66
560.13	59245.98
560.30	59498.76
560.46	59629.83
560.63	59737.49
560.79	59531.53
560.96	59671.96
561.12	59625.15
561.29	59873.24
561.45	59573.66
561.61	59566.63
561.78	59503.44
561.94	59442.59
562.11	59576.00
562.27	59669.62
562.44	59767.92
562.60	59856.86
562.77	59847.50
562.93	59671.96
563.10	59950.48
563.26	59983.25
563.42	59976.23
563.59	59828.77
563.75	59767.92
563.92	59756.22
564.08	59891.97
564.24	59957.50
564.41	59917.71
564.57	60006.65
564.74	59810.05
564.90	59891.97
565.07	59990.27
565.23	60004.31
565.39	59931.76
565.56	60168.15
565.72	60055.81
565.88	59943.46
566.05	59686.00
566.21	60114.32
566.38	59779.62
566.54	60177.51
566.70	60175.17
566.87	60058.15
567.03	59948.14
567.19	60406.89
567.36	60030.06
567.52	60046.44
567.68	60322.63
567.85	59941.12
568.01	60219.64
568.17	60020.70
568.34	60177.51
568.50	60467.74
568.66	60163.47
568.83	60292.20
568.99	60226.66
569.15	60247.73
569.32	60093.25
569.48	60229.01
569.64	60378.80
569.81	60308.58
569.97	60259.43
570.13	60434.97
570.30	60296.88
570.46	60484.12
570.62	60439.65
570.78	60364.76
570.95	60465.40
571.11	60486.46
571.27	60364.76
571.43	60343.69
571.60	60376.46
571.76	60306.24
571.92	60388.16
572.09	60399.86
572.25	60378.80
572.41	60512.21
572.57	60526.25
572.74	60577.75
572.90	60317.95
573.06	60610.51
573.22	60566.04
573.38	60392.84
573.55	60383.48
573.71	60699.45
573.87	60434.97
574.03	60477.10
574.20	60650.30
574.36	60559.02
574.52	60601.15
574.68	60652.64
574.84	60591.79
575.01	60647.96
575.17	60587.11
575.33	60156.45
575.49	60427.95
575.65	60420.93
575.82	60750.94
575.98	60650.30
576.14	60706.47
576.30	60734.56
576.46	60516.89
576.62	60533.28
576.79	60467.74
576.95	60406.89
577.11	60526.25
577.27	60671.37
577.43	60739.24
577.59	60701.79
577.75	60673.71
577.92	60512.21
578.08	60505.19
578.24	60577.75
578.40	60753.29
578.56	60610.51
578.72	60456.04
578.88	60970.96
579.04	60949.89
579.21	60750.94
579.37	60676.05
579.53	60757.97
579.69	60566.04
579.85	60619.88
580.01	60631.58
580.17	60449.02
580.33	60736.90
580.49	60781.37
580.65	60556.68
580.82	60683.07
580.98	60598.81
581.14	60615.19
581.30	61017.77
581.46	60697.11
581.62	60596.47
581.78	60636.26
581.94	60669.03
582.10	60853.93
582.26	60659.66
582.42	60687.75
582.58	60807.12
582.74	60638.60
582.90	60865.63
583.06	60762.65
583.22	60825.84
583.38	60774.35
583.54	60549.66
583.70	60729.88
583.86	60898.40
584.02	60783.71
584.18	60879.67
584.34	60694.77
584.50	60917.12
584.66	60617.53
584.82	60755.63
584.98	61059.90
585.14	60865.63
585.30	60821.16
585.46	60764.99
585.62	60870.31
585.78	60860.95
585.94	60769.67
586.10	60825.84
586.26	60797.76
586.42	60914.78
586.58	60790.73
586.74	60732.22
586.90	60842.23
587.06	60762.65
587.22	61120.75
587.38	60650.30
587.54	61102.03
587.70	61069.26
587.86	60954.57
588.02	60884.36
588.18	61052.87
588.34	60755.63
588.49	61029.47
