SpectraSuite Data File
++++++++++++++++++++++++++++++++++++
Date: Fri Oct 25 11:25:09 EDT 2013
User: price-jones
Dark Spectrum Present: No
Reference Spectrum Present: No
Number of Sampled Component Spectra: 1
Spectrometers: USB2+H05261
Integration Time (usec): 100000 (USB2+H05261)
Spectra Averaged: 1 (USB2+H05261)
Boxcar Smoothing: 0 (USB2+H05261)
Correct for Electrical Dark: No (USB2+H05261)
Strobe/Lamp Enabled: No (USB2+H05261)
Correct for Detector Non-linearity: No (USB2+H05261)
Correct for Stray Light: No (USB2+H05261)
Number of Pixels in Processed Spectrum: 2048
>>>>>Begin Processed Spectral Data<<<<<
365.73	273.84
365.92	273.84
366.12	273.84
366.32	140.43
366.52	166.18
366.72	133.41
366.91	184.90
367.11	142.77
367.31	126.39
367.51	145.11
367.70	98.30
367.90	175.54
368.10	77.24
368.30	128.73
368.49	147.45
368.69	121.71
368.89	166.18
369.09	203.63
369.28	98.30
369.48	196.60
369.68	238.73
369.87	210.65
370.07	138.09
370.27	222.35
370.47	334.70
370.66	596.84
370.86	613.22
371.06	678.76
371.25	678.76
371.45	706.84
371.65	648.33
371.84	678.76
372.04	627.26
372.24	720.88
372.44	746.63
372.63	760.67
372.83	685.78
373.03	793.44
373.22	734.93
373.42	741.95
373.62	774.72
373.81	779.40
374.01	791.10
374.21	800.46
374.40	847.27
374.60	837.91
374.79	805.14
374.99	854.30
375.19	901.11
375.38	884.72
375.58	863.66
375.78	889.40
375.97	821.53
376.17	968.98
376.37	847.27
376.56	821.53
376.76	889.40
376.95	812.17
377.15	894.08
377.35	840.25
377.54	861.32
377.74	858.98
377.93	823.87
378.13	987.71
378.33	971.32
378.52	1050.90
378.72	1015.79
378.91	938.55
379.11	912.81
379.31	924.51
379.50	856.64
379.70	1001.75
379.89	938.55
380.09	912.81
380.28	957.28
380.48	966.64
380.68	894.08
380.87	980.68
381.07	997.07
381.26	945.58
381.46	1001.75
381.65	1027.50
381.85	992.39
382.04	1011.11
382.24	1069.62
382.43	1100.05
382.63	1067.28
382.83	1011.11
383.02	1093.03
383.22	1235.80
383.41	1034.52
383.61	1104.73
383.80	1142.18
384.00	1139.84
384.19	1174.95
384.39	1025.15
384.58	1097.71
384.78	1142.18
384.97	1224.10
385.17	1200.69
385.36	1116.44
385.56	1121.12
385.75	1121.12
385.95	1130.48
386.14	1207.72
386.34	1172.61
386.53	1177.29
386.72	1153.88
386.92	1217.08
387.11	1275.59
387.31	1228.78
387.50	1235.80
387.70	1261.55
387.89	1296.66
388.09	1284.95
388.28	1249.85
388.48	1320.06
388.67	1329.42
388.86	1294.32
389.06	1266.23
389.25	1231.12
389.45	1324.74
389.64	1315.38
389.84	1268.57
390.03	1401.98
390.22	1416.02
390.42	1383.26
390.61	1425.39
390.81	1371.55
391.00	1479.22
391.19	1483.90
391.39	1413.68
391.58	1476.88
391.78	1493.26
391.97	1455.81
392.16	1448.79
392.36	1577.52
392.55	1446.45
392.75	1537.73
392.94	1514.33
393.13	1481.56
393.33	1582.20
393.52	1584.54
393.71	1540.07
393.91	1596.25
394.10	1563.48
394.29	1643.06
394.49	1584.54
394.68	1596.25
394.88	1610.29
395.07	1631.35
395.26	1680.50
395.46	1685.19
395.65	1675.82
395.84	1720.29
396.04	1858.39
396.23	1776.47
396.42	1685.19
396.62	1753.06
396.81	1743.70
397.00	1689.87
397.19	1837.32
397.39	1720.29
397.58	1739.02
397.77	1804.55
397.97	1797.53
398.16	1846.68
398.35	1921.58
398.55	1870.09
398.74	1907.54
398.93	1963.71
399.12	1980.09
399.32	1879.45
399.51	1900.52
399.70	1989.46
399.90	2008.18
400.09	1923.92
400.28	1942.64
400.47	1980.09
400.67	2012.86
400.86	2050.31
401.05	2122.87
401.24	1961.37
401.44	2125.21
401.63	2134.57
401.82	2214.15
402.01	2179.04
402.21	2132.23
402.40	2169.68
402.59	2181.38
402.78	2113.50
402.97	2267.98
403.17	2104.14
403.36	2242.23
403.55	2239.89
403.74	2251.60
403.93	2310.11
404.13	2403.73
404.32	2338.20
404.51	2298.41
404.70	2331.17
404.89	2385.01
405.09	2546.50
405.28	2492.67
405.47	2340.54
405.66	2511.39
405.85	2457.56
406.05	2513.74
406.24	2588.63
406.43	2492.67
406.62	2679.91
406.81	2623.74
407.00	2616.72
407.20	2593.31
407.39	2595.65
407.58	2738.43
407.77	2633.10
407.96	2729.06
408.15	2771.19
408.34	2766.51
408.54	2843.75
408.73	2743.11
408.92	2815.66
409.11	2867.16
409.30	2888.22
409.49	2984.18
409.68	2930.35
409.87	2935.03
410.07	3002.91
410.26	2977.16
410.45	3054.40
410.64	3063.76
410.83	3038.02
411.02	3021.63
411.21	3038.02
411.40	2984.18
411.59	3136.32
411.78	3075.46
411.98	3232.28
412.17	3218.24
412.36	3267.39
412.55	3274.41
412.74	3307.18
412.93	3288.45
413.12	3267.39
413.31	3616.13
413.50	3482.72
413.69	3492.08
413.88	3543.57
414.07	3489.74
414.26	3555.27
414.45	3770.60
414.64	3709.75
414.83	3674.64
415.02	3602.08
415.22	3868.91
415.41	3946.14
415.60	3749.54
415.79	3992.95
415.98	3819.75
416.17	3943.80
416.36	3889.97
416.55	3997.64
416.74	4081.89
416.93	4161.47
417.12	4074.87
417.31	4084.23
417.50	4198.92
417.69	4341.69
417.88	4259.78
418.07	4224.67
418.26	4259.78
418.45	4376.80
418.64	4503.19
418.83	4329.99
419.02	4301.90
419.21	4449.36
419.39	4390.84
419.58	4442.34
419.77	4414.25
419.96	4512.55
420.15	4564.04
420.34	4664.69
420.53	4678.73
420.72	4770.01
420.91	4751.29
421.10	4730.22
421.29	4821.50
421.48	4655.33
421.67	4755.97
421.86	4748.95
422.05	4765.33
422.24	4664.69
422.43	4805.12
422.61	4833.21
422.80	4821.50
422.99	4844.91
423.18	4983.00
423.37	5022.79
423.56	4915.12
423.75	4945.55
423.94	4800.44
424.13	4608.51
424.32	4711.50
424.50	5001.72
424.69	4999.38
424.88	5013.43
425.07	4830.87
425.26	4952.57
425.45	5027.47
425.64	4924.49
425.83	5191.31
426.01	5062.58
426.20	4887.04
426.39	5029.81
426.58	5027.47
426.77	5167.90
426.96	5111.73
427.15	5090.67
427.33	5263.86
427.52	5046.20
427.71	5298.97
427.90	5238.12
428.09	5352.81
428.28	5366.85
428.46	5266.21
428.65	5327.06
428.84	5605.58
429.03	5537.71
429.22	5289.61
429.40	5425.36
429.59	5561.11
429.78	5439.40
429.97	5460.47
430.16	5600.90
430.34	5582.18
430.53	5603.24
430.72	5689.84
430.91	5397.28
431.10	5696.86
431.28	5776.44
431.47	5753.04
431.66	5914.53
431.85	5764.74
432.03	5968.37
432.22	5954.32
432.41	5802.19
432.60	5628.99
432.79	5893.47
432.97	5923.90
433.16	6120.50
433.35	5902.83
433.54	5949.64
433.72	6160.29
433.91	6157.95
434.10	6139.23
434.28	6080.71
434.47	6106.46
434.66	6253.91
434.85	6087.73
435.03	6310.08
435.22	6204.76
435.41	6490.31
435.59	6272.64
435.78	6417.75
435.97	6415.41
436.16	6394.34
436.34	6319.45
436.53	6487.96
436.72	6527.75
436.90	6282.00
437.09	6768.83
437.28	6539.46
437.46	6483.28
437.65	6649.46
437.84	6698.61
438.02	6609.67
438.21	6768.83
438.40	6602.65
438.58	6986.50
438.77	7005.22
438.96	6848.41
439.14	7049.69
439.33	7082.46
439.52	6979.48
439.70	7335.24
439.89	7323.54
440.08	7304.81
440.26	7309.49
440.45	7353.96
440.63	7468.65
440.82	7620.78
441.01	7531.84
441.19	7737.81
441.38	7779.94
441.57	7662.91
441.75	7770.58
441.94	7908.67
442.12	8013.99
442.31	7967.18
442.50	8121.66
442.68	7946.12
442.87	8018.68
443.05	8189.53
443.24	8124.00
443.43	8077.19
443.61	7960.16
443.80	8203.58
443.98	8039.74
444.17	7892.29
444.35	8203.58
444.54	8496.14
444.73	8236.35
444.91	8187.19
445.10	8311.24
445.28	8173.15
445.47	8210.60
445.65	8255.07
445.84	8238.69
446.02	8540.61
446.21	8304.22
446.39	8269.11
446.58	8388.48
446.77	8273.79
446.95	8063.15
447.14	8409.54
447.32	8521.89
447.51	8531.25
447.69	8458.70
447.88	8290.18
448.06	8524.23
448.25	8512.53
448.43	8557.00
448.62	8552.32
448.80	8468.06
448.99	8732.54
449.17	8697.43
449.36	8432.95
449.54	8779.35
449.73	9048.51
449.91	8863.61
450.10	8980.64
450.28	9015.74
450.46	8987.66
450.65	8973.61
450.83	8945.53
451.02	9090.64
451.20	9062.55
451.39	9198.31
451.57	9060.21
451.76	8959.57
451.94	9142.13
452.13	9163.20
452.31	9142.13
452.49	8992.34
452.68	9277.88
452.86	9249.80
453.05	9423.00
453.23	9488.53
453.42	9408.95
453.60	9345.76
453.78	9327.03
453.97	9404.27
454.15	9500.23
454.34	9380.87
454.52	9518.96
454.70	9659.39
454.89	9561.09
455.07	9865.36
455.26	9865.36
455.44	9912.17
455.62	9895.78
455.81	9966.00
455.99	9973.02
456.17	10022.17
456.36	9703.86
456.54	10045.58
456.73	10235.16
456.91	10293.68
457.09	10211.76
457.28	10382.62
457.46	10139.20
457.64	10684.55
457.83	10279.63
458.01	10384.96
458.19	10527.73
458.38	10464.54
458.56	10541.77
458.74	10590.92
458.93	10647.10
459.11	10846.04
459.29	10649.44
459.48	10583.90
459.66	10815.62
459.84	10581.56
460.03	10843.70
460.21	10663.48
460.39	10738.38
460.57	10939.66
460.76	11044.99
460.94	11108.18
461.12	11000.52
461.31	11094.14
461.49	11197.12
461.67	11225.21
461.85	11435.86
462.04	11342.24
462.22	11723.74
462.40	11370.32
462.59	11683.95
462.77	11365.64
462.95	11660.55
463.13	11609.06
463.32	11426.50
463.50	11625.44
463.68	11529.48
463.86	11651.19
464.05	11569.27
464.23	11419.47
464.41	11756.51
464.59	11758.85
464.78	11793.96
464.96	11726.08
465.14	11838.43
465.32	12018.65
465.50	11901.62
465.69	12065.46
465.87	12002.27
466.05	12147.38
466.23	12072.48
466.41	12313.56
466.60	12273.77
466.78	11981.20
466.96	12163.76
467.14	12489.10
467.32	12334.62
467.51	12451.65
467.69	12035.03
467.87	12332.28
468.05	12496.12
468.23	12358.03
468.41	12449.31
468.60	12365.05
468.78	12734.85
468.96	12556.97
469.14	12688.04
469.32	13146.79
469.50	12695.07
469.69	12919.76
469.87	12940.82
470.05	13018.06
470.23	13303.60
470.41	12994.65
470.59	13160.83
470.77	13102.32
470.95	13228.71
471.14	13301.26
471.32	12943.16
471.50	13369.14
471.68	13392.55
471.86	13579.79
472.04	13467.44
472.22	13881.72
472.40	13598.51
472.58	13575.11
472.77	13951.93
472.95	14022.15
473.13	14714.95
473.31	14122.79
473.49	14214.07
473.67	14022.15
473.85	14120.45
474.03	14464.51
474.21	14436.42
474.39	14883.47
474.57	14544.09
474.75	14679.84
474.93	14963.04
475.12	14906.87
475.30	14979.43
475.48	14871.76
475.66	14897.51
475.84	15262.63
476.02	15386.68
476.20	15222.84
476.38	15412.43
476.56	15822.02
476.74	15693.29
476.92	15756.49
477.10	15365.62
477.28	15857.13
477.46	15910.96
477.64	16252.68
477.82	16208.21
478.00	16769.94
478.18	16765.26
478.36	16922.07
478.54	17032.08
478.72	16910.37
478.90	17242.73
479.08	17455.72
479.26	17652.32
479.44	17752.96
479.62	17752.96
479.80	18298.31
479.98	18237.45
480.16	18466.83
480.34	18300.65
480.52	18361.50
480.70	18448.10
480.88	18312.35
481.06	18771.10
481.24	18494.91
481.41	18574.49
481.59	19080.05
481.77	19353.89
481.95	19190.05
482.13	19587.94
482.31	19550.49
482.49	19915.62
482.67	20177.76
482.85	20432.88
483.03	20414.15
483.21	21085.89
483.39	20842.47
483.57	20613.10
483.74	20886.94
483.92	21099.93
484.10	21067.16
484.28	21713.15
484.46	21656.98
484.64	22356.80
484.82	21937.84
485.00	22352.12
485.18	22246.79
485.35	22948.95
485.53	22810.86
485.71	22970.02
485.89	23246.20
486.07	23302.37
486.25	22932.57
486.43	23761.12
486.61	23723.67
486.78	23726.01
486.96	23946.02
487.14	24627.12
487.32	24559.24
487.50	24521.79
487.68	24952.45
487.85	25163.10
488.03	25165.44
488.21	25570.35
488.39	25568.01
488.57	25926.11
488.75	25797.38
488.92	26171.87
489.10	26705.51
489.28	26153.15
489.46	26941.91
489.64	26979.36
489.81	27587.89
489.99	27623.00
490.17	27524.70
490.35	27964.72
490.53	27964.72
490.70	28098.13
490.88	28166.01
491.06	28449.21
491.24	28610.71
491.41	28954.77
491.59	29195.84
491.77	28809.65
491.95	29521.18
492.13	29563.31
492.30	29769.27
492.48	30066.52
492.66	29898.00
492.84	30363.77
493.01	30338.02
493.19	30127.38
493.37	30726.55
493.54	31087.00
493.72	31269.56
493.90	31428.71
494.08	31704.90
494.25	31796.18
494.43	31892.14
494.61	31929.59
494.79	32065.34
494.96	32432.80
495.14	32552.17
495.32	32580.26
495.49	33017.94
495.67	33160.71
495.85	33376.04
496.02	33514.13
496.20	33600.73
496.38	34157.78
496.55	33783.29
496.73	34483.11
496.91	34246.72
497.09	34759.30
497.26	34845.90
497.44	34553.33
497.62	34951.22
497.79	35711.89
497.97	35164.21
498.14	35941.27
498.32	36280.64
498.50	36182.34
498.67	36332.14
498.85	36245.54
499.03	36458.52
499.20	36369.58
499.38	36594.28
499.56	36610.66
499.73	36697.26
499.91	37109.19
500.08	37769.22
500.26	36844.71
500.44	37397.08
500.61	38045.41
500.79	37322.18
500.97	37387.72
501.14	38398.83
501.32	38415.21
501.49	38604.80
501.67	38174.14
501.84	38724.16
502.02	39047.16
502.20	38794.38
502.37	39049.50
502.55	38895.02
502.72	39058.86
502.90	39185.25
503.07	39456.75
503.25	39580.80
503.43	39538.67
503.60	39463.77
503.78	39716.55
503.95	40444.46
504.13	40416.37
504.30	40163.59
504.48	40402.33
504.65	40313.39
504.83	40512.33
505.01	41446.21
505.18	40704.26
505.36	41247.26
505.53	41158.32
505.71	41315.14
505.88	41486.00
506.06	41392.37
506.23	41694.30
506.41	41738.77
506.58	41991.55
506.76	41565.57
506.93	42033.68
507.11	42185.82
507.28	42457.32
507.46	42504.13
507.63	42375.40
507.81	43255.44
507.98	42579.03
508.16	43044.79
508.33	42595.41
508.50	43225.01
508.68	43433.32
508.85	43461.41
509.03	43650.99
509.20	43473.11
509.38	44341.45
509.55	44055.90
509.73	44224.42
509.90	44058.24
510.08	44163.57
510.25	44236.12
510.42	44261.87
510.60	44781.47
510.77	44942.97
510.95	44975.73
511.12	44631.68
511.30	45109.14
511.47	45052.97
511.64	45134.89
511.82	45567.89
511.99	45397.03
512.17	46052.38
512.34	46014.93
512.51	46197.49
512.69	46209.20
512.86	45785.56
513.04	46579.00
513.21	46562.62
513.38	46412.82
513.56	46941.78
513.73	46733.48
513.90	46600.07
514.08	46817.74
514.25	47070.51
514.43	47044.77
514.60	47260.10
514.77	46969.87
514.95	47505.85
515.12	47430.96
515.29	47475.43
515.47	47763.31
515.64	48011.41
515.81	47632.24
515.99	47676.71
516.16	48458.45
516.33	47995.03
516.51	48521.65
516.68	48402.28
516.85	48236.10
517.03	48753.36
517.20	48636.33
517.37	48811.87
517.54	48308.66
517.72	48779.10
517.89	48631.65
518.06	48830.60
518.24	48800.17
518.41	49006.14
518.58	49333.81
518.75	49174.66
518.93	49219.13
519.10	49188.70
519.27	49560.84
519.45	49453.18
519.62	49731.70
519.79	49652.12
519.96	50040.65
520.14	49663.83
520.31	49893.20
520.48	50461.95
520.65	50089.80
520.83	50225.56
521.00	50483.01
521.17	50426.84
521.34	50307.47
521.52	50827.07
521.69	50698.34
521.86	50937.08
522.03	50831.75
522.20	50941.76
522.38	51040.06
522.55	51143.05
522.72	51220.28
522.89	51063.47
523.07	51171.13
523.24	51026.02
523.41	51583.07
523.58	51210.92
523.75	51433.27
523.92	51365.40
524.10	51800.74
524.27	51854.57
524.44	51810.10
524.61	51959.89
524.78	52065.22
524.96	51931.81
525.13	52109.69
525.30	52175.22
525.47	52360.12
525.64	52112.03
525.81	52458.43
525.98	52556.73
526.16	52348.42
526.33	52617.58
526.50	52872.70
526.67	52423.32
526.84	52811.85
527.01	52636.31
527.18	52664.39
527.36	52708.86
527.53	52767.38
527.70	53191.01
527.87	53427.41
528.04	52479.49
528.21	53081.01
528.38	53389.96
528.55	53286.98
528.72	53200.38
528.89	53350.17
529.07	53146.54
529.24	53120.80
529.41	53338.47
529.58	53701.25
529.75	53642.74
529.92	53609.97
530.09	53612.31
530.26	53684.87
530.43	53787.85
530.60	53743.38
530.77	53553.80
530.94	53818.28
531.11	53975.09
531.28	53827.64
531.46	53900.20
531.63	54206.81
531.80	53771.47
531.97	54148.29
532.14	54099.14
532.31	54092.12
532.48	54286.39
532.65	54560.23
532.82	54068.72
532.99	54312.13
533.16	54347.24
533.33	54707.68
533.50	54836.41
533.67	54873.86
533.84	54394.05
534.01	54794.28
534.18	54609.38
534.35	55049.40
534.52	54892.58
534.69	55035.36
534.86	55372.39
535.03	54829.39
535.20	54894.92
535.37	55227.28
535.54	55124.30
535.71	55159.41
535.88	55491.76
536.05	54958.12
536.22	55290.48
536.38	55576.02
536.55	55566.66
536.72	55419.20
536.89	55341.97
537.06	55704.75
537.23	55636.87
537.40	55348.99
537.57	55421.55
537.74	55543.25
537.91	56093.28
538.08	55615.81
538.25	55454.31
538.42	55655.60
538.59	56037.11
538.75	55641.56
538.92	56039.45
539.09	55803.05
539.26	56030.08
539.43	55980.93
539.60	56004.34
539.77	56137.75
539.94	56182.22
540.11	56165.84
540.28	56147.11
540.44	56446.70
540.61	56676.07
540.78	56317.97
540.95	56299.25
541.12	56137.75
541.29	56512.23
541.46	56074.55
541.62	56257.12
541.79	56402.23
541.96	56470.11
542.13	56226.69
542.30	56449.04
542.47	56692.46
542.63	56488.83
542.80	56858.63
542.97	57027.15
543.14	56935.87
543.31	56807.14
543.48	56982.68
543.64	57308.02
543.81	57172.27
543.98	57158.22
544.15	57172.27
544.32	57368.87
544.48	57528.03
544.65	57193.33
544.82	57258.87
544.99	57104.39
545.16	57420.36
545.32	57279.93
545.49	57270.57
545.66	57392.28
545.83	57523.35
546.00	57661.44
546.16	57439.09
546.33	57432.07
546.50	57111.41
546.67	57666.12
546.83	57310.36
547.00	57605.26
547.17	57609.95
547.34	57336.10
547.50	57844.00
547.67	57815.91
547.84	57813.57
548.00	57890.81
548.17	57893.15
548.34	57712.93
548.51	58178.70
548.67	58068.69
548.84	58052.31
549.01	57998.48
549.18	57984.43
549.34	57998.48
549.51	58188.06
549.68	58288.70
549.84	58169.33
550.01	58225.51
550.18	58085.07
550.34	58209.12
550.51	58375.30
550.68	58110.82
550.84	58120.18
551.01	58539.14
551.18	58354.24
551.34	58525.10
551.51	58482.97
551.68	58457.22
551.84	58335.51
552.01	58464.24
552.18	58326.15
552.34	58279.34
552.51	58356.58
552.68	58377.64
552.84	58424.45
553.01	58707.66
553.18	58611.70
553.34	58560.20
553.51	58658.51
553.67	58747.45
553.84	58927.67
554.01	58876.18
554.17	58820.00
554.34	59009.59
554.51	58986.18
554.67	58864.47
554.84	58904.26
555.00	59007.25
555.17	58759.15
555.33	58993.20
555.50	58876.18
555.67	58820.00
555.83	58852.77
556.00	59098.53
556.16	59344.28
556.33	59175.76
556.50	59100.87
556.66	59199.17
556.83	58953.41
556.99	59063.42
557.16	59337.26
557.32	59334.92
557.49	59423.86
557.65	59292.79
557.82	59224.92
557.98	59143.00
558.15	59341.94
558.32	59428.54
558.48	59297.47
558.65	59323.22
558.81	59208.53
558.98	59449.61
559.14	59409.82
559.31	59690.68
559.47	59442.59
559.64	59402.80
559.80	59550.25
559.97	59536.21
560.13	59440.24
560.30	59465.99
560.46	59550.25
560.63	59519.82
560.79	59746.86
560.96	59650.89
561.12	59877.93
561.29	59662.60
561.45	59697.70
561.61	59791.33
561.78	59840.48
561.94	59707.07
562.11	59845.16
562.27	59683.66
562.44	59564.29
562.60	59938.78
562.77	59760.90
562.93	59671.96
563.10	60020.70
563.26	59728.13
563.42	60170.49
563.59	59824.09
563.75	59941.12
563.92	59887.29
564.08	59884.95
564.24	60135.38
564.41	60121.34
564.57	59812.39
564.74	59997.29
564.90	59994.95
565.07	60107.30
565.23	59929.42
565.39	59980.91
565.56	59894.31
565.72	59788.98
565.88	60041.76
566.05	59978.57
566.21	59950.48
566.38	60287.52
566.54	60168.15
566.70	60243.05
566.87	60097.94
567.03	59971.55
567.19	60385.82
567.36	60402.21
567.52	60037.08
567.68	60409.23
567.85	60151.77
568.01	60339.01
568.17	60156.45
568.34	60257.09
568.50	60081.55
568.66	60331.99
568.83	60231.35
568.99	60177.51
569.15	60339.01
569.32	60142.41
569.48	60079.21
569.64	60271.14
569.81	60236.03
569.97	60172.83
570.13	60362.42
570.30	60252.41
570.46	60114.32
570.62	60268.79
570.78	60427.95
570.95	60502.85
571.11	60474.76
571.27	60329.65
571.43	60264.11
571.60	60502.85
571.76	60484.12
571.92	60449.02
572.09	60289.86
572.25	60339.01
572.41	60266.45
572.57	60360.08
572.74	60797.76
572.90	60399.86
573.06	60467.74
573.22	60575.40
573.38	60432.63
573.55	60348.37
573.71	60713.50
573.87	60584.77
574.03	60376.46
574.20	60664.35
574.36	60484.12
574.52	60552.00
574.68	60769.67
574.84	60633.92
575.01	60584.77
575.17	60645.62
575.33	60402.21
575.49	60477.10
575.65	60486.46
575.82	60694.77
575.98	60617.53
576.14	60678.39
576.30	60617.53
576.46	60570.72
576.62	60523.91
576.79	60626.90
576.95	60395.18
577.11	60825.84
577.27	60636.26
577.43	60741.58
577.59	60633.92
577.75	60544.98
577.92	60596.47
578.08	60547.32
578.24	60640.94
578.40	60802.44
578.56	60736.90
578.72	60598.81
578.88	60903.08
579.04	60800.10
579.21	60764.99
579.37	60767.33
579.53	60985.00
579.69	60502.85
579.85	60781.37
580.01	60736.90
580.17	60659.66
580.33	60676.05
580.49	60870.31
580.65	60900.74
580.82	60701.79
580.98	60640.94
581.14	60690.09
581.30	60828.18
581.46	60907.76
581.62	60865.63
581.78	60659.66
581.94	60711.16
582.10	60786.05
582.26	60757.97
582.42	60860.95
582.58	60914.78
582.74	60872.65
582.90	60612.85
583.06	60830.52
583.22	60561.36
583.38	60832.86
583.54	60622.22
583.70	60762.65
583.86	60935.85
584.02	60657.32
584.18	60774.35
584.34	60884.36
584.50	60781.37
584.66	60921.80
584.82	60554.34
584.98	60924.14
585.14	60790.73
585.30	60800.10
585.46	61092.66
585.62	60732.22
585.78	60884.36
585.94	60732.22
586.10	60992.02
586.26	60898.40
586.42	60772.01
586.58	61041.17
586.74	60956.91
586.90	60776.69
587.06	61003.72
587.22	60945.21
587.38	60800.10
587.54	61160.54
587.70	61085.64
587.86	60872.65
588.02	60882.02
588.18	61095.00
588.34	60851.59
588.49	61209.69
