SpectraSuite Data File
++++++++++++++++++++++++++++++++++++
Date: Fri Oct 25 11:26:28 EDT 2013
User: price-jones
Dark Spectrum Present: No
Reference Spectrum Present: No
Number of Sampled Component Spectra: 1
Spectrometers: USB2+H05261
Integration Time (usec): 100000 (USB2+H05261)
Spectra Averaged: 1 (USB2+H05261)
Boxcar Smoothing: 0 (USB2+H05261)
Correct for Electrical Dark: No (USB2+H05261)
Strobe/Lamp Enabled: No (USB2+H05261)
Correct for Detector Non-linearity: No (USB2+H05261)
Correct for Stray Light: No (USB2+H05261)
Number of Pixels in Processed Spectrum: 2048
>>>>>Begin Processed Spectral Data<<<<<
365.73	283.20
365.92	283.20
366.12	283.20
366.32	149.79
366.52	107.66
366.72	163.84
366.91	140.43
367.11	135.75
367.31	114.69
367.51	131.07
367.70	114.69
367.90	166.18
368.10	163.84
368.30	145.11
368.49	163.84
368.69	142.77
368.89	128.73
369.09	177.88
369.28	180.22
369.48	177.88
369.68	163.84
369.87	241.08
370.07	203.63
370.27	257.46
370.47	322.99
370.66	568.75
370.86	645.99
371.06	552.37
371.25	671.73
371.45	645.99
371.65	744.29
371.84	634.29
372.04	603.86
372.24	699.82
372.44	699.82
372.63	772.38
372.83	737.27
373.03	720.88
373.22	767.70
373.42	779.40
373.62	774.72
373.81	854.30
374.01	830.89
374.21	842.59
374.40	767.70
374.60	779.40
374.79	851.96
374.99	828.55
375.19	875.36
375.38	814.51
375.58	854.30
375.78	866.00
375.97	751.31
376.17	891.74
376.37	844.93
376.56	842.59
376.76	880.04
376.95	903.45
377.15	964.30
377.35	950.26
377.54	889.40
377.74	966.64
377.93	926.85
378.13	891.74
378.33	919.83
378.52	851.96
378.72	968.98
378.91	898.77
379.11	873.02
379.31	856.64
379.50	952.60
379.70	940.90
379.89	936.21
380.09	964.30
380.28	1039.20
380.48	1046.22
380.68	999.41
380.87	1015.79
381.07	1074.31
381.26	1048.56
381.46	994.73
381.65	1041.54
381.85	1060.26
382.04	1046.22
382.24	1114.10
382.43	1097.71
382.63	1081.33
382.83	1081.33
383.02	1088.35
383.22	1139.84
383.41	1093.03
383.61	1064.94
383.80	973.66
384.00	1118.78
384.19	1160.91
384.39	1116.44
384.58	1095.37
384.78	1160.91
384.97	1123.46
385.17	1123.46
385.36	1210.06
385.56	1221.76
385.75	1196.01
385.95	1203.04
386.14	1174.95
386.34	1170.27
386.53	1153.88
386.72	1181.97
386.92	1217.08
387.11	1245.16
387.31	1284.95
387.50	1224.10
387.70	1282.61
387.89	1378.58
388.09	1158.57
388.28	1303.68
388.48	1320.06
388.67	1247.51
388.86	1331.76
389.06	1303.68
389.25	1322.40
389.45	1320.06
389.64	1315.38
389.84	1425.39
390.03	1411.34
390.22	1277.93
390.42	1345.81
390.61	1331.76
390.81	1390.28
391.00	1441.77
391.19	1404.32
391.39	1406.66
391.58	1409.00
391.78	1511.99
391.97	1404.32
392.16	1474.54
392.36	1607.95
392.55	1453.47
392.75	1610.29
392.94	1509.65
393.13	1549.43
393.33	1612.63
393.52	1563.48
393.71	1607.95
393.91	1610.29
394.10	1607.95
394.29	1629.01
394.49	1610.29
394.68	1586.88
394.88	1509.65
395.07	1692.21
395.26	1638.38
395.46	1661.78
395.65	1767.10
395.84	1652.42
396.04	1811.57
396.23	1743.70
396.42	1708.59
396.62	1685.19
396.81	1727.32
397.00	1811.57
397.19	1858.39
397.39	1806.89
397.58	1858.39
397.77	1914.56
397.97	1923.92
398.16	1842.00
398.35	1799.87
398.55	1856.04
398.74	1905.20
398.93	1961.37
399.12	1863.07
399.32	1792.85
399.51	1923.92
399.70	1987.11
399.90	1956.69
400.09	2005.84
400.28	2024.56
400.47	2005.84
400.67	2022.22
400.86	2069.03
401.05	2108.82
401.24	1989.46
401.44	2165.00
401.63	2143.93
401.82	2057.33
402.01	2195.42
402.21	2172.02
402.40	2221.17
402.59	2263.30
402.78	2291.38
402.97	2263.30
403.17	2190.74
403.36	2197.76
403.55	2377.98
403.74	2375.64
403.93	2373.30
404.13	2359.26
404.32	2312.45
404.51	2399.05
404.70	2392.03
404.89	2361.60
405.09	2427.14
405.28	2487.99
405.47	2408.41
405.66	2504.37
405.85	2504.37
406.05	2537.14
406.24	2532.46
406.43	2473.95
406.62	2738.43
406.81	2696.30
407.00	2546.50
407.20	2644.81
407.39	2555.86
407.58	2651.83
407.77	2686.94
407.96	2778.22
408.15	2799.28
408.34	2733.75
408.54	2834.39
408.73	2869.50
408.92	2853.11
409.11	2794.60
409.30	2890.56
409.49	2970.14
409.68	2862.48
409.87	2843.75
410.07	3084.83
410.26	3105.89
410.45	2960.78
410.64	3159.72
410.83	3000.57
411.02	2988.86
411.21	3061.42
411.40	3119.93
411.59	3133.98
411.78	3180.79
411.98	3171.43
412.17	3274.41
412.36	3330.58
412.55	3358.67
412.74	3417.18
412.93	3382.07
413.12	3323.56
413.31	3604.42
413.50	3335.26
413.69	3412.50
413.88	3592.72
414.07	3609.11
414.26	3613.79
414.45	3618.47
414.64	3609.11
414.83	3695.71
415.02	3775.28
415.22	3885.29
415.41	3794.01
415.60	3812.73
415.79	3974.23
415.98	4018.70
416.17	3929.76
416.36	4124.02
416.55	3929.76
416.74	3992.95
416.93	3962.53
417.12	4117.00
417.31	4159.13
417.50	4131.05
417.69	4236.37
417.88	4156.79
418.07	4271.48
418.26	4386.16
418.45	4341.69
418.64	4245.73
418.83	4435.32
419.02	4311.27
419.21	4472.76
419.39	4493.83
419.58	4489.15
419.77	4479.79
419.96	4713.84
420.15	4531.28
420.34	4688.09
420.53	4550.00
420.72	4688.09
420.91	4748.95
421.10	4571.07
421.29	4758.31
421.48	4709.16
421.67	4809.80
421.86	4755.97
422.05	4617.88
422.24	4819.16
422.43	4887.04
422.61	4762.99
422.80	4943.21
422.99	4894.06
423.18	5011.09
423.37	5018.11
423.56	5144.50
423.75	5032.15
423.94	4889.38
424.13	4725.54
424.32	4777.03
424.50	4919.81
424.69	4880.02
424.88	4933.85
425.07	4985.34
425.26	4919.81
425.45	4889.38
425.64	4940.87
425.83	5008.75
426.01	5055.56
426.20	5165.56
426.39	5015.77
426.58	4936.19
426.77	5041.51
426.96	5083.64
427.15	5172.58
427.33	5200.67
427.52	5036.83
427.71	5287.27
427.90	5184.29
428.09	5156.20
428.28	5383.23
428.46	5397.28
428.65	5245.14
428.84	5373.87
429.03	5296.63
429.22	5345.78
429.40	5472.17
429.59	5366.85
429.78	5317.70
429.97	5240.46
430.16	5350.46
430.34	5596.22
430.53	5603.24
430.72	5729.63
430.91	5659.42
431.10	5458.13
431.28	5568.13
431.47	5760.06
431.66	5884.11
431.85	5830.27
432.03	5771.76
432.22	5898.15
432.41	5905.17
432.60	5947.30
432.79	5830.27
432.97	6092.41
433.16	5991.77
433.35	5802.19
433.54	5977.73
433.72	6033.90
433.91	5998.79
434.10	6064.33
434.28	6024.54
434.47	6146.25
434.66	6221.14
434.85	6193.06
435.03	6340.51
435.22	6298.38
435.41	6476.26
435.59	6263.27
435.78	6415.41
435.97	6382.64
436.16	6410.73
436.34	6380.30
436.53	6466.90
436.72	6626.06
436.90	6429.45
437.09	6614.35
437.28	6541.80
437.46	6558.18
437.65	6527.75
437.84	6780.53
438.02	6715.00
438.21	6621.38
438.40	6663.51
438.58	6986.50
438.77	6946.71
438.96	7028.63
439.14	7012.24
439.33	7185.44
439.52	6970.12
439.70	7208.85
439.89	7412.48
440.08	7293.11
440.26	7332.90
440.45	7485.03
440.63	7442.90
440.82	7679.30
441.01	7393.75
441.19	7517.80
441.38	7693.34
441.57	7726.11
441.75	7691.00
441.94	8093.57
442.12	7967.18
442.31	7950.80
442.50	7885.26
442.68	8021.02
442.87	7878.24
443.05	7995.27
443.24	8257.41
443.43	8215.28
443.61	8018.68
443.80	8376.78
443.98	7953.14
444.17	7939.10
444.35	8203.58
444.54	8245.71
444.73	8060.80
444.91	8280.82
445.10	8292.52
445.28	8292.52
445.47	8362.73
445.65	8374.44
445.84	8252.73
446.02	8596.79
446.21	8475.08
446.39	8308.90
446.58	8554.66
446.77	8430.61
446.95	8107.62
447.14	8395.50
447.32	8510.19
447.51	8519.55
447.69	8400.18
447.88	8606.15
448.06	8470.40
448.25	8414.23
448.43	8706.79
448.62	8636.58
448.80	8610.83
448.99	8446.99
449.17	8692.75
449.36	8643.60
449.54	8875.31
449.73	8830.84
449.91	9039.15
450.10	8905.74
450.28	9137.45
450.46	9025.11
450.65	8973.61
450.83	9025.11
451.02	8978.30
451.20	9137.45
451.39	9081.28
451.57	9160.86
451.76	9011.06
451.94	9320.01
452.13	9542.36
452.31	9235.75
452.49	9179.58
452.68	9238.09
452.86	9090.64
453.05	9383.21
453.23	9469.81
453.42	9359.80
453.60	9380.87
453.78	9500.23
453.97	9355.12
454.15	9535.34
454.34	9371.50
454.52	9661.73
454.70	9809.19
454.89	9830.25
455.07	9689.82
455.26	9745.99
455.44	9790.46
455.62	9717.90
455.81	9741.31
455.99	10022.17
456.17	10143.88
456.36	10017.49
456.54	10080.69
456.73	10452.83
456.91	10380.28
457.09	10462.19
457.28	10602.63
457.46	10380.28
457.64	10516.03
457.83	10279.63
458.01	10354.53
458.19	10544.11
458.38	10413.04
458.56	10714.97
458.74	10611.99
458.93	10551.14
459.11	10665.82
459.29	10705.61
459.48	10956.05
459.66	10698.59
459.84	10876.47
460.03	11176.06
460.21	10626.03
460.39	10918.60
460.57	10953.71
460.76	10953.71
460.94	10988.82
461.12	11124.57
461.31	11204.14
461.49	11101.16
461.67	10986.47
461.85	11398.41
462.04	11197.12
462.22	11740.13
462.40	11693.32
462.59	11482.67
462.77	11375.00
462.95	11435.86
463.13	11648.85
463.32	11433.52
463.50	11793.96
463.68	11758.85
463.86	11859.49
464.05	11583.31
464.23	11850.13
464.41	11850.13
464.59	11775.24
464.78	12187.17
464.96	12077.16
465.14	11901.62
465.32	11920.35
465.50	11967.16
465.69	12187.17
465.87	12074.82
466.05	11967.16
466.23	12056.10
466.41	11939.07
466.60	12351.01
466.78	12030.35
466.96	12063.12
467.14	12037.38
467.32	12245.68
467.51	12526.55
467.69	12053.76
467.87	12580.38
468.05	12819.11
468.23	12343.99
468.41	12341.64
468.60	12589.74
468.78	12699.75
468.96	12484.42
469.14	12802.73
469.32	12882.31
469.50	12535.91
469.69	12856.56
469.87	12908.05
470.05	13270.84
470.23	13090.62
470.41	13188.92
470.59	13200.62
470.77	13259.13
470.95	13139.77
471.14	13345.73
471.32	13090.62
471.50	13303.60
471.68	13483.83
471.86	13647.66
472.04	13752.99
472.22	13958.96
472.40	13958.96
472.58	13729.58
472.77	14094.71
472.95	13862.99
473.13	14654.09
473.31	14036.19
473.49	14104.07
473.67	14090.02
473.85	14022.15
474.03	14640.05
474.21	14506.64
474.39	14848.36
474.57	14253.86
474.75	14813.25
474.93	14874.10
475.12	14883.47
475.30	15014.54
475.48	14988.79
475.66	14956.02
475.84	15026.24
476.02	15194.76
476.20	15456.90
476.38	15499.03
476.56	16030.33
476.74	15978.84
476.92	15644.14
477.10	15524.77
477.28	16072.46
477.46	15917.98
477.64	16180.12
477.82	16409.50
478.00	16758.24
478.18	16828.45
478.36	16664.61
478.54	16994.63
478.72	17055.48
478.90	17399.54
479.08	17549.34
479.26	17624.23
479.44	17729.56
479.62	17748.28
479.80	18031.49
479.98	18080.64
480.16	18466.83
480.34	18242.14
480.52	18743.01
480.70	18569.81
480.88	18389.59
481.06	18773.44
481.24	18944.30
481.41	18841.31
481.59	19293.04
481.77	19756.46
481.95	19384.32
482.13	19555.18
482.31	19477.94
482.49	20376.70
482.67	20329.89
482.85	20453.94
483.03	20460.96
483.21	20322.87
483.39	20856.51
483.57	20830.77
483.74	21153.76
483.92	21331.64
484.10	20926.73
484.28	21549.31
484.46	21736.56
484.64	22038.48
484.82	21766.98
485.00	22258.49
485.18	22338.07
485.35	22740.64
485.53	22806.18
485.71	22864.69
485.89	23473.23
486.07	23360.89
486.25	23222.80
486.43	23374.93
486.61	24032.62
486.78	24542.86
486.96	24320.51
487.14	24210.50
487.32	24622.44
487.50	24835.42
487.68	25144.38
487.85	24947.77
488.03	25254.38
488.21	25310.55
488.39	25373.75
488.57	26108.68
488.75	25968.24
488.92	26141.44
489.10	26476.14
489.28	27091.70
489.46	27136.17
489.64	26967.65
489.81	28107.49
489.99	27297.67
490.17	27775.14
490.35	27931.95
490.53	27990.47
490.70	28444.53
490.88	28271.33
491.06	28999.24
491.24	28900.94
491.41	29331.59
491.59	29132.65
491.77	29235.63
491.95	29600.76
492.13	29685.01
492.30	29902.68
492.48	30085.25
492.66	30295.89
492.84	30415.26
493.01	30534.63
493.19	30731.23
493.37	31002.74
493.54	31117.42
493.72	31164.23
493.90	31189.98
494.08	31517.65
494.25	31833.63
494.43	31840.65
494.61	32264.28
494.79	32432.80
494.96	32367.27
495.14	32645.79
495.32	32610.68
495.49	33078.79
495.67	33041.34
495.85	33289.44
496.02	33846.49
496.20	33750.52
496.38	33591.37
496.55	33858.19
496.73	34717.17
496.91	34218.63
497.09	34761.64
497.26	34436.30
497.44	34878.66
497.62	35384.22
497.79	35817.22
497.97	35676.79
498.14	35646.36
498.32	35971.69
498.50	35622.95
498.67	36233.83
498.85	36299.37
499.03	36531.08
499.20	36648.11
499.38	36964.08
499.56	36538.10
499.73	36809.61
499.91	36893.86
500.08	37579.64
500.26	37528.15
500.44	37486.02
500.61	37706.03
500.79	37268.35
500.97	37486.02
501.14	38366.06
501.32	38160.09
501.49	38515.86
501.67	38408.19
501.84	38635.22
502.02	38808.42
502.20	39194.61
502.37	39395.90
502.55	38986.30
502.72	39229.72
502.90	39655.70
503.07	39395.90
503.25	39721.23
503.43	39543.35
503.60	39929.54
503.78	40301.68
503.95	39854.64
504.13	40477.22
504.30	40020.82
504.48	39976.35
504.65	40392.97
504.83	40917.25
505.01	41038.95
505.18	41141.94
505.36	41380.67
505.53	41675.58
505.71	41184.07
505.88	41710.69
506.06	41383.01
506.23	42010.28
506.41	41811.33
506.58	41738.77
506.76	42099.22
506.93	42080.49
507.11	42089.85
507.28	42263.05
507.46	42700.73
507.63	42628.18
507.81	42902.02
507.98	42579.03
508.16	42738.18
508.33	43248.42
508.50	43330.34
508.68	43227.35
508.85	43428.64
509.03	43489.49
509.20	43636.95
509.38	43887.39
509.55	44285.28
509.73	44130.80
509.90	44079.31
510.08	44549.76
510.25	44486.56
510.42	45064.67
510.60	44879.77
510.77	45050.63
510.95	45165.32
511.12	44744.02
511.30	45228.51
511.47	45368.94
511.64	45514.06
511.82	45514.06
511.99	45130.21
512.17	45844.07
512.34	45464.91
512.51	46190.47
512.69	46143.66
512.86	46330.90
513.04	46148.34
513.21	46506.44
513.38	46806.03
513.56	46361.33
513.73	46476.02
513.90	46733.48
514.08	46513.47
514.25	47084.56
514.43	46642.20
514.60	47262.44
514.77	47304.57
514.95	47604.16
515.12	47559.69
515.29	47365.42
515.47	47791.40
515.64	47681.39
515.81	47611.18
515.99	47976.30
516.16	48502.92
516.33	48308.66
516.51	48493.56
516.68	48292.27
516.85	48442.07
517.03	48657.40
517.20	48596.54
517.37	48685.48
517.54	48697.19
517.72	48465.47
517.89	48921.88
518.06	48966.35
518.24	49071.67
518.41	49221.47
518.58	49202.74
518.75	48828.26
518.93	49485.95
519.10	49478.92
519.27	49476.58
519.45	49617.02
519.62	49956.39
519.79	49989.16
519.96	49963.42
520.14	50473.65
520.31	50216.19
520.48	50183.43
520.65	50555.57
520.83	50431.52
521.00	50567.27
521.17	50429.18
521.34	50241.94
521.52	50546.21
521.69	50543.87
521.86	50614.08
522.03	51257.73
522.20	50944.10
522.38	51194.54
522.55	51084.53
522.72	50986.23
522.89	51278.80
523.07	51419.23
523.24	50813.03
523.41	51718.82
523.58	51412.21
523.75	51796.06
523.92	51749.24
524.10	51877.97
524.27	52034.79
524.44	52055.85
524.61	51992.66
524.78	52069.90
524.96	51997.34
525.13	51845.21
525.30	51753.93
525.47	52381.19
525.64	52165.86
525.81	52273.52
525.98	52622.26
526.16	52287.57
526.33	52708.86
526.50	52713.55
526.67	52638.65
526.84	53013.13
527.01	52507.58
527.18	52594.18
527.36	52816.53
527.53	52935.90
527.70	53261.23
527.87	53226.12
528.04	52900.79
528.21	53324.43
528.38	53169.95
528.55	53387.62
528.72	53298.68
528.89	53284.64
529.07	53090.37
529.24	53247.19
529.41	53750.40
529.58	53612.31
529.75	53492.94
529.92	53701.25
530.09	53572.52
530.26	53818.28
530.43	53731.68
530.60	53820.62
530.77	54042.97
530.94	53902.54
531.11	53600.61
531.28	53888.49
531.46	54005.52
531.63	54181.06
531.80	54071.06
531.97	54340.22
532.14	54300.43
532.31	54387.03
532.48	54330.86
532.65	54714.70
532.82	54403.41
532.99	54784.92
533.16	54415.11
533.33	54672.57
533.50	54841.09
533.67	54869.18
533.84	54305.11
534.01	54813.01
534.18	54714.70
534.35	55131.32
534.52	54796.62
534.69	55334.95
534.86	55161.75
535.03	55166.43
535.20	55128.98
535.37	55435.59
535.54	55384.10
535.71	55164.09
535.88	55367.71
536.05	55552.62
536.22	55227.28
536.38	55512.83
536.55	55391.12
536.72	55557.30
536.89	55334.95
537.06	55400.48
537.23	55496.44
537.40	55435.59
537.57	55594.74
537.74	55620.49
537.91	55721.13
538.08	55791.35
538.25	55517.51
538.42	55723.47
538.59	55962.21
538.75	55676.66
538.92	55884.97
539.09	56102.64
539.26	56065.19
539.43	56088.60
539.60	56107.32
539.77	56245.41
539.94	56491.17
540.11	56123.71
540.28	56175.20
540.44	56233.71
540.61	56367.12
540.78	56334.35
540.95	56289.88
541.12	56308.61
541.29	56308.61
541.46	56296.91
541.62	56236.05
541.79	56647.99
541.96	56254.78
542.13	56336.69
542.30	56493.51
542.47	56985.02
542.63	56708.84
542.80	56673.73
542.97	56877.36
543.14	57027.15
543.31	57083.33
543.48	57183.97
543.64	57282.27
543.81	57235.46
543.98	57308.02
544.15	57244.82
544.32	57516.32
544.48	57478.88
544.65	57350.15
544.82	57429.72
544.99	57073.96
545.16	57485.90
545.32	57146.52
545.49	57579.52
545.66	57701.23
545.83	57518.67
546.00	57551.43
546.16	57488.24
546.33	57396.96
546.50	57389.94
546.67	57478.88
546.83	57572.50
547.00	57495.26
547.17	57675.48
547.34	57560.79
547.50	57858.04
547.67	58068.69
547.84	57982.09
548.00	57935.28
548.17	58239.55
548.34	57961.03
548.51	58014.86
548.67	58197.42
548.84	57932.94
549.01	57834.64
549.18	58080.39
549.34	58122.52
549.51	58298.06
549.68	58312.11
549.84	58298.06
550.01	58239.55
550.18	58190.40
550.34	58277.00
550.51	58415.09
550.68	58277.00
550.84	58049.97
551.01	58464.24
551.18	58176.36
551.34	58244.23
551.51	58333.17
551.68	58459.56
551.84	58387.00
552.01	58426.79
552.18	58700.64
552.34	58298.06
552.51	58422.11
552.68	58197.42
552.84	58562.54
553.01	58864.47
553.18	58815.32
553.34	58695.95
553.51	58770.85
553.67	58700.64
553.84	58728.72
554.01	58955.75
554.17	58855.11
554.34	58747.45
554.51	59040.01
554.67	58836.39
554.84	58873.84
555.00	58918.31
555.17	58958.09
555.33	58885.54
555.50	58824.68
555.67	58674.89
555.83	58899.58
556.00	58948.73
556.16	59231.94
556.33	59288.11
556.50	59112.57
556.66	59206.19
556.83	59014.27
556.99	59421.52
557.16	59550.25
557.32	59360.67
557.49	59554.93
557.65	59222.58
557.82	59475.35
557.98	59358.33
558.15	59428.54
558.32	59386.41
558.48	59475.35
558.65	59571.32
558.81	59313.86
558.98	59454.29
559.14	59458.97
559.31	59475.35
559.47	59625.15
559.64	59494.08
559.80	59606.42
559.97	59660.26
560.13	59543.23
560.30	59454.29
560.46	59526.84
560.63	59498.76
560.79	59597.06
560.96	59723.45
561.12	59959.84
561.29	59721.11
561.45	59819.41
561.61	59678.98
561.78	59526.84
561.94	59533.87
562.11	59821.75
562.27	59788.98
562.44	59683.66
562.60	59934.10
562.77	59920.05
562.93	59826.43
563.10	60009.00
563.26	59749.20
563.42	59952.82
563.59	60041.76
563.75	59952.82
563.92	59929.42
564.08	59934.10
564.24	60123.68
564.41	59936.44
564.57	59987.93
564.74	60001.97
564.90	60018.36
565.07	59971.55
565.23	59896.65
565.39	60006.65
565.56	60119.00
565.72	59889.63
565.88	60126.02
566.05	60001.97
566.21	60004.31
566.38	60119.00
566.54	60013.68
566.70	60135.38
566.87	60287.52
567.03	60074.53
567.19	60378.80
567.36	60114.32
567.52	60104.96
567.68	60362.42
567.85	60205.60
568.01	60264.11
568.17	60168.15
568.34	60294.54
568.50	60243.05
568.66	60259.43
568.83	60444.33
568.99	60175.17
569.15	60353.05
569.32	60331.99
569.48	60339.01
569.64	60287.52
569.81	60289.86
569.97	60313.26
570.13	60498.17
570.30	60397.52
570.46	60563.70
570.62	60329.65
570.78	60563.70
570.95	60165.81
571.11	60498.17
571.27	60374.12
571.43	60245.39
571.60	60472.42
571.76	60350.71
571.92	60619.88
572.09	60430.29
572.25	60406.89
572.41	60385.82
572.57	60434.97
572.74	60596.47
572.90	60339.01
573.06	60474.76
573.22	60449.02
573.38	60650.30
573.55	60537.96
573.71	60830.52
573.87	60484.12
574.03	60526.25
574.20	60631.58
574.36	60355.39
574.52	60624.56
574.68	60594.13
574.84	60680.73
575.01	60570.72
575.17	60425.61
575.33	60516.89
575.49	60608.17
575.65	60608.17
575.82	60526.25
575.98	60809.46
576.14	60828.18
576.30	60872.65
576.46	60587.11
576.62	60554.34
576.79	60526.25
576.95	60423.27
577.11	60732.22
577.27	60650.30
577.43	60729.88
577.59	60537.96
577.75	60615.19
577.92	60746.26
578.08	60781.37
578.24	60849.25
578.40	61087.98
578.56	60832.86
578.72	60589.45
578.88	60846.91
579.04	60640.94
579.21	60783.71
579.37	60762.65
579.53	60931.17
579.69	60727.54
579.85	60706.47
580.01	60692.43
580.17	60650.30
580.33	60982.66
580.49	60947.55
580.65	60729.88
580.82	60828.18
580.98	60760.31
581.14	60683.07
581.30	60872.65
581.46	60652.64
581.62	60949.89
581.78	60865.63
581.94	60975.64
582.10	60584.77
582.26	60734.56
582.42	60727.54
582.58	60690.09
582.74	60741.58
582.90	60746.26
583.06	60928.83
583.22	60729.88
583.38	60795.42
583.54	60692.43
583.70	60694.77
583.86	60884.36
584.02	60914.78
584.18	61134.79
584.34	60671.37
584.50	60940.53
584.66	60652.64
584.82	60977.98
584.98	61219.05
585.14	61024.79
585.30	60917.12
585.46	61219.05
585.62	60839.89
585.78	61158.20
585.94	60846.91
586.10	60865.63
586.26	60858.61
586.42	60987.34
586.58	61008.40
586.74	60874.99
586.90	60898.40
587.06	61080.96
587.22	61043.51
587.38	60919.46
587.54	60956.91
587.70	61141.81
587.86	61015.43
588.02	60832.86
588.18	61169.90
588.34	60802.44
588.49	61066.92
