SpectraSuite Data File
++++++++++++++++++++++++++++++++++++
Date: Fri Oct 25 11:26:23 EDT 2013
User: price-jones
Dark Spectrum Present: No
Reference Spectrum Present: No
Number of Sampled Component Spectra: 1
Spectrometers: USB2+H05261
Integration Time (usec): 100000 (USB2+H05261)
Spectra Averaged: 1 (USB2+H05261)
Boxcar Smoothing: 0 (USB2+H05261)
Correct for Electrical Dark: No (USB2+H05261)
Strobe/Lamp Enabled: No (USB2+H05261)
Correct for Detector Non-linearity: No (USB2+H05261)
Correct for Stray Light: No (USB2+H05261)
Number of Pixels in Processed Spectrum: 2048
>>>>>Begin Processed Spectral Data<<<<<
365.73	306.61
365.92	306.61
366.12	306.61
366.32	147.45
366.52	236.39
366.72	161.50
366.91	131.07
367.11	131.07
367.31	147.45
367.51	142.77
367.70	128.73
367.90	156.82
368.10	112.35
368.30	161.50
368.49	79.58
368.69	121.71
368.89	180.22
369.09	241.08
369.28	140.43
369.48	222.35
369.68	231.71
369.87	205.97
370.07	161.50
370.27	243.42
370.47	353.42
370.66	617.90
370.86	615.56
371.06	645.99
371.25	662.37
371.45	624.92
371.65	678.76
371.84	692.80
372.04	704.50
372.24	660.03
372.44	748.97
372.63	793.44
372.83	842.59
373.03	690.46
373.22	772.38
373.42	805.14
373.62	821.53
373.81	826.21
374.01	805.14
374.21	837.91
374.40	767.70
374.60	774.72
374.79	777.06
374.99	898.77
375.19	774.72
375.38	833.23
375.58	882.38
375.78	924.51
375.97	805.14
376.17	966.64
376.37	858.98
376.56	912.81
376.76	802.80
376.95	800.46
377.15	861.32
377.35	908.13
377.54	976.00
377.74	1036.86
377.93	800.46
378.13	978.34
378.33	971.32
378.52	961.96
378.72	936.21
378.91	931.53
379.11	887.06
379.31	863.66
379.50	976.00
379.70	1050.90
379.89	992.39
380.09	1034.52
380.28	931.53
380.48	997.07
380.68	980.68
380.87	1013.45
381.07	973.66
381.26	1064.94
381.46	1060.26
381.65	1067.28
381.85	1083.67
382.04	1034.52
382.24	1090.69
382.43	1032.18
382.63	987.71
382.83	1121.12
383.02	1060.26
383.22	1125.80
383.41	1090.69
383.61	1090.69
383.80	1135.16
384.00	1160.91
384.19	1158.57
384.39	1081.33
384.58	1100.05
384.78	1217.08
384.97	1231.12
385.17	1186.65
385.36	1149.20
385.56	1188.99
385.75	1100.05
385.95	1207.72
386.14	1188.99
386.34	1191.33
386.53	1238.14
386.72	1196.01
386.92	1181.97
387.11	1245.16
387.31	1261.55
387.50	1268.57
387.70	1240.48
387.89	1165.59
388.09	1256.87
388.28	1273.25
388.48	1282.61
388.67	1277.93
388.86	1259.21
389.06	1256.87
389.25	1334.11
389.45	1348.15
389.64	1397.30
389.84	1263.89
390.03	1306.02
390.22	1380.92
390.42	1238.14
390.61	1383.26
390.81	1282.61
391.00	1308.36
391.19	1488.58
391.39	1519.01
391.58	1458.15
391.78	1481.56
391.97	1434.75
392.16	1444.11
392.36	1537.73
392.55	1687.53
392.75	1502.62
392.94	1516.67
393.13	1582.20
393.33	1537.73
393.52	1572.84
393.71	1530.71
393.91	1523.69
394.10	1490.92
394.29	1636.03
394.49	1629.01
394.68	1664.12
394.88	1624.33
395.07	1708.59
395.26	1650.08
395.46	1732.00
395.65	1664.12
395.84	1739.02
396.04	1823.28
396.23	1654.76
396.42	1720.29
396.62	1774.13
396.81	1846.68
397.00	1802.21
397.19	1811.57
397.39	1806.89
397.58	1806.89
397.77	1846.68
397.97	1902.86
398.16	1823.28
398.35	1923.92
398.55	1729.66
398.74	1947.33
398.93	1982.43
399.12	1832.64
399.32	1881.79
399.51	1937.96
399.70	2012.86
399.90	1912.22
400.09	2045.63
400.28	2054.99
400.47	2099.46
400.67	1966.05
400.86	2108.82
401.05	2113.50
401.24	2029.24
401.44	2132.23
401.63	2193.08
401.82	2216.49
402.01	2165.00
402.21	2069.03
402.40	2181.38
402.59	2136.91
402.78	2172.02
402.97	2176.70
403.17	2289.04
403.36	2230.53
403.55	2363.94
403.74	2377.98
403.93	2422.45
404.13	2382.67
404.32	2431.82
404.51	2272.66
404.70	2445.86
404.89	2298.41
405.09	2581.61
405.28	2406.07
405.47	2520.76
405.66	2495.01
405.85	2483.31
406.05	2457.56
406.24	2466.92
406.43	2708.00
406.62	2534.80
406.81	2614.38
407.00	2590.97
407.20	2635.44
407.39	2597.99
407.58	2590.97
407.77	2597.99
407.96	2715.02
408.15	2799.28
408.34	2623.74
408.54	2860.13
408.73	2719.70
408.92	2745.45
409.11	2829.71
409.30	2913.97
409.49	2841.41
409.68	2878.86
409.87	2984.18
410.07	2977.16
410.26	3049.72
410.45	3040.36
410.64	3080.14
410.83	3108.23
411.02	3052.06
411.21	3213.56
411.40	2981.84
411.59	3211.22
411.78	3164.40
411.98	3211.22
412.17	3236.96
412.36	3396.12
412.55	3211.22
412.74	3421.86
412.93	3368.03
413.12	3297.81
413.31	3646.55
413.50	3487.40
413.69	3407.82
413.88	3522.51
414.07	3609.11
414.26	3611.45
414.45	3691.02
414.64	3667.62
414.83	3779.97
415.02	3726.13
415.22	3705.07
415.41	3950.82
415.60	3749.54
415.79	3843.16
415.98	3913.38
416.17	3999.98
416.36	3960.19
416.55	3999.98
416.74	4163.81
416.93	3983.59
417.12	4063.17
417.31	4149.77
417.50	4196.58
417.69	4194.24
417.88	4177.86
418.07	4299.56
418.26	4140.41
418.45	4248.07
418.64	4271.48
418.83	4400.21
419.02	4447.02
419.21	4369.78
419.39	4540.64
419.58	4447.02
419.77	4582.77
419.96	4667.03
420.15	4559.36
420.34	4580.43
420.53	4531.28
420.72	4741.93
420.91	4645.96
421.10	4610.86
421.29	4842.57
421.48	4674.05
421.67	4788.74
421.86	4798.10
422.05	4865.97
422.24	4812.14
422.43	4854.27
422.61	4901.08
422.80	4802.78
422.99	5085.98
423.18	4966.62
423.37	5041.51
423.56	4798.10
423.75	4919.81
423.94	4898.74
424.13	4615.54
424.32	4713.84
424.50	4877.68
424.69	5083.64
424.88	5095.35
425.07	5006.41
425.26	4844.91
425.45	5050.88
425.64	4922.15
425.83	4861.29
426.01	5001.72
426.20	5036.83
426.39	5142.16
426.58	5020.45
426.77	4961.94
426.96	5039.17
427.15	5064.92
427.33	5118.75
427.52	4994.70
427.71	5151.52
427.90	5256.84
428.09	5151.52
428.28	5226.42
428.46	5348.12
428.65	5404.30
428.84	5610.26
429.03	5364.51
429.22	5298.97
429.40	5369.19
429.59	5483.88
429.78	5284.93
429.97	5263.86
430.16	5460.47
430.34	5563.45
430.53	5781.12
430.72	5734.31
430.91	5687.50
431.10	5788.14
431.28	5776.44
431.47	5809.21
431.66	5849.00
431.85	5657.07
432.03	5830.27
432.22	5872.40
432.41	5884.11
432.60	5846.66
432.79	5970.71
432.97	5961.34
433.16	6043.26
433.35	5809.21
433.54	6066.67
433.72	6104.12
433.91	6057.31
434.10	6314.77
434.28	6078.37
434.47	6244.55
434.66	6078.37
434.85	6286.68
435.03	6356.90
435.22	6251.57
435.41	6438.81
435.59	6235.19
435.78	6326.47
435.97	6347.53
436.16	6333.49
436.34	6352.21
436.53	6424.77
436.72	6626.06
436.90	6476.26
437.09	6525.41
437.28	6537.12
437.46	6544.14
437.65	6630.74
437.84	6771.17
438.02	6506.69
438.21	6747.76
438.40	6464.56
438.58	6878.83
438.77	7094.16
438.96	6825.00
439.14	7000.54
439.33	7131.61
439.52	7232.26
439.70	7276.73
439.89	7344.60
440.08	7253.32
440.26	7227.57
440.45	7382.05
440.63	7438.22
440.82	7494.40
441.01	7337.58
441.19	7543.55
441.38	7604.40
441.57	7655.89
441.75	7810.37
441.94	7992.93
442.12	7920.37
442.31	7836.11
442.50	7871.22
442.68	7889.95
442.87	7934.42
443.05	8100.59
443.24	8119.32
443.43	8140.38
443.61	8067.83
443.80	8439.97
443.98	8105.28
444.17	7857.18
444.35	8098.25
444.54	8142.72
444.73	8053.78
444.91	8400.18
445.10	8271.45
445.28	8451.67
445.47	8161.45
445.65	8402.52
445.84	8479.76
446.02	8428.27
446.21	8273.79
446.39	8329.97
446.58	8365.07
446.77	8493.80
446.95	8229.32
447.14	8360.39
447.32	8564.02
447.51	8421.25
447.69	8442.31
447.88	8531.25
448.06	8514.87
448.25	8435.29
448.43	8627.21
448.62	8571.04
448.80	8498.49
448.99	8627.21
449.17	8695.09
449.36	8627.21
449.54	8753.60
449.73	9032.13
449.91	8966.59
450.10	9029.79
450.28	9004.04
450.46	8833.18
450.65	8985.32
450.83	9001.70
451.02	8915.10
451.20	8922.12
451.39	9090.64
451.57	9217.03
451.76	9104.68
451.94	9158.52
452.13	9050.85
452.31	9275.54
452.49	9111.71
452.68	9153.84
452.86	9296.61
453.05	9469.81
453.23	9324.69
453.42	9357.46
453.60	9399.59
453.78	9317.67
453.97	9221.71
454.15	9500.23
454.34	9481.51
454.52	9795.14
454.70	9591.52
454.89	9879.40
455.07	9757.69
455.26	9853.66
455.44	9902.81
455.62	9998.77
455.81	9603.22
455.99	9949.62
456.17	10019.83
456.36	9853.66
456.54	10085.37
456.73	10193.03
456.91	10345.17
457.09	10455.17
457.28	10562.84
457.46	10258.57
457.64	10485.60
457.83	10420.06
458.01	10450.49
458.19	10731.36
458.38	10466.88
458.56	10644.76
458.74	10530.07
458.93	10565.18
459.11	10623.69
459.29	10747.74
459.48	10913.92
459.66	10834.34
459.84	10679.86
460.03	10853.06
460.21	10930.30
460.39	11094.14
460.57	10977.11
460.76	10916.26
460.94	10970.09
461.12	10934.98
461.31	11133.93
461.49	11012.22
461.67	11080.10
461.85	11407.77
462.04	11220.53
462.22	11660.55
462.40	11307.13
462.59	11300.11
462.77	11508.41
462.95	11559.91
463.13	11517.78
463.32	11562.25
463.50	11740.13
463.68	11468.62
463.86	11714.38
464.05	11513.10
464.23	11674.59
464.41	11585.65
464.59	11538.84
464.78	12074.82
464.96	11850.13
465.14	11712.04
465.32	11988.22
465.50	11702.68
465.69	11946.09
465.87	12016.31
466.05	11882.90
466.23	12154.40
466.41	12205.89
466.60	12252.70
466.78	12187.17
466.96	12004.61
467.14	12327.60
467.32	12264.41
467.51	12409.52
467.69	12039.72
467.87	12215.26
468.05	12634.21
468.23	12381.43
468.41	12189.51
468.60	12351.01
468.78	12636.55
468.96	12400.16
469.14	12631.87
469.32	12917.42
469.50	12517.18
469.69	12821.45
469.87	13046.15
470.05	13013.38
470.23	12894.01
470.41	13039.12
470.59	13149.13
470.77	13303.60
470.95	13118.70
471.14	13411.27
471.32	13139.77
471.50	13303.60
471.68	13373.82
471.86	13570.43
472.04	13511.91
472.22	13954.27
472.40	13741.29
472.58	13816.18
472.77	13933.21
472.95	14036.19
473.13	14347.48
473.31	14050.24
473.49	14214.07
473.67	14207.05
473.85	14155.56
474.03	14530.05
474.21	14534.73
474.39	14647.07
474.57	14551.11
474.75	14466.85
474.93	15037.94
475.12	14757.08
475.30	14951.34
475.48	14787.50
475.66	15269.66
475.84	14963.04
476.02	15159.65
476.20	15321.15
476.38	15370.30
476.56	15974.16
476.74	15915.64
476.92	15545.84
477.10	15573.92
477.28	15915.64
477.46	15957.77
477.64	16238.64
477.82	16376.73
478.00	16908.03
478.18	16669.30
478.36	16734.83
478.54	17088.25
478.72	16769.94
478.90	17128.04
479.08	17102.29
479.26	17554.02
479.44	17301.24
479.62	17862.97
479.80	17926.16
479.98	17991.70
480.16	18281.92
480.34	17879.35
480.52	18490.23
480.70	18487.89
480.88	18342.78
481.06	18705.56
481.24	18747.69
481.41	18867.06
481.59	19419.42
481.77	19475.60
481.95	19421.77
482.13	19803.27
482.31	19438.15
482.49	20100.52
482.67	20107.54
482.85	20556.93
483.03	20592.03
483.21	20622.46
483.39	20917.37
483.57	20966.52
483.74	21099.93
483.92	21280.15
484.10	20978.22
484.28	21462.71
484.46	21607.83
484.64	22136.79
484.82	21539.95
485.00	22022.10
485.18	22429.35
485.35	22820.22
485.53	22738.30
485.71	22862.35
485.89	23517.70
486.07	22773.41
486.25	23332.80
486.43	23314.08
486.61	23821.97
486.78	23758.78
486.96	24294.76
487.14	24060.71
487.32	24510.09
487.50	24737.12
487.68	24769.89
487.85	25069.48
488.03	25336.30
488.21	25579.71
488.39	25813.77
488.57	25827.81
488.75	26024.42
488.92	26363.79
489.10	26480.82
489.28	26895.10
489.46	26979.36
489.64	26843.60
489.81	27405.33
489.99	27793.86
490.17	27789.18
490.35	27924.93
490.53	27854.72
490.70	27992.81
490.88	27936.63
491.06	28692.63
491.24	28542.83
491.41	28573.26
491.59	29006.26
491.77	29371.38
491.95	29427.56
492.13	29209.89
492.30	29759.91
492.48	29827.79
492.66	29972.90
492.84	30192.91
493.01	30600.16
493.19	30478.46
493.37	30958.27
493.54	30691.44
493.72	30986.35
493.90	31386.58
494.08	31569.15
494.25	31735.32
494.43	31817.24
494.61	31854.69
494.79	32119.17
494.96	32175.34
495.14	32510.04
495.32	32706.65
495.49	32938.36
495.67	33160.71
495.85	33340.93
496.02	33663.93
496.20	34082.88
496.38	33652.22
496.55	33869.89
496.73	34611.84
496.91	34256.08
497.09	34600.14
497.26	34857.60
497.44	34614.18
497.62	34717.17
497.79	35658.06
497.97	35208.68
498.14	35700.19
498.32	35847.64
498.50	35573.80
498.67	36315.75
498.85	36018.50
499.03	36573.21
499.20	36966.42
499.38	36741.73
499.56	36856.42
499.73	36507.68
499.91	37057.70
500.08	37303.46
500.26	36847.05
500.44	37500.06
500.61	37209.84
500.79	37350.27
500.97	38012.64
501.14	38429.26
501.32	37743.48
501.49	38267.76
501.67	38394.15
501.84	38703.10
502.02	38712.46
502.20	38604.80
502.37	38848.21
502.55	39384.19
502.72	39129.08
502.90	39147.80
503.07	39037.80
503.25	39800.81
503.43	39365.47
503.60	40098.06
503.78	39913.16
503.95	39903.79
504.13	40116.78
504.30	40334.45
504.48	40240.83
504.65	40437.44
504.83	40964.06
505.01	41130.23
505.18	40767.45
505.36	41282.37
505.53	40713.62
505.71	41371.31
505.88	41429.82
506.06	41132.57
506.23	41750.48
506.41	41556.21
506.58	41528.13
506.76	41724.73
506.93	42520.51
507.11	42089.85
507.28	42354.33
507.46	42831.80
507.63	42834.14
507.81	42663.28
507.98	42714.78
508.16	43000.32
508.33	43175.86
508.50	43253.10
508.68	43248.42
508.85	43482.47
509.03	43426.30
509.20	43688.44
509.38	43648.65
509.55	43999.73
509.73	44474.86
509.90	44348.47
510.08	44383.58
510.25	44308.68
510.42	44334.43
510.60	44615.29
510.77	45052.97
510.95	45212.13
511.12	44596.57
511.30	44959.35
511.47	45272.98
511.64	45146.59
511.82	45642.79
511.99	45502.35
512.17	45729.39
512.34	45689.60
512.51	45762.15
512.69	46195.15
512.86	45865.14
513.04	46597.73
513.21	46319.20
513.38	46108.55
513.56	46529.85
513.73	46553.26
513.90	46794.33
514.08	46459.63
514.25	46756.88
514.43	47405.21
514.60	47091.58
514.77	47480.11
514.95	47430.96
515.12	47196.90
515.29	47585.43
515.47	48098.01
515.64	47585.43
515.81	47803.10
515.99	47746.93
516.16	47959.92
516.33	47742.25
516.51	48484.20
516.68	48383.55
516.85	48147.16
517.03	48938.26
517.20	48720.59
517.37	48423.34
517.54	48217.38
517.72	48980.39
517.89	49085.72
518.06	48650.38
518.24	48828.26
518.41	48659.74
518.58	49265.94
518.75	48828.26
518.93	49265.94
519.10	49109.12
519.27	49415.73
519.45	49275.30
519.62	49684.89
519.79	49848.73
519.96	49565.52
520.14	50082.78
520.31	49677.87
520.48	50295.77
520.65	49881.50
520.83	50033.63
521.00	50248.96
521.17	50253.64
521.34	50483.01
521.52	50234.92
521.69	50698.34
521.86	50791.97
522.03	50859.84
522.20	50834.10
522.38	51030.70
522.55	51047.08
522.72	51248.37
522.89	51026.02
523.07	51119.64
523.24	51552.64
523.41	51480.08
523.58	51302.20
523.75	51690.73
523.92	51608.81
524.10	51524.55
524.27	51798.40
524.44	51627.54
524.61	51873.29
524.78	51920.10
524.96	52114.37
525.13	52210.33
525.30	52121.39
525.47	52069.90
525.64	52334.38
525.81	52727.59
525.98	52425.66
526.16	52788.44
526.33	52444.38
526.50	52692.48
526.67	52467.79
526.84	52643.33
527.01	52947.60
527.18	52746.31
527.36	52493.54
527.53	52767.38
527.70	53076.33
527.87	53099.73
528.04	52865.68
528.21	53148.88
528.38	53258.89
528.55	53258.89
528.72	53488.26
528.89	53310.38
529.07	53186.33
529.24	53146.54
529.41	53413.37
529.58	53701.25
529.75	53331.45
529.92	53780.83
530.09	53441.45
530.26	53839.34
530.43	53645.08
530.60	53586.57
530.77	53481.24
530.94	53682.53
531.11	53591.25
531.28	53612.31
531.46	53932.96
531.63	54007.86
531.80	54040.63
531.97	54284.04
532.14	54349.58
532.31	54293.41
532.48	54314.47
532.65	54555.55
532.82	54122.55
532.99	54609.38
533.16	54279.36
533.33	54307.45
533.50	54630.44
533.67	54536.82
533.84	54440.86
534.01	54873.86
534.18	54674.91
534.35	55072.81
534.52	54719.38
534.69	55133.66
534.86	54801.30
535.03	54731.09
535.20	55049.40
535.37	55346.65
535.54	55098.55
535.71	55241.32
535.88	54951.10
536.05	55358.35
536.22	55484.74
536.38	55505.80
536.55	55510.49
536.72	55393.46
536.89	55262.39
537.06	55468.36
537.23	55496.44
537.40	55339.63
537.57	55311.54
537.74	55718.79
537.91	55716.45
538.08	55653.26
538.25	55576.02
538.42	55796.03
538.59	55772.63
538.75	55693.05
538.92	55728.16
539.09	55948.17
539.26	56034.77
539.43	55945.83
539.60	56018.38
539.77	56006.68
539.94	56369.46
540.11	56074.55
540.28	56229.03
540.44	56306.27
540.61	56196.26
540.78	56306.27
540.95	56055.83
541.12	56266.48
541.29	56392.87
541.46	56320.31
541.62	56348.40
541.79	56369.46
541.96	56121.37
542.13	56348.40
542.30	56353.08
542.47	56568.41
542.63	56652.67
542.80	56633.94
542.97	56905.44
543.14	57085.67
543.31	56942.89
543.48	57010.77
543.64	57338.44
543.81	57406.32
543.98	57048.22
544.15	57366.53
544.32	57308.02
544.48	57368.87
544.65	57202.69
544.82	57315.04
544.99	57202.69
545.16	57073.96
545.32	57099.71
545.49	57579.52
545.66	57696.55
545.83	57546.75
546.00	57460.15
546.16	57429.72
546.33	57312.70
546.50	57422.70
546.67	57593.56
546.83	57411.00
547.00	57436.75
547.17	57619.31
547.34	57647.39
547.50	57785.49
547.67	57930.60
547.84	57766.76
548.00	58019.54
548.17	58049.97
548.34	58021.88
548.51	57911.88
548.67	58148.27
548.84	58066.35
549.01	58028.90
549.18	57890.81
549.34	57900.17
549.51	58024.22
549.68	58370.62
549.84	58237.21
550.01	58213.80
550.18	58157.63
550.34	58291.04
550.51	58183.38
550.68	58171.67
550.84	57993.79
551.01	58445.52
551.18	58305.09
551.34	58166.99
551.51	58475.94
551.68	58305.09
551.84	58333.17
552.01	58284.02
552.18	58464.24
552.34	58473.60
552.51	58330.83
552.68	58351.90
552.84	58674.89
553.01	58787.24
553.18	58475.94
553.34	58585.95
553.51	58724.04
553.67	58782.55
553.84	58899.58
554.01	58810.64
554.17	58714.68
554.34	58738.08
554.51	58901.92
554.67	58784.90
554.84	58798.94
555.00	58892.56
555.17	58775.53
555.33	59037.67
555.50	58749.79
555.67	58908.94
555.83	58712.34
556.00	58965.12
556.16	59168.74
556.33	59028.31
556.50	59032.99
556.66	59206.19
556.83	58745.11
556.99	59292.79
557.16	59311.52
557.32	59517.48
557.49	59543.23
557.65	59068.10
557.82	59161.72
557.98	59030.65
558.15	59344.28
558.32	59147.68
558.48	59171.08
558.65	59173.42
558.81	59330.24
558.98	59526.84
559.14	59269.39
559.31	59498.76
559.47	59241.30
559.64	59540.89
559.80	59480.03
559.97	59611.10
560.13	59442.59
560.30	59458.97
560.46	59547.91
560.63	59674.30
560.79	59592.38
560.96	59674.30
561.12	59852.18
561.29	59554.93
561.45	59702.38
561.61	59742.17
561.78	59599.40
561.94	59725.79
562.11	59634.51
562.27	59709.41
562.44	59803.03
562.60	59868.56
562.77	59774.94
562.93	59606.42
563.10	59814.73
563.26	59803.03
563.42	60254.75
563.59	59744.51
563.75	59744.51
563.92	59889.63
564.08	59882.61
564.24	60111.98
564.41	59962.18
564.57	60135.38
564.74	59959.84
564.90	60027.72
565.07	59950.48
565.23	59826.43
565.39	59950.48
565.56	60027.72
565.72	60016.02
565.88	60086.23
566.05	59917.71
566.21	60109.64
566.38	60023.04
566.54	59931.76
566.70	60186.88
566.87	60161.13
567.03	60048.78
567.19	60109.64
567.36	59966.87
567.52	59990.27
567.68	60252.41
567.85	60161.13
568.01	60095.60
568.17	60175.17
568.34	60336.67
568.50	60219.64
568.66	60219.64
568.83	60219.64
568.99	60191.56
569.15	60289.86
569.32	60224.32
569.48	60161.13
569.64	60460.72
569.81	60214.96
569.97	60292.20
570.13	60348.37
570.30	60306.24
570.46	60472.42
570.62	60451.36
570.78	60135.38
570.95	60205.60
571.11	60427.95
571.27	60336.67
571.43	60388.16
571.60	60301.56
571.76	60395.18
571.92	60437.31
572.09	60395.18
572.25	60271.14
572.41	60273.48
572.57	60388.16
572.74	60699.45
572.90	60236.03
573.06	60322.63
573.22	60395.18
573.38	60327.31
573.55	60275.82
573.71	60706.47
573.87	60516.89
574.03	60343.69
574.20	60561.36
574.36	60388.16
574.52	60596.47
574.68	60554.34
574.84	60870.31
575.01	60706.47
575.17	60493.49
575.33	60432.63
575.49	60498.17
575.65	60427.95
575.82	60809.46
575.98	60617.53
576.14	60790.73
576.30	60694.77
576.46	60685.41
576.62	60498.17
576.79	60680.73
576.95	60544.98
577.11	60530.93
577.27	60577.75
577.43	60767.33
577.59	60528.59
577.75	60615.19
577.92	60484.12
578.08	60650.30
578.24	60692.43
578.40	60694.77
578.56	60713.50
578.72	60750.94
578.88	60757.97
579.04	60631.58
579.21	60790.73
579.37	60886.70
579.53	60795.42
579.69	60446.68
579.85	60589.45
580.01	60603.49
580.17	60734.56
580.33	60662.00
580.49	60910.10
580.65	60921.80
580.82	60753.29
580.98	60519.23
581.14	60678.39
581.30	60772.01
581.46	60549.66
581.62	60715.84
581.78	60591.79
581.94	60750.94
582.10	60650.30
582.26	60640.94
582.42	60582.43
582.58	60729.88
582.74	60797.76
582.90	60715.84
583.06	60849.25
583.22	60528.59
583.38	60846.91
583.54	60626.90
583.70	60975.64
583.86	60760.31
584.02	60706.47
584.18	61134.79
584.34	60823.50
584.50	60753.29
584.66	60746.26
584.82	60711.16
584.98	61104.37
585.14	60734.56
585.30	60903.08
585.46	60973.30
585.62	60687.75
585.78	61104.37
585.94	60680.73
586.10	60907.76
586.26	60645.62
586.42	60945.21
586.58	60912.44
586.74	60678.39
586.90	60928.83
587.06	60814.14
587.22	60903.08
587.38	61045.85
587.54	61111.39
587.70	61127.77
587.86	60926.49
588.02	60977.98
588.18	61090.32
588.34	61062.24
588.49	61022.45
