SpectraSuite Data File
++++++++++++++++++++++++++++++++++++
Date: Fri Oct 25 10:47:40 EDT 2013
User: price-jones
Dark Spectrum Present: No
Reference Spectrum Present: No
Number of Sampled Component Spectra: 1
Spectrometers: USB2+H05261
Integration Time (usec): 100000 (USB2+H05261)
Spectra Averaged: 1 (USB2+H05261)
Boxcar Smoothing: 0 (USB2+H05261)
Correct for Electrical Dark: No (USB2+H05261)
Strobe/Lamp Enabled: No (USB2+H05261)
Correct for Detector Non-linearity: No (USB2+H05261)
Correct for Stray Light: No (USB2+H05261)
Number of Pixels in Processed Spectrum: 2048
>>>>>Begin Processed Spectral Data<<<<<
365.73	159.16
365.92	159.16
366.12	159.16
366.32	91.28
366.52	72.56
366.72	37.45
366.91	117.03
367.11	42.13
367.31	46.81
367.51	0.00
367.70	0.00
367.90	44.47
368.10	70.22
368.30	93.62
368.49	11.70
368.69	126.39
368.89	133.41
369.09	88.94
369.28	49.15
369.48	98.30
369.68	0.00
369.87	112.35
370.07	114.69
370.27	149.79
370.47	238.73
370.66	388.53
370.86	524.28
371.06	454.06
371.25	470.45
371.45	395.55
371.65	463.43
371.84	435.34
372.04	500.87
372.24	374.49
372.44	442.36
372.63	477.47
372.83	433.00
373.03	538.32
373.22	472.79
373.42	430.66
373.62	524.28
373.81	500.87
374.01	582.79
374.21	526.62
374.40	587.47
374.60	592.16
374.79	458.74
374.99	582.79
375.19	613.22
375.38	578.11
375.58	620.24
375.78	603.86
375.97	550.03
376.17	650.67
376.37	517.26
376.56	559.39
376.76	568.75
376.95	552.37
377.15	624.92
377.35	589.82
377.54	655.35
377.74	667.05
377.93	610.88
378.13	615.56
378.33	645.99
378.52	690.46
378.72	606.20
378.91	657.69
379.11	648.33
379.31	599.18
379.50	606.20
379.70	566.41
379.89	697.48
380.09	606.20
380.28	627.26
380.48	648.33
380.68	657.69
380.87	671.73
381.07	697.48
381.26	786.42
381.46	657.69
381.65	683.44
381.85	613.22
382.04	767.70
382.24	695.14
382.43	685.78
382.63	610.88
382.83	699.82
383.02	763.01
383.22	737.27
383.41	681.10
383.61	727.91
383.80	826.21
384.00	734.93
384.19	711.52
384.39	755.99
384.58	763.01
384.78	805.14
384.97	716.20
385.17	863.66
385.36	704.50
385.56	833.23
385.75	755.99
385.95	772.38
386.14	844.93
386.34	779.40
386.53	767.70
386.72	837.91
386.92	835.57
387.11	887.06
387.31	847.27
387.50	891.74
387.70	786.42
387.89	816.85
388.09	863.66
388.28	880.04
388.48	854.30
388.67	805.14
388.86	905.79
389.06	882.38
389.25	964.30
389.45	1006.43
389.64	901.11
389.84	971.32
390.03	940.90
390.22	957.28
390.42	863.66
390.61	901.11
390.81	919.83
391.00	943.24
391.19	954.94
391.39	877.70
391.58	968.98
391.78	940.90
391.97	1004.09
392.16	994.73
392.36	1043.88
392.55	1015.79
392.75	976.00
392.94	997.07
393.13	990.05
393.33	940.90
393.52	1008.77
393.71	1039.20
393.91	1011.11
394.10	1107.07
394.29	1062.60
394.49	1064.94
394.68	1170.27
394.88	1160.91
395.07	1132.82
395.26	1123.46
395.46	1217.08
395.65	1207.72
395.84	1090.69
396.04	1224.10
396.23	1097.71
396.42	1139.84
396.62	1104.73
396.81	1064.94
397.00	1104.73
397.19	1135.16
397.39	1177.29
397.58	1217.08
397.77	1263.89
397.97	1224.10
398.16	1338.79
398.35	1390.28
398.55	1364.53
398.74	1409.00
398.93	1287.29
399.12	1399.64
399.32	1299.00
399.51	1284.95
399.70	1357.51
399.90	1366.87
400.09	1476.88
400.28	1483.90
400.47	1441.77
400.67	1423.05
400.86	1460.49
401.05	1472.20
401.24	1596.25
401.44	1523.69
401.63	1537.73
401.82	1516.67
402.01	1516.67
402.21	1619.65
402.40	1572.84
402.59	1523.69
402.78	1549.43
402.97	1523.69
403.17	1568.16
403.36	1579.86
403.55	1633.69
403.74	1659.44
403.93	1638.38
404.13	1575.18
404.32	1591.56
404.51	1760.08
404.70	1678.16
404.89	1720.29
405.09	1687.53
405.28	1739.02
405.47	1713.27
405.66	1762.42
405.85	1837.32
406.05	1884.13
406.24	1827.96
406.43	1837.32
406.62	1769.44
406.81	1895.83
407.00	1874.77
407.20	1762.42
407.39	1811.57
407.58	1966.05
407.77	1998.82
407.96	1954.35
408.15	1989.46
408.34	1928.60
408.54	1921.58
408.73	2054.99
408.92	2069.03
409.11	2054.99
409.30	2010.52
409.49	2165.00
409.68	1998.82
409.87	2076.06
410.07	2141.59
410.26	2186.06
410.45	2165.00
410.64	2209.47
410.83	2148.61
411.02	2141.59
411.21	2275.00
411.40	2244.57
411.59	2354.58
411.78	2335.85
411.98	2331.17
412.17	2333.51
412.36	2314.79
412.55	2443.52
412.74	2518.42
412.93	2417.77
413.12	2431.82
413.31	2511.39
413.50	2455.22
413.69	2523.10
413.88	2576.93
414.07	2548.84
414.26	2684.59
414.45	2700.98
414.64	2593.31
414.83	2745.45
415.02	2747.79
415.22	2703.32
415.41	2794.60
415.60	2715.02
415.79	2951.42
415.98	2913.97
416.17	2965.46
416.36	2953.76
416.55	2979.50
416.74	2977.16
416.93	3007.59
417.12	3126.96
417.31	3096.53
417.50	3023.97
417.69	3176.11
417.88	3016.95
418.07	3115.25
418.26	3166.74
418.45	3171.43
418.64	3274.41
418.83	3279.09
419.02	3274.41
419.21	3281.43
419.39	3337.60
419.58	3143.34
419.77	3218.24
419.96	3311.86
420.15	3368.03
420.34	3269.73
420.53	3447.61
420.72	3482.72
420.91	3492.08
421.10	3332.92
421.29	3375.05
421.48	3403.14
421.67	3571.66
421.86	3475.70
422.05	3461.65
422.24	3447.61
422.43	3471.01
422.61	3499.10
422.80	3576.34
422.99	3431.23
423.18	3625.49
423.37	3606.77
423.56	3592.72
423.75	3463.99
423.94	3492.08
424.13	3297.81
424.32	3400.80
424.50	3695.71
424.69	3627.83
424.88	3585.70
425.07	3578.68
425.26	3541.23
425.45	3456.97
425.64	3630.17
425.83	3651.24
426.01	3672.30
426.20	3794.01
426.39	3618.47
426.58	3541.23
426.77	3651.24
426.96	3613.79
427.15	3564.64
427.33	3693.37
427.52	3665.28
427.71	3794.01
427.90	3758.90
428.09	3831.46
428.28	3777.62
428.46	3868.91
428.65	3829.12
428.84	4079.55
429.03	3990.61
429.22	3651.24
429.40	3765.92
429.59	3812.73
429.78	3719.11
429.97	3634.85
430.16	3833.80
430.34	3791.67
430.53	4007.00
430.72	3939.12
430.91	3932.10
431.10	3878.27
431.28	4100.62
431.47	4236.37
431.66	4203.60
431.85	4114.66
432.03	4131.05
432.22	4318.29
432.41	4227.01
432.60	4301.90
432.79	4259.78
432.97	4447.02
433.16	4252.75
433.35	4337.01
433.54	4334.67
433.72	4257.43
433.91	4194.24
434.10	4512.55
434.28	4348.72
434.47	4353.40
434.66	4519.57
434.85	4465.74
435.03	4547.66
435.22	4587.45
435.41	4610.86
435.59	4606.17
435.78	4470.42
435.97	4615.54
436.16	4571.07
436.34	4706.82
436.53	4479.79
436.72	4734.90
436.90	4674.05
437.09	4746.61
437.28	4627.24
437.46	4641.28
437.65	4697.46
437.84	4798.10
438.02	4767.67
438.21	4711.50
438.40	4727.88
438.58	4971.30
438.77	5029.81
438.96	5088.32
439.14	4990.02
439.33	5151.52
439.52	4994.70
439.70	5135.14
439.89	5263.86
440.08	5121.09
440.26	5383.23
440.45	5097.69
440.63	5289.61
440.82	5542.39
441.01	5416.00
441.19	5500.26
441.38	5284.93
441.57	5544.73
441.75	5650.05
441.94	5537.71
442.12	5764.74
442.31	5734.31
442.50	5717.93
442.68	5706.23
442.87	5600.90
443.05	5675.80
443.24	5827.93
443.43	5778.78
443.61	5755.38
443.80	5849.00
443.98	5771.76
444.17	5561.11
444.35	5879.43
444.54	5949.64
444.73	6031.56
444.91	5905.17
445.10	5806.87
445.28	6026.88
445.47	5820.91
445.65	5881.77
445.84	5893.47
446.02	6052.63
446.21	6083.05
446.39	6136.88
446.58	5961.34
446.77	5994.11
446.95	5984.75
447.14	5980.07
447.32	6076.03
447.51	5998.79
447.69	5914.53
447.88	6050.28
448.06	6176.67
448.25	6127.52
448.43	6256.25
448.62	6066.67
448.80	5912.19
448.99	6099.44
449.17	6331.15
449.36	6120.50
449.54	6396.68
449.73	6359.24
449.91	6476.26
450.10	6492.65
450.28	6534.78
450.46	6525.41
450.65	6410.73
450.83	6532.44
451.02	6485.62
451.20	6661.16
451.39	6476.26
451.57	6366.26
451.76	6497.33
451.94	6539.46
452.13	6441.15
452.31	6520.73
452.49	6438.81
452.68	6705.63
452.86	6541.80
453.05	6616.69
453.23	6686.91
453.42	6675.21
453.60	6794.58
453.78	6696.27
453.97	6602.65
454.15	6829.68
454.34	6555.84
454.52	6974.80
454.70	6773.51
454.89	6913.94
455.07	6780.53
455.26	7112.89
455.44	7040.33
455.62	7152.68
455.81	6860.11
455.99	7143.32
456.17	7026.29
456.36	6998.20
456.54	7337.58
456.73	7232.26
456.91	7356.30
457.09	7456.95
457.28	7478.01
457.46	7302.47
457.64	7433.54
457.83	7339.92
458.01	7206.51
458.19	7300.13
458.38	7424.18
458.56	7557.59
458.74	7503.76
458.93	7351.62
459.11	7627.81
459.29	7456.95
459.48	7524.82
459.66	7674.62
459.84	7655.89
460.03	7655.89
460.21	7740.15
460.39	7756.54
460.57	7686.32
460.76	7875.90
460.94	7808.03
461.12	7826.75
461.31	8070.17
461.49	7845.48
461.67	7852.50
461.85	8124.00
462.04	7943.78
462.22	8325.29
462.40	8203.58
462.59	8018.68
462.77	8131.02
462.95	8170.81
463.13	8044.42
463.32	8177.83
463.50	8124.00
463.68	8367.42
463.86	8187.19
464.05	8119.32
464.23	8100.59
464.41	8376.78
464.59	8016.33
464.78	8238.69
464.96	8414.23
465.14	8278.47
465.32	8252.73
465.50	8381.46
465.69	8475.08
465.87	8341.67
466.05	8374.44
466.23	8369.76
466.41	8578.06
466.60	8313.58
466.78	8407.20
466.96	8585.08
467.14	8547.64
467.32	8667.00
467.51	8683.39
467.69	8454.02
467.87	8545.30
468.05	8840.20
468.23	8601.47
468.41	8528.91
468.60	8800.41
468.78	8840.20
468.96	8833.18
469.14	8896.38
469.32	9125.75
469.50	8784.03
469.69	8699.77
469.87	8987.66
470.05	9004.04
470.23	8947.87
470.41	9081.28
470.59	9135.11
470.77	9153.84
470.95	9233.41
471.14	9392.57
471.32	9018.08
471.50	9334.06
471.68	9483.85
471.86	9298.95
472.04	9533.00
472.22	9738.97
472.40	9551.73
472.58	9650.03
472.77	9493.21
472.95	9830.25
473.13	9841.95
473.31	9586.83
473.49	9525.98
473.67	9734.29
473.85	9975.36
474.03	10029.20
474.21	10033.88
474.39	10057.28
474.57	10092.39
474.75	10045.58
474.93	10202.40
475.12	10181.33
475.30	10394.32
475.48	10387.30
475.66	10352.19
475.84	10424.75
476.02	10530.07
476.20	10546.45
476.38	10853.06
476.56	10841.36
476.74	10761.78
476.92	10689.23
477.10	11019.24
477.28	10930.30
477.46	11232.23
477.64	11297.77
477.82	11307.13
478.00	11501.39
478.18	11431.18
478.36	11712.04
478.54	11585.65
478.72	11616.08
478.90	11653.53
479.08	11941.41
479.26	12058.44
479.44	12252.70
479.62	12079.50
479.80	12278.45
479.98	12184.83
480.16	12451.65
480.34	12341.64
480.52	12676.34
480.70	12641.23
480.88	12491.44
481.06	12943.16
481.24	12996.99
481.41	12896.35
481.59	13125.72
481.77	13027.42
481.95	13474.46
482.13	13142.11
482.31	13287.22
482.49	13673.41
482.67	13650.00
482.85	13610.22
483.03	13769.37
483.21	13975.34
483.39	14181.31
483.57	14099.39
483.74	14211.73
483.92	14579.20
484.10	14324.08
484.28	14878.79
484.46	14806.23
484.64	14911.55
484.82	14801.55
485.00	15023.90
485.18	15239.23
485.35	15159.65
485.53	15068.37
485.71	15185.40
485.89	15410.09
486.07	15339.87
486.25	15658.18
486.43	15693.29
486.61	15908.62
486.78	16191.83
486.96	16280.77
487.14	16374.39
487.32	16372.05
487.50	16489.07
487.68	16826.11
487.85	16781.64
488.03	17048.46
488.21	17032.08
488.39	17132.72
488.57	17369.12
488.75	17668.70
488.92	17652.32
489.10	17741.26
489.28	18019.78
489.46	18232.77
489.64	18183.62
489.81	18834.29
489.99	18469.17
490.17	18508.96
490.35	18553.43
490.53	18761.73
490.70	19159.63
490.88	18953.66
491.06	19494.32
491.24	19077.71
491.41	19201.76
491.59	19452.19
491.77	19559.86
491.95	19616.03
492.13	19683.91
492.30	20053.71
492.48	19920.30
492.66	19953.07
492.84	20044.35
493.01	20432.88
493.19	20599.05
493.37	20252.66
493.54	20858.85
493.72	20821.41
493.90	20947.79
494.08	21238.02
494.25	21294.19
494.43	21294.19
494.61	21282.49
494.79	21607.83
494.96	21839.54
495.14	21635.91
495.32	22089.98
495.49	21965.93
495.67	22232.75
495.85	22328.71
496.02	22410.63
496.20	22733.62
496.38	22567.45
496.55	22724.26
496.73	23515.36
496.91	23019.17
497.09	23068.32
497.26	22960.66
497.44	23349.18
497.62	23562.17
497.79	23662.82
497.97	23506.00
498.14	23754.10
498.32	23735.37
498.50	23611.32
498.67	24044.32
498.85	24002.19
499.03	24575.62
499.20	24151.99
499.38	24753.51
499.56	24875.21
499.73	24444.56
499.91	24814.36
500.08	24814.36
500.26	24826.06
500.44	24816.70
500.61	24898.62
500.79	24929.05
500.97	25120.97
501.14	25212.25
501.32	25549.29
501.49	25322.26
501.67	25614.82
501.84	25818.45
502.02	25619.50
502.20	25741.21
502.37	26134.42
502.55	25895.69
502.72	26080.59
502.90	26209.32
503.07	26120.38
503.25	26356.77
503.43	26029.10
503.60	26522.95
503.78	26129.74
503.95	26604.87
504.13	26445.71
504.30	26682.11
504.48	26787.43
504.65	26735.94
504.83	27171.28
505.01	27295.33
505.18	27075.32
505.36	27290.65
505.53	27571.51
505.71	27681.52
505.88	27821.95
506.06	27733.01
506.23	27850.03
506.41	27585.55
506.58	28283.03
506.76	27948.34
506.93	28395.38
507.11	27978.76
507.28	28264.31
507.46	28252.61
507.63	27831.31
507.81	28332.18
507.98	28477.30
508.16	28542.83
508.33	28467.94
508.50	28591.98
508.68	28720.71
508.85	29130.31
509.03	29132.65
509.20	29069.45
509.38	28964.13
509.55	29525.86
509.73	29518.84
509.90	29514.16
510.08	29577.35
510.25	29369.04
510.42	29788.00
510.60	29860.55
510.77	29965.88
510.95	30199.93
511.12	29579.69
511.30	29944.81
511.47	30293.55
511.64	29970.56
511.82	29954.18
511.99	29965.88
512.17	30459.73
512.34	30352.07
512.51	30539.31
512.69	30670.38
512.86	30775.70
513.04	30630.59
513.21	30808.47
513.38	30764.00
513.56	31047.21
513.73	30902.09
513.90	31101.04
514.08	31068.27
514.25	31456.80
514.43	31328.07
514.60	31236.79
514.77	31477.86
514.95	31672.13
515.12	31381.90
515.29	31803.20
515.47	31721.28
515.64	31850.01
515.81	31702.56
515.99	31559.78
516.16	32109.81
516.33	31538.72
516.51	31826.60
516.68	31601.91
516.85	31871.07
517.03	32018.53
517.20	32189.39
517.37	32105.13
517.54	32587.28
517.72	32432.80
517.89	32397.70
518.06	32416.42
518.24	32671.54
518.41	32479.61
518.58	33013.26
518.75	32617.71
518.93	33167.73
519.10	33106.88
519.27	33017.94
519.45	33294.12
519.62	33556.26
519.79	33251.99
519.96	33656.90
520.14	33598.39
520.31	32996.87
520.48	33706.05
520.65	33324.55
520.83	34057.14
521.00	33970.54
521.17	34307.57
521.34	34227.99
521.52	34134.37
521.69	34017.35
521.86	34328.64
522.03	34242.04
522.20	34244.38
522.38	34436.30
522.55	34703.12
522.72	34415.24
522.89	34792.06
523.07	34763.98
523.24	34382.47
523.41	35136.12
523.58	34319.28
523.75	35314.00
523.92	34836.53
524.10	35129.10
524.27	35445.07
524.44	35344.43
524.61	35330.39
524.78	35590.19
524.96	35599.55
525.13	35723.60
525.30	35634.66
525.47	36044.25
525.64	35835.94
525.81	35725.94
525.98	36053.61
526.16	35646.36
526.33	35381.88
526.50	36231.49
526.67	35433.37
526.84	35817.22
527.01	35889.77
527.18	35875.73
527.36	36369.58
527.53	36065.31
527.70	36753.43
527.87	36381.29
528.04	36575.55
528.21	35864.03
528.38	36355.54
528.55	36884.50
528.72	36968.76
528.89	37069.40
529.07	36978.12
529.24	36545.12
529.41	36613.00
529.58	36582.57
529.75	37031.96
529.92	36957.06
530.09	37333.89
530.26	37404.10
530.43	36809.61
530.60	37184.09
530.77	37081.11
530.94	37703.69
531.11	37315.16
531.28	37371.33
531.46	37591.34
531.63	37502.40
531.80	37305.80
531.97	37935.40
532.14	37378.36
532.31	37282.39
532.48	37888.59
532.65	37902.64
532.82	37961.15
532.99	38022.00
533.16	37757.52
533.33	38003.28
533.50	37904.98
533.67	38129.67
533.84	37689.65
534.01	38263.08
534.18	38169.46
534.35	38569.69
534.52	38258.40
534.69	38415.21
534.86	38490.11
535.03	38342.66
535.20	38602.46
535.37	39236.74
535.54	39152.48
535.71	39278.87
535.88	38824.81
536.05	38623.52
536.22	38888.00
536.38	38813.10
536.55	38747.57
536.72	38717.14
536.89	38869.28
537.06	38607.14
537.23	39283.55
537.40	38691.40
537.57	38965.24
537.74	38969.92
537.91	39732.93
538.08	39555.05
538.25	38829.49
538.42	39126.74
538.59	39613.57
538.75	38918.43
538.92	39246.10
539.09	39409.94
539.26	39194.61
539.43	39770.38
539.60	39400.58
539.77	39718.89
539.94	39772.72
540.11	39388.88
540.28	39688.46
540.44	39548.03
540.61	39597.18
540.78	39646.33
540.95	39702.51
541.12	39643.99
541.29	39552.71
541.46	40212.74
541.62	39838.26
541.79	40116.78
541.96	40081.67
542.13	40189.34
542.30	39885.07
542.47	40215.08
542.63	40304.02
542.80	40587.23
542.97	40268.92
543.14	41106.83
543.31	40835.33
543.48	41078.74
543.64	41095.13
543.81	41216.83
543.98	40893.84
544.15	40737.02
544.32	40793.20
544.48	41237.90
544.65	41015.55
544.82	41148.96
544.99	40858.73
545.16	40992.14
545.32	40942.99
545.49	41235.56
545.66	41406.42
545.83	41172.36
546.00	41698.98
546.16	41464.93
546.33	41509.40
546.50	41347.90
546.67	41855.80
546.83	41186.41
547.00	41801.97
547.17	41256.62
547.34	41448.55
547.50	41429.82
547.67	42024.32
547.84	41598.34
548.00	42171.77
548.17	42094.53
548.34	41743.45
548.51	42204.54
548.67	42476.04
548.84	41876.86
549.01	41792.61
549.18	42073.47
549.34	42202.20
549.51	42117.94
549.68	41687.28
549.84	42143.69
550.01	42541.58
550.18	42256.03
550.34	41989.21
550.51	41851.12
550.68	42288.80
550.84	41345.56
551.01	42412.85
551.18	42363.70
551.34	42096.88
551.51	42665.63
551.68	42684.35
551.84	42799.04
552.01	42487.74
552.18	42359.02
552.34	42267.73
552.51	42747.54
552.68	42567.32
552.84	43070.54
553.01	43264.80
553.18	42555.62
553.34	42696.05
553.51	42436.25
553.67	42424.55
553.84	43014.37
554.01	42754.57
554.17	42799.04
554.34	43309.27
554.51	43021.39
554.67	43138.41
554.84	43040.11
555.00	43119.69
555.17	43269.48
555.33	43129.05
555.50	42827.12
555.67	43189.91
555.83	43351.40
556.00	42866.91
556.16	43505.88
556.33	43840.57
556.50	43449.70
556.66	43388.85
556.83	43016.71
556.99	43512.90
557.16	43339.70
557.32	43608.86
557.49	43601.84
557.65	43044.79
557.82	43388.85
557.98	43463.75
558.15	43100.97
558.32	43463.75
558.48	43222.67
558.65	43566.73
558.81	43407.58
558.98	43316.29
559.14	43103.31
559.31	43454.39
559.47	43658.01
559.64	43650.99
559.80	43817.17
559.97	43981.01
560.13	43833.55
560.30	43566.73
560.46	43894.41
560.63	43845.26
560.79	44154.21
560.96	44058.24
561.12	43856.96
561.29	43419.28
561.45	43873.34
561.61	43959.94
561.78	43973.98
561.94	43761.00
562.11	44163.57
562.27	43725.89
562.44	44416.35
562.60	43938.88
562.77	44526.35
562.93	44287.62
563.10	44355.49
563.26	43882.70
563.42	44411.67
563.59	43892.07
563.75	44004.41
563.92	44505.29
564.08	44226.76
564.24	44617.63
564.41	44030.16
564.57	44222.08
564.74	44502.95
564.90	44554.44
565.07	44264.21
565.23	44444.43
565.39	43831.21
565.56	44514.65
565.72	44226.76
565.88	43938.88
566.05	44301.66
566.21	44009.09
566.38	43971.64
566.54	44294.64
566.70	44409.32
566.87	44809.56
567.03	44231.44
567.19	44687.85
567.36	44638.70
567.52	43997.39
567.68	44603.59
567.85	44116.76
568.01	44486.56
568.17	44020.80
568.34	44292.30
568.50	44114.42
568.66	44161.23
568.83	44322.72
568.99	44210.38
569.15	44315.70
569.32	44238.47
569.48	44247.83
569.64	44566.14
569.81	44535.71
569.97	44275.91
570.13	44580.18
570.30	44046.54
570.46	44224.42
570.62	44814.24
570.78	44512.31
570.95	44451.45
571.11	44910.20
571.27	44556.78
571.43	44980.42
571.60	44800.19
571.76	44533.37
571.92	44521.67
572.09	44528.69
572.25	44547.42
572.41	44428.05
572.57	44601.25
572.74	44837.64
572.90	44945.31
573.06	44816.58
573.22	44388.26
573.38	44615.29
573.55	44619.97
573.71	44715.93
573.87	44744.02
574.03	44435.07
574.20	44933.60
574.36	44280.60
574.52	45247.24
574.68	45059.99
574.84	44704.23
575.01	44762.75
575.17	44634.02
575.33	44547.42
575.49	44634.02
575.65	45174.68
575.82	45184.04
575.98	44729.98
576.14	44804.88
576.30	45048.29
576.46	44360.17
576.62	44498.26
576.79	44732.32
576.95	44528.69
577.11	44793.17
577.27	45102.12
577.43	44896.16
577.59	44884.45
577.75	44708.91
577.92	44577.84
578.08	44751.04
578.24	44678.49
578.40	44662.10
578.56	44362.51
578.72	44500.61
578.88	45340.86
579.04	45031.91
579.21	44947.65
579.37	44781.47
579.53	44472.52
579.69	44935.95
579.85	44591.89
580.01	44392.94
580.17	44875.09
580.33	45024.89
580.49	44842.32
580.65	44985.10
580.82	44622.31
580.98	44811.90
581.14	44538.05
581.30	45155.96
581.46	44751.04
581.62	45081.06
581.78	45106.80
581.94	45298.73
582.10	44835.30
582.26	45230.85
582.42	45490.65
582.58	44685.51
582.74	45059.99
582.90	45003.82
583.06	44605.93
583.22	45364.26
583.38	44971.05
583.54	44814.24
583.70	44718.28
583.86	44905.52
584.02	44659.76
584.18	44914.88
584.34	44865.73
584.50	45289.37
584.66	45057.65
584.82	44795.51
584.98	44966.37
585.14	45291.71
585.30	44879.77
585.46	45015.52
585.62	44442.09
585.78	44793.17
585.94	44753.38
586.10	44629.34
586.26	44495.92
586.42	45085.74
586.58	45153.62
586.74	44975.73
586.90	44907.86
587.06	44678.49
587.22	44856.37
587.38	44657.42
587.54	45476.61
587.70	45050.63
587.86	45064.67
588.02	45144.25
588.18	45230.85
588.34	44769.77
588.49	45106.80
588.65	44973.39
588.81	45083.40
588.97	44807.22
589.13	44708.91
589.29	45102.12
589.45	44964.03
589.61	44940.63
589.77	45092.76
589.93	45088.08
590.08	45179.36
590.24	45684.92
