SpectraSuite Data File
++++++++++++++++++++++++++++++++++++
Date: Fri Oct 25 10:48:32 EDT 2013
User: price-jones
Dark Spectrum Present: No
Reference Spectrum Present: No
Number of Sampled Component Spectra: 1
Spectrometers: USB2+H05261
Integration Time (usec): 100000 (USB2+H05261)
Spectra Averaged: 1 (USB2+H05261)
Boxcar Smoothing: 0 (USB2+H05261)
Correct for Electrical Dark: No (USB2+H05261)
Strobe/Lamp Enabled: No (USB2+H05261)
Correct for Detector Non-linearity: No (USB2+H05261)
Correct for Stray Light: No (USB2+H05261)
Number of Pixels in Processed Spectrum: 2048
>>>>>Begin Processed Spectral Data<<<<<
365.73	124.05
365.92	124.05
366.12	124.05
366.32	65.54
366.52	28.09
366.72	70.22
366.91	4.68
367.11	35.11
367.31	0.00
367.51	49.15
367.70	18.72
367.90	11.70
368.10	39.79
368.30	32.77
368.49	30.43
368.69	63.19
368.89	72.56
369.09	67.88
369.28	91.28
369.48	37.45
369.68	117.03
369.87	196.60
370.07	128.73
370.27	56.17
370.47	177.88
370.66	486.83
370.86	423.64
371.06	517.26
371.25	566.41
371.45	409.59
371.65	521.94
371.84	433.00
372.04	456.40
372.24	573.43
372.44	538.32
372.63	503.22
372.83	629.60
373.03	491.51
373.22	535.98
373.42	575.77
373.62	496.19
373.81	582.79
374.01	564.07
374.21	535.98
374.40	594.50
374.60	624.92
374.79	629.60
374.99	624.92
375.19	641.31
375.38	601.52
375.58	671.73
375.78	622.58
375.97	653.01
376.17	655.35
376.37	631.94
376.56	676.41
376.76	645.99
376.95	641.31
377.15	615.56
377.35	725.57
377.54	643.65
377.74	697.48
377.93	690.46
378.13	692.80
378.33	653.01
378.52	603.86
378.72	645.99
378.91	702.16
379.11	718.54
379.31	697.48
379.50	643.65
379.70	699.82
379.89	671.73
380.09	706.84
380.28	617.90
380.48	737.27
380.68	713.86
380.87	702.16
381.07	741.95
381.26	685.78
381.46	678.76
381.65	716.20
381.85	795.78
382.04	704.50
382.24	648.33
382.43	676.41
382.63	688.12
382.83	755.99
383.02	753.65
383.22	777.06
383.41	727.91
383.61	741.95
383.80	786.42
384.00	777.06
384.19	889.40
384.39	788.76
384.58	732.59
384.78	924.51
384.97	952.60
385.17	828.55
385.36	884.72
385.56	882.38
385.75	884.72
385.95	875.36
386.14	884.72
386.34	842.59
386.53	938.55
386.72	781.74
386.92	877.70
387.11	877.70
387.31	898.77
387.50	891.74
387.70	931.53
387.89	884.72
388.09	887.06
388.28	854.30
388.48	868.34
388.67	1001.75
388.86	1011.11
389.06	999.41
389.25	1032.18
389.45	1062.60
389.64	976.00
389.84	1050.90
390.03	1025.15
390.22	1001.75
390.42	966.64
390.61	994.73
390.81	1102.39
391.00	1020.47
391.19	1036.86
391.39	1163.25
391.58	1174.95
391.78	1102.39
391.97	1025.15
392.16	1027.50
392.36	1041.54
392.55	1081.33
392.75	1090.69
392.94	961.96
393.13	1032.18
393.33	1048.56
393.52	1146.86
393.71	1160.91
393.91	1153.88
394.10	1179.63
394.29	1191.33
394.49	1153.88
394.68	1270.91
394.88	1254.53
395.07	1231.12
395.26	1291.98
395.46	1217.08
395.65	1341.13
395.84	1240.48
396.04	1270.91
396.23	1210.06
396.42	1240.48
396.62	1259.21
396.81	1345.81
397.00	1277.93
397.19	1390.28
397.39	1308.36
397.58	1453.47
397.77	1376.24
397.97	1462.83
398.16	1437.09
398.35	1544.75
398.55	1511.99
398.74	1526.03
398.93	1600.93
399.12	1563.48
399.32	1495.60
399.51	1556.46
399.70	1638.38
399.90	1591.56
400.09	1668.80
400.28	1563.48
400.47	1593.90
400.67	1647.74
400.86	1659.44
401.05	1739.02
401.24	1617.31
401.44	1746.04
401.63	1872.43
401.82	1694.55
402.01	1785.83
402.21	1858.39
402.40	1713.27
402.59	1837.32
402.78	1839.66
402.97	1717.95
403.17	1846.68
403.36	1940.30
403.55	1919.24
403.74	1940.30
403.93	1877.11
404.13	1902.86
404.32	1961.37
404.51	1898.17
404.70	1961.37
404.89	1975.41
405.09	1968.39
405.28	2064.35
405.47	1984.77
405.66	2015.20
405.85	1989.46
406.05	2015.20
406.24	2047.97
406.43	2071.37
406.62	2214.15
406.81	2204.78
407.00	2115.84
407.20	1980.09
407.39	2094.78
407.58	2195.42
407.77	2331.17
407.96	2230.53
408.15	2396.71
408.34	2155.63
408.54	2326.49
408.73	2326.49
408.92	2406.07
409.11	2495.01
409.30	2363.94
409.49	2319.47
409.68	2331.17
409.87	2340.54
410.07	2487.99
410.26	2422.45
410.45	2506.71
410.64	2424.80
410.83	2516.08
411.02	2635.44
411.21	2715.02
411.40	2590.97
411.59	2642.46
411.78	2602.68
411.98	2757.15
412.17	2796.94
412.36	2621.40
412.55	2984.18
412.74	2719.70
412.93	2839.07
413.12	2719.70
413.31	3005.25
413.50	2958.44
413.69	2871.84
413.88	2944.39
414.07	2806.30
414.26	2972.48
414.45	3056.74
414.64	3103.55
414.83	3019.29
415.02	3075.46
415.22	3190.15
415.41	3229.94
415.60	3258.03
415.79	3267.39
415.98	3314.20
416.17	3321.22
416.36	3178.45
416.55	3358.67
416.74	3227.60
416.93	3346.97
417.12	3447.61
417.31	3351.65
417.50	3499.10
417.69	3639.53
417.88	3592.72
418.07	3459.31
418.26	3447.61
418.45	3574.00
418.64	3705.07
418.83	3761.24
419.02	3578.68
419.21	3606.77
419.39	3620.81
419.58	3679.32
419.77	3676.98
419.96	3740.18
420.15	3833.80
420.34	3789.33
420.53	3894.65
420.72	3875.93
420.91	3904.01
421.10	3939.12
421.29	4014.02
421.48	3896.99
421.67	4002.32
421.86	4025.72
422.05	3990.61
422.24	3742.52
422.43	3838.48
422.61	3906.35
422.80	4102.96
422.99	3981.25
423.18	4004.66
423.37	4037.42
423.56	4077.21
423.75	3934.44
423.94	4170.83
424.13	3824.44
424.32	3812.73
424.50	4049.13
424.69	4086.58
424.88	4145.09
425.07	4028.06
425.26	3915.72
425.45	3934.44
425.64	4053.81
425.83	4028.06
426.01	4152.11
426.20	4149.77
426.39	4060.83
426.58	4170.83
426.77	4011.68
426.96	4152.11
427.15	4079.55
427.33	4063.17
427.52	4273.82
427.71	4135.73
427.90	4212.96
428.09	4117.00
428.28	4264.46
428.46	4315.95
428.65	4152.11
428.84	4381.48
429.03	4367.44
429.22	4250.41
429.40	4166.15
429.59	4250.41
429.78	3840.82
429.97	4098.28
430.16	3976.57
430.34	4255.09
430.53	4234.03
430.72	4215.30
430.91	4400.21
431.10	4418.93
431.28	4624.90
431.47	4760.65
431.66	4737.24
431.85	4634.26
432.03	4774.69
432.22	4854.27
432.41	4683.41
432.60	4868.31
432.79	4720.86
432.97	4875.34
433.16	4975.98
433.35	4706.82
433.54	4786.40
433.72	4744.27
433.91	4678.73
434.10	4856.61
434.28	4947.89
434.47	4971.30
434.66	5039.17
434.85	5078.96
435.03	5132.79
435.22	5043.85
435.41	5226.42
435.59	5191.31
435.78	5118.75
435.97	5226.42
436.16	5235.78
436.34	5235.78
436.53	5245.14
436.72	5437.06
436.90	5146.84
437.09	5296.63
437.28	5210.03
437.46	5203.01
437.65	5275.57
437.84	5238.12
438.02	5310.68
438.21	5352.81
438.40	5329.40
438.58	5380.89
438.77	5668.78
438.96	5401.96
439.14	5624.31
439.33	5764.74
439.52	5809.21
439.70	5734.31
439.89	5741.33
440.08	5900.49
440.26	5907.51
440.45	5825.59
440.63	5919.21
440.82	6176.67
441.01	6038.58
441.19	6223.48
441.38	6211.78
441.57	6286.68
441.75	6260.93
441.94	6478.60
442.12	6417.75
442.31	6544.14
442.50	6466.90
442.68	6602.65
442.87	6502.01
443.05	6480.94
443.24	6736.06
443.43	6492.65
443.61	6565.20
443.80	6836.70
443.98	6377.96
444.17	6480.94
444.35	6764.15
444.54	6733.72
444.73	6604.99
444.91	6712.66
445.10	6703.29
445.28	6506.69
445.47	6366.26
445.65	6466.90
445.84	6668.19
446.02	6841.39
446.21	6700.95
446.39	6572.22
446.58	6773.51
446.77	6754.79
446.95	6724.36
447.14	6780.53
447.32	7063.74
447.51	7014.59
447.69	6703.29
447.88	6794.58
448.06	6785.21
448.25	7002.88
448.43	6953.73
448.62	6925.65
448.80	6953.73
448.99	7070.76
449.17	7054.37
449.36	7119.91
449.54	7213.53
449.73	7403.11
449.91	7358.64
450.10	7396.09
450.28	7316.51
450.46	7428.86
450.65	7323.54
450.83	7419.50
451.02	7489.71
451.20	7407.80
451.39	7426.52
451.57	7449.93
451.76	7281.41
451.94	7382.05
452.13	7571.63
452.31	7328.22
452.49	7279.07
452.68	7428.86
452.86	7456.95
453.05	7414.82
453.23	7524.82
453.42	7286.09
453.60	7489.71
453.78	7889.95
453.97	7543.55
454.15	7557.59
454.34	7611.42
454.52	7740.15
454.70	7609.08
454.89	7775.26
455.07	7873.56
455.26	7868.88
455.44	7747.17
455.62	7985.91
455.81	7782.28
455.99	7948.46
456.17	7974.21
456.36	8046.76
456.54	8009.31
456.73	8189.53
456.91	8439.97
457.09	8325.29
457.28	8475.08
457.46	8152.09
457.64	8379.12
457.83	8215.28
458.01	8142.72
458.19	8306.56
458.38	8262.09
458.56	8599.13
458.74	8276.13
458.93	8416.57
459.11	8575.72
459.29	8313.58
459.48	8617.85
459.66	8629.56
459.84	8645.94
460.03	8688.07
460.21	8634.24
460.39	8851.91
460.57	8755.94
460.76	8772.33
460.94	8823.82
461.12	8973.61
461.31	8800.41
461.49	8826.16
461.67	8725.52
461.85	8982.98
462.04	8936.17
462.22	9411.29
462.40	9100.00
462.59	9076.60
462.77	9100.00
462.95	9097.66
463.13	9107.02
463.32	9259.16
463.50	9083.62
463.68	9123.41
463.86	9317.67
464.05	9092.98
464.23	9029.79
464.41	9146.81
464.59	9104.68
464.78	9228.73
464.96	9277.88
465.14	9107.02
465.32	9502.58
465.50	9350.44
465.69	9432.36
465.87	9317.67
466.05	9296.61
466.23	9102.34
466.41	9312.99
466.60	9781.10
466.78	9509.60
466.96	9423.00
467.14	9525.98
467.32	9556.41
467.51	9582.15
467.69	9605.56
467.87	9661.73
468.05	9825.57
468.23	9757.69
468.41	9561.09
468.60	9610.24
468.78	9891.10
468.96	9617.26
469.14	9944.94
469.32	10115.80
469.50	9802.16
469.69	9851.31
469.87	9846.63
470.05	10115.80
470.23	9970.68
470.41	9884.08
470.59	10012.81
470.77	10181.33
470.95	10317.08
471.14	10427.09
471.32	10057.28
471.50	10537.09
471.68	10300.70
471.86	10579.22
472.04	10534.75
472.22	10621.35
472.40	10424.75
472.58	10469.22
472.77	10546.45
472.95	10827.32
473.13	11286.06
473.31	10761.78
473.49	10946.69
473.67	10815.62
473.85	10956.05
474.03	11323.51
474.21	11192.44
474.39	11410.11
474.57	11257.98
474.75	11164.36
474.93	11353.94
475.12	11487.35
475.30	11241.59
475.48	11452.24
475.66	11386.71
475.84	11604.38
476.02	11772.89
476.20	11693.32
476.38	11812.68
476.56	12145.04
476.74	12196.53
476.92	11831.41
477.10	12107.59
477.28	12589.74
477.46	12222.28
477.64	12608.47
477.82	12669.32
478.00	12688.04
478.18	12858.90
478.36	12905.71
478.54	12901.03
478.72	13116.36
478.90	13050.83
479.08	13282.54
479.26	13350.42
479.44	13439.36
479.62	13671.07
479.80	13678.09
479.98	13825.54
480.16	13851.29
480.34	13891.08
480.52	14214.07
480.70	14232.80
480.88	13853.63
481.06	14132.15
481.24	14235.14
481.41	14387.27
481.59	14736.01
481.77	14707.93
481.95	14736.01
482.13	14876.44
482.31	14932.62
482.49	15171.35
482.67	15318.81
482.85	15225.18
483.03	15466.26
483.21	15901.60
483.39	15697.97
483.57	15683.93
483.74	15939.05
483.92	15871.17
484.10	15712.02
484.28	16051.39
484.46	16369.71
484.64	16475.03
484.82	16421.20
485.00	16643.55
485.18	16608.44
485.35	16882.28
485.53	16348.64
485.71	16624.83
485.89	17348.05
486.07	16875.26
486.25	17043.78
486.43	17074.21
486.61	17500.19
486.78	17642.96
486.96	18052.55
487.14	17802.11
487.32	17961.27
487.50	18366.18
487.68	18331.08
487.85	18822.59
488.03	18813.23
488.21	19178.35
488.39	19208.78
488.57	19295.38
488.75	19183.03
488.92	19569.22
489.10	19749.44
489.28	20044.35
489.46	20016.26
489.64	19786.89
489.81	20336.91
489.99	20538.20
490.17	20910.35
490.35	20851.83
490.53	20720.76
490.70	21010.99
490.88	20968.86
491.06	21432.29
491.24	21249.72
491.41	21039.08
491.59	21111.63
491.77	21373.77
491.95	21462.71
492.13	21788.05
492.30	21972.95
492.48	22094.66
492.66	22033.80
492.84	22237.43
493.01	22714.90
493.19	22270.20
493.37	22911.50
493.54	22677.45
493.72	23323.44
493.90	23115.13
494.08	23494.30
494.25	23297.69
494.43	23768.14
494.61	23882.83
494.79	24156.67
494.96	23763.46
495.14	23983.47
495.32	24137.94
495.49	24503.07
495.67	24570.94
495.85	24744.14
496.02	24833.08
496.20	25067.14
496.38	25001.60
496.55	24910.32
496.73	25984.63
496.91	25193.53
497.09	25294.17
497.26	25619.50
497.44	25406.52
497.62	25776.32
497.79	25717.81
497.97	26050.16
498.14	26080.59
498.32	25860.58
498.50	26478.48
498.67	26647.00
498.85	26527.63
499.03	26719.56
499.20	26965.31
499.38	27110.43
499.56	26906.80
499.73	27077.66
499.91	27180.64
500.08	27288.31
500.26	27103.40
500.44	27473.21
500.61	27566.83
500.79	27538.74
500.97	27683.86
501.14	27950.68
501.32	27962.38
501.49	27880.46
501.67	27491.93
501.84	28156.64
502.02	28013.87
502.20	28231.54
502.37	28589.64
502.55	28577.94
502.72	28699.65
502.90	28601.35
503.07	28409.42
503.25	28912.64
503.43	28692.63
503.60	28865.83
503.78	28875.19
503.95	28931.36
504.13	29291.80
504.30	29366.70
504.48	29631.18
504.65	29230.95
504.83	30064.18
505.01	29509.47
505.18	29813.74
505.36	30213.98
505.53	29804.38
505.71	30246.74
505.88	30759.32
506.06	30036.09
506.23	30366.11
506.41	30295.89
506.58	30457.39
506.76	30403.56
506.93	30703.15
507.11	30621.23
507.28	30773.36
507.46	30632.93
507.63	30511.22
507.81	31377.22
507.98	31098.70
508.16	31187.64
508.33	31292.96
508.50	31395.95
508.68	31412.33
508.85	31688.51
509.03	31819.58
509.20	32020.87
509.38	31910.86
509.55	31573.83
509.73	31721.28
509.90	32044.27
510.08	31952.99
510.25	32041.93
510.42	32439.82
510.60	32435.14
510.77	32488.98
510.95	32657.49
511.12	32573.24
511.30	32577.92
511.47	32823.67
511.64	33345.61
511.82	32989.85
511.99	32910.27
512.17	33392.42
512.34	32748.78
512.51	33511.79
512.69	33434.55
512.86	33455.62
513.04	33357.32
513.21	33701.37
513.38	33385.40
513.56	33832.44
513.73	33469.66
513.90	33970.54
514.08	33649.88
514.25	33795.00
514.43	33942.45
514.60	33984.58
514.77	33949.47
514.95	34370.77
515.12	34345.02
515.29	34146.08
515.47	34845.90
515.64	34768.66
515.81	34600.14
515.99	34375.45
516.16	34497.16
516.33	34490.13
516.51	34513.54
516.68	34052.45
516.85	33787.97
517.03	34279.49
517.20	35009.73
517.37	34904.41
517.54	35208.68
517.72	35154.85
517.89	35220.38
518.06	34513.54
518.24	34859.94
518.41	35306.98
518.58	35402.94
518.75	35335.07
518.93	35494.22
519.10	35456.78
519.27	36130.85
519.45	36231.49
519.62	35496.56
519.79	36055.95
519.96	36133.19
520.14	36306.39
520.31	36348.52
520.48	36526.40
520.65	36732.37
520.83	36776.84
521.00	36877.48
521.17	36928.97
521.34	36854.08
521.52	37214.52
521.69	37024.93
521.86	37619.43
522.03	37050.68
522.20	37294.10
522.38	36849.39
522.55	37457.93
522.72	37244.94
522.89	37266.01
523.07	37141.96
523.24	37708.37
523.41	37818.38
523.58	37827.74
523.75	38623.52
523.92	37823.06
524.10	38246.69
524.27	37820.72
524.44	38370.74
524.61	38469.04
524.78	38298.19
524.96	38433.94
525.13	38333.29
525.30	39131.42
525.47	38792.04
525.64	38667.99
525.81	38347.34
525.98	38129.67
526.16	38330.95
526.33	38038.39
526.50	38281.80
526.67	38085.20
526.84	38380.10
527.01	38789.70
527.18	38457.34
527.36	38948.85
527.53	38925.45
527.70	39335.04
527.87	39367.81
528.04	39138.44
528.21	38962.90
528.38	39297.59
528.55	39374.83
528.72	39395.90
528.89	40175.30
529.07	40254.87
529.24	39473.13
529.41	39636.97
529.58	39639.31
529.75	39721.23
529.92	39796.13
530.09	39842.94
530.26	40254.87
530.43	39945.92
530.60	40053.59
530.77	40179.98
530.94	40177.64
531.11	40360.20
531.28	39906.13
531.46	40673.83
531.63	40502.97
531.80	40053.59
531.97	40306.37
532.14	40336.79
532.31	40172.96
532.48	40107.42
532.65	40725.32
532.82	40751.07
532.99	40814.26
533.16	39938.90
533.33	41013.21
533.50	41076.40
533.67	40954.69
533.84	40942.99
534.01	41177.04
534.18	41287.05
534.35	41242.58
534.52	41148.96
534.69	41148.96
534.86	41347.90
535.03	41148.96
535.20	41563.23
535.37	42272.42
535.54	41626.43
535.71	41790.27
535.88	41930.70
536.05	41532.81
536.22	41560.89
536.38	41579.62
536.55	41647.49
536.72	41766.86
536.89	41361.95
537.06	41539.83
537.23	42066.45
537.40	41841.76
537.57	41942.40
537.74	41888.57
537.91	42253.69
538.08	42417.53
538.25	41750.48
538.42	42344.97
538.59	42586.05
538.75	41993.89
538.92	42131.98
539.09	42305.18
539.26	42000.91
539.43	42082.83
539.60	42293.48
539.77	42291.14
539.94	42859.89
540.11	42024.32
540.28	42293.48
540.44	42408.17
540.61	42623.50
540.78	42190.50
540.95	42462.00
541.12	42204.54
541.29	42576.69
541.46	42422.21
541.62	42572.00
541.79	43030.75
541.96	42824.78
542.13	42813.08
542.30	43356.08
542.47	43232.04
542.63	42934.79
542.80	42990.96
542.97	43625.25
543.14	43625.25
543.31	43257.78
543.48	43412.26
543.64	44215.06
543.81	43819.51
543.98	43564.39
544.15	43540.99
544.32	43735.25
544.48	44446.77
544.65	43618.22
544.82	43934.20
544.99	43646.31
545.16	44055.90
545.32	43627.59
545.49	44037.18
545.66	44369.54
545.83	43903.77
546.00	44416.35
546.16	43718.87
546.33	43679.08
546.50	43772.70
546.67	44254.85
546.83	43810.15
547.00	44013.77
547.17	44013.77
547.34	43821.85
547.50	44439.75
547.67	44493.58
547.84	44051.22
548.00	44774.45
548.17	44919.56
548.34	44802.53
548.51	44755.72
548.67	45256.60
548.84	44395.28
549.01	44711.25
549.18	44720.62
549.34	44533.37
549.51	44966.37
549.68	45268.30
549.84	44858.71
550.01	44996.80
550.18	44610.61
550.34	44484.22
550.51	44767.43
550.68	45013.18
550.84	44439.75
551.01	45366.60
551.18	45387.67
551.34	45050.63
551.51	45205.11
551.68	45315.11
551.84	45102.12
552.01	44877.43
552.18	45448.52
552.34	44954.67
552.51	45312.77
552.68	45195.74
552.84	44933.60
553.01	45624.06
553.18	45354.90
553.34	45333.84
553.51	45139.57
553.67	45682.58
553.84	45750.45
554.01	45883.86
554.17	45764.49
554.34	45750.45
554.51	45572.57
554.67	45813.65
554.84	45977.48
555.00	46064.08
555.17	45469.59
555.33	45673.21
555.50	45429.80
555.67	45869.82
555.83	45673.21
556.00	45663.85
556.16	45907.27
556.33	45879.18
556.50	45940.04
556.66	46155.36
556.83	45825.35
556.99	45991.53
557.16	46085.15
557.32	46131.96
557.49	45691.94
557.65	45703.64
557.82	45942.38
557.98	45944.72
558.15	45736.41
558.32	45958.76
558.48	45921.31
558.65	45734.07
558.81	45968.12
558.98	46094.51
559.14	46319.20
559.31	46197.49
559.47	46148.34
559.64	46508.79
559.80	46202.18
559.97	46518.15
560.13	45865.14
560.30	46258.35
560.46	46274.73
560.63	46115.58
560.79	46724.11
560.96	46644.54
561.12	46632.83
561.29	46644.54
561.45	46492.40
561.61	46443.25
561.78	46567.30
561.94	46518.15
562.11	46536.87
562.27	45968.12
562.44	46169.41
562.60	46429.21
562.77	46836.46
562.93	46639.86
563.10	46775.61
563.26	46195.15
563.42	46878.59
563.59	46684.33
563.75	46630.49
563.92	46651.56
564.08	46712.41
564.24	46986.25
564.41	47409.89
564.57	46962.85
564.74	46752.20
564.90	46583.68
565.07	46857.52
565.23	46693.69
565.39	46408.14
565.56	46770.93
565.72	46539.21
565.88	46181.11
566.05	46394.10
566.21	46543.89
566.38	46602.41
566.54	46590.70
566.70	46827.10
566.87	46974.55
567.03	46731.14
567.19	46810.71
567.36	46864.55
567.52	46728.80
567.68	46962.85
567.85	46539.21
568.01	46976.89
568.17	46801.35
568.34	46564.96
568.50	46705.39
568.66	46426.87
568.83	46848.16
568.99	47056.47
569.15	46525.17
569.32	46557.94
569.48	46279.41
569.64	47161.79
569.81	47105.62
569.97	46749.86
570.13	46789.65
570.30	47124.35
570.46	46658.58
570.62	46511.13
570.78	46810.71
570.95	46677.30
571.11	46777.95
571.27	46679.64
571.43	47114.98
571.60	47150.09
571.76	46494.74
571.92	46883.27
572.09	46677.30
572.25	46836.46
572.41	46803.69
572.57	46979.23
572.74	47351.38
572.90	47047.11
573.06	47285.84
573.22	47342.02
573.38	47449.68
573.55	46712.41
573.71	47182.86
573.87	46738.16
574.03	46780.29
574.20	46527.51
574.36	47084.56
574.52	47222.65
574.68	47288.18
574.84	47079.88
575.01	46852.84
575.17	46920.72
575.33	46525.17
575.49	47023.70
575.65	47414.57
575.82	47419.25
575.98	46784.97
576.14	47358.40
576.30	47157.11
576.46	46766.24
576.62	46911.36
576.79	47419.25
576.95	46562.62
577.11	46930.08
577.27	47051.79
577.43	47283.50
577.59	47033.07
577.75	47222.65
577.92	46775.61
578.08	46272.39
578.24	46937.10
578.40	46993.28
578.56	46948.81
578.72	47327.97
578.88	47707.14
579.04	47248.39
579.21	46953.49
579.37	46843.48
579.53	47070.51
579.69	47033.07
579.85	46995.62
580.01	47704.80
580.17	47150.09
580.33	47379.46
580.49	47292.86
580.65	47304.57
580.82	47386.49
580.98	47419.25
581.14	46878.59
581.30	47299.89
581.46	47550.32
581.62	47435.64
581.78	47215.63
581.94	47613.52
582.10	47292.86
582.26	47166.48
582.42	47157.11
582.58	47334.99
582.74	47103.28
582.90	47667.35
583.06	47505.85
583.22	47459.04
583.38	47166.48
583.54	46997.96
583.70	46958.17
583.86	47402.87
584.02	46883.27
584.18	47292.86
584.34	46735.82
584.50	47550.32
584.66	47243.71
584.82	46784.97
584.98	47344.36
585.14	47220.31
585.30	47150.09
585.46	47014.34
585.62	46862.21
585.78	47143.07
585.94	47091.58
586.10	46911.36
586.26	47063.49
586.42	47213.29
586.58	47416.91
586.74	46965.19
586.90	47061.15
587.06	46911.36
587.22	47248.39
587.38	47145.41
587.54	47206.26
587.70	47199.24
587.86	46897.31
588.02	46815.40
588.18	47358.40
588.34	46625.81
588.49	46803.69
588.65	46710.07
588.81	46117.92
588.97	46621.13
589.13	46679.64
589.29	46871.57
589.45	47063.49
589.61	47430.96
589.77	47274.14
