SpectraSuite Data File
++++++++++++++++++++++++++++++++++++
Date: Fri Oct 25 10:47:07 EDT 2013
User: price-jones
Dark Spectrum Present: No
Reference Spectrum Present: No
Number of Sampled Component Spectra: 1
Spectrometers: USB2+H05261
Integration Time (usec): 100000 (USB2+H05261)
Spectra Averaged: 1 (USB2+H05261)
Boxcar Smoothing: 0 (USB2+H05261)
Correct for Electrical Dark: No (USB2+H05261)
Strobe/Lamp Enabled: No (USB2+H05261)
Correct for Detector Non-linearity: No (USB2+H05261)
Correct for Stray Light: No (USB2+H05261)
Number of Pixels in Processed Spectrum: 2048
>>>>>Begin Processed Spectral Data<<<<<
365.73	154.48
365.92	154.48
366.12	154.48
366.32	56.17
366.52	39.79
366.72	21.06
366.91	91.28
367.11	79.58
367.31	107.66
367.51	93.62
367.70	23.41
367.90	30.43
368.10	79.58
368.30	32.77
368.49	67.88
368.69	107.66
368.89	100.64
369.09	79.58
369.28	58.51
369.48	105.32
369.68	117.03
369.87	95.96
370.07	161.50
370.27	203.63
370.47	145.11
370.66	381.51
370.86	379.17
371.06	484.49
371.25	482.15
371.45	449.38
371.65	442.36
371.84	461.09
372.04	533.64
372.24	521.94
372.44	468.11
372.63	484.49
372.83	507.90
373.03	489.17
373.22	507.90
373.42	517.26
373.62	444.70
373.81	500.87
374.01	519.60
374.21	571.09
374.40	442.36
374.60	545.34
374.79	564.07
374.99	568.75
375.19	613.22
375.38	571.09
375.58	559.39
375.78	641.31
375.97	519.60
376.17	564.07
376.37	554.71
376.56	620.24
376.76	629.60
376.95	580.45
377.15	573.43
377.35	594.50
377.54	594.50
377.74	559.39
377.93	587.47
378.13	653.01
378.33	587.47
378.52	643.65
378.72	545.34
378.91	603.86
379.11	660.03
379.31	573.43
379.50	629.60
379.70	678.76
379.89	671.73
380.09	648.33
380.28	620.24
380.48	653.01
380.68	631.94
380.87	641.31
381.07	709.18
381.26	713.86
381.46	667.05
381.65	697.48
381.85	657.69
382.04	664.71
382.24	695.14
382.43	671.73
382.63	681.10
382.83	704.50
383.02	751.31
383.22	739.61
383.41	664.71
383.61	730.25
383.80	706.84
384.00	763.01
384.19	709.18
384.39	683.44
384.58	617.90
384.78	727.91
384.97	770.04
385.17	718.54
385.36	753.65
385.56	772.38
385.75	655.35
385.95	753.65
386.14	809.83
386.34	800.46
386.53	676.41
386.72	739.61
386.92	793.44
387.11	800.46
387.31	781.74
387.50	821.53
387.70	833.23
387.89	812.17
388.09	830.89
388.28	833.23
388.48	798.12
388.67	793.44
388.86	844.93
389.06	840.25
389.25	915.15
389.45	833.23
389.64	894.08
389.84	894.08
390.03	884.72
390.22	898.77
390.42	919.83
390.61	922.17
390.81	816.85
391.00	922.17
391.19	933.87
391.39	971.32
391.58	966.64
391.78	926.85
391.97	945.58
392.16	891.74
392.36	992.39
392.55	966.64
392.75	933.87
392.94	1015.79
393.13	868.34
393.33	1022.81
393.52	1025.15
393.71	1004.09
393.91	1036.86
394.10	1004.09
394.29	945.58
394.49	1041.54
394.68	1149.20
394.88	1121.12
395.07	1111.75
395.26	1116.44
395.46	1086.01
395.65	1088.35
395.84	1139.84
396.04	1137.50
396.23	1064.94
396.42	1146.86
396.62	1151.54
396.81	1095.37
397.00	1224.10
397.19	1188.99
397.39	1139.84
397.58	1184.31
397.77	1212.40
397.97	1242.82
398.16	1242.82
398.35	1352.83
398.55	1296.66
398.74	1299.00
398.93	1345.81
399.12	1313.04
399.32	1289.64
399.51	1308.36
399.70	1373.89
399.90	1352.83
400.09	1350.49
400.28	1472.20
400.47	1416.02
400.67	1441.77
400.86	1348.15
401.05	1434.75
401.24	1479.22
401.44	1472.20
401.63	1373.89
401.82	1504.96
402.01	1511.99
402.21	1519.01
402.40	1540.07
402.59	1551.78
402.78	1558.80
402.97	1404.32
403.17	1530.71
403.36	1556.46
403.55	1633.69
403.74	1636.03
403.93	1563.48
404.13	1624.33
404.32	1636.03
404.51	1575.18
404.70	1647.74
404.89	1664.12
405.09	1806.89
405.28	1746.04
405.47	1682.85
405.66	1722.63
405.85	1701.57
406.05	1804.55
406.24	1724.97
406.43	1799.87
406.62	1872.43
406.81	1902.86
407.00	1809.23
407.20	1827.96
407.39	1790.51
407.58	1842.00
407.77	1914.56
407.96	1902.86
408.15	1989.46
408.34	2033.93
408.54	2106.48
408.73	1928.60
408.92	1970.73
409.11	1987.11
409.30	1980.09
409.49	2010.52
409.68	2043.29
409.87	1916.90
410.07	1994.14
410.26	2106.48
410.45	2092.44
410.64	2181.38
410.83	2129.89
411.02	2221.17
411.21	2317.13
411.40	2277.34
411.59	2165.00
411.78	2221.17
411.98	2183.72
412.17	2317.13
412.36	2319.47
412.55	2399.05
412.74	2429.48
412.93	2452.88
413.12	2434.16
413.31	2562.89
413.50	2541.82
413.69	2523.10
413.88	2532.46
414.07	2546.50
414.26	2562.89
414.45	2637.78
414.64	2583.95
414.83	2569.91
415.02	2649.49
415.22	2677.57
415.41	2745.45
415.60	2726.72
415.79	2731.41
415.98	2825.03
416.17	2855.45
416.36	2876.52
416.55	2857.79
416.74	2829.71
416.93	2883.54
417.12	2911.63
417.31	3012.27
417.50	2965.46
417.69	3131.64
417.88	2904.60
418.07	2984.18
418.26	3005.25
418.45	3082.49
418.64	3297.81
418.83	3115.25
419.02	3101.21
419.21	3091.85
419.39	3176.11
419.58	3066.10
419.77	3126.96
419.96	3190.15
420.15	3166.74
420.34	3173.77
420.53	3300.16
420.72	3475.70
420.91	3346.97
421.10	3358.67
421.29	3332.92
421.48	3365.69
421.67	3382.07
421.86	3379.73
422.05	3400.80
422.24	3403.14
422.43	3412.50
422.61	3449.95
422.80	3463.99
422.99	3513.14
423.18	3562.30
423.37	3634.85
423.56	3471.01
423.75	3489.74
423.94	3335.26
424.13	3321.22
424.32	3414.84
424.50	3613.79
424.69	3674.64
424.88	3571.66
425.07	3571.66
425.26	3461.65
425.45	3550.59
425.64	3571.66
425.83	3454.63
426.01	3538.89
426.20	3555.27
426.39	3562.30
426.58	3435.91
426.77	3578.68
426.96	3456.97
427.15	3613.79
427.33	3513.14
427.52	3630.17
427.71	3688.68
427.90	3784.65
428.09	3679.32
428.28	3651.24
428.46	3599.74
428.65	3744.86
428.84	3946.14
429.03	3838.48
429.22	3662.94
429.40	3857.20
429.59	3817.41
429.78	3604.42
429.97	3564.64
430.16	3786.99
430.34	3803.37
430.53	3929.76
430.72	3716.77
430.91	3887.63
431.10	3887.63
431.28	3960.19
431.47	3981.25
431.66	4114.66
431.85	4051.47
432.03	4018.70
432.22	4278.50
432.41	4201.26
432.60	4231.69
432.79	4222.33
432.97	4271.48
433.16	4198.92
433.35	4175.52
433.54	4117.00
433.72	4248.07
433.91	4243.39
434.10	4299.56
434.28	4114.66
434.47	4308.93
434.66	4496.17
434.85	4367.44
435.03	4470.42
435.22	4376.80
435.41	4528.94
435.59	4287.86
435.78	4482.13
435.97	4491.49
436.16	4554.68
436.34	4545.32
436.53	4671.71
436.72	4428.29
436.90	4493.83
437.09	4667.03
437.28	4599.15
437.46	4638.94
437.65	4699.80
437.84	4627.24
438.02	4603.83
438.21	4554.68
438.40	4718.52
438.58	4800.44
438.77	4933.85
438.96	4751.29
439.14	4973.64
439.33	4891.72
439.52	4966.62
439.70	5057.90
439.89	5032.15
440.08	5118.75
440.26	5128.11
440.45	5081.30
440.63	5238.12
440.82	5233.44
441.01	5242.80
441.19	5434.72
441.38	5378.55
441.57	5298.97
441.75	5366.85
441.94	5591.54
442.12	5685.16
442.31	5521.32
442.50	5593.88
442.68	5600.90
442.87	5521.32
443.05	5678.14
443.24	5668.78
443.43	5621.97
443.61	5825.59
443.80	5891.13
443.98	5596.22
444.17	5593.88
444.35	5778.78
444.54	5799.85
444.73	5834.96
444.91	5874.74
445.10	5776.44
445.28	5701.54
445.47	5617.29
445.65	5701.54
445.84	5736.65
446.02	5879.43
446.21	5895.81
446.39	5968.37
446.58	5886.45
446.77	5841.98
446.95	5898.15
447.14	5940.28
447.32	6001.13
447.51	6071.35
447.69	5762.40
447.88	6057.31
448.06	6012.84
448.25	6047.94
448.43	6003.47
448.62	5926.24
448.80	5858.36
448.99	6087.73
449.17	6022.20
449.36	5959.00
449.54	6078.37
449.73	6073.69
449.91	6162.63
450.10	6438.81
450.28	6420.09
450.46	6258.59
450.65	6246.89
450.83	6392.00
451.02	6485.62
451.20	6469.24
451.39	6480.94
451.57	6347.53
451.76	6415.41
451.94	6312.42
452.13	6317.11
452.31	6469.24
452.49	6455.20
452.68	6473.92
452.86	6403.71
453.05	6427.11
453.23	6576.91
453.42	6286.68
453.60	6619.04
453.78	6663.51
453.97	6576.91
454.15	6497.33
454.34	6373.28
454.52	6619.04
454.70	6612.01
454.89	6689.25
455.07	6686.91
455.26	6761.81
455.44	6747.76
455.62	6813.30
455.81	6967.77
455.99	6939.69
456.17	6832.02
456.36	6925.65
456.54	7133.95
456.73	7061.40
456.91	7201.83
457.09	7110.55
457.28	7314.17
457.46	7117.57
457.64	7283.75
457.83	7253.32
458.01	7162.04
458.19	7171.40
458.38	7290.77
458.56	7309.49
458.74	7433.54
458.93	7204.17
459.11	7323.54
459.29	7473.33
459.48	7431.20
459.66	7452.27
459.84	7417.16
460.03	7660.57
460.21	7550.57
460.39	7499.08
460.57	7513.12
460.76	7719.09
460.94	7695.68
461.12	7751.85
461.31	7672.28
461.49	7440.56
461.67	7719.09
461.85	7896.97
462.04	7679.30
462.22	8222.30
462.40	7838.45
462.59	7770.58
462.77	7712.07
462.95	7957.82
463.13	7726.11
463.32	8056.12
463.50	7962.50
463.68	8276.13
463.86	8109.96
464.05	8046.76
464.23	7885.26
464.41	8025.70
464.59	7957.82
464.78	8252.73
464.96	8229.32
465.14	8138.04
465.32	8435.29
465.50	8372.10
465.69	8395.50
465.87	8074.85
466.05	8147.40
466.23	8105.28
466.41	8278.47
466.60	8390.82
466.78	8147.40
466.96	8280.82
467.14	8145.06
467.32	8439.97
467.51	8521.89
467.69	8294.86
467.87	8397.84
468.05	8557.00
468.23	8376.78
468.41	8510.19
468.60	8601.47
468.78	8718.50
468.96	8648.28
469.14	8704.45
469.32	8758.28
469.50	8454.02
469.69	8737.22
469.87	8842.54
470.05	8788.71
470.23	8784.03
470.41	8919.78
470.59	8954.89
470.77	8739.56
470.95	8959.57
471.14	9046.17
471.32	8910.42
471.50	9165.54
471.68	9224.05
471.86	9322.35
472.04	9242.78
472.22	9341.08
472.40	9092.98
472.58	9462.79
472.77	9310.65
472.95	9472.15
473.13	9589.17
473.31	9261.50
473.49	9444.06
473.67	9661.73
473.85	9614.92
474.03	9841.95
474.21	9898.13
474.39	10221.12
474.57	9811.53
474.75	10076.01
474.93	10101.75
475.12	9998.77
475.30	10167.29
475.48	10253.89
475.66	10359.21
475.84	10132.18
476.02	10195.37
476.20	10171.97
476.38	10689.23
476.56	10761.78
476.74	10771.15
476.92	10438.79
477.10	10803.91
477.28	10864.77
477.46	10747.74
477.64	10972.43
477.82	11110.52
478.00	11164.36
478.18	11468.62
478.36	11442.88
478.54	11463.94
478.72	11384.37
478.90	11800.98
479.08	11618.42
479.26	11969.50
479.44	11840.77
479.62	11922.69
479.80	12100.57
479.98	11852.47
480.16	12180.15
480.34	12423.56
480.52	12435.27
480.70	12416.54
480.88	12241.00
481.06	12538.25
481.24	12566.34
481.41	12608.47
481.59	12828.48
481.77	13018.06
481.95	13172.54
482.13	13247.43
482.31	13064.87
482.49	13591.49
482.67	13238.07
482.85	13418.29
483.03	13362.12
483.21	13839.59
483.39	13827.88
483.57	13806.82
483.74	13965.98
483.92	14134.50
484.10	14052.58
484.28	14242.16
484.46	14466.85
484.64	14555.79
484.82	14675.16
485.00	14586.22
485.18	15068.37
485.35	15002.83
485.53	14960.70
485.71	14958.36
485.89	15096.46
486.07	15297.74
486.25	15529.45
486.43	15396.04
486.61	15623.08
486.78	15882.88
486.96	16016.29
487.14	16004.58
487.32	16308.85
487.50	16402.47
487.68	16264.38
487.85	16781.64
488.03	16585.04
488.21	16980.59
488.39	16966.54
488.57	17137.40
488.75	17015.69
488.92	17319.96
489.10	17537.63
489.28	17446.35
489.46	17867.65
489.64	17727.22
489.81	18001.06
489.99	18162.56
490.17	18218.73
490.35	18590.88
490.53	18354.48
490.70	18686.84
490.88	18700.88
491.06	18956.00
491.24	18623.64
491.41	19115.16
491.59	19260.27
491.77	18998.13
491.95	19194.73
492.13	19215.80
492.30	19786.89
492.48	20074.77
492.66	19737.74
492.84	19955.41
493.01	19964.77
493.19	20346.28
493.37	20334.57
493.54	20449.26
493.72	20666.93
493.90	20453.94
494.08	20636.50
494.25	21125.68
494.43	21163.12
494.61	21179.51
494.79	21401.86
494.96	21238.02
495.14	21074.18
495.32	21507.18
495.49	21600.80
495.67	21703.79
495.85	21820.81
496.02	22125.08
496.20	22167.21
496.38	22094.66
496.55	22012.74
496.73	22888.10
496.91	22494.89
497.09	22572.13
497.26	22717.24
497.44	22995.76
497.62	23063.64
497.79	23592.60
497.97	23288.33
498.14	23065.98
498.32	23342.16
498.50	23585.58
498.67	23868.78
498.85	23669.84
499.03	23779.84
499.20	23992.83
499.38	24105.18
499.56	24322.85
499.73	24655.20
499.91	24318.17
500.08	24198.80
500.26	24297.10
500.44	24257.31
500.61	24641.16
500.79	24566.26
500.97	24863.51
501.14	24886.92
501.32	25142.03
501.49	24994.58
501.67	25104.59
501.84	25282.47
502.02	25476.73
502.20	25614.82
502.37	26045.48
502.55	25736.53
502.72	25593.76
502.90	25848.88
503.07	25479.07
503.25	26001.01
503.43	25610.14
503.60	26178.89
503.78	26073.57
503.95	25898.03
504.13	26560.40
504.30	26749.98
504.48	26120.38
504.65	26462.10
504.83	27035.53
505.01	26359.11
505.18	26593.17
505.36	27037.87
505.53	26852.97
505.71	27051.91
505.88	27456.82
506.06	26843.60
506.23	27449.80
506.41	27112.77
506.58	27615.98
506.76	27393.63
506.93	27623.00
507.11	27864.08
507.28	27948.34
507.46	27480.23
507.63	27850.03
507.81	27931.95
507.98	27885.14
508.16	28060.68
508.33	28369.63
508.50	28355.59
508.68	28285.37
508.85	28641.14
509.03	28451.55
509.20	28692.63
509.38	28875.19
509.55	29041.37
509.73	29249.67
509.90	29233.29
510.08	28840.08
510.25	28835.40
510.42	28919.66
510.60	29132.65
510.77	29539.90
510.95	29743.53
511.12	29383.09
511.30	29879.28
511.47	29703.74
511.64	29890.98
511.82	29970.56
511.99	29766.93
512.17	30181.21
512.34	29893.32
512.51	30291.21
512.69	30033.75
512.86	30347.39
513.04	30417.60
513.21	30768.68
513.38	30466.75
513.56	30368.45
513.73	30132.06
513.90	30637.61
514.08	30754.64
514.25	30569.74
514.43	30771.02
514.60	30799.11
514.77	30939.54
514.95	31227.43
515.12	31070.61
515.29	31398.29
515.47	31194.66
515.64	31538.72
515.81	31087.00
515.99	31599.57
516.16	31466.16
516.33	31772.77
516.51	31604.25
516.68	31519.99
516.85	31454.46
517.03	31761.07
517.20	31917.89
517.37	31758.73
517.54	31943.63
517.72	32044.27
517.89	32144.92
518.06	31924.91
518.24	32198.75
518.41	32191.73
518.58	31964.70
518.75	32301.73
518.93	32503.02
519.10	32439.82
519.27	32636.43
519.45	32854.10
519.62	32966.45
519.79	32973.47
519.96	33141.99
520.14	33226.24
520.31	33167.73
520.48	33209.86
520.65	33127.94
520.83	33724.78
521.00	33462.64
521.17	33535.20
521.34	33516.47
521.52	33612.43
521.69	33291.78
521.86	33940.11
522.03	33961.17
522.20	33928.41
522.38	33818.40
522.55	33965.85
522.72	33743.50
522.89	34115.65
523.07	33979.90
523.24	33961.17
523.41	34583.76
523.58	34361.40
523.75	35000.37
523.92	34167.14
524.10	34307.57
524.27	34663.33
524.44	34782.70
524.61	34906.75
524.78	35108.04
524.96	35091.65
525.13	35119.74
525.30	35611.25
525.47	35454.44
525.64	35196.98
525.81	35253.15
525.98	34969.94
526.16	35084.63
526.33	35292.94
526.50	35641.68
526.67	34937.18
526.84	35342.09
527.01	34946.54
527.18	35456.78
527.36	35419.33
527.53	35817.22
527.70	36299.37
527.87	36081.70
528.04	36070.00
528.21	36074.68
528.38	35637.00
528.55	36053.61
528.72	35931.90
528.89	36177.66
529.07	36257.24
529.24	36231.49
529.41	36540.44
529.58	36163.62
529.75	36060.63
529.92	36521.72
530.09	36463.21
530.26	36978.12
530.43	36797.90
530.60	36458.52
530.77	36676.19
530.94	37106.85
531.11	36486.61
531.28	37067.06
531.46	37223.88
531.63	37294.10
531.80	37038.98
531.97	37277.71
532.14	36921.95
532.31	36676.19
532.48	37181.75
532.65	37385.38
532.82	37141.96
532.99	37516.45
533.16	37235.58
533.33	37404.10
533.50	37617.09
533.67	37511.77
533.84	37867.53
534.01	37390.06
534.18	37830.08
534.35	38447.98
534.52	38019.66
534.69	37940.08
534.86	38045.41
535.03	37731.78
535.20	37968.17
535.37	38204.56
535.54	37940.08
535.71	38354.36
535.88	38132.01
536.05	38099.24
536.22	38565.01
536.38	38452.66
536.55	38501.81
536.72	38349.68
536.89	38492.45
537.06	38153.07
537.23	38387.13
537.40	38340.32
537.57	38696.08
537.74	38712.46
537.91	38923.11
538.08	38995.67
538.25	38452.66
538.42	38726.50
538.59	39267.17
538.75	38504.15
538.92	38890.34
539.09	39075.24
539.26	38934.81
539.43	39281.21
539.60	39086.95
539.77	39084.61
539.94	39082.27
540.11	38897.36
540.28	39585.48
540.44	39250.78
540.61	39056.52
540.78	39035.45
540.95	39133.76
541.12	39196.95
541.29	39117.37
541.46	39562.08
541.62	39435.69
541.79	39400.58
541.96	39351.43
542.13	39377.17
542.30	39501.22
542.47	39372.49
542.63	39477.82
542.80	39686.12
542.97	40432.75
543.14	40086.36
543.31	40491.27
543.48	40044.23
543.64	40502.97
543.81	40533.40
543.98	40187.00
544.15	40182.32
544.32	40718.30
544.48	40931.29
544.65	40397.65
544.82	40634.04
544.99	40570.85
545.16	40685.53
545.32	40678.51
545.49	40875.12
545.66	41017.89
545.83	40823.62
546.00	40891.50
546.16	40935.97
546.33	40531.06
546.50	41120.87
546.67	41200.45
546.83	40821.28
547.00	40847.03
547.17	41076.40
547.34	40708.94
547.50	41172.36
547.67	41212.15
547.84	41078.74
548.00	41022.57
548.17	41750.48
548.34	41539.83
548.51	41680.26
548.67	41556.21
548.84	41624.09
549.01	41579.62
549.18	41216.83
549.34	41675.58
549.51	41928.36
549.68	41965.81
549.84	42038.36
550.01	42101.56
550.18	41282.37
550.34	41783.24
550.51	41748.14
550.68	41727.07
550.84	41436.84
551.01	41741.11
551.18	41610.04
551.34	41762.18
551.51	41771.54
551.68	41998.57
551.84	41933.04
552.01	41923.68
552.18	42267.73
552.34	41984.53
552.51	42141.35
552.68	42223.26
552.84	42249.01
553.01	42263.05
553.18	42536.90
553.34	42539.24
553.51	41729.41
553.67	42057.09
553.84	42569.66
554.01	42572.00
554.17	42623.50
554.34	42717.12
554.51	42766.27
554.67	42396.46
554.84	43288.21
555.00	42597.75
555.17	42389.44
555.33	42518.17
555.50	43007.34
555.67	42674.99
555.83	42754.57
556.00	42939.47
556.16	42986.28
556.33	43318.64
556.50	42691.37
556.66	42895.00
556.83	42813.08
556.99	42820.10
557.16	42831.80
557.32	42937.13
557.49	42555.62
557.65	42466.68
557.82	42721.80
557.98	42862.23
558.15	42902.02
558.32	42939.47
558.48	42810.74
558.65	42988.62
558.81	42728.82
558.98	43061.18
559.14	43526.94
559.31	43105.65
559.47	43580.78
559.64	43606.52
559.80	43641.63
559.97	43297.57
560.13	42946.49
560.30	43264.80
560.46	43377.15
560.63	43688.44
560.79	43540.99
560.96	43674.40
561.12	43482.47
561.29	43288.21
561.45	43283.53
561.61	43569.07
561.78	43189.91
561.94	43299.91
562.11	43597.16
562.27	43849.94
562.44	43505.88
562.60	43732.91
562.77	43775.04
562.93	43576.09
563.10	43608.86
563.26	43695.46
563.42	43945.90
563.59	43557.37
563.75	43271.82
563.92	44081.65
564.08	43749.29
564.24	43828.87
564.41	43962.28
564.57	43892.07
564.74	43430.98
564.90	43922.49
565.07	44119.10
565.23	43721.21
565.39	43798.44
565.56	44385.92
565.72	43929.51
565.88	43569.07
566.05	43491.83
566.21	43482.47
566.38	44196.34
566.54	44161.23
566.70	43901.43
566.87	44016.11
567.03	43833.55
567.19	44570.82
567.36	44069.95
567.52	43917.81
567.68	44201.02
567.85	43746.95
568.01	44215.06
568.17	43910.79
568.34	44107.40
568.50	44107.40
568.66	44189.31
568.83	44074.63
568.99	43791.42
569.15	43873.34
569.32	43910.79
569.48	43957.60
569.64	44664.44
569.81	44334.43
569.97	44318.04
570.13	43964.62
570.30	43613.54
570.46	43772.70
570.62	43597.16
570.78	43871.00
570.95	44154.21
571.11	44378.90
571.27	44158.89
571.43	44126.12
571.60	44130.80
571.76	43470.77
571.92	43964.62
572.09	44018.46
572.25	44151.87
572.41	44114.42
572.57	44311.02
572.74	44428.05
572.90	44069.95
573.06	44137.82
573.22	44388.26
573.38	44318.04
573.55	43931.86
573.71	44170.59
573.87	44568.48
574.03	44196.34
574.20	43985.69
574.36	44086.33
574.52	44538.05
574.68	44446.77
574.84	44790.83
575.01	44392.94
575.17	44069.95
575.33	44105.06
575.49	44013.77
575.65	44526.35
575.82	44905.52
575.98	44844.66
576.14	44662.10
576.30	44568.48
576.46	43934.20
576.62	44154.21
576.79	44135.48
576.95	43775.04
577.11	44320.38
577.27	44301.66
577.43	44760.40
577.59	44259.53
577.75	44325.07
577.92	44318.04
578.08	44250.17
578.24	44334.43
578.40	44208.04
578.56	44142.50
578.72	44116.76
578.88	44725.30
579.04	44753.38
579.21	44170.59
579.37	44615.29
579.53	44086.33
579.69	43948.24
579.85	44587.21
580.01	44425.71
580.17	44446.77
580.33	44952.33
580.49	44552.10
580.65	44854.03
580.82	44516.99
580.98	44573.16
581.14	44392.94
581.30	44460.82
581.46	44460.82
581.62	44589.55
581.78	44376.56
581.94	44832.96
582.10	44790.83
582.26	44652.74
582.42	44378.90
582.58	44612.95
582.74	44301.66
582.90	44800.19
583.06	44779.13
583.22	44737.00
583.38	44601.25
583.54	44535.71
583.70	44299.32
583.86	44566.14
584.02	44179.95
584.18	44304.00
584.34	44524.01
584.50	44823.60
584.66	44697.21
584.82	44619.97
584.98	44886.79
585.14	44793.17
585.30	44308.68
585.46	44727.64
585.62	44296.98
585.78	44549.76
585.94	43950.58
586.10	44704.23
586.26	44687.85
586.42	44678.49
586.58	45162.98
586.74	44664.44
586.90	44680.83
587.06	44158.89
587.22	44982.76
587.38	44641.04
587.54	45111.49
587.70	44933.60
587.86	44830.62
588.02	44587.21
588.18	44800.19
588.34	44322.72
588.49	44474.86
588.65	44432.73
588.81	44406.98
588.97	44151.87
589.13	44580.18
589.29	44336.77
589.45	45045.95
589.61	44924.24
589.77	44893.82
589.93	44580.18
590.08	44669.12
590.24	44758.06
