SpectraSuite Data File
++++++++++++++++++++++++++++++++++++
Date: Fri Oct 25 11:25:16 EDT 2013
User: price-jones
Dark Spectrum Present: No
Reference Spectrum Present: No
Number of Sampled Component Spectra: 1
Spectrometers: USB2+H05261
Integration Time (usec): 100000 (USB2+H05261)
Spectra Averaged: 1 (USB2+H05261)
Boxcar Smoothing: 0 (USB2+H05261)
Correct for Electrical Dark: No (USB2+H05261)
Strobe/Lamp Enabled: No (USB2+H05261)
Correct for Detector Non-linearity: No (USB2+H05261)
Correct for Stray Light: No (USB2+H05261)
Number of Pixels in Processed Spectrum: 2048
>>>>>Begin Processed Spectral Data<<<<<
365.73	285.55
365.92	285.55
366.12	285.55
366.32	180.22
366.52	173.20
366.72	110.01
366.91	84.26
367.11	126.39
367.31	91.28
367.51	121.71
367.70	135.75
367.90	166.18
368.10	175.54
368.30	131.07
368.49	135.75
368.69	175.54
368.89	110.01
369.09	140.43
369.28	175.54
369.48	243.42
369.68	177.88
369.87	210.65
370.07	234.05
370.27	245.76
370.47	374.49
370.66	559.39
370.86	568.75
371.06	730.25
371.25	695.14
371.45	631.94
371.65	655.35
371.84	660.03
372.04	671.73
372.24	718.54
372.44	704.50
372.63	723.23
372.83	678.76
373.03	760.67
373.22	734.93
373.42	723.23
373.62	723.23
373.81	833.23
374.01	713.86
374.21	819.19
374.40	755.99
374.60	791.10
374.79	713.86
374.99	837.91
375.19	854.30
375.38	866.00
375.58	856.64
375.78	835.57
375.97	875.36
376.17	880.04
376.37	823.87
376.56	866.00
376.76	866.00
376.95	856.64
377.15	938.55
377.35	917.49
377.54	870.68
377.74	936.21
377.93	908.13
378.13	884.72
378.33	994.73
378.52	940.90
378.72	901.11
378.91	957.28
379.11	910.47
379.31	945.58
379.50	915.15
379.70	924.51
379.89	968.98
380.09	884.72
380.28	889.40
380.48	954.94
380.68	945.58
380.87	1006.43
381.07	954.94
381.26	1069.62
381.46	924.51
381.65	1053.24
381.85	1018.13
382.04	1029.84
382.24	1114.10
382.43	1020.47
382.63	1022.81
382.83	1032.18
383.02	1076.65
383.22	1114.10
383.41	1097.71
383.61	1177.29
383.80	1144.52
384.00	1093.03
384.19	1128.14
384.39	1100.05
384.58	1184.31
384.78	1139.84
384.97	1163.25
385.17	1170.27
385.36	1181.97
385.56	1193.67
385.75	1210.06
385.95	1114.10
386.14	1184.31
386.34	1200.69
386.53	1224.10
386.72	1238.14
386.92	1277.93
387.11	1167.93
387.31	1174.95
387.50	1249.85
387.70	1247.51
387.89	1165.59
388.09	1301.34
388.28	1378.58
388.48	1240.48
388.67	1249.85
388.86	1270.91
389.06	1322.40
389.25	1343.47
389.45	1331.76
389.64	1397.30
389.84	1399.64
390.03	1343.47
390.22	1364.53
390.42	1366.87
390.61	1371.55
390.81	1394.96
391.00	1439.43
391.19	1544.75
391.39	1383.26
391.58	1348.15
391.78	1458.15
391.97	1399.64
392.16	1439.43
392.36	1533.05
392.55	1526.03
392.75	1577.52
392.94	1511.99
393.13	1561.14
393.33	1476.88
393.52	1511.99
393.71	1598.59
393.91	1572.84
394.10	1542.41
394.29	1661.78
394.49	1638.38
394.68	1633.69
394.88	1678.16
395.07	1715.61
395.26	1636.03
395.46	1619.65
395.65	1664.12
395.84	1673.48
396.04	1748.38
396.23	1820.94
396.42	1753.06
396.62	1767.10
396.81	1762.42
397.00	1666.46
397.19	1797.53
397.39	1729.66
397.58	1844.34
397.77	1762.42
397.97	1825.62
398.16	1853.70
398.35	1865.41
398.55	1764.76
398.74	1863.07
398.93	1933.28
399.12	1846.68
399.32	1837.32
399.51	1830.30
399.70	2031.58
399.90	1994.14
400.09	2026.90
400.28	1884.13
400.47	2031.58
400.67	2040.95
400.86	2136.91
401.05	2113.50
401.24	2066.69
401.44	2076.06
401.63	2111.16
401.82	2099.46
402.01	2099.46
402.21	2193.08
402.40	2200.10
402.59	2101.80
402.78	2176.70
402.97	2317.13
403.17	2272.66
403.36	2183.72
403.55	2200.10
403.74	2373.30
403.93	2258.62
404.13	2296.07
404.32	2473.95
404.51	2354.58
404.70	2382.67
404.89	2443.52
405.09	2462.24
405.28	2441.18
405.47	2471.61
405.66	2523.10
405.85	2509.05
406.05	2434.16
406.24	2612.04
406.43	2614.38
406.62	2614.38
406.81	2605.02
407.00	2523.10
407.20	2487.99
407.39	2576.93
407.58	2628.42
407.77	2693.96
407.96	2722.04
408.15	2731.41
408.34	2661.19
408.54	2818.00
408.73	2878.86
408.92	2808.64
409.11	2892.90
409.30	2995.89
409.49	2853.11
409.68	2829.71
409.87	2810.98
410.07	2904.60
410.26	2998.23
410.45	2979.50
410.64	3002.91
410.83	2923.33
411.02	3066.10
411.21	3178.45
411.40	3126.96
411.59	3126.96
411.78	3201.85
411.98	3176.11
412.17	3255.69
412.36	3353.99
412.55	3258.03
412.74	3424.20
412.93	3440.59
413.12	3255.69
413.31	3471.01
413.50	3447.61
413.69	3435.91
413.88	3510.80
414.07	3438.25
414.26	3510.80
414.45	3613.79
414.64	3585.70
414.83	3604.42
415.02	3751.88
415.22	3756.56
415.41	3833.80
415.60	3829.12
415.79	3911.04
415.98	3964.87
416.17	3850.18
416.36	3957.85
416.55	3934.44
416.74	4032.74
416.93	4014.02
417.12	4070.19
417.31	4063.17
417.50	4241.05
417.69	4203.60
417.88	4126.36
418.07	4219.99
418.26	4306.59
418.45	4414.25
418.64	4545.32
418.83	4308.93
419.02	4386.16
419.21	4589.79
419.39	4503.19
419.58	4435.32
419.77	4486.81
419.96	4482.13
420.15	4690.43
420.34	4638.94
420.53	4496.17
420.72	4718.52
420.91	4692.77
421.10	4545.32
421.29	4690.43
421.48	4718.52
421.67	4807.46
421.86	4685.75
422.05	4608.51
422.24	4716.18
422.43	4877.68
422.61	4835.55
422.80	4926.83
422.99	4861.29
423.18	4891.72
423.37	4891.72
423.56	4952.57
423.75	4833.21
423.94	4755.97
424.13	4557.02
424.32	4713.84
424.50	4748.95
424.69	5022.79
424.88	4933.85
425.07	4873.00
425.26	4980.66
425.45	4947.89
425.64	5039.17
425.83	4858.95
426.01	5018.11
426.20	5172.58
426.39	4938.53
426.58	5097.69
426.77	5156.20
426.96	5270.89
427.15	4964.28
427.33	5214.71
427.52	5076.62
427.71	5359.83
427.90	5193.65
428.09	5313.02
428.28	5273.23
428.46	5296.63
428.65	5317.70
428.84	5383.23
429.03	5582.18
429.22	5277.91
429.40	5371.53
429.59	5535.37
429.78	5341.10
429.97	5238.12
430.16	5502.60
430.34	5598.56
430.53	5671.12
430.72	5575.16
430.91	5434.72
431.10	5526.00
431.28	5724.95
431.47	5633.67
431.66	5799.85
431.85	5818.57
432.03	5834.96
432.22	6022.20
432.41	5778.78
432.60	5860.70
432.79	6029.22
432.97	5872.40
433.16	5823.25
433.35	5942.62
433.54	5966.03
433.72	6122.84
433.91	6066.67
434.10	6040.92
434.28	5982.41
434.47	6204.76
434.66	6078.37
434.85	6274.98
435.03	6354.55
435.22	6167.31
435.41	6408.39
435.59	6452.86
435.78	6527.75
435.97	6368.60
436.16	6328.81
436.34	6349.87
436.53	6492.65
436.72	6633.08
436.90	6466.90
437.09	6572.22
437.28	6464.56
437.46	6548.82
437.65	6677.55
437.84	6717.34
438.02	6722.02
438.21	6747.76
438.40	6581.59
438.58	6827.34
438.77	6998.20
438.96	6937.35
439.14	7080.12
439.33	6956.07
439.52	7236.94
439.70	7096.50
439.89	7307.15
440.08	7400.77
440.26	7297.79
440.45	7384.39
440.63	7595.04
440.82	7655.89
441.01	7459.29
441.19	7730.79
441.38	7630.15
441.57	7726.11
441.75	7796.32
441.94	7999.95
442.12	7786.96
442.31	7866.54
442.50	7889.95
442.68	7660.57
442.87	7946.12
443.05	7908.67
443.24	8046.76
443.43	8065.49
443.61	8236.35
443.80	8332.31
443.98	8079.53
444.17	7819.73
444.35	8208.26
444.54	8236.35
444.73	8142.72
444.91	8259.75
445.10	8266.77
445.28	8271.45
445.47	8056.12
445.65	8273.79
445.84	8365.07
446.02	8456.36
446.21	8430.61
446.39	8388.48
446.58	8231.66
446.77	8435.29
446.95	8376.78
447.14	8304.22
447.32	8428.27
447.51	8432.95
447.69	8386.14
447.88	8594.45
448.06	8549.98
448.25	8517.21
448.43	8571.04
448.62	8664.66
448.80	8355.71
448.99	8638.92
449.17	8800.41
449.36	8695.09
449.54	8777.01
449.73	8926.80
449.91	8887.01
450.10	8872.97
450.28	9032.13
450.46	9020.42
450.65	8912.76
450.83	9088.30
451.02	8931.48
451.20	9322.35
451.39	8896.38
451.57	9088.30
451.76	8985.32
451.94	9184.26
452.13	9275.54
452.31	9097.66
452.49	9205.33
452.68	9254.48
452.86	9238.09
453.05	9511.94
453.23	9371.50
453.42	9327.03
453.60	9404.27
453.78	9256.82
453.97	9235.75
454.15	9525.98
454.34	9205.33
454.52	9661.73
454.70	9748.33
454.89	9507.26
455.07	9703.86
455.26	9753.01
455.44	9877.06
455.62	9879.40
455.81	9799.82
455.99	9860.68
456.17	9980.04
456.36	9865.36
456.54	10115.80
456.73	10052.60
456.91	10534.75
457.09	10342.83
457.28	10338.15
457.46	10136.86
457.64	10588.58
457.83	10546.45
458.01	10431.77
458.19	10768.80
458.38	10541.77
458.56	10560.50
458.74	10595.61
458.93	10576.88
459.11	10937.32
459.29	10712.63
459.48	10743.06
459.66	10569.86
459.84	10665.82
460.03	10874.13
460.21	10785.19
460.39	10827.32
460.57	10824.98
460.76	11000.52
460.94	11131.59
461.12	10923.28
461.31	10991.16
461.49	11026.26
461.67	11101.16
461.85	11365.64
462.04	11192.44
462.22	11681.61
462.40	11349.26
462.59	11566.93
462.77	11403.09
462.95	11494.37
463.13	11557.57
463.32	11543.52
463.50	11524.80
463.68	11660.55
463.86	11913.33
464.05	11786.94
464.23	11782.26
464.41	11775.24
464.59	11389.05
464.78	11997.59
464.96	11859.49
465.14	11815.02
465.32	12156.74
465.50	11906.31
465.69	12046.74
465.87	12023.33
466.05	12018.65
466.23	12212.92
466.41	12147.38
466.60	12285.47
466.78	12086.53
466.96	11983.54
467.14	12292.49
467.32	12088.87
467.51	12339.30
467.69	12065.46
467.87	12201.21
468.05	12451.65
468.23	12252.70
468.41	12416.54
468.60	12549.95
468.78	12674.00
468.96	12439.95
469.14	12765.28
469.32	13289.56
469.50	12662.30
469.69	12802.73
469.87	13144.45
470.05	12922.10
470.23	13109.34
470.41	13256.79
470.59	13123.38
470.77	13128.06
470.95	12779.32
471.14	13870.01
471.32	13034.44
471.50	13572.77
471.68	13336.37
471.86	13671.07
472.04	13429.99
472.22	13888.74
472.40	13614.90
472.58	13668.73
472.77	13884.06
472.95	14104.07
473.13	14537.07
473.31	14094.71
473.49	14092.37
473.67	14141.52
473.85	14188.33
474.03	14494.94
474.21	14665.80
474.39	14745.38
474.57	14562.81
474.75	14909.21
474.93	14768.78
475.12	15059.01
475.30	15068.37
475.48	14930.28
475.66	15157.31
475.84	15250.93
476.02	15126.88
476.20	15225.18
476.38	15433.49
476.56	15915.64
476.74	15936.71
476.92	15824.36
477.10	15782.23
477.28	16119.27
477.46	16212.89
477.64	16255.02
477.82	16423.54
478.00	16690.36
478.18	16713.77
478.36	16692.70
478.54	16940.80
478.72	16982.93
478.90	17043.78
479.08	17605.51
479.26	17715.51
479.44	17589.13
479.62	17748.28
479.80	17727.22
479.98	17884.03
480.16	18513.64
480.34	17846.58
480.52	18724.29
480.70	18792.16
480.88	18349.80
481.06	18530.02
481.24	18714.92
481.41	19058.98
481.59	19176.01
481.77	19494.32
481.95	19283.67
482.13	19679.22
482.31	19892.21
482.49	20182.44
482.67	19943.70
482.85	20086.48
483.03	20510.11
483.21	20540.54
483.39	20718.42
483.57	20758.21
483.74	20966.52
483.92	20865.88
484.10	21209.93
484.28	21369.09
484.46	21376.11
484.64	21752.94
484.82	21392.50
485.00	22225.73
485.18	22450.42
485.35	22607.23
485.53	22497.23
485.71	22754.69
485.89	23218.11
486.07	23180.67
486.25	23014.49
486.43	23316.42
486.61	23733.03
486.78	23555.15
486.96	23826.65
487.14	24374.34
487.32	24357.96
487.50	24659.88
487.68	24680.95
487.85	25254.38
488.03	25357.36
488.21	25750.57
488.39	25479.07
488.57	26075.91
488.75	26075.91
488.92	26558.06
489.10	26581.46
489.28	26223.36
489.46	27225.11
489.64	26759.34
489.81	27606.62
489.99	27372.57
490.17	27796.20
490.35	27632.36
490.53	28208.14
490.70	28016.21
490.88	28147.28
491.06	28395.38
491.24	28634.11
491.41	28833.06
491.59	29050.73
491.77	29022.64
491.95	29481.39
492.13	29380.74
492.30	29287.12
492.48	29713.10
492.66	29713.10
492.84	30328.66
493.01	30169.51
493.19	30583.78
493.37	30960.61
493.54	31063.59
493.72	31250.83
493.90	30885.71
494.08	31674.47
494.25	31821.92
494.43	31693.19
494.61	32126.19
494.79	32311.10
494.96	32325.14
495.14	32371.95
495.32	32893.89
495.49	33095.18
495.67	33186.46
495.85	33425.19
496.02	33511.79
496.20	33851.17
496.38	33392.42
496.55	33612.43
496.73	35035.48
496.91	34672.70
497.09	34359.06
497.26	34258.42
497.44	34883.34
497.62	34878.66
497.79	35416.99
497.97	35559.76
498.14	35370.18
498.32	36074.68
498.50	35765.73
498.67	36285.33
498.85	36196.38
499.03	36666.83
499.20	36645.77
499.38	36641.09
499.56	36828.33
499.73	37099.83
499.91	37041.32
500.08	36861.10
500.26	37570.28
500.44	37523.47
500.61	37551.56
500.79	37116.22
500.97	37771.57
501.14	38014.98
501.32	37965.83
501.49	38127.33
501.67	38227.97
501.84	38192.86
502.02	38391.81
502.20	38768.63
502.37	39089.29
502.55	38689.06
502.72	39311.64
502.90	39161.84
503.07	38895.02
503.25	39583.14
503.43	39199.29
503.60	39985.71
503.78	40491.27
503.95	39957.63
504.13	40046.57
504.30	40786.18
504.48	40107.42
504.65	40278.28
504.83	40715.96
505.01	41193.43
505.18	40886.82
505.36	40739.36
505.53	40755.75
505.71	41523.44
505.88	41876.86
506.06	41020.23
506.23	41095.13
506.41	41729.41
506.58	41670.90
506.76	41825.37
506.93	42197.52
507.11	42256.03
507.28	42319.23
507.46	42232.63
507.63	42866.91
507.81	42726.48
507.98	42618.81
508.16	43196.93
508.33	43328.00
508.50	43061.18
508.68	43225.01
508.85	43566.73
509.03	43295.23
509.20	43636.95
509.38	44079.31
509.55	44273.57
509.73	43688.44
509.90	44399.96
510.08	44313.36
510.25	44362.51
510.42	44671.46
510.60	45029.57
510.77	44264.21
510.95	45235.53
511.12	45041.27
511.30	44992.12
511.47	45572.57
511.64	45207.45
511.82	45773.86
511.99	44921.90
512.17	45806.62
512.34	45507.04
512.51	46021.95
512.69	46174.09
512.86	45986.85
513.04	45958.76
513.21	46319.20
513.38	46263.03
513.56	46836.46
513.73	46188.13
513.90	46684.33
514.08	46712.41
514.25	46983.91
514.43	46876.25
514.60	47171.16
514.77	47065.83
514.95	47494.15
515.12	46944.12
515.29	47224.99
515.47	47782.04
515.64	47875.66
515.81	47365.42
515.99	47566.71
516.16	48500.58
516.33	47833.53
516.51	48268.87
516.68	48282.91
516.85	48184.61
517.03	48659.74
517.20	48849.32
517.37	48615.27
517.54	48715.91
517.72	48582.50
517.89	48638.67
518.06	48800.17
518.24	48896.13
518.41	49116.14
518.58	48947.62
518.75	48994.43
518.93	49605.31
519.10	49024.86
519.27	49485.95
519.45	49565.52
519.62	49387.64
519.79	49808.94
519.96	49595.95
520.14	49897.88
520.31	50000.86
520.48	50295.77
520.65	50108.53
520.83	50171.72
521.00	50588.34
521.17	50110.87
521.34	50564.93
521.52	50433.86
521.69	50667.92
521.86	50820.05
522.03	50934.74
522.20	50611.74
522.38	51180.49
522.55	50944.10
522.72	50848.14
522.89	50873.88
523.07	50953.46
523.24	51470.72
523.41	51452.00
523.58	51138.36
523.75	51707.12
523.92	51576.04
524.10	51725.84
524.27	51688.39
524.44	51648.60
524.61	51786.69
524.78	52224.37
524.96	52072.24
525.13	51791.37
525.30	52172.88
525.47	52252.46
525.64	52079.26
525.81	52556.73
525.98	52425.66
526.16	52374.17
526.33	52491.19
526.50	53081.01
526.67	52554.39
526.84	52706.52
527.01	52477.15
527.18	52781.42
527.36	53015.47
527.53	52947.60
527.70	53106.76
527.87	53254.21
528.04	52612.90
528.21	53095.05
528.38	52919.51
528.55	53286.98
528.72	52893.77
528.89	53127.82
529.07	53165.27
529.24	53275.27
529.41	53710.61
529.58	53221.44
529.75	53633.38
529.92	53701.25
530.09	53511.67
530.26	53670.82
530.43	53663.80
530.60	53602.95
530.77	53483.58
530.94	54068.72
531.11	53598.27
531.28	54019.56
531.46	54129.57
531.63	53813.60
531.80	53975.09
531.97	54223.19
532.14	54239.57
532.31	54101.48
532.48	54475.97
532.65	54251.28
532.82	54248.94
532.99	54372.99
533.16	54279.36
533.33	54520.44
533.50	54639.81
533.67	54548.53
533.84	54391.71
534.01	54600.02
534.18	54595.34
534.35	55011.95
534.52	54834.07
534.69	54742.79
534.86	55098.55
535.03	54876.20
535.20	54904.29
535.37	54990.89
535.54	54990.89
535.71	55150.04
535.88	55171.11
536.05	55262.39
536.22	55480.06
536.38	55402.82
536.55	55426.23
536.72	55210.90
536.89	55461.33
537.06	55409.84
537.23	55599.43
537.40	55391.12
537.57	55543.25
537.74	55873.27
537.91	55639.22
538.08	55756.24
538.25	55636.87
538.42	55557.30
538.59	55987.95
538.75	55451.97
538.92	55749.22
539.09	55746.88
539.26	56170.52
539.43	55927.10
539.60	56060.51
539.77	56074.55
539.94	56245.41
540.11	56233.71
540.28	56170.52
540.44	56217.33
540.61	56486.49
540.78	56210.31
540.95	56233.71
541.12	56348.40
541.29	56381.16
541.46	56622.24
541.62	56430.32
541.79	56514.58
541.96	56069.87
542.13	56339.04
542.30	56521.60
542.47	56636.28
542.63	56727.56
542.80	56575.43
542.97	56802.46
543.14	56968.64
543.31	57041.20
543.48	56879.70
543.64	57380.57
543.81	56896.08
543.98	57066.94
544.15	57221.42
544.32	57188.65
544.48	57139.50
544.65	57188.65
544.82	57293.97
544.99	56868.00
545.16	57284.61
545.32	57364.19
545.49	57293.97
545.66	57570.16
545.83	57382.91
546.00	57668.46
546.16	57373.55
546.33	57216.74
546.50	57364.19
546.67	57457.81
546.83	57492.92
547.00	57469.51
547.17	57743.36
547.34	57474.20
547.50	57682.50
547.67	57780.81
547.84	57900.17
548.00	57951.66
548.17	57886.13
548.34	57865.06
548.51	58108.48
548.67	58159.97
548.84	57853.36
549.01	57874.43
549.18	57792.51
549.34	58049.97
549.51	58110.82
549.68	58115.50
549.84	58026.56
550.01	58265.30
550.18	58038.26
550.34	58232.53
550.51	58410.41
550.68	58267.64
550.84	58122.52
551.01	58466.58
551.18	58487.65
551.34	58206.78
551.51	58464.24
551.68	58546.16
551.84	58464.24
552.01	58188.06
552.18	58501.69
552.34	58279.34
552.51	58546.16
552.68	58354.24
552.84	58422.11
553.01	58869.15
553.18	58473.60
553.34	58850.43
553.51	58419.77
553.67	58822.34
553.84	58763.83
554.01	58791.92
554.17	59018.95
554.34	58852.77
554.51	59065.76
554.67	58731.06
554.84	58670.21
555.00	58955.75
555.17	58824.68
555.33	58983.84
555.50	58728.72
555.67	58855.11
555.83	58873.84
556.00	58965.12
556.16	59157.04
556.33	59152.36
556.50	59025.97
556.66	59124.27
556.83	58934.69
556.99	59267.05
557.16	59133.63
557.32	59262.36
557.49	59407.48
557.65	59168.74
557.82	59344.28
557.98	59138.32
558.15	59255.34
558.32	59210.87
558.48	59121.93
558.65	59311.52
558.81	59222.58
558.98	59543.23
559.14	59515.14
559.31	59538.55
559.47	59414.50
559.64	59681.32
559.80	59320.88
559.97	59709.41
560.13	59454.29
560.30	59573.66
560.46	59550.25
560.63	59608.76
560.79	59646.21
560.96	59833.46
561.12	59501.10
561.29	59690.68
561.45	59962.18
561.61	59636.85
561.78	59543.23
561.94	59774.94
562.11	59728.13
562.27	59660.26
562.44	59817.07
562.60	59859.20
562.77	59639.19
562.93	59629.83
563.10	59934.10
563.26	59896.65
563.42	59992.61
563.59	60030.06
563.75	59657.91
563.92	59709.41
564.08	59760.90
564.24	60158.79
564.41	60177.51
564.57	60104.96
564.74	59859.20
564.90	59964.52
565.07	59964.52
565.23	59945.80
565.39	59966.87
565.56	60158.79
565.72	60030.06
565.88	60020.70
566.05	60214.96
566.21	59828.77
566.38	60158.79
566.54	60053.47
566.70	60289.86
566.87	60100.28
567.03	60074.53
567.19	60212.62
567.36	60116.66
567.52	60018.36
567.68	60533.28
567.85	60331.99
568.01	60299.22
568.17	60104.96
568.34	60177.51
568.50	60076.87
568.66	60226.66
568.83	60467.74
568.99	60102.62
569.15	60275.82
569.32	60299.22
569.48	60130.70
569.64	60268.79
569.81	60165.81
569.97	60268.79
570.13	60104.96
570.30	60121.34
570.46	60362.42
570.62	60449.02
570.78	60196.24
570.95	60097.94
571.11	60446.68
571.27	60196.24
571.43	60346.03
571.60	60617.53
571.76	60411.57
571.92	60603.49
572.09	60390.50
572.25	60467.74
572.41	60420.93
572.57	60453.70
572.74	60568.38
572.90	60512.21
573.06	60477.10
573.22	60374.12
573.38	60491.15
573.55	60505.19
573.71	60741.58
573.87	60676.05
574.03	60402.21
574.20	60725.20
574.36	60439.65
574.52	60554.34
574.68	60549.66
574.84	60610.51
575.01	60559.02
575.17	60528.59
575.33	60488.80
575.49	60336.67
575.65	60671.37
575.82	60790.73
575.98	60624.56
576.14	60713.50
576.30	60633.92
576.46	60547.32
576.62	60610.51
576.79	60549.66
576.95	60423.27
577.11	60636.26
577.27	60664.35
577.43	60589.45
577.59	60488.80
577.75	60430.29
577.92	60561.36
578.08	60615.19
578.24	60683.07
578.40	60844.57
578.56	60870.31
578.72	60825.84
578.88	60837.54
579.04	61052.87
579.21	60732.22
579.37	60914.78
579.53	60741.58
579.69	60552.00
579.85	60530.93
580.01	60853.93
580.17	60509.87
580.33	60650.30
580.49	60713.50
580.65	60678.39
580.82	60685.41
580.98	60577.75
581.14	60610.51
581.30	60839.89
581.46	60865.63
581.62	60844.57
581.78	60776.69
581.94	60940.53
582.10	60781.37
582.26	60772.01
582.42	60694.77
582.58	60591.79
582.74	60685.41
582.90	60830.52
583.06	60769.67
583.22	60523.91
583.38	60631.58
583.54	60750.94
583.70	60748.60
583.86	60970.96
584.02	60519.23
584.18	60903.08
584.34	60879.67
584.50	60832.86
584.66	60654.98
584.82	60697.11
584.98	60940.53
585.14	60882.02
585.30	60743.92
585.46	60924.14
585.62	60807.12
585.78	60933.51
585.94	60786.05
586.10	60846.91
586.26	60900.74
586.42	60872.65
586.58	60935.85
586.74	60917.12
586.90	60912.44
587.06	60980.32
587.22	60996.70
587.38	60956.91
587.54	60889.04
587.70	61190.97
587.86	60886.70
588.02	61048.19
588.18	61008.40
588.34	60867.97
588.49	60942.87
