SpectraSuite Data File
++++++++++++++++++++++++++++++++++++
Date: Fri Oct 25 11:22:42 EDT 2013
User: price-jones
Dark Spectrum Present: No
Reference Spectrum Present: No
Number of Sampled Component Spectra: 1
Spectrometers: USB2+H05261
Integration Time (usec): 100000 (USB2+H05261)
Spectra Averaged: 1 (USB2+H05261)
Boxcar Smoothing: 0 (USB2+H05261)
Correct for Electrical Dark: No (USB2+H05261)
Strobe/Lamp Enabled: No (USB2+H05261)
Correct for Detector Non-linearity: No (USB2+H05261)
Correct for Stray Light: No (USB2+H05261)
Number of Pixels in Processed Spectrum: 2048
>>>>>Begin Processed Spectral Data<<<<<
365.73	145.11
365.92	145.11
366.12	145.11
366.32	100.64
366.52	177.88
366.72	152.13
366.91	77.24
367.11	86.60
367.31	110.01
367.51	119.37
367.70	67.88
367.90	91.28
368.10	70.22
368.30	161.50
368.49	53.83
368.69	102.98
368.89	149.79
369.09	159.16
369.28	72.56
369.48	88.94
369.68	152.13
369.87	208.31
370.07	159.16
370.27	248.10
370.47	325.33
370.66	645.99
370.86	641.31
371.06	641.31
371.25	737.27
371.45	683.44
371.65	683.44
371.84	720.88
372.04	748.97
372.24	709.18
372.44	711.52
372.63	786.42
372.83	791.10
373.03	734.93
373.22	777.06
373.42	725.57
373.62	720.88
373.81	741.95
374.01	837.91
374.21	861.32
374.40	788.76
374.60	816.85
374.79	828.55
374.99	816.85
375.19	777.06
375.38	805.14
375.58	760.67
375.78	828.55
375.97	837.91
376.17	891.74
376.37	861.32
376.56	908.13
376.76	793.44
376.95	851.96
377.15	793.44
377.35	950.26
377.54	863.66
377.74	880.04
377.93	908.13
378.13	919.83
378.33	880.04
378.52	1015.79
378.72	985.37
378.91	919.83
379.11	922.17
379.31	894.08
379.50	933.87
379.70	959.62
379.89	999.41
380.09	959.62
380.28	990.05
380.48	1029.84
380.68	1015.79
380.87	1041.54
381.07	1081.33
381.26	1001.75
381.46	973.66
381.65	1050.90
381.85	973.66
382.04	1034.52
382.24	1078.99
382.43	1086.01
382.63	1032.18
382.83	1034.52
383.02	1088.35
383.22	1184.31
383.41	1039.20
383.61	1053.24
383.80	1104.73
384.00	1125.80
384.19	1142.18
384.39	1170.27
384.58	1142.18
384.78	1121.12
384.97	1074.31
385.17	1184.31
385.36	1207.72
385.56	1174.95
385.75	1191.33
385.95	1135.16
386.14	1224.10
386.34	1261.55
386.53	1142.18
386.72	1224.10
386.92	1233.46
387.11	1219.42
387.31	1228.78
387.50	1259.21
387.70	1322.40
387.89	1282.61
388.09	1313.04
388.28	1263.89
388.48	1299.00
388.67	1275.59
388.86	1303.68
389.06	1329.42
389.25	1313.04
389.45	1329.42
389.64	1291.98
389.84	1287.29
390.03	1366.87
390.22	1383.26
390.42	1401.98
390.61	1378.58
390.81	1315.38
391.00	1322.40
391.19	1467.52
391.39	1434.75
391.58	1521.35
391.78	1460.49
391.97	1472.20
392.16	1502.62
392.36	1600.93
392.55	1462.83
392.75	1554.12
392.94	1568.16
393.13	1448.79
393.33	1500.28
393.52	1598.59
393.71	1600.93
393.91	1556.46
394.10	1570.50
394.29	1575.18
394.49	1638.38
394.68	1685.19
394.88	1582.20
395.07	1568.16
395.26	1631.35
395.46	1666.46
395.65	1717.95
395.84	1607.95
396.04	1743.70
396.23	1865.41
396.42	1769.44
396.62	1746.04
396.81	1715.61
397.00	1774.13
397.19	1806.89
397.39	1858.39
397.58	1842.00
397.77	1830.30
397.97	1928.60
398.16	1748.38
398.35	1813.92
398.55	1909.88
398.74	1851.36
398.93	1921.58
399.12	1893.49
399.32	1820.94
399.51	1952.01
399.70	2057.33
399.90	1949.67
400.09	2064.35
400.28	2115.84
400.47	2080.74
400.67	2099.46
400.86	2157.97
401.05	2113.50
401.24	2092.44
401.44	2127.55
401.63	2141.59
401.82	2120.53
402.01	2134.57
402.21	2214.15
402.40	2237.55
402.59	2221.17
402.78	2211.81
402.97	2188.40
403.17	2108.82
403.36	2251.60
403.55	2244.57
403.74	2457.56
403.93	2370.96
404.13	2340.54
404.32	2373.30
404.51	2263.30
404.70	2476.29
404.89	2438.84
405.09	2513.74
405.28	2518.42
405.47	2431.82
405.66	2513.74
405.85	2511.39
406.05	2525.44
406.24	2567.57
406.43	2537.14
406.62	2649.49
406.81	2633.10
407.00	2506.71
407.20	2455.22
407.39	2614.38
407.58	2686.94
407.77	2733.75
407.96	2815.66
408.15	2750.13
408.34	2677.57
408.54	2789.92
408.73	2780.56
408.92	2803.96
409.11	2918.65
409.30	2874.18
409.49	2977.16
409.68	3005.25
409.87	2911.63
410.07	2993.55
410.26	3002.91
410.45	3077.80
410.64	3117.59
410.83	3049.72
411.02	3089.51
411.21	3180.79
411.40	2963.12
411.59	3080.14
411.78	3246.32
411.98	3096.53
412.17	3192.49
412.36	3344.63
412.55	3332.92
412.74	3592.72
412.93	3471.01
413.12	3283.77
413.31	3503.78
413.50	3379.73
413.69	3368.03
413.88	3499.10
414.07	3482.72
414.26	3583.36
414.45	3688.68
414.64	3730.81
414.83	3786.99
415.02	3789.33
415.22	3861.88
415.41	3878.27
415.60	3854.86
415.79	3871.25
415.98	3969.55
416.17	4088.92
416.36	3901.67
416.55	3957.85
416.74	4053.81
416.93	4084.23
417.12	4133.39
417.31	4322.97
417.50	4182.54
417.69	4311.27
417.88	4283.18
418.07	4372.12
418.26	4224.67
418.45	4489.15
418.64	4440.00
418.83	4599.15
419.02	4355.74
419.21	4533.62
419.39	4547.66
419.58	4517.23
419.77	4440.00
419.96	4692.77
420.15	4552.34
420.34	4587.45
420.53	4599.15
420.72	4631.92
420.91	4519.57
421.10	4571.07
421.29	4758.31
421.48	4706.82
421.67	4751.29
421.86	4697.46
422.05	4779.37
422.24	4851.93
422.43	4875.34
422.61	4880.02
422.80	4912.78
422.99	4884.70
423.18	4889.38
423.37	5153.86
423.56	5041.51
423.75	4912.78
423.94	4954.91
424.13	4592.13
424.32	4901.08
424.50	4938.53
424.69	5085.98
424.88	5224.08
425.07	5097.69
425.26	4896.40
425.45	4896.40
425.64	5025.13
425.83	5001.72
426.01	5074.28
426.20	5081.30
426.39	5004.07
426.58	5174.92
426.77	5109.39
426.96	5163.22
427.15	5191.31
427.33	5205.35
427.52	5107.05
427.71	5188.97
427.90	5359.83
428.09	5238.12
428.28	5408.98
428.46	5380.89
428.65	5341.10
428.84	5657.07
429.03	5577.50
429.22	5380.89
429.40	5523.66
429.59	5572.82
429.78	5224.08
429.97	5317.70
430.16	5437.06
430.34	5596.22
430.53	5746.02
430.72	5671.12
430.91	5664.10
431.10	5664.10
431.28	5823.25
431.47	5912.19
431.66	5781.12
431.85	5783.46
432.03	5954.32
432.22	5916.87
432.41	5937.94
432.60	5956.66
432.79	5991.77
432.97	5898.15
433.16	6001.13
433.35	5874.74
433.54	6181.35
433.72	6218.80
433.91	6249.23
434.10	6127.52
434.28	6127.52
434.47	6183.70
434.66	6307.74
434.85	6181.35
435.03	6314.77
435.22	6169.65
435.41	6347.53
435.59	6387.32
435.78	6417.75
435.97	6534.78
436.16	6457.54
436.34	6363.92
436.53	6377.96
436.72	6600.31
436.90	6466.90
437.09	6640.10
437.28	6483.28
437.46	6810.96
437.65	6581.59
437.84	6773.51
438.02	6684.57
438.21	6810.96
438.40	6597.97
438.58	7054.37
438.77	6902.24
438.96	7052.03
439.14	7215.87
439.33	7260.34
439.52	7262.68
439.70	7103.53
439.89	7368.01
440.08	7239.28
440.26	7382.05
440.45	7421.84
440.63	7377.37
440.82	7812.71
441.01	7492.05
441.19	7719.09
441.38	7875.90
441.57	7705.04
441.75	7826.75
441.94	8023.36
442.12	7997.61
442.31	8060.80
442.50	8084.21
442.68	7871.22
442.87	7974.21
443.05	8198.90
443.24	8215.28
443.43	8128.68
443.61	8287.84
443.80	8634.24
443.98	8121.66
444.17	7824.41
444.35	8102.93
444.54	8238.69
444.73	8348.69
444.91	8416.57
445.10	8472.74
445.28	8313.58
445.47	8320.60
445.65	8470.40
445.84	8542.96
446.02	8376.78
446.21	8360.39
446.39	8451.67
446.58	8407.20
446.77	8589.77
446.95	8163.79
447.14	8383.80
447.32	8468.06
447.51	8397.84
447.69	8372.10
447.88	8411.89
448.06	8489.12
448.25	8477.42
448.43	8636.58
448.62	8589.77
448.80	8582.74
448.99	8772.33
449.17	8545.30
449.36	8875.31
449.54	8748.92
449.73	9186.60
449.91	8968.93
450.10	8877.65
450.28	9039.15
450.46	9062.55
450.65	9011.06
450.83	9163.20
451.02	9263.84
451.20	9350.44
451.39	9083.62
451.57	9205.33
451.76	9118.73
451.94	9226.39
452.13	9252.14
452.31	9343.42
452.49	9282.56
452.68	9383.21
452.86	9270.86
453.05	9586.83
453.23	9638.33
453.42	9352.78
453.60	9453.42
453.78	9584.49
453.97	9378.53
454.15	9561.09
454.34	9437.04
454.52	9586.83
454.70	9790.46
454.89	9715.56
455.07	9788.12
455.26	9860.68
455.44	9834.93
455.62	9671.09
455.81	9935.57
455.99	10146.22
456.17	10134.52
456.36	10052.60
456.54	10139.20
456.73	10223.46
456.91	10396.66
457.09	10361.55
457.28	10558.16
457.46	10527.73
457.64	10501.98
457.83	10602.63
458.01	10296.02
458.19	10619.01
458.38	10663.48
458.56	10876.47
458.74	10757.10
458.93	10611.99
459.11	10506.66
459.29	10813.28
459.48	10970.09
459.66	10583.90
459.84	11098.82
460.03	11162.01
460.21	10864.77
460.39	10920.94
460.57	10771.15
460.76	11054.35
460.94	11019.24
461.12	11276.70
461.31	11049.67
461.49	11169.04
461.67	11147.97
461.85	11454.58
462.04	11218.19
462.22	12107.59
462.40	11524.80
462.59	11370.32
462.77	11419.47
462.95	11772.89
463.13	11756.51
463.32	11744.81
463.50	11887.58
463.68	11833.75
463.86	11906.31
464.05	11772.89
464.23	11880.56
464.41	12194.19
464.59	11747.15
464.78	12194.19
464.96	11779.92
465.14	11920.35
465.32	12084.19
465.50	12049.08
465.69	12325.26
465.87	12044.40
466.05	12159.08
466.23	12229.30
466.41	12276.11
466.60	12374.41
466.78	12093.55
466.96	12379.09
467.14	12318.24
467.32	12304.20
467.51	12674.00
467.69	12334.62
467.87	12397.82
468.05	12592.08
468.23	12446.97
468.41	12493.78
468.60	12671.66
468.78	12905.71
468.96	12641.23
469.14	12739.54
469.32	12830.82
469.50	12482.08
469.69	13114.02
469.87	13083.59
470.05	13139.77
470.23	13202.96
470.41	13095.30
470.59	13371.48
470.77	13184.24
470.95	13446.38
471.14	13488.51
471.32	13207.64
471.50	13757.67
471.68	13610.22
471.86	13661.71
472.04	13729.58
472.22	14146.20
472.40	13345.73
472.58	14008.11
472.77	14059.60
472.95	14094.71
473.13	14551.11
473.31	14150.88
473.49	14260.88
473.67	14326.42
473.85	14352.16
474.03	14731.33
474.21	14808.57
474.39	14724.31
474.57	14808.57
474.75	15042.62
474.93	14796.87
475.12	14920.92
475.30	15124.54
475.48	15171.35
475.66	15009.86
475.84	15330.51
476.02	15648.82
476.20	15211.14
476.38	15688.61
476.56	16156.72
476.74	16130.97
476.92	15822.02
477.10	15880.53
477.28	16053.73
477.46	16269.06
477.64	16559.29
477.82	16570.99
478.00	17167.83
478.18	16863.56
478.36	16872.92
478.54	16987.61
478.72	17057.82
478.90	17345.71
479.08	17837.22
479.26	17802.11
479.44	17743.60
479.62	17799.77
479.80	18066.60
479.98	18185.96
480.16	18616.62
480.34	18244.48
480.52	18670.45
480.70	18661.09
480.88	18370.86
481.06	18871.74
481.24	18780.46
481.41	19030.90
481.59	19253.25
481.77	19543.47
481.95	19557.52
482.13	19599.65
482.31	19772.85
482.49	20432.88
482.67	20217.55
482.85	20451.60
483.03	20526.50
483.21	20786.30
483.39	21135.04
483.57	20959.50
483.74	21451.01
483.92	21348.03
484.10	21238.02
484.28	22061.89
484.46	22113.38
484.64	22253.81
484.82	21783.37
485.00	22326.37
485.18	22675.11
485.35	22817.88
485.53	23236.84
485.71	23073.00
485.89	23260.24
486.07	23484.94
486.25	23580.90
486.43	23817.29
486.61	23908.57
486.78	23892.19
486.96	24072.41
487.14	24617.75
487.32	24858.83
487.50	24851.81
487.68	24844.79
487.85	25270.76
488.03	25759.94
488.21	26045.48
488.39	26120.38
488.57	26031.44
488.75	26569.76
488.92	26527.63
489.10	26834.24
489.28	26569.76
489.46	27281.28
489.64	26984.04
489.81	27623.00
489.99	27463.85
490.17	27683.86
490.35	28147.28
490.53	28479.64
490.70	28540.49
490.88	28357.93
491.06	28971.15
491.24	28856.46
491.41	29095.20
491.59	29017.96
491.77	29575.01
491.95	29699.06
492.13	30291.21
492.30	30167.16
492.48	30228.02
492.66	30082.91
492.84	30841.24
493.01	30993.37
493.19	30635.27
493.37	30691.44
493.54	31194.66
493.72	31585.53
493.90	31365.52
494.08	31814.90
494.25	32217.47
494.43	32362.59
494.61	32428.12
494.79	32154.28
494.96	32561.53
495.14	32964.10
495.32	32914.95
495.49	33404.13
495.67	33230.93
495.85	33390.08
496.02	34162.46
496.20	34043.09
496.38	34265.44
496.55	34352.04
496.73	34951.22
496.91	34873.98
497.09	35117.40
497.26	35204.00
497.44	34878.66
497.62	35311.66
497.79	35789.13
497.97	35866.37
498.14	35992.76
498.32	36147.23
498.50	36531.08
498.67	36727.69
498.85	36385.97
499.03	36643.43
499.20	37022.59
499.38	36992.17
499.56	37214.52
499.73	36926.63
499.91	37722.41
500.08	37738.80
500.26	37514.11
500.44	37738.80
500.61	38110.94
500.79	38026.68
500.97	38396.49
501.14	38426.92
501.32	38572.03
501.49	38478.41
501.67	38951.20
501.84	39639.31
502.02	39220.36
502.20	39068.22
502.37	39332.70
502.55	39351.43
502.72	39800.81
502.90	39643.99
503.07	39597.18
503.25	39992.73
503.43	39793.79
503.60	40060.61
503.78	40336.79
503.95	40575.53
504.13	40467.86
504.30	40781.49
504.48	40458.50
504.65	40449.14
504.83	40875.12
505.01	41406.42
505.18	41083.42
505.36	42113.26
505.53	41256.62
505.71	41895.59
505.88	41748.14
506.06	41792.61
506.23	42061.77
506.41	41991.55
506.58	42548.60
506.76	42431.57
506.93	42663.28
507.11	42696.05
507.28	42586.05
507.46	42604.77
507.63	43269.48
507.81	43681.42
507.98	42944.15
508.16	43393.53
508.33	43550.35
508.50	43838.23
508.68	43714.19
508.85	44154.21
509.03	43915.47
509.20	44261.87
509.38	44446.77
509.55	44409.32
509.73	44519.33
509.90	45038.93
510.08	44421.03
510.25	44357.83
510.42	44919.56
510.60	45081.06
510.77	45219.15
510.95	45469.59
511.12	45418.10
511.30	45317.45
511.47	45572.57
511.64	46000.89
511.82	46045.36
511.99	45673.21
512.17	45855.78
512.34	45925.99
512.51	46415.16
512.69	46621.13
512.86	46377.72
513.04	46698.37
513.21	46684.33
513.38	47035.41
513.56	47285.84
513.73	47037.75
513.90	47264.78
514.08	47129.03
514.25	46948.81
514.43	47540.96
514.60	47613.52
514.77	47587.77
514.95	47924.81
515.12	47653.31
515.29	47952.90
515.47	48247.80
515.64	48172.91
515.81	47988.00
515.99	48367.17
516.16	48596.54
516.33	48580.16
516.51	48498.24
516.68	48608.25
516.85	48491.22
517.03	49198.06
517.20	48814.21
517.37	48617.61
517.54	49151.25
517.72	49151.25
517.89	49247.21
518.06	49661.49
518.24	49116.14
518.41	49598.29
518.58	49373.60
518.75	49380.62
518.93	49631.06
519.10	49523.40
519.27	50021.93
519.45	50103.85
519.62	50101.51
519.79	50145.98
519.96	50113.21
520.14	50382.37
520.31	50220.87
520.48	50602.38
520.65	50679.62
520.83	50630.47
521.00	50756.86
521.17	50836.44
521.34	50960.48
521.52	50937.08
521.69	51227.31
521.86	51096.24
522.03	51330.29
522.20	51461.36
522.38	51522.21
522.55	51442.63
522.72	51496.47
522.89	51391.14
523.07	51501.15
523.24	51737.54
523.41	52081.60
523.58	51430.93
523.75	52163.52
523.92	51714.14
524.10	51723.50
524.27	52212.67
524.44	52142.45
524.61	52168.20
524.78	52243.10
524.96	52327.36
525.13	52360.12
525.30	52502.90
525.47	52573.11
525.64	52521.62
525.81	52657.37
525.98	52683.12
526.16	52708.86
526.33	52947.60
526.50	52760.36
526.67	52910.15
526.84	53043.56
527.01	52769.72
527.18	53106.76
527.36	53235.48
527.53	53296.34
527.70	53581.88
527.87	53455.50
528.04	53289.32
528.21	53586.57
528.38	53336.13
528.55	53530.39
528.72	53247.19
528.89	53504.65
529.07	53455.50
529.24	53621.67
529.41	53822.96
529.58	53600.61
529.75	53677.85
529.92	53689.55
530.09	54021.90
530.26	53961.05
530.43	54115.53
530.60	53745.72
530.77	54014.88
530.94	54120.21
531.11	54270.00
531.28	54007.86
531.46	54468.95
531.63	54288.73
531.80	54321.49
531.97	54674.91
532.14	54761.51
532.31	54712.36
532.48	54667.89
532.65	54829.39
532.82	54623.42
532.99	54801.30
533.16	54815.35
533.33	54845.77
533.50	55159.41
533.67	54831.73
533.84	54937.05
534.01	55061.10
534.18	54859.82
534.35	55260.05
534.52	55423.89
534.69	55489.42
534.86	55428.57
535.03	55213.24
535.20	55128.98
535.37	55180.47
535.54	55356.01
535.71	55341.97
535.88	55547.93
536.05	55657.94
536.22	55681.34
536.38	55683.69
536.55	55510.49
536.72	55950.51
536.89	55480.06
537.06	55887.31
537.23	55812.41
537.40	55700.07
537.57	55842.84
537.74	55969.23
537.91	55910.72
538.08	55875.61
538.25	56062.85
538.42	56182.22
538.59	56189.24
538.75	56196.26
538.92	56062.85
539.09	56498.19
539.26	56444.36
539.43	56086.26
539.60	56425.64
539.77	56123.71
539.94	56460.74
540.11	56617.56
540.28	56479.47
540.44	56399.89
540.61	56395.21
540.78	56334.35
540.95	56451.38
541.12	56451.38
541.29	56530.96
541.46	56652.67
541.62	56676.07
541.79	56748.63
541.96	56516.92
542.13	56453.72
542.30	56868.00
542.47	56973.32
542.63	56823.53
542.80	56804.80
542.97	57301.00
543.14	57233.12
543.31	57235.46
543.48	57233.12
543.64	57523.35
543.81	57324.40
543.98	57174.61
544.15	57394.62
544.32	57729.31
544.48	57645.05
544.65	57623.99
544.82	57506.96
544.99	57633.35
545.16	57586.54
545.32	57542.07
545.49	57588.88
545.66	57715.27
545.83	57956.35
546.00	57902.51
546.16	57865.06
546.33	57612.29
546.50	57757.40
546.67	57808.89
546.83	57640.37
547.00	57696.55
547.17	57729.31
547.34	58071.03
547.50	57771.44
547.67	58295.72
547.84	57811.23
548.00	58272.32
548.17	58452.54
548.34	58176.36
548.51	58361.26
548.67	58213.80
548.84	58394.03
549.01	58176.36
549.18	58459.56
549.34	58333.17
549.51	58433.81
549.68	58424.45
549.84	58255.93
550.01	58562.54
550.18	58291.04
550.34	58398.71
550.51	58782.55
550.68	58501.69
550.84	58272.32
551.01	58599.99
551.18	58766.17
551.34	58705.32
551.51	58595.31
551.68	58679.57
551.84	58508.71
552.01	58599.99
552.18	58899.58
552.34	58649.14
552.51	58969.80
552.68	58560.20
552.84	58822.34
553.01	58834.05
553.18	58969.80
553.34	59077.46
553.51	58852.77
553.67	58922.99
553.84	58988.52
554.01	58948.73
554.17	58878.52
554.34	59098.53
554.51	59089.16
554.67	59098.53
554.84	58887.88
555.00	59096.19
555.17	58995.54
555.33	59238.96
555.50	58829.37
555.67	59175.76
555.83	59089.16
556.00	59245.98
556.16	59398.12
556.33	59377.05
556.50	59381.73
556.66	59573.66
556.83	59257.68
556.99	59437.90
557.16	59573.66
557.32	59613.44
557.49	59693.02
557.65	59522.16
557.82	59463.65
557.98	59416.84
558.15	59477.69
558.32	59515.14
558.48	59402.80
558.65	59629.83
558.81	59332.58
558.98	59660.26
559.14	59664.94
559.31	59824.09
559.47	59910.69
559.64	59894.31
559.80	59817.07
559.97	59753.88
560.13	59611.10
560.30	59709.41
560.46	59597.06
560.63	59849.84
560.79	59969.21
560.96	59910.69
561.12	60009.00
561.29	60137.72
561.45	60004.31
561.61	59704.73
561.78	59810.05
561.94	59838.14
562.11	59901.33
562.27	59922.40
562.44	59828.77
562.60	60238.37
562.77	59943.46
562.93	60001.97
563.10	59870.90
563.26	59992.61
563.42	60310.92
563.59	60037.08
563.75	60076.87
563.92	60069.85
564.08	60184.54
564.24	60123.68
564.41	60219.64
564.57	60301.56
564.74	60196.24
564.90	60161.13
565.07	60247.73
565.23	60142.41
565.39	60243.05
565.56	60317.95
565.72	60172.83
565.88	60261.77
566.05	60198.58
566.21	60360.08
566.38	60299.22
566.54	60413.91
566.70	60416.25
566.87	60285.18
567.03	60100.28
567.19	60404.55
567.36	60271.14
567.52	60320.29
567.68	60360.08
567.85	60484.12
568.01	60259.43
568.17	60474.76
568.34	60374.12
568.50	60470.08
568.66	60439.65
568.83	60367.10
568.99	60528.59
569.15	60671.37
569.32	60425.61
569.48	60381.14
569.64	60610.51
569.81	60434.97
569.97	60589.45
570.13	60516.89
570.30	60526.25
570.46	60575.40
570.62	60530.93
570.78	60402.21
570.95	60486.46
571.11	60598.81
571.27	60528.59
571.43	60685.41
571.60	60750.94
571.76	60839.89
571.92	60704.13
572.09	60741.58
572.25	60680.73
572.41	60512.21
572.57	60582.43
572.74	60743.92
572.90	60774.35
573.06	60811.80
573.22	60683.07
573.38	60779.03
573.55	60699.45
573.71	60851.59
573.87	60694.77
574.03	60608.17
574.20	60797.76
574.36	60643.28
574.52	61003.72
574.68	60750.94
574.84	60849.25
575.01	60718.18
575.17	60837.54
575.33	60905.42
575.49	60753.29
575.65	60853.93
575.82	60853.93
575.98	60809.46
576.14	61050.53
576.30	61010.74
576.46	60636.26
576.62	60790.73
576.79	60935.85
576.95	60830.52
577.11	60893.72
577.27	61048.19
577.43	60921.80
577.59	60797.76
577.75	60872.65
577.92	60654.98
578.08	60793.07
578.24	60905.42
578.40	61092.66
578.56	61010.74
578.72	60999.04
578.88	61183.94
579.04	60985.00
579.21	60903.08
579.37	61144.16
579.53	61048.19
579.69	60893.72
579.85	60942.87
580.01	60849.25
580.17	60874.99
580.33	61132.45
580.49	61106.71
580.65	61071.60
580.82	60676.05
580.98	60985.00
581.14	60945.21
581.30	61080.96
581.46	60970.96
581.62	60956.91
581.78	60921.80
581.94	61066.92
582.10	60947.55
582.26	60959.25
582.42	60795.42
582.58	61144.16
582.74	61137.13
582.90	60914.78
583.06	61085.64
583.22	60926.49
583.38	60952.23
583.54	61102.03
583.70	61008.40
583.86	61226.07
584.02	60755.63
584.18	61183.94
584.34	61085.64
584.50	61113.73
584.66	60818.82
584.82	60910.10
584.98	61212.03
585.14	61190.97
585.30	60903.08
585.46	61034.15
585.62	61003.72
585.78	61268.20
585.94	60860.95
586.10	61045.85
586.26	61066.92
586.42	61219.05
586.58	61109.05
586.74	60994.36
586.90	61010.74
587.06	61017.77
587.22	61254.16
587.38	61277.57
587.54	61233.10
587.70	61202.67
587.86	61195.65
588.02	61123.09
588.18	61329.06
588.34	61443.74
588.49	61127.77
