SpectraSuite Data File
++++++++++++++++++++++++++++++++++++
Date: Fri Oct 25 11:34:11 EDT 2013
User: price-jones
Dark Spectrum Present: No
Reference Spectrum Present: No
Number of Sampled Component Spectra: 1
Spectrometers: USB2+H05261
Integration Time (usec): 100000 (USB2+H05261)
Spectra Averaged: 1 (USB2+H05261)
Boxcar Smoothing: 0 (USB2+H05261)
Correct for Electrical Dark: No (USB2+H05261)
Strobe/Lamp Enabled: No (USB2+H05261)
Correct for Detector Non-linearity: No (USB2+H05261)
Correct for Stray Light: No (USB2+H05261)
Number of Pixels in Processed Spectrum: 2048
>>>>>Begin Processed Spectral Data<<<<<
365.73	304.27
365.92	304.27
366.12	304.27
366.32	203.63
366.52	128.73
366.72	196.60
366.91	112.35
367.11	161.50
367.31	180.22
367.51	128.73
367.70	166.18
367.90	177.88
368.10	166.18
368.30	196.60
368.49	180.22
368.69	191.92
368.89	166.18
369.09	163.84
369.28	238.73
369.48	229.37
369.68	264.48
369.87	231.71
370.07	236.39
370.27	273.84
370.47	360.44
370.66	547.69
370.86	524.28
371.06	571.09
371.25	582.79
371.45	526.62
371.65	596.84
371.84	533.64
372.04	550.03
372.24	575.77
372.44	528.96
372.63	587.47
372.83	603.86
373.03	543.00
373.22	615.56
373.42	592.16
373.62	613.22
373.81	629.60
374.01	617.90
374.21	638.97
374.40	566.41
374.60	610.88
374.79	685.78
374.99	667.05
375.19	622.58
375.38	667.05
375.58	763.01
375.78	645.99
375.97	624.92
376.17	660.03
376.37	645.99
376.56	636.63
376.76	685.78
376.95	578.11
377.15	636.63
377.35	657.69
377.54	671.73
377.74	664.71
377.93	727.91
378.13	678.76
378.33	674.07
378.52	723.23
378.72	685.78
378.91	690.46
379.11	650.67
379.31	704.50
379.50	734.93
379.70	688.12
379.89	709.18
380.09	678.76
380.28	664.71
380.48	730.25
380.68	748.97
380.87	720.88
381.07	720.88
381.26	784.08
381.46	758.33
381.65	755.99
381.85	753.65
382.04	772.38
382.24	851.96
382.43	795.78
382.63	802.80
382.83	866.00
383.02	758.33
383.22	828.55
383.41	706.84
383.61	758.33
383.80	873.02
384.00	737.27
384.19	793.44
384.39	788.76
384.58	760.67
384.78	758.33
384.97	840.25
385.17	739.61
385.36	809.83
385.56	844.93
385.75	959.62
385.95	835.57
386.14	854.30
386.34	802.80
386.53	777.06
386.72	884.72
386.92	826.21
387.11	964.30
387.31	873.02
387.50	826.21
387.70	940.90
387.89	887.06
388.09	936.21
388.28	966.64
388.48	936.21
388.67	894.08
388.86	929.19
389.06	896.43
389.25	884.72
389.45	933.87
389.64	1025.15
389.84	950.26
390.03	945.58
390.22	915.15
390.42	922.17
390.61	968.98
390.81	861.32
391.00	945.58
391.19	1008.77
391.39	947.92
391.58	976.00
391.78	973.66
391.97	1032.18
392.16	1001.75
392.36	1057.92
392.55	931.53
392.75	1041.54
392.94	1020.47
393.13	1123.46
393.33	1046.22
393.52	1013.45
393.71	1116.44
393.91	1109.41
394.10	1125.80
394.29	1076.65
394.49	1074.31
394.68	1109.41
394.88	1139.84
395.07	1062.60
395.26	1090.69
395.46	1057.92
395.65	1158.57
395.84	1191.33
396.04	1228.78
396.23	1107.07
396.42	1226.44
396.62	1210.06
396.81	1165.59
397.00	1179.63
397.19	1181.97
397.39	1238.14
397.58	1261.55
397.77	1263.89
397.97	1306.02
398.16	1270.91
398.35	1233.46
398.55	1235.80
398.74	1329.42
398.93	1369.21
399.12	1203.04
399.32	1376.24
399.51	1306.02
399.70	1315.38
399.90	1282.61
400.09	1306.02
400.28	1380.92
400.47	1320.06
400.67	1369.21
400.86	1308.36
401.05	1369.21
401.24	1383.26
401.44	1434.75
401.63	1406.66
401.82	1369.21
402.01	1338.79
402.21	1437.09
402.40	1467.52
402.59	1502.62
402.78	1488.58
402.97	1497.94
403.17	1540.07
403.36	1467.52
403.55	1598.59
403.74	1526.03
403.93	1650.08
404.13	1600.93
404.32	1591.56
404.51	1535.39
404.70	1551.78
404.89	1638.38
405.09	1699.23
405.28	1664.12
405.47	1561.14
405.66	1598.59
405.85	1643.06
406.05	1680.50
406.24	1774.13
406.43	1591.56
406.62	1680.50
406.81	1799.87
407.00	1771.79
407.20	1654.76
407.39	1706.25
407.58	1881.79
407.77	1902.86
407.96	1795.19
408.15	1849.02
408.34	1820.94
408.54	1914.56
408.73	1863.07
408.92	1916.90
409.11	1933.28
409.30	1849.02
409.49	1926.26
409.68	1968.39
409.87	1923.92
410.07	2038.61
410.26	2033.93
410.45	1975.41
410.64	2054.99
410.83	2101.80
411.02	1987.11
411.21	2120.53
411.40	2029.24
411.59	2176.70
411.78	2148.61
411.98	2136.91
412.17	2143.93
412.36	2207.13
412.55	2263.30
412.74	2324.15
412.93	2228.19
413.12	2179.04
413.31	2424.80
413.50	2293.72
413.69	2380.32
413.88	2328.83
414.07	2363.94
414.26	2377.98
414.45	2408.41
414.64	2459.90
414.83	2509.05
415.02	2513.74
415.22	2583.95
415.41	2647.15
415.60	2619.06
415.79	2471.61
415.98	2647.15
416.17	2649.49
416.36	2710.34
416.55	2745.45
416.74	2766.51
416.93	2759.49
417.12	2703.32
417.31	2806.30
417.50	2761.83
417.69	2904.60
417.88	2928.01
418.07	2825.03
418.26	2885.88
418.45	2864.82
418.64	3019.29
418.83	2935.03
419.02	2953.76
419.21	3028.65
419.39	3084.83
419.58	2977.16
419.77	3115.25
419.96	3246.32
420.15	3222.92
420.34	3112.91
420.53	3063.76
420.72	3164.40
420.91	3159.72
421.10	3162.06
421.29	3206.53
421.48	3110.57
421.67	3159.72
421.86	3288.45
422.05	3220.58
422.24	3119.93
422.43	3194.83
422.61	3190.15
422.80	3377.39
422.99	3442.93
423.18	3239.30
423.37	3417.18
423.56	3215.90
423.75	3377.39
423.94	3248.66
424.13	3190.15
424.32	3236.96
424.50	3382.07
424.69	3473.36
424.88	3461.65
425.07	3349.31
425.26	3232.28
425.45	3459.31
425.64	3293.13
425.83	3372.71
426.01	3349.31
426.20	3527.19
426.39	3295.47
426.58	3353.99
426.77	3384.41
426.96	3431.23
427.15	3496.76
427.33	3515.48
427.52	3541.23
427.71	3524.85
427.90	3361.01
428.09	3478.04
428.28	3503.78
428.46	3602.08
428.65	3592.72
428.84	3812.73
429.03	3604.42
429.22	3618.47
429.40	3681.66
429.59	3700.39
429.78	3648.90
429.97	3548.25
430.16	3681.66
430.34	3721.45
430.53	3665.28
430.72	3758.90
430.91	3700.39
431.10	3819.75
431.28	3889.97
431.47	3873.59
431.66	3906.35
431.85	3770.60
432.03	3768.26
432.22	4098.28
432.41	3908.69
432.60	4100.62
432.79	3943.80
432.97	3925.08
433.16	4028.06
433.35	3868.91
433.54	4154.45
433.72	4163.81
433.91	4091.26
434.10	4016.36
434.28	4100.62
434.47	4156.79
434.66	4114.66
434.85	4184.88
435.03	4147.43
435.22	4264.46
435.41	4332.33
435.59	4187.22
435.78	4163.81
435.97	4194.24
436.16	4313.61
436.34	4304.25
436.53	4273.82
436.72	4454.04
436.90	4236.37
437.09	4418.93
437.28	4362.76
437.46	4400.21
437.65	4484.47
437.84	4615.54
438.02	4599.15
438.21	4395.53
438.40	4489.15
438.58	4683.41
438.77	4730.22
438.96	4692.77
439.14	4709.16
439.33	4835.55
439.52	4741.93
439.70	4830.87
439.89	4858.95
440.08	4828.53
440.26	4826.18
440.45	4767.67
440.63	4894.06
440.82	4980.66
441.01	4971.30
441.19	4959.60
441.38	5160.88
441.57	5027.47
441.75	5076.62
441.94	5247.48
442.12	5289.61
442.31	5097.69
442.50	5226.42
442.68	5291.95
442.87	5366.85
443.05	5385.57
443.24	5518.98
443.43	5341.10
443.61	5362.17
443.80	5579.84
443.98	5359.83
444.17	5217.05
444.35	5444.09
444.54	5411.32
444.73	5526.00
444.91	5551.75
445.10	5626.65
445.28	5441.75
445.47	5518.98
445.65	5430.04
445.84	5504.94
446.02	5638.35
446.21	5558.77
446.39	5568.13
446.58	5561.11
446.77	5673.46
446.95	5467.49
447.14	5554.09
447.32	5694.52
447.51	5488.56
447.69	5530.69
447.88	5647.71
448.06	5621.97
448.25	5657.07
448.43	5872.40
448.62	5748.36
448.80	5722.61
448.99	5762.40
449.17	5706.23
449.36	5722.61
449.54	5753.04
449.73	5870.06
449.91	5916.87
450.10	5949.64
450.28	5998.79
450.46	6005.81
450.65	6036.24
450.83	6073.69
451.02	5825.59
451.20	6111.14
451.39	6132.20
451.57	6059.65
451.76	6069.01
451.94	5942.62
452.13	6167.31
452.31	6064.33
452.49	6150.93
452.68	6125.18
452.86	6305.40
453.05	6312.42
453.23	6253.91
453.42	6083.05
453.60	6246.89
453.78	6260.93
453.97	6258.59
454.15	6228.17
454.34	6218.80
454.52	6289.02
454.70	6392.00
454.89	6459.88
455.07	6319.45
455.26	6422.43
455.44	6375.62
455.62	6483.28
455.81	6516.05
455.99	6483.28
456.17	6696.27
456.36	6494.99
456.54	6670.53
456.73	6562.86
456.91	6930.33
457.09	6843.73
457.28	6939.69
457.46	6766.49
457.64	6796.92
457.83	6848.41
458.01	6920.96
458.19	7037.99
458.38	6935.01
458.56	6906.92
458.74	7091.82
458.93	7023.95
459.11	7012.24
459.29	7194.81
459.48	6853.09
459.66	6993.52
459.84	7007.56
460.03	7302.47
460.21	7267.36
460.39	7131.61
460.57	7061.40
460.76	7248.64
460.94	7386.73
461.12	7391.41
461.31	7337.58
461.49	7276.73
461.67	7279.07
461.85	7433.54
462.04	7370.35
462.22	7845.48
462.40	7461.63
462.59	7541.21
462.77	7604.40
462.95	7466.31
463.13	7693.34
463.32	7637.17
463.50	7693.34
463.68	7651.21
463.86	7644.19
464.05	7552.91
464.23	7822.07
464.41	7712.07
464.59	7662.91
464.78	7892.29
464.96	7812.71
465.14	7740.15
465.32	7906.33
465.50	7927.39
465.69	8004.63
465.87	7967.18
466.05	8016.33
466.23	7908.67
466.41	8065.49
466.60	8184.85
466.78	7995.27
466.96	8065.49
467.14	7899.31
467.32	8070.17
467.51	8035.06
467.69	7880.58
467.87	8234.00
468.05	8184.85
468.23	8042.08
468.41	8032.72
468.60	8311.24
468.78	8266.77
468.96	8159.11
469.14	8210.60
469.32	8325.29
469.50	8112.30
469.69	8475.08
469.87	8549.98
470.05	8486.78
470.23	8582.74
470.41	8580.40
470.59	8596.79
470.77	8446.99
470.95	8620.19
471.14	8905.74
471.32	8657.64
471.50	8833.18
471.68	8940.85
471.86	8788.71
472.04	8856.59
472.22	9081.28
472.40	8922.12
472.58	8950.21
472.77	9242.78
472.95	9341.08
473.13	9345.76
473.31	9172.56
473.49	9195.96
473.67	9163.20
473.85	9266.18
474.03	9324.69
474.21	9469.81
474.39	9523.64
474.57	9341.08
474.75	9652.37
474.93	9640.67
475.12	9462.79
475.30	9628.96
475.48	9652.37
475.66	9923.87
475.84	9647.69
476.02	9748.33
476.20	10043.24
476.38	10064.30
476.56	10207.08
476.74	10284.31
476.92	10171.97
477.10	10279.63
477.28	10443.47
477.46	10183.67
477.64	10516.03
477.82	10874.13
478.00	10832.00
478.18	10778.17
478.36	10906.90
478.54	11002.86
478.72	11094.14
478.90	10904.56
479.08	11396.07
479.26	11449.90
479.44	11398.41
479.62	11279.04
479.80	11482.67
479.98	11775.24
480.16	11913.33
480.34	11730.76
480.52	12002.27
480.70	12107.59
480.88	11833.75
481.06	11976.52
481.24	12210.57
481.41	12358.03
481.59	12430.59
481.77	12781.67
481.95	12582.72
482.13	12734.85
482.31	12381.43
482.49	12903.37
482.67	13041.46
482.85	13064.87
483.03	13385.52
483.21	13502.55
483.39	13427.65
483.57	13420.63
483.74	13678.09
483.92	13357.44
484.10	13621.92
484.28	13982.36
484.46	14225.78
484.64	14317.06
484.82	13832.57
485.00	14363.87
485.18	14361.53
485.35	14766.44
485.53	14595.58
485.71	14572.18
485.89	14820.27
486.07	14668.14
486.25	14993.47
486.43	15084.75
486.61	15360.94
486.78	15496.69
486.96	15459.24
487.14	15772.87
487.32	15620.74
487.50	15836.06
487.68	15978.84
487.85	16025.65
488.03	16358.00
488.21	16463.33
488.39	16456.31
488.57	16783.98
488.75	16795.68
488.92	16760.58
489.10	17039.10
489.28	16992.29
489.46	17364.43
489.64	17191.23
489.81	17502.53
489.99	17518.91
490.17	17717.86
490.35	17764.67
490.53	18057.23
490.70	18038.51
490.88	17930.84
491.06	18333.42
491.24	18464.49
491.41	18700.88
491.59	18527.68
491.77	18513.64
491.95	18911.53
492.13	19077.71
492.30	18946.64
492.48	19164.31
492.66	19627.73
492.84	18853.02
493.01	19431.13
493.19	19669.86
493.37	19927.32
493.54	20030.30
493.72	20023.28
493.90	20114.56
494.08	19950.73
494.25	20510.11
494.43	20360.32
494.61	20315.85
494.79	20446.92
494.96	20418.83
495.14	20891.62
495.32	21287.17
495.49	21020.35
495.67	21245.04
495.85	21369.09
496.02	21266.11
496.20	22113.38
496.38	21717.83
496.55	21736.56
496.73	22026.78
496.91	22302.96
497.09	22293.60
497.26	22288.92
497.44	22417.65
497.62	22462.12
497.79	22904.48
497.97	22955.97
498.14	23040.23
498.32	22932.57
498.50	22923.21
498.67	23236.84
498.85	23168.96
499.03	23524.72
499.20	23447.49
499.38	23735.37
499.56	23768.14
499.73	23775.16
499.91	23810.27
500.08	23772.82
500.26	24151.99
500.44	24271.36
500.61	24320.51
500.79	24041.98
500.97	24236.25
501.14	24500.73
501.32	24655.20
501.49	24444.56
501.67	24800.32
501.84	24954.79
502.02	24931.39
502.20	24580.31
502.37	25090.54
502.55	24917.34
502.72	25156.08
502.90	25614.82
503.07	25097.56
503.25	25345.66
503.43	25252.04
503.60	25575.03
503.78	25937.82
503.95	26001.01
504.13	25743.55
504.30	25853.56
504.48	25986.97
504.65	25975.27
504.83	26401.24
505.01	26125.06
505.18	26686.79
505.36	26647.00
505.53	26359.11
505.71	26597.85
505.88	26806.16
506.06	26312.30
506.23	26969.99
506.41	27030.85
506.58	26967.65
506.76	26850.63
506.93	27108.08
507.11	27524.70
507.28	26995.74
507.46	27513.00
507.63	27089.36
507.81	27562.15
507.98	27391.29
508.16	27543.42
508.33	27721.30
508.50	27838.33
508.68	27735.35
508.85	28086.43
509.03	27899.19
509.20	27953.02
509.38	28638.80
509.55	28210.48
509.73	28425.81
509.90	28566.24
510.08	28601.35
510.25	28566.24
510.42	28814.34
510.60	29205.20
510.77	29373.72
510.95	29523.52
511.12	28989.88
511.30	29074.13
511.47	29123.29
511.64	29120.95
511.82	29266.06
511.99	29642.88
512.17	29689.70
512.34	29244.99
512.51	30068.86
512.69	29830.13
512.86	29820.77
513.04	29848.85
513.21	30298.23
513.38	29956.52
513.56	30441.01
513.73	30469.09
513.90	30256.11
514.08	30412.92
514.25	30930.18
514.43	30892.73
514.60	30478.46
514.77	30700.81
514.95	30705.49
515.12	30604.84
515.29	30703.15
515.47	31042.53
515.64	30981.67
515.81	30799.11
515.99	31332.75
516.16	31510.63
516.33	31304.67
516.51	31681.49
516.68	31204.02
516.85	31538.72
517.03	31527.02
517.20	31847.67
517.37	31601.91
517.54	31564.46
517.72	31747.03
517.89	32402.38
518.06	32102.79
518.24	31929.59
518.41	32425.78
518.58	32510.04
518.75	31974.06
518.93	32467.91
519.10	32222.16
519.27	32573.24
519.45	32921.98
519.62	32933.68
519.79	33001.55
519.96	32924.32
520.14	32849.42
520.31	32826.01
520.48	33202.84
520.65	33132.62
520.83	33322.21
521.00	33181.77
521.17	32980.49
521.34	33312.84
521.52	33596.05
521.69	33500.09
521.86	33656.90
522.03	34050.11
522.20	34024.37
522.38	34150.76
522.55	34274.80
522.72	34092.24
522.89	33766.91
523.07	34387.15
523.24	34192.89
523.41	34424.60
523.58	34195.23
523.75	34817.81
523.92	34169.48
524.10	34499.50
524.27	34689.08
524.44	34771.00
524.61	34562.69
524.78	34862.28
524.96	34925.47
525.13	34913.77
525.30	35133.78
525.47	35168.89
525.64	35007.39
525.81	35309.32
525.98	35302.30
526.16	35309.32
526.33	35086.97
526.50	35552.74
526.67	35302.30
526.84	35454.44
527.01	35564.44
527.18	35758.70
527.36	35976.37
527.53	35934.24
527.70	35978.72
527.87	36051.27
528.04	35952.97
528.21	36240.86
528.38	35910.84
528.55	36189.36
528.72	36217.45
528.89	36397.67
529.07	36194.04
529.24	36020.84
529.41	36247.88
529.58	36519.38
529.75	36378.95
529.92	36669.17
530.09	36364.90
530.26	36620.02
530.43	36645.77
530.60	36367.24
530.77	36428.10
530.94	36725.35
531.11	36809.61
531.28	36858.76
531.46	37439.21
531.63	37132.60
531.80	37233.24
531.97	37247.29
532.14	37598.37
532.31	37354.95
532.48	37535.17
532.65	37677.94
532.82	37331.54
532.99	37371.33
533.16	37111.53
533.33	37219.20
533.50	37715.39
533.67	37457.93
533.84	37544.53
534.01	37844.12
534.18	37298.78
534.35	37759.86
534.52	37799.65
534.69	38251.38
534.86	38286.48
535.03	38366.06
535.20	38527.56
535.37	38286.48
535.54	38560.33
535.71	38305.21
535.88	38417.55
536.05	38557.99
536.22	38307.55
536.38	38244.35
536.55	38302.87
536.72	38691.40
536.89	38424.57
537.06	38990.98
537.23	38740.55
537.40	38859.91
537.57	38822.47
537.74	38642.24
537.91	39138.44
538.08	39379.51
538.25	38782.68
538.42	38937.15
538.59	39173.55
538.75	39456.75
538.92	39416.96
539.09	39051.84
539.26	39466.11
539.43	39442.71
539.60	39636.97
539.77	39456.75
539.94	39770.38
540.11	39501.22
540.28	39655.70
540.44	39447.39
540.61	39763.36
540.78	39742.30
540.95	39629.95
541.12	39751.66
541.29	39484.84
541.46	40273.60
541.62	40074.65
541.79	39999.76
541.96	39758.68
542.13	39583.14
542.30	39875.71
542.47	39906.13
542.63	40641.06
542.80	40498.29
542.97	40629.36
543.14	40514.67
543.31	40500.63
543.48	40589.57
543.64	41258.96
543.81	41109.17
543.98	40800.22
544.15	41230.88
544.32	40678.51
544.48	41462.59
544.65	40971.08
544.82	41174.70
544.99	40849.37
545.16	41109.17
545.32	40973.42
545.49	41200.45
545.66	41759.84
545.83	41399.40
546.00	41771.54
546.16	41284.71
546.33	41586.64
546.50	41109.17
546.67	41956.44
546.83	41104.49
547.00	41446.21
547.17	41776.22
547.34	41326.84
547.50	41567.91
547.67	42127.30
547.84	42038.36
548.00	41956.44
548.17	42443.27
548.34	42637.54
548.51	42667.97
548.67	42115.60
548.84	42071.13
549.01	42197.52
549.18	42157.73
549.34	42527.53
549.51	42789.67
549.68	42047.72
549.84	42253.69
550.01	42466.68
550.18	42157.73
550.34	42115.60
550.51	42784.99
550.68	42719.46
550.84	42300.50
551.01	42485.40
551.18	42326.25
551.34	42087.51
551.51	42972.24
551.68	42590.73
551.84	42424.55
552.01	42412.85
552.18	42782.65
552.34	42792.01
552.51	42972.24
552.68	43007.34
552.84	42824.78
553.01	43180.54
553.18	43234.38
553.34	43255.44
553.51	43246.08
553.67	42955.85
553.84	43250.76
554.01	43126.71
554.17	43232.04
554.34	43412.26
554.51	43456.73
554.67	43356.08
554.84	43438.00
555.00	43398.21
555.17	43358.42
555.33	43948.24
555.50	43641.63
555.67	43304.59
555.83	43335.02
556.00	43468.43
556.16	44226.76
556.33	44236.12
556.50	43896.75
556.66	43629.93
556.83	43805.47
556.99	44032.50
557.16	43892.07
557.32	43842.92
557.49	43648.65
557.65	43969.30
557.82	43658.01
557.98	44067.61
558.15	43973.98
558.32	43842.92
558.48	43873.34
558.65	43938.88
558.81	43920.15
558.98	43880.36
559.14	44114.42
559.31	44100.37
559.47	43529.28
559.64	44474.86
559.80	43690.78
559.97	44074.63
560.13	43728.23
560.30	44268.89
560.46	44289.96
560.63	44596.57
560.79	44577.84
560.96	44666.78
561.12	44524.01
561.29	44418.69
561.45	44802.53
561.61	44561.46
561.78	44318.04
561.94	44280.60
562.11	44816.58
562.27	44414.01
562.44	44650.40
562.60	44683.17
562.77	44645.72
562.93	44734.66
563.10	44713.59
563.26	44278.25
563.42	44669.12
563.59	44825.94
563.75	44673.81
563.92	44559.12
564.08	44678.49
564.24	45144.25
564.41	44987.44
564.57	44839.98
564.74	44729.98
564.90	44905.52
565.07	44669.12
565.23	45055.31
565.39	45064.67
565.56	44889.13
565.72	44861.05
565.88	44931.26
566.05	45027.23
566.21	44912.54
566.38	45048.29
566.54	45092.76
566.70	45357.24
566.87	45523.42
567.03	44882.11
567.19	45092.76
567.36	45141.91
567.52	45085.74
567.68	45022.54
567.85	45270.64
568.01	45237.87
568.17	45490.65
568.34	45392.35
568.50	45277.66
568.66	45041.27
568.83	45251.92
568.99	45514.06
569.15	45366.60
569.32	45193.40
569.48	45256.60
569.64	45308.09
569.81	45507.04
569.97	45745.77
570.13	45483.63
570.30	45254.26
570.46	45380.65
570.62	45516.40
570.78	45364.26
570.95	45352.56
571.11	45413.41
571.27	45666.19
571.43	45708.32
571.60	45598.32
571.76	44999.14
571.92	45366.60
572.09	45490.65
572.25	45460.23
572.41	45226.17
572.57	45429.80
572.74	45893.22
572.90	45691.94
573.06	45530.44
573.22	45832.37
573.38	45993.87
573.55	45514.06
573.71	46061.74
573.87	45918.97
574.03	45406.39
574.20	46258.35
574.36	45921.31
574.52	45867.48
574.68	45610.02
574.84	45883.86
575.01	46146.00
575.17	46286.43
575.33	45762.15
575.49	45694.28
575.65	45975.14
575.82	45794.92
575.98	45600.66
576.14	46532.19
576.30	46106.21
576.46	45830.03
576.62	45869.82
576.79	45748.11
576.95	45628.74
577.11	45914.29
577.27	45689.60
577.43	45450.86
577.59	45677.90
577.75	45876.84
577.92	45549.17
578.08	45799.60
578.24	45734.07
578.40	46314.52
578.56	45591.30
578.72	45961.10
578.88	45951.74
579.04	45853.44
579.21	46176.43
579.37	46160.05
579.53	46038.34
579.69	45825.35
579.85	45469.59
580.01	46033.66
580.17	45909.61
580.33	46256.01
580.49	46258.35
580.65	45874.50
580.82	46003.23
580.98	46024.29
581.14	45406.39
581.30	46337.93
581.46	45698.96
581.62	46167.07
581.78	45808.96
581.94	45975.14
582.10	45933.01
582.26	46050.04
582.42	46148.34
582.58	46057.06
582.74	46513.47
582.90	46075.79
583.06	46300.48
583.22	46183.45
583.38	46031.32
583.54	45684.92
583.70	46129.62
583.86	46216.22
584.02	46267.71
584.18	46560.28
584.34	46457.29
584.50	46461.97
584.66	46279.41
584.82	46401.12
584.98	46595.38
585.14	45900.25
585.30	46136.64
585.46	46153.02
585.62	46085.15
585.78	45921.31
585.94	46021.95
586.10	46422.19
586.26	45808.96
586.42	46312.18
586.58	46117.92
586.74	46162.39
586.90	46286.43
587.06	46295.80
587.22	46464.32
587.38	45942.38
587.54	46576.66
587.70	46848.16
587.86	46494.74
588.02	46534.53
588.18	46286.43
588.34	46176.43
588.49	46113.23
588.65	46478.36
588.81	46167.07
588.97	46270.05
589.13	46450.27
589.29	46438.57
589.45	46562.62
589.61	46515.81
589.77	46674.96
589.93	46349.63
590.08	46267.71
