SpectraSuite Data File
++++++++++++++++++++++++++++++++++++
Date: Fri Oct 25 11:22:40 EDT 2013
User: price-jones
Dark Spectrum Present: No
Reference Spectrum Present: No
Number of Sampled Component Spectra: 1
Spectrometers: USB2+H05261
Integration Time (usec): 100000 (USB2+H05261)
Spectra Averaged: 1 (USB2+H05261)
Boxcar Smoothing: 0 (USB2+H05261)
Correct for Electrical Dark: No (USB2+H05261)
Strobe/Lamp Enabled: No (USB2+H05261)
Correct for Detector Non-linearity: No (USB2+H05261)
Correct for Stray Light: No (USB2+H05261)
Number of Pixels in Processed Spectrum: 2048
>>>>>Begin Processed Spectral Data<<<<<
365.73	208.31
365.92	208.31
366.12	208.31
366.32	154.48
366.52	42.13
366.72	133.41
366.91	124.05
367.11	124.05
367.31	79.58
367.51	53.83
367.70	126.39
367.90	154.48
368.10	145.11
368.30	114.69
368.49	166.18
368.69	117.03
368.89	112.35
369.09	142.77
369.28	88.94
369.48	77.24
369.68	131.07
369.87	154.48
370.07	259.80
370.27	245.76
370.47	327.68
370.66	512.58
370.86	589.82
371.06	592.16
371.25	638.97
371.45	634.29
371.65	676.41
371.84	699.82
372.04	732.59
372.24	730.25
372.44	648.33
372.63	667.05
372.83	777.06
373.03	755.99
373.22	718.54
373.42	814.51
373.62	741.95
373.81	858.98
374.01	854.30
374.21	807.48
374.40	791.10
374.60	819.19
374.79	760.67
374.99	847.27
375.19	833.23
375.38	842.59
375.58	842.59
375.78	844.93
375.97	884.72
376.17	950.26
376.37	833.23
376.56	854.30
376.76	847.27
376.95	905.79
377.15	912.81
377.35	980.68
377.54	858.98
377.74	903.45
377.93	840.25
378.13	809.83
378.33	873.02
378.52	924.51
378.72	983.02
378.91	901.11
379.11	884.72
379.31	894.08
379.50	926.85
379.70	1067.28
379.89	880.04
380.09	870.68
380.28	910.47
380.48	1004.09
380.68	936.21
380.87	947.92
381.07	1027.50
381.26	924.51
381.46	1060.26
381.65	1069.62
381.85	1011.11
382.04	1083.67
382.24	1081.33
382.43	1107.07
382.63	1043.88
382.83	1018.13
383.02	1027.50
383.22	1165.59
383.41	1095.37
383.61	1062.60
383.80	1191.33
384.00	1158.57
384.19	1165.59
384.39	1039.20
384.58	1036.86
384.78	1174.95
384.97	1170.27
385.17	1153.88
385.36	1186.65
385.56	1160.91
385.75	1137.50
385.95	1217.08
386.14	1242.82
386.34	1214.74
386.53	1191.33
386.72	1163.25
386.92	1135.16
387.11	1263.89
387.31	1331.76
387.50	1270.91
387.70	1217.08
387.89	1331.76
388.09	1254.53
388.28	1287.29
388.48	1310.70
388.67	1357.51
388.86	1362.19
389.06	1287.29
389.25	1345.81
389.45	1373.89
389.64	1397.30
389.84	1310.70
390.03	1472.20
390.22	1465.18
390.42	1355.17
390.61	1416.02
390.81	1341.13
391.00	1390.28
391.19	1350.49
391.39	1401.98
391.58	1434.75
391.78	1413.68
391.97	1488.58
392.16	1509.65
392.36	1558.80
392.55	1535.39
392.75	1619.65
392.94	1526.03
393.13	1497.94
393.33	1418.36
393.52	1640.72
393.71	1610.29
393.91	1614.97
394.10	1551.78
394.29	1586.88
394.49	1551.78
394.68	1610.29
394.88	1673.48
395.07	1710.93
395.26	1696.89
395.46	1603.27
395.65	1692.21
395.84	1619.65
396.04	1877.11
396.23	1797.53
396.42	1760.08
396.62	1755.40
396.81	1739.02
397.00	1769.44
397.19	1898.17
397.39	1853.70
397.58	1820.94
397.77	1802.21
397.97	1799.87
398.16	1809.23
398.35	1912.22
398.55	1832.64
398.74	1916.90
398.93	1954.35
399.12	1914.56
399.32	2001.16
399.51	2033.93
399.70	2101.80
399.90	2031.58
400.09	2062.01
400.28	1989.46
400.47	1975.41
400.67	2057.33
400.86	2136.91
401.05	2188.40
401.24	2099.46
401.44	2115.84
401.63	2115.84
401.82	2230.53
402.01	2312.45
402.21	2239.89
402.40	2179.04
402.59	2282.02
402.78	2242.23
402.97	2211.81
403.17	2256.28
403.36	2267.98
403.55	2197.76
403.74	2373.30
403.93	2338.20
404.13	2417.77
404.32	2289.04
404.51	2363.94
404.70	2438.84
404.89	2429.48
405.09	2586.29
405.28	2457.56
405.47	2551.18
405.66	2509.05
405.85	2527.78
406.05	2537.14
406.24	2506.71
406.43	2541.82
406.62	2574.59
406.81	2705.66
407.00	2544.16
407.20	2626.08
407.39	2614.38
407.58	2677.57
407.77	2871.84
407.96	2722.04
408.15	2710.34
408.34	2649.49
408.54	2672.89
408.73	2787.58
408.92	2897.58
409.11	2813.32
409.30	2937.37
409.49	2834.39
409.68	2883.54
409.87	2930.35
410.07	3042.70
410.26	2972.48
410.45	3023.97
410.64	2991.20
410.83	3206.53
411.02	3143.34
411.21	3253.34
411.40	3148.02
411.59	3325.90
411.78	3178.45
411.98	3283.77
412.17	3349.31
412.36	3314.20
412.55	3365.69
412.74	3482.72
412.93	3412.50
413.12	3386.76
413.31	3459.31
413.50	3494.42
413.69	3485.06
413.88	3534.21
414.07	3681.66
414.26	3716.77
414.45	3679.32
414.64	3707.41
414.83	3721.45
415.02	3808.05
415.22	3665.28
415.41	3892.31
415.60	3817.41
415.79	3915.72
415.98	4023.38
416.17	3964.87
416.36	3955.51
416.55	3974.23
416.74	4196.58
416.93	4154.45
417.12	4135.73
417.31	4124.02
417.50	4159.13
417.69	4341.69
417.88	4229.35
418.07	4297.22
418.26	4435.32
418.45	4425.95
418.64	4475.10
418.83	4444.68
419.02	4418.93
419.21	4493.83
419.39	4596.81
419.58	4540.64
419.77	4418.93
419.96	4634.26
420.15	4748.95
420.34	4582.77
420.53	4599.15
420.72	4844.91
420.91	4662.35
421.10	4753.63
421.29	4887.04
421.48	4610.86
421.67	4772.35
421.86	4760.65
422.05	4901.08
422.24	4830.87
422.43	4938.53
422.61	5015.77
422.80	4919.81
422.99	4868.31
423.18	4957.25
423.37	5083.64
423.56	4971.30
423.75	4999.38
423.94	4746.61
424.13	4648.30
424.32	4887.04
424.50	5076.62
424.69	5100.03
424.88	5118.75
425.07	4945.55
425.26	5062.58
425.45	4870.65
425.64	4994.70
425.83	5011.09
426.01	5043.85
426.20	5156.20
426.39	5240.46
426.58	5137.48
426.77	5179.61
426.96	5177.26
427.15	4980.66
427.33	5275.57
427.52	5263.86
427.71	5203.01
427.90	5294.29
428.09	5352.81
428.28	5411.32
428.46	5530.69
428.65	5338.76
428.84	5488.56
429.03	5607.92
429.22	5376.21
429.40	5465.15
429.59	5540.05
429.78	5170.24
429.97	5188.97
430.16	5511.96
430.34	5710.91
430.53	5750.70
430.72	5654.73
430.91	5528.35
431.10	5647.71
431.28	5839.64
431.47	5853.68
431.66	5879.43
431.85	5760.06
432.03	6059.65
432.22	5984.75
432.41	5851.34
432.60	5961.34
432.79	5961.34
432.97	5856.02
433.16	6054.97
433.35	6029.22
433.54	6155.61
433.72	6282.00
433.91	6228.17
434.10	6047.94
434.28	6010.50
434.47	6267.95
434.66	6307.74
434.85	6389.66
435.03	6263.27
435.22	6307.74
435.41	6506.69
435.59	6429.45
435.78	6558.18
435.97	6511.37
436.16	6565.20
436.34	6338.17
436.53	6637.76
436.72	6665.85
436.90	6609.67
437.09	6775.85
437.28	6544.14
437.46	6677.55
437.65	6759.47
437.84	6813.30
438.02	6787.55
438.21	6806.28
438.40	6839.05
438.58	7096.50
438.77	7119.91
438.96	6998.20
439.14	7173.74
439.33	7218.21
439.52	7314.17
439.70	7386.73
439.89	7583.34
440.08	7302.47
440.26	7328.22
440.45	7349.28
440.63	7517.80
440.82	7721.43
441.01	7583.34
441.19	7623.12
441.38	7625.47
441.57	7969.52
441.75	7777.60
441.94	7957.82
442.12	7985.91
442.31	8196.56
442.50	8149.75
442.68	8037.40
442.87	7976.55
443.05	8145.06
443.24	8236.35
443.43	8077.19
443.61	8121.66
443.80	8411.89
443.98	8194.22
444.17	7805.69
444.35	8461.04
444.54	8482.10
444.73	8512.53
444.91	8180.17
445.10	8315.92
445.28	8395.50
445.47	8585.08
445.65	8388.48
445.84	8566.36
446.02	8531.25
446.21	8578.06
446.39	8512.53
446.58	8486.78
446.77	8659.98
446.95	8437.63
447.14	8379.12
447.32	8683.39
447.51	8510.19
447.69	8535.93
447.88	8315.92
448.06	8549.98
448.25	8568.70
448.43	8655.30
448.62	8655.30
448.80	8589.77
448.99	8744.24
449.17	8807.44
449.36	8709.13
449.54	8870.63
449.73	8898.72
449.91	8978.30
450.10	8807.44
450.28	9135.11
450.46	9163.20
450.65	9060.21
450.83	9062.55
451.02	9146.81
451.20	9238.09
451.39	9029.79
451.57	9177.24
451.76	9046.17
451.94	9193.62
452.13	9455.76
452.31	9317.67
452.49	9408.95
452.68	9404.27
452.86	9523.64
453.05	9516.62
453.23	9680.46
453.42	9378.53
453.60	9343.42
453.78	9558.75
453.97	9605.56
454.15	9535.34
454.34	9500.23
454.52	9530.66
454.70	9657.05
454.89	9710.88
455.07	9877.06
455.26	9781.10
455.44	10050.26
455.62	9905.15
455.81	9991.75
455.99	10148.56
456.17	10443.47
456.36	10174.31
456.54	10068.98
456.73	10473.90
456.91	10443.47
457.09	10424.75
457.28	10663.48
457.46	10340.49
457.64	10651.78
457.83	10600.29
458.01	10530.07
458.19	10768.80
458.38	10553.48
458.56	10773.49
458.74	10663.48
458.93	10820.30
459.11	10661.14
459.29	10768.80
459.48	10778.17
459.66	10878.81
459.84	11084.78
460.03	11262.66
460.21	10981.79
460.39	11012.22
460.57	11199.46
460.76	11180.74
460.94	11204.14
461.12	11183.08
461.31	11150.31
461.49	11180.74
461.67	11307.13
461.85	11440.54
462.04	11421.81
462.22	11936.73
462.40	11566.93
462.59	11587.99
462.77	11932.05
462.95	11644.17
463.13	11836.09
463.32	11609.06
463.50	11934.39
463.68	11894.60
463.86	11967.16
464.05	11798.64
464.23	11566.93
464.41	12025.67
464.59	11829.07
464.78	11854.81
464.96	12060.78
465.14	12030.35
465.32	12093.55
465.50	12119.29
465.69	12407.18
465.87	12299.52
466.05	12032.69
466.23	12271.43
466.41	12280.79
466.60	12681.02
466.78	12278.45
466.96	12329.94
467.14	12248.02
467.32	12449.31
467.51	12760.60
467.69	12135.68
467.87	12482.08
468.05	13022.74
468.23	12503.14
468.41	12367.39
468.60	12849.54
468.78	12894.01
468.96	12858.90
469.14	12744.22
469.32	12954.87
469.50	12877.63
469.69	13238.07
469.87	13083.59
470.05	13240.41
470.23	13462.76
470.41	13308.29
470.59	13486.17
470.77	13296.58
470.95	13305.95
471.14	13530.64
471.32	13296.58
471.50	13429.99
471.68	13577.45
471.86	13659.37
472.04	13832.57
472.22	13991.72
472.40	13720.22
472.58	13998.74
472.77	14087.68
472.95	14087.68
473.13	14464.51
473.31	14022.15
473.49	14396.64
473.67	14298.33
473.85	14359.19
474.03	15021.56
474.21	14579.20
474.39	14789.85
474.57	15002.83
474.75	14939.64
474.93	15410.09
475.12	15115.18
475.30	15115.18
475.48	15279.02
475.66	15370.30
475.84	15150.29
476.02	15602.01
476.20	15606.69
476.38	15957.77
476.56	16191.83
476.74	16042.03
476.92	15899.26
477.10	15910.96
477.28	16402.47
477.46	16332.26
477.64	16397.79
477.82	16779.30
478.00	17198.26
478.18	16865.90
478.36	16936.12
478.54	17275.49
478.72	17523.59
478.90	17593.81
479.08	17554.02
479.26	17647.64
479.44	17825.52
479.62	17832.54
479.80	18251.50
479.98	18202.35
480.16	18642.37
480.34	18515.98
480.52	19016.85
480.70	19070.68
480.88	18616.62
481.06	18845.99
481.24	18888.12
481.41	19508.37
481.59	19253.25
481.77	19719.01
481.95	19702.63
482.13	19819.66
482.31	19782.21
482.49	20451.60
482.67	20423.51
482.85	20723.10
483.03	20790.98
483.21	20865.88
483.39	21404.20
483.57	21118.65
483.74	21411.22
483.92	21813.79
484.10	21521.23
484.28	21757.62
484.46	22431.69
484.64	22654.05
484.82	22335.73
485.00	22417.65
485.18	22808.52
485.35	23026.19
485.53	23143.22
485.71	23283.65
485.89	23583.24
486.07	23262.58
486.25	23711.97
486.43	23653.45
486.61	24004.53
486.78	24210.50
486.96	24079.43
487.14	24835.42
487.32	24755.85
487.50	25202.89
487.68	25195.87
487.85	25626.53
488.03	25661.63
488.21	26190.59
488.39	26178.89
488.57	26726.58
488.75	26359.11
488.92	26876.37
489.10	27166.60
489.28	26867.01
489.46	27700.24
489.64	27227.45
489.81	28020.89
489.99	27725.99
490.17	27831.31
490.35	28439.85
490.53	28238.56
490.70	28662.20
490.88	28470.28
491.06	29062.43
491.24	28797.95
491.41	29385.43
491.59	29687.36
491.77	29322.23
491.95	29647.57
492.13	29940.13
492.30	30125.04
492.48	30572.08
492.66	30012.69
492.84	30637.61
493.01	30925.50
493.19	31253.17
493.37	31129.12
493.54	31232.11
493.72	31693.19
493.90	31861.71
494.08	31899.16
494.25	32320.46
494.43	32350.88
494.61	32631.75
494.79	32563.87
494.96	32479.61
495.14	33057.73
495.32	33628.82
495.49	33141.99
495.67	33607.75
495.85	33963.51
496.02	34185.86
496.20	33834.78
496.38	34373.11
496.55	34527.58
496.73	35316.34
496.91	35070.59
497.09	34651.63
497.26	35115.06
497.44	35103.35
497.62	35409.96
497.79	36404.69
497.97	35889.77
498.14	36084.04
498.32	36699.60
498.50	36723.01
498.67	36568.53
498.85	36851.73
499.03	36896.20
499.20	37184.09
499.38	37289.42
499.56	37406.44
499.73	37249.63
499.91	37689.65
500.08	38026.68
500.26	38272.44
500.44	37694.33
500.61	38527.56
500.79	37804.33
500.97	38122.65
501.14	39152.48
501.32	38799.06
501.49	38625.86
501.67	39108.01
501.84	39035.45
502.02	39178.23
502.20	39239.08
502.37	39166.52
502.55	39714.21
502.72	39749.32
502.90	39985.71
503.07	39739.96
503.25	40444.46
503.43	39983.37
503.60	40498.29
503.78	41038.95
503.95	40474.88
504.13	40828.30
504.30	41179.39
504.48	40694.89
504.65	41053.00
504.83	41493.02
505.01	41123.21
505.18	41308.11
505.36	41900.27
505.53	41649.83
505.71	41855.80
505.88	41998.57
506.06	41762.18
506.23	42113.26
506.41	42155.39
506.58	42492.43
506.76	42464.34
506.93	42667.97
507.11	42859.89
507.28	43119.69
507.46	42857.55
507.63	43325.66
507.81	43386.51
507.98	43538.65
508.16	43320.98
508.33	43777.38
508.50	43962.28
508.68	43625.25
508.85	43887.39
509.03	44219.74
509.20	44451.45
509.38	44690.19
509.55	44474.86
509.73	44559.12
509.90	44938.29
510.08	45141.91
510.25	44861.05
510.42	44837.64
510.60	45640.45
510.77	45773.86
510.95	45783.22
511.12	45134.89
511.30	45500.01
511.47	46223.24
511.64	46059.40
511.82	46092.17
511.99	45893.22
512.17	46408.14
512.34	46220.90
512.51	46557.94
512.69	46747.52
512.86	46312.18
513.04	47503.51
513.21	46710.07
513.38	46976.89
513.56	47437.98
513.73	47356.06
513.90	47477.77
514.08	47241.37
514.25	47770.33
514.43	47920.13
514.60	47887.36
514.77	48034.81
514.95	48027.79
515.12	47597.13
515.29	47948.21
515.47	48315.68
515.64	48711.23
515.81	48378.87
515.99	48940.60
516.16	48678.46
516.33	48746.34
516.51	49139.55
516.68	48956.99
516.85	49127.84
517.03	49022.52
517.20	49659.15
517.37	49031.88
517.54	49177.00
517.72	49055.29
517.89	49301.04
518.06	49794.90
518.24	49673.19
518.41	49389.98
518.58	49619.36
518.75	49385.30
518.93	50089.80
519.10	50052.36
519.27	49972.78
519.45	49778.51
519.62	50145.98
519.79	49993.84
519.96	50258.32
520.14	50534.51
520.31	50157.68
520.48	50501.74
520.65	50553.23
520.83	50983.89
521.00	51023.68
521.17	51086.87
521.34	50766.22
521.52	51159.43
521.69	50873.88
521.86	51632.22
522.03	51522.21
522.20	51784.35
522.38	51803.08
522.55	51625.20
522.72	51688.39
522.89	51604.13
523.07	52023.09
523.24	52055.85
523.41	51983.30
523.58	51936.49
523.75	52285.23
523.92	52112.03
524.10	52224.37
524.27	52292.25
524.44	52261.82
524.61	52605.88
524.78	52556.73
524.96	52430.34
525.13	52678.44
525.30	52736.95
525.47	52980.37
525.64	52657.37
525.81	53102.07
525.98	52999.09
526.16	52741.63
526.33	52755.68
526.50	53179.31
526.67	53137.18
526.84	53116.12
527.01	53160.59
527.18	53155.91
527.36	53401.66
527.53	53305.70
527.70	53645.08
527.87	53509.33
528.04	53298.68
528.21	53516.35
528.38	53481.24
528.55	53598.27
528.72	53591.25
528.89	53605.29
529.07	53790.19
529.24	53516.35
529.41	54007.86
529.58	53897.86
529.75	53729.34
529.92	54007.86
530.09	54087.44
530.26	54206.81
530.43	54129.57
530.60	54138.93
530.77	54005.52
530.94	54216.17
531.11	54262.98
531.28	54672.57
531.46	54506.40
531.63	54375.33
531.80	54726.41
531.97	54639.81
532.14	54775.56
532.31	54733.43
532.48	54820.03
532.65	55000.25
532.82	54791.94
532.99	54986.21
533.16	54801.30
533.33	55091.53
533.50	55175.79
533.67	55136.00
533.84	54932.37
534.01	55044.72
534.18	55262.39
534.35	55606.45
534.52	55292.82
534.69	55594.74
534.86	55402.82
535.03	55388.78
535.20	55430.91
535.37	55545.59
535.54	55643.90
535.71	55702.41
535.88	55756.24
536.05	55592.40
536.22	55810.07
536.38	55849.86
536.55	55753.90
536.72	55683.69
536.89	55784.33
537.06	55653.26
537.23	56126.05
537.40	55959.87
537.57	55929.44
537.74	56020.72
537.91	56081.58
538.08	56034.77
538.25	56104.98
538.42	56053.49
538.59	56416.27
538.75	56306.27
538.92	56378.82
539.09	56257.12
539.26	56479.47
539.43	56280.52
539.60	56573.09
539.77	56512.23
539.94	56687.78
540.11	56442.02
540.28	56725.22
540.44	56647.99
540.61	56545.00
540.78	56575.43
540.95	56685.43
541.12	56671.39
541.29	56687.78
541.46	56638.62
541.62	56886.72
541.79	56907.79
541.96	56750.97
542.13	56797.78
542.30	56961.62
542.47	57167.58
542.63	57036.51
542.80	57015.45
542.97	57200.35
543.14	57427.38
543.31	57380.57
543.48	57521.01
543.64	57794.85
543.81	57649.74
543.98	57551.43
544.15	57553.77
544.32	57605.26
544.48	57932.94
544.65	57420.36
544.82	57359.51
544.99	57532.71
545.16	57652.08
545.32	57682.50
545.49	57808.89
545.66	57925.92
545.83	57733.99
546.00	57970.39
546.16	57965.71
546.33	57888.47
546.50	57696.55
546.67	58103.80
546.83	57841.66
547.00	58042.95
547.17	58000.82
547.34	58092.10
547.50	58244.23
547.67	58375.30
547.84	58258.27
548.00	58279.34
548.17	58370.62
548.34	58368.28
548.51	58468.92
548.67	58302.74
548.84	58342.53
549.01	58424.45
549.18	58468.92
549.34	58403.39
549.51	58532.12
549.68	58527.44
549.84	58621.06
550.01	58644.46
550.18	58452.54
550.34	58581.27
550.51	58609.35
550.68	58897.24
550.84	58562.54
551.01	58798.94
551.18	58691.27
551.34	58733.40
551.51	58815.32
551.68	58939.37
551.84	58541.48
552.01	58529.78
552.18	58974.48
552.34	58506.37
552.51	59035.33
552.68	58702.98
552.84	59016.61
553.01	59189.81
553.18	58920.65
553.34	59063.42
553.51	58922.99
553.67	58946.39
553.84	58962.78
554.01	59243.64
554.17	59147.68
554.34	59220.23
554.51	59260.02
554.67	59318.54
554.84	59175.76
555.00	59044.69
555.17	59119.59
555.33	59215.55
555.50	59105.55
555.67	59171.08
555.83	59185.13
556.00	59281.09
556.16	59468.33
556.33	59533.87
556.50	59320.88
556.66	59707.07
556.83	59332.58
556.99	59840.48
557.16	59732.81
557.32	59859.20
557.49	60011.34
557.65	59494.08
557.82	59613.44
557.98	59550.25
558.15	59697.70
558.32	59667.28
558.48	59412.16
558.65	59615.79
558.81	59889.63
558.98	59732.81
559.14	59744.51
559.31	59812.39
559.47	59903.67
559.64	59847.50
559.80	59927.08
559.97	59971.55
560.13	59810.05
560.30	59817.07
560.46	60086.23
560.63	60067.51
560.79	59992.61
560.96	60048.78
561.12	59749.20
561.29	60023.04
561.45	60170.49
561.61	60069.85
561.78	60055.81
561.94	60123.68
562.11	59910.69
562.27	60111.98
562.44	60149.43
562.60	60264.11
562.77	60357.74
562.93	60009.00
563.10	60149.43
563.26	60168.15
563.42	60123.68
563.59	60121.34
563.75	60156.45
563.92	60374.12
564.08	60271.14
564.24	60231.35
564.41	60257.09
564.57	60207.94
564.74	60472.42
564.90	60292.20
565.07	60243.05
565.23	60355.39
565.39	60310.92
565.56	60446.68
565.72	60390.50
565.88	60474.76
566.05	60287.52
566.21	60189.22
566.38	60467.74
566.54	60566.04
566.70	60617.53
566.87	60680.73
567.03	60149.43
567.19	60615.19
567.36	60577.75
567.52	60367.10
567.68	60685.41
567.85	60477.10
568.01	60739.24
568.17	60446.68
568.34	60591.79
568.50	60425.61
568.66	60266.45
568.83	60690.09
568.99	60397.52
569.15	60582.43
569.32	60694.77
569.48	60528.59
569.64	60711.16
569.81	60573.06
569.97	60580.09
570.13	60580.09
570.30	60645.62
570.46	60638.60
570.62	60608.17
570.78	60566.04
570.95	60664.35
571.11	60664.35
571.27	60786.05
571.43	60725.20
571.60	61027.13
571.76	60610.51
571.92	60664.35
572.09	60853.93
572.25	60884.36
572.41	60802.44
572.57	60844.57
572.74	60945.21
572.90	60928.83
573.06	60898.40
573.22	60685.41
573.38	60783.71
573.55	60870.31
573.71	60975.64
573.87	60769.67
574.03	60678.39
574.20	60942.87
574.36	60821.16
574.52	60942.87
574.68	60968.61
574.84	61130.11
575.01	60867.97
575.17	60879.67
575.33	60863.29
575.49	60865.63
575.65	61043.51
575.82	60889.04
575.98	61066.92
576.14	61118.41
576.30	61174.58
576.46	61029.47
576.62	60952.23
576.79	60959.25
576.95	60781.37
577.11	60954.57
577.27	61247.14
577.43	60987.34
577.59	60996.70
577.75	60947.55
577.92	60954.57
578.08	60727.54
578.24	61013.08
578.40	61291.61
578.56	61003.72
578.72	60977.98
578.88	61160.54
579.04	61144.16
579.21	61057.56
579.37	61010.74
579.53	61392.25
579.69	60914.78
579.85	61059.90
580.01	61125.43
580.17	61078.62
580.33	61062.24
580.49	61141.81
580.65	61188.63
580.82	60807.12
580.98	60935.85
581.14	60938.19
581.30	61307.99
581.46	60996.70
581.62	61233.10
581.78	61209.69
581.94	61277.57
582.10	61013.08
582.26	61097.34
582.42	61148.84
582.58	61329.06
582.74	61069.26
582.90	61015.43
583.06	61331.40
583.22	60961.59
583.38	61387.57
583.54	61036.49
583.70	61160.54
583.86	61120.75
584.02	61027.13
584.18	61155.86
584.34	61202.67
584.50	61176.92
584.66	61104.37
584.82	61071.60
584.98	61319.70
585.14	61125.43
585.30	61083.30
585.46	61085.64
585.62	61401.61
585.78	61378.21
585.94	61144.16
586.10	61130.11
586.26	61296.29
586.42	61087.98
586.58	61357.14
586.74	61090.32
586.90	61251.82
587.06	61190.97
587.22	61378.21
587.38	61172.24
587.54	61401.61
587.70	61441.40
587.86	61403.95
588.02	61340.76
588.18	61420.34
588.34	61151.18
588.49	61186.28
