SpectraSuite Data File
++++++++++++++++++++++++++++++++++++
Date: Fri Oct 25 10:48:18 EDT 2013
User: price-jones
Dark Spectrum Present: No
Reference Spectrum Present: No
Number of Sampled Component Spectra: 1
Spectrometers: USB2+H05261
Integration Time (usec): 100000 (USB2+H05261)
Spectra Averaged: 1 (USB2+H05261)
Boxcar Smoothing: 0 (USB2+H05261)
Correct for Electrical Dark: No (USB2+H05261)
Strobe/Lamp Enabled: No (USB2+H05261)
Correct for Detector Non-linearity: No (USB2+H05261)
Correct for Stray Light: No (USB2+H05261)
Number of Pixels in Processed Spectrum: 2048
>>>>>Begin Processed Spectral Data<<<<<
365.73	205.97
365.92	205.97
366.12	205.97
366.32	63.19
366.52	21.06
366.72	102.98
366.91	23.41
367.11	121.71
367.31	0.00
367.51	21.06
367.70	72.56
367.90	9.36
368.10	32.77
368.30	77.24
368.49	72.56
368.69	79.58
368.89	35.11
369.09	14.04
369.28	42.13
369.48	84.26
369.68	37.45
369.87	119.37
370.07	126.39
370.27	133.41
370.47	203.63
370.66	369.80
370.86	397.89
371.06	512.58
371.25	528.96
371.45	440.02
371.65	498.53
371.84	514.92
372.04	468.11
372.24	491.51
372.44	533.64
372.63	472.79
372.83	571.09
373.03	557.05
373.22	550.03
373.42	543.00
373.62	599.18
373.81	636.63
374.01	610.88
374.21	547.69
374.40	559.39
374.60	664.71
374.79	624.92
374.99	657.69
375.19	608.54
375.38	634.29
375.58	620.24
375.78	697.48
375.97	568.75
376.17	587.47
376.37	615.56
376.56	690.46
376.76	592.16
376.95	610.88
377.15	608.54
377.35	704.50
377.54	697.48
377.74	653.01
377.93	678.76
378.13	690.46
378.33	671.73
378.52	688.12
378.72	711.52
378.91	746.63
379.11	662.37
379.31	702.16
379.50	657.69
379.70	748.97
379.89	720.88
380.09	746.63
380.28	744.29
380.48	809.83
380.68	744.29
380.87	702.16
381.07	732.59
381.26	784.08
381.46	620.24
381.65	681.10
381.85	692.80
382.04	812.17
382.24	763.01
382.43	657.69
382.63	755.99
382.83	695.14
383.02	786.42
383.22	737.27
383.41	802.80
383.61	826.21
383.80	812.17
384.00	856.64
384.19	699.82
384.39	805.14
384.58	828.55
384.78	870.68
384.97	866.00
385.17	908.13
385.36	844.93
385.56	863.66
385.75	856.64
385.95	901.11
386.14	877.70
386.34	777.06
386.53	823.87
386.72	851.96
386.92	896.43
387.11	873.02
387.31	882.38
387.50	856.64
387.70	908.13
387.89	945.58
388.09	940.90
388.28	910.47
388.48	938.55
388.67	983.02
388.86	1025.15
389.06	1013.45
389.25	961.96
389.45	980.68
389.64	1125.80
389.84	1006.43
390.03	1064.94
390.22	1090.69
390.42	1022.81
390.61	1027.50
390.81	1020.47
391.00	1025.15
391.19	1043.88
391.39	1116.44
391.58	1078.99
391.78	1071.97
391.97	1130.48
392.16	1139.84
392.36	1046.22
392.55	1008.77
392.75	1055.58
392.94	985.37
393.13	1036.86
393.33	1057.92
393.52	1160.91
393.71	1177.29
393.91	1287.29
394.10	1235.80
394.29	1191.33
394.49	1266.23
394.68	1240.48
394.88	1282.61
395.07	1322.40
395.26	1247.51
395.46	1406.66
395.65	1282.61
395.84	1359.85
396.04	1226.44
396.23	1263.89
396.42	1252.19
396.62	1177.29
396.81	1336.45
397.00	1261.55
397.19	1392.62
397.39	1430.07
397.58	1294.32
397.77	1434.75
397.97	1504.96
398.16	1563.48
398.35	1526.03
398.55	1448.79
398.74	1542.41
398.93	1619.65
399.12	1558.80
399.32	1563.48
399.51	1511.99
399.70	1549.43
399.90	1577.52
400.09	1621.99
400.28	1689.87
400.47	1722.63
400.67	1680.50
400.86	1720.29
401.05	1626.67
401.24	1748.38
401.44	1757.74
401.63	1884.13
401.82	1771.79
402.01	1736.68
402.21	1685.19
402.40	1900.52
402.59	1912.22
402.78	1830.30
402.97	1888.81
403.17	1877.11
403.36	1844.34
403.55	1886.47
403.74	1949.67
403.93	1856.04
404.13	1804.55
404.32	1837.32
404.51	1909.88
404.70	2036.27
404.89	1940.30
405.09	1954.35
405.28	1977.75
405.47	2019.88
405.66	1956.69
405.85	2069.03
406.05	2064.35
406.24	1982.43
406.43	2064.35
406.62	2111.16
406.81	2188.40
407.00	2052.65
407.20	2066.69
407.39	2148.61
407.58	2136.91
407.77	2207.13
407.96	2253.94
408.15	2305.43
408.34	2354.58
408.54	2326.49
408.73	2380.32
408.92	2377.98
409.11	2349.90
409.30	2228.19
409.49	2382.67
409.68	2277.34
409.87	2513.74
410.07	2335.85
410.26	2478.63
410.45	2457.56
410.64	2483.31
410.83	2478.63
411.02	2602.68
411.21	2715.02
411.40	2696.30
411.59	2813.32
411.78	2621.40
411.98	2623.74
412.17	2642.46
412.36	2731.41
412.55	2703.32
412.74	2710.34
412.93	2803.96
413.12	2722.04
413.31	2977.16
413.50	2846.09
413.69	2965.46
413.88	3023.97
414.07	3028.65
414.26	3007.59
414.45	3002.91
414.64	3000.57
414.83	3070.78
415.02	3075.46
415.22	3082.49
415.41	3269.73
415.60	3239.30
415.79	3248.66
415.98	3365.69
416.17	3302.50
416.36	3159.72
416.55	3260.37
416.74	3398.46
416.93	3384.41
417.12	3311.86
417.31	3316.54
417.50	3419.52
417.69	3475.70
417.88	3618.47
418.07	3571.66
418.26	3506.12
418.45	3569.32
418.64	3669.96
418.83	3772.94
419.02	3695.71
419.21	3721.45
419.39	3592.72
419.58	3520.17
419.77	3672.30
419.96	3761.24
420.15	3861.88
420.34	3786.99
420.53	3805.71
420.72	3770.60
420.91	3885.29
421.10	3892.31
421.29	4060.83
421.48	3936.78
421.67	3992.95
421.86	3896.99
422.05	3932.10
422.24	3712.09
422.43	3892.31
422.61	3955.51
422.80	4117.00
422.99	3990.61
423.18	4046.79
423.37	4100.62
423.56	4002.32
423.75	3920.40
423.94	3941.46
424.13	3850.18
424.32	3859.54
424.50	3983.59
424.69	4098.28
424.88	4046.79
425.07	4084.23
425.26	3896.99
425.45	3983.59
425.64	4044.45
425.83	4021.04
426.01	4079.55
426.20	4072.53
426.39	4152.11
426.58	4119.34
426.77	4007.00
426.96	4049.13
427.15	3920.40
427.33	4138.07
427.52	3971.89
427.71	4229.35
427.90	4184.88
428.09	4208.28
428.28	4306.59
428.46	4346.37
428.65	4245.73
428.84	4337.01
429.03	4358.08
429.22	4327.65
429.40	4322.97
429.59	4166.15
429.78	3964.87
429.97	4124.02
430.16	4117.00
430.34	4210.62
430.53	4210.62
430.72	4248.07
430.91	4299.56
431.10	4531.28
431.28	4681.07
431.47	4683.41
431.66	4844.91
431.85	4587.45
432.03	4795.76
432.22	4624.90
432.41	4706.82
432.60	4720.86
432.79	4793.42
432.97	4901.08
433.16	4870.65
433.35	4842.57
433.54	4875.34
433.72	4690.43
433.91	4828.53
434.10	4877.68
434.28	4910.44
434.47	4863.63
434.66	5020.45
434.85	5057.90
435.03	4957.25
435.22	5104.71
435.41	5305.99
435.59	5156.20
435.78	5135.14
435.97	5200.67
436.16	5231.10
436.34	5277.91
436.53	5163.22
436.72	5308.34
436.90	5167.90
437.09	5371.53
437.28	5247.48
437.46	5310.68
437.65	5256.84
437.84	5210.03
438.02	5322.38
438.21	5322.38
438.40	5205.35
438.58	5497.92
438.77	5600.90
438.96	5570.48
439.14	5717.93
439.33	5694.52
439.52	5874.74
439.70	5685.16
439.89	5795.17
440.08	5685.16
440.26	5774.10
440.45	5785.80
440.63	5860.70
440.82	6153.27
441.01	6061.99
441.19	6141.57
441.38	6090.07
441.57	6296.04
441.75	6396.68
441.94	6438.81
442.12	6487.96
442.31	6604.99
442.50	6574.56
442.68	6553.50
442.87	6373.28
443.05	6338.17
443.24	6513.71
443.43	6628.40
443.61	6796.92
443.80	6836.70
443.98	6429.45
444.17	6303.06
444.35	6726.70
444.54	6810.96
444.73	6768.83
444.91	6569.88
445.10	6370.94
445.28	6525.41
445.47	6719.68
445.65	6675.21
445.84	6595.63
446.02	6729.04
446.21	6670.53
446.39	6682.23
446.58	6998.20
446.77	6932.67
446.95	6722.02
447.14	6930.33
447.32	6918.62
447.51	6754.79
447.69	6780.53
447.88	6738.40
448.06	6822.66
448.25	6801.60
448.43	7087.14
448.62	6733.72
448.80	6857.77
448.99	6815.64
449.17	7115.23
449.36	6932.67
449.54	6953.73
449.73	7236.94
449.91	7225.23
450.10	7234.60
450.28	7370.35
450.46	7358.64
450.65	7269.70
450.83	7353.96
451.02	7300.13
451.20	7426.52
451.39	7508.44
451.57	7396.09
451.76	7232.26
451.94	7393.75
452.13	7417.16
452.31	7330.56
452.49	7241.62
452.68	7358.64
452.86	7349.28
453.05	7356.30
453.23	7461.63
453.42	7372.69
453.60	7241.62
453.78	7590.36
453.97	7641.85
454.15	7613.76
454.34	7489.71
454.52	7714.41
454.70	7632.49
454.89	7700.36
455.07	7770.58
455.26	7779.94
455.44	7812.71
455.62	7819.73
455.81	7882.92
455.99	7922.71
456.17	8004.63
456.36	7981.23
456.54	8091.23
456.73	8168.47
456.91	8259.75
457.09	8449.33
457.28	8351.03
457.46	8161.45
457.64	8500.83
457.83	8329.97
458.01	8009.31
458.19	8369.76
458.38	8329.97
458.56	8437.63
458.74	8491.46
458.93	8578.06
459.11	8329.97
459.29	8531.25
459.48	8582.74
459.66	8697.43
459.84	8592.11
460.03	8744.24
460.21	8620.19
460.39	8706.79
460.57	8732.54
460.76	8781.69
460.94	8791.05
461.12	8751.26
461.31	8746.58
461.49	8767.65
461.67	8915.10
461.85	8966.59
462.04	8840.20
462.22	9535.34
462.40	9102.34
462.59	9043.83
462.77	9022.77
462.95	9280.22
463.13	8990.00
463.32	8929.14
463.50	9217.03
463.68	9179.58
463.86	9069.58
464.05	9114.05
464.23	9090.64
464.41	9186.60
464.59	8980.64
464.78	9362.14
464.96	9294.27
465.14	9268.52
465.32	9434.70
465.50	9699.18
465.69	9437.04
465.87	9624.28
466.05	9350.44
466.23	9493.21
466.41	9446.40
466.60	9593.86
466.78	9404.27
466.96	9376.19
467.14	9523.64
467.32	9745.99
467.51	9830.25
467.69	9357.46
467.87	9568.11
468.05	9802.16
468.23	9586.83
468.41	9598.54
468.60	9820.89
468.78	9647.69
468.96	9703.86
469.14	9788.12
469.32	10015.15
469.50	9767.06
469.69	9947.28
469.87	9942.60
470.05	10139.20
470.23	10066.64
470.41	10036.22
470.59	10066.64
470.77	10101.75
470.95	10207.08
471.14	10209.42
471.32	10335.81
471.50	10366.23
471.68	10363.89
471.86	10464.54
472.04	10492.62
472.22	10579.22
472.40	10487.94
472.58	10441.13
472.77	10476.24
472.95	10689.23
473.13	10977.11
473.31	10656.46
473.49	10773.49
473.67	10771.15
473.85	10794.55
474.03	10991.16
474.21	11211.17
474.39	11208.83
474.57	11222.87
474.75	11218.19
474.93	11370.32
475.12	11274.36
475.30	11524.80
475.48	11651.19
475.66	11417.13
475.84	11438.20
476.02	11674.59
476.20	11508.41
476.38	11894.60
476.56	11810.34
476.74	12079.50
476.92	12025.67
477.10	12098.23
477.28	12362.71
477.46	12264.41
477.64	12449.31
477.82	12505.48
478.00	12798.05
478.18	12769.96
478.36	12985.29
478.54	12947.84
478.72	13128.06
478.90	13282.54
479.08	13245.09
479.26	13535.32
479.44	13448.72
479.62	13614.90
479.80	13694.47
479.98	13818.52
480.16	13834.91
480.34	13923.85
480.52	13806.82
480.70	13998.74
480.88	13973.00
481.06	14401.32
481.24	14160.24
481.41	14553.45
481.59	14534.73
481.77	14464.51
481.95	14728.99
482.13	15051.99
482.31	14717.29
482.49	14981.77
482.67	15126.88
482.85	15559.88
483.03	15594.99
483.21	15489.67
483.39	15702.65
483.57	15585.63
483.74	15857.13
483.92	15840.75
484.10	15819.68
484.28	16044.37
484.46	16442.26
484.64	16460.99
484.82	16414.18
485.00	16659.93
485.18	16678.66
485.35	16765.26
485.53	16500.78
485.71	16425.88
485.89	16994.63
486.07	16847.18
486.25	16840.15
486.43	17081.23
486.61	17483.80
486.78	17652.32
486.96	17607.85
487.14	18120.43
487.32	17930.84
487.50	18253.84
487.68	18733.65
487.85	18712.58
488.03	18785.14
488.21	18951.32
488.39	18965.36
488.57	18991.11
488.75	19187.71
488.92	19381.98
489.10	19721.35
489.28	19646.46
489.46	20194.14
489.64	20147.33
489.81	20655.23
489.99	20435.22
490.17	20702.04
490.35	20889.28
490.53	20582.67
490.70	20800.34
490.88	21144.40
491.06	21207.59
491.24	21076.52
491.41	21357.39
491.59	21275.47
491.77	21046.10
491.95	21774.00
492.13	21659.32
492.30	21874.65
492.48	22153.17
492.66	22593.19
492.84	22298.28
493.01	22352.12
493.19	22134.45
493.37	22572.13
493.54	22909.16
493.72	22576.81
493.90	22813.20
494.08	23473.23
494.25	23297.69
494.43	23819.63
494.61	23707.29
494.79	23550.47
494.96	23672.18
495.14	23927.30
495.32	24254.97
495.49	24159.01
495.67	24037.30
495.85	24177.73
496.02	24746.48
496.20	24790.95
496.38	24812.02
496.55	24861.17
496.73	25610.14
496.91	25502.48
497.09	25446.30
497.26	25642.91
497.44	25455.67
497.62	25736.53
497.79	25940.16
497.97	25556.31
498.14	25951.86
498.32	26066.55
498.50	26459.76
498.67	26387.20
498.85	26424.65
499.03	26728.92
499.20	26703.17
499.38	26698.49
499.56	27108.08
499.73	26962.97
499.91	27019.14
500.08	27033.19
500.26	26955.95
500.44	27126.81
500.61	26852.97
500.79	27314.05
500.97	27662.79
501.14	27477.89
501.32	27859.40
501.49	27388.95
501.67	28058.34
501.84	27995.15
502.02	28048.98
502.20	28470.28
502.37	28561.56
502.55	28364.95
502.72	28451.55
502.90	28844.76
503.07	28498.36
503.25	28428.15
503.43	28624.75
503.60	28903.28
503.78	28837.74
503.95	28879.87
504.13	28961.79
504.30	29020.30
504.48	28788.59
504.65	29202.86
504.83	29675.65
505.01	29773.95
505.18	29642.88
505.36	30270.15
505.53	29717.78
505.71	30433.99
505.88	30005.67
506.06	29851.19
506.23	30043.12
506.41	30010.35
506.58	30602.50
506.76	30513.56
506.93	30658.68
507.11	30759.32
507.28	30672.72
507.46	30611.87
507.63	30534.63
507.81	30717.19
507.98	30703.15
508.16	30768.68
508.33	30878.69
508.50	31314.03
508.68	31489.57
508.85	31552.76
509.03	31800.86
509.20	31613.62
509.38	31974.06
509.55	31941.29
509.73	31723.62
509.90	32027.89
510.08	32451.53
510.25	32329.82
510.42	32065.34
510.60	32456.21
510.77	32505.36
510.95	32636.43
511.12	32734.73
511.30	32718.35
511.47	33200.50
511.64	33055.39
511.82	33106.88
511.99	32762.82
512.17	32788.56
512.34	32713.67
512.51	32816.65
512.69	33656.90
512.86	33516.47
513.04	33369.02
513.21	33762.23
513.38	33181.77
513.56	33603.07
513.73	33523.49
513.90	33834.78
514.08	33745.84
514.25	33795.00
514.43	33804.36
514.60	33764.57
514.77	33853.51
514.95	34677.38
515.12	34146.08
515.29	34333.32
515.47	34855.26
515.64	34642.27
515.81	34307.57
515.99	34689.08
516.16	34651.63
516.33	34338.00
516.51	34410.56
516.68	34286.51
516.85	33940.11
517.03	34162.46
517.20	34366.09
517.37	34941.86
517.54	34923.13
517.72	34759.30
517.89	34508.86
518.06	34438.64
518.24	34771.00
518.41	35185.27
518.58	34607.16
518.75	35330.39
518.93	35728.28
519.10	35718.92
519.27	35718.92
519.45	35672.10
519.62	36311.07
519.79	36367.24
519.96	36055.95
520.14	36135.53
520.31	36102.76
520.48	36346.18
520.65	36133.19
520.83	36517.04
521.00	36458.52
521.17	36893.86
521.34	36715.98
521.52	36809.61
521.69	36849.39
521.86	37095.15
522.03	37212.18
522.20	36720.66
522.38	36673.85
522.55	37247.29
522.72	37076.43
522.89	36973.44
523.07	37479.00
523.24	37523.47
523.41	37691.99
523.58	37361.97
523.75	37748.16
523.92	37598.37
524.10	38176.48
524.27	37816.04
524.44	38265.42
524.61	37919.02
524.78	38064.13
524.96	38071.15
525.13	38487.77
525.30	38808.42
525.47	38719.48
525.64	38445.64
525.81	38174.14
525.98	38368.40
526.16	38218.61
526.33	37839.44
526.50	38520.54
526.67	38153.07
526.84	38036.05
527.01	37933.06
527.18	38499.47
527.36	39030.77
527.53	39019.07
527.70	39445.05
527.87	38759.27
528.04	39086.95
528.21	39239.08
528.38	39143.12
528.55	39817.19
528.72	39632.29
528.89	39990.39
529.07	39447.39
529.24	39271.85
529.41	39793.79
529.58	39323.34
529.75	39374.83
529.92	39917.84
530.09	39957.63
530.26	40027.84
530.43	40123.80
530.60	39903.79
530.77	39749.32
530.94	40388.28
531.11	40416.37
531.28	40072.31
531.46	40360.20
531.63	40371.90
531.80	40591.91
531.97	40318.07
532.14	40233.81
532.31	39964.65
532.48	40355.52
532.65	40500.63
532.82	40463.18
532.99	40624.68
533.16	40704.26
533.33	40081.67
533.50	40765.11
533.67	40631.70
533.84	40596.59
534.01	40636.38
534.18	41017.89
534.35	40926.61
534.52	41230.88
534.69	41352.58
534.86	41319.82
535.03	41315.14
535.20	41361.95
535.37	41427.48
535.54	41867.50
535.71	41167.68
535.88	41399.40
536.05	41434.50
536.22	41750.48
536.38	41303.43
536.55	41806.65
536.72	41830.05
536.89	41600.68
537.06	41530.47
537.23	41724.73
537.40	41167.68
537.57	41792.61
537.74	42010.28
537.91	42539.24
538.08	42253.69
538.25	41694.30
538.42	42197.52
538.59	42010.28
538.75	42003.25
538.92	42103.90
539.09	42337.95
539.26	42424.55
539.43	42241.99
539.60	42129.64
539.77	41804.31
539.94	42204.54
540.11	42059.43
540.28	42216.24
540.44	42635.20
540.61	42148.37
540.78	42408.17
540.95	42045.38
541.12	42277.10
541.29	42401.14
541.46	42564.98
541.62	42941.81
541.79	42590.73
541.96	42323.91
542.13	43084.58
542.30	42829.46
542.47	42754.57
542.63	43189.91
542.80	43133.73
542.97	43260.12
543.14	43370.13
543.31	43407.58
543.48	43342.04
543.64	43878.02
543.81	43775.04
543.98	43690.78
544.15	43477.79
544.32	43852.28
544.48	43538.65
544.65	43681.42
544.82	44179.95
544.99	43564.39
545.16	43782.06
545.32	43360.76
545.49	44217.40
545.66	44114.42
545.83	44292.30
546.00	43903.77
546.16	43943.56
546.33	44350.81
546.50	44165.91
546.67	43732.91
546.83	43718.87
547.00	44065.27
547.17	43997.39
547.34	43995.05
547.50	44390.60
547.67	44177.61
547.84	44287.62
548.00	44678.49
548.17	44559.12
548.34	44587.21
548.51	44800.19
548.67	44769.77
548.84	44926.58
549.01	44524.01
549.18	44905.52
549.34	44744.02
549.51	44566.14
549.68	44732.32
549.84	44769.77
550.01	45048.29
550.18	44737.00
550.34	44624.65
550.51	45059.99
550.68	44542.74
550.84	44928.92
551.01	44928.92
551.18	44456.14
551.34	44935.95
551.51	45071.70
551.68	45413.41
551.84	45352.56
552.01	45214.47
552.18	44825.94
552.34	45125.53
552.51	45588.95
552.68	45097.44
552.84	45617.04
553.01	45265.96
553.18	45230.85
553.34	45312.77
553.51	45443.84
553.67	45551.51
553.84	45619.38
554.01	45612.36
554.17	45713.00
554.34	45825.35
554.51	45464.91
554.67	45677.90
554.84	45139.57
555.00	45495.33
555.17	45626.40
555.33	45827.69
555.50	45406.39
555.67	45670.87
555.83	46127.28
556.00	45727.05
556.16	45862.80
556.33	45722.37
556.50	46138.98
556.66	45748.11
556.83	45701.30
556.99	45935.35
557.16	45556.19
557.32	45553.85
557.49	46047.70
557.65	45598.32
557.82	45766.84
557.98	45841.73
558.15	46178.77
558.32	46054.72
558.48	45649.81
558.65	45925.99
558.81	46202.18
558.98	45771.52
559.14	45537.46
559.31	45689.60
559.47	46272.39
559.64	46206.86
559.80	46726.46
559.97	46452.61
560.13	46150.68
560.30	45888.54
560.46	46548.57
560.63	46181.11
560.79	46473.68
560.96	46733.48
561.12	46429.21
561.29	46216.22
561.45	46190.47
561.61	46248.99
561.78	46319.20
561.94	45844.07
562.11	46061.74
562.27	46344.95
562.44	46307.50
562.60	46447.93
562.77	46918.38
562.93	46342.61
563.10	46887.95
563.26	46321.54
563.42	46677.30
563.59	46178.77
563.75	46043.02
563.92	47133.71
564.08	46447.93
564.24	47068.17
564.41	47021.36
564.57	46457.29
564.74	46447.93
564.90	46550.91
565.07	46632.83
565.23	46506.44
565.39	46213.88
565.56	46625.81
565.72	46841.14
565.88	46141.32
566.05	46679.64
566.21	46974.55
566.38	46637.51
566.54	46284.09
566.70	46923.06
566.87	46810.71
567.03	46506.44
567.19	46983.91
567.36	46742.84
567.52	46731.14
567.68	46843.48
567.85	46450.27
568.01	46415.16
568.17	46614.11
568.34	46768.58
568.50	47140.73
568.66	46726.46
568.83	47012.00
568.99	46295.80
569.15	46930.08
569.32	46490.06
569.48	46637.51
569.64	46787.31
569.81	46721.77
569.97	46478.36
570.13	46923.06
570.30	46525.17
570.46	46457.29
570.62	46478.36
570.78	46813.05
570.95	46733.48
571.11	46946.47
571.27	46958.17
571.43	46948.81
571.60	47056.47
571.76	46761.56
571.92	46630.49
572.09	46775.61
572.25	47203.92
572.41	46555.60
572.57	46777.95
572.74	47262.44
572.90	47002.64
573.06	46820.08
573.22	47065.83
573.38	46649.22
573.55	46731.14
573.71	47082.22
573.87	46934.76
574.03	46185.79
574.20	47091.58
574.36	46700.71
574.52	46944.12
574.68	47028.38
574.84	47217.97
575.01	46885.61
575.17	47124.35
575.33	46693.69
575.49	46597.73
575.65	47002.64
575.82	47468.40
575.98	46815.40
576.14	47009.66
576.30	47112.64
576.46	47234.35
576.62	47143.07
576.79	46553.26
576.95	46506.44
577.11	47023.70
577.27	47309.25
577.43	47068.17
577.59	46775.61
577.75	46667.94
577.92	46602.41
578.08	46323.88
578.24	46302.82
578.40	46937.10
578.56	47002.64
578.72	46799.01
578.88	47213.29
579.04	46845.82
579.21	46532.19
579.37	46925.40
579.53	46693.69
579.69	46909.02
579.85	46927.74
580.01	46918.38
580.17	46780.29
580.33	47360.74
580.49	47349.04
580.65	47409.89
580.82	47042.43
580.98	47082.22
581.14	46691.35
581.30	47250.74
581.46	47430.96
581.62	46953.49
581.78	46848.16
581.94	47278.82
582.10	46717.09
582.26	47290.52
582.42	47086.90
582.58	47234.35
582.74	47182.86
582.90	47180.52
583.06	47255.42
583.22	47377.12
583.38	47100.94
583.54	46958.17
583.70	46955.83
583.86	47171.16
584.02	46983.91
584.18	47185.20
584.34	46983.91
584.50	47019.02
584.66	47182.86
584.82	47271.80
584.98	47239.03
585.14	47173.50
585.30	47019.02
585.46	46892.63
585.62	47047.11
585.78	46827.10
585.94	47077.54
586.10	46703.05
586.26	46780.29
586.42	47311.59
586.58	47210.95
586.74	47594.79
586.90	46808.37
587.06	47063.49
587.22	47145.41
587.38	46845.82
587.54	47433.30
587.70	47271.80
587.86	47433.30
588.02	47232.01
588.18	47407.55
588.34	47358.40
588.49	46817.74
588.65	46614.11
588.81	46642.20
588.97	46766.24
589.13	46705.39
589.29	46700.71
589.45	47044.77
589.61	46714.75
589.77	47243.71
