SpectraSuite Data File
++++++++++++++++++++++++++++++++++++
Date: Fri Oct 25 11:26:42 EDT 2013
User: price-jones
Dark Spectrum Present: No
Reference Spectrum Present: No
Number of Sampled Component Spectra: 1
Spectrometers: USB2+H05261
Integration Time (usec): 100000 (USB2+H05261)
Spectra Averaged: 1 (USB2+H05261)
Boxcar Smoothing: 0 (USB2+H05261)
Correct for Electrical Dark: No (USB2+H05261)
Strobe/Lamp Enabled: No (USB2+H05261)
Correct for Detector Non-linearity: No (USB2+H05261)
Correct for Stray Light: No (USB2+H05261)
Number of Pixels in Processed Spectrum: 2048
>>>>>Begin Processed Spectral Data<<<<<
365.73	189.58
365.92	189.58
366.12	189.58
366.32	210.65
366.52	98.30
366.72	152.13
366.91	173.20
367.11	128.73
367.31	147.45
367.51	175.54
367.70	107.66
367.90	105.32
368.10	81.92
368.30	177.88
368.49	194.26
368.69	138.09
368.89	180.22
369.09	182.56
369.28	147.45
369.48	205.97
369.68	182.56
369.87	180.22
370.07	245.76
370.27	182.56
370.47	351.08
370.66	601.52
370.86	634.29
371.06	624.92
371.25	704.50
371.45	674.07
371.65	737.27
371.84	713.86
372.04	674.07
372.24	777.06
372.44	669.39
372.63	713.86
372.83	821.53
373.03	809.83
373.22	688.12
373.42	774.72
373.62	732.59
373.81	793.44
374.01	849.61
374.21	910.47
374.40	795.78
374.60	753.65
374.79	791.10
374.99	875.36
375.19	814.51
375.38	866.00
375.58	830.89
375.78	802.80
375.97	898.77
376.17	903.45
376.37	903.45
376.56	882.38
376.76	945.58
376.95	851.96
377.15	903.45
377.35	882.38
377.54	938.55
377.74	964.30
377.93	896.43
378.13	1013.45
378.33	985.37
378.52	968.98
378.72	929.19
378.91	957.28
379.11	940.90
379.31	938.55
379.50	919.83
379.70	999.41
379.89	980.68
380.09	954.94
380.28	940.90
380.48	992.39
380.68	1001.75
380.87	978.34
381.07	985.37
381.26	959.62
381.46	1029.84
381.65	980.68
381.85	1102.39
382.04	999.41
382.24	1027.50
382.43	1053.24
382.63	994.73
382.83	1111.75
383.02	1153.88
383.22	1100.05
383.41	1081.33
383.61	1078.99
383.80	1167.93
384.00	1090.69
384.19	1116.44
384.39	1100.05
384.58	1156.22
384.78	1214.74
384.97	1160.91
385.17	1191.33
385.36	1142.18
385.56	1109.41
385.75	1165.59
385.95	1193.67
386.14	1233.46
386.34	1226.44
386.53	1226.44
386.72	1261.55
386.92	1277.93
387.11	1289.64
387.31	1219.42
387.50	1245.16
387.70	1245.16
387.89	1308.36
388.09	1308.36
388.28	1247.51
388.48	1301.34
388.67	1401.98
388.86	1259.21
389.06	1327.08
389.25	1409.00
389.45	1406.66
389.64	1322.40
389.84	1371.55
390.03	1511.99
390.22	1439.43
390.42	1359.85
390.61	1448.79
390.81	1448.79
391.00	1411.34
391.19	1446.45
391.39	1416.02
391.58	1462.83
391.78	1558.80
391.97	1551.78
392.16	1582.20
392.36	1621.99
392.55	1547.09
392.75	1549.43
392.94	1504.96
393.13	1514.33
393.33	1586.88
393.52	1640.72
393.71	1593.90
393.91	1647.74
394.10	1621.99
394.29	1612.63
394.49	1696.89
394.68	1607.95
394.88	1673.48
395.07	1715.61
395.26	1741.36
395.46	1621.99
395.65	1694.55
395.84	1746.04
396.04	1860.73
396.23	1802.21
396.42	1818.60
396.62	1853.70
396.81	1834.98
397.00	1802.21
397.19	1816.26
397.39	1839.66
397.58	1954.35
397.77	1809.23
397.97	1893.49
398.16	1975.41
398.35	1956.69
398.55	1895.83
398.74	1923.92
398.93	2033.93
399.12	2008.18
399.32	1888.81
399.51	1902.86
399.70	2043.29
399.90	2031.58
400.09	2031.58
400.28	2050.31
400.47	2064.35
400.67	2078.40
400.86	2090.10
401.05	2120.53
401.24	2108.82
401.44	2139.25
401.63	2183.72
401.82	2141.59
402.01	2132.23
402.21	2275.00
402.40	2083.08
402.59	2094.78
402.78	2214.15
402.97	2312.45
403.17	2293.72
403.36	2237.55
403.55	2267.98
403.74	2462.24
403.93	2291.38
404.13	2359.26
404.32	2399.05
404.51	2352.24
404.70	2551.18
404.89	2359.26
405.09	2476.29
405.28	2534.80
405.47	2509.05
405.66	2595.65
405.85	2537.14
406.05	2509.05
406.24	2696.30
406.43	2600.34
406.62	2661.19
406.81	2787.58
407.00	2628.42
407.20	2700.98
407.39	2686.94
407.58	2782.90
407.77	2752.47
407.96	2726.72
408.15	2729.06
408.34	2642.46
408.54	2792.26
408.73	2825.03
408.92	2747.79
409.11	2939.71
409.30	2951.42
409.49	2848.43
409.68	2892.90
409.87	2972.48
410.07	3070.78
410.26	3059.08
410.45	3040.36
410.64	3141.00
410.83	3157.38
411.02	3115.25
411.21	3190.15
411.40	3190.15
411.59	3246.32
411.78	3192.49
411.98	3185.47
412.17	3361.01
412.36	3391.44
412.55	3314.20
412.74	3433.57
412.93	3440.59
413.12	3363.35
413.31	3599.74
413.50	3630.17
413.69	3524.85
413.88	3595.06
414.07	3494.42
414.26	3667.62
414.45	3733.15
414.64	3728.47
414.83	3756.56
415.02	3784.65
415.22	3775.28
415.41	3906.35
415.60	3857.20
415.79	4009.34
415.98	4121.68
416.17	4035.08
416.36	3894.65
416.55	4107.64
416.74	4053.81
416.93	4149.77
417.12	4100.62
417.31	4074.87
417.50	4138.07
417.69	4355.74
417.88	4243.39
418.07	4334.67
418.26	4287.86
418.45	4393.19
418.64	4552.34
418.83	4395.53
419.02	4554.68
419.21	4533.62
419.39	4683.41
419.58	4472.76
419.77	4322.97
419.96	4519.57
420.15	4702.14
420.34	4587.45
420.53	4578.09
420.72	4765.33
420.91	4758.31
421.10	4973.64
421.29	4896.40
421.48	4823.84
421.67	4755.97
421.86	4865.97
422.05	4901.08
422.24	4858.95
422.43	5090.67
422.61	4905.76
422.80	4990.02
422.99	5027.47
423.18	5114.07
423.37	5071.94
423.56	5076.62
423.75	4959.60
423.94	4894.06
424.13	4542.98
424.32	4875.34
424.50	4959.60
424.69	5273.23
424.88	5167.90
425.07	5022.79
425.26	4968.96
425.45	5156.20
425.64	4975.98
425.83	5015.77
426.01	5179.61
426.20	5139.82
426.39	5032.15
426.58	5235.78
426.77	5060.24
426.96	5308.34
427.15	5067.26
427.33	5310.68
427.52	5247.48
427.71	5195.99
427.90	5261.52
428.09	5329.40
428.28	5446.43
428.46	5392.59
428.65	5514.30
428.84	5586.86
429.03	5816.23
429.22	5397.28
429.40	5516.64
429.59	5504.94
429.78	5535.37
429.97	5380.89
430.16	5460.47
430.34	5582.18
430.53	5804.53
430.72	5799.85
430.91	5802.19
431.10	5657.07
431.28	5741.33
431.47	5987.09
431.66	5933.26
431.85	5820.91
432.03	5916.87
432.22	6094.76
432.41	5881.77
432.60	5947.30
432.79	6033.90
432.97	6008.16
433.16	6043.26
433.35	6038.58
433.54	6181.35
433.72	6064.33
433.91	6108.80
434.10	6115.82
434.28	6260.93
434.47	6258.59
434.66	6120.50
434.85	6286.68
435.03	6417.75
435.22	6382.64
435.41	6651.80
435.59	6502.01
435.78	6525.41
435.97	6595.63
436.16	6715.00
436.34	6487.96
436.53	6558.18
436.72	6782.87
436.90	6572.22
437.09	6668.19
437.28	6560.52
437.46	6796.92
437.65	6656.48
437.84	6700.95
438.02	6956.07
438.21	6883.52
438.40	6892.88
438.58	7145.66
438.77	7082.46
438.96	6967.77
439.14	6995.86
439.33	7286.09
439.52	7424.18
439.70	7421.84
439.89	7328.22
440.08	7398.43
440.26	7475.67
440.45	7442.90
440.63	7676.96
440.82	7801.01
441.01	7595.04
441.19	7768.24
441.38	7644.19
441.57	7662.91
441.75	7747.17
441.94	8056.12
442.12	8016.33
442.31	8128.68
442.50	8060.80
442.68	8070.17
442.87	8154.43
443.05	8032.72
443.24	8159.11
443.43	8182.51
443.61	8262.09
443.80	8444.65
443.98	8102.93
444.17	7915.69
444.35	8245.71
444.54	8545.30
444.73	8463.38
444.91	8285.50
445.10	8329.97
445.28	8435.29
445.47	8475.08
445.65	8390.82
445.84	8465.72
446.02	8575.72
446.21	8458.70
446.39	8430.61
446.58	8652.96
446.77	8451.67
446.95	8425.93
447.14	8589.77
447.32	8652.96
447.51	8308.90
447.69	8631.90
447.88	8587.43
448.06	8645.94
448.25	8634.24
448.43	8692.75
448.62	8746.58
448.80	8552.32
448.99	8802.75
449.17	8851.91
449.36	8784.03
449.54	8931.48
449.73	9078.94
449.91	9102.34
450.10	9025.11
450.28	9217.03
450.46	9380.87
450.65	9064.89
450.83	9205.33
451.02	9263.84
451.20	9270.86
451.39	9364.48
451.57	9259.16
451.76	9092.98
451.94	9198.31
452.13	9380.87
452.31	9474.49
452.49	9100.00
452.68	9329.38
452.86	9287.25
453.05	9586.83
453.23	9514.28
453.42	9329.38
453.60	9404.27
453.78	9617.26
453.97	9472.15
454.15	9411.29
454.34	9530.66
454.52	9579.81
454.70	9544.70
454.89	9879.40
455.07	10120.48
455.26	9654.71
455.44	10068.98
455.62	9968.34
455.81	10057.28
455.99	10202.40
456.17	9963.66
456.36	10197.71
456.54	10333.47
456.73	10396.66
456.91	10597.95
457.09	10506.66
457.28	10560.50
457.46	10581.56
457.64	10377.94
457.83	10527.73
458.01	10356.87
458.19	10857.75
458.38	10640.08
458.56	10696.25
458.74	10785.19
458.93	10710.29
459.11	10808.59
459.29	10984.13
459.48	11136.27
459.66	10895.19
459.84	11012.22
460.03	11108.18
460.21	11091.80
460.39	11176.06
460.57	10967.75
460.76	11133.93
460.94	11534.16
461.12	11257.98
461.31	11389.05
461.49	11152.65
461.67	11353.94
461.85	11665.23
462.04	11414.79
462.22	11583.31
462.40	11800.98
462.59	11461.60
462.77	11524.80
462.95	11646.51
463.13	11651.19
463.32	11660.55
463.50	11899.28
463.68	11831.41
463.86	11812.68
464.05	11742.47
464.23	11985.88
464.41	11838.43
464.59	11702.68
464.78	12283.13
464.96	12287.81
465.14	11934.39
465.32	12133.34
465.50	12262.07
465.69	12067.80
465.87	12280.79
466.05	12250.36
466.23	12203.55
466.41	12264.41
466.60	12465.69
466.78	12423.56
466.96	12336.96
467.14	12336.96
467.32	12409.52
467.51	12716.13
467.69	12278.45
467.87	12540.59
468.05	12702.09
468.23	12582.72
468.41	12823.80
468.60	12549.95
468.78	12987.63
468.96	12573.36
469.14	12889.33
469.32	13212.32
469.50	12886.99
469.69	13071.89
469.87	12917.42
470.05	13191.26
470.23	13270.84
470.41	13378.50
470.59	13387.86
470.77	13130.41
470.95	13308.29
471.14	13881.72
471.32	13156.15
471.50	13589.15
471.68	13738.94
471.86	13851.29
472.04	14022.15
472.22	14012.79
472.40	13977.68
472.58	14052.58
472.77	14459.83
472.95	14445.79
473.13	14705.59
473.31	14342.80
473.49	14317.06
473.67	14200.03
473.85	14506.64
474.03	14796.87
474.21	14909.21
474.39	14988.79
474.57	14949.00
474.75	15012.20
474.93	15218.16
475.12	15136.24
475.30	15356.25
475.48	14981.77
475.66	15321.15
475.84	15126.88
476.02	15550.52
476.20	15440.51
476.38	15789.25
476.56	16273.74
476.74	16308.85
476.92	15957.77
477.10	15590.31
477.28	16114.59
477.46	16425.88
477.64	16594.40
477.82	16788.66
478.00	17188.89
478.18	16938.46
478.36	17146.76
478.54	17261.45
478.72	17263.79
478.90	17783.39
479.08	17703.81
479.26	17869.99
479.44	17757.64
479.62	18010.42
479.80	18143.83
479.98	18190.64
480.16	18761.73
480.34	18251.50
480.52	18778.12
480.70	18829.61
480.88	18616.62
481.06	18988.77
481.24	19007.49
481.41	19051.96
481.59	19522.41
481.77	19543.47
481.95	19850.08
482.13	19920.30
482.31	19690.93
482.49	20388.41
482.67	20531.18
482.85	20613.10
483.03	20854.17
483.21	20800.34
483.39	21032.05
483.57	21090.57
483.74	21406.54
483.92	21869.97
484.10	21331.64
484.28	22003.38
484.46	21902.73
484.64	22546.38
484.82	21799.75
485.00	22370.84
485.18	22892.78
485.35	23065.98
485.53	23438.12
485.71	23185.35
485.89	23634.73
486.07	23398.34
486.25	23363.23
486.43	23843.04
486.61	24081.77
486.78	24472.64
486.96	24458.60
487.14	24629.46
487.32	25067.14
487.50	25102.25
487.68	25156.08
487.85	25383.11
488.03	25607.80
488.21	26148.46
488.39	25783.34
488.57	26361.45
488.75	26450.39
488.92	26852.97
489.10	27042.55
489.28	26934.88
489.46	27234.47
489.64	27175.96
489.81	27644.07
489.99	27990.47
490.17	27718.96
490.35	28498.36
490.53	28704.33
490.70	28606.03
490.88	28659.86
491.06	29184.14
491.24	29188.82
491.41	29378.40
491.59	29530.54
491.77	29462.66
491.95	30022.05
492.13	29991.62
492.30	30181.21
492.48	30534.63
492.66	30616.55
492.84	30417.60
493.01	30661.02
493.19	30646.97
493.37	31248.49
493.54	31550.42
493.72	31571.49
493.90	31913.20
494.08	31936.61
494.25	32273.65
494.43	32264.28
494.61	32638.77
494.79	33207.52
494.96	32580.26
495.14	33067.09
495.32	33455.62
495.49	33722.44
495.67	33376.04
495.85	33809.04
496.02	34167.14
496.20	34225.65
496.38	34621.20
496.55	34314.59
496.73	34983.99
496.91	34789.72
497.09	34991.01
497.26	34951.22
497.44	35419.33
497.62	35824.24
497.79	36058.29
497.97	35906.16
498.14	36074.68
498.32	36275.96
498.50	36327.45
498.67	36706.62
498.85	36807.26
499.03	36671.51
499.20	36999.19
499.38	36882.16
499.56	36992.17
499.73	37511.77
499.91	37757.52
500.08	38153.07
500.26	37610.07
500.44	38033.71
500.61	38146.05
500.79	37919.02
500.97	38595.43
501.14	38756.93
501.32	38932.47
501.49	39110.35
501.67	39000.35
501.84	38813.10
502.02	39370.15
502.20	39412.28
502.37	39367.81
502.55	39246.10
502.72	39522.29
502.90	40226.79
503.07	40009.12
503.25	39749.32
503.43	39665.06
503.60	40776.81
503.78	40250.19
503.95	40212.74
504.13	41146.62
504.30	40800.22
504.48	41055.34
504.65	41104.49
504.83	41378.33
505.01	41436.84
505.18	41504.72
505.36	41970.49
505.53	41567.91
505.71	41869.84
505.88	41771.54
506.06	41846.44
506.23	42120.28
506.41	42377.74
506.58	42742.86
506.76	42377.74
506.93	43250.76
507.11	42703.07
507.28	42431.57
507.46	42855.21
507.63	43213.31
507.81	43702.48
507.98	43145.44
508.16	43276.51
508.33	43826.53
508.50	44112.08
508.68	44126.12
508.85	44261.87
509.03	44250.17
509.20	44149.53
509.38	44446.77
509.55	44676.15
509.73	44825.94
509.90	44891.48
510.08	44856.37
510.25	44999.14
510.42	45120.85
510.60	45443.84
510.77	45572.57
510.95	45567.89
511.12	45092.76
511.30	45509.38
511.47	45759.81
511.64	45748.11
511.82	46117.92
511.99	45958.76
512.17	46220.90
512.34	46155.36
512.51	46504.10
512.69	46848.16
512.86	46361.33
513.04	47309.25
513.21	46988.60
513.38	47213.29
513.56	46827.10
513.73	46955.83
513.90	47327.97
514.08	46780.29
514.25	47512.88
514.43	47810.12
514.60	47646.29
514.77	47461.38
514.95	48098.01
515.12	48002.05
515.29	47746.93
515.47	48470.15
515.64	48636.33
515.81	48397.60
515.99	48303.98
516.16	48374.19
516.33	48531.01
516.51	49045.93
516.68	48659.74
516.85	48926.56
517.03	49167.63
517.20	49179.34
517.37	49226.15
517.54	49214.44
517.72	49357.22
517.89	49338.49
518.06	49581.91
518.24	49790.22
518.41	49556.16
518.58	49406.37
518.75	49497.65
518.93	50185.77
519.10	49935.33
519.27	49909.58
519.45	49900.22
519.62	50244.28
519.79	50255.98
519.96	50314.50
520.14	50314.50
520.31	50646.85
520.48	50611.74
520.65	50405.78
520.83	50806.01
521.00	50908.99
521.17	50864.52
521.34	50770.90
521.52	51075.17
521.69	50698.34
521.86	51400.50
522.03	51229.65
522.20	51627.54
522.38	51777.33
522.55	51681.37
522.72	51313.90
522.89	51950.53
523.07	51915.42
523.24	51774.99
523.41	51990.32
523.58	51929.47
523.75	52147.14
523.92	52147.14
524.10	52339.06
524.27	52322.68
524.44	52285.23
524.61	52247.78
524.78	52423.32
524.96	52442.04
525.13	52645.67
525.30	52823.55
525.47	52498.22
525.64	52793.12
525.81	52509.92
525.98	52846.96
526.16	52736.95
526.33	52896.11
526.50	53310.38
526.67	53113.78
526.84	53179.31
527.01	52992.07
527.18	53235.48
527.36	53340.81
527.53	53233.14
527.70	53609.97
527.87	53663.80
528.04	53399.32
528.21	53593.59
528.38	53872.11
528.55	53574.86
528.72	53605.29
528.89	53563.16
529.07	53572.52
529.24	53546.78
529.41	53914.24
529.58	54026.59
529.75	53944.67
529.92	53869.77
530.09	54190.42
530.26	54078.08
530.43	54234.89
530.60	54068.72
530.77	54092.12
530.94	54120.21
531.11	54047.65
531.28	54349.58
531.46	54251.28
531.63	54560.23
531.80	54667.89
531.97	54415.11
532.14	54550.87
532.31	54728.75
532.48	54546.18
532.65	55018.97
532.82	54836.41
532.99	55007.27
533.16	54705.34
533.33	54890.24
533.50	55105.57
533.67	55047.06
533.84	54803.64
534.01	55042.38
534.18	54974.50
534.35	55573.68
534.52	55311.54
534.69	55517.51
534.86	55454.31
535.03	55119.62
535.20	55395.80
535.37	55517.51
535.54	55311.54
535.71	55451.97
535.88	55770.28
536.05	55618.15
536.22	55786.67
536.38	56004.34
536.55	56186.90
536.72	55807.73
536.89	55716.45
537.06	55903.70
537.23	55929.44
537.40	55716.45
537.57	55927.10
537.74	55987.95
537.91	56212.65
538.08	56198.60
538.25	55985.61
538.42	56119.02
538.59	56413.93
538.75	55950.51
538.92	56317.97
539.09	56320.31
539.26	56074.55
539.43	56498.19
539.60	56465.42
539.77	56378.82
539.94	56708.84
540.11	56647.99
540.28	56584.79
540.44	56537.98
540.61	56554.36
540.78	56647.99
540.95	56636.28
541.12	56610.54
541.29	56633.94
541.46	56711.18
541.62	56774.37
541.79	56870.34
541.96	56701.82
542.13	56821.19
542.30	57066.94
542.47	57165.24
542.63	56975.66
542.80	57052.90
542.97	57448.45
543.14	57530.37
543.31	57483.56
543.48	57544.41
543.64	57509.30
543.81	57631.01
543.98	57371.21
544.15	57574.84
544.32	57556.11
544.48	57684.84
544.65	57441.43
544.82	57776.12
544.99	57364.19
545.16	57778.46
545.32	57628.67
545.49	57729.31
545.66	57991.45
545.83	57808.89
546.00	57799.53
546.16	57909.53
546.33	57705.91
546.50	57708.25
546.67	57879.11
546.83	57605.26
547.00	57804.21
547.17	57832.30
547.34	57944.64
547.50	58110.82
547.67	58396.37
547.84	58195.08
548.00	58279.34
548.17	58459.56
548.34	58377.64
548.51	58241.89
548.67	58302.74
548.84	58272.32
549.01	58344.87
549.18	58461.90
549.34	58553.18
549.51	58564.88
549.68	58532.12
549.84	58567.23
550.01	58534.46
550.18	58597.65
550.34	58426.79
550.51	58684.25
550.68	58677.23
550.84	58344.87
551.01	58880.86
551.18	58536.80
551.34	58504.03
551.51	58735.74
551.68	58876.18
551.84	58773.19
552.01	58459.56
552.18	58894.90
552.34	58763.83
552.51	58913.62
552.68	58721.70
552.84	58892.56
553.01	59138.32
553.18	58953.41
553.34	59119.59
553.51	58831.71
553.67	59021.29
553.84	59084.48
554.01	59260.02
554.17	59100.87
554.34	59185.13
554.51	59187.47
554.67	59363.01
554.84	59070.44
555.00	59309.18
555.17	59054.06
555.33	59423.86
555.50	58911.28
555.67	59054.06
555.83	59175.76
556.00	59309.18
556.16	59571.32
556.33	59545.57
556.50	59374.71
556.66	59559.61
556.83	59288.11
556.99	59458.97
557.16	59407.48
557.32	59721.11
557.49	59845.16
557.65	59468.33
557.82	59662.60
557.98	59391.09
558.15	59597.06
558.32	59716.43
558.48	59625.15
558.65	59770.26
558.81	59646.21
558.98	59714.09
559.14	59517.48
559.31	59971.55
559.47	59910.69
559.64	59994.95
559.80	59819.41
559.97	60020.70
560.13	59798.35
560.30	59906.01
560.46	60032.40
560.63	59971.55
560.79	59819.41
560.96	60065.17
561.12	59948.14
561.29	59889.63
561.45	59924.74
561.61	60018.36
561.78	59894.31
561.94	59796.01
562.11	60009.00
562.27	60044.10
562.44	60111.98
562.60	60186.88
562.77	60086.23
562.93	60065.17
563.10	60140.07
563.26	60149.43
563.42	60406.89
563.59	60088.57
563.75	60025.38
563.92	60273.48
564.08	60128.36
564.24	60519.23
564.41	60266.45
564.57	60425.61
564.74	60404.55
564.90	60453.70
565.07	60453.70
565.23	60350.71
565.39	60133.04
565.56	60313.26
565.72	60111.98
565.88	60451.36
566.05	60048.78
566.21	60156.45
566.38	60465.40
566.54	60388.16
566.70	60573.06
566.87	60547.32
567.03	60395.18
567.19	60589.45
567.36	60540.30
567.52	60446.68
567.68	60755.63
567.85	60676.05
568.01	60481.78
568.17	60406.89
568.34	60725.20
568.50	60547.32
568.66	60498.17
568.83	60673.71
568.99	60512.21
569.15	60741.58
569.32	60699.45
569.48	60589.45
569.64	60615.19
569.81	60615.19
569.97	60631.58
570.13	60631.58
570.30	60608.17
570.46	60533.28
570.62	60622.22
570.78	60732.22
570.95	60587.11
571.11	60741.58
571.27	60640.94
571.43	60732.22
571.60	60811.80
571.76	60867.97
571.92	60676.05
572.09	60849.25
572.25	60767.33
572.41	60626.90
572.57	60605.83
572.74	60903.08
572.90	60645.62
573.06	60704.13
573.22	60837.54
573.38	60807.12
573.55	60732.22
573.71	61127.77
573.87	61052.87
574.03	60748.60
574.20	60973.30
574.36	60816.48
574.52	60781.37
574.68	60718.18
574.84	60891.38
575.01	60734.56
575.17	60940.53
575.33	60807.12
575.49	60718.18
575.65	60718.18
575.82	60980.32
575.98	60921.80
576.14	61048.19
576.30	60919.46
576.46	61017.77
576.62	60926.49
576.79	60877.33
576.95	60683.07
577.11	60963.93
577.27	60762.65
577.43	61104.37
577.59	61092.66
577.75	61052.87
577.92	60816.48
578.08	60982.66
578.24	61118.41
578.40	61254.16
578.56	61137.13
578.72	60942.87
578.88	61050.53
579.04	61176.92
579.21	60989.68
579.37	60994.36
579.53	61174.58
579.69	60952.23
579.85	60790.73
580.01	60968.61
580.17	60903.08
580.33	61041.17
580.49	61078.62
580.65	61052.87
580.82	61055.21
580.98	60891.38
581.14	61013.08
581.30	61258.84
581.46	61031.81
581.62	61099.68
581.78	61027.13
581.94	61205.01
582.10	61029.47
582.26	60973.30
582.42	61130.11
582.58	61036.49
582.74	60961.59
582.90	61104.37
583.06	61186.28
583.22	60999.04
583.38	61045.85
583.54	60992.02
583.70	61193.31
583.86	61237.78
584.02	61017.77
584.18	61109.05
584.34	61223.73
584.50	61134.79
584.66	61120.75
584.82	61141.81
584.98	61305.65
585.14	61275.22
585.30	61029.47
585.46	61212.03
585.62	61258.84
585.78	61380.55
585.94	60987.34
586.10	61336.08
586.26	61160.54
586.42	61244.80
586.58	61441.40
586.74	61258.84
586.90	61134.79
587.06	60996.70
587.22	61420.34
587.38	61144.16
587.54	61307.99
587.70	61247.14
587.86	61221.39
588.02	61202.67
588.18	61221.39
588.34	61289.27
588.49	61066.92
