SpectraSuite Data File
++++++++++++++++++++++++++++++++++++
Date: Fri Oct 25 11:23:07 EDT 2013
User: price-jones
Dark Spectrum Present: No
Reference Spectrum Present: No
Number of Sampled Component Spectra: 1
Spectrometers: USB2+H05261
Integration Time (usec): 100000 (USB2+H05261)
Spectra Averaged: 1 (USB2+H05261)
Boxcar Smoothing: 0 (USB2+H05261)
Correct for Electrical Dark: No (USB2+H05261)
Strobe/Lamp Enabled: No (USB2+H05261)
Correct for Detector Non-linearity: No (USB2+H05261)
Correct for Stray Light: No (USB2+H05261)
Number of Pixels in Processed Spectrum: 2048
>>>>>Begin Processed Spectral Data<<<<<
365.73	266.82
365.92	266.82
366.12	266.82
366.32	114.69
366.52	88.94
366.72	110.01
366.91	93.62
367.11	142.77
367.31	102.98
367.51	95.96
367.70	138.09
367.90	86.60
368.10	119.37
368.30	131.07
368.49	124.05
368.69	224.69
368.89	110.01
369.09	191.92
369.28	170.86
369.48	168.52
369.68	227.03
369.87	194.26
370.07	238.73
370.27	220.01
370.47	304.27
370.66	589.82
370.86	695.14
371.06	671.73
371.25	697.48
371.45	634.29
371.65	648.33
371.84	643.65
372.04	645.99
372.24	730.25
372.44	777.06
372.63	758.33
372.83	720.88
373.03	653.01
373.22	748.97
373.42	725.57
373.62	758.33
373.81	770.04
374.01	830.89
374.21	861.32
374.40	734.93
374.60	809.83
374.79	807.48
374.99	772.38
375.19	837.91
375.38	861.32
375.58	793.44
375.78	802.80
375.97	805.14
376.17	894.08
376.37	880.04
376.56	912.81
376.76	868.34
376.95	880.04
377.15	873.02
377.35	957.28
377.54	861.32
377.74	910.47
377.93	910.47
378.13	959.62
378.33	959.62
378.52	950.26
378.72	992.39
378.91	1022.81
379.11	950.26
379.31	915.15
379.50	891.74
379.70	1008.77
379.89	959.62
380.09	959.62
380.28	933.87
380.48	957.28
380.68	1025.15
380.87	891.74
381.07	954.94
381.26	1109.41
381.46	1090.69
381.65	1004.09
381.85	1011.11
382.04	1071.97
382.24	1100.05
382.43	1008.77
382.63	1060.26
382.83	1086.01
383.02	1125.80
383.22	1111.75
383.41	1083.67
383.61	1064.94
383.80	1170.27
384.00	1146.86
384.19	1196.01
384.39	1156.22
384.58	1132.82
384.78	1172.61
384.97	1181.97
385.17	1149.20
385.36	1249.85
385.56	1170.27
385.75	1186.65
385.95	1188.99
386.14	1268.57
386.34	1132.82
386.53	1235.80
386.72	1228.78
386.92	1242.82
387.11	1240.48
387.31	1299.00
387.50	1289.64
387.70	1273.25
387.89	1224.10
388.09	1313.04
388.28	1327.08
388.48	1331.76
388.67	1289.64
388.86	1320.06
389.06	1341.13
389.25	1352.83
389.45	1383.26
389.64	1390.28
389.84	1338.79
390.03	1331.76
390.22	1359.85
390.42	1378.58
390.61	1406.66
390.81	1357.51
391.00	1371.55
391.19	1343.47
391.39	1462.83
391.58	1441.77
391.78	1568.16
391.97	1540.07
392.16	1474.54
392.36	1530.71
392.55	1528.37
392.75	1392.62
392.94	1540.07
393.13	1563.48
393.33	1490.92
393.52	1540.07
393.71	1577.52
393.91	1591.56
394.10	1537.73
394.29	1586.88
394.49	1675.82
394.68	1607.95
394.88	1596.25
395.07	1614.97
395.26	1736.68
395.46	1701.57
395.65	1699.23
395.84	1621.99
396.04	1750.72
396.23	1746.04
396.42	1692.21
396.62	1710.93
396.81	1790.51
397.00	1816.26
397.19	1764.76
397.39	1811.57
397.58	1769.44
397.77	1797.53
397.97	1877.11
398.16	1872.43
398.35	1937.96
398.55	1858.39
398.74	1963.71
398.93	1923.92
399.12	1926.26
399.32	1940.30
399.51	1912.22
399.70	2057.33
399.90	2005.84
400.09	2134.57
400.28	2090.10
400.47	2043.29
400.67	2143.93
400.86	2069.03
401.05	2155.63
401.24	1937.96
401.44	2150.95
401.63	2207.13
401.82	2162.66
402.01	2101.80
402.21	2176.70
402.40	2176.70
402.59	2237.55
402.78	2146.27
402.97	2122.87
403.17	2312.45
403.36	2370.96
403.55	2286.70
403.74	2359.26
403.93	2279.68
404.13	2392.03
404.32	2366.28
404.51	2410.75
404.70	2499.69
404.89	2347.56
405.09	2424.80
405.28	2567.57
405.47	2473.95
405.66	2607.36
405.85	2520.76
406.05	2607.36
406.24	2558.21
406.43	2682.25
406.62	2733.75
406.81	2637.78
407.00	2600.34
407.20	2616.72
407.39	2658.85
407.58	2708.00
407.77	2649.49
407.96	2719.70
408.15	2820.35
408.34	2775.88
408.54	2841.41
408.73	2853.11
408.92	2949.08
409.11	2918.65
409.30	2832.05
409.49	2808.64
409.68	2918.65
409.87	3016.95
410.07	3005.25
410.26	2998.23
410.45	2979.50
410.64	3091.85
410.83	3101.21
411.02	3117.59
411.21	3176.11
411.40	3159.72
411.59	3276.75
411.78	3148.02
411.98	3180.79
412.17	3501.44
412.36	3248.66
412.55	3389.10
412.74	3346.97
412.93	3428.88
413.12	3440.59
413.31	3599.74
413.50	3492.08
413.69	3461.65
413.88	3667.62
414.07	3489.74
414.26	3676.98
414.45	3590.38
414.64	3737.84
414.83	3684.00
415.02	3768.26
415.22	3946.14
415.41	3908.69
415.60	3915.72
415.79	3889.97
415.98	3873.59
416.17	3955.51
416.36	4124.02
416.55	4004.66
416.74	4124.02
416.93	4117.00
417.12	4102.96
417.31	4191.90
417.50	4306.59
417.69	4358.08
417.88	4290.20
418.07	4322.97
418.26	4418.93
418.45	4374.46
418.64	4447.02
418.83	4393.19
419.02	4498.51
419.21	4521.92
419.39	4784.06
419.58	4512.55
419.77	4386.16
419.96	4552.34
420.15	4746.61
420.34	4526.60
420.53	4713.84
420.72	4725.54
420.91	4823.84
421.10	4912.78
421.29	4767.67
421.48	4706.82
421.67	4758.31
421.86	4807.46
422.05	4870.65
422.24	4800.44
422.43	4856.61
422.61	4882.36
422.80	4975.98
422.99	5069.60
423.18	5102.37
423.37	4990.02
423.56	4793.42
423.75	4903.42
423.94	4997.04
424.13	4610.86
424.32	4793.42
424.50	5093.01
424.69	5004.07
424.88	5170.24
425.07	5102.37
425.26	5039.17
425.45	4999.38
425.64	5139.82
425.83	4905.76
426.01	5114.07
426.20	5231.10
426.39	5078.96
426.58	5172.58
426.77	5123.43
426.96	5039.17
427.15	5284.93
427.33	5291.95
427.52	5146.84
427.71	5411.32
427.90	5210.03
428.09	5458.13
428.28	5362.17
428.46	5345.78
428.65	5427.70
428.84	5448.77
429.03	5493.24
429.22	5322.38
429.40	5554.09
429.59	5591.54
429.78	5376.21
429.97	5313.02
430.16	5453.45
430.34	5654.73
430.53	5710.91
430.72	5703.89
430.91	5650.05
431.10	5462.81
431.28	5572.82
431.47	5785.80
431.66	5951.98
431.85	5870.06
432.03	6122.84
432.22	5951.98
432.41	5870.06
432.60	5989.43
432.79	6012.84
432.97	6122.84
433.16	6038.58
433.35	6047.94
433.54	6232.85
433.72	6101.78
433.91	6181.35
434.10	6148.59
434.28	6260.93
434.47	6246.89
434.66	6197.74
434.85	6368.60
435.03	6410.73
435.22	6321.79
435.41	6450.52
435.59	6396.68
435.78	6499.67
435.97	6434.13
436.16	6473.92
436.34	6546.48
436.53	6527.75
436.72	6808.62
436.90	6272.64
437.09	6675.21
437.28	6438.81
437.46	6480.94
437.65	6759.47
437.84	6759.47
438.02	6846.07
438.21	6956.07
438.40	6761.81
438.58	7248.64
438.77	7073.10
438.96	7131.61
439.14	7080.12
439.33	7337.58
439.52	7199.49
439.70	7307.15
439.89	7452.27
440.08	7538.87
440.26	7552.91
440.45	7248.64
440.63	7585.68
440.82	7723.77
441.01	7585.68
441.19	7602.06
441.38	7997.61
441.57	7676.96
441.75	7770.58
441.94	8116.98
442.12	7861.86
442.31	8016.33
442.50	8109.96
442.68	8273.79
442.87	8163.79
443.05	8243.37
443.24	8255.07
443.43	7939.10
443.61	8177.83
443.80	8418.91
443.98	8198.90
444.17	7871.22
444.35	8322.94
444.54	8557.00
444.73	8379.12
444.91	8234.00
445.10	8388.48
445.28	8334.65
445.47	8259.75
445.65	8374.44
445.84	8638.92
446.02	8212.94
446.21	8528.91
446.39	8449.33
446.58	8524.23
446.77	8636.58
446.95	8355.71
447.14	8360.39
447.32	8652.96
447.51	8631.90
447.69	8542.96
447.88	8643.60
448.06	8507.85
448.25	8643.60
448.43	8507.85
448.62	8718.50
448.80	8697.43
448.99	8685.73
449.17	8882.33
449.36	8608.49
449.54	8863.61
449.73	8968.93
449.91	9011.06
450.10	8898.72
450.28	8997.02
450.46	9050.85
450.65	9128.09
450.83	9116.39
451.02	8987.66
451.20	9387.89
451.39	9149.15
451.57	9214.69
451.76	9158.52
451.94	9401.93
452.13	9301.29
452.31	9584.49
452.49	9401.93
452.68	9320.01
452.86	9415.98
453.05	9483.85
453.23	9579.81
453.42	9341.08
453.60	9617.26
453.78	9537.68
453.97	9465.13
454.15	9537.68
454.34	9371.50
454.52	9841.95
454.70	9748.33
454.89	9905.15
455.07	9610.24
455.26	9940.26
455.44	9933.23
455.62	9987.07
455.81	9968.34
455.99	9970.68
456.17	10186.01
456.36	10071.33
456.54	10284.31
456.73	10298.36
456.91	10672.84
457.09	10328.78
457.28	10532.41
457.46	10221.12
457.64	10616.67
457.83	10609.65
458.01	10539.43
458.19	10611.99
458.38	10562.84
458.56	10595.61
458.74	10469.22
458.93	10824.98
459.11	10714.97
459.29	10949.03
459.48	10984.13
459.66	10871.79
459.84	11047.33
460.03	11044.99
460.21	11140.95
460.39	10934.98
460.57	11063.71
460.76	11063.71
460.94	11405.43
461.12	11267.34
461.31	11454.58
461.49	11267.34
461.67	11447.56
461.85	11609.06
462.04	11527.14
462.22	11627.78
462.40	11709.70
462.59	11597.35
462.77	11510.75
462.95	11726.08
463.13	11786.94
463.32	11728.42
463.50	11831.41
463.68	11882.90
463.86	11836.09
464.05	11740.13
464.23	11903.96
464.41	12009.29
464.59	11761.19
464.78	12294.83
464.96	12032.69
465.14	12065.46
465.32	12093.55
465.50	12168.45
465.69	12091.21
465.87	12231.64
466.05	12182.49
466.23	12322.92
466.41	12360.37
466.60	12826.14
466.78	12196.53
466.96	12198.87
467.14	12657.62
467.32	12470.37
467.51	12521.87
467.69	12236.32
467.87	12645.91
468.05	12739.54
468.23	12470.37
468.41	12713.79
468.60	12730.17
468.78	13034.44
468.96	12697.41
469.14	12896.35
469.32	12896.35
469.50	12863.58
469.69	12992.31
469.87	13099.98
470.05	13153.81
470.23	13547.02
470.41	13352.76
470.59	13584.47
470.77	13198.28
470.95	13540.00
471.14	13509.57
471.32	13252.11
471.50	13678.09
471.68	13860.65
471.86	13860.65
472.04	13781.07
472.22	14349.82
472.40	13734.26
472.58	13895.76
472.77	14061.94
472.95	14452.81
473.13	14731.33
473.31	14237.48
473.49	14366.21
473.67	14216.41
473.85	14562.81
474.03	14846.02
474.21	14525.36
474.39	14951.34
474.57	14738.35
474.75	15005.17
474.93	14958.36
475.12	15059.01
475.30	15433.49
475.48	15204.12
475.66	15349.23
475.84	15393.70
476.02	15543.50
476.20	15499.03
476.38	15838.41
476.56	16170.76
476.74	16173.10
476.92	15878.19
477.10	16002.24
477.28	16533.54
477.46	16435.24
477.64	16582.70
477.82	16704.40
478.00	17315.28
478.18	16870.58
478.36	17055.48
478.54	17476.78
478.72	17436.99
478.90	17689.77
479.08	17907.44
479.26	17731.90
479.44	17881.69
479.62	17860.63
479.80	18260.86
479.98	18366.18
480.16	18698.54
480.34	18317.03
480.52	18965.36
480.70	18768.76
480.88	18682.16
481.06	18853.02
481.24	18808.54
481.41	19171.33
481.59	19604.33
481.77	19569.22
481.95	19658.16
482.13	19861.79
482.31	19962.43
482.49	20475.01
482.67	20599.05
482.85	20538.20
483.03	20954.82
483.21	20954.82
483.39	20718.42
483.57	21139.72
483.74	21415.90
483.92	21472.07
484.10	21542.29
484.28	22050.19
484.46	22230.41
484.64	22572.13
484.82	22075.93
485.00	22637.66
485.18	22714.90
485.35	23110.45
485.53	22876.40
485.71	23288.33
485.89	23506.00
486.07	23332.80
486.25	24009.22
486.43	24032.62
486.61	24126.24
486.78	24510.09
486.96	24552.22
487.14	25135.01
487.32	24610.73
487.50	25209.91
487.68	25235.66
487.85	25481.41
488.03	26085.27
488.21	25874.62
488.39	26026.76
488.57	26326.35
488.75	26696.15
488.92	26714.87
489.10	27250.86
489.28	27447.46
489.46	27494.27
489.64	27367.88
489.81	27882.80
489.99	27974.08
490.17	27733.01
490.35	28709.01
490.53	28327.50
490.70	28973.49
490.88	28591.98
491.06	29223.93
491.24	29319.89
491.41	29226.27
491.59	29589.05
491.77	29743.53
491.95	29759.91
492.13	30281.85
492.30	30195.25
492.48	30490.16
492.66	30593.14
492.84	30735.92
493.01	30792.09
493.19	30604.84
493.37	31173.60
493.54	31204.02
493.72	32077.04
493.90	31814.90
494.08	31791.50
494.25	32496.00
494.43	32285.35
494.61	32755.80
494.79	32840.06
494.96	32652.81
495.14	32699.62
495.32	33567.96
495.49	33228.59
495.67	33392.42
495.85	33603.07
496.02	33769.25
496.20	34771.00
496.38	34394.17
496.55	34586.10
496.73	35157.19
496.91	34792.06
497.09	35044.84
497.26	35035.48
497.44	35241.45
497.62	35660.40
497.79	36041.91
497.97	36100.42
498.14	36514.70
498.32	36388.31
498.50	36680.88
498.67	37216.86
498.85	36882.16
499.03	37336.23
499.20	37097.49
499.38	37273.03
499.56	37376.01
499.73	37507.08
499.91	37673.26
500.08	38019.66
500.26	37949.45
500.44	38216.27
500.61	38209.25
500.79	38258.40
500.97	38270.10
501.14	39009.71
501.32	39068.22
501.49	38747.57
501.67	38974.60
501.84	39672.08
502.02	39517.60
502.20	39201.63
502.37	39840.60
502.55	39587.82
502.72	40287.64
502.90	40053.59
503.07	39636.97
503.25	40624.68
503.43	40048.91
503.60	40570.85
503.78	40488.93
503.95	40744.05
504.13	40697.24
504.30	41102.15
504.48	40795.54
504.65	41486.00
504.83	41900.27
505.01	41713.03
505.18	41635.79
505.36	42080.49
505.53	41532.81
505.71	41961.12
505.88	42459.66
506.06	41649.83
506.23	42227.95
506.41	42300.50
506.58	42637.54
506.76	42419.87
506.93	43213.31
507.11	42541.58
507.28	43061.18
507.46	42983.94
507.63	43026.07
507.81	43966.96
507.98	43548.01
508.16	43973.98
508.33	44037.18
508.50	43793.76
508.68	43941.22
508.85	44114.42
509.03	44016.11
509.20	44519.33
509.38	44594.23
509.55	44788.49
509.73	45118.51
509.90	45067.02
510.08	45071.70
510.25	44849.35
510.42	45357.24
510.60	45722.37
510.77	45436.82
510.95	45928.33
511.12	45352.56
511.30	45837.05
511.47	45993.87
511.64	45956.42
511.82	46330.90
511.99	45778.54
512.17	46508.79
512.34	46024.29
512.51	46693.69
512.69	46466.66
512.86	46447.93
513.04	47028.38
513.21	47164.14
513.38	47344.36
513.56	46997.96
513.73	47421.59
513.90	47255.42
514.08	47868.64
514.25	47889.70
514.43	47636.92
514.60	47384.15
514.77	47969.28
514.95	48273.55
515.12	48278.23
515.29	47901.40
515.47	48360.15
515.64	48942.94
515.81	48308.66
515.99	48575.48
516.16	49146.57
516.33	48924.22
516.51	49062.31
516.68	49258.91
516.85	48765.06
517.03	49013.16
517.20	49263.60
517.37	49155.93
517.54	49254.23
517.72	49263.60
517.89	49425.09
518.06	49427.43
518.24	49808.94
518.41	49567.87
518.58	49897.88
518.75	49649.78
518.93	49993.84
519.10	49794.90
519.27	49832.35
519.45	50064.06
519.62	50344.92
519.79	50195.13
519.96	50373.01
520.14	50733.45
520.31	50344.92
520.48	50681.96
520.65	50602.38
520.83	50986.23
521.00	51110.28
521.17	50897.29
521.34	50777.92
521.52	51372.42
521.69	51065.81
521.86	51166.45
522.03	51416.89
522.20	51646.26
522.38	51782.01
522.55	51870.95
522.72	51704.77
522.89	51498.81
523.07	52009.04
523.24	51702.43
523.41	51917.76
523.58	51529.23
523.75	52135.43
523.92	51948.19
524.10	52229.05
524.27	52409.28
524.44	52540.35
524.61	52465.45
524.78	52530.98
524.96	52477.15
525.13	52758.02
525.30	52861.00
525.47	52868.02
525.64	52879.72
525.81	53008.45
525.98	53013.13
526.16	53008.45
526.33	53139.52
526.50	53542.10
526.67	53055.26
526.84	53506.99
527.01	53134.84
527.18	53212.08
527.36	53212.08
527.53	53249.53
527.70	53600.61
527.87	53434.43
528.04	53415.71
528.21	53523.37
528.38	53382.94
528.55	53895.52
528.72	53719.98
528.89	53928.28
529.07	53354.85
529.24	53846.36
529.41	54078.08
529.58	54253.62
529.75	53902.54
529.92	54150.63
530.09	53937.65
530.26	54239.57
530.43	54384.69
530.60	53792.53
530.77	54424.48
530.94	54482.99
531.11	54218.51
531.28	54246.60
531.46	54747.47
531.63	54597.68
531.80	54625.76
531.97	54567.25
532.14	55070.46
532.31	54747.47
532.48	54836.41
532.65	55030.68
532.82	54705.34
532.99	55131.32
533.16	55000.25
533.33	54958.12
533.50	54930.03
533.67	55238.98
533.84	54824.71
534.01	55100.89
534.18	55407.50
534.35	55318.56
534.52	55458.99
534.69	55608.79
534.86	55573.68
535.03	55166.43
535.20	55475.38
535.37	55543.25
535.54	55690.71
535.71	55477.72
535.88	55833.48
536.05	55697.73
536.22	55676.66
536.38	56025.40
536.55	55887.31
536.72	55814.76
536.89	55744.54
537.06	55913.06
537.23	56104.98
537.40	56116.68
537.57	55955.19
537.74	56240.73
537.91	56142.43
538.08	56219.67
538.25	55880.29
538.42	56332.01
538.59	56264.14
538.75	56055.83
538.92	56512.23
539.09	56519.26
539.26	56313.29
539.43	56460.74
539.60	56617.56
539.77	56549.68
539.94	56472.45
540.11	56568.41
540.28	56725.22
540.44	56666.71
540.61	56690.12
540.78	56748.63
540.95	56732.25
541.12	56793.10
541.29	56865.66
541.46	56736.93
541.62	56802.46
541.79	57064.60
541.96	56720.54
542.13	56699.48
542.30	56952.26
542.47	57209.71
542.63	57237.80
542.80	57055.24
542.97	57523.35
543.14	57492.92
543.31	57359.51
543.48	57296.31
543.64	57682.50
543.81	57565.48
543.98	57553.77
544.15	57738.68
544.32	57642.71
544.48	57673.14
544.65	57691.86
544.82	57628.67
544.99	57228.44
545.16	57745.70
545.32	57607.61
545.49	58176.36
545.66	58162.31
545.83	57759.74
546.00	58054.65
546.16	57844.00
546.33	58101.46
546.50	57801.87
546.67	58113.16
546.83	57776.12
547.00	58199.76
547.17	58078.05
547.34	58064.01
547.50	58155.29
547.67	58277.00
547.84	58475.94
548.00	58422.11
548.17	58412.75
548.34	58342.53
548.51	58630.42
548.67	58415.09
548.84	58277.00
549.01	58443.18
549.18	58384.66
549.34	58433.81
549.51	58520.41
549.68	58724.04
549.84	58630.42
550.01	58805.96
550.18	58518.07
550.34	58754.47
550.51	58766.17
550.68	58576.59
550.84	58618.72
551.01	58979.16
551.18	58782.55
551.34	58791.92
551.51	58880.86
551.68	58747.45
551.84	58869.15
552.01	58827.02
552.18	58850.43
552.34	58866.81
552.51	58969.80
552.68	58721.70
552.84	58885.54
553.01	59096.19
553.18	59014.27
553.34	59143.00
553.51	58953.41
553.67	59107.89
553.84	59077.46
554.01	58995.54
554.17	59222.58
554.34	59264.70
554.51	59351.30
554.67	59166.40
554.84	59234.28
555.00	59267.05
555.17	59203.85
555.33	59295.13
555.50	59145.34
555.67	59058.74
555.83	59278.75
556.00	59363.01
556.16	59636.85
556.33	59688.34
556.50	59536.21
556.66	59533.87
556.83	59295.13
556.99	59714.09
557.16	59625.15
557.32	59697.70
557.49	59891.97
557.65	59765.58
557.82	59707.07
557.98	59599.40
558.15	59554.93
558.32	59746.86
558.48	59552.59
558.65	59629.83
558.81	59531.53
558.98	59852.18
559.14	59704.73
559.31	59978.57
559.47	59894.31
559.64	59824.09
559.80	59838.14
559.97	59964.52
560.13	59821.75
560.30	59821.75
560.46	60177.51
560.63	59861.54
560.79	60179.85
560.96	60030.06
561.12	60097.94
561.29	60163.47
561.45	60004.31
561.61	59971.55
561.78	60156.45
561.94	60205.60
562.11	60137.72
562.27	60076.87
562.44	60065.17
562.60	60065.17
562.77	60247.73
562.93	59948.14
563.10	60027.72
563.26	60243.05
563.42	60285.18
563.59	60158.79
563.75	60121.34
563.92	60257.09
564.08	60205.60
564.24	60296.88
564.41	60409.23
564.57	60336.67
564.74	60252.41
564.90	60350.71
565.07	60245.39
565.23	60509.87
565.39	60259.43
565.56	60275.82
565.72	60257.09
565.88	60243.05
566.05	60271.14
566.21	60458.38
566.38	60486.46
566.54	60573.06
566.70	60584.77
566.87	60596.47
567.03	60423.27
567.19	60825.84
567.36	60647.96
567.52	60636.26
567.68	60666.69
567.85	60793.07
568.01	60659.66
568.17	60537.96
568.34	60830.52
568.50	60666.69
568.66	60552.00
568.83	60839.89
568.99	60540.30
569.15	60444.33
569.32	60652.64
569.48	60928.83
569.64	60610.51
569.81	60500.51
569.97	60477.10
570.13	60704.13
570.30	60566.04
570.46	60818.82
570.62	60846.91
570.78	60825.84
570.95	60755.63
571.11	60954.57
571.27	60872.65
571.43	60802.44
571.60	60856.27
571.76	60750.94
571.92	60879.67
572.09	60790.73
572.25	60872.65
572.41	60863.29
572.57	60699.45
572.74	61057.56
572.90	60776.69
573.06	60786.05
573.22	60802.44
573.38	60722.86
573.55	60715.84
573.71	61155.86
573.87	60879.67
574.03	60867.97
574.20	61043.51
574.36	60814.14
574.52	60912.44
574.68	60896.06
574.84	61045.85
575.01	61024.79
575.17	61055.21
575.33	60905.42
575.49	60985.00
575.65	61029.47
575.82	61080.96
575.98	61031.81
576.14	61317.35
576.30	60970.96
576.46	60940.53
576.62	60879.67
576.79	61024.79
576.95	60912.44
577.11	61160.54
577.27	61001.38
577.43	61080.96
577.59	60832.86
577.75	60825.84
577.92	60912.44
578.08	61064.58
578.24	60912.44
578.40	61165.22
578.56	61312.67
578.72	61141.81
578.88	61064.58
579.04	61169.90
579.21	60816.48
579.37	61132.45
579.53	61361.82
579.69	60959.25
579.85	61174.58
580.01	61134.79
580.17	61055.21
580.33	61247.14
580.49	61263.52
580.65	61172.24
580.82	61017.77
580.98	61378.21
581.14	61038.83
581.30	61219.05
581.46	61153.52
581.62	61324.38
581.78	61109.05
581.94	61338.42
582.10	61017.77
582.26	61230.75
582.42	61228.41
582.58	61284.59
582.74	61092.66
582.90	61240.12
583.06	61244.80
583.22	61055.21
583.38	61343.10
583.54	61219.05
583.70	61247.14
583.86	61228.41
584.02	61205.01
584.18	61279.91
584.34	61076.28
584.50	61080.96
584.66	61062.24
584.82	61230.75
584.98	61289.27
585.14	61368.85
585.30	61083.30
585.46	61104.37
585.62	61226.07
585.78	61228.41
585.94	61167.56
586.10	61221.39
586.26	61265.86
586.42	61272.88
586.58	61385.23
586.74	61441.40
586.90	61219.05
587.06	61293.95
587.22	61357.14
587.38	61237.78
587.54	61499.92
587.70	61478.85
587.86	61354.80
588.02	61364.17
588.18	61441.40
588.34	61312.67
588.49	61385.23
