SpectraSuite Data File
++++++++++++++++++++++++++++++++++++
Date: Fri Oct 25 10:47:02 EDT 2013
User: price-jones
Dark Spectrum Present: No
Reference Spectrum Present: No
Number of Sampled Component Spectra: 1
Spectrometers: USB2+H05261
Integration Time (usec): 100000 (USB2+H05261)
Spectra Averaged: 1 (USB2+H05261)
Boxcar Smoothing: 0 (USB2+H05261)
Correct for Electrical Dark: No (USB2+H05261)
Strobe/Lamp Enabled: No (USB2+H05261)
Correct for Detector Non-linearity: No (USB2+H05261)
Correct for Stray Light: No (USB2+H05261)
Number of Pixels in Processed Spectrum: 2048
>>>>>Begin Processed Spectral Data<<<<<
365.73	98.30
365.92	98.30
366.12	98.30
366.32	79.58
366.52	23.41
366.72	23.41
366.91	49.15
367.11	0.00
367.31	44.47
367.51	2.34
367.70	0.00
367.90	39.79
368.10	81.92
368.30	49.15
368.49	98.30
368.69	35.11
368.89	30.43
369.09	7.02
369.28	145.11
369.48	102.98
369.68	119.37
369.87	74.90
370.07	58.51
370.27	149.79
370.47	156.82
370.66	330.02
370.86	390.87
371.06	404.91
371.25	458.74
371.45	449.38
371.65	444.70
371.84	470.45
372.04	484.49
372.24	498.53
372.44	447.04
372.63	582.79
372.83	526.62
373.03	428.32
373.22	470.45
373.42	524.28
373.62	458.74
373.81	552.37
374.01	634.29
374.21	554.71
374.40	578.11
374.60	624.92
374.79	535.98
374.99	606.20
375.19	566.41
375.38	650.67
375.58	547.69
375.78	578.11
375.97	674.07
376.17	603.86
376.37	580.45
376.56	573.43
376.76	587.47
376.95	587.47
377.15	592.16
377.35	592.16
377.54	608.54
377.74	641.31
377.93	641.31
378.13	631.94
378.33	622.58
378.52	683.44
378.72	660.03
378.91	629.60
379.11	697.48
379.31	709.18
379.50	613.22
379.70	713.86
379.89	645.99
380.09	627.26
380.28	620.24
380.48	617.90
380.68	711.52
380.87	702.16
381.07	674.07
381.26	718.54
381.46	650.67
381.65	718.54
381.85	723.23
382.04	655.35
382.24	702.16
382.43	636.63
382.63	653.01
382.83	643.65
383.02	660.03
383.22	781.74
383.41	695.14
383.61	713.86
383.80	786.42
384.00	772.38
384.19	699.82
384.39	758.33
384.58	793.44
384.78	744.29
384.97	805.14
385.17	737.27
385.36	805.14
385.56	772.38
385.75	744.29
385.95	734.93
386.14	840.25
386.34	805.14
386.53	816.85
386.72	807.48
386.92	791.10
387.11	823.87
387.31	828.55
387.50	891.74
387.70	798.12
387.89	842.59
388.09	910.47
388.28	767.70
388.48	798.12
388.67	898.77
388.86	901.11
389.06	903.45
389.25	973.66
389.45	973.66
389.64	903.45
389.84	868.34
390.03	924.51
390.22	964.30
390.42	1004.09
390.61	971.32
390.81	933.87
391.00	1020.47
391.19	954.94
391.39	898.77
391.58	985.37
391.78	931.53
391.97	987.71
392.16	1039.20
392.36	985.37
392.55	1011.11
392.75	978.34
392.94	985.37
393.13	997.07
393.33	992.39
393.52	997.07
393.71	1069.62
393.91	1057.92
394.10	1015.79
394.29	1050.90
394.49	1116.44
394.68	1128.14
394.88	1139.84
395.07	1153.88
395.26	1196.01
395.46	1221.76
395.65	1172.61
395.84	1184.31
396.04	1210.06
396.23	1170.27
396.42	1156.22
396.62	1174.95
396.81	1151.54
397.00	1097.71
397.19	1151.54
397.39	1144.52
397.58	1240.48
397.77	1270.91
397.97	1284.95
398.16	1355.17
398.35	1327.08
398.55	1306.02
398.74	1324.74
398.93	1362.19
399.12	1439.43
399.32	1378.58
399.51	1357.51
399.70	1453.47
399.90	1376.24
400.09	1441.77
400.28	1462.83
400.47	1404.32
400.67	1465.18
400.86	1481.56
401.05	1413.68
401.24	1579.86
401.44	1516.67
401.63	1542.41
401.82	1554.12
402.01	1542.41
402.21	1591.56
402.40	1493.26
402.59	1614.97
402.78	1537.73
402.97	1617.31
403.17	1626.67
403.36	1589.22
403.55	1678.16
403.74	1722.63
403.93	1781.15
404.13	1806.89
404.32	1713.27
404.51	1729.66
404.70	1762.42
404.89	1760.08
405.09	1884.13
405.28	1741.36
405.47	1825.62
405.66	1874.77
405.85	1825.62
406.05	1839.66
406.24	1834.98
406.43	1820.94
406.62	1952.01
406.81	1867.75
407.00	1919.24
407.20	1874.77
407.39	1912.22
407.58	2010.52
407.77	1975.41
407.96	2001.16
408.15	1982.43
408.34	2038.61
408.54	2094.78
408.73	1940.30
408.92	2104.14
409.11	2127.55
409.30	2204.78
409.49	2071.37
409.68	2139.25
409.87	2059.67
410.07	2174.36
410.26	2209.47
410.45	2228.19
410.64	2200.10
410.83	2275.00
411.02	2223.51
411.21	2359.26
411.40	2289.04
411.59	2359.26
411.78	2319.47
411.98	2328.83
412.17	2368.62
412.36	2410.75
412.55	2452.88
412.74	2499.69
412.93	2450.54
413.12	2431.82
413.31	2555.86
413.50	2534.80
413.69	2588.63
413.88	2722.04
414.07	2668.21
414.26	2740.77
414.45	2736.09
414.64	2679.91
414.83	2616.72
415.02	2722.04
415.22	2691.62
415.41	2677.57
415.60	2888.22
415.79	2871.84
415.98	3070.78
416.17	3005.25
416.36	2942.05
416.55	3000.57
416.74	3007.59
416.93	3042.70
417.12	2949.08
417.31	3035.67
417.50	3141.00
417.69	3248.66
417.88	3183.13
418.07	3056.74
418.26	3138.66
418.45	3119.93
418.64	3351.65
418.83	3318.88
419.02	3234.62
419.21	3361.01
419.39	3220.58
419.58	3311.86
419.77	3211.22
419.96	3323.56
420.15	3358.67
420.34	3400.80
420.53	3337.60
420.72	3506.12
420.91	3515.48
421.10	3510.80
421.29	3566.98
421.48	3485.06
421.67	3492.08
421.86	3574.00
422.05	3426.54
422.24	3478.04
422.43	3473.36
422.61	3578.68
422.80	3576.34
422.99	3674.64
423.18	3644.21
423.37	3756.56
423.56	3676.98
423.75	3698.05
423.94	3735.50
424.13	3389.10
424.32	3492.08
424.50	3744.86
424.69	3653.58
424.88	3686.34
425.07	3508.46
425.26	3595.06
425.45	3655.92
425.64	3709.75
425.83	3655.92
426.01	3707.41
426.20	3623.15
426.39	3648.90
426.58	3714.43
426.77	3662.94
426.96	3606.77
427.15	3735.50
427.33	3838.48
427.52	3801.03
427.71	3789.33
427.90	3955.51
428.09	3796.35
428.28	3868.91
428.46	3749.54
428.65	3779.97
428.84	3974.23
429.03	3955.51
429.22	3719.11
429.40	3936.78
429.59	3857.20
429.78	3698.05
429.97	3765.92
430.16	3810.39
430.34	4042.11
430.53	3943.80
430.72	3878.27
430.91	3983.59
431.10	4065.51
431.28	4311.27
431.47	4318.29
431.66	4362.76
431.85	4208.28
432.03	4248.07
432.22	4334.67
432.41	4222.33
432.60	4344.03
432.79	4351.06
432.97	4334.67
433.16	4571.07
433.35	4231.69
433.54	4442.34
433.72	4552.34
433.91	4339.35
434.10	4362.76
434.28	4486.81
434.47	4421.27
434.66	4568.73
434.85	4456.38
435.03	4528.94
435.22	4678.73
435.41	4741.93
435.59	4634.26
435.78	4744.27
435.97	4755.97
436.16	4856.61
436.34	4718.52
436.53	4702.14
436.72	4786.40
436.90	4627.24
437.09	4657.67
437.28	4622.56
437.46	4732.56
437.65	4842.57
437.84	4877.68
438.02	4863.63
438.21	4716.18
438.40	4950.23
438.58	4990.02
438.77	4947.89
438.96	4968.96
439.14	5228.76
439.33	5226.42
439.52	5203.01
439.70	5289.61
439.89	5385.57
440.08	5305.99
440.26	5411.32
440.45	5352.81
440.63	5453.45
440.82	5628.99
441.01	5579.84
441.19	5643.03
441.38	5575.16
441.57	5598.56
441.75	5643.03
441.94	5930.92
442.12	5825.59
442.31	5944.96
442.50	5654.73
442.68	5891.13
442.87	5753.04
443.05	5832.62
443.24	5909.85
443.43	5893.47
443.61	5916.87
443.80	6136.88
443.98	5877.09
444.17	5675.80
444.35	6076.03
444.54	6022.20
444.73	6132.20
444.91	5898.15
445.10	5940.28
445.28	5926.24
445.47	5860.70
445.65	5888.79
445.84	6036.24
446.02	6136.88
446.21	6066.67
446.39	6054.97
446.58	6108.80
446.77	6087.73
446.95	6022.20
447.14	6104.12
447.32	6221.14
447.51	6193.06
447.69	6015.18
447.88	6111.14
448.06	6190.72
448.25	6092.41
448.43	6260.93
448.62	6090.07
448.80	6246.89
448.99	6319.45
449.17	6211.78
449.36	6076.03
449.54	6347.53
449.73	6424.77
449.91	6464.56
450.10	6494.99
450.28	6583.93
450.46	6623.72
450.65	6562.86
450.83	6544.14
451.02	6567.54
451.20	6651.80
451.39	6792.23
451.57	6621.38
451.76	6752.45
451.94	6619.04
452.13	6773.51
452.31	6923.30
452.49	6672.87
452.68	6661.16
452.86	6757.13
453.05	6806.28
453.23	6736.06
453.42	6677.55
453.60	6731.38
453.78	6839.05
453.97	6806.28
454.15	6881.18
454.34	6857.77
454.52	6895.22
454.70	6958.41
454.89	6843.73
455.07	7026.29
455.26	7026.29
455.44	7145.66
455.62	7045.01
455.81	7164.38
455.99	7330.56
456.17	7304.81
456.36	7337.58
456.54	7398.43
456.73	7494.40
456.91	7452.27
457.09	7300.13
457.28	7674.62
457.46	7412.48
457.64	7489.71
457.83	7618.44
458.01	7288.43
458.19	7536.52
458.38	7573.97
458.56	7744.83
458.74	7559.93
458.93	7964.84
459.11	7754.19
459.29	7878.24
459.48	7756.54
459.66	7637.17
459.84	7721.43
460.03	7927.39
460.21	7819.73
460.39	7887.61
460.57	7735.47
460.76	7878.24
460.94	7861.86
461.12	8018.68
461.31	8079.53
461.49	8023.36
461.67	7995.27
461.85	8226.98
462.04	7932.08
462.22	8596.79
462.40	8287.84
462.59	8280.82
462.77	8053.78
462.95	8334.65
463.13	8182.51
463.32	8187.19
463.50	8276.13
463.68	8203.58
463.86	8198.90
464.05	8411.89
464.23	8238.69
464.41	8645.94
464.59	8231.66
464.78	8631.90
464.96	8435.29
465.14	8486.78
465.32	8695.09
465.50	8753.60
465.69	8603.81
465.87	8489.12
466.05	8538.27
466.23	8610.83
466.41	8659.98
466.60	8657.64
466.78	8259.75
466.96	8664.66
467.14	8606.15
467.32	8549.98
467.51	8802.75
467.69	8659.98
467.87	8594.45
468.05	8910.42
468.23	8641.26
468.41	8713.81
468.60	8842.54
468.78	8917.44
468.96	8929.14
469.14	8844.88
469.32	8950.21
469.50	8826.16
469.69	8966.59
469.87	9015.74
470.05	9198.31
470.23	9029.79
470.41	9071.92
470.59	9441.72
470.77	9165.54
470.95	9261.50
471.14	9577.47
471.32	9240.44
471.50	9666.41
471.68	9380.87
471.86	9607.90
472.04	9476.83
472.22	9846.63
472.40	9530.66
472.58	9692.16
472.77	9706.20
472.95	9774.08
473.13	10162.61
473.31	10106.43
473.49	9820.89
473.67	9820.89
473.85	9980.04
474.03	10071.33
474.21	10298.36
474.39	10178.99
474.57	10455.17
474.75	10356.87
474.93	10462.19
475.12	10635.39
475.30	10120.48
475.48	10363.89
475.66	10532.41
475.84	10466.88
476.02	10689.23
476.20	10513.69
476.38	10855.40
476.56	10986.47
476.74	10878.81
476.92	10963.07
477.10	11206.48
477.28	11066.05
477.46	11061.37
477.64	11314.15
477.82	11592.67
478.00	11772.89
478.18	11534.16
478.36	11999.93
478.54	11693.32
478.72	11815.02
478.90	12161.42
479.08	12201.21
479.26	12072.48
479.44	12463.35
479.62	12540.59
479.80	12297.17
479.98	12638.89
480.16	12851.88
480.34	12589.74
480.52	12788.69
480.70	12727.83
480.88	12610.81
481.06	12863.58
481.24	12945.50
481.41	13327.01
481.59	13680.43
481.77	13462.76
481.95	13359.78
482.13	13699.16
482.31	13516.59
482.49	13771.71
482.67	13834.91
482.85	13872.36
483.03	13980.02
483.21	14125.13
483.39	14415.36
483.57	14654.09
483.74	14691.54
483.92	14647.07
484.10	14403.66
484.28	15030.92
484.46	14853.04
484.64	15297.74
484.82	15101.14
485.00	15173.69
485.18	15391.36
485.35	15449.88
485.53	15335.19
485.71	15222.84
485.89	15648.82
486.07	15508.39
486.25	15796.28
486.43	16011.60
486.61	16152.04
486.78	16470.35
486.96	16229.27
487.14	16622.48
487.32	16695.04
487.50	16826.11
487.68	16996.97
487.85	17081.23
488.03	17603.17
488.21	17420.61
488.39	17273.15
488.57	17392.52
488.75	17748.28
488.92	17998.72
489.10	17837.22
489.28	18466.83
489.46	18312.35
489.64	18347.46
489.81	18501.93
489.99	18932.59
490.17	18916.21
490.35	18995.79
490.53	18927.91
490.70	19257.93
490.88	19066.00
491.06	19468.58
491.24	19597.31
491.41	19658.16
491.59	19391.34
491.77	19800.93
491.95	19655.82
492.13	19976.47
492.30	20552.24
492.48	20355.64
492.66	20524.16
492.84	20442.24
493.01	20971.20
493.19	20556.93
493.37	20891.62
493.54	20966.52
493.72	21219.30
493.90	20900.98
494.08	21530.59
494.25	21612.51
494.43	21631.23
494.61	21834.86
494.79	21834.86
494.96	21961.25
495.14	22242.11
495.32	22022.10
495.49	22408.29
495.67	22293.60
495.85	22567.45
496.02	22757.03
496.20	22991.08
496.38	23080.02
496.55	23117.47
496.73	23786.86
496.91	23255.56
497.09	23515.36
497.26	23506.00
497.44	23807.93
497.62	23817.29
497.79	24058.37
497.97	23592.60
498.14	24051.34
498.32	24343.91
498.50	24098.16
498.67	24442.21
498.85	24386.04
499.03	24627.12
499.20	24678.61
499.38	24683.29
499.56	24797.98
499.73	24947.77
499.91	25247.36
500.08	25532.90
500.26	25001.60
500.44	25287.15
500.61	25200.55
500.79	25123.31
500.97	25671.00
501.14	25425.24
501.32	25436.94
501.49	25785.68
501.67	25771.64
501.84	26059.52
502.02	25851.22
502.20	26120.38
502.37	26256.13
502.55	26410.60
502.72	26487.84
502.90	26600.19
503.07	26417.63
503.25	26387.20
503.43	26733.60
503.60	26644.66
503.78	26675.09
503.95	27077.66
504.13	27056.59
504.30	27068.30
504.48	27089.36
504.65	27440.44
504.83	27875.78
505.01	27505.98
505.18	27578.53
505.36	27866.42
505.53	27807.90
505.71	28388.36
505.88	28105.15
506.06	27838.33
506.23	27852.38
506.41	28126.22
506.58	28336.87
506.76	28046.64
506.93	28481.98
507.11	28512.41
507.28	28638.80
507.46	28444.53
507.63	28510.07
507.81	28755.82
507.98	28627.09
508.16	28989.88
508.33	29032.00
508.50	29041.37
508.68	28877.53
508.85	29263.72
509.03	29303.51
509.20	29436.92
509.38	29570.33
509.55	29827.79
509.73	29708.42
509.90	29668.63
510.08	29333.93
510.25	29509.47
510.42	29809.06
510.60	30405.90
510.77	29968.22
510.95	30213.98
511.12	30204.61
511.30	30031.41
511.47	30611.87
511.64	30345.05
511.82	30389.52
511.99	30616.55
512.17	30710.17
512.34	30616.55
512.51	30822.51
512.69	30953.58
512.86	31129.12
513.04	30845.92
513.21	31168.91
513.38	31285.94
513.56	31519.99
513.73	31021.46
513.90	31531.70
514.08	31049.55
514.25	31772.77
514.43	31810.22
514.60	31665.11
514.77	32044.27
514.95	31845.33
515.12	32086.40
515.29	32198.75
515.47	32407.06
515.64	32538.13
515.81	32334.50
515.99	32355.57
516.16	32673.88
516.33	31962.36
516.51	32610.68
516.68	32020.87
516.85	32123.85
517.03	31999.80
517.20	32498.34
517.37	32521.74
517.54	32767.50
517.72	32886.87
517.89	32900.91
518.06	32474.93
518.24	32636.43
518.41	32861.12
518.58	33053.05
518.75	32971.13
518.93	33322.21
519.10	33057.73
519.27	33333.91
519.45	33413.49
519.62	33778.61
519.79	33881.60
519.96	33647.54
520.14	34045.43
520.31	33823.08
520.48	33876.91
520.65	34122.67
520.83	34232.68
521.00	34174.16
521.17	34309.91
521.34	34401.19
521.52	34335.66
521.69	34071.18
521.86	34850.58
522.03	34614.18
522.20	34651.63
522.38	35086.97
522.55	34632.91
522.72	34574.39
522.89	34738.23
523.07	35061.22
523.24	35147.82
523.41	35206.34
523.58	35000.37
523.75	35592.53
523.92	35267.19
524.10	35934.24
524.27	35538.69
524.44	35728.28
524.61	35393.58
524.78	35906.16
524.96	36175.32
525.13	36140.21
525.30	36306.39
525.47	36144.89
525.64	36154.26
525.81	36016.16
525.98	35943.61
526.16	35990.42
526.33	35866.37
526.50	36332.14
526.67	35646.36
526.84	36189.36
527.01	36053.61
527.18	36746.41
527.36	36666.83
527.53	36708.96
527.70	37060.04
527.87	36765.14
528.04	36678.54
528.21	37069.40
528.38	37198.13
528.55	36830.67
528.72	36788.54
528.89	37383.04
529.07	37284.73
529.24	37043.66
529.41	36940.68
529.58	36938.33
529.75	36987.49
529.92	37280.05
530.09	37343.25
530.26	37347.93
530.43	37411.12
530.60	37310.48
530.77	37607.73
530.94	37666.24
531.11	37448.57
531.28	37305.80
531.46	37851.14
531.63	37888.59
531.80	37607.73
531.97	37958.81
532.14	37834.76
532.31	37731.78
532.48	38108.60
532.65	38279.46
532.82	37804.33
532.99	38347.34
533.16	37846.46
533.33	38466.70
533.50	38328.61
533.67	38614.16
533.84	38422.23
534.01	38614.16
534.18	38284.14
534.35	38567.35
534.52	38979.28
534.69	38518.20
534.86	38747.57
535.03	38447.98
535.20	38892.68
535.37	39023.75
535.54	39232.06
535.71	38520.54
535.88	39131.42
536.05	39234.40
536.22	39152.48
536.38	39398.24
536.55	39604.20
536.72	39026.09
536.89	39047.16
537.06	38990.98
537.23	39391.22
537.40	39110.35
537.57	39651.02
537.74	39421.64
537.91	39768.04
538.08	39665.06
538.25	39730.59
538.42	39536.33
538.59	40046.57
538.75	39658.04
538.92	39583.14
539.09	40018.48
539.26	40079.33
539.43	39555.05
539.60	39969.33
539.77	39798.47
539.94	40027.84
540.11	39695.49
540.28	40163.59
540.44	39871.03
540.61	39896.77
540.78	39854.64
540.95	40039.54
541.12	39861.66
541.29	40404.67
541.46	40034.86
541.62	40187.00
541.79	40385.94
541.96	40364.88
542.13	40769.79
542.30	40582.55
542.47	40643.40
542.63	40758.09
542.80	40856.39
542.97	40886.82
543.14	41085.76
543.31	41287.05
543.48	41448.55
543.64	41371.31
543.81	41535.15
543.98	41565.57
544.15	41106.83
544.32	41476.63
544.48	41495.36
544.65	41216.83
544.82	41635.79
544.99	41132.57
545.16	41441.53
545.32	41263.64
545.49	41469.61
545.66	41759.84
545.83	41713.03
546.00	41921.34
546.16	41649.83
546.33	41223.86
546.50	41188.75
546.67	41766.86
546.83	41453.23
547.00	41537.49
547.17	41942.40
547.34	41776.22
547.50	41745.80
547.67	42658.60
547.84	41926.02
548.00	42417.53
548.17	42309.86
548.34	42014.96
548.51	42511.15
548.67	42445.62
548.84	42071.13
549.01	42148.37
549.18	42003.25
549.34	42422.21
549.51	42424.55
549.68	42499.45
549.84	42370.72
550.01	42895.00
550.18	42382.42
550.34	42539.24
550.51	42246.67
550.68	42611.79
550.84	41729.41
551.01	42597.75
551.18	42827.12
551.34	42679.67
551.51	42925.42
551.68	42726.48
551.84	42941.81
552.01	42618.81
552.18	43077.56
552.34	42424.55
552.51	43330.34
552.68	42782.65
552.84	43262.46
553.01	43189.91
553.18	43239.06
553.34	43377.15
553.51	43007.34
553.67	42932.45
553.84	43592.48
554.01	43482.47
554.17	43161.82
554.34	43440.34
554.51	43356.08
554.67	43548.01
554.84	43339.70
555.00	43632.27
555.17	43365.45
555.33	43594.82
555.50	42951.17
555.67	43391.19
555.83	43519.92
556.00	43622.90
556.16	44371.88
556.33	43950.58
556.50	43793.76
556.66	43552.69
556.83	43456.73
556.99	44194.00
557.16	44119.10
557.32	44006.75
557.49	44140.16
557.65	43571.41
557.82	43667.37
557.98	43819.51
558.15	43700.14
558.32	43566.73
558.48	43817.17
558.65	43723.55
558.81	44201.02
558.98	43688.44
559.14	43810.15
559.31	44088.67
559.47	44048.88
559.64	44112.08
559.80	44009.09
559.97	44126.12
560.13	43983.35
560.30	43730.57
560.46	44399.96
560.63	44053.56
560.79	44339.11
560.96	44257.19
561.12	43814.83
561.29	44076.97
561.45	44201.02
561.61	43999.73
561.78	44231.44
561.94	44294.64
562.11	44360.17
562.27	44425.71
562.44	44034.84
562.60	44465.50
562.77	44715.93
562.93	44615.29
563.10	44266.55
563.26	44334.43
563.42	44383.58
563.59	44137.82
563.75	44376.56
563.92	44505.29
564.08	44615.29
564.24	44521.67
564.41	44755.72
564.57	44252.51
564.74	44643.38
564.90	44797.85
565.07	44704.23
565.23	44573.16
565.39	44643.38
565.56	44701.89
565.72	44240.81
565.88	44479.54
566.05	44753.38
566.21	44495.92
566.38	44652.74
566.54	44652.74
566.70	44535.71
566.87	44816.58
567.03	44257.19
567.19	44961.69
567.36	44589.55
567.52	44957.01
567.68	44509.97
567.85	44629.34
568.01	44713.59
568.17	44650.40
568.34	44837.64
568.50	44811.90
568.66	44524.01
568.83	44788.49
568.99	44313.36
569.15	44793.17
569.32	45001.48
569.48	44399.96
569.64	44676.15
569.81	44898.50
569.97	44893.82
570.13	44933.60
570.30	44524.01
570.46	44388.26
570.62	44189.31
570.78	44961.69
570.95	44725.30
571.11	44657.42
571.27	44619.97
571.43	44898.50
571.60	44947.65
571.76	44652.74
571.92	44926.58
572.09	44533.37
572.25	45120.85
572.41	44615.29
572.57	44406.98
572.74	45284.68
572.90	45256.60
573.06	44566.14
573.22	44708.91
573.38	45017.86
573.55	44755.72
573.71	44863.39
573.87	45181.70
574.03	45368.94
574.20	45083.40
574.36	44971.05
574.52	45553.85
574.68	44772.11
574.84	45289.37
575.01	44769.77
575.17	44793.17
575.33	44992.12
575.49	44790.83
575.65	45490.65
575.82	45226.17
575.98	44818.92
576.14	45368.94
576.30	45090.42
576.46	45074.04
576.62	44498.26
576.79	45064.67
576.95	45146.59
577.11	45305.75
577.27	45338.52
577.43	45422.78
577.59	44858.71
577.75	44779.13
577.92	45151.27
578.08	44734.66
578.24	44699.55
578.40	45076.38
578.56	44669.12
578.72	45095.10
578.88	45301.07
579.04	45448.52
579.21	45162.98
579.37	44765.09
579.53	44994.46
579.69	44884.45
579.85	45425.12
580.01	45324.47
580.17	45212.13
580.33	45244.90
580.49	45567.89
580.65	45485.97
580.82	45167.66
580.98	45097.44
581.14	44875.09
581.30	45240.21
581.46	45411.07
581.62	45698.96
581.78	45109.14
581.94	45485.97
582.10	45291.71
582.26	45223.83
582.42	44856.37
582.58	45181.70
582.74	44987.44
582.90	44823.60
583.06	45319.79
583.22	44856.37
583.38	45158.30
583.54	45247.24
583.70	45006.16
583.86	45109.14
584.02	44889.13
584.18	45116.17
584.34	45684.92
584.50	45244.90
584.66	45350.22
584.82	45113.83
584.98	45820.67
585.14	45504.70
585.30	45558.53
585.46	45181.70
585.62	44999.14
585.78	45308.09
585.94	44975.73
586.10	44751.04
586.26	44865.73
586.42	45453.20
586.58	45364.26
586.74	45352.56
586.90	45284.68
587.06	45106.80
587.22	45167.66
587.38	45401.71
587.54	45504.70
587.70	45762.15
587.86	45450.86
588.02	45558.53
588.18	45696.62
588.34	44893.82
588.49	45195.74
588.65	44732.32
588.81	44839.98
588.97	45038.93
589.13	44762.75
589.29	44985.10
589.45	45193.40
589.61	45579.59
589.77	45420.44
589.93	45350.22
590.08	45385.33
590.24	45696.62
