SpectraSuite Data File
++++++++++++++++++++++++++++++++++++
Date: Fri Oct 25 10:44:45 EDT 2013
User: price-jones
Dark Spectrum Present: No
Reference Spectrum Present: No
Number of Sampled Component Spectra: 1
Spectrometers: USB2+H05261
Integration Time (usec): 100000 (USB2+H05261)
Spectra Averaged: 1 (USB2+H05261)
Boxcar Smoothing: 0 (USB2+H05261)
Correct for Electrical Dark: No (USB2+H05261)
Strobe/Lamp Enabled: No (USB2+H05261)
Correct for Detector Non-linearity: No (USB2+H05261)
Correct for Stray Light: No (USB2+H05261)
Number of Pixels in Processed Spectrum: 2048
>>>>>Begin Processed Spectral Data<<<<<
365.73	105.32
365.92	105.32
366.12	105.32
366.32	32.77
366.52	0.00
366.72	7.02
366.91	0.00
367.11	84.26
367.31	0.00
367.51	35.11
367.70	25.75
367.90	51.49
368.10	2.34
368.30	4.68
368.49	0.00
368.69	119.37
368.89	100.64
369.09	30.43
369.28	21.06
369.48	9.36
369.68	72.56
369.87	131.07
370.07	77.24
370.27	72.56
370.47	156.82
370.66	351.08
370.86	355.76
371.06	493.85
371.25	418.96
371.45	472.79
371.65	395.55
371.84	433.00
372.04	519.60
372.24	472.79
372.44	355.76
372.63	496.19
372.83	486.83
373.03	489.17
373.22	423.64
373.42	482.15
373.62	559.39
373.81	456.40
374.01	524.28
374.21	507.90
374.40	514.92
374.60	486.83
374.79	561.73
374.99	531.30
375.19	510.24
375.38	524.28
375.58	585.13
375.78	631.94
375.97	533.64
376.17	554.71
376.37	594.50
376.56	594.50
376.76	557.05
376.95	617.90
377.15	627.26
377.35	524.28
377.54	575.77
377.74	613.22
377.93	589.82
378.13	601.52
378.33	603.86
378.52	559.39
378.72	449.38
378.91	599.18
379.11	587.47
379.31	578.11
379.50	559.39
379.70	699.82
379.89	671.73
380.09	716.20
380.28	660.03
380.48	685.78
380.68	671.73
380.87	648.33
381.07	702.16
381.26	748.97
381.46	645.99
381.65	613.22
381.85	589.82
382.04	620.24
382.24	617.90
382.43	688.12
382.63	610.88
382.83	660.03
383.02	741.95
383.22	671.73
383.41	709.18
383.61	741.95
383.80	688.12
384.00	641.31
384.19	664.71
384.39	713.86
384.58	692.80
384.78	779.40
384.97	713.86
385.17	774.72
385.36	777.06
385.56	758.33
385.75	809.83
385.95	720.88
386.14	812.17
386.34	779.40
386.53	753.65
386.72	723.23
386.92	889.40
387.11	861.32
387.31	807.48
387.50	819.19
387.70	814.51
387.89	842.59
388.09	828.55
388.28	784.08
388.48	781.74
388.67	877.70
388.86	840.25
389.06	919.83
389.25	873.02
389.45	922.17
389.64	866.00
389.84	987.71
390.03	901.11
390.22	873.02
390.42	887.06
390.61	961.96
390.81	1011.11
391.00	964.30
391.19	919.83
391.39	1046.22
391.58	1011.11
391.78	959.62
391.97	983.02
392.16	929.19
392.36	936.21
392.55	999.41
392.75	954.94
392.94	983.02
393.13	950.26
393.33	992.39
393.52	950.26
393.71	1142.18
393.91	1095.37
394.10	971.32
394.29	1090.69
394.49	1125.80
394.68	1097.71
394.88	1081.33
395.07	1116.44
395.26	1207.72
395.46	1203.04
395.65	1181.97
395.84	1048.56
396.04	1081.33
396.23	1107.07
396.42	1071.97
396.62	1116.44
396.81	1104.73
397.00	1151.54
397.19	1128.14
397.39	1205.38
397.58	1191.33
397.77	1357.51
397.97	1345.81
398.16	1294.32
398.35	1263.89
398.55	1320.06
398.74	1334.11
398.93	1357.51
399.12	1338.79
399.32	1348.15
399.51	1294.32
399.70	1373.89
399.90	1416.02
400.09	1387.94
400.28	1437.09
400.47	1399.64
400.67	1495.60
400.86	1364.53
401.05	1455.81
401.24	1584.54
401.44	1516.67
401.63	1451.13
401.82	1441.77
402.01	1497.94
402.21	1455.81
402.40	1568.16
402.59	1640.72
402.78	1600.93
402.97	1586.88
403.17	1591.56
403.36	1558.80
403.55	1605.61
403.74	1643.06
403.93	1682.85
404.13	1652.42
404.32	1626.67
404.51	1734.34
404.70	1842.00
404.89	1701.57
405.09	1764.76
405.28	1675.82
405.47	1774.13
405.66	1652.42
405.85	1830.30
406.05	1834.98
406.24	1909.88
406.43	1825.62
406.62	1867.75
406.81	1905.20
407.00	1975.41
407.20	1790.51
407.39	1968.39
407.58	1823.28
407.77	1874.77
407.96	1989.46
408.15	1975.41
408.34	1905.20
408.54	1994.14
408.73	1980.09
408.92	2071.37
409.11	2059.67
409.30	2062.01
409.49	2003.50
409.68	2038.61
409.87	2087.76
410.07	2069.03
410.26	2202.44
410.45	2193.08
410.64	2232.87
410.83	2211.81
411.02	2256.28
411.21	2389.69
411.40	2310.11
411.59	2342.88
411.78	2328.83
411.98	2413.09
412.17	2434.16
412.36	2370.96
412.55	2406.07
412.74	2551.18
412.93	2443.52
413.12	2436.50
413.31	2647.15
413.50	2530.12
413.69	2370.96
413.88	2609.70
414.07	2499.69
414.26	2616.72
414.45	2635.44
414.64	2670.55
414.83	2675.23
415.02	2874.18
415.22	2820.35
415.41	2881.20
415.60	2897.58
415.79	2843.75
415.98	2925.67
416.17	2890.56
416.36	2906.95
416.55	3007.59
416.74	2965.46
416.93	2984.18
417.12	3000.57
417.31	2888.22
417.50	2949.08
417.69	3112.91
417.88	3152.70
418.07	3136.32
418.26	3040.36
418.45	3206.53
418.64	3335.26
418.83	3293.13
419.02	3272.07
419.21	3321.22
419.39	3190.15
419.58	3166.74
419.77	3199.51
419.96	3311.86
420.15	3386.76
420.34	3274.41
420.53	3325.90
420.72	3466.33
420.91	3407.82
421.10	3574.00
421.29	3562.30
421.48	3503.78
421.67	3602.08
421.86	3489.74
422.05	3555.27
422.24	3550.59
422.43	3508.46
422.61	3569.32
422.80	3515.48
422.99	3524.85
423.18	3503.78
423.37	3557.61
423.56	3529.53
423.75	3515.48
423.94	3606.77
424.13	3431.23
424.32	3454.63
424.50	3702.73
424.69	3602.08
424.88	3632.51
425.07	3681.66
425.26	3569.32
425.45	3564.64
425.64	3609.11
425.83	3595.06
426.01	3639.53
426.20	3686.34
426.39	3705.07
426.58	3494.42
426.77	3557.61
426.96	3562.30
427.15	3588.04
427.33	3763.58
427.52	3646.55
427.71	3653.58
427.90	3911.04
428.09	3749.54
428.28	3712.09
428.46	3838.48
428.65	3801.03
428.84	3885.29
429.03	3889.97
429.22	3754.22
429.40	3786.99
429.59	3899.33
429.78	3794.01
429.97	3691.02
430.16	3761.24
430.34	3726.13
430.53	3852.52
430.72	3887.63
430.91	4011.68
431.10	3908.69
431.28	4243.39
431.47	4208.28
431.66	4051.47
431.85	4189.56
432.03	4351.06
432.22	4376.80
432.41	4241.05
432.60	4327.65
432.79	4154.45
432.97	4369.78
433.16	4414.25
433.35	4184.88
433.54	4191.90
433.72	4184.88
433.91	4280.84
434.10	4435.32
434.28	4400.21
434.47	4416.59
434.66	4617.88
434.85	4615.54
435.03	4610.86
435.22	4451.70
435.41	4758.31
435.59	4613.20
435.78	4573.41
435.97	4676.39
436.16	4678.73
436.34	4578.09
436.53	4561.70
436.72	4933.85
436.90	4587.45
437.09	4660.01
437.28	4655.33
437.46	4617.88
437.65	4634.26
437.84	4645.96
438.02	4547.66
438.21	4765.33
438.40	4709.16
438.58	4873.00
438.77	4880.02
438.96	5015.77
439.14	5088.32
439.33	5144.50
439.52	5280.25
439.70	5142.16
439.89	5114.07
440.08	5198.33
440.26	5121.09
440.45	5226.42
440.63	5310.68
440.82	5488.56
441.01	5350.46
441.19	5413.66
441.38	5638.35
441.57	5603.24
441.75	5603.24
441.94	5650.05
442.12	5659.42
442.31	5717.93
442.50	5699.20
442.68	5806.87
442.87	5668.78
443.05	5724.95
443.24	5937.94
443.43	5998.79
443.61	5914.53
443.80	6029.22
443.98	5776.44
444.17	5551.75
444.35	5867.72
444.54	5984.75
444.73	5907.51
444.91	5884.11
445.10	5863.04
445.28	5937.94
445.47	5951.98
445.65	6012.84
445.84	5886.45
446.02	6097.10
446.21	5942.62
446.39	5996.45
446.58	6176.67
446.77	6218.80
446.95	6003.47
447.14	6139.23
447.32	6064.33
447.51	6090.07
447.69	6141.57
447.88	5996.45
448.06	6209.44
448.25	6118.16
448.43	6139.23
448.62	6211.78
448.80	6017.52
448.99	6132.20
449.17	6263.27
449.36	6289.02
449.54	6363.92
449.73	6326.47
449.91	6574.56
450.10	6349.87
450.28	6509.03
450.46	6574.56
450.65	6452.86
450.83	6593.29
451.02	6361.58
451.20	6502.01
451.39	6569.88
451.57	6504.35
451.76	6434.13
451.94	6602.65
452.13	6644.78
452.31	6630.74
452.49	6539.46
452.68	6562.86
452.86	6539.46
453.05	6689.25
453.23	6855.43
453.42	6696.27
453.60	6679.89
453.78	6736.06
453.97	6574.56
454.15	6822.66
454.34	6740.74
454.52	6750.10
454.70	6878.83
454.89	6836.70
455.07	7026.29
455.26	7105.87
455.44	7047.35
455.62	6974.80
455.81	6963.09
455.99	7232.26
456.17	7112.89
456.36	7187.79
456.54	7307.15
456.73	7321.20
456.91	7166.72
457.09	7300.13
457.28	7627.81
457.46	7426.52
457.64	7321.20
457.83	7389.07
458.01	7297.79
458.19	7611.42
458.38	7524.82
458.56	7625.47
458.74	7796.32
458.93	7578.65
459.11	7637.17
459.29	7545.89
459.48	7592.70
459.66	7564.61
459.84	7833.77
460.03	7992.93
460.21	7672.28
460.39	7730.79
460.57	7583.34
460.76	7962.50
460.94	7906.33
461.12	7850.16
461.31	7801.01
461.49	7960.16
461.67	7831.43
461.85	8086.55
462.04	7908.67
462.22	8133.36
462.40	8182.51
462.59	8028.04
462.77	8187.19
462.95	8126.34
463.13	8184.85
463.32	8184.85
463.50	8107.62
463.68	8362.73
463.86	8236.35
464.05	8035.06
464.23	8035.06
464.41	8109.96
464.59	8198.90
464.78	8439.97
464.96	8381.46
465.14	8203.58
465.32	8313.58
465.50	8355.71
465.69	8582.74
465.87	8344.01
466.05	8521.89
466.23	8365.07
466.41	8456.36
466.60	8791.05
466.78	8276.13
466.96	8379.12
467.14	8524.23
467.32	8643.60
467.51	8531.25
467.69	8648.28
467.87	8503.17
468.05	8748.92
468.23	8697.43
468.41	8641.26
468.60	8685.73
468.78	8889.35
468.96	8816.80
469.14	9060.21
469.32	8879.99
469.50	8828.50
469.69	8971.27
469.87	9015.74
470.05	9083.62
470.23	8966.59
470.41	9046.17
470.59	9179.58
470.77	8898.72
470.95	9193.62
471.14	9425.34
471.32	8978.30
471.50	9448.74
471.68	9369.16
471.86	9486.19
472.04	9504.92
472.22	9551.73
472.40	9312.99
472.58	9551.73
472.77	9626.62
472.95	9638.33
473.13	10171.97
473.31	9713.22
473.49	9717.90
473.67	9715.56
473.85	9806.84
474.03	10253.89
474.21	10073.67
474.39	10267.93
474.57	9980.04
474.75	10286.65
474.93	10471.56
475.12	10333.47
475.30	10298.36
475.48	10108.77
475.66	10361.55
475.84	10317.08
476.02	10450.49
476.20	10480.92
476.38	10513.69
476.56	10817.96
476.74	10651.78
476.92	10796.89
477.10	10853.06
477.28	11192.44
477.46	11166.70
477.64	11094.14
477.82	11639.48
478.00	11410.11
478.18	11452.24
478.36	11672.25
478.54	11789.28
478.72	11716.72
478.90	11845.45
479.08	11798.64
479.26	12002.27
479.44	12262.07
479.62	11992.90
479.80	12208.23
479.98	12465.69
480.16	12830.82
480.34	12453.99
480.52	12556.97
480.70	12706.77
480.88	12578.04
481.06	12889.33
481.24	12980.61
481.41	13036.78
481.59	13252.11
481.77	13184.24
481.95	13224.03
482.13	13355.10
482.31	13408.93
482.49	13549.36
482.67	13678.09
482.85	13750.65
483.03	13879.38
483.21	13996.40
483.39	14085.34
483.57	14209.39
483.74	14136.84
483.92	14401.32
484.10	14527.71
484.28	14490.26
484.46	14808.57
484.64	15012.20
484.82	14721.97
485.00	15091.77
485.18	14874.10
485.35	15379.66
485.53	15068.37
485.71	14995.81
485.89	15325.83
486.07	15159.65
486.25	15751.81
486.43	15878.19
486.61	15779.89
486.78	16081.82
486.96	16147.36
487.14	16402.47
487.32	16685.68
487.50	16545.25
487.68	16959.52
487.85	16851.86
488.03	17020.38
488.21	17064.85
488.39	17160.81
488.57	17387.84
488.75	17275.49
488.92	17554.02
489.10	17706.15
489.28	17752.96
489.46	18127.45
489.64	18106.38
489.81	18527.68
489.99	18714.92
490.17	18780.46
490.35	18635.35
490.53	18799.18
490.70	18944.30
490.88	18941.96
491.06	19389.00
491.24	19419.42
491.41	19508.37
491.59	19208.78
491.77	19487.30
491.95	19763.48
492.13	19850.08
492.30	19974.13
492.48	20077.12
492.66	19761.14
492.84	19960.09
493.01	20812.04
493.19	20552.24
493.37	20620.12
493.54	20709.06
493.72	20964.18
493.90	21008.65
494.08	21214.62
494.25	21605.49
494.43	21486.12
494.61	21675.70
494.79	21612.51
494.96	21715.49
495.14	21242.70
495.32	22120.40
495.49	21858.26
495.67	21525.91
495.85	22464.46
496.02	22614.26
496.20	22621.28
496.38	22824.90
496.55	22750.01
496.73	23278.97
496.91	22878.74
497.09	22883.42
497.26	23201.73
497.44	23293.01
497.62	23491.96
497.79	23747.08
497.97	23178.33
498.14	23744.73
498.32	23634.73
498.50	23686.22
498.67	24259.65
498.85	24173.05
499.03	24114.54
499.20	24301.78
499.38	24510.09
499.56	24671.59
499.73	24851.81
499.91	24842.45
500.08	24793.29
500.26	24886.92
500.44	24774.57
500.61	24624.78
500.79	25055.43
500.97	25092.88
501.14	25132.67
501.32	25605.46
501.49	25144.38
501.67	25352.68
501.84	25418.22
502.02	25886.32
502.20	26022.08
502.37	25771.64
502.55	25839.51
502.72	26127.40
502.90	26274.85
503.07	25671.00
503.25	26029.10
503.43	26258.47
503.60	26452.73
503.78	26244.43
503.95	26345.07
504.13	26647.00
504.30	26829.56
504.48	26934.88
504.65	27065.96
504.83	26824.88
505.01	27143.19
505.18	27105.74
505.36	27725.99
505.53	27363.20
505.71	27442.78
505.88	27700.24
506.06	27606.62
506.23	28023.23
506.41	27559.81
506.58	27955.36
506.76	27814.93
506.93	27999.83
507.11	28100.47
507.28	28009.19
507.46	28046.64
507.63	28060.68
507.81	28189.41
507.98	28198.77
508.16	28664.54
508.33	28489.00
508.50	28369.63
508.68	28580.28
508.85	29205.20
509.03	29022.64
509.20	28936.04
509.38	29266.06
509.55	29546.92
509.73	29614.80
509.90	29130.31
510.08	29415.85
510.25	29481.39
510.42	29366.70
510.60	30153.12
510.77	29750.55
510.95	30024.39
511.12	29780.98
511.30	30242.06
511.47	30316.96
511.64	30513.56
511.82	30756.98
511.99	30387.18
512.17	30309.94
512.34	30536.97
512.51	30305.26
512.69	30443.35
512.86	30513.56
513.04	31316.37
513.21	30771.02
513.38	31023.80
513.56	31087.00
513.73	30738.26
513.90	30965.29
514.08	30829.54
514.25	31143.17
514.43	31175.94
514.60	31531.70
514.77	31744.69
514.95	31529.36
515.12	31316.37
515.29	31536.38
515.47	31990.44
515.64	32023.21
515.81	31732.98
515.99	31398.29
516.16	31852.35
516.33	31950.65
516.51	32182.37
516.68	31208.70
516.85	31651.06
517.03	31894.48
517.20	32224.50
517.37	32088.74
517.54	32589.62
517.72	32409.40
517.89	32350.88
518.06	32105.13
518.24	32400.04
518.41	32505.36
518.58	33036.66
518.75	32613.02
518.93	32809.63
519.10	32924.32
519.27	32907.93
519.45	33174.75
519.62	33291.78
519.79	33752.87
519.96	33352.63
520.14	33415.83
520.31	33188.80
520.48	33254.33
520.65	33612.43
520.83	33984.58
521.00	33968.19
521.17	33675.63
521.34	33907.34
521.52	33874.57
521.69	34258.42
521.86	34094.58
522.03	34113.31
522.20	34607.16
522.38	34134.37
522.55	34455.03
522.72	34445.66
522.89	34532.26
523.07	34705.46
523.24	34092.24
523.41	34637.59
523.58	34916.11
523.75	35321.02
523.92	34782.70
524.10	35395.92
524.27	35351.45
524.44	35243.79
524.61	35321.02
524.78	35428.69
524.96	35505.93
525.13	35639.34
525.30	35594.87
525.47	35751.68
525.64	35414.65
525.81	35861.69
525.98	36011.48
526.16	35271.87
526.33	35519.97
526.50	35721.26
526.67	35564.44
526.84	35662.74
527.01	35622.95
527.18	35828.92
527.36	36453.84
527.53	36114.47
527.70	35976.37
527.87	36514.70
528.04	36465.55
528.21	35880.41
528.38	36329.80
528.55	36652.79
528.72	36627.04
528.89	36788.54
529.07	37043.66
529.24	36252.56
529.41	36685.56
529.58	36662.15
529.75	36641.09
529.92	37160.69
530.09	36383.63
530.26	36636.41
530.43	37125.58
530.60	36924.29
530.77	37015.57
530.94	37261.33
531.11	36725.35
531.28	37521.13
531.46	37631.13
531.63	37528.15
531.80	37212.18
531.97	37518.79
532.14	37331.54
532.31	37291.76
532.48	37633.47
532.65	37860.51
532.82	37773.91
532.99	38085.20
533.16	37820.72
533.33	37963.49
533.50	37809.01
533.67	38312.23
533.84	37593.68
534.01	38003.28
534.18	37722.41
534.35	38408.19
534.52	38272.44
534.69	38047.75
534.86	38277.12
535.03	38401.17
535.20	38249.03
535.37	38696.08
535.54	38759.27
535.71	38604.80
535.88	38817.78
536.05	38808.42
536.22	38667.99
536.38	38642.24
536.55	38424.57
536.72	38653.95
536.89	38447.98
537.06	38988.64
537.23	39040.14
537.40	38724.16
537.57	39374.83
537.74	38965.24
537.91	38967.58
538.08	38852.89
538.25	38960.56
538.42	38646.93
538.59	39388.88
538.75	39023.75
538.92	39126.74
539.09	39833.58
539.26	39473.13
539.43	39309.30
539.60	39693.15
539.77	39084.61
539.94	39405.26
540.11	39243.76
540.28	39681.44
540.44	39442.71
540.61	39576.12
540.78	39730.59
540.95	39552.71
541.12	39590.16
541.29	39442.71
541.46	39674.42
541.62	40119.12
541.79	40350.84
541.96	39552.71
542.13	39859.32
542.30	40201.04
542.47	40318.07
542.63	39861.66
542.80	40273.60
542.97	40924.27
543.14	40603.61
543.31	40561.48
543.48	40622.34
543.64	41071.72
543.81	41074.06
543.98	40828.30
544.15	40638.72
544.32	40741.71
544.48	41158.32
544.65	41284.71
544.82	41181.73
544.99	40467.86
545.16	41200.45
545.32	40692.55
545.49	40978.10
545.66	41783.24
545.83	41411.10
546.00	41392.37
546.16	41055.34
546.33	40821.28
546.50	40587.23
546.67	41228.54
546.83	40739.36
547.00	41247.26
547.17	41249.60
547.34	41598.34
547.50	41280.03
547.67	41762.18
547.84	41729.41
548.00	41907.29
548.17	42185.82
548.34	41811.33
548.51	41816.01
548.67	42050.06
548.84	41808.99
549.01	41378.33
549.18	41558.55
549.34	41727.07
549.51	42337.95
549.68	42110.92
549.84	41893.25
550.01	41839.42
550.18	42000.91
550.34	41923.68
550.51	42230.29
550.68	42513.49
550.84	42337.95
551.01	42141.35
551.18	42164.75
551.34	42106.24
551.51	42478.38
551.68	42270.08
551.84	42356.67
552.01	42251.35
552.18	42415.19
552.34	42021.98
552.51	42616.47
552.68	42272.42
552.84	42337.95
553.01	42588.39
553.18	42569.66
553.34	42616.47
553.51	42157.73
553.67	42564.98
553.84	42485.40
554.01	42770.95
554.17	42948.83
554.34	42834.14
554.51	42834.14
554.67	42836.48
554.84	42604.77
555.00	42892.66
555.17	43000.32
555.33	43309.27
555.50	42742.86
555.67	43372.47
555.83	43105.65
556.00	42930.11
556.16	43501.20
556.33	43105.65
556.50	42775.63
556.66	43555.03
556.83	43213.31
556.99	42965.21
557.16	43456.73
557.32	42859.89
557.49	43143.09
557.65	42777.97
557.82	43105.65
557.98	43260.12
558.15	43503.54
558.32	43337.36
558.48	43370.13
558.65	43285.87
558.81	43365.45
558.98	43524.60
559.14	43384.17
559.31	43122.03
559.47	43292.89
559.64	44140.16
559.80	43725.89
559.97	43423.96
560.13	43604.18
560.30	43459.07
560.46	42843.51
560.63	43894.41
560.79	43985.69
560.96	43714.19
561.12	43512.90
561.29	43583.12
561.45	43763.34
561.61	43641.63
561.78	43519.92
561.94	43683.76
562.11	44367.20
562.27	43828.87
562.44	43906.11
562.60	44081.65
562.77	43732.91
562.93	43697.80
563.10	43847.60
563.26	43697.80
563.42	43779.72
563.59	43337.36
563.75	43283.53
563.92	43831.21
564.08	44009.09
564.24	43931.86
564.41	44091.01
564.57	43517.58
564.74	43983.35
564.90	43667.37
565.07	43938.88
565.23	44116.76
565.39	43739.93
565.56	44458.48
565.72	43639.29
565.88	43992.71
566.05	43555.03
566.21	44023.14
566.38	44060.58
566.54	44378.90
566.70	44561.46
566.87	44414.01
567.03	44444.43
567.19	44666.78
567.36	44044.20
567.52	43697.80
567.68	44179.95
567.85	44177.61
568.01	44470.18
568.17	44250.17
568.34	44479.54
568.50	44149.53
568.66	43957.60
568.83	43945.90
568.99	43995.05
569.15	43697.80
569.32	44133.14
569.48	44128.46
569.64	44390.60
569.81	44477.20
569.97	44201.02
570.13	44332.09
570.30	44027.82
570.46	44355.49
570.62	43683.76
570.78	43817.17
570.95	44002.07
571.11	44069.95
571.27	44062.93
571.43	44383.58
571.60	44465.50
571.76	44179.95
571.92	44720.62
572.09	43981.01
572.25	44299.32
572.41	44484.22
572.57	44079.31
572.74	44839.98
572.90	44404.64
573.06	44409.32
573.22	44353.15
573.38	44140.16
573.55	44287.62
573.71	44898.50
573.87	44521.67
574.03	44608.27
574.20	44451.45
574.36	44282.94
574.52	44109.74
574.68	44692.53
574.84	44275.91
575.01	44414.01
575.17	44765.09
575.33	43957.60
575.49	44449.11
575.65	44013.77
575.82	44706.57
575.98	44313.36
576.14	44858.71
576.30	44657.42
576.46	44570.82
576.62	44729.98
576.79	44566.14
576.95	44641.04
577.11	44612.95
577.27	44645.72
577.43	44692.53
577.59	44666.78
577.75	44327.41
577.92	43828.87
578.08	44320.38
578.24	44776.79
578.40	44350.81
578.56	44463.16
578.72	44807.22
578.88	44781.47
579.04	44842.32
579.21	45109.14
579.37	44215.06
579.53	44486.56
579.69	44512.31
579.85	44516.99
580.01	44678.49
580.17	44694.87
580.33	44875.09
580.49	44851.69
580.65	44678.49
580.82	45001.48
580.98	44240.81
581.14	44538.05
581.30	44594.23
581.46	44385.92
581.62	44760.40
581.78	44385.92
581.94	44884.45
582.10	44364.85
582.26	44598.91
582.42	44987.44
582.58	44292.30
582.74	44205.70
582.90	44568.48
583.06	44746.36
583.22	44638.70
583.38	44690.19
583.54	45261.28
583.70	44896.16
583.86	44505.29
584.02	44245.49
584.18	44839.98
584.34	44399.96
584.50	44643.38
584.66	44748.70
584.82	44729.98
584.98	44828.28
585.14	44800.19
585.30	44381.24
585.46	44329.75
585.62	45457.88
585.78	44690.19
585.94	44023.14
586.10	44519.33
586.26	44519.33
586.42	44692.53
586.58	45301.07
586.74	44493.58
586.90	44783.81
587.06	44364.85
587.22	44755.72
587.38	44182.29
587.54	44690.19
587.70	44830.62
587.86	44966.37
588.02	44905.52
588.18	44612.95
588.34	44830.62
588.49	44406.98
588.65	44091.01
588.81	44364.85
588.97	44334.43
589.13	44282.94
589.29	44921.90
589.45	44421.03
589.61	44587.21
589.77	45095.10
589.93	44961.69
590.08	45326.81
590.24	44645.72
