SpectraSuite Data File
++++++++++++++++++++++++++++++++++++
Date: Fri Oct 25 10:47:27 EDT 2013
User: price-jones
Dark Spectrum Present: No
Reference Spectrum Present: No
Number of Sampled Component Spectra: 1
Spectrometers: USB2+H05261
Integration Time (usec): 100000 (USB2+H05261)
Spectra Averaged: 1 (USB2+H05261)
Boxcar Smoothing: 0 (USB2+H05261)
Correct for Electrical Dark: No (USB2+H05261)
Strobe/Lamp Enabled: No (USB2+H05261)
Correct for Detector Non-linearity: No (USB2+H05261)
Correct for Stray Light: No (USB2+H05261)
Number of Pixels in Processed Spectrum: 2048
>>>>>Begin Processed Spectral Data<<<<<
365.73	147.45
365.92	147.45
366.12	147.45
366.32	32.77
366.52	2.34
366.72	42.13
366.91	0.00
367.11	0.00
367.31	0.00
367.51	0.00
367.70	4.68
367.90	88.94
368.10	9.36
368.30	11.70
368.49	39.79
368.69	88.94
368.89	44.47
369.09	0.00
369.28	23.41
369.48	88.94
369.68	131.07
369.87	133.41
370.07	65.54
370.27	124.05
370.47	159.16
370.66	271.50
370.86	372.15
371.06	369.80
371.25	423.64
371.45	454.06
371.65	400.23
371.84	423.64
372.04	454.06
372.24	503.22
372.44	346.40
372.63	468.11
372.83	451.72
373.03	493.85
373.22	526.62
373.42	526.62
373.62	543.00
373.81	547.69
374.01	594.50
374.21	470.45
374.40	491.51
374.60	564.07
374.79	491.51
374.99	603.86
375.19	493.85
375.38	582.79
375.58	629.60
375.78	578.11
375.97	554.71
376.17	573.43
376.37	606.20
376.56	582.79
376.76	585.13
376.95	617.90
377.15	613.22
377.35	505.56
377.54	660.03
377.74	615.56
377.93	610.88
378.13	699.82
378.33	671.73
378.52	535.98
378.72	585.13
378.91	592.16
379.11	596.84
379.31	678.76
379.50	587.47
379.70	676.41
379.89	674.07
380.09	594.50
380.28	692.80
380.48	636.63
380.68	662.37
380.87	631.94
381.07	683.44
381.26	676.41
381.46	589.82
381.65	650.67
381.85	660.03
382.04	620.24
382.24	674.07
382.43	748.97
382.63	660.03
382.83	753.65
383.02	706.84
383.22	732.59
383.41	695.14
383.61	723.23
383.80	664.71
384.00	737.27
384.19	767.70
384.39	730.25
384.58	681.10
384.78	730.25
384.97	753.65
385.17	725.57
385.36	816.85
385.56	704.50
385.75	678.76
385.95	774.72
386.14	779.40
386.34	770.04
386.53	781.74
386.72	753.65
386.92	772.38
387.11	772.38
387.31	814.51
387.50	748.97
387.70	894.08
387.89	851.96
388.09	898.77
388.28	854.30
388.48	814.51
388.67	847.27
388.86	929.19
389.06	847.27
389.25	805.14
389.45	870.68
389.64	777.06
389.84	959.62
390.03	943.24
390.22	919.83
390.42	889.40
390.61	849.61
390.81	980.68
391.00	884.72
391.19	1008.77
391.39	1039.20
391.58	978.34
391.78	985.37
391.97	992.39
392.16	978.34
392.36	1055.58
392.55	1036.86
392.75	919.83
392.94	908.13
393.13	983.02
393.33	931.53
393.52	1118.78
393.71	1020.47
393.91	1013.45
394.10	1011.11
394.29	1055.58
394.49	978.34
394.68	1118.78
394.88	1020.47
395.07	1074.31
395.26	1132.82
395.46	1118.78
395.65	1153.88
395.84	1156.22
396.04	1123.46
396.23	1160.91
396.42	1210.06
396.62	1067.28
396.81	1132.82
397.00	1090.69
397.19	1207.72
397.39	1198.35
397.58	1167.93
397.77	1121.12
397.97	1343.47
398.16	1247.51
398.35	1219.42
398.55	1238.14
398.74	1301.34
398.93	1366.87
399.12	1277.93
399.32	1196.01
399.51	1277.93
399.70	1373.89
399.90	1320.06
400.09	1364.53
400.28	1418.36
400.47	1387.94
400.67	1373.89
400.86	1362.19
401.05	1366.87
401.24	1390.28
401.44	1451.13
401.63	1509.65
401.82	1394.96
402.01	1469.86
402.21	1490.92
402.40	1479.22
402.59	1420.71
402.78	1519.01
402.97	1425.39
403.17	1549.43
403.36	1680.50
403.55	1589.22
403.74	1647.74
403.93	1614.97
404.13	1701.57
404.32	1706.25
404.51	1619.65
404.70	1675.82
404.89	1629.01
405.09	1631.35
405.28	1680.50
405.47	1736.68
405.66	1746.04
405.85	1732.00
406.05	1591.56
406.24	1830.30
406.43	1736.68
406.62	1860.73
406.81	1893.49
407.00	1898.17
407.20	1778.81
407.39	1834.98
407.58	1809.23
407.77	1902.86
407.96	1930.94
408.15	1973.07
408.34	1952.01
408.54	1895.83
408.73	1923.92
408.92	1933.28
409.11	1970.73
409.30	1994.14
409.49	1966.05
409.68	1968.39
409.87	2033.93
410.07	1905.20
410.26	2083.08
410.45	2085.42
410.64	2136.91
410.83	2174.36
411.02	2216.49
411.21	2190.74
411.40	2286.70
411.59	2214.15
411.78	2228.19
411.98	2293.72
412.17	2363.94
412.36	2289.04
412.55	2319.47
412.74	2462.24
412.93	2401.39
413.12	2380.32
413.31	2586.29
413.50	2450.54
413.69	2487.99
413.88	2504.37
414.07	2471.61
414.26	2633.10
414.45	2609.70
414.64	2560.55
414.83	2656.51
415.02	2677.57
415.22	2670.55
415.41	2656.51
415.60	2715.02
415.79	2759.49
415.98	2750.13
416.17	2869.50
416.36	2658.85
416.55	2738.43
416.74	2944.39
416.93	2787.58
417.12	2979.50
417.31	2836.73
417.50	2932.69
417.69	3035.67
417.88	3056.74
418.07	2864.82
418.26	2972.48
418.45	3110.57
418.64	3150.36
418.83	3082.49
419.02	3023.97
419.21	3119.93
419.39	3173.77
419.58	3141.00
419.77	3108.23
419.96	3274.41
420.15	3213.56
420.34	3283.77
420.53	3311.86
420.72	3304.84
420.91	3337.60
421.10	3302.50
421.29	3375.05
421.48	3269.73
421.67	3438.25
421.86	3274.41
422.05	3365.69
422.24	3286.11
422.43	3391.44
422.61	3400.80
422.80	3506.12
422.99	3421.86
423.18	3314.20
423.37	3531.87
423.56	3421.86
423.75	3550.59
423.94	3482.72
424.13	3311.86
424.32	3368.03
424.50	3503.78
424.69	3604.42
424.88	3508.46
425.07	3583.36
425.26	3417.18
425.45	3351.65
425.64	3393.78
425.83	3400.80
426.01	3471.01
426.20	3543.57
426.39	3473.36
426.58	3417.18
426.77	3545.91
426.96	3482.72
427.15	3660.60
427.33	3583.36
427.52	3667.62
427.71	3674.64
427.90	3810.39
428.09	3838.48
428.28	3674.64
428.46	3770.60
428.65	3627.83
428.84	3740.18
429.03	3871.25
429.22	3786.99
429.40	3672.30
429.59	3796.35
429.78	3616.13
429.97	3475.70
430.16	3660.60
430.34	3747.20
430.53	3747.20
430.72	3824.44
430.91	3936.78
431.10	3850.18
431.28	4072.53
431.47	4100.62
431.66	4142.75
431.85	4016.36
432.03	4100.62
432.22	4173.18
432.41	3978.91
432.60	4161.47
432.79	4327.65
432.97	4294.88
433.16	4154.45
433.35	3960.19
433.54	4161.47
433.72	4248.07
433.91	4250.41
434.10	4234.03
434.28	4248.07
434.47	4208.28
434.66	4390.84
434.85	4376.80
435.03	4444.68
435.22	4306.59
435.41	4386.16
435.59	4561.70
435.78	4510.21
435.97	4592.13
436.16	4493.83
436.34	4550.00
436.53	4575.75
436.72	4627.24
436.90	4601.49
437.09	4643.62
437.28	4491.49
437.46	4486.81
437.65	4566.39
437.84	4676.39
438.02	4594.47
438.21	4535.96
438.40	4739.58
438.58	4868.31
438.77	4938.53
438.96	4739.58
439.14	4926.83
439.33	4896.40
439.52	4938.53
439.70	4884.70
439.89	5078.96
440.08	5158.54
440.26	4945.55
440.45	5172.58
440.63	5139.82
440.82	5334.08
441.01	5125.77
441.19	5453.45
441.38	5366.85
441.57	5357.49
441.75	5516.64
441.94	5584.52
442.12	5502.60
442.31	5437.06
442.50	5528.35
442.68	5455.79
442.87	5530.69
443.05	5544.73
443.24	5741.33
443.43	5724.95
443.61	5626.65
443.80	5849.00
443.98	5401.96
444.17	5533.03
444.35	5699.20
444.54	5921.56
444.73	5858.36
444.91	5675.80
445.10	5664.10
445.28	5706.23
445.47	5832.62
445.65	5706.23
445.84	5706.23
446.02	5832.62
446.21	5872.40
446.39	5689.84
446.58	5884.11
446.77	5940.28
446.95	5809.21
447.14	5947.30
447.32	5900.49
447.51	5790.49
447.69	5818.57
447.88	5776.44
448.06	5937.94
448.25	6033.90
448.43	6059.65
448.62	5816.23
448.80	5907.51
448.99	5970.71
449.17	5919.21
449.36	5886.45
449.54	6340.51
449.73	6111.14
449.91	6333.49
450.10	6368.60
450.28	6263.27
450.46	6338.17
450.65	6136.88
450.83	6202.42
451.02	6282.00
451.20	6413.07
451.39	6282.00
451.57	6265.61
451.76	6356.90
451.94	6363.92
452.13	6396.68
452.31	6377.96
452.49	6202.42
452.68	6326.47
452.86	6277.32
453.05	6356.90
453.23	6551.16
453.42	6506.69
453.60	6567.54
453.78	6693.93
453.97	6399.02
454.15	6328.81
454.34	6588.61
454.52	6640.10
454.70	6761.81
454.89	6597.97
455.07	6715.00
455.26	6679.89
455.44	6958.41
455.62	6803.94
455.81	6759.47
455.99	6892.88
456.17	6801.60
456.36	6822.66
456.54	7084.80
456.73	7075.44
456.91	7117.57
457.09	7089.48
457.28	7047.35
457.46	7208.85
457.64	7136.29
457.83	7265.02
458.01	7042.67
458.19	7262.68
458.38	7075.44
458.56	7241.62
458.74	7070.76
458.93	7265.02
459.11	7344.60
459.29	7368.01
459.48	7517.80
459.66	7463.97
459.84	7400.77
460.03	7595.04
460.21	7506.10
460.39	7459.29
460.57	7342.26
460.76	7442.90
460.94	7616.10
461.12	7639.51
461.31	7641.85
461.49	7712.07
461.67	7616.10
461.85	7815.05
462.04	7808.03
462.22	8344.01
462.40	7950.80
462.59	7808.03
462.77	7847.82
462.95	7925.05
463.13	7756.54
463.32	7880.58
463.50	7943.78
463.68	8046.76
463.86	8098.25
464.05	8004.63
464.23	7887.61
464.41	8098.25
464.59	7772.92
464.78	8138.04
464.96	8028.04
465.14	8098.25
465.32	8245.71
465.50	8528.91
465.69	8212.94
465.87	8131.02
466.05	8226.98
466.23	8219.96
466.41	8184.85
466.60	8470.40
466.78	8210.60
466.96	8252.73
467.14	8278.47
467.32	8198.90
467.51	8444.65
467.69	8280.82
467.87	8355.71
468.05	8589.77
468.23	8388.48
468.41	8592.11
468.60	8386.14
468.78	8528.91
468.96	8444.65
469.14	8592.11
469.32	8690.41
469.50	8311.24
469.69	8856.59
469.87	8662.32
470.05	8823.82
470.23	8664.66
470.41	8741.90
470.59	9076.60
470.77	8662.32
470.95	8931.48
471.14	9308.31
471.32	8879.99
471.50	9423.00
471.68	9217.03
471.86	9308.31
472.04	9135.11
472.22	9291.93
472.40	8961.91
472.58	9359.80
472.77	9291.93
472.95	9481.51
473.13	9804.50
473.31	9434.70
473.49	9479.17
473.67	9591.52
473.85	9612.58
474.03	9778.76
474.21	9820.89
474.39	9795.14
474.57	9708.54
474.75	10076.01
474.93	9935.57
475.12	9856.00
475.30	10167.29
475.48	9935.57
475.66	10211.76
475.84	10167.29
476.02	10104.09
476.20	10403.68
476.38	10541.77
476.56	10820.30
476.74	10574.54
476.92	10478.58
477.10	10544.11
477.28	10993.50
477.46	11033.29
477.64	11019.24
477.82	10991.16
478.00	11218.19
478.18	11035.63
478.36	11178.40
478.54	11545.86
478.72	11321.17
478.90	11721.40
479.08	11765.87
479.26	11756.51
479.44	11808.00
479.62	11875.88
479.80	11838.43
479.98	11854.81
480.16	12507.82
480.34	12166.10
480.52	12266.75
480.70	12131.00
480.88	12266.75
481.06	12482.08
481.24	12528.89
481.41	12641.23
481.59	12786.35
481.77	12809.75
481.95	12922.10
482.13	12901.03
482.31	12975.93
482.49	13209.98
482.67	13205.30
482.85	13570.43
483.03	13865.33
483.21	13811.50
483.39	13687.45
483.57	13881.72
483.74	13752.99
483.92	13937.89
484.10	13867.67
484.28	14214.07
484.46	14391.95
484.64	14520.68
484.82	14291.31
485.00	14647.07
485.18	14981.77
485.35	15054.33
485.53	14757.08
485.71	14860.06
485.89	15243.91
486.07	15178.37
486.25	15178.37
486.43	15709.68
486.61	15524.77
486.78	15648.82
486.96	15882.88
487.14	16233.96
487.32	15990.54
487.50	16121.61
487.68	16470.35
487.85	16556.95
488.03	16744.19
488.21	16556.95
488.39	16727.81
488.57	16739.51
488.75	16915.05
488.92	17226.34
489.10	17219.32
489.28	17458.06
489.46	17706.15
489.64	17640.62
489.81	18286.61
489.99	17942.55
490.17	18059.57
490.35	18471.51
490.53	18228.09
490.70	18771.10
490.88	18691.52
491.06	18700.88
491.24	18878.76
491.41	18808.54
491.59	18860.04
491.77	19023.87
491.95	19161.97
492.13	19580.92
492.30	19529.43
492.48	19894.55
492.66	19293.04
492.84	19756.46
493.01	20002.22
493.19	20142.65
493.37	20053.71
493.54	20130.95
493.72	20786.30
493.90	20788.64
494.08	20662.25
494.25	20802.68
494.43	20886.94
494.61	20989.92
494.79	21118.65
494.96	21202.91
495.14	21046.10
495.32	21247.38
495.49	21331.64
495.67	21593.78
495.85	22078.27
496.02	22111.04
496.20	22061.89
496.38	22209.34
496.55	22106.36
496.73	22672.77
496.91	22410.63
497.09	22136.79
497.26	22438.72
497.44	22750.01
497.62	22787.46
497.79	22672.77
497.97	22649.36
498.14	23147.90
498.32	23108.11
498.50	23049.60
498.67	23737.71
498.85	23695.58
499.03	23807.93
499.20	23676.86
499.38	23779.84
499.56	23924.96
499.73	23990.49
499.91	24053.69
500.08	24194.12
500.26	24189.44
500.44	24294.76
500.61	24662.22
500.79	24091.13
500.97	24582.65
501.14	24823.72
501.32	24938.41
501.49	24816.70
501.67	24992.24
501.84	25139.69
502.02	25242.68
502.20	25406.52
502.37	25249.70
502.55	25434.60
502.72	25469.71
502.90	25642.91
503.07	25472.05
503.25	25474.39
503.43	25769.30
503.60	25626.53
503.78	25972.92
503.95	25898.03
504.13	26103.99
504.30	26199.96
504.48	26274.85
504.65	26328.69
504.83	26740.62
505.01	26373.16
505.18	26684.45
505.36	26937.23
505.53	26529.97
505.71	27096.38
505.88	27255.54
506.06	26665.72
506.23	27112.77
506.41	27171.28
506.58	26962.97
506.76	27365.54
506.93	27758.75
507.11	27257.88
507.28	27517.68
507.46	27580.87
507.63	27700.24
507.81	27908.55
507.98	27819.61
508.16	27976.42
508.33	27826.63
508.50	28133.24
508.68	28063.02
508.85	28793.27
509.03	28273.67
509.20	28285.37
509.38	28779.23
509.55	28730.08
509.73	28559.22
509.90	28554.54
510.08	28739.44
510.25	28917.32
510.42	29284.78
510.60	29214.57
510.77	28954.77
510.95	29188.82
511.12	29441.60
511.30	29668.63
511.47	29551.60
511.64	29958.86
511.82	29895.66
511.99	29380.74
512.17	30099.29
512.34	29472.03
512.51	29902.68
512.69	30452.71
512.86	30068.86
513.04	30359.09
513.21	30216.32
513.38	30087.59
513.56	30099.29
513.73	30778.04
513.90	30604.84
514.08	30944.22
514.25	30600.16
514.43	30848.26
514.60	30785.07
514.77	30714.85
514.95	31157.21
515.12	31374.88
515.29	30962.95
515.47	31388.92
515.64	31477.86
515.81	31211.04
515.99	31442.76
516.16	31058.91
516.33	31887.46
516.51	31831.29
516.68	31051.89
516.85	31283.60
517.03	31260.20
517.20	31562.12
517.37	31522.34
517.54	32053.64
517.72	32027.89
517.89	31915.54
518.06	31740.00
518.24	31538.72
518.41	32355.57
518.58	32257.26
518.75	31826.60
518.93	32336.84
519.10	32598.98
519.27	32297.05
519.45	32559.19
519.62	32264.28
519.79	33111.56
519.96	32884.53
520.14	33390.08
520.31	32491.32
520.48	32968.79
520.65	33097.52
520.83	33134.96
521.00	33413.49
521.17	33172.41
521.34	33663.93
521.52	33670.95
521.69	33839.47
521.86	33439.23
522.03	33617.11
522.20	33062.41
522.38	34096.92
522.55	33998.62
522.72	33799.68
522.89	34356.72
523.07	34316.93
523.24	34141.39
523.41	34244.38
523.58	34171.82
523.75	34771.00
523.92	34443.32
524.10	34756.96
524.27	34843.56
524.44	34735.89
524.61	34593.12
524.78	35192.30
524.96	35044.84
525.13	34726.53
525.30	35070.59
525.47	35522.31
525.64	35129.10
525.81	34888.03
525.98	35065.91
526.16	35136.12
526.33	35086.97
526.50	35365.49
526.67	35239.11
526.84	35475.50
527.01	34586.10
527.18	34918.45
527.36	35632.32
527.53	35522.31
527.70	36205.75
527.87	35779.77
528.04	35871.05
528.21	35857.01
528.38	35999.78
528.55	36023.19
528.72	36245.54
528.89	36318.09
529.07	36053.61
529.24	35725.94
529.41	36130.85
529.58	36385.97
529.75	36259.58
529.92	36142.55
530.09	36587.25
530.26	37038.98
530.43	36519.38
530.60	36613.00
530.77	36495.97
530.94	36732.37
531.11	36547.47
531.28	36943.02
531.46	36882.16
531.63	37116.22
531.80	37137.28
531.97	36870.46
532.14	37034.30
532.31	36774.50
532.48	36828.33
532.65	37298.78
532.82	37258.99
532.99	37268.35
533.16	37324.52
533.33	37048.34
533.50	37780.93
533.67	37745.82
533.84	37228.56
534.01	37507.08
534.18	37418.14
534.35	37724.75
534.52	37801.99
534.69	37900.29
534.86	38000.94
535.03	37708.37
535.20	37801.99
535.37	38319.25
535.54	38080.52
535.71	38487.77
535.88	38188.18
536.05	37741.14
536.22	38284.14
536.38	38192.86
536.55	38071.15
536.72	38085.20
536.89	38293.50
537.06	38141.37
537.23	38014.98
537.40	38384.79
537.57	38672.67
537.74	38660.97
537.91	39014.39
538.08	38675.01
538.25	38452.66
538.42	38815.44
538.59	38866.94
538.75	38700.76
538.92	39000.35
539.09	38630.54
539.26	38986.30
539.43	39159.50
539.60	39477.82
539.77	38866.94
539.94	38967.58
540.11	38579.05
540.28	38778.00
540.44	38986.30
540.61	39381.85
540.78	38955.88
540.95	39182.91
541.12	38955.88
541.29	39274.19
541.46	39330.36
541.62	39370.15
541.79	39674.42
541.96	39225.04
542.13	39330.36
542.30	39339.72
542.47	39868.69
542.63	39517.60
542.80	39381.85
542.97	39966.99
543.14	40168.27
543.31	40041.88
543.48	40147.21
543.64	40271.26
543.81	40210.40
543.98	40313.39
544.15	40247.85
544.32	40271.26
544.48	40837.67
544.65	40580.21
544.82	40818.94
544.99	39686.12
545.16	40608.29
545.32	40790.86
545.49	41102.15
545.66	40779.15
545.83	40790.86
546.00	41088.10
546.16	40865.75
546.33	40767.45
546.50	40196.36
546.67	40612.98
546.83	40718.30
547.00	40861.07
547.17	41153.64
547.34	40924.27
547.50	40973.42
547.67	41060.02
547.84	40730.00
548.00	41312.80
548.17	41811.33
548.34	41109.17
548.51	41825.37
548.67	41254.28
548.84	41844.10
549.01	41350.24
549.18	41155.98
549.34	41280.03
549.51	41425.14
549.68	41696.64
549.84	41572.60
550.01	41731.75
550.18	41457.91
550.34	41759.84
550.51	41514.08
550.68	41181.73
550.84	41237.90
551.01	41979.85
551.18	41532.81
551.34	41944.74
551.51	41780.90
551.68	41715.37
551.84	42139.00
552.01	41603.02
552.18	41956.44
552.34	41500.04
552.51	42108.58
552.68	41996.23
552.84	42057.09
553.01	42628.18
553.18	42211.56
553.34	42192.84
553.51	41729.41
553.67	42143.69
553.84	42426.89
554.01	42476.04
554.17	42363.70
554.34	42536.90
554.51	42300.50
554.67	42820.10
554.84	42511.15
555.00	42581.37
555.17	42602.43
555.33	42616.47
555.50	42300.50
555.67	42747.54
555.83	42356.67
556.00	42766.27
556.16	42618.81
556.33	43208.63
556.50	42417.53
556.66	43283.53
556.83	42925.42
556.99	42822.44
557.16	42682.01
557.32	43363.11
557.49	42986.28
557.65	42911.38
557.82	42808.40
557.98	42672.65
558.15	42749.88
558.32	43140.75
558.48	43037.77
558.65	42843.51
558.81	42717.12
558.98	42691.37
559.14	43194.59
559.31	43325.66
559.47	43075.22
559.64	43749.29
559.80	43269.48
559.97	43166.50
560.13	42677.33
560.30	43374.81
560.46	43225.01
560.63	43171.18
560.79	43643.97
560.96	43423.96
561.12	43473.11
561.29	43416.94
561.45	43227.35
561.61	43454.39
561.78	43058.84
561.94	43166.50
562.11	43613.54
562.27	43456.73
562.44	43473.11
562.60	43625.25
562.77	43906.11
562.93	43166.50
563.10	43735.25
563.26	43180.54
563.42	43583.12
563.59	43636.95
563.75	43800.79
563.92	43662.69
564.08	43545.67
564.24	43777.38
564.41	43194.59
564.57	43494.18
564.74	43945.90
564.90	43522.26
565.07	43730.57
565.23	43842.92
565.39	43524.60
565.56	43636.95
565.72	43569.07
565.88	43732.91
566.05	43531.62
566.21	43540.99
566.38	43803.13
566.54	43438.00
566.70	43817.17
566.87	44177.61
567.03	43597.16
567.19	44266.55
567.36	43873.34
567.52	44069.95
567.68	44102.71
567.85	43674.40
568.01	44203.36
568.17	43627.59
568.34	43739.93
568.50	44144.84
568.66	43634.61
568.83	43985.69
568.99	43597.16
569.15	43826.53
569.32	43779.72
569.48	44037.18
569.64	44268.89
569.81	44058.24
569.97	43931.86
570.13	44076.97
570.30	43840.57
570.46	43793.76
570.62	43629.93
570.78	43739.93
570.95	43587.80
571.11	44116.76
571.27	43999.73
571.43	44079.31
571.60	44154.21
571.76	43599.50
571.92	43838.23
572.09	43742.27
572.25	44259.53
572.41	43936.54
572.57	43838.23
572.74	44528.69
572.90	44100.37
573.06	44079.31
573.22	44119.10
573.38	44406.98
573.55	43835.89
573.71	44329.75
573.87	43931.86
574.03	43875.68
574.20	43999.73
574.36	44004.41
574.52	44147.18
574.68	44201.02
574.84	44350.81
575.01	43999.73
575.17	44296.98
575.33	44275.91
575.49	44002.07
575.65	44275.91
575.82	44554.44
575.98	44247.83
576.14	44762.75
576.30	44458.48
576.46	44208.04
576.62	44641.04
576.79	44449.11
576.95	43899.09
577.11	44390.60
577.27	44318.04
577.43	44074.63
577.59	44268.89
577.75	44657.42
577.92	43913.13
578.08	43969.30
578.24	44004.41
578.40	44135.48
578.56	44399.96
578.72	44505.29
578.88	44416.35
579.04	44474.86
579.21	44292.30
579.37	44226.76
579.53	44334.43
579.69	44006.75
579.85	44250.17
580.01	44271.23
580.17	44509.97
580.33	44678.49
580.49	44542.74
580.65	44105.06
580.82	44369.54
580.98	44348.47
581.14	44158.89
581.30	44233.78
581.46	44126.12
581.62	44636.36
581.78	44301.66
581.94	45029.57
582.10	44676.15
582.26	44540.39
582.42	44287.62
582.58	44369.54
582.74	44102.71
582.90	44921.90
583.06	44699.55
583.22	44760.40
583.38	44374.22
583.54	44463.16
583.70	44435.07
583.86	44456.14
584.02	43622.90
584.18	44414.01
584.34	44414.01
584.50	44355.49
584.66	44477.20
584.82	44371.88
584.98	44821.26
585.14	44699.55
585.30	44381.24
585.46	44760.40
585.62	44161.23
585.78	44612.95
585.94	44676.15
586.10	43695.46
586.26	44334.43
586.42	44348.47
586.58	44889.13
586.74	44460.82
586.90	44156.55
587.06	44142.50
587.22	44896.16
587.38	43880.36
587.54	45031.91
587.70	44685.51
587.86	44636.36
588.02	44788.49
588.18	44945.31
588.34	44765.09
588.49	44273.57
588.65	44280.60
588.81	44442.09
588.97	44470.18
589.13	44451.45
589.29	44615.29
589.45	44240.81
589.61	44807.22
589.77	44720.62
589.93	44528.69
590.08	44865.73
590.24	44662.10
590.40	44839.98
