SpectraSuite Data File
++++++++++++++++++++++++++++++++++++
Date: Fri Oct 25 11:33:51 EDT 2013
User: price-jones
Dark Spectrum Present: No
Reference Spectrum Present: No
Number of Sampled Component Spectra: 1
Spectrometers: USB2+H05261
Integration Time (usec): 100000 (USB2+H05261)
Spectra Averaged: 1 (USB2+H05261)
Boxcar Smoothing: 0 (USB2+H05261)
Correct for Electrical Dark: No (USB2+H05261)
Strobe/Lamp Enabled: No (USB2+H05261)
Correct for Detector Non-linearity: No (USB2+H05261)
Correct for Stray Light: No (USB2+H05261)
Number of Pixels in Processed Spectrum: 2048
>>>>>Begin Processed Spectral Data<<<<<
365.73	285.55
365.92	285.55
366.12	285.55
366.32	177.88
366.52	128.73
366.72	149.79
366.91	135.75
367.11	140.43
367.31	220.01
367.51	212.99
367.70	180.22
367.90	142.77
368.10	138.09
368.30	98.30
368.49	173.20
368.69	203.63
368.89	194.26
369.09	212.99
369.28	170.86
369.48	191.92
369.68	222.35
369.87	210.65
370.07	285.55
370.27	250.44
370.47	365.12
370.66	447.04
370.86	454.06
371.06	599.18
371.25	571.09
371.45	489.17
371.65	594.50
371.84	533.64
372.04	554.71
372.24	575.77
372.44	617.90
372.63	669.39
372.83	543.00
373.03	568.75
373.22	613.22
373.42	580.45
373.62	688.12
373.81	596.84
374.01	702.16
374.21	589.82
374.40	566.41
374.60	622.58
374.79	613.22
374.99	678.76
375.19	645.99
375.38	617.90
375.58	657.69
375.78	681.10
375.97	580.45
376.17	748.97
376.37	688.12
376.56	631.94
376.76	589.82
376.95	641.31
377.15	606.20
377.35	739.61
377.54	699.82
377.74	702.16
377.93	664.71
378.13	695.14
378.33	716.20
378.52	720.88
378.72	753.65
378.91	727.91
379.11	685.78
379.31	685.78
379.50	695.14
379.70	748.97
379.89	706.84
380.09	676.41
380.28	657.69
380.48	770.04
380.68	716.20
380.87	699.82
381.07	802.80
381.26	791.10
381.46	784.08
381.65	809.83
381.85	767.70
382.04	763.01
382.24	812.17
382.43	732.59
382.63	807.48
382.83	725.57
383.02	798.12
383.22	823.87
383.41	774.72
383.61	781.74
383.80	755.99
384.00	767.70
384.19	851.96
384.39	868.34
384.58	828.55
384.78	767.70
384.97	903.45
385.17	866.00
385.36	842.59
385.56	807.48
385.75	807.48
385.95	908.13
386.14	873.02
386.34	784.08
386.53	844.93
386.72	819.19
386.92	882.38
387.11	957.28
387.31	863.66
387.50	873.02
387.70	868.34
387.89	877.70
388.09	903.45
388.28	868.34
388.48	884.72
388.67	943.24
388.86	968.98
389.06	938.55
389.25	924.51
389.45	987.71
389.64	929.19
389.84	1006.43
390.03	940.90
390.22	1006.43
390.42	933.87
390.61	908.13
390.81	973.66
391.00	973.66
391.19	1001.75
391.39	1025.15
391.58	1022.81
391.78	994.73
391.97	1069.62
392.16	1055.58
392.36	1022.81
392.55	1097.71
392.75	1062.60
392.94	1022.81
393.13	1097.71
393.33	1027.50
393.52	1088.35
393.71	1022.81
393.91	1043.88
394.10	1062.60
394.29	1109.41
394.49	1132.82
394.68	1188.99
394.88	1177.29
395.07	1149.20
395.26	1125.80
395.46	1165.59
395.65	1196.01
395.84	1116.44
396.04	1210.06
396.23	1228.78
396.42	1205.38
396.62	1217.08
396.81	1153.88
397.00	1247.51
397.19	1086.01
397.39	1226.44
397.58	1240.48
397.77	1294.32
397.97	1275.59
398.16	1193.67
398.35	1266.23
398.55	1217.08
398.74	1315.38
398.93	1324.74
399.12	1291.98
399.32	1385.60
399.51	1221.76
399.70	1357.51
399.90	1383.26
400.09	1348.15
400.28	1380.92
400.47	1350.49
400.67	1404.32
400.86	1355.17
401.05	1448.79
401.24	1448.79
401.44	1427.73
401.63	1544.75
401.82	1486.24
402.01	1455.81
402.21	1418.36
402.40	1502.62
402.59	1479.22
402.78	1483.90
402.97	1579.86
403.17	1551.78
403.36	1444.11
403.55	1561.14
403.74	1556.46
403.93	1533.05
404.13	1537.73
404.32	1610.29
404.51	1558.80
404.70	1619.65
404.89	1640.72
405.09	1741.36
405.28	1661.78
405.47	1708.59
405.66	1673.48
405.85	1741.36
406.05	1682.85
406.24	1729.66
406.43	1792.85
406.62	1818.60
406.81	1856.04
407.00	1687.53
407.20	1764.76
407.39	1790.51
407.58	1802.21
407.77	1783.49
407.96	1860.73
408.15	1877.11
408.34	1879.45
408.54	1905.20
408.73	1872.43
408.92	1846.68
409.11	1961.37
409.30	1968.39
409.49	1947.33
409.68	2012.86
409.87	2040.95
410.07	2054.99
410.26	2026.90
410.45	2015.20
410.64	2090.10
410.83	2211.81
411.02	2132.23
411.21	2223.51
411.40	2174.36
411.59	2129.89
411.78	2148.61
411.98	2139.25
412.17	2204.78
412.36	2223.51
412.55	2160.31
412.74	2319.47
412.93	2373.30
413.12	2429.48
413.31	2399.05
413.50	2363.94
413.69	2422.45
413.88	2455.22
414.07	2462.24
414.26	2532.46
414.45	2530.12
414.64	2492.67
414.83	2499.69
415.02	2675.23
415.22	2717.36
415.41	2693.96
415.60	2635.44
415.79	2656.51
415.98	2722.04
416.17	2703.32
416.36	2708.00
416.55	2656.51
416.74	2771.19
416.93	2745.45
417.12	2850.77
417.31	2848.43
417.50	2848.43
417.69	2977.16
417.88	2881.20
418.07	2949.08
418.26	3023.97
418.45	3040.36
418.64	3091.85
418.83	3075.46
419.02	3082.49
419.21	3052.06
419.39	3148.02
419.58	2890.56
419.77	3026.31
419.96	3119.93
420.15	3236.96
420.34	3171.43
420.53	3218.24
420.72	3248.66
420.91	3311.86
421.10	3279.09
421.29	3307.18
421.48	3300.16
421.67	3314.20
421.86	3262.71
422.05	3358.67
422.24	3421.86
422.43	3389.10
422.61	3274.41
422.80	3241.64
422.99	3356.33
423.18	3370.37
423.37	3442.93
423.56	3363.35
423.75	3426.54
423.94	3342.28
424.13	3171.43
424.32	3243.98
424.50	3318.88
424.69	3438.25
424.88	3576.34
425.07	3309.52
425.26	3346.97
425.45	3478.04
425.64	3407.82
425.83	3386.76
426.01	3400.80
426.20	3508.46
426.39	3499.10
426.58	3513.14
426.77	3482.72
426.96	3503.78
427.15	3487.40
427.33	3595.06
427.52	3524.85
427.71	3492.08
427.90	3637.19
428.09	3772.94
428.28	3779.97
428.46	3744.86
428.65	3646.55
428.84	3859.54
429.03	3768.26
429.22	3669.96
429.40	3714.43
429.59	3655.92
429.78	3646.55
429.97	3609.11
430.16	3761.24
430.34	3889.97
430.53	3983.59
430.72	3885.29
430.91	3824.44
431.10	3770.60
431.28	3950.82
431.47	3826.78
431.66	3995.29
431.85	3953.16
432.03	3981.25
432.22	4091.26
432.41	4182.54
432.60	3887.63
432.79	4007.00
432.97	4107.64
433.16	4131.05
433.35	4119.34
433.54	4205.94
433.72	4060.83
433.91	4245.73
434.10	4152.11
434.28	4138.07
434.47	4269.14
434.66	4290.20
434.85	4236.37
435.03	4416.59
435.22	4245.73
435.41	4531.28
435.59	4395.53
435.78	4381.48
435.97	4344.03
436.16	4266.80
436.34	4327.65
436.53	4372.12
436.72	4573.41
436.90	4306.59
437.09	4390.84
437.28	4491.49
437.46	4470.42
437.65	4507.87
437.84	4472.76
438.02	4568.73
438.21	4482.13
438.40	4472.76
438.58	4755.97
438.77	4765.33
438.96	4746.61
439.14	4739.58
439.33	4896.40
439.52	4891.72
439.70	4868.31
439.89	5001.72
440.08	5062.58
440.26	5006.41
440.45	4847.25
440.63	5015.77
440.82	5247.48
441.01	4954.91
441.19	5282.59
441.38	5228.76
441.57	5317.70
441.75	5210.03
441.94	5341.10
442.12	5387.91
442.31	5469.83
442.50	5355.15
442.68	5411.32
442.87	5474.51
443.05	5373.87
443.24	5540.05
443.43	5474.51
443.61	5497.92
443.80	5589.20
443.98	5380.89
444.17	5385.57
444.35	5570.48
444.54	5809.21
444.73	5497.92
444.91	5666.44
445.10	5654.73
445.28	5612.60
445.47	5657.07
445.65	5586.86
445.84	5551.75
446.02	5741.33
446.21	5586.86
446.39	5654.73
446.58	5643.03
446.77	5767.08
446.95	5593.88
447.14	5717.93
447.32	5746.02
447.51	5743.67
447.69	5706.23
447.88	5839.64
448.06	5785.80
448.25	5769.42
448.43	5736.65
448.62	5832.62
448.80	5802.19
448.99	5928.58
449.17	5951.98
449.36	5966.03
449.54	5895.81
449.73	5816.23
449.91	5977.73
450.10	6099.44
450.28	5989.43
450.46	6033.90
450.65	6179.01
450.83	6078.37
451.02	6038.58
451.20	6183.70
451.39	6099.44
451.57	6132.20
451.76	6216.46
451.94	6319.45
452.13	6427.11
452.31	6179.01
452.49	6303.06
452.68	6384.98
452.86	6406.05
453.05	6356.90
453.23	6483.28
453.42	6230.51
453.60	6211.78
453.78	6333.49
453.97	6333.49
454.15	6326.47
454.34	6352.21
454.52	6305.40
454.70	6527.75
454.89	6722.02
455.07	6487.96
455.26	6588.61
455.44	6724.36
455.62	6775.85
455.81	6869.47
455.99	6810.96
456.17	6689.25
456.36	6888.20
456.54	6883.52
456.73	6857.77
456.91	7061.40
457.09	6942.03
457.28	7056.72
457.46	7016.93
457.64	7014.59
457.83	7155.02
458.01	7061.40
458.19	7073.10
458.38	7002.88
458.56	7091.82
458.74	7131.61
458.93	7122.25
459.11	7276.73
459.29	7073.10
459.48	7279.07
459.66	7227.57
459.84	7288.43
460.03	7431.20
460.21	7372.69
460.39	7307.15
460.57	7283.75
460.76	7309.49
460.94	7548.23
461.12	7522.48
461.31	7616.10
461.49	7595.04
461.67	7545.89
461.85	7566.95
462.04	7681.64
462.22	8035.06
462.40	7646.53
462.59	7763.56
462.77	7786.96
462.95	7882.92
463.13	7737.81
463.32	7733.13
463.50	7896.97
463.68	7765.90
463.86	7765.90
464.05	7808.03
464.23	7864.20
464.41	7882.92
464.59	7929.74
464.78	7974.21
464.96	7880.58
465.14	7995.27
465.32	8013.99
465.50	7960.16
465.69	8016.33
465.87	8166.13
466.05	7990.59
466.23	7927.39
466.41	8100.59
466.60	8287.84
466.78	8271.45
466.96	8149.75
467.14	8145.06
467.32	8187.19
467.51	8271.45
467.69	8100.59
467.87	8402.52
468.05	8346.35
468.23	8245.71
468.41	8290.18
468.60	8489.12
468.78	8351.03
468.96	8257.41
469.14	8393.16
469.32	8582.74
469.50	8386.14
469.69	8727.86
469.87	8842.54
470.05	8641.26
470.23	8734.88
470.41	8863.61
470.59	8769.99
470.77	8753.60
470.95	8882.33
471.14	9018.08
471.32	8919.78
471.50	9083.62
471.68	9224.05
471.86	9078.94
472.04	9011.06
472.22	9249.80
472.40	9088.30
472.58	9156.18
472.77	9107.02
472.95	9399.59
473.13	9830.25
473.31	9418.32
473.49	9387.89
473.67	9373.85
473.85	9397.25
474.03	9472.15
474.21	9685.14
474.39	9558.75
474.57	9565.77
474.75	9774.08
474.93	9968.34
475.12	9722.59
475.30	10068.98
475.48	10066.64
475.66	9977.70
475.84	10080.69
476.02	10040.90
476.20	10197.71
476.38	10459.85
476.56	10548.79
476.74	10441.13
476.92	10263.25
477.10	10499.64
477.28	10597.95
477.46	10679.86
477.64	10942.00
477.82	10892.85
478.00	10958.39
478.18	11178.40
478.36	10808.59
478.54	11250.96
478.72	11459.26
478.90	11389.05
479.08	11438.20
479.26	11796.30
479.44	11630.12
479.62	11674.59
479.80	11681.61
479.98	11964.82
480.16	12152.06
480.34	11899.28
480.52	12086.53
480.70	12446.97
480.88	12042.06
481.06	12257.39
481.24	12329.94
481.41	12512.50
481.59	12718.47
481.77	12865.92
481.95	12730.17
482.13	12849.54
482.31	12945.50
482.49	13280.20
482.67	13394.89
482.85	13488.51
483.03	13661.71
483.21	13666.39
483.39	13935.55
483.57	13540.00
483.74	13839.59
483.92	13930.87
484.10	14085.34
484.28	14054.92
484.46	14626.01
484.64	14626.01
484.82	14366.21
485.00	14623.67
485.18	14626.01
485.35	14785.16
485.53	14794.53
485.71	14916.23
485.89	15403.07
486.07	15014.54
486.25	15501.37
486.43	15499.03
486.61	15592.65
486.78	15758.83
486.96	15618.39
487.14	15920.32
487.32	16315.87
487.50	16140.33
487.68	16449.28
487.85	16435.24
488.03	16683.34
488.21	16908.03
488.39	16692.70
488.57	17111.66
488.75	17231.02
488.92	17301.24
489.10	17376.14
489.28	17411.25
489.46	17427.63
489.64	17612.53
489.81	17930.84
489.99	18302.99
490.17	18436.40
490.35	18445.76
490.53	18345.12
490.70	18782.80
490.88	18420.02
491.06	18920.89
491.24	18897.49
491.41	18745.35
491.59	18977.06
491.77	18986.43
491.95	19140.90
492.13	19243.88
492.30	19351.55
492.48	19576.24
492.66	19522.41
492.84	19726.04
493.01	20126.27
493.19	20091.16
493.37	20233.93
493.54	20044.35
493.72	20568.63
493.90	20500.75
494.08	20524.16
494.25	20753.53
494.43	21022.69
494.61	20891.62
494.79	21256.75
494.96	21088.23
495.14	21252.06
495.32	21500.16
495.49	21647.61
495.67	21886.35
495.85	21781.03
496.02	22113.38
496.20	22082.95
496.38	22270.20
496.55	22377.86
496.73	22843.63
496.91	22195.30
497.09	22834.27
497.26	22665.75
497.44	23091.73
497.62	22972.36
497.79	23449.83
497.97	23185.35
498.14	23403.02
498.32	23302.37
498.50	23868.78
498.67	24023.26
498.85	23676.86
499.03	23723.67
499.20	23948.36
499.38	24107.52
499.56	24203.48
499.73	24372.00
499.91	24409.45
500.08	24568.60
500.26	24170.71
500.44	24182.42
500.61	24727.76
500.79	24456.26
500.97	25060.12
501.14	25010.96
501.32	24889.26
501.49	25053.09
501.67	25184.16
501.84	25591.42
502.02	25649.93
502.20	25390.13
502.37	25497.80
502.55	25523.54
502.72	25612.48
502.90	25738.87
503.07	25776.32
503.25	25975.27
503.43	25699.08
503.60	26232.72
503.78	26314.64
503.95	26068.89
504.13	26387.20
504.30	26794.45
504.48	26522.95
504.65	26757.00
504.83	26595.51
505.01	26951.27
505.18	26820.20
505.36	27367.88
505.53	27253.20
505.71	27290.65
505.88	27321.07
506.06	27080.00
506.23	27470.87
506.41	27452.14
506.58	27737.69
506.76	27510.66
506.93	28198.77
507.11	27541.08
507.28	27882.80
507.46	28334.53
507.63	28114.52
507.81	28294.74
507.98	27735.35
508.16	28535.81
508.33	28130.90
508.50	28795.61
508.68	28727.74
508.85	28788.59
509.03	28629.43
509.20	28470.28
509.38	29244.99
509.55	29181.80
509.73	29235.63
509.90	29357.34
510.08	29172.44
510.25	29277.76
510.42	29486.07
510.60	29305.85
510.77	29467.34
510.95	29802.04
511.12	29738.85
511.30	29607.78
511.47	29982.26
511.64	29773.95
511.82	29776.30
511.99	30132.06
512.17	30120.35
512.34	30459.73
512.51	30925.50
512.69	30501.86
512.86	30286.53
513.04	30962.95
513.21	30904.43
513.38	30780.39
513.56	31005.08
513.73	30831.88
513.90	31007.42
514.08	31103.38
514.25	31351.48
514.43	31461.48
514.60	31269.56
514.77	31480.21
514.95	31709.58
515.12	31302.32
515.29	31552.76
515.47	31524.68
515.64	32350.88
515.81	31920.23
515.99	31892.14
516.16	31955.33
516.33	32067.68
516.51	32208.11
516.68	32072.36
516.85	32161.30
517.03	32432.80
517.20	32226.84
517.37	32643.45
517.54	32446.85
517.72	32683.24
517.89	32582.60
518.06	32795.59
518.24	32828.35
518.41	32797.93
518.58	32884.53
518.75	32804.95
518.93	33289.44
519.10	33188.80
519.27	33275.40
519.45	33127.94
519.62	33558.60
519.79	34043.09
519.96	33633.50
520.14	33326.89
520.31	33670.95
520.48	33579.67
520.65	33813.72
520.83	34230.33
521.00	34235.02
521.17	34117.99
521.34	34242.04
521.52	34330.98
521.69	34232.68
521.86	34710.14
522.03	34611.84
522.20	34443.32
522.38	34632.91
522.55	35119.74
522.72	34998.03
522.89	35075.27
523.07	35419.33
523.24	34981.65
523.41	34803.77
523.58	34850.58
523.75	35468.48
523.92	35306.98
524.10	35297.62
524.27	35395.92
524.44	35615.93
524.61	35580.82
524.78	35627.63
524.96	35915.52
525.13	35723.60
525.30	35662.74
525.47	35725.94
525.64	35857.01
525.81	36187.02
525.98	36266.60
526.16	36135.53
526.33	35793.81
526.50	36304.05
526.67	35812.54
526.84	36383.63
527.01	36048.93
527.18	36046.59
527.36	36416.40
527.53	36851.73
527.70	37113.87
527.87	37273.03
528.04	36772.16
528.21	36711.30
528.38	36884.50
528.55	36751.09
528.72	36975.78
528.89	36636.41
529.07	36924.29
529.24	36744.07
529.41	37256.65
529.58	37008.55
529.75	37148.98
529.92	37471.98
530.09	37235.58
530.26	37699.01
530.43	37701.35
530.60	37015.57
530.77	37605.39
530.94	37598.37
531.11	37577.30
531.28	37743.48
531.46	37778.59
531.63	38167.12
531.80	38064.13
531.97	37764.54
532.14	38412.87
532.31	38120.31
532.48	38438.62
532.65	38541.60
532.82	38295.85
532.99	38120.31
533.16	38213.93
533.33	38497.13
533.50	38396.49
533.67	38204.56
533.84	38260.74
534.01	38948.85
534.18	39246.10
534.35	38859.91
534.52	38918.43
534.69	38880.98
534.86	38902.04
535.03	38918.43
535.20	39218.02
535.37	39126.74
535.54	39082.27
535.71	38911.41
535.88	39475.48
536.05	38983.96
536.22	39529.31
536.38	39182.91
536.55	39543.35
536.72	39550.37
536.89	39416.96
537.06	39395.90
537.23	39754.00
537.40	39817.19
537.57	39735.27
537.74	39754.00
537.91	40121.46
538.08	39711.87
538.25	39613.57
538.42	40123.80
538.59	40016.14
538.75	39938.90
538.92	40526.38
539.09	40053.59
539.26	40236.15
539.43	40191.68
539.60	40657.45
539.77	40493.61
539.94	40713.62
540.11	40547.44
540.28	40676.17
540.44	40531.06
540.61	40879.80
540.78	40912.56
540.95	40528.72
541.12	40870.43
541.29	40788.52
541.46	41036.61
541.62	40708.94
541.79	41420.46
541.96	40559.14
542.13	40652.76
542.30	40928.95
542.47	41333.86
542.63	41141.94
542.80	41600.68
542.97	41174.70
543.14	41514.08
543.31	41359.61
543.48	41860.48
543.64	42171.77
543.81	41588.98
543.98	42087.51
544.15	41755.16
544.32	41853.46
544.48	42265.39
544.65	41535.15
544.82	42328.59
544.99	41696.64
545.16	42054.75
545.32	41972.83
545.49	42492.43
545.66	42391.78
545.83	42389.44
546.00	42693.71
546.16	42553.28
546.33	42171.77
546.50	41916.65
546.67	42586.05
546.83	41787.92
547.00	42368.38
547.17	42480.72
547.34	42529.87
547.50	42895.00
547.67	42967.55
547.84	42667.97
548.00	43058.84
548.17	42822.44
548.34	43056.50
548.51	43084.58
548.67	43335.02
548.84	43093.94
549.01	42646.90
549.18	42983.94
549.34	43330.34
549.51	43470.77
549.68	43320.98
549.84	43182.88
550.01	43110.33
550.18	42784.99
550.34	43480.13
550.51	43791.42
550.68	43433.32
550.84	43098.62
551.01	43304.59
551.18	43571.41
551.34	43583.12
551.51	43646.31
551.68	43538.65
551.84	43208.63
552.01	43601.84
552.18	43604.18
552.34	43468.43
552.51	43569.07
552.68	43866.32
552.84	43922.49
553.01	43892.07
553.18	43372.47
553.34	44350.81
553.51	43622.90
553.67	44165.91
553.84	43969.30
554.01	44184.63
554.17	44491.24
554.34	44626.99
554.51	44217.40
554.67	44439.75
554.84	44421.03
555.00	44549.76
555.17	44126.12
555.33	44306.34
555.50	44093.35
555.67	44664.44
555.83	44516.99
556.00	44715.93
556.16	45052.97
556.33	44446.77
556.50	44608.27
556.66	44762.75
556.83	44737.00
556.99	45263.62
557.16	44821.26
557.32	44451.45
557.49	45022.54
557.65	44395.28
557.82	44554.44
557.98	44886.79
558.15	44786.15
558.32	44875.09
558.48	44741.68
558.65	44540.39
558.81	44978.07
558.98	44758.06
559.14	44678.49
559.31	44942.97
559.47	45132.55
559.64	44847.00
559.80	45195.74
559.97	45368.94
560.13	44692.53
560.30	45188.72
560.46	45406.39
560.63	45516.40
560.79	45818.33
560.96	45715.34
561.12	45272.98
561.29	45687.26
561.45	45656.83
561.61	45258.94
561.78	45069.36
561.94	45645.13
562.11	45801.94
562.27	45560.87
562.44	45275.32
562.60	45261.28
562.77	45507.04
562.93	45495.33
563.10	45511.72
563.26	45588.95
563.42	46300.48
563.59	45106.80
563.75	45427.46
563.92	45703.64
564.08	45933.01
564.24	45586.61
564.41	45123.19
564.57	46117.92
564.74	46075.79
564.90	45961.10
565.07	45469.59
565.23	45755.13
565.39	46319.20
565.56	45975.14
565.72	45979.82
565.88	45656.83
566.05	46176.43
566.21	45804.28
566.38	45961.10
566.54	46094.51
566.70	46162.39
566.87	46197.49
567.03	45979.82
567.19	46279.41
567.36	46169.41
567.52	45991.53
567.68	46237.28
567.85	46211.54
568.01	46253.67
568.17	46433.89
568.34	46164.73
568.50	46344.95
568.66	45942.38
568.83	46017.27
568.99	46026.63
569.15	46513.47
569.32	46288.77
569.48	46277.07
569.64	46370.69
569.81	46632.83
569.97	46230.26
570.13	46045.36
570.30	46527.51
570.46	46445.59
570.62	46649.22
570.78	45998.55
570.95	46431.55
571.11	46593.04
571.27	46354.31
571.43	46440.91
571.60	46548.57
571.76	46361.33
571.92	46637.51
572.09	46251.33
572.25	46471.34
572.41	46246.65
572.57	46597.73
572.74	46820.08
572.90	46536.87
573.06	46571.98
573.22	46920.72
573.38	46997.96
573.55	46560.28
573.71	46932.42
573.87	46948.81
574.03	46370.69
574.20	46946.47
574.36	46934.76
574.52	46513.47
574.68	46740.50
574.84	47000.30
575.01	46639.86
575.17	46913.70
575.33	46848.16
575.49	46883.27
575.65	46527.51
575.82	46630.49
575.98	46791.99
576.14	47248.39
576.30	47264.78
576.46	46944.12
576.62	46354.31
576.79	46394.10
576.95	46265.37
577.11	46412.82
577.27	46600.07
577.43	46958.17
577.59	46738.16
577.75	46555.60
577.92	46340.27
578.08	46855.18
578.24	46916.04
578.40	47112.64
578.56	46639.86
578.72	47007.32
578.88	46822.42
579.04	46831.78
579.21	46691.35
579.37	46995.62
579.53	46930.08
579.69	46869.23
579.85	46754.54
580.01	46703.05
580.17	46698.37
580.33	47072.85
580.49	47194.56
580.65	46859.87
580.82	46941.78
580.98	47047.11
581.14	46644.54
581.30	47353.72
581.46	46817.74
581.62	46937.10
581.78	46703.05
581.94	47140.73
582.10	46990.94
582.26	47129.03
582.42	47227.33
582.58	46887.95
582.74	47152.43
582.90	47035.41
583.06	47320.95
583.22	46293.46
583.38	46794.33
583.54	47145.41
583.70	47140.73
583.86	47360.74
584.02	47110.30
584.18	47388.83
584.34	47365.42
584.50	47344.36
584.66	47379.46
584.82	47159.45
584.98	47208.61
585.14	47367.76
585.30	47426.28
585.46	47161.79
585.62	46822.42
585.78	47526.92
585.94	46684.33
586.10	46965.19
586.26	46990.94
586.42	46955.83
586.58	47049.45
586.74	47180.52
586.90	47122.01
587.06	46796.67
587.22	47449.68
587.38	46803.69
587.54	47264.78
587.70	47550.32
587.86	47283.50
588.02	47323.29
588.18	46726.46
588.34	47040.09
588.49	47021.36
588.65	47194.56
588.81	47327.97
588.97	47608.84
589.13	47456.70
589.29	47262.44
589.45	47227.33
589.61	47304.57
589.77	47360.74
589.93	47498.83
590.08	47800.76
