SpectraSuite Data File
++++++++++++++++++++++++++++++++++++
Date: Fri Oct 25 11:23:43 EDT 2013
User: price-jones
Dark Spectrum Present: No
Reference Spectrum Present: No
Number of Sampled Component Spectra: 1
Spectrometers: USB2+H05261
Integration Time (usec): 100000 (USB2+H05261)
Spectra Averaged: 1 (USB2+H05261)
Boxcar Smoothing: 0 (USB2+H05261)
Correct for Electrical Dark: No (USB2+H05261)
Strobe/Lamp Enabled: No (USB2+H05261)
Correct for Detector Non-linearity: No (USB2+H05261)
Correct for Stray Light: No (USB2+H05261)
Number of Pixels in Processed Spectrum: 2048
>>>>>Begin Processed Spectral Data<<<<<
365.73	250.44
365.92	250.44
366.12	250.44
366.32	175.54
366.52	124.05
366.72	112.35
366.91	121.71
367.11	91.28
367.31	126.39
367.51	93.62
367.70	138.09
367.90	177.88
368.10	105.32
368.30	135.75
368.49	135.75
368.69	128.73
368.89	278.52
369.09	175.54
369.28	126.39
369.48	166.18
369.68	124.05
369.87	138.09
370.07	147.45
370.27	201.29
370.47	383.85
370.66	582.79
370.86	660.03
371.06	699.82
371.25	695.14
371.45	603.86
371.65	737.27
371.84	627.26
372.04	650.67
372.24	709.18
372.44	667.05
372.63	739.61
372.83	706.84
373.03	624.92
373.22	730.25
373.42	847.27
373.62	718.54
373.81	767.70
374.01	784.08
374.21	772.38
374.40	774.72
374.60	816.85
374.79	870.68
374.99	828.55
375.19	847.27
375.38	805.14
375.58	861.32
375.78	882.38
375.97	922.17
376.17	929.19
376.37	854.30
376.56	840.25
376.76	875.36
376.95	894.08
377.15	933.87
377.35	873.02
377.54	950.26
377.74	905.79
377.93	870.68
378.13	847.27
378.33	936.21
378.52	922.17
378.72	987.71
378.91	894.08
379.11	950.26
379.31	856.64
379.50	964.30
379.70	980.68
379.89	968.98
380.09	898.77
380.28	1004.09
380.48	936.21
380.68	978.34
380.87	919.83
381.07	1036.86
381.26	1057.92
381.46	1022.81
381.65	1060.26
381.85	1013.45
382.04	1062.60
382.24	1074.31
382.43	1041.54
382.63	1064.94
382.83	1036.86
383.02	1076.65
383.22	1163.25
383.41	1074.31
383.61	1121.12
383.80	1137.50
384.00	1086.01
384.19	1137.50
384.39	1221.76
384.58	1156.22
384.78	1172.61
384.97	1102.39
385.17	1146.86
385.36	1111.75
385.56	1266.23
385.75	1135.16
385.95	1149.20
386.14	1245.16
386.34	1242.82
386.53	1174.95
386.72	1252.19
386.92	1329.42
387.11	1224.10
387.31	1153.88
387.50	1240.48
387.70	1275.59
387.89	1266.23
388.09	1207.72
388.28	1214.74
388.48	1221.76
388.67	1366.87
388.86	1270.91
389.06	1352.83
389.25	1334.11
389.45	1320.06
389.64	1401.98
389.84	1268.57
390.03	1357.51
390.22	1446.45
390.42	1324.74
390.61	1383.26
390.81	1373.89
391.00	1413.68
391.19	1352.83
391.39	1439.43
391.58	1476.88
391.78	1462.83
391.97	1474.54
392.16	1420.71
392.36	1504.96
392.55	1507.30
392.75	1558.80
392.94	1497.94
393.13	1535.39
393.33	1547.09
393.52	1453.47
393.71	1519.01
393.91	1596.25
394.10	1610.29
394.29	1729.66
394.49	1607.95
394.68	1533.05
394.88	1598.59
395.07	1659.44
395.26	1633.69
395.46	1708.59
395.65	1790.51
395.84	1633.69
396.04	1750.72
396.23	1825.62
396.42	1739.02
396.62	1783.49
396.81	1790.51
397.00	1699.23
397.19	1753.06
397.39	1762.42
397.58	1891.15
397.77	1849.02
397.97	1884.13
398.16	1884.13
398.35	1811.57
398.55	1851.36
398.74	1947.33
398.93	2010.52
399.12	1870.09
399.32	1734.34
399.51	1926.26
399.70	2024.56
399.90	1973.07
400.09	1949.67
400.28	2015.20
400.47	2069.03
400.67	2045.63
400.86	2010.52
401.05	2143.93
401.24	2099.46
401.44	2183.72
401.63	2150.95
401.82	2214.15
402.01	2150.95
402.21	2179.04
402.40	2169.68
402.59	2216.49
402.78	2146.27
402.97	2230.53
403.17	2338.20
403.36	2272.66
403.55	2382.67
403.74	2415.43
403.93	2314.79
404.13	2403.73
404.32	2326.49
404.51	2300.75
404.70	2422.45
404.89	2345.22
405.09	2385.01
405.28	2565.23
405.47	2422.45
405.66	2523.10
405.85	2579.27
406.05	2569.91
406.24	2495.01
406.43	2647.15
406.62	2654.17
406.81	2693.96
407.00	2630.76
407.20	2635.44
407.39	2621.40
407.58	2724.38
407.77	2747.79
407.96	2810.98
408.15	2869.50
408.34	2733.75
408.54	2825.03
408.73	2829.71
408.92	2825.03
409.11	2876.52
409.30	2867.16
409.49	2918.65
409.68	2986.52
409.87	2895.24
410.07	3089.51
410.26	2988.86
410.45	3045.04
410.64	3087.17
410.83	3288.45
411.02	3066.10
411.21	3073.12
411.40	3115.25
411.59	3169.09
411.78	3178.45
411.98	3297.81
412.17	3258.03
412.36	3365.69
412.55	3480.38
412.74	3454.63
412.93	3356.33
413.12	3328.24
413.31	3517.83
413.50	3353.99
413.69	3721.45
413.88	3480.38
414.07	3658.26
414.26	3667.62
414.45	3604.42
414.64	3772.94
414.83	3819.75
415.02	3660.60
415.22	3838.48
415.41	3850.18
415.60	3889.97
415.79	3978.91
415.98	4056.15
416.17	3957.85
416.36	3971.89
416.55	4067.85
416.74	4105.30
416.93	3955.51
417.12	4166.15
417.31	4065.51
417.50	4269.14
417.69	4283.18
417.88	4255.09
418.07	4372.12
418.26	4332.33
418.45	4376.80
418.64	4397.87
418.83	4320.63
419.02	4440.00
419.21	4510.21
419.39	4456.38
419.58	4344.03
419.77	4414.25
419.96	4608.51
420.15	4545.32
420.34	4613.20
420.53	4606.17
420.72	4868.31
420.91	4865.97
421.10	4741.93
421.29	4868.31
421.48	4755.97
421.67	4809.80
421.86	4786.40
422.05	4896.40
422.24	4805.12
422.43	5011.09
422.61	4994.70
422.80	4936.19
422.99	4936.19
423.18	5018.11
423.37	4975.98
423.56	4964.28
423.75	4975.98
423.94	4870.65
424.13	4674.05
424.32	4812.14
424.50	5060.24
424.69	5085.98
424.88	5205.35
425.07	4917.47
425.26	4954.91
425.45	5008.75
425.64	5011.09
425.83	5020.45
426.01	5046.20
426.20	5116.41
426.39	5123.43
426.58	4929.17
426.77	4971.30
426.96	5315.36
427.15	5224.08
427.33	5231.10
427.52	5093.01
427.71	5149.18
427.90	5219.39
428.09	5401.96
428.28	5397.28
428.46	5341.10
428.65	5158.54
428.84	5664.10
429.03	5549.41
429.22	5411.32
429.40	5689.84
429.59	5561.11
429.78	5277.91
429.97	5238.12
430.16	5446.43
430.34	5731.97
430.53	5797.51
430.72	5607.92
430.91	5612.60
431.10	5591.54
431.28	5727.29
431.47	5734.31
431.66	5804.53
431.85	5769.42
432.03	5959.00
432.22	5865.38
432.41	5867.72
432.60	5921.56
432.79	6029.22
432.97	6106.46
433.16	6076.03
433.35	5959.00
433.54	6080.71
433.72	6054.97
433.91	6183.70
434.10	6221.14
434.28	6214.12
434.47	6256.25
434.66	6214.12
434.85	6274.98
435.03	6314.77
435.22	6303.06
435.41	6415.41
435.59	6399.02
435.78	6476.26
435.97	6462.22
436.16	6471.58
436.34	6658.82
436.53	6544.14
436.72	6642.44
436.90	6399.02
437.09	6911.60
437.28	6532.44
437.46	6602.65
437.65	6647.12
437.84	6848.41
438.02	6801.60
438.21	6750.10
438.40	6647.12
438.58	7131.61
438.77	7056.72
438.96	6939.69
439.14	7265.02
439.33	7129.27
439.52	7061.40
439.70	7213.53
439.89	7330.56
440.08	7372.69
440.26	7618.44
440.45	7555.25
440.63	7494.40
440.82	7756.54
441.01	7630.15
441.19	7714.41
441.38	7665.25
441.57	7852.50
441.75	7836.11
441.94	8133.36
442.12	7976.55
442.31	8042.08
442.50	8102.93
442.68	8088.89
442.87	8065.49
443.05	8187.19
443.24	8320.60
443.43	8322.94
443.61	8100.59
443.80	8421.25
443.98	8126.34
444.17	7976.55
444.35	8498.49
444.54	8524.23
444.73	8407.20
444.91	8259.75
445.10	8322.94
445.28	8241.03
445.47	8355.71
445.65	8315.92
445.84	8444.65
446.02	8489.12
446.21	8425.93
446.39	8365.07
446.58	8397.84
446.77	8730.20
446.95	8379.12
447.14	8423.59
447.32	8692.75
447.51	8589.77
447.69	8514.87
447.88	8432.95
448.06	8585.08
448.25	8512.53
448.43	8676.37
448.62	8671.68
448.80	8755.94
448.99	8692.75
449.17	8608.49
449.36	8638.92
449.54	9039.15
449.73	8905.74
449.91	9212.35
450.10	8922.12
450.28	9214.69
450.46	8961.91
450.65	9076.60
450.83	9107.02
451.02	9102.34
451.20	9085.96
451.39	9287.25
451.57	9284.91
451.76	9338.74
451.94	9359.80
452.13	9451.08
452.31	9408.95
452.49	9324.69
452.68	9350.44
452.86	9418.32
453.05	9769.40
453.23	9554.07
453.42	9626.62
453.60	9462.79
453.78	9647.69
453.97	9469.81
454.15	9481.51
454.34	9430.02
454.52	9729.61
454.70	9741.31
454.89	9710.88
455.07	9907.49
455.26	9774.08
455.44	10094.73
455.62	9970.68
455.81	9919.19
455.99	9991.75
456.17	10008.13
456.36	10143.88
456.54	10333.47
456.73	10359.21
456.91	10523.05
457.09	10595.61
457.28	10642.42
457.46	10574.54
457.64	10590.92
457.83	10696.25
458.01	10452.83
458.19	11002.86
458.38	10729.02
458.56	10775.83
458.74	10696.25
458.93	10771.15
459.11	10909.24
459.29	10712.63
459.48	10897.53
459.66	10801.57
459.84	11080.10
460.03	11110.52
460.21	11166.70
460.39	11122.23
460.57	10946.69
460.76	11215.85
460.94	11232.23
461.12	11295.43
461.31	11302.45
461.49	11164.36
461.67	11330.53
461.85	11606.72
462.04	11145.63
462.22	11632.46
462.40	11576.29
462.59	11606.72
462.77	11611.40
462.95	11712.04
463.13	11903.96
463.32	11735.45
463.50	11805.66
463.68	11836.09
463.86	11953.12
464.05	11990.56
464.23	11859.49
464.41	12023.33
464.59	11510.75
464.78	12182.49
464.96	12161.42
465.14	11896.94
465.32	12070.14
465.50	12276.11
465.69	12299.52
465.87	12187.17
466.05	12196.53
466.23	12428.24
466.41	12381.43
466.60	12828.48
466.78	12395.48
466.96	12308.88
467.14	12500.80
467.32	12376.75
467.51	12692.73
467.69	12154.40
467.87	12355.69
468.05	12854.22
468.23	12449.31
468.41	12641.23
468.60	12521.87
468.78	12856.56
468.96	12645.91
469.14	12910.40
469.32	13076.57
469.50	12767.62
469.69	12910.40
469.87	13111.68
470.05	13085.94
470.23	13310.63
470.41	13191.26
470.59	13612.56
470.77	13406.59
470.95	13392.55
471.14	13724.90
471.32	13114.02
471.50	13582.13
471.68	13523.62
471.86	13631.28
472.04	13954.27
472.22	14083.00
472.40	13654.69
472.58	13853.63
472.77	14052.58
472.95	14326.42
473.13	14759.42
473.31	14036.19
473.49	14422.38
473.67	14146.20
473.85	14361.53
474.03	14850.70
474.21	14899.85
474.39	14752.40
474.57	14717.29
474.75	15026.24
474.93	15051.99
475.12	14937.30
475.30	15201.78
475.48	14897.51
475.66	15246.25
475.84	15126.88
476.02	15665.21
476.20	15442.85
476.38	15646.48
476.56	15927.35
476.74	16109.91
476.92	16147.36
477.10	16248.00
477.28	16086.50
477.46	16379.07
477.64	16503.12
477.82	16519.50
478.00	16931.44
478.18	16837.81
478.36	16978.25
478.54	17160.81
478.72	17334.01
478.90	17371.46
479.08	17912.12
479.26	17851.27
479.44	17706.15
479.62	18190.64
479.80	18092.34
479.98	17914.46
480.16	18590.88
480.34	18354.48
480.52	18654.07
480.70	18743.01
480.88	18466.83
481.06	18972.38
481.24	19349.21
481.41	19054.30
481.59	19356.23
481.77	19653.48
481.95	19360.91
482.13	19812.63
482.31	19676.88
482.49	20451.60
482.67	20439.90
482.85	20620.12
483.03	20573.31
483.21	21046.10
483.39	21193.55
483.57	20776.94
483.74	21326.96
483.92	21380.79
484.10	21399.52
484.28	21802.09
484.46	21879.33
484.64	22522.98
484.82	21979.97
485.00	22469.14
485.18	22867.03
485.35	23030.87
485.53	22824.90
485.71	22951.29
485.89	23917.93
486.07	23480.25
486.25	23737.71
486.43	23873.46
486.61	24133.26
486.78	24107.52
486.96	24037.30
487.14	24416.47
487.32	24774.57
487.50	25202.89
487.68	24952.45
487.85	25280.13
488.03	25963.56
488.21	26031.44
488.39	25905.05
488.57	26506.57
488.75	26246.77
488.92	26590.83
489.10	26731.26
489.28	27054.25
489.46	27208.73
489.64	27311.71
489.81	27714.28
489.99	28046.64
490.17	27662.79
490.35	28304.10
490.53	28135.58
490.70	28538.15
490.88	28393.04
491.06	29074.13
491.24	29069.45
491.41	29200.52
491.59	29584.37
491.77	29542.24
491.95	29993.97
492.13	30223.34
492.30	30157.80
492.48	30150.78
492.66	30492.50
492.84	30508.88
493.01	30747.62
493.19	30782.73
493.37	30993.37
493.54	31519.99
493.72	31620.64
493.90	31475.52
494.08	31988.10
494.25	32006.83
494.43	32011.51
494.61	32566.21
494.79	32758.14
494.96	32776.86
495.14	33043.68
495.32	33102.20
495.49	33326.89
495.67	33462.64
495.85	33954.15
496.02	33806.70
496.20	34492.47
496.38	34380.13
496.55	34480.77
496.73	35185.27
496.91	34459.71
497.09	34909.09
497.26	35225.06
497.44	35339.75
497.62	35433.37
497.79	36144.89
497.97	35419.33
498.14	36613.00
498.32	36402.35
498.50	36400.01
498.67	36421.08
498.85	36811.95
499.03	36964.08
499.20	36863.44
499.38	37172.39
499.56	37493.04
499.73	37331.54
499.91	38225.63
500.08	38181.16
500.26	37539.85
500.44	38017.32
500.61	38253.72
500.79	37813.70
500.97	38845.87
501.14	38822.47
501.32	38686.71
501.49	38885.66
501.67	38899.70
501.84	39438.03
502.02	39285.89
502.20	39431.01
502.37	39103.33
502.55	39445.05
502.72	39449.73
502.90	39988.05
503.07	39519.95
503.25	39803.15
503.43	39587.82
503.60	40313.39
503.78	40353.18
503.95	40081.67
504.13	40500.63
504.30	41092.79
504.48	40940.65
504.65	40549.78
504.83	41361.95
505.01	41624.09
505.18	41626.43
505.36	41883.89
505.53	41684.94
505.71	41708.35
505.88	41869.84
506.06	41326.84
506.23	42026.66
506.41	41935.38
506.58	41811.33
506.76	42419.87
506.93	42756.91
507.11	42808.40
507.28	42841.17
507.46	42529.87
507.63	43157.14
507.81	43753.97
507.98	43559.71
508.16	43255.44
508.33	43730.57
508.50	43564.39
508.68	44032.50
508.85	44055.90
509.03	44044.20
509.20	44149.53
509.38	44582.52
509.55	44650.40
509.73	44428.05
509.90	45141.91
510.08	44804.88
510.25	44893.82
510.42	45280.00
510.60	45251.92
510.77	45565.55
510.95	45436.82
511.12	45570.23
511.30	45722.37
511.47	45986.85
511.64	45808.96
511.82	46075.79
511.99	46050.04
512.17	46429.21
512.34	46148.34
512.51	46623.47
512.69	46625.81
512.86	46775.61
513.04	46885.61
513.21	46902.00
513.38	46745.18
513.56	47014.34
513.73	47122.01
513.90	47381.80
514.08	46841.14
514.25	47622.88
514.43	47988.00
514.60	47693.10
514.77	47477.77
514.95	47805.44
515.12	47833.53
515.29	47899.06
515.47	48055.88
515.64	48135.46
515.81	48563.78
515.99	48545.05
516.16	48364.83
516.33	48633.99
516.51	48746.34
516.68	48884.43
516.85	49116.14
517.03	48884.43
517.20	49116.14
517.37	49081.03
517.54	49041.24
517.72	49418.07
517.89	49312.75
518.06	49448.50
518.24	49502.33
518.41	49558.50
518.58	49331.47
518.75	49773.83
518.93	50176.40
519.10	49811.28
519.27	49883.84
519.45	50026.61
519.62	50227.90
519.79	50106.19
519.96	50525.14
520.14	50436.20
520.31	50356.63
520.48	50801.33
520.65	50578.98
520.83	51030.70
521.00	50878.57
521.17	50761.54
521.34	50934.74
521.52	51103.26
521.69	50993.25
521.86	51276.46
522.03	51129.00
522.20	51669.67
522.38	51653.28
522.55	51880.31
522.72	51554.98
522.89	51494.13
523.07	51906.06
523.24	51770.31
523.41	52116.71
523.58	51697.75
523.75	52191.61
523.92	51810.10
524.10	52332.04
524.27	52360.12
524.44	51969.26
524.61	52245.44
524.78	52264.16
524.96	52519.28
525.13	52444.38
525.30	52795.46
525.47	52608.22
525.64	52842.27
525.81	52683.12
525.98	52687.80
526.16	52980.37
526.33	52589.50
526.50	53209.74
526.67	52882.06
526.84	52935.90
527.01	52952.28
527.18	53113.78
527.36	53251.87
527.53	53462.52
527.70	53621.67
527.87	53532.73
528.04	53497.62
528.21	53682.53
528.38	53542.10
528.55	53764.45
528.72	53626.35
528.89	53570.18
529.07	53766.79
529.24	53481.24
529.41	53815.94
529.58	53748.06
529.75	53900.20
529.92	53804.24
530.09	54054.67
530.26	54138.93
530.43	54234.89
530.60	53944.67
530.77	54113.19
530.94	54241.92
531.11	54370.64
531.28	54155.32
531.46	54344.90
531.63	54585.97
531.80	54564.91
531.97	54562.57
532.14	54593.00
532.31	54672.57
532.48	55009.61
532.65	54773.22
532.82	54562.57
532.99	54805.98
533.16	54798.96
533.33	54836.41
533.50	55196.85
533.67	55222.60
533.84	54934.71
534.01	55033.02
534.18	54981.52
534.35	55428.57
534.52	55356.01
534.69	55447.29
534.86	55316.22
535.03	55313.88
535.20	55451.97
535.37	55505.80
535.54	55615.81
535.71	55379.42
535.88	55657.94
536.05	55650.92
536.22	55655.60
536.38	55770.28
536.55	55821.78
536.72	55922.42
536.89	55618.15
537.06	55545.59
537.23	55842.84
537.40	55655.60
537.57	55821.78
537.74	55875.61
537.91	56273.50
538.08	56032.42
538.25	55929.44
538.42	56079.24
538.59	56315.63
538.75	56149.45
538.92	55950.51
539.09	56306.27
539.26	56268.82
539.43	56243.07
539.60	56268.82
539.77	56278.18
539.94	56458.40
540.11	56608.20
540.28	56540.32
540.44	56657.35
540.61	56547.34
540.78	56435.00
540.95	56491.17
541.12	56647.99
541.29	56626.92
541.46	56783.74
541.62	56645.65
541.79	56811.82
541.96	56589.47
542.13	56774.37
542.30	56807.14
542.47	57008.43
542.63	56912.47
542.80	56973.32
542.97	57350.15
543.14	57308.02
543.31	57375.89
543.48	57209.71
543.64	57462.49
543.81	57499.94
543.98	57677.82
544.15	57265.89
544.32	57811.23
544.48	57539.73
544.65	57574.84
544.82	57586.54
544.99	57474.20
545.16	57605.26
545.32	57656.76
545.49	57729.31
545.66	57961.03
545.83	57778.46
546.00	57757.40
546.16	57829.96
546.33	57528.03
546.50	57729.31
546.67	57935.28
546.83	57572.50
547.00	57890.81
547.17	57982.09
547.34	58000.82
547.50	58218.49
547.67	58333.17
547.84	58197.42
548.00	58412.75
548.17	58422.11
548.34	58387.00
548.51	58178.70
548.67	58368.28
548.84	58513.39
549.01	58382.32
549.18	58307.43
549.34	58307.43
549.51	58429.13
549.68	58632.76
549.84	58445.52
550.01	58630.42
550.18	58796.60
550.34	58529.78
550.51	58539.14
550.68	58635.10
550.84	58431.47
551.01	58660.85
551.18	58670.21
551.34	58712.34
551.51	58677.23
551.68	58628.08
551.84	58773.19
552.01	58562.54
552.18	58733.40
552.34	58480.63
552.51	58855.11
552.68	58672.55
552.84	58993.20
553.01	59217.89
553.18	59007.25
553.34	58944.05
553.51	58969.80
553.67	58824.68
553.84	59040.01
554.01	59061.08
554.17	59180.45
554.34	59262.36
554.51	59348.96
554.67	59348.96
554.84	59229.60
555.00	59143.00
555.17	59075.12
555.33	59182.79
555.50	59274.07
555.67	59058.74
555.83	59070.44
556.00	59400.46
556.16	59540.89
556.33	59323.22
556.50	59353.65
556.66	59515.14
556.83	59231.94
556.99	59583.02
557.16	59709.41
557.32	59803.03
557.49	59671.96
557.65	59538.55
557.82	59604.08
557.98	59517.48
558.15	59627.49
558.32	59728.13
558.48	59505.78
558.65	59583.02
558.81	59796.01
558.98	59868.56
559.14	59868.56
559.31	59723.45
559.47	59817.07
559.64	59898.99
559.80	59739.83
559.97	59870.90
560.13	59749.20
560.30	59786.64
560.46	60001.97
560.63	59931.76
560.79	59948.14
560.96	59990.27
561.12	59948.14
561.29	60023.04
561.45	60039.42
561.61	59770.26
561.78	59866.22
561.94	60079.21
562.11	59877.93
562.27	60184.54
562.44	60126.02
562.60	60137.72
562.77	60156.45
562.93	59812.39
563.10	60186.88
563.26	59913.03
563.42	60411.57
563.59	60114.32
563.75	60233.69
563.92	60137.72
564.08	60123.68
564.24	60336.67
564.41	60142.41
564.57	60385.82
564.74	60273.48
564.90	60179.85
565.07	60355.39
565.23	60355.39
565.39	60331.99
565.56	60451.36
565.72	60411.57
565.88	60383.48
566.05	60369.44
566.21	60479.44
566.38	60130.70
566.54	60500.51
566.70	60416.25
566.87	60404.55
567.03	60278.16
567.19	60587.11
567.36	60411.57
567.52	60420.93
567.68	60676.05
567.85	60526.25
568.01	60498.17
568.17	60418.59
568.34	60725.20
568.50	60350.71
568.66	60449.02
568.83	60589.45
568.99	60310.92
569.15	60582.43
569.32	60617.53
569.48	60818.82
569.64	60739.24
569.81	60622.22
569.97	60535.62
570.13	60512.21
570.30	60582.43
570.46	60690.09
570.62	60720.52
570.78	60589.45
570.95	60692.43
571.11	60832.86
571.27	60601.15
571.43	60851.59
571.60	61006.06
571.76	60804.78
571.92	60816.48
572.09	60860.95
572.25	60610.51
572.41	60715.84
572.57	60750.94
572.74	60797.76
572.90	60664.35
573.06	60629.24
573.22	60701.79
573.38	60683.07
573.55	60905.42
573.71	60790.73
573.87	60900.74
574.03	60669.03
574.20	60942.87
574.36	60896.06
574.52	60940.53
574.68	60900.74
574.84	61165.22
575.01	60727.54
575.17	60825.84
575.33	60736.90
575.49	60814.14
575.65	61165.22
575.82	60879.67
575.98	60903.08
576.14	61310.33
576.30	60963.93
576.46	60734.56
576.62	60914.78
576.79	60818.82
576.95	60711.16
577.11	61104.37
577.27	61006.06
577.43	60961.59
577.59	60994.36
577.75	60912.44
577.92	60774.35
578.08	60905.42
578.24	60910.10
578.40	61043.51
578.56	61188.63
578.72	61038.83
578.88	60989.68
579.04	61359.48
579.21	61148.84
579.37	61188.63
579.53	61132.45
579.69	60867.97
579.85	60879.67
580.01	61027.13
580.17	60797.76
580.33	61169.90
580.49	61183.94
580.65	61043.51
580.82	60891.38
580.98	60966.27
581.14	60989.68
581.30	61085.64
581.46	61174.58
581.62	61069.26
581.78	61113.73
581.94	61270.54
582.10	61331.40
582.26	60959.25
582.42	61048.19
582.58	61141.81
582.74	61165.22
582.90	61137.13
583.06	60940.53
583.22	60963.93
583.38	61041.17
583.54	61120.75
583.70	61076.28
583.86	61113.73
584.02	61022.45
584.18	61254.16
584.34	61134.79
584.50	61102.03
584.66	61034.15
584.82	60907.76
584.98	61279.91
585.14	61174.58
585.30	61095.00
585.46	61179.26
585.62	61343.10
585.78	61315.01
585.94	61050.53
586.10	61134.79
586.26	61312.67
586.42	61230.75
586.58	61078.62
586.74	61176.92
586.90	61104.37
587.06	61102.03
587.22	61464.81
587.38	61048.19
587.54	61387.57
587.70	61275.22
587.86	61205.01
588.02	61258.84
588.18	61326.72
588.34	61197.99
588.49	61141.81
