SpectraSuite Data File
++++++++++++++++++++++++++++++++++++
Date: Fri Oct 25 11:25:39 EDT 2013
User: price-jones
Dark Spectrum Present: No
Reference Spectrum Present: No
Number of Sampled Component Spectra: 1
Spectrometers: USB2+H05261
Integration Time (usec): 100000 (USB2+H05261)
Spectra Averaged: 1 (USB2+H05261)
Boxcar Smoothing: 0 (USB2+H05261)
Correct for Electrical Dark: No (USB2+H05261)
Strobe/Lamp Enabled: No (USB2+H05261)
Correct for Detector Non-linearity: No (USB2+H05261)
Correct for Stray Light: No (USB2+H05261)
Number of Pixels in Processed Spectrum: 2048
>>>>>Begin Processed Spectral Data<<<<<
365.73	222.35
365.92	222.35
366.12	222.35
366.32	196.60
366.52	133.41
366.72	203.63
366.91	14.04
367.11	100.64
367.31	91.28
367.51	180.22
367.70	128.73
367.90	159.16
368.10	56.17
368.30	166.18
368.49	105.32
368.69	175.54
368.89	205.97
369.09	86.60
369.28	173.20
369.48	196.60
369.68	215.33
369.87	210.65
370.07	224.69
370.27	238.73
370.47	322.99
370.66	587.47
370.86	662.37
371.06	660.03
371.25	709.18
371.45	695.14
371.65	660.03
371.84	746.63
372.04	709.18
372.24	662.37
372.44	732.59
372.63	802.80
372.83	760.67
373.03	774.72
373.22	791.10
373.42	798.12
373.62	795.78
373.81	823.87
374.01	880.04
374.21	739.61
374.40	816.85
374.60	753.65
374.79	849.61
374.99	844.93
375.19	849.61
375.38	800.46
375.58	788.76
375.78	856.64
375.97	807.48
376.17	847.27
376.37	861.32
376.56	863.66
376.76	734.93
376.95	840.25
377.15	758.33
377.35	926.85
377.54	823.87
377.74	917.49
377.93	971.32
378.13	910.47
378.33	947.92
378.52	854.30
378.72	1022.81
378.91	976.00
379.11	933.87
379.31	912.81
379.50	917.49
379.70	997.07
379.89	1032.18
380.09	994.73
380.28	985.37
380.48	966.64
380.68	950.26
380.87	1006.43
381.07	966.64
381.26	999.41
381.46	994.73
381.65	1069.62
381.85	1062.60
382.04	1093.03
382.24	1090.69
382.43	1111.75
382.63	1064.94
382.83	1097.71
383.02	1071.97
383.22	1081.33
383.41	1060.26
383.61	1104.73
383.80	1188.99
384.00	1142.18
384.19	1146.86
384.39	1135.16
384.58	1174.95
384.78	1153.88
384.97	1125.80
385.17	1090.69
385.36	1160.91
385.56	1137.50
385.75	1163.25
385.95	1210.06
386.14	1270.91
386.34	1114.10
386.53	1174.95
386.72	1174.95
386.92	1270.91
387.11	1315.38
387.31	1282.61
387.50	1266.23
387.70	1228.78
387.89	1249.85
388.09	1226.44
388.28	1294.32
388.48	1310.70
388.67	1343.47
388.86	1338.79
389.06	1341.13
389.25	1352.83
389.45	1383.26
389.64	1413.68
389.84	1453.47
390.03	1394.96
390.22	1444.11
390.42	1394.96
390.61	1380.92
390.81	1366.87
391.00	1432.41
391.19	1418.36
391.39	1404.32
391.58	1345.81
391.78	1425.39
391.97	1479.22
392.16	1392.62
392.36	1551.78
392.55	1479.22
392.75	1516.67
392.94	1551.78
393.13	1502.62
393.33	1519.01
393.52	1467.52
393.71	1526.03
393.91	1540.07
394.10	1612.63
394.29	1645.40
394.49	1561.14
394.68	1638.38
394.88	1598.59
395.07	1685.19
395.26	1685.19
395.46	1652.42
395.65	1647.74
395.84	1748.38
396.04	1732.00
396.23	1727.32
396.42	1760.08
396.62	1713.27
396.81	1818.60
397.00	1778.81
397.19	1823.28
397.39	1757.74
397.58	1813.92
397.77	1879.45
397.97	1790.51
398.16	1785.83
398.35	1870.09
398.55	1753.06
398.74	1919.24
398.93	1937.96
399.12	1886.47
399.32	1863.07
399.51	1888.81
399.70	1973.07
399.90	1851.36
400.09	1975.41
400.28	2045.63
400.47	1975.41
400.67	2036.27
400.86	2066.69
401.05	2071.37
401.24	1975.41
401.44	2071.37
401.63	2141.59
401.82	2064.35
402.01	2193.08
402.21	2083.08
402.40	2104.14
402.59	2120.53
402.78	2253.94
402.97	2225.85
403.17	2258.62
403.36	2232.87
403.55	2342.88
403.74	2363.94
403.93	2401.39
404.13	2338.20
404.32	2441.18
404.51	2392.03
404.70	2300.75
404.89	2429.48
405.09	2490.33
405.28	2490.33
405.47	2415.43
405.66	2473.95
405.85	2616.72
406.05	2544.16
406.24	2602.68
406.43	2483.31
406.62	2614.38
406.81	2569.91
407.00	2450.54
407.20	2546.50
407.39	2621.40
407.58	2609.70
407.77	2677.57
407.96	2675.23
408.15	2932.69
408.34	2708.00
408.54	2782.90
408.73	2827.37
408.92	2832.05
409.11	2860.13
409.30	2796.94
409.49	2885.88
409.68	2892.90
409.87	2970.14
410.07	3005.25
410.26	3019.29
410.45	3000.57
410.64	2998.23
410.83	3108.23
411.02	2979.50
411.21	3098.87
411.40	3059.08
411.59	3281.43
411.78	3089.51
411.98	3171.43
412.17	3187.81
412.36	3288.45
412.55	3300.16
412.74	3435.91
412.93	3309.52
413.12	3328.24
413.31	3517.83
413.50	3463.99
413.69	3510.80
413.88	3520.17
414.07	3588.04
414.26	3604.42
414.45	3786.99
414.64	3779.97
414.83	3779.97
415.02	3817.41
415.22	3744.86
415.41	3777.62
415.60	3880.61
415.79	3894.65
415.98	3999.98
416.17	3929.76
416.36	3983.59
416.55	3892.31
416.74	4152.11
416.93	4030.40
417.12	4049.13
417.31	4030.40
417.50	4161.47
417.69	4238.71
417.88	4196.58
418.07	4142.75
418.26	4196.58
418.45	4339.35
418.64	4381.48
418.83	4189.56
419.02	4362.76
419.21	4458.72
419.39	4507.87
419.58	4416.59
419.77	4444.68
419.96	4571.07
420.15	4533.62
420.34	4557.02
420.53	4510.21
420.72	4645.96
420.91	4730.22
421.10	4638.94
421.29	4716.18
421.48	4601.49
421.67	4887.04
421.86	4755.97
422.05	4723.20
422.24	4645.96
422.43	4889.38
422.61	4908.10
422.80	4926.83
422.99	4910.44
423.18	4936.19
423.37	4945.55
423.56	4842.57
423.75	5053.22
423.94	4959.60
424.13	4447.02
424.32	4692.77
424.50	4821.50
424.69	5116.41
424.88	4987.68
425.07	5057.90
425.26	4952.57
425.45	4966.62
425.64	4905.76
425.83	4905.76
426.01	5001.72
426.20	5095.35
426.39	4999.38
426.58	5146.84
426.77	5001.72
426.96	5121.09
427.15	5071.94
427.33	5228.76
427.52	5142.16
427.71	5268.55
427.90	5088.32
428.09	5252.16
428.28	5408.98
428.46	5399.62
428.65	5305.99
428.84	5542.39
429.03	5423.02
429.22	5210.03
429.40	5455.79
429.59	5345.78
429.78	5242.80
429.97	5107.05
430.16	5509.62
430.34	5535.37
430.53	5605.58
430.72	5596.22
430.91	5502.60
431.10	5540.05
431.28	5568.13
431.47	5767.08
431.66	5841.98
431.85	5743.67
432.03	5884.11
432.22	5914.53
432.41	5996.45
432.60	6047.94
432.79	5895.81
432.97	5933.26
433.16	5902.83
433.35	6047.94
433.54	6010.50
433.72	6064.33
433.91	6073.69
434.10	6167.31
434.28	6010.50
434.47	6148.59
434.66	6279.66
434.85	6232.85
435.03	6296.04
435.22	6242.21
435.41	6551.16
435.59	6317.11
435.78	6284.34
435.97	6380.30
436.16	6490.31
436.34	6413.07
436.53	6532.44
436.72	6551.16
436.90	6324.13
437.09	6614.35
437.28	6338.17
437.46	6513.71
437.65	6504.35
437.84	6693.93
438.02	6616.69
438.21	6612.01
438.40	6712.66
438.58	6958.41
438.77	7080.12
438.96	7063.74
439.14	7037.99
439.33	7037.99
439.52	7124.59
439.70	7218.21
439.89	7274.38
440.08	7522.48
440.26	7410.14
440.45	7250.98
440.63	7384.39
440.82	7747.17
441.01	7304.81
441.19	7592.70
441.38	7599.72
441.57	7564.61
441.75	7660.57
441.94	7871.22
442.12	7838.45
442.31	7894.63
442.50	8032.72
442.68	7882.92
442.87	7981.23
443.05	8109.96
443.24	8187.19
443.43	8016.33
443.61	8079.53
443.80	8393.16
443.98	7995.27
444.17	7770.58
444.35	8365.07
444.54	8355.71
444.73	8297.20
444.91	8168.47
445.10	8280.82
445.28	8037.40
445.47	8142.72
445.65	8287.84
445.84	8259.75
446.02	8329.97
446.21	8124.00
446.39	8236.35
446.58	8231.66
446.77	8465.72
446.95	8287.84
447.14	8334.65
447.32	8659.98
447.51	8386.14
447.69	8423.59
447.88	8489.12
448.06	8428.27
448.25	8397.84
448.43	8571.04
448.62	8547.64
448.80	8498.49
448.99	8524.23
449.17	8772.33
449.36	8643.60
449.54	8891.70
449.73	9008.72
449.91	9050.85
450.10	8772.33
450.28	8905.74
450.46	9004.04
450.65	8847.22
450.83	9156.18
451.02	8894.04
451.20	9006.38
451.39	9022.77
451.57	9261.50
451.76	9029.79
451.94	9027.45
452.13	9130.43
452.31	9071.92
452.49	8936.17
452.68	9310.65
452.86	9495.55
453.05	9413.63
453.23	9425.34
453.42	9151.49
453.60	9392.57
453.78	9554.07
453.97	9373.85
454.15	9479.17
454.34	9415.98
454.52	9511.94
454.70	9607.90
454.89	9785.78
455.07	9825.57
455.26	9717.90
455.44	9781.10
455.62	9792.80
455.81	9783.44
455.99	9785.78
456.17	9858.34
456.36	10008.13
456.54	10178.99
456.73	10291.34
456.91	10401.34
457.09	10258.57
457.28	10509.01
457.46	10232.82
457.64	10530.07
457.83	10445.81
458.01	10260.91
458.19	10703.27
458.38	10466.88
458.56	10509.01
458.74	10635.39
458.93	10707.95
459.11	10909.24
459.29	10775.83
459.48	10532.41
459.66	10832.00
459.84	10822.64
460.03	10970.09
460.21	11082.44
460.39	10942.00
460.57	10920.94
460.76	11117.54
460.94	11133.93
461.12	11218.19
461.31	11098.82
461.49	11162.01
461.67	11105.84
461.85	11463.94
462.04	11400.75
462.22	11925.03
462.40	11534.16
462.59	11391.39
462.77	11466.28
462.95	11428.84
463.13	11510.75
463.32	11356.28
463.50	11609.06
463.68	11623.10
463.86	11822.05
464.05	11775.24
464.23	11805.66
464.41	11768.21
464.59	11337.56
464.78	11882.90
464.96	12020.99
465.14	11847.79
465.32	12072.48
465.50	12077.16
465.69	12128.66
465.87	11896.94
466.05	12161.42
466.23	12072.48
466.41	12238.66
466.60	12519.53
466.78	12203.55
466.96	12166.10
467.14	12292.49
467.32	12112.27
467.51	12318.24
467.69	12175.47
467.87	12545.27
468.05	12451.65
468.23	12336.96
468.41	12395.48
468.60	12444.63
468.78	12568.68
468.96	12388.46
469.14	12662.30
469.32	13076.57
469.50	12606.13
469.69	12879.97
469.87	12854.22
470.05	12922.10
470.23	13158.49
470.41	12877.63
470.59	13270.84
470.77	13121.04
470.95	13062.53
471.14	13675.75
471.32	12868.27
471.50	13376.16
471.68	13376.16
471.86	13617.24
472.04	13764.69
472.22	14160.24
472.40	13561.06
472.58	13884.06
472.77	13764.69
472.95	14059.60
473.13	14431.74
473.31	14153.22
473.49	14185.99
473.67	14200.03
473.85	14214.07
474.03	14614.30
474.21	14560.47
474.39	14483.24
474.57	14693.88
474.75	14712.61
474.93	14920.92
475.12	14911.55
475.30	15096.46
475.48	14778.14
475.66	14956.02
475.84	14876.44
476.02	15461.58
476.20	15311.78
476.38	15379.66
476.56	16072.46
476.74	15733.08
476.92	15709.68
477.10	15761.17
477.28	16088.84
477.46	16283.11
477.64	16287.79
477.82	16503.12
478.00	16650.57
478.18	16812.07
478.36	16599.08
478.54	16877.60
478.72	17212.30
478.90	17245.07
479.08	17532.95
479.26	17563.38
479.44	17738.92
479.62	17788.07
479.80	18001.06
479.98	17968.29
480.16	18614.28
480.34	18382.57
480.52	18614.28
480.70	18857.70
480.88	18251.50
481.06	18553.43
481.24	18785.14
481.41	18647.05
481.59	19367.93
481.77	19461.55
481.95	19335.17
482.13	19403.04
482.31	19459.21
482.49	19913.28
482.67	19882.85
482.85	20467.98
483.03	20437.56
483.21	20297.13
483.39	20858.85
483.57	20760.55
483.74	20816.72
483.92	21338.66
484.10	21034.39
484.28	21762.30
484.46	21577.40
484.64	22284.24
484.82	21764.64
485.00	22302.96
485.18	22558.08
485.35	22499.57
485.53	22574.47
485.71	23372.59
485.89	23194.71
486.07	23143.22
486.25	23330.46
486.43	23403.02
486.61	23616.01
486.78	24006.87
486.96	24018.58
487.14	24435.19
487.32	24725.42
487.50	24884.58
487.68	24397.74
487.85	25034.37
488.03	25221.61
488.21	25649.93
488.39	25722.49
488.57	25949.52
488.75	25996.33
488.92	26403.58
489.10	26403.58
489.28	26583.80
489.46	26838.92
489.64	26796.79
489.81	27906.21
489.99	27398.31
490.17	27482.57
490.35	28240.90
490.53	27953.02
490.70	28259.63
490.88	28259.63
491.06	28582.62
491.24	28816.68
491.41	28903.28
491.59	29116.26
491.77	28924.34
491.95	29528.20
492.13	29420.53
492.30	29724.80
492.48	29677.99
492.66	29890.98
492.84	29991.62
493.01	30242.06
493.19	30384.83
493.37	30756.98
493.54	30834.22
493.72	31421.69
493.90	31229.77
494.08	31672.13
494.25	32013.85
494.43	31828.95
494.61	32011.51
494.79	31887.46
494.96	32273.65
495.14	32435.14
495.32	33081.13
495.49	33261.35
495.67	33326.89
495.85	33401.79
496.02	33230.93
496.20	33560.94
496.38	33979.90
496.55	34019.69
496.73	34370.77
496.91	34225.65
497.09	34394.17
497.26	35051.86
497.44	34740.57
497.62	34897.39
497.79	35447.41
497.97	35084.63
498.14	35826.58
498.32	35842.96
498.50	35721.26
498.67	36343.84
498.85	36093.40
499.03	36053.61
499.20	36505.34
499.38	36570.87
499.56	36664.49
499.73	37020.25
499.91	37041.32
500.08	37338.57
500.26	36884.50
500.44	37376.01
500.61	37677.94
500.79	37502.40
500.97	38103.92
501.14	38473.73
501.32	38136.69
501.49	38251.38
501.67	38380.10
501.84	38920.77
502.02	38150.73
502.20	38506.49
502.37	39161.84
502.55	39253.12
502.72	39313.98
502.90	39536.33
503.07	39508.24
503.25	39412.28
503.43	39548.03
503.60	40074.65
503.78	40257.21
503.95	39936.56
504.13	40360.20
504.30	40594.25
504.48	40388.28
504.65	40596.59
504.83	40973.42
505.01	40919.59
505.18	41385.35
505.36	41350.24
505.53	40872.78
505.71	41064.70
505.88	41525.78
506.06	41329.18
506.23	41455.57
506.41	41624.09
506.58	41806.65
506.76	41706.01
506.93	42536.90
507.11	41911.97
507.28	42471.36
507.46	42110.92
507.63	42532.22
507.81	42953.51
507.98	42684.35
508.16	42724.14
508.33	43140.75
508.50	43426.30
508.68	43143.09
508.85	43473.11
509.03	43421.62
509.20	43335.02
509.38	44093.35
509.55	44069.95
509.73	43751.63
509.90	44257.19
510.08	44275.91
510.25	44589.55
510.42	44381.24
510.60	44886.79
510.77	44912.54
510.95	44795.51
511.12	44617.63
511.30	45167.66
511.47	45085.74
511.64	45212.13
511.82	45813.65
511.99	45727.05
512.17	45570.23
512.34	45785.56
512.51	46131.96
512.69	46068.76
512.86	46171.75
513.04	46248.99
513.21	46548.57
513.38	46340.27
513.56	46752.20
513.73	46630.49
513.90	46520.49
514.08	46574.32
514.25	47201.58
514.43	47503.51
514.60	47316.27
514.77	47487.13
514.95	47477.77
515.12	47461.38
515.29	47552.66
515.47	48289.93
515.64	47765.65
515.81	47650.97
515.99	48165.88
516.16	48273.55
516.33	48332.06
516.51	48350.79
516.68	48542.71
516.85	48196.31
517.03	49008.48
517.20	48521.65
517.37	48416.32
517.54	48898.47
517.72	48575.48
517.89	48596.54
518.06	48935.92
518.24	49102.10
518.41	48718.25
518.58	48994.43
518.75	49031.88
518.93	49694.25
519.10	49148.91
519.27	49481.27
519.45	49425.09
519.62	50042.99
519.79	49570.21
519.96	49614.68
520.14	50174.06
520.31	50117.89
520.48	49986.82
520.65	50155.34
520.83	50497.06
521.00	50305.13
521.17	50349.60
521.34	50475.99
521.52	50775.58
521.69	50504.08
521.86	50600.04
522.03	51138.36
522.20	50916.01
522.38	51246.03
522.55	51061.13
522.72	51084.53
522.89	51227.31
523.07	51587.75
523.24	51437.95
523.41	51557.32
523.58	51367.74
523.75	51725.84
523.92	51704.77
524.10	51732.86
524.27	51721.16
524.44	51943.51
524.61	51938.83
524.78	51952.87
524.96	52088.62
525.13	52060.54
525.30	52107.35
525.47	52247.78
525.64	52306.29
525.81	52451.41
525.98	52781.42
526.16	52446.72
526.33	52479.49
526.50	52767.38
526.67	52540.35
526.84	52898.45
527.01	52484.17
527.18	52622.26
527.36	52863.34
527.53	52715.89
527.70	53069.31
527.87	52919.51
528.04	53209.74
528.21	52931.22
528.38	53153.57
528.55	53364.21
528.72	53209.74
528.89	53291.66
529.07	53057.60
529.24	53324.43
529.41	53609.97
529.58	53549.12
529.75	53516.35
529.92	53640.40
530.09	53638.06
530.26	53815.94
530.43	53869.77
530.60	53425.07
530.77	53680.19
530.94	54136.59
531.11	53923.60
531.28	53996.16
531.46	53947.01
531.63	53893.18
531.80	54262.98
531.97	53944.67
532.14	54452.56
532.31	54138.93
532.48	54391.71
532.65	54417.46
532.82	54482.99
532.99	54475.97
533.16	54293.41
533.33	54494.69
533.50	54649.17
533.67	55063.44
533.84	54543.84
534.01	54829.39
534.18	54859.82
534.35	55269.41
534.52	54915.99
534.69	54908.97
534.86	55180.47
535.03	54733.43
535.20	55302.18
535.37	55360.69
535.54	55377.08
535.71	55182.81
535.88	55084.51
536.05	55231.96
536.22	55243.66
536.38	55573.68
536.55	55501.12
536.72	55194.51
536.89	55161.75
537.06	55454.31
537.23	55461.33
537.40	55196.85
537.57	55557.30
537.74	55569.00
537.91	55863.91
538.08	55840.50
538.25	55650.92
538.42	55767.94
538.59	56044.13
538.75	55552.62
538.92	55821.78
539.09	55966.89
539.26	55908.38
539.43	56130.73
539.60	56128.39
539.77	56289.88
539.94	56505.21
540.11	56512.23
540.28	56317.97
540.44	56093.28
540.61	56168.18
540.78	56322.65
540.95	56123.71
541.12	56306.27
541.29	56292.22
541.46	56570.75
541.62	56629.26
541.79	56301.59
541.96	56135.41
542.13	56519.26
542.30	56685.43
542.47	56509.89
542.63	56640.96
542.80	56821.19
542.97	56757.99
543.14	57055.24
543.31	57109.07
543.48	57190.99
543.64	57354.83
543.81	57148.86
543.98	57200.35
544.15	57148.86
544.32	57202.69
544.48	57310.36
544.65	57296.31
544.82	57244.82
544.99	57010.77
545.16	57530.37
545.32	57329.08
545.49	57439.09
545.66	57841.66
545.83	57560.79
546.00	57654.42
546.16	57574.84
546.33	57537.39
546.50	57336.10
546.67	57719.95
546.83	57343.12
547.00	57492.92
547.17	57394.62
547.34	57467.17
547.50	57935.28
547.67	57855.70
547.84	57996.13
548.00	57776.12
548.17	58038.26
548.34	58094.44
548.51	58061.67
548.67	57949.32
548.84	57998.48
549.01	58152.95
549.18	58040.60
549.34	58237.21
549.51	58204.44
549.68	58328.49
549.84	58314.45
550.01	58225.51
550.18	58031.24
550.34	58291.04
550.51	58363.60
550.68	58468.92
550.84	58251.25
551.01	58342.53
551.18	58155.29
551.34	58323.81
551.51	58382.32
551.68	58403.39
551.84	58141.25
552.01	58454.88
552.18	58562.54
552.34	58340.19
552.51	58670.21
552.68	58286.36
552.84	58361.26
553.01	58590.63
553.18	58803.62
553.34	58841.07
553.51	58777.87
553.67	58698.30
553.84	58815.32
554.01	58827.02
554.17	59009.59
554.34	58768.51
554.51	58852.77
554.67	58972.14
554.84	59035.33
555.00	58756.81
555.17	58752.13
555.33	58918.31
555.50	58766.17
555.67	58913.62
555.83	58885.54
556.00	58930.01
556.16	59409.82
556.33	59030.65
556.50	59164.06
556.66	59180.45
556.83	59000.22
556.99	59222.58
557.16	59339.60
557.32	59505.78
557.49	59620.47
557.65	59236.62
557.82	59510.46
557.98	59241.30
558.15	59508.12
558.32	59381.73
558.48	59231.94
558.65	59449.61
558.81	59360.67
558.98	59316.20
559.14	59648.55
559.31	59517.48
559.47	59529.19
559.64	59473.01
559.80	59529.19
559.97	59650.89
560.13	59707.07
560.30	59564.29
560.46	59599.40
560.63	59613.44
560.79	59456.63
560.96	59819.41
561.12	59557.27
561.29	59653.23
561.45	59739.83
561.61	59561.95
561.78	59681.32
561.94	59812.39
562.11	59838.14
562.27	59632.17
562.44	59859.20
562.60	59805.37
562.77	59831.11
562.93	59653.23
563.10	59898.99
563.26	59683.66
563.42	60107.30
563.59	60004.31
563.75	59828.77
563.92	60039.42
564.08	59985.59
564.24	59999.63
564.41	59983.25
564.57	59826.43
564.74	59873.24
564.90	59992.61
565.07	59962.18
565.23	59980.91
565.39	60133.04
565.56	60144.75
565.72	60037.08
565.88	60172.83
566.05	59948.14
566.21	60119.00
566.38	60107.30
566.54	60123.68
566.70	60210.28
566.87	60310.92
567.03	60266.45
567.19	60231.35
567.36	60126.02
567.52	59931.76
567.68	60465.40
567.85	60221.98
568.01	60341.35
568.17	60317.95
568.34	60292.20
568.50	60465.40
568.66	60236.03
568.83	60310.92
568.99	60317.95
569.15	60240.71
569.32	60313.26
569.48	60224.32
569.64	60287.52
569.81	60306.24
569.97	60116.66
570.13	60306.24
570.30	60140.07
570.46	60470.08
570.62	60224.32
570.78	60360.08
570.95	60367.10
571.11	60378.80
571.27	60154.11
571.43	60437.31
571.60	60685.41
571.76	60236.03
571.92	60367.10
572.09	60643.28
572.25	60453.70
572.41	60395.18
572.57	60329.65
572.74	60814.14
572.90	60549.66
573.06	60364.76
573.22	60720.52
573.38	60381.14
573.55	60495.83
573.71	60746.26
573.87	60690.09
574.03	60402.21
574.20	60559.02
574.36	60451.36
574.52	60636.26
574.68	60568.38
574.84	60437.31
575.01	60767.33
575.17	60437.31
575.33	60399.86
575.49	60463.06
575.65	60519.23
575.82	60633.92
575.98	60521.57
576.14	60811.80
576.30	60781.37
576.46	60615.19
576.62	60474.76
576.79	60720.52
576.95	60523.91
577.11	60917.12
577.27	60680.73
577.43	60645.62
577.59	60519.23
577.75	60582.43
577.92	60629.24
578.08	60547.32
578.24	60612.85
578.40	60914.78
578.56	60877.33
578.72	60891.38
578.88	60863.29
579.04	60776.69
579.21	60832.86
579.37	60860.95
579.53	60921.80
579.69	60643.28
579.85	60643.28
580.01	60610.51
580.17	60638.60
580.33	60889.04
580.49	60886.70
580.65	60793.07
580.82	60563.70
580.98	60743.92
581.14	60622.22
581.30	60870.31
581.46	60729.88
581.62	60793.07
581.78	60720.52
581.94	60694.77
582.10	60790.73
582.26	60753.29
582.42	60781.37
582.58	60893.72
582.74	60870.31
582.90	60849.25
583.06	60809.46
583.22	60591.79
583.38	60788.39
583.54	60685.41
583.70	60701.79
583.86	60692.43
584.02	60802.44
584.18	60874.99
584.34	60874.99
584.50	60825.84
584.66	60783.71
584.82	60938.19
584.98	60818.82
585.14	61006.06
585.30	60704.13
585.46	60989.68
585.62	60842.23
585.78	60837.54
585.94	60786.05
586.10	60800.10
586.26	60973.30
586.42	61148.84
586.58	61001.38
586.74	60874.99
586.90	60800.10
587.06	60823.50
587.22	61013.08
587.38	61087.98
587.54	61102.03
587.70	61003.72
587.86	60982.66
588.02	60956.91
588.18	61087.98
588.34	61137.13
588.49	61001.38
