SpectraSuite Data File
++++++++++++++++++++++++++++++++++++
Date: Fri Oct 25 11:25:49 EDT 2013
User: price-jones
Dark Spectrum Present: No
Reference Spectrum Present: No
Number of Sampled Component Spectra: 1
Spectrometers: USB2+H05261
Integration Time (usec): 100000 (USB2+H05261)
Spectra Averaged: 1 (USB2+H05261)
Boxcar Smoothing: 0 (USB2+H05261)
Correct for Electrical Dark: No (USB2+H05261)
Strobe/Lamp Enabled: No (USB2+H05261)
Correct for Detector Non-linearity: No (USB2+H05261)
Correct for Stray Light: No (USB2+H05261)
Number of Pixels in Processed Spectrum: 2048
>>>>>Begin Processed Spectral Data<<<<<
365.73	241.08
365.92	241.08
366.12	241.08
366.32	135.75
366.52	95.96
366.72	184.90
366.91	177.88
367.11	145.11
367.31	121.71
367.51	138.09
367.70	145.11
367.90	126.39
368.10	145.11
368.30	210.65
368.49	37.45
368.69	222.35
368.89	131.07
369.09	175.54
369.28	173.20
369.48	159.16
369.68	184.90
369.87	194.26
370.07	180.22
370.27	210.65
370.47	285.55
370.66	592.16
370.86	580.45
371.06	648.33
371.25	732.59
371.45	622.58
371.65	650.67
371.84	620.24
372.04	720.88
372.24	725.57
372.44	702.16
372.63	716.20
372.83	653.01
373.03	807.48
373.22	695.14
373.42	744.29
373.62	753.65
373.81	767.70
374.01	746.63
374.21	765.36
374.40	844.93
374.60	809.83
374.79	816.85
374.99	819.19
375.19	844.93
375.38	812.17
375.58	858.98
375.78	875.36
375.97	931.53
376.17	910.47
376.37	837.91
376.56	875.36
376.76	870.68
376.95	905.79
377.15	912.81
377.35	840.25
377.54	889.40
377.74	870.68
377.93	863.66
378.13	875.36
378.33	889.40
378.52	950.26
378.72	943.24
378.91	933.87
379.11	931.53
379.31	999.41
379.50	957.28
379.70	952.60
379.89	1001.75
380.09	973.66
380.28	1006.43
380.48	1006.43
380.68	947.92
380.87	851.96
381.07	961.96
381.26	1011.11
381.46	1022.81
381.65	1046.22
381.85	964.30
382.04	978.34
382.24	1060.26
382.43	1018.13
382.63	1060.26
382.83	1107.07
383.02	1153.88
383.22	1203.04
383.41	1111.75
383.61	1067.28
383.80	1158.57
384.00	1198.35
384.19	1186.65
384.39	1074.31
384.58	1132.82
384.78	1116.44
384.97	1179.63
385.17	1102.39
385.36	1093.03
385.56	1238.14
385.75	1142.18
385.95	1165.59
386.14	1135.16
386.34	1212.40
386.53	1277.93
386.72	1203.04
386.92	1280.27
387.11	1282.61
387.31	1233.46
387.50	1203.04
387.70	1245.16
387.89	1203.04
388.09	1179.63
388.28	1315.38
388.48	1352.83
388.67	1322.40
388.86	1427.73
389.06	1364.53
389.25	1334.11
389.45	1355.17
389.64	1376.24
389.84	1397.30
390.03	1364.53
390.22	1331.76
390.42	1317.72
390.61	1479.22
390.81	1423.05
391.00	1451.13
391.19	1444.11
391.39	1446.45
391.58	1509.65
391.78	1472.20
391.97	1432.41
392.16	1488.58
392.36	1511.99
392.55	1549.43
392.75	1575.18
392.94	1621.99
393.13	1619.65
393.33	1488.58
393.52	1446.45
393.71	1582.20
393.91	1586.88
394.10	1551.78
394.29	1652.42
394.49	1540.07
394.68	1563.48
394.88	1617.31
395.07	1666.46
395.26	1699.23
395.46	1664.12
395.65	1732.00
395.84	1778.81
396.04	1727.32
396.23	1720.29
396.42	1769.44
396.62	1717.95
396.81	1743.70
397.00	1757.74
397.19	1839.66
397.39	1767.10
397.58	1839.66
397.77	1853.70
397.97	1825.62
398.16	1799.87
398.35	1881.79
398.55	1755.40
398.74	1886.47
398.93	2019.88
399.12	1891.15
399.32	1933.28
399.51	1900.52
399.70	1886.47
399.90	2008.18
400.09	1982.43
400.28	2031.58
400.47	2008.18
400.67	2078.40
400.86	2087.76
401.05	2188.40
401.24	2115.84
401.44	2146.27
401.63	2141.59
401.82	2263.30
402.01	2190.74
402.21	2211.81
402.40	2122.87
402.59	2169.68
402.78	2270.32
402.97	2340.54
403.17	2207.13
403.36	2267.98
403.55	2333.51
403.74	2307.77
403.93	2312.45
404.13	2422.45
404.32	2298.41
404.51	2352.24
404.70	2544.16
404.89	2532.46
405.09	2469.27
405.28	2464.58
405.47	2471.61
405.66	2532.46
405.85	2530.12
406.05	2590.97
406.24	2546.50
406.43	2574.59
406.62	2614.38
406.81	2635.44
407.00	2724.38
407.20	2663.53
407.39	2612.04
407.58	2736.09
407.77	2738.43
407.96	2686.94
408.15	2693.96
408.34	2778.22
408.54	2850.77
408.73	2743.11
408.92	2970.14
409.11	2902.26
409.30	2825.03
409.49	2932.69
409.68	2846.09
409.87	2867.16
410.07	2970.14
410.26	2965.46
410.45	3049.72
410.64	3026.31
410.83	3002.91
411.02	3000.57
411.21	3208.87
411.40	3084.83
411.59	3288.45
411.78	3253.34
411.98	3138.66
412.17	3309.52
412.36	3325.90
412.55	3297.81
412.74	3391.44
412.93	3353.99
413.12	3262.71
413.31	3653.58
413.50	3499.10
413.69	3538.89
413.88	3627.83
414.07	3623.15
414.26	3618.47
414.45	3634.85
414.64	3686.34
414.83	3674.64
415.02	3723.79
415.22	3709.75
415.41	3833.80
415.60	3941.46
415.79	3873.59
415.98	3988.27
416.17	3960.19
416.36	3976.57
416.55	4070.19
416.74	3988.27
416.93	4135.73
417.12	4102.96
417.31	4086.58
417.50	4126.36
417.69	4306.59
417.88	4257.43
418.07	4098.28
418.26	4322.97
418.45	4311.27
418.64	4383.82
418.83	4362.76
419.02	4498.51
419.21	4454.04
419.39	4493.83
419.58	4505.53
419.77	4395.53
419.96	4458.72
420.15	4472.76
420.34	4557.02
420.53	4514.89
420.72	4765.33
420.91	4547.66
421.10	4882.36
421.29	4767.67
421.48	4531.28
421.67	4765.33
421.86	4748.95
422.05	4812.14
422.24	4748.95
422.43	4833.21
422.61	4957.25
422.80	4833.21
422.99	4964.28
423.18	5071.94
423.37	4975.98
423.56	5006.41
423.75	4814.48
423.94	4884.70
424.13	4655.33
424.32	4793.42
424.50	4884.70
424.69	5123.43
424.88	5018.11
425.07	4884.70
425.26	4964.28
425.45	5027.47
425.64	4912.78
425.83	5027.47
426.01	5121.09
426.20	4980.66
426.39	5060.24
426.58	5109.39
426.77	5102.37
426.96	5032.15
427.15	4959.60
427.33	5163.22
427.52	5172.58
427.71	5284.93
427.90	5104.71
428.09	5219.39
428.28	5191.31
428.46	5313.02
428.65	5238.12
428.84	5483.88
429.03	5490.90
429.22	5193.65
429.40	5533.03
429.59	5490.90
429.78	5188.97
429.97	5235.78
430.16	5411.32
430.34	5607.92
430.53	5572.82
430.72	5647.71
430.91	5584.52
431.10	5682.82
431.28	5757.72
431.47	5914.53
431.66	5785.80
431.85	5823.25
432.03	6052.63
432.22	6085.39
432.41	5832.62
432.60	5935.60
432.79	6076.03
432.97	5973.05
433.16	6106.46
433.35	5963.68
433.54	6104.12
433.72	6066.67
433.91	6087.73
434.10	6101.78
434.28	6118.16
434.47	6183.70
434.66	6251.57
434.85	6251.57
435.03	6237.53
435.22	6223.48
435.41	6352.21
435.59	6321.79
435.78	6392.00
435.97	6443.49
436.16	6347.53
436.34	6431.79
436.53	6459.88
436.72	6705.63
436.90	6562.86
437.09	6827.34
437.28	6506.69
437.46	6541.80
437.65	6590.95
437.84	6672.87
438.02	6677.55
438.21	6715.00
438.40	6775.85
438.58	6836.70
438.77	7002.88
438.96	6846.07
439.14	7035.65
439.33	7143.32
439.52	7339.92
439.70	7232.26
439.89	7267.36
440.08	7419.50
440.26	7241.62
440.45	7215.87
440.63	7382.05
440.82	7831.43
441.01	7424.18
441.19	7541.21
441.38	7482.69
441.57	7695.68
441.75	7723.77
441.94	7948.46
442.12	7861.86
442.31	7889.95
442.50	7964.84
442.68	7840.79
442.87	8088.89
443.05	7995.27
443.24	8182.51
443.43	7957.82
443.61	8065.49
443.80	8439.97
443.98	7819.73
444.17	7779.94
444.35	8217.62
444.54	8287.84
444.73	8250.39
444.91	8322.94
445.10	8395.50
445.28	8135.70
445.47	8035.06
445.65	8285.50
445.84	8507.85
446.02	8512.53
446.21	8435.29
446.39	8180.17
446.58	8566.36
446.77	8407.20
446.95	8196.56
447.14	8505.51
447.32	8554.66
447.51	8517.21
447.69	8414.23
447.88	8512.53
448.06	8503.17
448.25	8456.36
448.43	8557.00
448.62	8479.76
448.80	8493.80
448.99	8599.13
449.17	8568.70
449.36	8592.11
449.54	8753.60
449.73	9006.38
449.91	9102.34
450.10	8894.04
450.28	9123.41
450.46	9071.92
450.65	9046.17
450.83	8952.55
451.02	9174.90
451.20	9092.98
451.39	9071.92
451.57	9135.11
451.76	9071.92
451.94	9179.58
452.13	9219.37
452.31	9184.26
452.49	9261.50
452.68	9397.25
452.86	9231.07
453.05	9385.55
453.23	9600.88
453.42	9350.44
453.60	9320.01
453.78	9493.21
453.97	9310.65
454.15	9355.12
454.34	9600.88
454.52	9542.36
454.70	9635.99
454.89	9834.93
455.07	9757.69
455.26	9856.00
455.44	9703.86
455.62	9767.06
455.81	9612.58
455.99	9867.70
456.17	9921.53
456.36	9970.68
456.54	10232.82
456.73	10228.14
456.91	10417.72
457.09	10200.05
457.28	10551.14
457.46	10085.37
457.64	10413.04
457.83	10298.36
458.01	10265.59
458.19	10939.66
458.38	10572.20
458.56	10717.31
458.74	10548.79
458.93	10628.37
459.11	10927.96
459.29	10623.69
459.48	10623.69
459.66	10810.93
459.84	10824.98
460.03	10834.34
460.21	10946.69
460.39	11063.71
460.57	10862.43
460.76	10993.50
460.94	11044.99
461.12	11091.80
461.31	11037.97
461.49	11183.08
461.67	11206.48
461.85	11241.59
462.04	11262.66
462.22	11730.76
462.40	11531.82
462.59	11262.66
462.77	11482.67
462.95	11676.93
463.13	11405.43
463.32	11616.08
463.50	11868.86
463.68	11779.92
463.86	11737.79
464.05	11543.52
464.23	11445.22
464.41	11716.72
464.59	11513.10
464.78	11782.26
464.96	11871.20
465.14	11676.93
465.32	12049.08
465.50	12006.95
465.69	12196.53
465.87	11976.52
466.05	12313.56
466.23	12049.08
466.41	12121.63
466.60	12353.35
466.78	12163.76
466.96	12198.87
467.14	12372.07
467.32	12273.77
467.51	12601.44
467.69	12212.92
467.87	12421.22
468.05	12662.30
468.23	12624.85
468.41	12210.57
468.60	12587.40
468.78	12554.63
468.96	12477.40
469.14	12692.73
469.32	12826.14
469.50	12425.90
469.69	12912.74
469.87	13165.51
470.05	13193.60
470.23	13224.03
470.41	13149.13
470.59	13228.71
470.77	13156.15
470.95	13298.92
471.14	13453.40
471.32	13170.19
471.50	13521.27
471.68	13336.37
471.86	13703.84
472.04	13678.09
472.22	13818.52
472.40	13549.36
472.58	13680.43
472.77	13872.36
472.95	14101.73
473.13	14551.11
473.31	13989.38
473.49	14265.57
473.67	14120.45
473.85	14380.25
474.03	14328.76
474.21	14396.64
474.39	14675.16
474.57	14789.85
474.75	14803.89
474.93	14696.22
475.12	15115.18
475.30	15293.06
475.48	15030.92
475.66	15159.65
475.84	15197.10
476.02	15407.75
476.20	15358.60
476.38	15534.14
476.56	15840.75
476.74	15653.50
476.92	15981.18
477.10	15632.44
477.28	16121.61
477.46	15847.77
477.64	16168.42
477.82	16510.14
478.00	16908.03
478.18	16711.42
478.36	16968.88
478.54	17015.69
478.72	17053.14
478.90	17329.33
479.08	17654.66
479.26	17729.56
479.44	17511.89
479.62	17804.46
479.80	17891.06
479.98	17991.70
480.16	18349.80
480.34	18045.53
480.52	18597.90
480.70	18506.62
480.88	18258.52
481.06	18586.19
481.24	18925.57
481.41	19168.99
481.59	19246.23
481.77	19552.84
481.95	19658.16
482.13	19641.78
482.31	19751.78
482.49	20315.85
482.67	20475.01
482.85	20320.53
483.03	20577.99
483.21	20589.69
483.39	20802.68
483.57	21064.82
483.74	20994.61
483.92	21296.53
484.10	21027.37
484.28	21518.89
484.46	21991.67
484.64	22253.81
484.82	22012.74
485.00	22284.24
485.18	22705.54
485.35	23073.00
485.53	22850.65
485.71	22909.16
485.89	23293.01
486.07	23145.56
486.25	23300.03
486.43	23489.62
486.61	23906.23
486.78	24091.13
486.96	24435.19
487.14	24355.61
487.32	24535.84
487.50	24793.29
487.68	25064.80
487.85	24840.11
488.03	25560.99
488.21	26031.44
488.39	25958.88
488.57	25762.28
488.75	25827.81
488.92	26473.80
489.10	26672.74
489.28	26586.15
489.46	27002.76
489.64	27332.78
489.81	27428.74
489.99	27393.63
490.17	27466.19
490.35	28168.35
490.53	27927.27
490.70	28439.85
490.88	28329.84
491.06	28563.90
491.24	28477.30
491.41	28804.97
491.59	29116.26
491.77	29156.05
491.95	29329.25
492.13	29670.97
492.30	29912.05
492.48	30150.78
492.66	29921.41
492.84	30382.49
493.01	30654.00
493.19	30827.20
493.37	30944.22
493.54	31112.74
493.72	31370.20
493.90	31299.98
494.08	31763.41
494.25	31969.38
494.43	31992.78
494.61	31861.71
494.79	32570.90
494.96	32247.90
495.14	32842.40
495.32	33078.79
495.49	33186.46
495.67	33308.16
495.85	33249.65
496.02	33579.67
496.20	34328.64
496.38	34031.39
496.55	34153.10
496.73	34586.10
496.91	34515.88
497.09	34398.85
497.26	34759.30
497.44	34815.47
497.62	35269.53
497.79	35707.21
497.97	35154.85
498.14	35931.90
498.32	36109.78
498.50	36254.90
498.67	36762.79
498.85	36189.36
499.03	36392.99
499.20	36304.05
499.38	36814.29
499.56	36921.95
499.73	36608.32
499.91	37027.28
500.08	37633.47
500.26	37186.43
500.44	37612.41
500.61	37486.02
500.79	37553.90
500.97	37497.72
501.14	38508.83
501.32	38373.08
501.49	38075.84
501.67	38754.59
501.84	38890.34
502.02	38342.66
502.20	38841.19
502.37	39138.44
502.55	39110.35
502.72	39693.15
502.90	39927.20
503.07	39648.68
503.25	39887.41
503.43	39639.31
503.60	40236.15
503.78	40388.28
503.95	40320.41
504.13	40194.02
504.30	40722.98
504.48	40556.80
504.65	40683.19
504.83	40954.69
505.01	41057.68
505.18	41111.51
505.36	41684.94
505.53	40538.08
505.71	41563.23
505.88	41605.36
506.06	41717.71
506.23	42066.45
506.41	41413.44
506.58	42160.07
506.76	41778.56
506.93	42454.98
507.11	42246.67
507.28	42349.65
507.46	42637.54
507.63	42976.92
507.81	43136.07
507.98	42911.38
508.16	42672.65
508.33	43468.43
508.50	43466.09
508.68	43468.43
508.85	43697.80
509.03	43468.43
509.20	43798.44
509.38	44201.02
509.55	44081.65
509.73	44170.59
509.90	44446.77
510.08	44301.66
510.25	44016.11
510.42	44729.98
510.60	44868.07
510.77	44898.50
510.95	45230.85
511.12	44823.60
511.30	45155.96
511.47	45378.31
511.64	45329.16
511.82	45827.69
511.99	45338.52
512.17	45062.33
512.34	46115.58
512.51	45944.72
512.69	46326.22
512.86	46206.86
513.04	46820.08
513.21	45722.37
513.38	46506.44
513.56	46611.77
513.73	46703.05
513.90	46754.54
514.08	47033.07
514.25	47082.22
514.43	47435.64
514.60	47318.61
514.77	46885.61
514.95	47564.37
515.12	47395.85
515.29	47690.76
515.47	47580.75
515.64	47758.63
515.81	47559.69
515.99	47889.70
516.16	48240.78
516.33	48088.65
516.51	48257.17
516.68	48135.46
516.85	48341.42
517.03	48421.00
517.20	48662.08
517.37	48491.22
517.54	48526.33
517.72	48772.08
517.89	49022.52
518.06	49226.15
518.24	49151.25
518.41	48809.53
518.58	49174.66
518.75	49228.49
518.93	49624.04
519.10	49331.47
519.27	49478.92
519.45	49724.68
519.62	49504.67
519.79	49855.75
519.96	50017.25
520.14	49984.48
520.31	49998.52
520.48	50555.57
520.65	49965.76
520.83	50663.24
521.00	50653.87
521.17	50522.80
521.34	50763.88
521.52	50595.36
521.69	50557.91
521.86	50932.40
522.03	50972.19
522.20	51297.52
522.38	51288.16
522.55	51114.96
522.72	51138.36
522.89	51044.74
523.07	51278.80
523.24	51419.23
523.41	51833.50
523.58	51278.80
523.75	51552.64
523.92	51597.11
524.10	51952.87
524.27	52037.13
524.44	51945.85
524.61	52067.56
524.78	52172.88
524.96	52060.54
525.13	52158.84
525.30	52275.87
525.47	52392.89
525.64	52149.48
525.81	52210.33
525.98	52535.66
526.16	52636.31
526.33	52456.09
526.50	52750.99
526.67	52598.86
526.84	52741.63
527.01	52891.43
527.18	52863.34
527.36	52781.42
527.53	52669.08
527.70	53221.44
527.87	53179.31
528.04	52914.83
528.21	53272.93
528.38	53284.64
528.55	53441.45
528.72	53359.53
528.89	53368.90
529.07	53130.16
529.24	53443.79
529.41	53647.42
529.58	53345.49
529.75	53607.63
529.92	53792.53
530.09	53797.21
530.26	54101.48
530.43	53975.09
530.60	53701.25
530.77	53780.83
530.94	54054.67
531.11	54031.27
531.28	53832.32
531.46	54120.21
531.63	54122.55
531.80	54169.36
531.97	54211.49
532.14	54122.55
532.31	54300.43
532.48	54454.90
532.65	54546.18
532.82	54265.32
532.99	54405.75
533.16	54307.45
533.33	54550.87
533.50	54808.32
533.67	54749.81
533.84	54651.51
534.01	55121.96
534.18	54841.09
534.35	55117.28
534.52	55185.15
534.69	55098.55
534.86	54997.91
535.03	54930.03
535.20	55250.69
535.37	55178.13
535.54	55414.52
535.71	55264.73
535.88	55697.73
536.05	55159.41
536.22	55590.06
536.38	55400.48
536.55	55306.86
536.72	55695.39
536.89	55515.17
537.06	55629.85
537.23	55547.93
537.40	55393.46
537.57	55587.72
537.74	55643.90
537.91	55856.88
538.08	55737.52
538.25	55566.66
538.42	55482.40
538.59	55884.97
538.75	55498.78
538.92	56147.11
539.09	56182.22
539.26	55987.95
539.43	55901.36
539.60	55999.66
539.77	56273.50
539.94	56247.75
540.11	56282.86
540.28	56486.49
540.44	56198.60
540.61	56306.27
540.78	56507.55
540.95	56357.76
541.12	56392.87
541.29	56315.63
541.46	56357.76
541.62	56449.04
541.79	56584.79
541.96	56385.85
542.13	56378.82
542.30	56626.92
542.47	56605.86
542.63	56842.25
542.80	56793.10
542.97	56872.68
543.14	57179.29
543.31	57186.31
543.48	57305.68
543.64	57354.83
543.81	57312.70
543.98	57293.97
544.15	57116.09
544.32	57432.07
544.48	57293.97
544.65	57265.89
544.82	57469.51
544.99	56963.96
545.16	57572.50
545.32	57268.23
545.49	57521.01
545.66	57790.17
545.83	57418.02
546.00	57483.56
546.16	57542.07
546.33	57289.29
546.50	57258.87
546.67	57659.10
546.83	57429.72
547.00	57628.67
547.17	57738.68
547.34	57593.56
547.50	57698.89
547.67	57759.74
547.84	58082.73
548.00	58017.20
548.17	57998.48
548.34	58164.65
548.51	58164.65
548.67	58169.33
548.84	57895.49
549.01	57965.71
549.18	58017.20
549.34	58066.35
549.51	58365.94
549.68	58286.36
549.84	58234.87
550.01	58379.98
550.18	58234.87
550.34	58365.94
550.51	58452.54
550.68	58328.49
550.84	58176.36
551.01	58515.73
551.18	58480.63
551.34	58564.88
551.51	58433.81
551.68	58834.05
551.84	58508.71
552.01	58363.60
552.18	58623.40
552.34	58504.03
552.51	58534.46
552.68	58291.04
552.84	58667.87
553.01	58965.12
553.18	58557.86
553.34	58927.67
553.51	58576.59
553.67	58733.40
553.84	58855.11
554.01	58724.04
554.17	58897.24
554.34	58962.78
554.51	59016.61
554.67	58955.75
554.84	58944.05
555.00	58827.02
555.17	59082.14
555.33	58946.39
555.50	58922.99
555.67	58763.83
555.83	58782.55
556.00	59030.65
556.16	59227.26
556.33	59334.92
556.50	59016.61
556.66	59454.29
556.83	59051.72
556.99	59363.01
557.16	59386.41
557.32	59330.24
557.49	59377.05
557.65	59187.47
557.82	59360.67
557.98	59245.98
558.15	59353.65
558.32	59419.18
558.48	59114.91
558.65	59311.52
558.81	59243.64
558.98	59428.54
559.14	59337.26
559.31	59751.54
559.47	59627.49
559.64	59568.97
559.80	59583.02
559.97	59772.60
560.13	59407.48
560.30	59695.36
560.46	59671.96
560.63	59788.98
560.79	59819.41
560.96	59873.24
561.12	59765.58
561.29	59812.39
561.45	59824.09
561.61	59655.57
561.78	59667.28
561.94	59503.44
562.11	59683.66
562.27	59812.39
562.44	59739.83
562.60	59971.55
562.77	60006.65
562.93	59592.38
563.10	59969.21
563.26	59753.88
563.42	60044.10
563.59	59868.56
563.75	59845.16
563.92	59955.16
564.08	59927.08
564.24	59943.46
564.41	60067.51
564.57	59964.52
564.74	60004.31
564.90	59983.25
565.07	60119.00
565.23	59819.41
565.39	59987.93
565.56	60346.03
565.72	59957.50
565.88	60081.55
566.05	59952.82
566.21	60140.07
566.38	60037.08
566.54	60081.55
566.70	60254.75
566.87	60126.02
567.03	60114.32
567.19	60303.90
567.36	60191.56
567.52	60093.25
567.68	60458.38
567.85	60128.36
568.01	60327.31
568.17	60100.28
568.34	60144.75
568.50	60282.84
568.66	60355.39
568.83	60334.33
568.99	60512.21
569.15	60268.79
569.32	60409.23
569.48	60233.69
569.64	60404.55
569.81	60219.64
569.97	60179.85
570.13	60406.89
570.30	60175.17
570.46	60425.61
570.62	60427.95
570.78	60289.86
570.95	60406.89
571.11	60472.42
571.27	60343.69
571.43	60458.38
571.60	60676.05
571.76	60346.03
571.92	60477.10
572.09	60608.17
572.25	60303.90
572.41	60493.49
572.57	60549.66
572.74	60662.00
572.90	60500.51
573.06	60348.37
573.22	60420.93
573.38	60673.71
573.55	60498.17
573.71	60636.26
573.87	60554.34
574.03	60404.55
574.20	60549.66
574.36	60509.87
574.52	60563.70
574.68	60477.10
574.84	60697.11
575.01	60715.84
575.17	60404.55
575.33	60582.43
575.49	60458.38
575.65	60783.71
575.82	60800.10
575.98	60762.65
576.14	60793.07
576.30	60750.94
576.46	60549.66
576.62	60750.94
576.79	60692.43
576.95	60470.08
577.11	60617.53
577.27	60802.44
577.43	60683.07
577.59	60556.68
577.75	60563.70
577.92	60727.54
578.08	60601.15
578.24	60914.78
578.40	60746.26
578.56	60764.99
578.72	60825.84
578.88	60968.61
579.04	60917.12
579.21	60755.63
579.37	60804.78
579.53	60795.42
579.69	60638.60
579.85	60774.35
580.01	60762.65
580.17	60631.58
580.33	60816.48
580.49	60882.02
580.65	60985.00
580.82	60802.44
580.98	60774.35
581.14	60818.82
581.30	60776.69
581.46	60706.47
581.62	60739.24
581.78	60870.31
581.94	60828.18
582.10	60699.45
582.26	60858.61
582.42	60760.31
582.58	60797.76
582.74	60821.16
582.90	60853.93
583.06	60757.97
583.22	60692.43
583.38	60825.84
583.54	60891.38
583.70	60940.53
583.86	60891.38
584.02	60706.47
584.18	61118.41
584.34	60870.31
584.50	60891.38
584.66	60851.59
584.82	60779.03
584.98	61113.73
585.14	60996.70
585.30	60837.54
585.46	61106.71
585.62	60907.76
585.78	60956.91
585.94	60811.80
586.10	61045.85
586.26	60856.27
586.42	61055.21
586.58	60931.17
586.74	61017.77
586.90	60807.12
587.06	61017.77
587.22	61010.74
587.38	60856.27
587.54	61076.28
587.70	61181.60
587.86	61036.49
588.02	60985.00
588.18	61102.03
588.34	60949.89
588.49	61130.11
