SpectraSuite Data File
++++++++++++++++++++++++++++++++++++
Date: Fri Oct 25 11:34:18 EDT 2013
User: price-jones
Dark Spectrum Present: No
Reference Spectrum Present: No
Number of Sampled Component Spectra: 1
Spectrometers: USB2+H05261
Integration Time (usec): 100000 (USB2+H05261)
Spectra Averaged: 1 (USB2+H05261)
Boxcar Smoothing: 0 (USB2+H05261)
Correct for Electrical Dark: No (USB2+H05261)
Strobe/Lamp Enabled: No (USB2+H05261)
Correct for Detector Non-linearity: No (USB2+H05261)
Correct for Stray Light: No (USB2+H05261)
Number of Pixels in Processed Spectrum: 2048
>>>>>Begin Processed Spectral Data<<<<<
365.73	271.50
365.92	271.50
366.12	271.50
366.32	205.97
366.52	196.60
366.72	210.65
366.91	159.16
367.11	201.29
367.31	135.75
367.51	168.52
367.70	210.65
367.90	227.03
368.10	159.16
368.30	245.76
368.49	191.92
368.69	180.22
368.89	241.08
369.09	222.35
369.28	175.54
369.48	252.78
369.68	236.39
369.87	210.65
370.07	182.56
370.27	292.57
370.47	266.82
370.66	484.49
370.86	503.22
371.06	550.03
371.25	526.62
371.45	482.15
371.65	554.71
371.84	545.34
372.04	608.54
372.24	578.11
372.44	610.88
372.63	550.03
372.83	524.28
373.03	533.64
373.22	566.41
373.42	585.13
373.62	564.07
373.81	582.79
374.01	634.29
374.21	653.01
374.40	674.07
374.60	650.67
374.79	653.01
374.99	631.94
375.19	655.35
375.38	730.25
375.58	692.80
375.78	695.14
375.97	702.16
376.17	695.14
376.37	575.77
376.56	636.63
376.76	634.29
376.95	650.67
377.15	716.20
377.35	638.97
377.54	709.18
377.74	697.48
377.93	685.78
378.13	664.71
378.33	711.52
378.52	692.80
378.72	734.93
378.91	760.67
379.11	755.99
379.31	643.65
379.50	645.99
379.70	720.88
379.89	690.46
380.09	669.39
380.28	704.50
380.48	727.91
380.68	678.76
380.87	772.38
381.07	748.97
381.26	732.59
381.46	692.80
381.65	746.63
381.85	706.84
382.04	709.18
382.24	786.42
382.43	774.72
382.63	688.12
382.83	814.51
383.02	730.25
383.22	819.19
383.41	786.42
383.61	807.48
383.80	882.38
384.00	805.14
384.19	784.08
384.39	835.57
384.58	751.31
384.78	830.89
384.97	730.25
385.17	847.27
385.36	844.93
385.56	746.63
385.75	763.01
385.95	894.08
386.14	826.21
386.34	760.67
386.53	760.67
386.72	842.59
386.92	917.49
387.11	847.27
387.31	849.61
387.50	938.55
387.70	866.00
387.89	870.68
388.09	847.27
388.28	856.64
388.48	842.59
388.67	898.77
388.86	894.08
389.06	999.41
389.25	1020.47
389.45	976.00
389.64	896.43
389.84	966.64
390.03	1046.22
390.22	1015.79
390.42	973.66
390.61	1011.11
390.81	985.37
391.00	1001.75
391.19	945.58
391.39	858.98
391.58	1006.43
391.78	1057.92
391.97	1022.81
392.16	933.87
392.36	1069.62
392.55	940.90
392.75	919.83
392.94	990.05
393.13	1011.11
393.33	1025.15
393.52	1039.20
393.71	1046.22
393.91	1088.35
394.10	1043.88
394.29	1064.94
394.49	1083.67
394.68	1093.03
394.88	1097.71
395.07	1149.20
395.26	1135.16
395.46	1146.86
395.65	1181.97
395.84	1233.46
396.04	1205.38
396.23	1137.50
396.42	1294.32
396.62	1128.14
396.81	1259.21
397.00	1146.86
397.19	1146.86
397.39	1179.63
397.58	1186.65
397.77	1219.42
397.97	1247.51
398.16	1198.35
398.35	1275.59
398.55	1261.55
398.74	1254.53
398.93	1327.08
399.12	1219.42
399.32	1256.87
399.51	1315.38
399.70	1277.93
399.90	1247.51
400.09	1373.89
400.28	1303.68
400.47	1390.28
400.67	1315.38
400.86	1345.81
401.05	1376.24
401.24	1350.49
401.44	1423.05
401.63	1359.85
401.82	1516.67
402.01	1451.13
402.21	1427.73
402.40	1376.24
402.59	1434.75
402.78	1479.22
402.97	1540.07
403.17	1427.73
403.36	1423.05
403.55	1432.41
403.74	1497.94
403.93	1575.18
404.13	1502.62
404.32	1540.07
404.51	1600.93
404.70	1610.29
404.89	1565.82
405.09	1668.80
405.28	1659.44
405.47	1591.56
405.66	1717.95
405.85	1678.16
406.05	1673.48
406.24	1741.36
406.43	1710.93
406.62	1764.76
406.81	1736.68
407.00	1701.57
407.20	1687.53
407.39	1671.14
407.58	1820.94
407.77	1865.41
407.96	1884.13
408.15	1732.00
408.34	1701.57
408.54	1851.36
408.73	1900.52
408.92	1977.75
409.11	1923.92
409.30	1949.67
409.49	1970.73
409.68	1966.05
409.87	1966.05
410.07	2043.29
410.26	1893.49
410.45	2008.18
410.64	2045.63
410.83	2024.56
411.02	1977.75
411.21	2120.53
411.40	2012.86
411.59	2218.83
411.78	2104.14
411.98	2113.50
412.17	2207.13
412.36	2157.97
412.55	2197.76
412.74	2335.85
412.93	2303.09
413.12	2258.62
413.31	2370.96
413.50	2392.03
413.69	2373.30
413.88	2459.90
414.07	2492.67
414.26	2342.88
414.45	2471.61
414.64	2518.42
414.83	2511.39
415.02	2495.01
415.22	2457.56
415.41	2476.29
415.60	2656.51
415.79	2581.61
415.98	2605.02
416.17	2576.93
416.36	2565.23
416.55	2665.87
416.74	2733.75
416.93	2759.49
417.12	2736.09
417.31	2867.16
417.50	2878.86
417.69	2888.22
417.88	2848.43
418.07	2878.86
418.26	2850.77
418.45	2995.89
418.64	3007.59
418.83	2925.67
419.02	3002.91
419.21	3054.40
419.39	3042.70
419.58	3028.65
419.77	3026.31
419.96	3229.94
420.15	3101.21
420.34	3089.51
420.53	3068.44
420.72	3070.78
420.91	3194.83
421.10	3218.24
421.29	3290.79
421.48	3126.96
421.67	3169.09
421.86	3155.04
422.05	3227.60
422.24	3290.79
422.43	3279.09
422.61	3251.00
422.80	3279.09
422.99	3325.90
423.18	3342.28
423.37	3468.67
423.56	3293.13
423.75	3456.97
423.94	3232.28
424.13	3145.68
424.32	3293.13
424.50	3342.28
424.69	3346.97
424.88	3332.92
425.07	3330.58
425.26	3283.77
425.45	3351.65
425.64	3325.90
425.83	3335.26
426.01	3379.73
426.20	3351.65
426.39	3307.18
426.58	3251.00
426.77	3337.60
426.96	3421.86
427.15	3637.19
427.33	3555.27
427.52	3461.65
427.71	3529.53
427.90	3501.44
428.09	3566.98
428.28	3520.17
428.46	3566.98
428.65	3590.38
428.84	3676.98
429.03	3712.09
429.22	3566.98
429.40	3751.88
429.59	3669.96
429.78	3494.42
429.97	3548.25
430.16	3620.81
430.34	3777.62
430.53	3646.55
430.72	3730.81
430.91	3808.05
431.10	3716.77
431.28	3960.19
431.47	3777.62
431.66	3845.50
431.85	3920.40
432.03	3847.84
432.22	3990.61
432.41	4091.26
432.60	3934.44
432.79	3948.48
432.97	3932.10
433.16	3920.40
433.35	4051.47
433.54	4105.30
433.72	3950.82
433.91	4119.34
434.10	4079.55
434.28	4107.64
434.47	4028.06
434.66	4109.98
434.85	4175.52
435.03	4229.35
435.22	4180.20
435.41	4311.27
435.59	4159.13
435.78	4264.46
435.97	4362.76
436.16	4329.99
436.34	4341.69
436.53	4304.25
436.72	4447.02
436.90	4271.48
437.09	4477.44
437.28	4294.88
437.46	4381.48
437.65	4493.83
437.84	4535.96
438.02	4507.87
438.21	4528.94
438.40	4517.23
438.58	4727.88
438.77	4711.50
438.96	4681.07
439.14	4678.73
439.33	4704.48
439.52	4814.48
439.70	4800.44
439.89	4922.15
440.08	4819.16
440.26	4929.17
440.45	4835.55
440.63	4910.44
440.82	5043.85
441.01	5029.81
441.19	5043.85
441.38	5177.26
441.57	5088.32
441.75	5076.62
441.94	5125.77
442.12	5320.04
442.31	5231.10
442.50	5188.97
442.68	5109.39
442.87	5296.63
443.05	5359.83
443.24	5528.35
443.43	5369.19
443.61	5373.87
443.80	5544.73
443.98	5320.04
444.17	5224.08
444.35	5406.64
444.54	5472.17
444.73	5540.05
444.91	5462.81
445.10	5542.39
445.28	5500.26
445.47	5387.91
445.65	5661.76
445.84	5474.51
446.02	5563.45
446.21	5441.75
446.39	5446.43
446.58	5652.39
446.77	5568.13
446.95	5245.14
447.14	5668.78
447.32	5706.23
447.51	5586.86
447.69	5514.30
447.88	5572.82
448.06	5689.84
448.25	5591.54
448.43	5675.80
448.62	5715.59
448.80	5790.49
448.99	5703.89
449.17	5694.52
449.36	5680.48
449.54	5769.42
449.73	5844.32
449.91	5884.11
450.10	5769.42
450.28	6052.63
450.46	5907.51
450.65	6113.48
450.83	5935.60
451.02	5813.89
451.20	5970.71
451.39	6043.26
451.57	5982.41
451.76	5832.62
451.94	5940.28
452.13	6122.84
452.31	6101.78
452.49	5998.79
452.68	6195.40
452.86	6216.46
453.05	6214.12
453.23	6363.92
453.42	6164.97
453.60	6211.78
453.78	6157.95
453.97	6171.99
454.15	6139.23
454.34	6157.95
454.52	6314.77
454.70	6296.04
454.89	6485.62
455.07	6380.30
455.26	6406.05
455.44	6682.23
455.62	6544.14
455.81	6258.59
455.99	6588.61
456.17	6511.37
456.36	6740.74
456.54	6527.75
456.73	6600.31
456.91	6792.23
457.09	6846.07
457.28	6817.98
457.46	6803.94
457.64	6740.74
457.83	6984.16
458.01	6626.06
458.19	6944.37
458.38	6902.24
458.56	7054.37
458.74	7155.02
458.93	7084.80
459.11	7068.42
459.29	7047.35
459.48	7183.10
459.66	7143.32
459.84	7166.72
460.03	7045.01
460.21	7162.04
460.39	7267.36
460.57	7185.44
460.76	7101.19
460.94	7323.54
461.12	7431.20
461.31	7185.44
461.49	7112.89
461.67	7201.83
461.85	7590.36
462.04	7325.88
462.22	7953.14
462.40	7618.44
462.59	7466.31
462.77	7578.65
462.95	7475.67
463.13	7726.11
463.32	7660.57
463.50	7620.78
463.68	7765.90
463.86	7705.04
464.05	7393.75
464.23	7728.45
464.41	7691.00
464.59	7648.87
464.78	7939.10
464.96	7782.28
465.14	7648.87
465.32	7754.19
465.50	7880.58
465.69	7953.14
465.87	7887.61
466.05	7824.41
466.23	8081.87
466.41	8009.31
466.60	8021.02
466.78	7754.19
466.96	7911.01
467.14	8030.38
467.32	7946.12
467.51	8222.30
467.69	7889.95
467.87	7957.82
468.05	8229.32
468.23	8049.10
468.41	8056.12
468.60	8191.88
468.78	8224.64
468.96	8175.49
469.14	8425.93
469.32	8269.11
469.50	8217.62
469.69	8430.61
469.87	8470.40
470.05	8273.79
470.23	8404.86
470.41	8606.15
470.59	8786.37
470.77	8690.41
470.95	8571.04
471.14	8798.07
471.32	8610.83
471.50	8795.73
471.68	8739.56
471.86	8891.70
472.04	8982.98
472.22	9032.13
472.40	8933.82
472.58	9004.04
472.77	9177.24
472.95	9130.43
473.13	9376.19
473.31	9165.54
473.49	9013.40
473.67	9188.94
473.85	9130.43
474.03	9514.28
474.21	9345.76
474.39	9537.68
474.57	9504.92
474.75	9851.31
474.93	9596.20
475.12	9783.44
475.30	9844.29
475.48	9652.37
475.66	9748.33
475.84	9856.00
476.02	9834.93
476.20	10071.33
476.38	10115.80
476.56	10450.49
476.74	10513.69
476.92	10202.40
477.10	10031.54
477.28	10326.44
477.46	10373.25
477.64	10637.73
477.82	10630.71
478.00	10977.11
478.18	10827.32
478.36	10794.55
478.54	10925.62
478.72	10867.11
478.90	11150.31
479.08	11328.19
479.26	11304.79
479.44	11061.37
479.62	11267.34
479.80	11389.05
479.98	11485.01
480.16	11894.60
480.34	11887.58
480.52	11836.09
480.70	11981.20
480.88	11726.08
481.06	12058.44
481.24	12058.44
481.41	12182.49
481.59	12423.56
481.77	12257.39
481.95	12571.02
482.13	12697.41
482.31	12491.44
482.49	12959.55
482.67	12662.30
482.85	13064.87
483.03	13137.43
483.21	13308.29
483.39	13350.42
483.57	13153.81
483.74	13376.16
483.92	13502.55
484.10	13383.18
484.28	13579.79
484.46	14143.86
484.64	14202.37
484.82	14153.22
485.00	14052.58
485.18	14235.14
485.35	14768.78
485.53	14785.16
485.71	14551.11
485.89	15033.26
486.07	14862.40
486.25	15236.89
486.43	14860.06
486.61	15180.71
486.78	15328.17
486.96	15314.13
487.14	15431.15
487.32	15564.56
487.50	15791.59
487.68	15791.59
487.85	16023.31
488.03	16079.48
488.21	16421.20
488.39	16341.62
488.57	16350.98
488.75	16879.94
488.92	16690.36
489.10	17008.67
489.28	17177.19
489.46	17362.09
489.64	16933.78
489.81	17577.42
489.99	17647.64
490.17	17729.56
490.35	17867.65
490.53	18036.17
490.70	18136.81
490.88	18249.16
491.06	18331.08
491.24	18429.38
491.41	18785.14
491.59	18693.86
491.77	18471.51
491.95	18827.27
492.13	19061.32
492.30	18981.74
492.48	19374.95
492.66	19248.57
492.84	18848.33
493.01	19690.93
493.19	19662.84
493.37	19906.26
493.54	20058.39
493.72	19822.00
493.90	19910.94
494.08	20231.59
494.25	20315.85
494.43	20334.57
494.61	20460.96
494.79	20346.28
494.96	20421.17
495.14	20765.23
495.32	20959.50
495.49	21359.73
495.67	20968.86
495.85	21359.73
496.02	21326.96
496.20	21223.98
496.38	21804.43
496.55	21944.86
496.73	22057.21
496.91	21886.35
497.09	22328.71
497.26	22207.00
497.44	22380.20
497.62	22291.26
497.79	22522.98
497.97	22834.27
498.14	22862.35
498.32	23051.94
498.50	23388.97
498.67	23028.53
498.85	23276.63
499.03	23403.02
499.20	23323.44
499.38	23442.81
499.56	23527.06
499.73	23798.57
499.91	23821.97
500.08	23873.46
500.26	24144.97
500.44	23737.71
500.61	23978.79
500.79	23875.80
500.97	24222.20
501.14	24610.73
501.32	24334.55
501.49	24781.59
501.67	24325.19
501.84	24989.90
502.02	24446.90
502.20	24592.01
502.37	24985.22
502.55	24769.89
502.72	25275.45
502.90	25422.90
503.07	24865.85
503.25	25413.54
503.43	25404.17
503.60	25439.28
503.78	25441.62
503.95	25694.40
504.13	25551.63
504.30	25886.32
504.48	25851.22
504.65	26253.79
504.83	25914.41
505.01	26157.83
505.18	26326.35
505.36	26892.76
505.53	26583.80
505.71	26775.73
505.88	26724.24
506.06	26478.48
506.23	26780.41
506.41	26630.62
506.58	26925.52
506.76	27215.75
506.93	26827.22
507.11	27061.27
507.28	27292.99
507.46	27300.01
507.63	27477.89
507.81	27363.20
507.98	27119.79
508.16	27295.33
508.33	27765.78
508.50	27676.83
508.68	27730.67
508.85	28018.55
509.03	27969.40
509.20	28224.52
509.38	28254.95
509.55	28173.03
509.73	28151.96
509.90	28491.34
510.08	28294.74
510.25	28737.10
510.42	28514.75
510.60	29027.32
510.77	29090.52
510.95	29317.55
511.12	28882.21
511.30	28709.01
511.47	29343.30
511.64	29221.59
511.82	29139.67
511.99	29191.16
512.17	29729.48
512.34	29523.52
512.51	29731.83
512.69	29780.98
512.86	29867.58
513.04	30321.64
513.21	29916.73
513.38	30181.21
513.56	30408.24
513.73	30239.72
513.90	30066.52
514.08	29916.73
514.25	30654.00
514.43	30586.12
514.60	30534.63
514.77	31082.31
514.95	30726.55
515.12	30408.24
515.29	30686.76
515.47	30775.70
515.64	31133.81
515.81	30820.17
515.99	30808.47
516.16	31424.03
516.33	31222.75
516.51	31510.63
516.68	31168.91
516.85	31367.86
517.03	31679.15
517.20	31424.03
517.37	31318.71
517.54	31967.04
517.72	31812.56
517.89	32002.14
518.06	31646.38
518.24	31622.98
518.41	31592.55
518.58	32046.62
518.75	32236.20
518.93	32507.70
519.10	32208.11
519.27	32725.37
519.45	32629.41
519.62	32753.46
519.79	32657.49
519.96	32870.48
520.14	32758.14
520.31	32339.18
520.48	33006.23
520.65	33017.94
520.83	32954.74
521.00	33537.54
521.17	32767.50
521.34	33270.72
521.52	33207.52
521.69	33397.10
521.86	33443.91
522.03	33579.67
522.20	33764.57
522.38	33977.56
522.55	33944.79
522.72	33982.24
522.89	33799.68
523.07	34068.84
523.24	34272.46
523.41	34108.63
523.58	33706.05
523.75	34408.22
523.92	34064.16
524.10	34548.65
524.27	34902.07
524.44	34567.37
524.61	34768.66
524.78	34396.51
524.96	34682.06
525.13	34930.16
525.30	35096.33
525.47	35068.25
525.64	34752.27
525.81	34967.60
525.98	34834.19
526.16	34897.39
526.33	34876.32
526.50	35351.45
526.67	35065.91
526.84	35503.59
527.01	35531.67
527.18	35292.94
527.36	35866.37
527.53	35704.87
527.70	35887.43
527.87	35721.26
528.04	35468.48
528.21	36088.72
528.38	35798.49
528.55	35899.14
528.72	35831.26
528.89	36102.76
529.07	36081.70
529.24	35847.64
529.41	36275.96
529.58	36285.33
529.75	36032.55
529.92	36566.19
530.09	36545.12
530.26	36430.44
530.43	36673.85
530.60	36676.19
530.77	36858.76
530.94	36430.44
531.11	36346.18
531.28	36975.78
531.46	36645.77
531.63	37120.90
531.80	36818.97
531.97	37036.64
532.14	37247.29
532.31	37102.17
532.48	37165.37
532.65	37603.05
532.82	36720.66
532.99	37539.85
533.16	37013.23
533.33	37354.95
533.50	37610.07
533.67	37769.22
533.84	37130.26
534.01	38003.28
534.18	37790.29
534.35	37937.74
534.52	37797.31
534.69	38043.07
534.86	38026.68
535.03	37853.48
535.20	37914.34
535.37	38265.42
535.54	38323.93
535.71	37965.83
535.88	38366.06
536.05	38141.37
536.22	38436.28
536.38	38199.88
536.55	38253.72
536.72	38579.05
536.89	38588.41
537.06	38979.28
537.23	38871.62
537.40	38689.06
537.57	38857.57
537.74	38557.99
537.91	38904.38
538.08	38721.82
538.25	38653.95
538.42	38410.53
538.59	39498.88
538.75	39494.20
538.92	38859.91
539.09	39461.43
539.26	39302.28
539.43	39154.82
539.60	39173.55
539.77	38822.47
539.94	39262.49
540.11	39695.49
540.28	39604.20
540.44	40149.55
540.61	39264.83
540.78	39374.83
540.95	39255.46
541.12	39328.02
541.29	39400.58
541.46	39665.06
541.62	39470.79
541.79	39793.79
541.96	39997.41
542.13	39796.13
542.30	39735.27
542.47	40018.48
542.63	39452.07
542.80	40348.50
542.97	40470.20
543.14	40706.60
543.31	40898.52
543.48	40304.02
543.64	40502.97
543.81	40460.84
543.98	40762.77
544.15	40577.87
544.32	40725.32
544.48	41141.94
544.65	40917.25
544.82	40746.39
544.99	40722.98
545.16	40964.06
545.32	41029.59
545.49	41310.46
545.66	41249.60
545.83	41055.34
546.00	40935.97
546.16	41062.36
546.33	41324.50
546.50	40493.61
546.67	41596.00
546.83	41158.32
547.00	41090.44
547.17	40959.38
547.34	41350.24
547.50	41745.80
547.67	42103.90
547.84	41626.43
548.00	41937.72
548.17	42150.71
548.34	41968.15
548.51	41911.97
548.67	42010.28
548.84	41689.62
549.01	41659.20
549.18	41621.75
549.34	41876.86
549.51	42387.10
549.68	42206.88
549.84	41787.92
550.01	42164.75
550.18	41993.89
550.34	42433.91
550.51	42330.93
550.68	42206.88
550.84	42176.45
551.01	42459.66
551.18	42286.46
551.34	42080.49
551.51	42305.18
551.68	42249.01
551.84	42579.03
552.01	42700.73
552.18	42951.17
552.34	42752.23
552.51	42682.01
552.68	42263.05
552.84	42869.25
553.01	42829.46
553.18	42478.38
553.34	42873.93
553.51	42438.59
553.67	42864.57
553.84	42930.11
554.01	43037.77
554.17	43152.46
554.34	43093.94
554.51	43196.93
554.67	43571.41
554.84	43459.07
555.00	43154.80
555.17	43288.21
555.33	43648.65
555.50	43477.79
555.67	43023.73
555.83	43290.55
556.00	43145.44
556.16	43845.26
556.33	43370.13
556.50	43449.70
556.66	43208.63
556.83	43445.02
556.99	43550.35
557.16	43721.21
557.32	43604.18
557.49	43735.25
557.65	43232.04
557.82	44025.48
557.98	44198.68
558.15	43894.41
558.32	43878.02
558.48	44020.80
558.65	43522.26
558.81	44109.74
558.98	43810.15
559.14	43828.87
559.31	43976.33
559.47	43718.87
559.64	44112.08
559.80	43845.26
559.97	44378.90
560.13	44081.65
560.30	43978.67
560.46	44629.34
560.63	44095.69
560.79	44215.06
560.96	44158.89
561.12	44570.82
561.29	44055.90
561.45	44367.20
561.61	44030.16
561.78	44219.74
561.94	44348.47
562.11	44634.02
562.27	43983.35
562.44	43835.89
562.60	44554.44
562.77	44561.46
562.93	44390.60
563.10	44793.17
563.26	44430.39
563.42	44945.31
563.59	44212.72
563.75	44446.77
563.92	44378.90
564.08	44524.01
564.24	44715.93
564.41	44945.31
564.57	44662.10
564.74	44334.43
564.90	44271.23
565.07	44615.29
565.23	44259.53
565.39	44531.03
565.56	44737.00
565.72	44687.85
565.88	44701.89
566.05	44926.58
566.21	45153.62
566.38	44940.63
566.54	44650.40
566.70	44980.42
566.87	44687.85
567.03	44774.45
567.19	44788.49
567.36	44968.71
567.52	45078.72
567.68	45017.86
567.85	45340.86
568.01	44931.26
568.17	44804.88
568.34	45027.23
568.50	45104.46
568.66	45043.61
568.83	45071.70
568.99	45104.46
569.15	45343.20
569.32	45160.64
569.48	45083.40
569.64	45059.99
569.81	45343.20
569.97	44999.14
570.13	45619.38
570.30	44959.35
570.46	45621.72
570.62	45141.91
570.78	45146.59
570.95	45296.39
571.11	45586.61
571.27	45078.72
571.43	45148.93
571.60	45404.05
571.76	44882.11
571.92	45113.83
572.09	45123.19
572.25	45254.26
572.41	45186.38
572.57	45090.42
572.74	45551.51
572.90	45422.78
573.06	45673.21
573.22	45530.44
573.38	45610.02
573.55	45586.61
573.71	45738.75
573.87	45581.93
574.03	45298.73
574.20	45666.19
574.36	45722.37
574.52	45841.73
574.68	45626.40
574.84	45626.40
575.01	45956.42
575.17	45705.98
575.33	45315.11
575.49	45759.81
575.65	45703.64
575.82	45537.46
575.98	45579.59
576.14	45970.46
576.30	45886.20
576.46	45839.39
576.62	45607.68
576.79	45528.10
576.95	45116.17
577.11	45310.43
577.27	45495.33
577.43	45558.53
577.59	45624.06
577.75	45441.50
577.92	45347.88
578.08	45481.29
578.24	45755.13
578.40	45909.61
578.56	45691.94
578.72	46066.42
578.88	45525.76
579.04	45659.17
579.21	45579.59
579.37	46036.00
579.53	45851.09
579.69	45883.86
579.85	45448.52
580.01	45535.12
580.17	45696.62
580.33	46134.30
580.49	46045.36
580.65	45993.87
580.82	45450.86
580.98	45689.60
581.14	45352.56
581.30	45738.75
581.46	46064.08
581.62	45647.47
581.78	45317.45
581.94	45839.39
582.10	45865.14
582.26	45921.31
582.42	45715.34
582.58	45546.82
582.74	46134.30
582.90	45720.02
583.06	45865.14
583.22	45862.80
583.38	45844.07
583.54	45975.14
583.70	46000.89
583.86	46007.91
584.02	46059.40
584.18	45895.56
584.34	46347.29
584.50	46370.69
584.66	46162.39
584.82	46169.41
584.98	46045.36
585.14	46288.77
585.30	45918.97
585.46	46122.60
585.62	45764.49
585.78	45979.82
585.94	45109.14
586.10	45595.98
586.26	45783.22
586.42	45998.55
586.58	45965.78
586.74	45888.54
586.90	45745.77
587.06	45825.35
587.22	46248.99
587.38	45855.78
587.54	46019.61
587.70	46555.60
587.86	46021.95
588.02	46138.98
588.18	45841.73
588.34	46373.03
588.49	46014.93
588.65	46120.26
588.81	45659.17
588.97	46094.51
589.13	46351.97
589.29	45603.00
589.45	46038.34
589.61	46157.70
589.77	46330.90
589.93	46206.86
590.08	46340.27
