SpectraSuite Data File
++++++++++++++++++++++++++++++++++++
Date: Fri Oct 25 11:26:10 EDT 2013
User: price-jones
Dark Spectrum Present: No
Reference Spectrum Present: No
Number of Sampled Component Spectra: 1
Spectrometers: USB2+H05261
Integration Time (usec): 100000 (USB2+H05261)
Spectra Averaged: 1 (USB2+H05261)
Boxcar Smoothing: 0 (USB2+H05261)
Correct for Electrical Dark: No (USB2+H05261)
Strobe/Lamp Enabled: No (USB2+H05261)
Correct for Detector Non-linearity: No (USB2+H05261)
Correct for Stray Light: No (USB2+H05261)
Number of Pixels in Processed Spectrum: 2048
>>>>>Begin Processed Spectral Data<<<<<
365.73	287.89
365.92	287.89
366.12	287.89
366.32	196.60
366.52	191.92
366.72	168.52
366.91	142.77
367.11	149.79
367.31	173.20
367.51	191.92
367.70	107.66
367.90	201.29
368.10	177.88
368.30	184.90
368.49	72.56
368.69	140.43
368.89	208.31
369.09	191.92
369.28	229.37
369.48	128.73
369.68	91.28
369.87	201.29
370.07	201.29
370.27	208.31
370.47	383.85
370.66	587.47
370.86	596.84
371.06	657.69
371.25	748.97
371.45	676.41
371.65	711.52
371.84	676.41
372.04	704.50
372.24	744.29
372.44	765.36
372.63	755.99
372.83	770.04
373.03	779.40
373.22	702.16
373.42	793.44
373.62	765.36
373.81	795.78
374.01	844.93
374.21	755.99
374.40	814.51
374.60	828.55
374.79	805.14
374.99	861.32
375.19	854.30
375.38	901.11
375.58	833.23
375.78	732.59
375.97	851.96
376.17	1018.13
376.37	943.24
376.56	866.00
376.76	812.17
376.95	901.11
377.15	807.48
377.35	968.98
377.54	1055.58
377.74	959.62
377.93	891.74
378.13	882.38
378.33	1006.43
378.52	978.34
378.72	966.64
378.91	987.71
379.11	1008.77
379.31	964.30
379.50	940.90
379.70	978.34
379.89	924.51
380.09	964.30
380.28	924.51
380.48	919.83
380.68	992.39
380.87	1020.47
381.07	1004.09
381.26	1144.52
381.46	1029.84
381.65	1015.79
381.85	978.34
382.04	1001.75
382.24	1025.15
382.43	1036.86
382.63	1039.20
382.83	1046.22
383.02	1090.69
383.22	1146.86
383.41	1137.50
383.61	1109.41
383.80	1135.16
384.00	1048.56
384.19	1163.25
384.39	1062.60
384.58	1100.05
384.78	1121.12
384.97	1142.18
385.17	1132.82
385.36	1170.27
385.56	1142.18
385.75	1142.18
385.95	1156.22
386.14	1217.08
386.34	1163.25
386.53	1170.27
386.72	1179.63
386.92	1193.67
387.11	1170.27
387.31	1177.29
387.50	1245.16
387.70	1247.51
387.89	1207.72
388.09	1235.80
388.28	1320.06
388.48	1270.91
388.67	1469.86
388.86	1291.98
389.06	1341.13
389.25	1306.02
389.45	1373.89
389.64	1357.51
389.84	1380.92
390.03	1493.26
390.22	1348.15
390.42	1238.14
390.61	1373.89
390.81	1373.89
391.00	1331.76
391.19	1404.32
391.39	1413.68
391.58	1385.60
391.78	1324.74
391.97	1497.94
392.16	1366.87
392.36	1460.49
392.55	1535.39
392.75	1488.58
392.94	1558.80
393.13	1565.82
393.33	1476.88
393.52	1544.75
393.71	1554.12
393.91	1575.18
394.10	1647.74
394.29	1645.40
394.49	1577.52
394.68	1605.61
394.88	1612.63
395.07	1713.27
395.26	1720.29
395.46	1682.85
395.65	1762.42
395.84	1741.36
396.04	1785.83
396.23	1806.89
396.42	1687.53
396.62	1755.40
396.81	1923.92
397.00	1830.30
397.19	1799.87
397.39	1799.87
397.58	1891.15
397.77	1818.60
397.97	1846.68
398.16	1820.94
398.35	1947.33
398.55	1790.51
398.74	1856.04
398.93	1982.43
399.12	1891.15
399.32	1916.90
399.51	1912.22
399.70	1942.64
399.90	2008.18
400.09	2019.88
400.28	2157.97
400.47	2024.56
400.67	2090.10
400.86	2052.65
401.05	2043.29
401.24	2073.71
401.44	2125.21
401.63	2275.00
401.82	2115.84
402.01	2169.68
402.21	2087.76
402.40	2260.96
402.59	2148.61
402.78	2165.00
402.97	2230.53
403.17	2298.41
403.36	2305.43
403.55	2361.60
403.74	2338.20
403.93	2291.38
404.13	2326.49
404.32	2326.49
404.51	2312.45
404.70	2443.52
404.89	2406.07
405.09	2459.90
405.28	2459.90
405.47	2544.16
405.66	2537.14
405.85	2495.01
406.05	2431.82
406.24	2616.72
406.43	2562.89
406.62	2572.25
406.81	2682.25
407.00	2684.59
407.20	2614.38
407.39	2555.86
407.58	2679.91
407.77	2738.43
407.96	2668.21
408.15	2850.77
408.34	2750.13
408.54	2736.09
408.73	2764.17
408.92	2740.77
409.11	2853.11
409.30	2810.98
409.49	2888.22
409.68	2932.69
409.87	2843.75
410.07	2979.50
410.26	3042.70
410.45	3030.99
410.64	3075.46
410.83	3038.02
411.02	2988.86
411.21	3316.54
411.40	3173.77
411.59	3276.75
411.78	3225.26
411.98	3243.98
412.17	3269.73
412.36	3295.47
412.55	3293.13
412.74	3346.97
412.93	3403.14
413.12	3368.03
413.31	3644.21
413.50	3445.27
413.69	3494.42
413.88	3679.32
414.07	3599.74
414.26	3616.13
414.45	3625.49
414.64	3658.26
414.83	3740.18
415.02	3719.11
415.22	3768.26
415.41	3796.35
415.60	3777.62
415.79	3824.44
415.98	3985.93
416.17	4028.06
416.36	4016.36
416.55	3967.21
416.74	4002.32
416.93	4063.17
417.12	4133.39
417.31	4042.11
417.50	4128.70
417.69	4388.50
417.88	4301.90
418.07	4231.69
418.26	4311.27
418.45	4393.19
418.64	4449.36
418.83	4498.51
419.02	4444.68
419.21	4540.64
419.39	4435.32
419.58	4512.55
419.77	4311.27
419.96	4531.28
420.15	4720.86
420.34	4720.86
420.53	4608.51
420.72	4760.65
420.91	4521.92
421.10	4821.50
421.29	4875.34
421.48	4660.01
421.67	4770.01
421.86	4833.21
422.05	4814.48
422.24	4706.82
422.43	4929.17
422.61	4968.96
422.80	4847.25
422.99	4812.14
423.18	4835.55
423.37	5074.28
423.56	5069.60
423.75	4945.55
423.94	4882.36
424.13	4648.30
424.32	4727.88
424.50	5184.29
424.69	5130.45
424.88	5100.03
425.07	4931.51
425.26	4791.08
425.45	4954.91
425.64	5013.43
425.83	4994.70
426.01	5011.09
426.20	5032.15
426.39	4940.87
426.58	4950.23
426.77	4919.81
426.96	5135.14
427.15	5121.09
427.33	5263.86
427.52	5128.11
427.71	5303.65
427.90	5177.26
428.09	5174.92
428.28	5359.83
428.46	5315.36
428.65	5303.65
428.84	5418.34
429.03	5493.24
429.22	5416.00
429.40	5439.40
429.59	5453.45
429.78	5219.39
429.97	5298.97
430.16	5406.64
430.34	5607.92
430.53	5741.33
430.72	5593.88
430.91	5799.85
431.10	5722.61
431.28	5488.56
431.47	5680.48
431.66	6026.88
431.85	5863.04
432.03	5877.09
432.22	5994.11
432.41	5851.34
432.60	5970.71
432.79	5872.40
432.97	6069.01
433.16	6054.97
433.35	6029.22
433.54	6141.57
433.72	5954.32
433.91	6047.94
434.10	6225.82
434.28	6104.12
434.47	6232.85
434.66	6303.06
434.85	6368.60
435.03	6202.42
435.22	6246.89
435.41	6434.13
435.59	6265.61
435.78	6289.02
435.97	6464.56
436.16	6392.00
436.34	6548.82
436.53	6523.07
436.72	6595.63
436.90	6223.48
437.09	6651.80
437.28	6319.45
437.46	6651.80
437.65	6644.78
437.84	6726.70
438.02	6597.97
438.21	6794.58
438.40	6668.19
438.58	6820.32
438.77	6902.24
438.96	6991.18
439.14	6963.09
439.33	7183.10
439.52	7330.56
439.70	7073.10
439.89	7288.43
440.08	7295.45
440.26	7346.94
440.45	7447.58
440.63	7274.38
440.82	7583.34
441.01	7218.21
441.19	7485.03
441.38	7702.70
441.57	7749.51
441.75	7887.61
441.94	7803.35
442.12	7988.25
442.31	7901.65
442.50	7885.26
442.68	8018.68
442.87	8070.17
443.05	8037.40
443.24	8280.82
443.43	8226.98
443.61	8315.92
443.80	8416.57
443.98	8067.83
444.17	7941.44
444.35	8269.11
444.54	8386.14
444.73	8362.73
444.91	8313.58
445.10	8327.63
445.28	8203.58
445.47	8236.35
445.65	8318.26
445.84	8610.83
446.02	8561.68
446.21	8376.78
446.39	8496.14
446.58	8524.23
446.77	8542.96
446.95	8390.82
447.14	8425.93
447.32	8496.14
447.51	8575.72
447.69	8402.52
447.88	8507.85
448.06	8519.55
448.25	8493.80
448.43	8493.80
448.62	8561.68
448.80	8416.57
448.99	8484.44
449.17	8699.77
449.36	8613.17
449.54	9015.74
449.73	8950.21
449.91	9015.74
450.10	9095.32
450.28	9172.56
450.46	9043.83
450.65	9046.17
450.83	9221.71
451.02	9214.69
451.20	9207.67
451.39	9111.71
451.57	9121.07
451.76	8968.93
451.94	9202.99
452.13	9275.54
452.31	9135.11
452.49	9041.49
452.68	9116.39
452.86	9444.06
453.05	9423.00
453.23	9525.98
453.42	9432.36
453.60	9301.29
453.78	9556.41
453.97	9479.17
454.15	9392.57
454.34	9535.34
454.52	9865.36
454.70	9820.89
454.89	9844.29
455.07	9778.76
455.26	9717.90
455.44	10090.05
455.62	9898.13
455.81	9909.83
455.99	10068.98
456.17	10080.69
456.36	10087.71
456.54	10146.22
456.73	10169.63
456.91	10469.22
457.09	10338.15
457.28	10504.32
457.46	10279.63
457.64	10537.09
457.83	10347.51
458.01	10483.26
458.19	10679.86
458.38	10513.69
458.56	10712.63
458.74	10670.50
458.93	10855.40
459.11	10736.04
459.29	10691.57
459.48	10902.22
459.66	10656.46
459.84	11012.22
460.03	11028.60
460.21	10911.58
460.39	10949.03
460.57	11094.14
460.76	11136.27
460.94	11229.89
461.12	11321.17
461.31	11049.67
461.49	11173.72
461.67	11290.74
461.85	11613.74
462.04	11103.50
462.22	11796.30
462.40	11805.66
462.59	11602.04
462.77	11506.07
462.95	11616.08
463.13	11660.55
463.32	11454.58
463.50	11620.76
463.68	11712.04
463.86	11908.65
464.05	11646.51
464.23	11791.62
464.41	11604.38
464.59	11658.21
464.78	12161.42
464.96	11906.31
465.14	11578.63
465.32	11899.28
465.50	12060.78
465.69	12187.17
465.87	12152.06
466.05	12114.61
466.23	12212.92
466.41	12044.40
466.60	12561.66
466.78	12245.68
466.96	12292.49
467.14	12215.26
467.32	12428.24
467.51	12528.89
467.69	12201.21
467.87	12489.10
468.05	12435.27
468.23	12381.43
468.41	12472.71
468.60	12786.35
468.78	12814.43
468.96	12514.84
469.14	12863.58
469.32	13011.04
469.50	12585.06
469.69	13011.04
469.87	12901.03
470.05	13350.42
470.23	12947.84
470.41	13041.46
470.59	13366.80
470.77	13167.85
470.95	13200.62
471.14	13502.55
471.32	13142.11
471.50	13458.08
471.68	13605.53
471.86	13837.25
472.04	13582.13
472.22	13902.78
472.40	13675.75
472.58	13752.99
472.77	13888.74
472.95	14001.08
473.13	14319.40
473.31	14080.66
473.49	14139.18
473.67	14342.80
473.85	14288.97
474.03	14665.80
474.21	14438.76
474.39	14618.99
474.57	14764.10
474.75	14853.04
474.93	14726.65
475.12	14904.53
475.30	15133.90
475.48	14981.77
475.66	15302.42
475.84	15096.46
476.02	15288.38
476.20	15431.15
476.38	15653.50
476.56	16056.08
476.74	16046.71
476.92	15693.29
477.10	15721.38
477.28	16093.52
477.46	16166.08
477.64	16400.13
477.82	16376.73
478.00	16882.28
478.18	16587.38
478.36	16952.50
478.54	17315.28
478.72	17104.64
478.90	17268.47
479.08	17530.61
479.26	17586.79
479.44	17968.29
479.62	17834.88
479.80	17980.00
479.98	18321.71
480.16	18462.15
480.34	18347.46
480.52	18508.96
480.70	18948.98
480.88	18401.29
481.06	18792.16
481.24	18876.42
481.41	19112.81
481.59	19459.21
481.77	19482.62
481.95	19351.55
482.13	19690.93
482.31	19896.89
482.49	19857.10
482.67	20112.22
482.85	20194.14
483.03	20821.41
483.21	20517.14
483.39	20835.45
483.57	20751.19
483.74	21170.15
483.92	21291.85
484.10	20999.29
484.28	21729.53
484.46	21926.14
484.64	22317.01
484.82	22132.11
485.00	22480.85
485.18	22953.63
485.35	23087.04
485.53	22780.43
485.71	22909.16
485.89	23545.79
486.07	23599.62
486.25	23073.00
486.43	23388.97
486.61	23541.11
486.78	24088.79
486.96	23999.85
487.14	24510.09
487.32	24627.12
487.50	25041.39
487.68	25036.71
487.85	25186.50
488.03	25680.36
488.21	25832.49
488.39	25600.78
488.57	26169.53
488.75	26026.76
488.92	26410.60
489.10	26609.55
489.28	26658.70
489.46	27171.28
489.64	26757.00
489.81	27264.90
489.99	27742.37
490.17	27503.64
490.35	28381.34
490.53	28201.11
490.70	28208.14
490.88	28093.45
491.06	28727.74
491.24	28741.78
491.41	28919.66
491.59	29472.03
491.77	29277.76
491.95	29558.63
492.13	29937.79
492.30	30071.20
492.48	29942.47
492.66	30075.88
492.84	30087.59
493.01	30756.98
493.19	30717.19
493.37	30806.13
493.54	31026.14
493.72	31562.12
493.90	31112.74
494.08	31356.16
494.25	31503.61
494.43	32011.51
494.61	32463.23
494.79	32467.91
494.96	32446.85
495.14	32360.25
495.32	32830.69
495.49	33165.39
495.67	33212.20
495.85	33429.87
496.02	34012.66
496.20	34115.65
496.38	34195.23
496.55	33722.44
496.73	34548.65
496.91	34775.68
497.09	34796.74
497.26	35101.01
497.44	34923.13
497.62	35204.00
497.79	35749.34
497.97	35838.28
498.14	35810.20
498.32	36191.70
498.50	35852.33
498.67	36362.56
498.85	36184.68
499.03	36402.35
499.20	36879.82
499.38	36891.52
499.56	37158.34
499.73	37003.87
499.91	37373.67
500.08	37689.65
500.26	37387.72
500.44	37118.56
500.61	37799.65
500.79	37347.93
500.97	37881.57
501.14	38902.04
501.32	38513.52
501.49	38436.28
501.67	39028.43
501.84	39218.02
502.02	39189.93
502.20	39086.95
502.37	39278.87
502.55	39019.07
502.72	39337.38
502.90	39552.71
503.07	39435.69
503.25	39459.09
503.43	39243.76
503.60	40170.61
503.78	40273.60
503.95	40292.32
504.13	40521.69
504.30	40509.99
504.48	40893.84
504.65	40678.51
504.83	40973.42
505.01	41621.75
505.18	41160.66
505.36	41277.69
505.53	40720.64
505.71	41691.96
505.88	41832.39
506.06	41441.53
506.23	41844.10
506.41	41769.20
506.58	42092.19
506.76	41972.83
506.93	42471.36
507.11	42220.92
507.28	42665.63
507.46	42639.88
507.63	42962.87
507.81	43152.46
507.98	42918.40
508.16	43086.92
508.33	43578.43
508.50	43295.23
508.68	43330.34
508.85	43908.45
509.03	44126.12
509.20	43604.18
509.38	43959.94
509.55	44229.10
509.73	44486.56
509.90	45153.62
510.08	44954.67
510.25	44708.91
510.42	45027.23
510.60	45111.49
510.77	45193.40
510.95	45443.84
511.12	45139.57
511.30	45528.10
511.47	45371.28
511.64	45249.58
511.82	46045.36
511.99	45586.61
512.17	45724.71
512.34	45830.03
512.51	46260.69
512.69	46518.15
512.86	46223.24
513.04	46838.80
513.21	46403.46
513.38	46696.03
513.56	46525.17
513.73	46555.60
513.90	47311.59
514.08	47023.70
514.25	47187.54
514.43	47309.25
514.60	47669.69
514.77	47068.17
514.95	47604.16
515.12	47430.96
515.29	47250.74
515.47	48067.58
515.64	48198.65
515.81	47812.46
515.99	48109.71
516.16	48425.68
516.33	48512.28
516.51	48479.52
516.68	48126.10
516.85	48704.21
517.03	48736.98
517.20	48727.61
517.37	48664.42
517.54	49242.53
517.72	48830.60
517.89	49059.97
518.06	48980.39
518.24	49020.18
518.41	49287.00
518.58	49504.67
518.75	49169.97
518.93	49308.07
519.10	49432.11
519.27	49579.57
519.45	49715.32
519.62	50019.59
519.79	49904.90
519.96	50150.66
520.14	50054.70
520.31	50101.51
520.48	50127.25
520.65	50176.40
520.83	50628.13
521.00	50806.01
521.17	50642.17
521.34	50754.52
521.52	50948.78
521.69	50787.28
521.86	50873.88
522.03	51231.99
522.20	51187.52
522.38	51274.12
522.55	51276.46
522.72	50969.85
522.89	51168.79
523.07	51468.38
523.24	51480.08
523.41	51573.70
523.58	51491.79
523.75	52065.22
523.92	51569.02
524.10	51840.53
524.27	51789.03
524.44	51821.80
524.61	51999.68
524.78	52128.41
524.96	52109.69
525.13	52357.78
525.30	52339.06
525.47	52577.79
525.64	52282.89
525.81	52308.63
525.98	52971.00
526.16	52547.37
526.33	52809.51
526.50	53052.92
526.67	52530.98
526.84	52868.02
527.01	52989.73
527.18	52935.90
527.36	52729.93
527.53	52992.07
527.70	53062.29
527.87	53144.20
528.04	53265.91
528.21	53319.74
528.38	53216.76
528.55	53434.43
528.72	53539.75
528.89	53528.05
529.07	53399.32
529.24	53586.57
529.41	53638.06
529.58	53563.16
529.75	53752.74
529.92	53645.08
530.09	54026.59
530.26	54082.76
530.43	54204.47
530.60	53741.04
530.77	53577.20
530.94	54066.38
531.11	54059.35
531.28	54005.52
531.46	54195.10
531.63	54284.04
531.80	54143.61
531.97	54398.73
532.14	54550.87
532.31	54436.18
532.48	54688.96
532.65	54618.74
532.82	54436.18
532.99	54756.83
533.16	54494.69
533.33	54815.35
533.50	54752.15
533.67	54817.69
533.84	54805.98
534.01	54728.75
534.18	54834.07
534.35	55161.75
534.52	55079.83
534.69	55030.68
534.86	55157.06
535.03	55086.85
535.20	55180.47
535.37	55325.58
535.54	55372.39
535.71	55063.44
535.88	55384.10
536.05	55384.10
536.22	55533.89
536.38	55578.36
536.55	55271.75
536.72	55540.91
536.89	55463.67
537.06	55669.64
537.23	55774.97
537.40	55681.34
537.57	55545.59
537.74	55969.23
537.91	55955.19
538.08	55798.37
538.25	55833.48
538.42	55901.36
538.59	55906.04
538.75	55601.77
538.92	55891.99
539.09	56119.02
539.26	56121.37
539.43	56083.92
539.60	56243.07
539.77	56039.45
539.94	56392.87
540.11	56177.54
540.28	56369.46
540.44	56633.94
540.61	56406.91
540.78	56486.49
540.95	56474.79
541.12	56313.29
541.29	56481.81
541.46	56500.53
541.62	56722.88
541.79	56774.37
541.96	56362.44
542.13	56418.61
542.30	56369.46
542.47	56638.62
542.63	56800.12
542.80	56917.15
542.97	56982.68
543.14	57167.58
543.31	57190.99
543.48	57120.77
543.64	57329.08
543.81	57408.66
543.98	57153.54
544.15	57226.10
544.32	57301.00
544.48	57591.22
544.65	57359.51
544.82	57366.53
544.99	57155.88
545.16	57574.84
545.32	57214.40
545.49	57614.63
545.66	57446.11
545.83	57698.89
546.00	57614.63
546.16	57780.81
546.33	57602.92
546.50	57434.41
546.67	57677.82
546.83	57429.72
547.00	57804.21
547.17	57733.99
547.34	57942.30
547.50	57757.40
547.67	58056.99
547.84	57839.32
548.00	58061.67
548.17	58171.67
548.34	58103.80
548.51	58101.46
548.67	58031.24
548.84	57991.45
549.01	57860.38
549.18	58183.38
549.34	58225.51
549.51	58431.47
549.68	58234.87
549.84	58293.38
550.01	58279.34
550.18	58260.62
550.34	58415.09
550.51	58370.62
550.68	58230.19
550.84	58248.91
551.01	58291.04
551.18	58501.69
551.34	58642.12
551.51	58410.41
551.68	58651.48
551.84	58398.71
552.01	58375.30
552.18	58576.59
552.34	58398.71
552.51	58796.60
552.68	58422.11
552.84	58742.77
553.01	58944.05
553.18	58724.04
553.34	58775.53
553.51	58646.80
553.67	58585.95
553.84	59070.44
554.01	58976.82
554.17	59054.06
554.34	58939.37
554.51	59025.97
554.67	58887.88
554.84	59082.14
555.00	58941.71
555.17	59028.31
555.33	58789.58
555.50	58944.05
555.67	58901.92
555.83	58922.99
556.00	59159.38
556.16	59430.88
556.33	59196.83
556.50	59011.93
556.66	59271.73
556.83	59049.38
556.99	59407.48
557.16	59372.37
557.32	59573.66
557.49	59557.27
557.65	59262.36
557.82	59229.60
557.98	59578.34
558.15	59395.77
558.32	59550.25
558.48	59423.86
558.65	59437.90
558.81	59627.49
558.98	59540.89
559.14	59611.10
559.31	59704.73
559.47	59634.51
559.64	59669.62
559.80	59796.01
559.97	59805.37
560.13	59526.84
560.30	59756.22
560.46	59805.37
560.63	59863.88
560.79	59922.40
560.96	59739.83
561.12	59711.75
561.29	59681.32
561.45	59934.10
561.61	59810.05
561.78	59739.83
561.94	59800.69
562.11	59852.18
562.27	59831.11
562.44	59908.35
562.60	60041.76
562.77	59810.05
562.93	59573.66
563.10	60107.30
563.26	59870.90
563.42	60177.51
563.59	59849.84
563.75	59842.82
563.92	59962.18
564.08	59814.73
564.24	60268.79
564.41	60250.07
564.57	60186.88
564.74	59842.82
564.90	60203.26
565.07	60259.43
565.23	59971.55
565.39	60114.32
565.56	60163.47
565.72	59992.61
565.88	60257.09
566.05	60294.54
566.21	60030.06
566.38	60404.55
566.54	60186.88
566.70	60198.58
566.87	60229.01
567.03	60114.32
567.19	60301.56
567.36	60264.11
567.52	60310.92
567.68	60601.15
567.85	60310.92
568.01	60383.48
568.17	60219.64
568.34	60292.20
568.50	60137.72
568.66	60416.25
568.83	60210.28
568.99	60292.20
569.15	60371.78
569.32	60683.07
569.48	60434.97
569.64	60441.99
569.81	60240.71
569.97	60409.23
570.13	60299.22
570.30	60259.43
570.46	60523.91
570.62	60317.95
570.78	60392.84
570.95	60516.89
571.11	60645.62
571.27	60446.68
571.43	60530.93
571.60	60669.03
571.76	60509.87
571.92	60556.68
572.09	60310.92
572.25	60636.26
572.41	60441.99
572.57	60591.79
572.74	60640.94
572.90	60523.91
573.06	60596.47
573.22	60582.43
573.38	60385.82
573.55	60610.51
573.71	60608.17
573.87	60603.49
574.03	60479.44
574.20	60601.15
574.36	60687.75
574.52	60767.33
574.68	60779.03
574.84	60814.14
575.01	60809.46
575.17	60760.31
575.33	60676.05
575.49	60764.99
575.65	60727.54
575.82	60615.19
575.98	60612.85
576.14	60872.65
576.30	60828.18
576.46	60905.42
576.62	60734.56
576.79	60786.05
576.95	60804.78
577.11	60893.72
577.27	60874.99
577.43	60903.08
577.59	60683.07
577.75	60786.05
577.92	60680.73
578.08	60692.43
578.24	60783.71
578.40	61043.51
578.56	60933.51
578.72	60811.80
578.88	60898.40
579.04	60931.17
579.21	60800.10
579.37	61010.74
579.53	60994.36
579.69	60657.32
579.85	60666.69
580.01	60865.63
580.17	60603.49
580.33	60917.12
580.49	60921.80
580.65	60842.23
580.82	60903.08
580.98	60680.73
581.14	60743.92
581.30	60970.96
581.46	61001.38
581.62	60896.06
581.78	60985.00
581.94	60924.14
582.10	60809.46
582.26	60910.10
582.42	60966.27
582.58	60947.55
582.74	60781.37
582.90	61205.01
583.06	60781.37
583.22	60720.52
583.38	60938.19
583.54	60809.46
583.70	61080.96
583.86	60999.04
584.02	60963.93
584.18	60966.27
584.34	60928.83
584.50	60970.96
584.66	60982.66
584.82	60856.27
584.98	61169.90
585.14	60935.85
585.30	60898.40
585.46	60849.25
585.62	60889.04
585.78	61113.73
585.94	60662.00
586.10	60954.57
586.26	60900.74
586.42	60910.10
586.58	61043.51
586.74	61092.66
586.90	61036.49
587.06	60889.04
587.22	61020.11
587.38	61087.98
587.54	60996.70
587.70	61076.28
587.86	61123.09
588.02	61167.56
588.18	61183.94
588.34	61172.24
