SpectraSuite Data File
++++++++++++++++++++++++++++++++++++
Date: Fri Oct 25 11:34:39 EDT 2013
User: price-jones
Dark Spectrum Present: No
Reference Spectrum Present: No
Number of Sampled Component Spectra: 1
Spectrometers: USB2+H05261
Integration Time (usec): 100000 (USB2+H05261)
Spectra Averaged: 1 (USB2+H05261)
Boxcar Smoothing: 0 (USB2+H05261)
Correct for Electrical Dark: No (USB2+H05261)
Strobe/Lamp Enabled: No (USB2+H05261)
Correct for Detector Non-linearity: No (USB2+H05261)
Correct for Stray Light: No (USB2+H05261)
Number of Pixels in Processed Spectrum: 2048
>>>>>Begin Processed Spectral Data<<<<<
365.73	327.68
365.92	327.68
366.12	327.68
366.32	177.88
366.52	128.73
366.72	191.92
366.91	189.58
367.11	196.60
367.31	170.86
367.51	168.52
367.70	152.13
367.90	248.10
368.10	189.58
368.30	170.86
368.49	140.43
368.69	184.90
368.89	170.86
369.09	234.05
369.28	250.44
369.48	182.56
369.68	234.05
369.87	238.73
370.07	217.67
370.27	262.14
370.47	365.12
370.66	430.66
370.86	510.24
371.06	519.60
371.25	507.90
371.45	493.85
371.65	615.56
371.84	514.92
372.04	559.39
372.24	575.77
372.44	664.71
372.63	620.24
372.83	582.79
373.03	603.86
373.22	599.18
373.42	631.94
373.62	629.60
373.81	648.33
374.01	599.18
374.21	617.90
374.40	585.13
374.60	629.60
374.79	608.54
374.99	636.63
375.19	653.01
375.38	657.69
375.58	674.07
375.78	601.52
375.97	620.24
376.17	755.99
376.37	713.86
376.56	603.86
376.76	624.92
376.95	688.12
377.15	697.48
377.35	671.73
377.54	660.03
377.74	683.44
377.93	645.99
378.13	624.92
378.33	711.52
378.52	627.26
378.72	737.27
378.91	734.93
379.11	664.71
379.31	650.67
379.50	657.69
379.70	704.50
379.89	753.65
380.09	723.23
380.28	613.22
380.48	765.36
380.68	699.82
380.87	732.59
381.07	741.95
381.26	800.46
381.46	748.97
381.65	730.25
381.85	744.29
382.04	713.86
382.24	723.23
382.43	732.59
382.63	678.76
382.83	823.87
383.02	704.50
383.22	816.85
383.41	800.46
383.61	758.33
383.80	765.36
384.00	711.52
384.19	781.74
384.39	819.19
384.58	727.91
384.78	784.08
384.97	788.76
385.17	903.45
385.36	809.83
385.56	770.04
385.75	791.10
385.95	917.49
386.14	805.14
386.34	816.85
386.53	830.89
386.72	870.68
386.92	938.55
387.11	837.91
387.31	873.02
387.50	866.00
387.70	854.30
387.89	819.19
388.09	861.32
388.28	889.40
388.48	870.68
388.67	896.43
388.86	910.47
389.06	856.64
389.25	884.72
389.45	915.15
389.64	931.53
389.84	1006.43
390.03	964.30
390.22	947.92
390.42	971.32
390.61	786.42
390.81	945.58
391.00	999.41
391.19	952.60
391.39	940.90
391.58	905.79
391.78	1027.50
391.97	1053.24
392.16	966.64
392.36	964.30
392.55	1041.54
392.75	994.73
392.94	990.05
393.13	1081.33
393.33	1135.16
393.52	1116.44
393.71	1043.88
393.91	1107.07
394.10	1069.62
394.29	1053.24
394.49	1018.13
394.68	999.41
394.88	1095.37
395.07	1149.20
395.26	1069.62
395.46	1107.07
395.65	1121.12
395.84	1118.78
396.04	1270.91
396.23	1219.42
396.42	1132.82
396.62	1104.73
396.81	1266.23
397.00	1193.67
397.19	1160.91
397.39	1196.01
397.58	1156.22
397.77	1153.88
397.97	1219.42
398.16	1224.10
398.35	1188.99
398.55	1193.67
398.74	1231.12
398.93	1331.76
399.12	1170.27
399.32	1172.61
399.51	1172.61
399.70	1322.40
399.90	1254.53
400.09	1329.42
400.28	1275.59
400.47	1313.04
400.67	1387.94
400.86	1345.81
401.05	1324.74
401.24	1359.85
401.44	1299.00
401.63	1350.49
401.82	1399.64
402.01	1357.51
402.21	1308.36
402.40	1397.30
402.59	1460.49
402.78	1497.94
402.97	1446.45
403.17	1434.75
403.36	1507.30
403.55	1507.30
403.74	1544.75
403.93	1387.94
404.13	1572.84
404.32	1514.33
404.51	1591.56
404.70	1584.54
404.89	1544.75
405.09	1579.86
405.28	1563.48
405.47	1556.46
405.66	1575.18
405.85	1659.44
406.05	1591.56
406.24	1696.89
406.43	1636.03
406.62	1696.89
406.81	1753.06
407.00	1724.97
407.20	1722.63
407.39	1696.89
407.58	1827.96
407.77	1757.74
407.96	1682.85
408.15	1844.34
408.34	1820.94
408.54	1774.13
408.73	1900.52
408.92	1771.79
409.11	1842.00
409.30	1933.28
409.49	1914.56
409.68	1933.28
409.87	1930.94
410.07	1994.14
410.26	1923.92
410.45	1975.41
410.64	2040.95
410.83	2087.76
411.02	2001.16
411.21	2045.63
411.40	2015.20
411.59	2125.21
411.78	2040.95
411.98	2087.76
412.17	2108.82
412.36	2054.99
412.55	2195.42
412.74	2249.25
412.93	2218.83
413.12	2228.19
413.31	2452.88
413.50	2291.38
413.69	2340.54
413.88	2382.67
414.07	2368.62
414.26	2338.20
414.45	2459.90
414.64	2289.04
414.83	2560.55
415.02	2534.80
415.22	2473.95
415.41	2478.63
415.60	2509.05
415.79	2537.14
415.98	2626.08
416.17	2565.23
416.36	2562.89
416.55	2696.30
416.74	2698.64
416.93	2670.55
417.12	2708.00
417.31	2717.36
417.50	2696.30
417.69	2885.88
417.88	2745.45
418.07	2810.98
418.26	2869.50
418.45	2815.66
418.64	2944.39
418.83	2832.05
419.02	2906.95
419.21	3000.57
419.39	2834.39
419.58	3042.70
419.77	2998.23
419.96	3042.70
420.15	3080.14
420.34	3059.08
420.53	2981.84
420.72	2993.55
420.91	3033.33
421.10	3108.23
421.29	3124.62
421.48	3075.46
421.67	3187.81
421.86	3164.40
422.05	3066.10
422.24	3098.87
422.43	3145.68
422.61	3218.24
422.80	3255.69
422.99	3115.25
423.18	3276.75
423.37	3199.51
423.56	3410.16
423.75	3178.45
423.94	3059.08
424.13	3002.91
424.32	3215.90
424.50	3349.31
424.69	3346.97
424.88	3393.78
425.07	3314.20
425.26	3234.62
425.45	3365.69
425.64	3251.00
425.83	3201.85
426.01	3288.45
426.20	3246.32
426.39	3314.20
426.58	3279.09
426.77	3269.73
426.96	3337.60
427.15	3321.22
427.33	3344.63
427.52	3353.99
427.71	3456.97
427.90	3510.80
428.09	3482.72
428.28	3510.80
428.46	3555.27
428.65	3543.57
428.84	3627.83
429.03	3562.30
429.22	3571.66
429.40	3648.90
429.59	3723.79
429.78	3513.14
429.97	3426.54
430.16	3662.94
430.34	3812.73
430.53	3691.02
430.72	3726.13
430.91	3550.59
431.10	3712.09
431.28	3761.24
431.47	3810.39
431.66	3763.58
431.85	3695.71
432.03	3852.52
432.22	3920.40
432.41	3918.06
432.60	3946.14
432.79	3896.99
432.97	3932.10
433.16	3894.65
433.35	3997.64
433.54	3999.98
433.72	4063.17
433.91	4028.06
434.10	4046.79
434.28	3997.64
434.47	3892.31
434.66	4032.74
434.85	4086.58
435.03	4074.87
435.22	3957.85
435.41	4306.59
435.59	4152.11
435.78	4100.62
435.97	4264.46
436.16	4065.51
436.34	4128.70
436.53	4086.58
436.72	4383.82
436.90	4210.62
437.09	4252.75
437.28	4191.90
437.46	4348.72
437.65	4341.69
437.84	4454.04
438.02	4332.33
438.21	4337.01
438.40	4390.84
438.58	4479.79
438.77	4559.36
438.96	4507.87
439.14	4727.88
439.33	4599.15
439.52	4667.03
439.70	4664.69
439.89	4840.23
440.08	4662.35
440.26	4718.52
440.45	4830.87
440.63	4898.74
440.82	4873.00
441.01	4830.87
441.19	4842.57
441.38	5029.81
441.57	4887.04
441.75	5001.72
441.94	5195.99
442.12	5057.90
442.31	5228.76
442.50	5217.05
442.68	5158.54
442.87	5097.69
443.05	5228.76
443.24	5263.86
443.43	5219.39
443.61	5219.39
443.80	5528.35
443.98	5125.77
444.17	5170.24
444.35	5130.45
444.54	5235.78
444.73	5273.23
444.91	5158.54
445.10	5380.89
445.28	5441.75
445.47	5444.09
445.65	5416.00
445.84	5514.30
446.02	5399.62
446.21	5516.64
446.39	5235.78
446.58	5551.75
446.77	5575.16
446.95	5280.25
447.14	5427.70
447.32	5465.15
447.51	5455.79
447.69	5441.75
447.88	5418.34
448.06	5460.47
448.25	5416.00
448.43	5502.60
448.62	5490.90
448.80	5575.16
448.99	5619.63
449.17	5673.46
449.36	5722.61
449.54	5746.02
449.73	5734.31
449.91	5825.59
450.10	5713.25
450.28	5811.55
450.46	5792.83
450.65	5734.31
450.83	5701.54
451.02	5867.72
451.20	5870.06
451.39	5827.93
451.57	5968.37
451.76	5888.79
451.94	5813.89
452.13	5944.96
452.31	5937.94
452.49	5853.68
452.68	6029.22
452.86	5951.98
453.05	6162.63
453.23	6010.50
453.42	6092.41
453.60	6008.16
453.78	6080.71
453.97	6087.73
454.15	6026.88
454.34	6122.84
454.52	6267.95
454.70	6347.53
454.89	6239.87
455.07	6312.42
455.26	6239.87
455.44	6436.47
455.62	6377.96
455.81	6448.18
455.99	6354.55
456.17	6401.37
456.36	6553.50
456.54	6677.55
456.73	6619.04
456.91	6778.19
457.09	6511.37
457.28	6820.32
457.46	6670.53
457.64	6689.25
457.83	6628.40
458.01	6562.86
458.19	6801.60
458.38	6715.00
458.56	6747.76
458.74	6745.42
458.93	6825.00
459.11	6892.88
459.29	6876.49
459.48	6867.13
459.66	7077.78
459.84	7171.40
460.03	7042.67
460.21	6970.12
460.39	6963.09
460.57	7080.12
460.76	7222.89
460.94	7155.02
461.12	7056.72
461.31	7000.54
461.49	7124.59
461.67	7045.01
461.85	7185.44
462.04	7180.76
462.22	7627.81
462.40	7288.43
462.59	7258.00
462.77	7335.24
462.95	7405.46
463.13	7330.56
463.32	7332.90
463.50	7496.74
463.68	7585.68
463.86	7473.33
464.05	7283.75
464.23	7461.63
464.41	7494.40
464.59	7438.22
464.78	7611.42
464.96	7651.21
465.14	7768.24
465.32	7620.78
465.50	7700.36
465.69	7637.17
465.87	7735.47
466.05	7662.91
466.23	7616.10
466.41	7475.67
466.60	7880.58
466.78	7557.59
466.96	7676.96
467.14	7639.51
467.32	7925.05
467.51	7948.46
467.69	7838.45
467.87	7943.78
468.05	7953.14
468.23	7817.39
468.41	7885.26
468.60	8131.02
468.78	8058.46
468.96	7985.91
469.14	8102.93
469.32	8198.90
469.50	8084.21
469.69	8318.26
469.87	8163.79
470.05	8184.85
470.23	8425.93
470.41	8140.38
470.59	8662.32
470.77	8287.84
470.95	8421.25
471.14	8547.64
471.32	8273.79
471.50	8755.94
471.68	8589.77
471.86	8631.90
472.04	8659.98
472.22	8769.99
472.40	8524.23
472.58	8599.13
472.77	8755.94
472.95	8779.35
473.13	9233.41
473.31	8812.12
473.49	8879.99
473.67	8966.59
473.85	8990.00
474.03	9163.20
474.21	9221.71
474.39	9128.09
474.57	9294.27
474.75	9303.63
474.93	9371.50
475.12	9401.93
475.30	9277.88
475.48	9352.78
475.66	9652.37
475.84	9362.14
476.02	9596.20
476.20	9607.90
476.38	9776.42
476.56	10092.39
476.74	10031.54
476.92	10033.88
477.10	10010.47
477.28	9951.96
477.46	10167.29
477.64	10319.42
477.82	10328.78
478.00	10841.36
478.18	10553.48
478.36	10441.13
478.54	10693.91
478.72	10785.19
478.90	10942.00
479.08	11087.12
479.26	11173.72
479.44	11019.24
479.62	11014.56
479.80	11419.47
479.98	11377.34
480.16	11372.66
480.34	11480.33
480.52	11721.40
480.70	11501.39
480.88	11639.48
481.06	11592.67
481.24	11822.05
481.41	12042.06
481.59	11971.84
481.77	12013.97
481.95	12201.21
482.13	12163.76
482.31	12212.92
482.49	12573.36
482.67	12603.78
482.85	12610.81
483.03	12936.14
483.21	12945.50
483.39	13130.41
483.57	12973.59
483.74	13277.86
483.92	13238.07
484.10	13179.56
484.28	13661.71
484.46	13582.13
484.64	13841.93
484.82	13760.01
485.00	13764.69
485.18	14106.41
485.35	14188.33
485.53	14101.73
485.71	14314.72
485.89	14590.90
486.07	14513.66
486.25	14377.91
486.43	14478.55
486.61	15002.83
486.78	14972.41
486.96	15030.92
487.14	15180.71
487.32	15396.04
487.50	15550.52
487.68	15606.69
487.85	15520.09
488.03	16102.89
488.21	16121.61
488.39	15988.20
488.57	16292.47
488.75	16210.55
488.92	16407.16
489.10	16458.65
489.28	16676.32
489.46	16627.17
489.64	16718.45
489.81	17214.64
489.99	16961.86
490.17	17291.88
490.35	17488.48
490.53	17579.76
490.70	17619.55
490.88	17542.32
491.06	17762.33
491.24	17900.42
491.41	18239.79
491.59	18190.64
491.77	18066.60
491.95	18356.82
492.13	18508.96
492.30	18471.51
492.48	18672.79
492.66	18576.83
492.84	18714.92
493.01	19119.84
493.19	18932.59
493.37	18635.35
493.54	19393.68
493.72	19323.46
493.90	19417.08
494.08	19653.48
494.25	19623.05
494.43	19728.38
494.61	20121.59
494.79	20428.20
494.96	20219.89
495.14	19950.73
495.32	20397.77
495.49	20638.84
495.67	20388.41
495.85	20739.49
496.02	20844.81
496.20	21116.31
496.38	21074.18
496.55	21163.12
496.73	21465.05
496.91	21294.19
497.09	21376.11
497.26	21685.06
497.44	21820.81
497.62	21757.62
497.79	21996.35
497.97	21905.07
498.14	22253.81
498.32	22527.66
498.50	22429.35
498.67	22487.87
498.85	22129.77
499.03	22869.37
499.20	22562.76
499.38	22654.05
499.56	23168.96
499.73	23180.67
499.91	23126.83
500.08	23604.30
500.26	22960.66
500.44	23447.49
500.61	23473.23
500.79	23302.37
500.97	23606.64
501.14	24034.96
501.32	23793.89
501.49	23934.32
501.67	24170.71
501.84	24437.53
502.02	24067.73
502.20	24624.78
502.37	24240.93
502.55	24383.70
502.72	24339.23
502.90	24573.28
503.07	24690.31
503.25	24734.78
503.43	24479.66
503.60	24879.89
503.78	24720.74
503.95	24762.87
504.13	25153.74
504.30	25179.48
504.48	25104.59
504.65	25301.19
504.83	25546.95
505.01	25591.42
505.18	25511.84
505.36	25937.82
505.53	25495.46
505.71	25853.56
505.88	26192.94
506.06	25963.56
506.23	26094.63
506.41	25802.07
506.58	26073.57
506.76	26134.42
506.93	26239.75
507.11	26279.54
507.28	26642.32
507.46	26422.31
507.63	26359.11
507.81	27014.46
507.98	26785.09
508.16	26719.56
508.33	26820.20
508.50	27058.93
508.68	26960.63
508.85	27681.52
509.03	27080.00
509.20	27604.28
509.38	27391.29
509.55	27833.65
509.73	27985.79
509.90	27742.37
510.08	27520.02
510.25	27880.46
510.42	28023.23
510.60	28276.01
510.77	28336.87
510.95	28439.85
511.12	28093.45
511.30	28147.28
511.47	28542.83
511.64	28376.66
511.82	28484.32
511.99	28304.10
512.17	28641.14
512.34	28783.91
512.51	28926.68
512.69	29247.33
512.86	29010.94
513.04	29125.63
513.21	29366.70
513.38	29305.85
513.56	29244.99
513.73	29441.60
513.90	29572.67
514.08	29226.27
514.25	29495.43
514.43	30176.53
514.60	30143.76
514.77	29661.61
514.95	29956.52
515.12	29497.77
515.29	29963.54
515.47	30464.41
515.64	30536.97
515.81	30216.32
515.99	30464.41
516.16	30331.00
516.33	30139.08
516.51	30703.15
516.68	30246.74
516.85	30588.46
517.03	30513.56
517.20	31267.22
517.37	30623.57
517.54	30831.88
517.72	30749.96
517.89	31089.34
518.06	31246.15
518.24	31243.81
518.41	31358.50
518.58	31489.57
518.75	31344.45
518.93	31295.30
519.10	31241.47
519.27	31704.90
519.45	31482.55
519.62	31742.35
519.79	31817.24
519.96	31887.46
520.14	32196.41
520.31	32088.74
520.48	31990.44
520.65	32156.62
520.83	32219.81
521.00	32496.00
521.17	32451.53
521.34	32320.46
521.52	32620.05
521.69	32786.22
521.86	32566.21
522.03	32765.16
522.20	32692.60
522.38	33376.04
522.55	32870.48
522.72	33057.73
522.89	33354.97
523.07	33605.41
523.24	32732.39
523.41	33085.81
523.58	32989.85
523.75	33448.60
523.92	33371.36
524.10	33507.11
524.27	33706.05
524.44	33790.31
524.61	33923.72
524.78	34085.22
524.96	34073.52
525.13	34096.92
525.30	34293.53
525.47	34057.14
525.64	33902.66
525.81	34387.15
525.98	34328.64
526.16	34216.29
526.33	33790.31
526.50	34452.69
526.67	34291.19
526.84	34550.99
527.01	34632.91
527.18	34862.28
527.36	34862.28
527.53	34588.44
527.70	35047.18
527.87	35075.27
528.04	34675.04
528.21	34969.94
528.38	34899.73
528.55	35117.40
528.72	34871.64
528.89	35208.68
529.07	35070.59
529.24	35115.06
529.41	35110.38
529.58	35124.42
529.75	35264.85
529.92	35494.22
530.09	35386.56
530.26	35761.05
530.43	36025.53
530.60	35552.74
530.77	35819.56
530.94	35653.38
531.11	35267.19
531.28	35807.86
531.46	36156.60
531.63	35857.01
531.80	36074.68
531.97	36079.36
532.14	36123.83
532.31	36074.68
532.48	36596.62
532.65	36470.23
532.82	36332.14
532.99	36655.13
533.16	36704.28
533.33	36596.62
533.50	36737.05
533.67	36634.06
533.84	36458.52
534.01	36783.86
534.18	36713.64
534.35	37237.92
534.52	36706.62
534.69	37434.53
534.86	37219.20
535.03	37062.38
535.20	37099.83
535.37	37371.33
535.54	37432.19
535.71	37364.31
535.88	37488.36
536.05	37703.69
536.22	37560.92
536.38	37453.25
536.55	37661.56
536.72	37263.67
536.89	37418.14
537.06	37731.78
537.23	37792.63
537.40	37743.48
537.57	37656.88
537.74	37577.30
537.91	38148.39
538.08	37982.21
538.25	37982.21
538.42	38045.41
538.59	38277.12
538.75	38148.39
538.92	38153.07
539.09	38469.04
539.26	38139.03
539.43	37982.21
539.60	38534.58
539.77	38436.28
539.94	38412.87
540.11	38539.26
540.28	38387.13
540.44	38377.76
540.61	38569.69
540.78	38639.90
540.95	38651.61
541.12	38499.47
541.29	38565.01
541.46	38670.33
541.62	38698.42
541.79	39306.96
541.96	38361.38
542.13	38801.40
542.30	39079.92
542.47	39035.45
542.63	38976.94
542.80	39583.14
542.97	39459.09
543.14	39683.78
543.31	39459.09
543.48	39248.44
543.64	40072.31
543.81	40100.40
543.98	39709.53
544.15	39562.08
544.32	39290.57
544.48	39894.43
544.65	39817.19
544.82	39868.69
544.99	40025.50
545.16	39910.82
545.32	39976.35
545.49	40395.31
545.66	40566.16
545.83	40339.13
546.00	40821.28
546.16	40205.72
546.33	39924.86
546.50	40215.08
546.67	40547.44
546.83	39812.51
547.00	40161.25
547.17	40355.52
547.34	40753.41
547.50	40458.50
547.67	40978.10
547.84	40357.86
548.00	40596.59
548.17	41130.23
548.34	40694.89
548.51	41120.87
548.67	40830.65
548.84	40898.52
549.01	40982.78
549.18	40964.06
549.34	41249.60
549.51	41525.78
549.68	41118.53
549.84	41001.50
550.01	41181.73
550.18	40739.36
550.34	41509.40
550.51	41471.95
550.68	41418.12
550.84	41057.68
551.01	41399.40
551.18	41373.65
551.34	41471.95
551.51	41703.67
551.68	41717.71
551.84	41446.21
552.01	41127.89
552.18	41607.70
552.34	41507.06
552.51	41897.93
552.68	41443.87
552.84	41734.09
553.01	41727.07
553.18	41532.81
553.34	42000.91
553.51	41750.48
553.67	42326.25
553.84	42270.08
554.01	41860.48
554.17	42274.76
554.34	42344.97
554.51	42073.47
554.67	42052.41
554.84	42033.68
555.00	42234.97
555.17	42347.31
555.33	42256.03
555.50	42466.68
555.67	42113.26
555.83	42251.35
556.00	42525.19
556.16	43044.79
556.33	42581.37
556.50	42515.83
556.66	42539.24
556.83	42288.80
556.99	42796.70
557.16	42890.32
557.32	42553.28
557.49	42665.63
557.65	42267.73
557.82	42321.57
557.98	42705.41
558.15	42834.14
558.32	42871.59
558.48	43119.69
558.65	42277.10
558.81	42878.61
558.98	42944.15
559.14	42850.53
559.31	42777.97
559.47	43356.08
559.64	43264.80
559.80	43068.20
559.97	43627.59
560.13	42845.85
560.30	43257.78
560.46	43559.71
560.63	42883.30
560.79	42967.55
560.96	43098.62
561.12	43363.11
561.29	43557.37
561.45	43105.65
561.61	43297.57
561.78	42930.11
561.94	43283.53
562.11	43107.99
562.27	43040.11
562.44	43037.77
562.60	43597.16
562.77	43758.66
562.93	42857.55
563.10	44018.46
563.26	43012.02
563.42	43718.87
563.59	43054.15
563.75	43669.72
563.92	43318.64
564.08	43232.04
564.24	43683.76
564.41	43667.37
564.57	43290.55
564.74	43768.02
564.90	43241.40
565.07	43487.15
565.23	43807.81
565.39	43728.23
565.56	44128.46
565.72	43372.47
565.88	43690.78
566.05	43519.92
566.21	43983.35
566.38	43716.53
566.54	43943.56
566.70	44240.81
566.87	44147.18
567.03	43789.08
567.19	44456.14
567.36	43887.39
567.52	43718.87
567.68	43971.64
567.85	43943.56
568.01	43768.02
568.17	44168.25
568.34	43938.88
568.50	44343.79
568.66	43863.98
568.83	44121.44
568.99	43901.43
569.15	44135.48
569.32	43665.03
569.48	43810.15
569.64	44292.30
569.81	44432.73
569.97	44149.53
570.13	44786.15
570.30	43971.64
570.46	43852.28
570.62	43835.89
570.78	44259.53
570.95	44194.00
571.11	44631.68
571.27	44083.99
571.43	44126.12
571.60	44135.48
571.76	44444.43
571.92	44154.21
572.09	44554.44
572.25	43910.79
572.41	43978.67
572.57	44198.68
572.74	44531.03
572.90	44271.23
573.06	44765.09
573.22	44474.86
573.38	44598.91
573.55	44725.30
573.71	44865.73
573.87	44301.66
574.03	44580.18
574.20	44456.14
574.36	44320.38
574.52	44626.99
574.68	44582.52
574.84	44683.17
575.01	44601.25
575.17	44692.53
575.33	44399.96
575.49	44091.01
575.65	44638.70
575.82	44706.57
575.98	44451.45
576.14	44533.37
576.30	44722.96
576.46	44584.86
576.62	44486.56
576.79	44502.95
576.95	44168.25
577.11	44231.44
577.27	44685.51
577.43	44552.10
577.59	44467.84
577.75	44577.84
577.92	44442.09
578.08	44474.86
578.24	44610.61
578.40	44783.81
578.56	44708.91
578.72	44952.33
578.88	44514.65
579.04	44690.19
579.21	44535.71
579.37	44760.40
579.53	45144.25
579.69	44467.84
579.85	44926.58
580.01	44446.77
580.17	44807.22
580.33	44933.60
580.49	44755.72
580.65	44825.94
580.82	44755.72
580.98	44699.55
581.14	44306.34
581.30	44711.25
581.46	44849.35
581.62	44603.59
581.78	44975.73
581.94	44856.37
582.10	44896.16
582.26	44734.66
582.42	44978.07
582.58	45205.11
582.74	44996.80
582.90	44453.79
583.06	45223.83
583.22	44631.68
583.38	44975.73
583.54	44957.01
583.70	44727.64
583.86	44783.81
584.02	44987.44
584.18	45052.97
584.34	45258.94
584.50	45558.53
584.66	45139.57
584.82	44971.05
584.98	45158.30
585.14	44830.62
585.30	44722.96
585.46	45052.97
585.62	44683.17
585.78	45289.37
585.94	44250.17
586.10	44999.14
586.26	44538.05
586.42	45029.57
586.58	44828.28
586.74	44818.92
586.90	44942.97
587.06	44879.77
587.22	45514.06
587.38	45050.63
587.54	45345.54
587.70	45064.67
587.86	45090.42
588.02	44729.98
588.18	45059.99
588.34	44737.00
588.49	44954.67
588.65	45003.82
588.81	45111.49
588.97	44971.05
589.13	45034.25
589.29	45069.36
589.45	45106.80
589.61	45336.18
589.77	45305.75
589.93	45443.84
590.08	45172.34
