SpectraSuite Data File
++++++++++++++++++++++++++++++++++++
Date: Fri Oct 25 11:34:19 EDT 2013
User: price-jones
Dark Spectrum Present: No
Reference Spectrum Present: No
Number of Sampled Component Spectra: 1
Spectrometers: USB2+H05261
Integration Time (usec): 100000 (USB2+H05261)
Spectra Averaged: 1 (USB2+H05261)
Boxcar Smoothing: 0 (USB2+H05261)
Correct for Electrical Dark: No (USB2+H05261)
Strobe/Lamp Enabled: No (USB2+H05261)
Correct for Detector Non-linearity: No (USB2+H05261)
Correct for Stray Light: No (USB2+H05261)
Number of Pixels in Processed Spectrum: 2048
>>>>>Begin Processed Spectral Data<<<<<
365.73	344.06
365.92	344.06
366.12	344.06
366.32	156.82
366.52	168.52
366.72	222.35
366.91	159.16
367.11	210.65
367.31	201.29
367.51	98.30
367.70	187.24
367.90	117.03
368.10	133.41
368.30	196.60
368.49	189.58
368.69	215.33
368.89	117.03
369.09	215.33
369.28	173.20
369.48	198.95
369.68	264.48
369.87	217.67
370.07	250.44
370.27	257.46
370.47	304.27
370.66	451.72
370.86	491.51
371.06	540.66
371.25	550.03
371.45	512.58
371.65	587.47
371.84	540.66
372.04	510.24
372.24	552.37
372.44	524.28
372.63	557.05
372.83	631.94
373.03	587.47
373.22	627.26
373.42	578.11
373.62	606.20
373.81	678.76
374.01	636.63
374.21	608.54
374.40	645.99
374.60	629.60
374.79	629.60
374.99	655.35
375.19	730.25
375.38	669.39
375.58	746.63
375.78	730.25
375.97	732.59
376.17	734.93
376.37	688.12
376.56	688.12
376.76	711.52
376.95	678.76
377.15	713.86
377.35	592.16
377.54	664.71
377.74	676.41
377.93	683.44
378.13	695.14
378.33	699.82
378.52	683.44
378.72	702.16
378.91	692.80
379.11	674.07
379.31	660.03
379.50	723.23
379.70	702.16
379.89	777.06
380.09	678.76
380.28	720.88
380.48	716.20
380.68	692.80
380.87	758.33
381.07	678.76
381.26	802.80
381.46	767.70
381.65	739.61
381.85	779.40
382.04	802.80
382.24	781.74
382.43	751.31
382.63	800.46
382.83	784.08
383.02	816.85
383.22	868.34
383.41	751.31
383.61	753.65
383.80	814.51
384.00	875.36
384.19	844.93
384.39	833.23
384.58	791.10
384.78	767.70
384.97	873.02
385.17	788.76
385.36	744.29
385.56	828.55
385.75	788.76
385.95	793.44
386.14	858.98
386.34	826.21
386.53	849.61
386.72	877.70
386.92	873.02
387.11	896.43
387.31	802.80
387.50	856.64
387.70	889.40
387.89	844.93
388.09	882.38
388.28	863.66
388.48	891.74
388.67	940.90
388.86	880.04
389.06	936.21
389.25	908.13
389.45	945.58
389.64	926.85
389.84	912.81
390.03	1006.43
390.22	954.94
390.42	922.17
390.61	931.53
390.81	866.00
391.00	964.30
391.19	973.66
391.39	919.83
391.58	976.00
391.78	905.79
391.97	1081.33
392.16	1022.81
392.36	1069.62
392.55	961.96
392.75	1064.94
392.94	980.68
393.13	947.92
393.33	1090.69
393.52	1078.99
393.71	1142.18
393.91	1006.43
394.10	1071.97
394.29	1149.20
394.49	1076.65
394.68	1100.05
394.88	1114.10
395.07	1130.48
395.26	1139.84
395.46	1086.01
395.65	1158.57
395.84	1128.14
396.04	1226.44
396.23	1177.29
396.42	1174.95
396.62	1219.42
396.81	1160.91
397.00	1214.74
397.19	1181.97
397.39	1186.65
397.58	1210.06
397.77	1121.12
397.97	1294.32
398.16	1149.20
398.35	1233.46
398.55	1287.29
398.74	1252.19
398.93	1315.38
399.12	1343.47
399.32	1376.24
399.51	1259.21
399.70	1296.66
399.90	1334.11
400.09	1296.66
400.28	1273.25
400.47	1341.13
400.67	1371.55
400.86	1385.60
401.05	1320.06
401.24	1479.22
401.44	1437.09
401.63	1507.30
401.82	1369.21
402.01	1406.66
402.21	1495.60
402.40	1418.36
402.59	1497.94
402.78	1345.81
402.97	1430.07
403.17	1530.71
403.36	1490.92
403.55	1451.13
403.74	1633.69
403.93	1547.09
404.13	1493.26
404.32	1612.63
404.51	1619.65
404.70	1577.52
404.89	1516.67
405.09	1682.85
405.28	1640.72
405.47	1624.33
405.66	1661.78
405.85	1563.48
406.05	1647.74
406.24	1727.32
406.43	1710.93
406.62	1657.10
406.81	1762.42
407.00	1694.55
407.20	1771.79
407.39	1764.76
407.58	1788.17
407.77	1881.79
407.96	1781.15
408.15	1851.36
408.34	1893.49
408.54	1914.56
408.73	1865.41
408.92	1867.75
409.11	1863.07
409.30	1895.83
409.49	1968.39
409.68	1937.96
409.87	1900.52
410.07	1963.71
410.26	2029.24
410.45	1968.39
410.64	1944.99
410.83	2015.20
411.02	2064.35
411.21	2099.46
411.40	2017.54
411.59	2125.21
411.78	2087.76
411.98	2143.93
412.17	2157.97
412.36	2312.45
412.55	2153.29
412.74	2225.85
412.93	2326.49
413.12	2249.25
413.31	2387.35
413.50	2356.92
413.69	2389.69
413.88	2476.29
414.07	2392.03
414.26	2345.22
414.45	2401.39
414.64	2459.90
414.83	2530.12
415.02	2492.67
415.22	2661.19
415.41	2588.63
415.60	2630.76
415.79	2607.36
415.98	2722.04
416.17	2644.81
416.36	2689.28
416.55	2635.44
416.74	2782.90
416.93	2726.72
417.12	2729.06
417.31	2843.75
417.50	2815.66
417.69	2906.95
417.88	2843.75
418.07	2834.39
418.26	2937.37
418.45	2869.50
418.64	3040.36
418.83	2850.77
419.02	2972.48
419.21	3157.38
419.39	3145.68
419.58	2906.95
419.77	3012.27
419.96	3026.31
420.15	3089.51
420.34	3096.53
420.53	3178.45
420.72	3108.23
420.91	2993.55
421.10	3148.02
421.29	3136.32
421.48	3122.27
421.67	3162.06
421.86	3234.62
422.05	3194.83
422.24	3173.77
422.43	3274.41
422.61	3262.71
422.80	3440.59
422.99	3365.69
423.18	3222.92
423.37	3410.16
423.56	3251.00
423.75	3192.49
423.94	3262.71
424.13	3038.02
424.32	3124.62
424.50	3281.43
424.69	3171.43
424.88	3517.83
425.07	3513.14
425.26	3407.82
425.45	3454.63
425.64	3290.79
425.83	3335.26
426.01	3339.94
426.20	3286.11
426.39	3400.80
426.58	3368.03
426.77	3419.52
426.96	3475.70
427.15	3428.88
427.33	3452.29
427.52	3398.46
427.71	3562.30
427.90	3459.31
428.09	3569.32
428.28	3634.85
428.46	3581.02
428.65	3494.42
428.84	3754.22
429.03	3672.30
429.22	3482.72
429.40	3749.54
429.59	3665.28
429.78	3524.85
429.97	3482.72
430.16	3576.34
430.34	3794.01
430.53	3824.44
430.72	3716.77
430.91	3712.09
431.10	3714.43
431.28	3845.50
431.47	3808.05
431.66	3861.88
431.85	3801.03
432.03	3852.52
432.22	4044.45
432.41	3957.85
432.60	3976.57
432.79	3941.46
432.97	4030.40
433.16	3983.59
433.35	3899.33
433.54	4079.55
433.72	4121.68
433.91	4063.17
434.10	4124.02
434.28	3978.91
434.47	4046.79
434.66	4147.43
434.85	4229.35
435.03	4025.72
435.22	4128.70
435.41	4402.55
435.59	4238.71
435.78	4332.33
435.97	4245.73
436.16	4168.49
436.34	4227.01
436.53	4294.88
436.72	4402.55
436.90	4201.26
437.09	4414.25
437.28	4149.77
437.46	4280.84
437.65	4463.40
437.84	4475.10
438.02	4521.92
438.21	4454.04
438.40	4435.32
438.58	4610.86
438.77	4744.27
438.96	4578.09
439.14	4636.60
439.33	4854.27
439.52	4765.33
439.70	4746.61
439.89	4800.44
440.08	4873.00
440.26	4931.51
440.45	4795.76
440.63	4865.97
440.82	5074.28
441.01	4905.76
441.19	4931.51
441.38	5088.32
441.57	5090.67
441.75	5067.26
441.94	5294.29
442.12	5107.05
442.31	5146.84
442.50	5287.27
442.68	5277.91
442.87	5245.14
443.05	5233.44
443.24	5268.55
443.43	5284.93
443.61	5476.85
443.80	5359.83
443.98	5203.01
444.17	5296.63
444.35	5331.74
444.54	5481.53
444.73	5472.17
444.91	5420.68
445.10	5324.72
445.28	5565.79
445.47	5416.00
445.65	5523.66
445.84	5502.60
446.02	5685.16
446.21	5593.88
446.39	5547.07
446.58	5504.94
446.77	5572.82
446.95	5469.83
447.14	5650.05
447.32	5727.29
447.51	5572.82
447.69	5434.72
447.88	5678.14
448.06	5666.44
448.25	5535.37
448.43	5556.43
448.62	5619.63
448.80	5628.99
448.99	5535.37
449.17	5760.06
449.36	5631.33
449.54	5816.23
449.73	5877.09
449.91	5907.51
450.10	5813.89
450.28	5956.66
450.46	5916.87
450.65	5982.41
450.83	6127.52
451.02	5970.71
451.20	5912.19
451.39	6015.18
451.57	5729.63
451.76	5987.09
451.94	5968.37
452.13	6019.86
452.31	6193.06
452.49	6066.67
452.68	6118.16
452.86	6038.58
453.05	6064.33
453.23	6090.07
453.42	6064.33
453.60	5954.32
453.78	6221.14
453.97	6141.57
454.15	6120.50
454.34	6171.99
454.52	6377.96
454.70	6476.26
454.89	6368.60
455.07	6228.17
455.26	6483.28
455.44	6663.51
455.62	6392.00
455.81	6324.13
455.99	6499.67
456.17	6483.28
456.36	6658.82
456.54	6689.25
456.73	6813.30
456.91	6768.83
457.09	6839.05
457.28	6839.05
457.46	6775.85
457.64	6822.66
457.83	6850.75
458.01	6801.60
458.19	6892.88
458.38	7021.61
458.56	6951.39
458.74	6918.62
458.93	6848.41
459.11	6984.16
459.29	7208.85
459.48	7045.01
459.66	7028.63
459.84	7021.61
460.03	7279.07
460.21	7133.95
460.39	7211.19
460.57	7075.44
460.76	7307.15
460.94	7339.92
461.12	7405.46
461.31	7232.26
461.49	7293.11
461.67	7349.28
461.85	7311.83
462.04	7295.45
462.22	7875.90
462.40	7651.21
462.59	7452.27
462.77	7576.31
462.95	7634.83
463.13	7379.71
463.32	7578.65
463.50	7552.91
463.68	7662.91
463.86	7789.30
464.05	7644.19
464.23	7740.15
464.41	7646.53
464.59	7569.29
464.78	7859.52
464.96	7859.52
465.14	7644.19
465.32	7925.05
465.50	7777.60
465.69	7721.43
465.87	7927.39
466.05	7786.96
466.23	7906.33
466.41	7887.61
466.60	7925.05
466.78	7943.78
466.96	7892.29
467.14	7936.76
467.32	8105.28
467.51	8219.96
467.69	7836.11
467.87	7913.35
468.05	8074.85
468.23	7793.98
468.41	8044.42
468.60	8044.42
468.78	8187.19
468.96	8344.01
469.14	8360.39
469.32	8355.71
469.50	8376.78
469.69	8297.20
469.87	8292.52
470.05	8269.11
470.23	8500.83
470.41	8435.29
470.59	8683.39
470.77	8568.70
470.95	8667.00
471.14	8741.90
471.32	8561.68
471.50	8781.69
471.68	8765.31
471.86	8760.63
472.04	8816.80
472.22	9085.96
472.40	8786.37
472.58	8882.33
472.77	9104.68
472.95	9046.17
473.13	9423.00
473.31	8994.68
473.49	9172.56
473.67	9149.15
473.85	9228.73
474.03	9320.01
474.21	9434.70
474.39	9540.02
474.57	9551.73
474.75	9610.24
474.93	9575.13
475.12	9530.66
475.30	9687.48
475.48	9626.62
475.66	9750.67
475.84	9645.35
476.02	9778.76
476.20	9923.87
476.38	9991.75
476.56	10300.70
476.74	10265.59
476.92	10146.22
477.10	10200.05
477.28	10181.33
477.46	10518.37
477.64	10296.02
477.82	10504.32
478.00	10712.63
478.18	10738.38
478.36	10705.61
478.54	10923.28
478.72	11122.23
478.90	10981.79
479.08	11152.65
479.26	11321.17
479.44	11267.34
479.62	11325.85
479.80	11370.32
479.98	11662.89
480.16	11669.91
480.34	11562.25
480.52	11604.38
480.70	11925.03
480.88	11709.70
481.06	11857.15
481.24	12067.80
481.41	12063.12
481.59	12292.49
481.77	12325.26
481.95	12753.58
482.13	12444.63
482.31	12479.74
482.49	12809.75
482.67	12973.59
482.85	12812.09
483.03	13270.84
483.21	13228.71
483.39	13312.97
483.57	13273.18
483.74	13568.09
483.92	13642.98
484.10	13282.54
484.28	13743.63
484.46	14132.15
484.64	14251.52
484.82	14057.26
485.00	14239.82
485.18	14396.64
485.35	14539.41
485.53	14548.77
485.71	14698.56
485.89	14750.06
486.07	14934.96
486.25	14897.51
486.43	14904.53
486.61	15119.86
486.78	15117.52
486.96	15482.64
487.14	15487.32
487.32	15552.86
487.50	15740.10
487.68	15693.29
487.85	16388.43
488.03	16016.29
488.21	16299.49
488.39	16123.95
488.57	16505.46
488.75	16816.75
488.92	16744.19
489.10	17099.95
489.28	17076.55
489.46	17184.21
489.64	16926.75
489.81	17741.26
489.99	17341.03
490.17	17343.37
490.35	17891.06
490.53	18157.88
490.70	18122.77
490.88	18068.94
491.06	18183.62
491.24	18345.12
491.41	18923.23
491.59	18412.99
491.77	18719.60
491.95	18628.32
492.13	18775.78
492.30	18820.25
492.48	19047.28
492.66	19459.21
492.84	18944.30
493.01	19506.02
493.19	19508.37
493.37	19548.15
493.54	19524.75
493.72	19974.13
493.90	19868.81
494.08	20081.80
494.25	20102.86
494.43	20072.43
494.61	20837.79
494.79	20568.63
494.96	20563.95
495.14	20783.96
495.32	21071.84
495.49	20606.08
495.67	21046.10
495.85	21191.21
496.02	21289.51
496.20	21226.32
496.38	21371.43
496.55	21752.94
496.73	21654.64
496.91	21640.59
497.09	21954.22
497.26	21675.70
497.44	22019.76
497.62	22104.02
497.79	22546.38
497.97	22712.56
498.14	22621.28
498.32	23105.77
498.50	22686.81
498.67	23239.18
498.85	23047.26
499.03	23161.94
499.20	23030.87
499.38	23669.84
499.56	23428.76
499.73	23655.79
499.91	23693.24
500.08	23953.04
500.26	23850.06
500.44	23709.63
500.61	24074.75
500.79	23964.75
500.97	24011.56
501.14	24467.96
501.32	24247.95
501.49	24451.58
501.67	24538.18
501.84	24273.70
502.02	24664.57
502.20	24940.75
502.37	24821.38
502.55	24952.45
502.72	24673.93
502.90	24950.11
503.07	24872.87
503.25	25048.41
503.43	24929.05
503.60	25493.12
503.78	25242.68
503.95	25270.76
504.13	25671.00
504.30	25731.85
504.48	25731.85
504.65	25841.85
504.83	25862.92
505.01	26139.10
505.18	26256.13
505.36	26324.01
505.53	26132.08
505.71	26380.18
505.88	26281.88
506.06	26349.75
506.23	26941.91
506.41	26864.67
506.58	26855.31
506.76	26937.23
506.93	27007.44
507.11	26890.41
507.28	26934.88
507.46	27370.22
507.63	27529.38
507.81	27339.80
507.98	27400.65
508.16	27615.98
508.33	27733.01
508.50	27828.97
508.68	27838.33
508.85	27908.55
509.03	27737.69
509.20	28020.89
509.38	28311.12
509.55	28369.63
509.73	28081.75
509.90	28093.45
510.08	28460.91
510.25	28463.25
510.42	28821.36
510.60	28563.90
510.77	29291.80
510.95	29226.27
511.12	29017.96
511.30	28980.51
511.47	29394.79
511.64	28987.53
511.82	29181.80
511.99	29635.86
512.17	29247.33
512.34	29570.33
512.51	29802.04
512.69	29689.70
512.86	30019.71
513.04	29509.47
513.21	29869.92
513.38	30092.27
513.56	30522.93
513.73	29832.47
513.90	30295.89
514.08	30043.12
514.25	30050.14
514.43	30649.32
514.60	30436.33
514.77	30459.73
514.95	30731.23
515.12	30604.84
515.29	30700.81
515.47	30859.96
515.64	31290.62
515.81	30635.27
515.99	31007.42
516.16	31365.52
516.33	31077.63
516.51	31594.89
516.68	31414.67
516.85	31257.85
517.03	31501.27
517.20	31840.65
517.37	31814.90
517.54	31632.34
517.72	32044.27
517.89	31906.18
518.06	31812.56
518.24	31941.29
518.41	31831.29
518.58	32098.11
518.75	31625.32
518.93	32240.88
519.10	31962.36
519.27	32170.66
519.45	32517.06
519.62	32357.91
519.79	32716.01
519.96	32371.95
520.14	33043.68
520.31	32706.65
520.48	32788.56
520.65	33116.24
520.83	33326.89
521.00	33294.12
521.17	32994.53
521.34	33420.51
521.52	33319.87
521.69	33240.29
521.86	33582.01
522.03	33565.62
522.20	33680.31
522.38	33701.37
522.55	33684.99
522.72	34078.20
522.89	33720.10
523.07	34204.59
523.24	34169.48
523.41	34071.18
523.58	33923.72
523.75	34632.91
523.92	33972.88
524.10	34146.08
524.27	34216.29
524.44	34295.87
524.61	34174.16
524.78	34864.62
524.96	34775.68
525.13	34991.01
525.30	34686.74
525.47	34602.48
525.64	34923.13
525.81	34930.16
525.98	34948.88
526.16	34946.54
526.33	34993.35
526.50	35283.58
526.67	35098.67
526.84	34820.15
527.01	35119.74
527.18	35447.41
527.36	35524.65
527.53	35758.70
527.70	35910.84
527.87	36077.02
528.04	35756.36
528.21	35796.15
528.38	35459.12
528.55	36109.78
528.72	36116.81
528.89	36072.34
529.07	36058.29
529.24	35903.82
529.41	36163.62
529.58	35838.28
529.75	36238.51
529.92	36039.57
530.09	36449.16
530.26	36507.68
530.43	36385.97
530.60	36271.28
530.77	35985.74
530.94	36563.85
531.11	36032.55
531.28	36903.23
531.46	37008.55
531.63	36947.70
531.80	36795.56
531.97	37158.34
532.14	36978.12
532.31	36512.36
532.48	36968.76
532.65	37635.81
532.82	36985.15
532.99	37404.10
533.16	37076.43
533.33	37549.21
533.50	37514.11
533.67	37207.50
533.84	37270.69
534.01	37794.97
534.18	37825.40
534.35	37713.05
534.52	37998.60
534.69	38263.08
534.86	38307.55
535.03	37205.16
535.20	37806.67
535.37	38277.12
535.54	38335.63
535.71	38036.05
535.88	38270.10
536.05	38148.39
536.22	38440.96
536.38	38103.92
536.55	38007.96
536.72	38162.43
536.89	38291.16
537.06	38291.16
537.23	38583.73
537.40	38321.59
537.57	38307.55
537.74	38621.18
537.91	39096.31
538.08	38862.26
538.25	38265.42
538.42	38944.17
538.59	39206.31
538.75	38735.87
538.92	39309.30
539.09	39367.81
539.26	39124.40
539.43	38740.55
539.60	39168.87
539.77	39126.74
539.94	39449.73
540.11	39049.50
540.28	39786.77
540.44	39168.87
540.61	39847.62
540.78	39435.69
540.95	39440.37
541.12	39363.13
541.29	39351.43
541.46	39592.50
541.62	39477.82
541.79	40161.25
541.96	39779.74
542.13	39543.35
542.30	40144.87
542.47	39922.52
542.63	40112.10
542.80	40257.21
542.97	41001.50
543.14	40268.92
543.31	40381.26
543.48	39971.67
543.64	40622.34
543.81	40580.21
543.98	40552.12
544.15	40739.36
544.32	40966.40
544.48	40950.01
544.65	40645.74
544.82	40921.93
544.99	40645.74
545.16	40856.39
545.32	40879.80
545.49	41024.91
545.66	41280.03
545.83	41441.53
546.00	41158.32
546.16	41132.57
546.33	40767.45
546.50	40722.98
546.67	41130.23
546.83	41067.04
547.00	40877.46
547.17	41385.35
547.34	41509.40
547.50	41532.81
547.67	41820.69
547.84	41593.66
548.00	41457.91
548.17	42260.71
548.34	41645.15
548.51	42082.83
548.67	41375.99
548.84	41883.89
549.01	41750.48
549.18	41588.98
549.34	41837.08
549.51	41944.74
549.68	41921.34
549.84	41853.46
550.01	41471.95
550.18	41661.54
550.34	42356.67
550.51	42080.49
550.68	42251.35
550.84	41717.71
551.01	42113.26
551.18	41862.82
551.34	41825.37
551.51	42405.83
551.68	42174.11
551.84	42749.88
552.01	41977.51
552.18	42651.58
552.34	42361.36
552.51	42576.69
552.68	42639.88
552.84	42337.95
553.01	42621.16
553.18	42726.48
553.34	42674.99
553.51	42234.97
553.67	42653.92
553.84	42862.23
554.01	43138.41
554.17	42586.05
554.34	42820.10
554.51	43056.50
554.67	43007.34
554.84	43150.12
555.00	43370.13
555.17	42974.58
555.33	43374.81
555.50	43019.05
555.67	43611.20
555.83	43234.38
556.00	42892.66
556.16	44060.58
556.33	43442.68
556.50	43627.59
556.66	43236.72
556.83	42937.13
556.99	44055.90
557.16	43576.09
557.32	43814.83
557.49	44126.12
557.65	43423.96
557.82	43592.48
557.98	43496.52
558.15	43688.44
558.32	44060.58
558.48	43161.82
558.65	43861.64
558.81	43655.67
558.98	43903.77
559.14	43761.00
559.31	43931.86
559.47	43454.39
559.64	43917.81
559.80	43983.35
559.97	44311.02
560.13	43866.32
560.30	43665.03
560.46	44367.20
560.63	44332.09
560.79	44444.43
560.96	44313.36
561.12	44198.68
561.29	44091.01
561.45	44046.54
561.61	43896.75
561.78	44451.45
561.94	43831.21
562.11	44055.90
562.27	44474.86
562.44	44568.48
562.60	44395.28
562.77	44453.79
562.93	44357.83
563.10	44479.54
563.26	44343.79
563.42	44968.71
563.59	44175.27
563.75	44320.38
563.92	44456.14
564.08	44608.27
564.24	44411.67
564.41	44753.38
564.57	44502.95
564.74	44311.02
564.90	44477.20
565.07	44589.55
565.23	44456.14
565.39	44416.35
565.56	45041.27
565.72	44612.95
565.88	44327.41
566.05	44802.53
566.21	44856.37
566.38	44811.90
566.54	44692.53
566.70	44861.05
566.87	44992.12
567.03	44392.94
567.19	44807.22
567.36	44626.99
567.52	44741.68
567.68	44971.05
567.85	44968.71
568.01	45380.65
568.17	44903.18
568.34	45092.76
568.50	44605.93
568.66	44533.37
568.83	44837.64
568.99	44935.95
569.15	45177.02
569.32	44924.24
569.48	44561.46
569.64	45361.92
569.81	44666.78
569.97	44680.83
570.13	45277.66
570.30	44800.19
570.46	45450.86
570.62	45249.58
570.78	44879.77
570.95	45378.31
571.11	45411.07
571.27	45085.74
571.43	44748.70
571.60	44690.19
571.76	44832.96
571.92	45074.04
572.09	45310.43
572.25	45265.96
572.41	45031.91
572.57	45759.81
572.74	45539.80
572.90	45715.34
573.06	45523.42
573.22	45340.86
573.38	45303.41
573.55	45614.70
573.71	45666.19
573.87	45401.71
574.03	45413.41
574.20	45745.77
574.36	45134.89
574.52	45488.31
574.68	45216.81
574.84	45823.01
575.01	45989.19
575.17	45659.17
575.33	45404.05
575.49	45102.12
575.65	45652.15
575.82	45806.62
575.98	45610.02
576.14	45504.70
576.30	45738.75
576.46	45769.18
576.62	45301.07
576.79	45558.53
576.95	45186.38
577.11	45698.96
577.27	45155.96
577.43	45586.61
577.59	45181.70
577.75	45607.68
577.92	45457.88
578.08	45661.51
578.24	45755.13
578.40	45680.24
578.56	45558.53
578.72	45703.64
578.88	45982.16
579.04	45652.15
579.21	45509.38
579.37	45649.81
579.53	45628.74
579.69	45530.44
579.85	45074.04
580.01	45474.27
580.17	45462.57
580.33	45909.61
580.49	45656.83
580.65	45778.54
580.82	45947.06
580.98	45694.28
581.14	45144.25
581.30	45972.80
581.46	45588.95
581.62	45553.85
581.78	45495.33
581.94	45956.42
582.10	45595.98
582.26	45507.04
582.42	45911.95
582.58	46000.89
582.74	45867.48
582.90	45724.71
583.06	46157.70
583.22	45888.54
583.38	45991.53
583.54	45785.56
583.70	45361.92
583.86	45963.44
584.02	46066.42
584.18	46073.45
584.34	45752.79
584.50	45977.48
584.66	46190.47
584.82	46225.58
584.98	45628.74
585.14	45771.52
585.30	46120.26
585.46	45689.60
585.62	45375.97
585.78	46230.26
585.94	45553.85
586.10	45757.47
586.26	45329.16
586.42	45600.66
586.58	45949.40
586.74	45865.14
586.90	45675.55
587.06	45804.28
587.22	46401.12
587.38	45848.75
587.54	45787.90
587.70	46216.22
587.86	46202.18
588.02	45691.94
588.18	46504.10
588.34	45907.27
588.49	45851.09
588.65	45841.73
588.81	45925.99
588.97	46082.81
589.13	46014.93
589.29	45827.69
589.45	46108.55
589.61	45914.29
589.77	46248.99
589.93	46167.07
590.08	46087.49
