SpectraSuite Data File
++++++++++++++++++++++++++++++++++++
Date: Fri Oct 25 10:44:01 EDT 2013
User: price-jones
Dark Spectrum Present: No
Reference Spectrum Present: No
Number of Sampled Component Spectra: 1
Spectrometers: USB2+H05261
Integration Time (usec): 100000 (USB2+H05261)
Spectra Averaged: 1 (USB2+H05261)
Boxcar Smoothing: 0 (USB2+H05261)
Correct for Electrical Dark: No (USB2+H05261)
Strobe/Lamp Enabled: No (USB2+H05261)
Correct for Detector Non-linearity: No (USB2+H05261)
Correct for Stray Light: No (USB2+H05261)
Number of Pixels in Processed Spectrum: 2048
>>>>>Begin Processed Spectral Data<<<<<
365.73	117.03
365.92	117.03
366.12	117.03
366.32	25.75
366.52	18.72
366.72	91.28
366.91	9.36
367.11	107.66
367.31	25.75
367.51	2.34
367.70	7.02
367.90	95.96
368.10	70.22
368.30	32.77
368.49	72.56
368.69	126.39
368.89	72.56
369.09	0.00
369.28	4.68
369.48	63.19
369.68	145.11
369.87	117.03
370.07	121.71
370.27	86.60
370.47	156.82
370.66	407.25
370.86	421.30
371.06	454.06
371.25	418.96
371.45	493.85
371.65	496.19
371.84	496.19
372.04	454.06
372.24	451.72
372.44	517.26
372.63	507.90
372.83	519.60
373.03	535.98
373.22	521.94
373.42	512.58
373.62	535.98
373.81	578.11
374.01	603.86
374.21	610.88
374.40	620.24
374.60	535.98
374.79	695.14
374.99	582.79
375.19	538.32
375.38	599.18
375.58	615.56
375.78	557.05
375.97	592.16
376.17	575.77
376.37	594.50
376.56	578.11
376.76	557.05
376.95	610.88
377.15	660.03
377.35	664.71
377.54	653.01
377.74	627.26
377.93	664.71
378.13	655.35
378.33	741.95
378.52	629.60
378.72	641.31
378.91	688.12
379.11	683.44
379.31	641.31
379.50	638.97
379.70	753.65
379.89	669.39
380.09	706.84
380.28	753.65
380.48	688.12
380.68	681.10
380.87	744.29
381.07	674.07
381.26	795.78
381.46	716.20
381.65	765.36
381.85	784.08
382.04	627.26
382.24	699.82
382.43	685.78
382.63	718.54
382.83	713.86
383.02	844.93
383.22	690.46
383.41	748.97
383.61	711.52
383.80	788.76
384.00	774.72
384.19	812.17
384.39	800.46
384.58	791.10
384.78	781.74
384.97	795.78
385.17	781.74
385.36	873.02
385.56	767.70
385.75	788.76
385.95	821.53
386.14	919.83
386.34	823.87
386.53	889.40
386.72	861.32
386.92	882.38
387.11	788.76
387.31	861.32
387.50	912.81
387.70	800.46
387.89	905.79
388.09	877.70
388.28	866.00
388.48	877.70
388.67	858.98
388.86	976.00
389.06	919.83
389.25	971.32
389.45	971.32
389.64	945.58
389.84	1050.90
390.03	994.73
390.22	994.73
390.42	910.47
390.61	903.45
390.81	1006.43
391.00	1081.33
391.19	1076.65
391.39	1093.03
391.58	1008.77
391.78	1111.75
391.97	1160.91
392.16	952.60
392.36	1020.47
392.55	1123.46
392.75	1001.75
392.94	968.98
393.13	999.41
393.33	1034.52
393.52	1032.18
393.71	1174.95
393.91	1137.50
394.10	1081.33
394.29	1181.97
394.49	1125.80
394.68	1163.25
394.88	1226.44
395.07	1200.69
395.26	1254.53
395.46	1233.46
395.65	1249.85
395.84	1177.29
396.04	1364.53
396.23	1165.59
396.42	1144.52
396.62	1214.74
396.81	1186.65
397.00	1207.72
397.19	1331.76
397.39	1306.02
397.58	1301.34
397.77	1373.89
397.97	1427.73
398.16	1399.64
398.35	1572.84
398.55	1488.58
398.74	1563.48
398.93	1614.97
399.12	1516.67
399.32	1514.33
399.51	1563.48
399.70	1556.46
399.90	1537.73
400.09	1547.09
400.28	1746.04
400.47	1621.99
400.67	1706.25
400.86	1678.16
401.05	1636.03
401.24	1713.27
401.44	1792.85
401.63	1710.93
401.82	1706.25
402.01	1715.61
402.21	1781.15
402.40	1830.30
402.59	1849.02
402.78	1893.49
402.97	1849.02
403.17	1879.45
403.36	1849.02
403.55	2001.16
403.74	1998.82
403.93	1949.67
404.13	1928.60
404.32	1867.75
404.51	1926.26
404.70	1989.46
404.89	1947.33
405.09	2019.88
405.28	2080.74
405.47	2134.57
405.66	2029.24
405.85	2113.50
406.05	2094.78
406.24	1996.48
406.43	2125.21
406.62	2092.44
406.81	2165.00
407.00	2169.68
407.20	2113.50
407.39	2172.02
407.58	2162.66
407.77	2303.09
407.96	2289.04
408.15	2204.78
408.34	2167.34
408.54	2256.28
408.73	2256.28
408.92	2289.04
409.11	2211.81
409.30	2385.01
409.49	2436.50
409.68	2328.83
409.87	2370.96
410.07	2349.90
410.26	2523.10
410.45	2532.46
410.64	2495.01
410.83	2553.52
411.02	2675.23
411.21	2710.34
411.40	2761.83
411.59	2705.66
411.78	2635.44
411.98	2724.38
412.17	2623.74
412.36	2799.28
412.55	2691.62
412.74	2733.75
412.93	2801.62
413.12	2796.94
413.31	2930.35
413.50	2888.22
413.69	3023.97
413.88	3033.33
414.07	3068.44
414.26	3002.91
414.45	3091.85
414.64	3066.10
414.83	3169.09
415.02	3101.21
415.22	3152.70
415.41	3136.32
415.60	3122.27
415.79	3311.86
415.98	3246.32
416.17	3258.03
416.36	3344.63
416.55	3396.12
416.74	3375.05
416.93	3314.20
417.12	3417.18
417.31	3365.69
417.50	3534.21
417.69	3531.87
417.88	3468.67
418.07	3487.40
418.26	3508.46
418.45	3517.83
418.64	3655.92
418.83	3604.42
419.02	3667.62
419.21	3740.18
419.39	3709.75
419.58	3613.79
419.77	3574.00
419.96	3868.91
420.15	3808.05
420.34	3665.28
420.53	3765.92
420.72	3838.48
420.91	3988.27
421.10	3904.01
421.29	3929.76
421.48	3749.54
421.67	3899.33
421.86	3913.38
422.05	3887.63
422.24	3892.31
422.43	3819.75
422.61	3873.59
422.80	4077.21
422.99	3894.65
423.18	4086.58
423.37	3997.64
423.56	4011.68
423.75	4018.70
423.94	4159.13
424.13	3838.48
424.32	3955.51
424.50	4049.13
424.69	4231.69
424.88	4070.19
425.07	4018.70
425.26	3971.89
425.45	3988.27
425.64	3948.48
425.83	4079.55
426.01	4161.47
426.20	4161.47
426.39	4264.46
426.58	4126.36
426.77	3932.10
426.96	4138.07
427.15	4086.58
427.33	4184.88
427.52	4173.18
427.71	4117.00
427.90	4203.60
428.09	4381.48
428.28	4301.90
428.46	4152.11
428.65	4276.16
428.84	4372.12
429.03	4470.42
429.22	4229.35
429.40	4266.80
429.59	4243.39
429.78	4086.58
429.97	4053.81
430.16	4208.28
430.34	4322.97
430.53	4301.90
430.72	4278.50
430.91	4311.27
431.10	4573.41
431.28	4575.75
431.47	4861.29
431.66	4929.17
431.85	4643.62
432.03	4786.40
432.22	4842.57
432.41	4793.42
432.60	4894.06
432.79	4882.36
432.97	4940.87
433.16	4901.08
433.35	4842.57
433.54	4851.93
433.72	4891.72
433.91	4786.40
434.10	4908.10
434.28	4873.00
434.47	5102.37
434.66	5064.92
434.85	5018.11
435.03	5167.90
435.22	5008.75
435.41	5252.16
435.59	5336.42
435.78	5132.79
435.97	5359.83
436.16	5177.26
436.34	5301.31
436.53	5357.49
436.72	5397.28
436.90	5226.42
437.09	5277.91
437.28	5041.51
437.46	5385.57
437.65	5270.89
437.84	5336.42
438.02	5334.08
438.21	5247.48
438.40	5476.85
438.58	5497.92
438.77	5554.09
438.96	5518.98
439.14	5626.65
439.33	5748.36
439.52	5804.53
439.70	5930.92
439.89	5818.57
440.08	5760.06
440.26	5907.51
440.45	5823.25
440.63	6059.65
440.82	6207.10
441.01	5982.41
441.19	6174.33
441.38	6064.33
441.57	6368.60
441.75	6387.32
441.94	6436.47
442.12	6523.07
442.31	6434.13
442.50	6520.73
442.68	6490.31
442.87	6654.14
443.05	6392.00
443.24	6612.01
443.43	6707.98
443.61	6640.10
443.80	6715.00
443.98	6408.39
444.17	6434.13
444.35	6658.82
444.54	6799.26
444.73	6707.98
444.91	6504.35
445.10	6658.82
445.28	6588.61
445.47	6600.31
445.65	6530.09
445.84	6607.33
446.02	6787.55
446.21	6689.25
446.39	6761.81
446.58	6747.76
446.77	6698.61
446.95	6796.92
447.14	6841.39
447.32	6869.47
447.51	6808.62
447.69	6993.52
447.88	6864.79
448.06	6747.76
448.25	6799.26
448.43	7037.99
448.62	7070.76
448.80	6998.20
448.99	6998.20
449.17	6998.20
449.36	7143.32
449.54	7087.14
449.73	7133.95
449.91	7304.81
450.10	7290.77
450.28	7400.77
450.46	7342.26
450.65	7496.74
450.83	7466.31
451.02	7400.77
451.20	7545.89
451.39	7447.58
451.57	7382.05
451.76	7527.16
451.94	7499.08
452.13	7478.01
452.31	7623.12
452.49	7269.70
452.68	7417.16
452.86	7318.86
453.05	7478.01
453.23	7653.55
453.42	7442.90
453.60	7585.68
453.78	7857.18
453.97	7536.52
454.15	7669.94
454.34	7658.23
454.52	7618.44
454.70	7964.84
454.89	7700.36
455.07	7726.11
455.26	7836.11
455.44	8042.08
455.62	7817.39
455.81	7801.01
455.99	7859.52
456.17	8161.45
456.36	7995.27
456.54	8163.79
456.73	8318.26
456.91	8482.10
457.09	8306.56
457.28	8610.83
457.46	8285.50
457.64	8238.69
457.83	8458.70
458.01	8215.28
458.19	8446.99
458.38	8446.99
458.56	8393.16
458.74	8589.77
458.93	8386.14
459.11	8521.89
459.29	8430.61
459.48	8788.71
459.66	8538.27
459.84	8521.89
460.03	8784.03
460.21	8917.44
460.39	8823.82
460.57	8627.21
460.76	8980.64
460.94	8912.76
461.12	8772.33
461.31	8837.86
461.49	8919.78
461.67	9062.55
461.85	9296.61
462.04	9018.08
462.22	9355.12
462.40	9198.31
462.59	9170.22
462.77	9088.30
462.95	9172.56
463.13	9268.52
463.32	9207.67
463.50	9156.18
463.68	9270.86
463.86	9481.51
464.05	8950.21
464.23	9224.05
464.41	9390.23
464.59	9263.84
464.78	9397.25
464.96	9378.53
465.14	9123.41
465.32	9572.79
465.50	9460.45
465.69	9577.47
465.87	9675.77
466.05	9493.21
466.23	9390.23
466.41	9460.45
466.60	9610.24
466.78	9373.85
466.96	9493.21
467.14	9432.36
467.32	9607.90
467.51	9628.96
467.69	9430.02
467.87	9841.95
468.05	9816.21
468.23	9591.52
468.41	9760.03
468.60	9825.57
468.78	9874.72
468.96	9853.66
469.14	9851.31
469.32	10181.33
469.50	9575.13
469.69	10129.84
469.87	9881.74
470.05	10146.22
470.23	10026.86
470.41	10225.80
470.59	10052.60
470.77	10221.12
470.95	10146.22
471.14	10583.90
471.32	10162.61
471.50	10483.26
471.68	10656.46
471.86	10663.48
472.04	10597.95
472.22	11126.91
472.40	10628.37
472.58	10448.15
472.77	10712.63
472.95	10853.06
473.13	11197.12
473.31	10806.25
473.49	10752.42
473.67	10686.89
473.85	10874.13
474.03	11169.04
474.21	11126.91
474.39	11257.98
474.57	11580.97
474.75	11421.81
474.93	11220.53
475.12	11363.30
475.30	11379.68
475.48	11520.12
475.66	11623.10
475.84	11644.17
476.02	11623.10
476.20	11744.81
476.38	11777.58
476.56	12081.85
476.74	12126.32
476.92	12156.74
477.10	12147.38
477.28	12283.13
477.46	12351.01
477.64	12449.31
477.82	12802.73
478.00	12872.95
478.18	12910.40
478.36	12833.16
478.54	13181.90
478.72	13008.70
478.90	13308.29
479.08	13233.39
479.26	13626.60
479.44	13446.38
479.62	13465.10
479.80	13745.97
479.98	13778.73
480.16	13947.25
480.34	13923.85
480.52	14197.69
480.70	13963.64
480.88	13895.76
481.06	14361.53
481.24	14242.16
481.41	14616.65
481.59	14483.24
481.77	14733.67
481.95	14857.72
482.13	15089.43
482.31	14857.72
482.49	15197.10
482.67	15047.30
482.85	15454.56
483.03	15613.71
483.21	15906.28
483.39	15576.27
483.57	15728.40
483.74	15749.46
483.92	15941.39
484.10	16128.63
484.28	16114.59
484.46	16772.28
484.64	16741.85
484.82	16376.73
485.00	16704.40
485.18	16559.29
485.35	16980.59
485.53	16514.82
485.71	16475.03
485.89	16627.17
486.07	16744.19
486.25	16879.94
486.43	17319.96
486.61	17554.02
486.78	17532.95
486.96	17844.24
487.14	18314.69
487.32	18267.88
487.50	18218.73
487.68	18504.28
487.85	18890.46
488.03	18925.57
488.21	19019.19
488.39	18874.08
488.57	19002.81
488.75	19058.98
488.92	19648.80
489.10	20086.48
489.28	19948.39
489.46	20098.18
489.64	20144.99
489.81	20512.46
489.99	20648.21
490.17	20938.43
490.35	20730.12
490.53	20559.27
490.70	20868.22
490.88	21020.35
491.06	21631.23
491.24	21460.37
491.41	21247.38
491.59	21394.84
491.77	21275.47
491.95	21577.40
492.13	21778.68
492.30	22267.86
492.48	22108.70
492.66	22415.31
492.84	22202.32
493.01	22445.74
493.19	22476.16
493.37	22869.37
493.54	22813.20
493.72	23201.73
493.90	23119.81
494.08	23496.64
494.25	23449.83
494.43	23983.47
494.61	23992.83
494.79	23903.89
494.96	23852.40
495.14	24074.75
495.32	24390.72
495.49	24484.34
495.67	24393.06
495.85	24463.28
496.02	24264.33
496.20	24996.92
496.38	25186.50
496.55	25359.70
496.73	25729.51
496.91	25415.88
497.09	25312.89
497.26	25790.36
497.44	25649.93
497.62	25867.60
497.79	26101.65
497.97	25895.69
498.14	26199.96
498.32	26239.75
498.50	26251.45
498.67	26789.77
498.85	26654.02
499.03	26801.47
499.20	26607.21
499.38	27143.19
499.56	27222.77
499.73	26913.82
499.91	26955.95
500.08	27065.96
500.26	27197.02
500.44	27257.88
500.61	26944.25
500.79	26848.29
500.97	27538.74
501.14	27761.09
501.32	27686.20
501.49	27878.12
501.67	27892.16
501.84	28107.49
502.02	27976.42
502.20	28346.23
502.37	28613.05
502.55	28318.14
502.72	28680.92
502.90	28575.60
503.07	28734.76
503.25	28680.92
503.43	28535.81
503.60	28903.28
503.78	28386.02
503.95	28762.84
504.13	29422.87
504.30	29230.95
504.48	29394.79
504.65	29462.66
504.83	29563.31
505.01	29771.61
505.18	29668.63
505.36	30279.51
505.53	30277.17
505.71	30445.69
505.88	30333.34
506.06	30258.45
506.23	30527.61
506.41	30185.89
506.58	30352.07
506.76	30295.89
506.93	30756.98
507.11	30654.00
507.28	30984.01
507.46	30333.34
507.63	31161.89
507.81	31175.94
507.98	30998.06
508.16	31211.04
508.33	30976.99
508.50	31370.20
508.68	31428.71
508.85	31807.88
509.03	31578.51
509.20	31789.16
509.38	32065.34
509.55	31627.66
509.73	31892.14
509.90	32245.56
510.08	32184.71
510.25	32072.36
510.42	32154.28
510.60	32393.01
510.77	32444.51
510.95	32683.24
511.12	32744.09
511.30	32699.62
511.47	32954.74
511.64	33013.26
511.82	33010.92
511.99	32732.39
512.17	33191.14
512.34	33104.54
512.51	33287.10
512.69	33387.74
512.86	33511.79
513.04	33677.97
513.21	33607.75
513.38	33867.55
513.56	33621.80
513.73	33446.26
513.90	33495.41
514.08	33551.58
514.25	34099.26
514.43	34057.14
514.60	33982.24
514.77	33783.29
514.95	34728.87
515.12	34050.11
515.29	34569.71
515.47	34696.10
515.64	34684.40
515.81	34733.55
515.99	34314.59
516.16	34462.05
516.33	34174.16
516.51	34506.52
516.68	33846.49
516.85	33984.58
517.03	34057.14
517.20	34462.05
517.37	34965.26
517.54	35234.42
517.72	34473.75
517.89	34679.72
518.06	34562.69
518.24	34693.76
518.41	34745.25
518.58	35386.56
518.75	35367.84
518.93	35861.69
519.10	35225.06
519.27	35791.47
519.45	35739.98
519.62	35927.22
519.79	35915.52
519.96	36201.07
520.14	36168.30
520.31	36065.31
520.48	35894.46
520.65	35646.36
520.83	36671.51
521.00	36914.93
521.17	36680.88
521.34	36531.08
521.52	36107.44
521.69	36900.89
521.86	37221.54
522.03	37228.56
522.20	37212.18
522.38	36919.61
522.55	37050.68
522.72	37397.08
522.89	37195.79
523.07	37483.68
523.24	37783.27
523.41	37748.16
523.58	37324.52
523.75	38113.28
523.92	37921.36
524.10	38398.83
524.27	38483.09
524.44	37996.26
524.61	38157.75
524.78	38117.96
524.96	38036.05
525.13	38038.39
525.30	38349.68
525.47	38740.55
525.64	38354.36
525.81	38251.38
525.98	38361.38
526.16	37881.57
526.33	37699.01
526.50	38682.03
526.67	37853.48
526.84	37954.13
527.01	38527.56
527.18	38590.75
527.36	39218.02
527.53	39316.32
527.70	38845.87
527.87	38990.98
528.04	39171.21
528.21	39632.29
528.38	39611.23
528.55	39648.68
528.72	39608.89
528.89	39868.69
529.07	39723.57
529.24	39309.30
529.41	39620.59
529.58	39150.14
529.75	39754.00
529.92	39222.70
530.09	39899.11
530.26	39835.92
530.43	40112.10
530.60	39842.94
530.77	40282.96
530.94	39709.53
531.11	40020.82
531.28	40093.38
531.46	40566.16
531.63	40116.78
531.80	40163.59
531.97	40072.31
532.14	40341.47
532.31	40069.97
532.48	40231.47
532.65	40238.49
532.82	40051.25
532.99	40294.66
533.16	40367.22
533.33	40690.21
533.50	40652.76
533.67	40697.24
533.84	40699.58
534.01	41024.91
534.18	41216.83
534.35	40978.10
534.52	41045.97
534.69	41060.02
534.86	41078.74
535.03	41027.25
535.20	41521.10
535.37	41460.25
535.54	41773.88
535.71	41273.01
535.88	41897.93
536.05	41380.67
536.22	41757.50
536.38	41511.74
536.55	41387.69
536.72	41532.81
536.89	41193.43
537.06	42169.43
537.23	41993.89
537.40	41408.76
537.57	41783.24
537.74	41846.44
537.91	42466.68
538.08	41895.59
538.25	41750.48
538.42	41904.95
538.59	42129.64
538.75	41450.89
538.92	42359.02
539.09	41813.67
539.26	41944.74
539.43	42010.28
539.60	42075.81
539.77	41780.90
539.94	41970.49
540.11	41916.65
540.28	42497.11
540.44	42113.26
540.61	42431.57
540.78	42164.75
540.95	42012.62
541.12	42384.76
541.29	42471.36
541.46	42417.53
541.62	42859.89
541.79	43100.97
541.96	42501.79
542.13	42782.65
542.30	42555.62
542.47	42951.17
542.63	42436.25
542.80	43051.81
542.97	43112.67
543.14	43412.26
543.31	43487.15
543.48	43187.56
543.64	43814.83
543.81	43838.23
543.98	44224.42
544.15	43693.12
544.32	43580.78
544.48	43606.52
544.65	43674.40
544.82	43543.33
544.99	43643.97
545.16	43688.44
545.32	43768.02
545.49	44250.17
545.66	44158.89
545.83	44060.58
546.00	44072.29
546.16	43962.28
546.33	43952.92
546.50	43779.72
546.67	44081.65
546.83	43725.89
547.00	44257.19
547.17	44088.67
547.34	43770.36
547.50	44006.75
547.67	44105.06
547.84	44416.35
548.00	44491.24
548.17	44638.70
548.34	44378.90
548.51	44619.97
548.67	44589.55
548.84	44350.81
549.01	44364.85
549.18	44509.97
549.34	44336.77
549.51	44673.81
549.68	44734.66
549.84	44425.71
550.01	45052.97
550.18	44598.91
550.34	45038.93
550.51	44432.73
550.68	44676.15
550.84	44886.79
551.01	44776.79
551.18	44896.16
551.34	44886.79
551.51	45045.95
551.68	45324.47
551.84	45193.40
552.01	44938.29
552.18	45331.50
552.34	44570.82
552.51	45003.82
552.68	45385.33
552.84	45265.96
553.01	45188.72
553.18	45029.57
553.34	44980.42
553.51	45181.70
553.67	45193.40
553.84	45464.91
554.01	45294.05
554.17	45471.93
554.34	45467.25
554.51	45336.18
554.67	45415.76
554.84	45787.90
555.00	45397.03
555.17	45343.20
555.33	45464.91
555.50	45476.61
555.67	45514.06
555.83	44921.90
556.00	45694.28
556.16	45710.66
556.33	45462.57
556.50	45581.93
556.66	45350.22
556.83	45022.54
556.99	45247.24
557.16	45935.35
557.32	45558.53
557.49	45839.39
557.65	45059.99
557.82	45745.77
557.98	46052.38
558.15	45780.88
558.32	45780.88
558.48	45390.01
558.65	45654.49
558.81	45514.06
558.98	45818.33
559.14	46021.95
559.31	45799.60
559.47	45642.79
559.64	46110.89
559.80	45965.78
559.97	45738.75
560.13	45642.79
560.30	45961.10
560.46	46487.72
560.63	45956.42
560.79	46110.89
560.96	46251.33
561.12	46349.63
561.29	45703.64
561.45	46012.59
561.61	45904.93
561.78	46131.96
561.94	46197.49
562.11	45689.60
562.27	46160.05
562.44	45841.73
562.60	46197.49
562.77	46302.82
562.93	46223.24
563.10	46281.75
563.26	46263.03
563.42	46623.47
563.59	45645.13
563.75	46003.23
563.92	46443.25
564.08	46314.52
564.24	46686.67
564.41	46033.66
564.57	46190.47
564.74	46335.59
564.90	46131.96
565.07	46464.32
565.23	46129.62
565.39	46305.16
565.56	46370.69
565.72	46066.42
565.88	46754.54
566.05	45961.10
566.21	46129.62
566.38	46150.68
566.54	46424.53
566.70	46646.88
566.87	46894.97
567.03	46637.51
567.19	46887.95
567.36	46944.12
567.52	46483.04
567.68	46586.02
567.85	46508.79
568.01	46326.22
568.17	46534.53
568.34	46813.05
568.50	46623.47
568.66	46344.95
568.83	46457.29
568.99	45902.59
569.15	46426.87
569.32	46050.04
569.48	46333.24
569.64	46677.30
569.81	46672.62
569.97	46061.74
570.13	46424.53
570.30	46197.49
570.46	46181.11
570.62	46066.42
570.78	46466.66
570.95	45954.08
571.11	46436.23
571.27	46314.52
571.43	46206.86
571.60	46490.06
571.76	46635.17
571.92	46740.50
572.09	46937.10
572.25	46181.11
572.41	46330.90
572.57	46515.81
572.74	47124.35
572.90	46810.71
573.06	46714.75
573.22	46674.96
573.38	46602.41
573.55	46550.91
573.71	46667.94
573.87	47100.94
574.03	46438.57
574.20	46721.77
574.36	46738.16
574.52	47026.04
574.68	46873.91
574.84	46511.13
575.01	46784.97
575.17	46665.60
575.33	46286.43
575.49	46696.03
575.65	46710.07
575.82	46747.52
575.98	46230.26
576.14	46735.82
576.30	46677.30
576.46	46855.18
576.62	46557.94
576.79	46410.48
576.95	46354.31
577.11	46976.89
577.27	46855.18
577.43	46511.13
577.59	46836.46
577.75	46759.22
577.92	45975.14
578.08	46550.91
578.24	46148.34
578.40	46487.72
578.56	46939.44
578.72	46672.62
578.88	46609.43
579.04	47107.96
579.21	46649.22
579.37	46829.44
579.53	46567.30
579.69	46848.16
579.85	46670.28
580.01	46873.91
580.17	46878.59
580.33	47173.50
580.49	47033.07
580.65	46667.94
580.82	46904.34
580.98	46630.49
581.14	46466.66
581.30	46810.71
581.46	46941.78
581.62	47040.09
581.78	46909.02
581.94	46859.87
582.10	46817.74
582.26	46791.99
582.42	46674.96
582.58	46822.42
582.74	46911.36
582.90	46820.08
583.06	47117.32
583.22	46691.35
583.38	47297.55
583.54	47306.91
583.70	46710.07
583.86	46869.23
584.02	46817.74
584.18	47112.64
584.34	46817.74
584.50	47119.66
584.66	46628.15
584.82	47117.32
584.98	47068.17
585.14	46663.26
585.30	46925.40
585.46	46487.72
585.62	46710.07
585.78	46880.93
585.94	46621.13
586.10	46759.22
586.26	46548.57
586.42	47154.77
586.58	47129.03
586.74	46873.91
586.90	46878.59
587.06	47100.94
587.22	46845.82
587.38	46408.14
587.54	46366.01
587.70	47072.85
587.86	46745.18
588.02	47243.71
588.18	47084.56
588.34	46293.46
588.49	46270.05
588.65	46377.72
588.81	46220.90
588.97	46323.88
589.13	46473.68
589.29	46373.03
589.45	46541.55
589.61	46553.26
589.77	47178.18
589.93	46635.17
