SpectraSuite Data File
++++++++++++++++++++++++++++++++++++
Date: Fri Oct 25 10:48:24 EDT 2013
User: price-jones
Dark Spectrum Present: No
Reference Spectrum Present: No
Number of Sampled Component Spectra: 1
Spectrometers: USB2+H05261
Integration Time (usec): 100000 (USB2+H05261)
Spectra Averaged: 1 (USB2+H05261)
Boxcar Smoothing: 0 (USB2+H05261)
Correct for Electrical Dark: No (USB2+H05261)
Strobe/Lamp Enabled: No (USB2+H05261)
Correct for Detector Non-linearity: No (USB2+H05261)
Correct for Stray Light: No (USB2+H05261)
Number of Pixels in Processed Spectrum: 2048
>>>>>Begin Processed Spectral Data<<<<<
365.73	128.73
365.92	128.73
366.12	128.73
366.32	56.17
366.52	72.56
366.72	93.62
366.91	16.38
367.11	18.72
367.31	11.70
367.51	0.00
367.70	2.34
367.90	107.66
368.10	42.13
368.30	21.06
368.49	14.04
368.69	81.92
368.89	102.98
369.09	86.60
369.28	133.41
369.48	39.79
369.68	67.88
369.87	37.45
370.07	88.94
370.27	168.52
370.47	238.73
370.66	430.66
370.86	341.72
371.06	425.98
371.25	472.79
371.45	423.64
371.65	451.72
371.84	482.15
372.04	524.28
372.24	510.24
372.44	505.56
372.63	526.62
372.83	489.17
373.03	461.09
373.22	489.17
373.42	454.06
373.62	517.26
373.81	493.85
374.01	582.79
374.21	557.05
374.40	599.18
374.60	615.56
374.79	580.45
374.99	543.00
375.19	552.37
375.38	592.16
375.58	589.82
375.78	643.65
375.97	706.84
376.17	592.16
376.37	624.92
376.56	690.46
376.76	662.37
376.95	648.33
377.15	653.01
377.35	550.03
377.54	739.61
377.74	622.58
377.93	622.58
378.13	716.20
378.33	655.35
378.52	674.07
378.72	709.18
378.91	685.78
379.11	737.27
379.31	777.06
379.50	657.69
379.70	617.90
379.89	723.23
380.09	688.12
380.28	648.33
380.48	720.88
380.68	734.93
380.87	699.82
381.07	737.27
381.26	711.52
381.46	732.59
381.65	676.41
381.85	741.95
382.04	706.84
382.24	739.61
382.43	786.42
382.63	718.54
382.83	732.59
383.02	767.70
383.22	720.88
383.41	800.46
383.61	741.95
383.80	741.95
384.00	784.08
384.19	765.36
384.39	798.12
384.58	795.78
384.78	858.98
384.97	870.68
385.17	849.61
385.36	849.61
385.56	816.85
385.75	812.17
385.95	877.70
386.14	784.08
386.34	819.19
386.53	842.59
386.72	861.32
386.92	847.27
387.11	952.60
387.31	851.96
387.50	870.68
387.70	858.98
387.89	828.55
388.09	863.66
388.28	945.58
388.48	896.43
388.67	905.79
388.86	891.74
389.06	983.02
389.25	917.49
389.45	997.07
389.64	968.98
389.84	950.26
390.03	990.05
390.22	1064.94
390.42	997.07
390.61	1022.81
390.81	964.30
391.00	1022.81
391.19	1060.26
391.39	992.39
391.58	983.02
391.78	980.68
391.97	1074.31
392.16	1025.15
392.36	999.41
392.55	1029.84
392.75	1050.90
392.94	1015.79
393.13	971.32
393.33	1004.09
393.52	1013.45
393.71	1090.69
393.91	1142.18
394.10	1111.75
394.29	1093.03
394.49	1153.88
394.68	1238.14
394.88	1053.24
395.07	1198.35
395.26	1144.52
395.46	1191.33
395.65	1233.46
395.84	1172.61
396.04	1268.57
396.23	1219.42
396.42	1128.14
396.62	1170.27
396.81	1249.85
397.00	1170.27
397.19	1221.76
397.39	1263.89
397.58	1416.02
397.77	1303.68
397.97	1383.26
398.16	1390.28
398.35	1322.40
398.55	1373.89
398.74	1331.76
398.93	1451.13
399.12	1516.67
399.32	1364.53
399.51	1420.71
399.70	1535.39
399.90	1481.56
400.09	1542.41
400.28	1584.54
400.47	1659.44
400.67	1582.20
400.86	1572.84
401.05	1607.95
401.24	1575.18
401.44	1516.67
401.63	1640.72
401.82	1724.97
402.01	1694.55
402.21	1558.80
402.40	1680.50
402.59	1678.16
402.78	1643.06
402.97	1703.91
403.17	1813.92
403.36	1806.89
403.55	1710.93
403.74	1860.73
403.93	1755.40
404.13	1760.08
404.32	1783.49
404.51	1753.06
404.70	1870.09
404.89	1762.42
405.09	1914.56
405.28	1825.62
405.47	1898.17
405.66	1811.57
405.85	1919.24
406.05	1909.88
406.24	1959.03
406.43	1982.43
406.62	1923.92
406.81	2019.88
407.00	1928.60
407.20	1926.26
407.39	1942.64
407.58	2057.33
407.77	2106.48
407.96	2080.74
408.15	2139.25
408.34	2207.13
408.54	2165.00
408.73	2160.31
408.92	2223.51
409.11	2193.08
409.30	2225.85
409.49	2176.70
409.68	2277.34
409.87	2148.61
410.07	2307.77
410.26	2246.91
410.45	2389.69
410.64	2359.26
410.83	2256.28
411.02	2377.98
411.21	2567.57
411.40	2495.01
411.59	2539.48
411.78	2527.78
411.98	2555.86
412.17	2647.15
412.36	2518.42
412.55	2506.71
412.74	2516.08
412.93	2754.81
413.12	2518.42
413.31	2733.75
413.50	2724.38
413.69	2729.06
413.88	2738.43
414.07	2745.45
414.26	2696.30
414.45	2808.64
414.64	2794.60
414.83	2825.03
415.02	2949.08
415.22	2878.86
415.41	3061.42
415.60	2930.35
415.79	3033.33
415.98	3220.58
416.17	3178.45
416.36	3133.98
416.55	2949.08
416.74	3124.62
416.93	3141.00
417.12	3211.22
417.31	3222.92
417.50	3211.22
417.69	3283.77
417.88	3344.63
418.07	3253.34
418.26	3393.78
418.45	3356.33
418.64	3431.23
418.83	3417.18
419.02	3253.34
419.21	3358.67
419.39	3508.46
419.58	3337.60
419.77	3449.95
419.96	3499.10
420.15	3468.67
420.34	3522.51
420.53	3592.72
420.72	3782.31
420.91	3595.06
421.10	3700.39
421.29	3714.43
421.48	3721.45
421.67	3777.62
421.86	3782.31
422.05	3712.09
422.24	3721.45
422.43	3765.92
422.61	3705.07
422.80	3744.86
422.99	3779.97
423.18	3831.46
423.37	3805.71
423.56	3796.35
423.75	3939.12
423.94	3723.79
424.13	3627.83
424.32	3742.52
424.50	3838.48
424.69	3847.84
424.88	3887.63
425.07	3698.05
425.26	3665.28
425.45	3824.44
425.64	3866.56
425.83	3709.75
426.01	3749.54
426.20	3826.78
426.39	3836.14
426.58	3815.07
426.77	3882.95
426.96	3796.35
427.15	3843.16
427.33	3817.41
427.52	3794.01
427.71	4058.49
427.90	3934.44
428.09	4002.32
428.28	3988.27
428.46	3969.55
428.65	4037.42
428.84	4189.56
429.03	4189.56
429.22	4021.04
429.40	4007.00
429.59	4039.76
429.78	3761.24
429.97	3831.46
430.16	3939.12
430.34	4093.60
430.53	3990.61
430.72	4072.53
430.91	4042.11
431.10	4201.26
431.28	4308.93
431.47	4444.68
431.66	4510.21
431.85	4421.27
432.03	4409.57
432.22	4514.89
432.41	4437.66
432.60	4491.49
432.79	4437.66
432.97	4575.75
433.16	4706.82
433.35	4521.92
433.54	4484.47
433.72	4664.69
433.91	4435.32
434.10	4711.50
434.28	4748.95
434.47	4727.88
434.66	4758.31
434.85	4690.43
435.03	4781.71
435.22	4828.53
435.41	4877.68
435.59	5039.17
435.78	4819.16
435.97	4816.82
436.16	4894.06
436.34	4947.89
436.53	4922.15
436.72	5104.71
436.90	4795.76
437.09	4966.62
437.28	4856.61
437.46	4990.02
437.65	5123.43
437.84	5132.79
438.02	4835.55
438.21	5018.11
438.40	5046.20
438.58	5116.41
438.77	5055.56
438.96	5217.05
439.14	5453.45
439.33	5469.83
439.52	5357.49
439.70	5392.59
439.89	5572.82
440.08	5509.62
440.26	5523.66
440.45	5540.05
440.63	5652.39
440.82	5694.52
441.01	5701.54
441.19	5727.29
441.38	5846.66
441.57	5914.53
441.75	5720.27
441.94	6047.94
442.12	6193.06
442.31	6094.76
442.50	6050.28
442.68	5991.77
442.87	5991.77
443.05	6171.99
443.24	6249.23
443.43	6225.82
443.61	6148.59
443.80	6284.34
443.98	6026.88
444.17	5947.30
444.35	6209.44
444.54	6335.83
444.73	6476.26
444.91	6270.30
445.10	6270.30
445.28	6244.55
445.47	6176.67
445.65	6246.89
445.84	6406.05
446.02	6473.92
446.21	6223.48
446.39	6265.61
446.58	6530.09
446.77	6366.26
446.95	6256.25
447.14	6593.29
447.32	6370.94
447.51	6431.79
447.69	6356.90
447.88	6340.51
448.06	6537.12
448.25	6415.41
448.43	6593.29
448.62	6387.32
448.80	6534.78
448.99	6492.65
449.17	6436.47
449.36	6494.99
449.54	6712.66
449.73	6698.61
449.91	6764.15
450.10	6911.60
450.28	7002.88
450.46	6853.09
450.65	6848.41
450.83	6799.26
451.02	6864.79
451.20	7021.61
451.39	6775.85
451.57	6815.64
451.76	6897.56
451.94	7005.22
452.13	6993.52
452.31	6796.92
452.49	6871.81
452.68	6946.71
452.86	6829.68
453.05	7124.59
453.23	6967.77
453.42	6972.46
453.60	7112.89
453.78	7157.36
453.97	7061.40
454.15	7208.85
454.34	7066.08
454.52	7260.34
454.70	7054.37
454.89	7143.32
455.07	7098.84
455.26	7449.93
455.44	7419.50
455.62	7515.46
455.81	7400.77
455.99	7414.82
456.17	7573.97
456.36	7503.76
456.54	7583.34
456.73	7478.01
456.91	7726.11
457.09	7646.53
457.28	7852.50
457.46	7714.41
457.64	7941.44
457.83	7815.05
458.01	7838.45
458.19	7864.20
458.38	7943.78
458.56	7885.26
458.74	7887.61
458.93	7927.39
459.11	8025.70
459.29	7995.27
459.48	8112.30
459.66	7906.33
459.84	8039.74
460.03	8241.03
460.21	8166.13
460.39	8236.35
460.57	8217.62
460.76	8219.96
460.94	8404.86
461.12	8269.11
461.31	8264.43
461.49	8397.84
461.67	8315.92
461.85	8379.12
462.04	8266.77
462.22	8706.79
462.40	8606.15
462.59	8411.89
462.77	8446.99
462.95	8521.89
463.13	8510.19
463.32	8606.15
463.50	8765.31
463.68	8734.88
463.86	8688.07
464.05	8573.38
464.23	8606.15
464.41	8716.16
464.59	8641.26
464.78	8786.37
464.96	8840.20
465.14	8634.24
465.32	8746.58
465.50	8950.21
465.69	8910.42
465.87	8926.80
466.05	9060.21
466.23	8758.28
466.41	8870.63
466.60	9100.00
466.78	8816.80
466.96	8994.68
467.14	8987.66
467.32	9085.96
467.51	9188.94
467.69	8879.99
467.87	9076.60
468.05	9212.35
468.23	8919.78
468.41	9102.34
468.60	9125.75
468.78	9210.01
468.96	9263.84
469.14	9373.85
469.32	9551.73
469.50	9090.64
469.69	9406.61
469.87	9533.00
470.05	9516.62
470.23	9563.43
470.41	9565.77
470.59	9575.13
470.77	9525.98
470.95	9734.29
471.14	9558.75
471.32	9659.39
471.50	9839.61
471.68	9804.50
471.86	10057.28
472.04	9900.47
472.22	10171.97
472.40	10059.62
472.58	9975.36
472.77	10235.16
472.95	10115.80
473.13	10541.77
473.31	9966.00
473.49	10253.89
473.67	10244.52
473.85	10422.41
474.03	10654.12
474.21	10478.58
474.39	10403.68
474.57	10799.23
474.75	10593.26
474.93	10724.33
475.12	10846.04
475.30	10853.06
475.48	10918.60
475.66	10965.41
475.84	10878.81
476.02	11129.25
476.20	10923.28
476.38	11222.87
476.56	11536.50
476.74	11515.44
476.92	11445.22
477.10	11442.88
477.28	11735.45
477.46	11545.86
477.64	11822.05
477.82	11871.20
478.00	12072.48
478.18	11847.79
478.36	12238.66
478.54	12044.40
478.72	12603.78
478.90	12442.29
479.08	12620.17
479.26	12521.87
479.44	12571.02
479.62	12870.61
479.80	12767.62
479.98	12863.58
480.16	13202.96
480.34	13259.13
480.52	13142.11
480.70	13200.62
480.88	13123.38
481.06	13151.47
481.24	13706.18
481.41	13855.97
481.59	13699.16
481.77	14083.00
481.95	13984.70
482.13	14181.31
482.31	13806.82
482.49	14244.50
482.67	14125.13
482.85	14544.09
483.03	14586.22
483.21	14710.27
483.39	14916.23
483.57	14714.95
483.74	15059.01
483.92	15225.18
484.10	15082.41
484.28	15372.64
484.46	15637.12
484.64	15822.02
484.82	15555.20
485.00	15803.30
485.18	15784.57
485.35	16042.03
485.53	15726.06
485.71	15861.81
485.89	16056.08
486.07	16173.10
486.25	16025.65
486.43	16362.69
486.61	16744.19
486.78	16786.32
486.96	17078.89
487.14	17097.61
487.32	17193.58
487.50	17270.81
487.68	17748.28
487.85	17799.77
488.03	17731.90
488.21	18043.19
488.39	17879.35
488.57	18071.28
488.75	17991.70
488.92	18677.48
489.10	18719.60
489.28	18939.62
489.46	18941.96
489.64	18899.83
489.81	19407.72
489.99	19515.39
490.17	19487.30
490.35	19798.59
490.53	19424.11
490.70	19922.64
490.88	19903.92
491.06	20247.97
491.24	19999.88
491.41	20411.81
491.59	20496.07
491.77	20159.03
491.95	20460.96
492.13	21050.78
492.30	20999.29
492.48	20924.39
492.66	20938.43
492.84	21036.74
493.01	21572.72
493.19	21003.97
493.37	21790.39
493.54	21774.00
493.72	22115.72
493.90	21797.41
494.08	22469.14
494.25	22511.27
494.43	22302.96
494.61	22925.55
494.79	22654.05
494.96	22703.20
495.14	22967.68
495.32	23126.83
495.49	23122.15
495.67	23239.18
495.85	23384.29
496.02	23349.18
496.20	23557.49
496.38	23850.06
496.55	23936.66
496.73	24519.45
496.91	24259.65
497.09	24261.99
497.26	24517.11
497.44	24453.92
497.62	24664.57
497.79	24774.57
497.97	24311.14
498.14	24699.67
498.32	24980.54
498.50	25158.42
498.67	25280.13
498.85	25493.12
499.03	25631.21
499.20	25125.65
499.38	26106.34
499.56	25804.41
499.73	25710.78
499.91	25832.49
500.08	25965.90
500.26	25542.27
500.44	25940.16
500.61	26082.93
500.79	25781.00
500.97	26469.12
501.14	26370.82
501.32	26944.25
501.49	26567.42
501.67	26632.96
501.84	26841.26
502.02	26757.00
502.20	26981.70
502.37	27042.55
502.55	26714.87
502.72	27344.48
502.90	27330.44
503.07	27222.77
503.25	27318.73
503.43	26906.80
503.60	27674.49
503.78	27765.78
503.95	27878.12
504.13	28046.64
504.30	27793.86
504.48	27885.14
504.65	28182.39
504.83	28280.69
505.01	28486.66
505.18	28669.22
505.36	28797.95
505.53	28500.70
505.71	28964.13
505.88	29188.82
506.06	28830.72
506.23	28802.63
506.41	28891.57
506.58	29123.29
506.76	29137.33
506.93	29181.80
507.11	29287.12
507.28	29607.78
507.46	29645.23
507.63	29383.09
507.81	29441.60
507.98	29563.31
508.16	30085.25
508.33	29865.24
508.50	29935.45
508.68	29912.05
508.85	30405.90
509.03	30125.04
509.20	30398.88
509.38	30590.80
509.55	30499.52
509.73	30632.93
509.90	30347.39
510.08	30162.48
510.25	30841.24
510.42	31002.74
510.60	30700.81
510.77	31515.31
510.95	31435.74
511.12	31211.04
511.30	31683.83
511.47	31718.94
511.64	31531.70
511.82	31693.19
511.99	31538.72
512.17	31630.00
512.34	31342.11
512.51	31782.13
512.69	31960.02
512.86	32297.05
513.04	32383.65
513.21	32142.58
513.38	32245.56
513.56	31999.80
513.73	32086.40
513.90	32037.25
514.08	32254.92
514.25	32229.18
514.43	32531.11
514.60	32751.12
514.77	32708.99
514.95	32718.35
515.12	32823.67
515.29	32945.38
515.47	33614.77
515.64	33277.74
515.81	32912.61
515.99	33106.88
516.16	33144.33
516.33	33141.99
516.51	33603.07
516.68	32821.33
516.85	32912.61
517.03	33144.33
517.20	33371.36
517.37	33177.09
517.54	33874.57
517.72	33972.88
517.89	33134.96
518.06	33780.95
518.24	33715.42
518.41	33748.18
518.58	33813.72
518.75	33930.75
518.93	33940.11
519.10	33699.03
519.27	34155.44
519.45	34583.76
519.62	34759.30
519.79	34452.69
519.96	34703.12
520.14	35227.40
520.31	34920.79
520.48	35063.57
520.65	34810.79
520.83	35285.92
521.00	35325.71
521.17	35421.67
521.34	35468.48
521.52	35433.37
521.69	35653.38
521.86	35803.17
522.03	35875.73
522.20	35810.20
522.38	35894.46
522.55	36037.23
522.72	35859.35
522.89	35646.36
523.07	35962.33
523.24	35732.96
523.41	36084.04
523.58	35889.77
523.75	36353.20
523.92	36374.27
524.10	36879.82
524.27	36463.21
524.44	36751.09
524.61	36449.16
524.78	36755.77
524.96	36774.50
525.13	36458.52
525.30	36825.99
525.47	36790.88
525.64	37235.58
525.81	37017.91
525.98	36746.41
526.16	37099.83
526.33	36737.05
526.50	36751.09
526.67	36737.05
526.84	36844.71
527.01	36430.44
527.18	37134.94
527.36	37401.76
527.53	37504.74
527.70	38094.56
527.87	37680.28
528.04	37902.64
528.21	38019.66
528.38	38073.49
528.55	38059.45
528.72	38031.36
528.89	38377.76
529.07	38230.31
529.24	38506.49
529.41	38625.86
529.58	38094.56
529.75	38164.78
529.92	38377.76
530.09	38064.13
530.26	38258.40
530.43	38417.55
530.60	38398.83
530.77	38501.81
530.94	38895.02
531.11	38749.91
531.28	38983.96
531.46	38990.98
531.63	39030.77
531.80	38761.61
531.97	38583.73
532.14	38925.45
532.31	39119.71
532.48	38918.43
532.65	39140.78
532.82	39068.22
532.99	39302.28
533.16	39147.80
533.33	39473.13
533.50	39608.89
533.67	39370.15
533.84	38932.47
534.01	39412.28
534.18	39278.87
534.35	39337.38
534.52	39842.94
534.69	39835.92
534.86	39739.96
535.03	39721.23
535.20	39615.91
535.37	40346.15
535.54	40282.96
535.71	40273.60
535.88	39702.51
536.05	40559.14
536.22	40332.11
536.38	39929.54
536.55	40002.10
536.72	40229.13
536.89	39964.65
537.06	40453.82
537.23	40488.93
537.40	40311.05
537.57	40184.66
537.74	40301.68
537.91	40832.99
538.08	40837.67
538.25	40484.25
538.42	40659.79
538.59	41249.60
538.75	40428.07
538.92	40800.22
539.09	40816.60
539.26	41097.47
539.43	40872.78
539.60	41296.41
539.77	40360.20
539.94	40882.14
540.11	41177.04
540.28	40931.29
540.44	40842.35
540.61	41074.06
540.78	41069.38
540.95	41134.92
541.12	41163.00
541.29	41085.76
541.46	41104.49
541.62	41294.07
541.79	41366.63
541.96	41464.93
542.13	41359.61
542.30	41069.38
542.47	41345.56
542.63	41773.88
542.80	41532.81
542.97	41963.46
543.14	42181.13
543.31	42344.97
543.48	41986.87
543.64	42803.72
543.81	42335.61
543.98	42256.03
544.15	42279.44
544.32	42314.55
544.48	42403.49
544.65	42160.07
544.82	42529.87
544.99	42291.14
545.16	42169.43
545.32	42396.46
545.49	43009.68
545.66	42913.72
545.83	42876.27
546.00	42752.23
546.16	42726.48
546.33	42583.71
546.50	42218.58
546.67	42660.94
546.83	42284.12
547.00	43129.05
547.17	42504.13
547.34	42876.27
547.50	43175.86
547.67	43079.90
547.84	43384.17
548.00	43194.59
548.17	43147.78
548.34	42550.94
548.51	43161.82
548.67	43269.48
548.84	43358.42
549.01	43262.46
549.18	43271.82
549.34	43824.19
549.51	43489.49
549.68	43337.36
549.84	43672.06
550.01	43557.37
550.18	43079.90
550.34	43737.59
550.51	43636.95
550.68	43040.11
550.84	43351.40
551.01	43440.34
551.18	43737.59
551.34	43466.09
551.51	43688.44
551.68	44025.48
551.84	43934.20
552.01	43676.74
552.18	43711.84
552.34	43695.46
552.51	44112.08
552.68	43641.63
552.84	44081.65
553.01	44053.56
553.18	43988.03
553.34	44264.21
553.51	43924.83
553.67	43517.58
553.84	44201.02
554.01	44442.09
554.17	44652.74
554.34	44388.26
554.51	44219.74
554.67	44114.42
554.84	44334.43
555.00	44528.69
555.17	43950.58
555.33	44091.01
555.50	44390.60
555.67	43948.24
555.83	44472.52
556.00	44222.08
556.16	44856.37
556.33	44474.86
556.50	44332.09
556.66	44423.37
556.83	44655.08
556.99	44779.13
557.16	44559.12
557.32	44687.85
557.49	44519.33
557.65	44381.24
557.82	44465.50
557.98	44411.67
558.15	44694.87
558.32	44589.55
558.48	44706.57
558.65	45006.16
558.81	44643.38
558.98	44884.45
559.14	44884.45
559.31	44610.61
559.47	44837.64
559.64	44935.95
559.80	45230.85
559.97	45282.34
560.13	45015.52
560.30	44727.64
560.46	45031.91
560.63	44753.38
560.79	45045.95
560.96	44811.90
561.12	45207.45
561.29	45352.56
561.45	45179.36
561.61	45226.17
561.78	45343.20
561.94	44823.60
562.11	44844.66
562.27	44921.90
562.44	45127.87
562.60	45282.34
562.77	45298.73
562.93	45579.59
563.10	45572.57
563.26	44921.90
563.42	45160.64
563.59	45331.50
563.75	45333.84
563.92	45226.17
564.08	45298.73
564.24	45317.45
564.41	45535.12
564.57	45483.63
564.74	45680.24
564.90	45581.93
565.07	45296.39
565.23	45272.98
565.39	45340.86
565.56	45654.49
565.72	45455.54
565.88	45626.40
566.05	45174.68
566.21	45312.77
566.38	45333.84
566.54	45146.59
566.70	45902.59
566.87	46146.00
567.03	45680.24
567.19	45933.01
567.36	45839.39
567.52	45364.26
567.68	45947.06
567.85	45411.07
568.01	45567.89
568.17	45186.38
568.34	45705.98
568.50	45390.01
568.66	45268.30
568.83	45879.18
568.99	45368.94
569.15	45404.05
569.32	45090.42
569.48	45722.37
569.64	45935.35
569.81	46075.79
569.97	45738.75
570.13	45808.96
570.30	45425.12
570.46	45640.45
570.62	45113.83
570.78	45301.07
570.95	45443.84
571.11	45794.92
571.27	45347.88
571.43	45904.93
571.60	45621.72
571.76	46050.04
571.92	45511.72
572.09	45717.68
572.25	45823.01
572.41	45757.47
572.57	45820.67
572.74	46216.22
572.90	45930.67
573.06	45907.27
573.22	45984.51
573.38	45954.08
573.55	45851.09
573.71	46251.33
573.87	45855.78
574.03	45322.13
574.20	45663.85
574.36	45918.97
574.52	46225.58
574.68	46054.72
574.84	45783.22
575.01	45675.55
575.17	45731.73
575.33	45633.42
575.49	45546.82
575.65	46347.29
575.82	46124.94
575.98	45841.73
576.14	46115.58
576.30	45897.91
576.46	45471.93
576.62	45797.26
576.79	46040.68
576.95	45319.79
577.11	45621.72
577.27	45249.58
577.43	46115.58
577.59	45684.92
577.75	46017.27
577.92	45525.76
578.08	45560.87
578.24	45441.50
578.40	45542.14
578.56	46045.36
578.72	45736.41
578.88	46527.51
579.04	45883.86
579.21	45909.61
579.37	45710.66
579.53	45635.77
579.69	45830.03
579.85	45883.86
580.01	46188.13
580.17	46014.93
580.33	45759.81
580.49	46082.81
580.65	46192.81
580.82	46274.73
580.98	45925.99
581.14	45757.47
581.30	46026.63
581.46	46078.13
581.62	46075.79
581.78	46302.82
581.94	46277.07
582.10	46492.40
582.26	46593.04
582.42	46181.11
582.58	45930.67
582.74	45748.11
582.90	46073.45
583.06	46230.26
583.22	45979.82
583.38	46052.38
583.54	46068.76
583.70	45818.33
583.86	45563.21
584.02	45469.59
584.18	46047.70
584.34	45982.16
584.50	46230.26
584.66	46059.40
584.82	46122.60
584.98	46469.00
585.14	46169.41
585.30	46176.43
585.46	46209.20
585.62	46064.08
585.78	45703.64
585.94	45418.10
586.10	45532.78
586.26	45951.74
586.42	45965.78
586.58	46124.94
586.74	46043.02
586.90	46038.34
587.06	45881.52
587.22	45970.46
587.38	45876.84
587.54	46590.70
587.70	46150.68
587.86	46319.20
588.02	46052.38
588.18	46164.73
588.34	46415.16
588.49	46017.27
588.65	45993.87
588.81	45689.60
588.97	45921.31
589.13	45469.59
589.29	45853.44
589.45	45923.65
589.61	45827.69
589.77	46230.26
589.93	45998.55
590.08	46227.92
