SpectraSuite Data File
++++++++++++++++++++++++++++++++++++
Date: Fri Oct 25 10:47:15 EDT 2013
User: price-jones
Dark Spectrum Present: No
Reference Spectrum Present: No
Number of Sampled Component Spectra: 1
Spectrometers: USB2+H05261
Integration Time (usec): 100000 (USB2+H05261)
Spectra Averaged: 1 (USB2+H05261)
Boxcar Smoothing: 0 (USB2+H05261)
Correct for Electrical Dark: No (USB2+H05261)
Strobe/Lamp Enabled: No (USB2+H05261)
Correct for Detector Non-linearity: No (USB2+H05261)
Correct for Stray Light: No (USB2+H05261)
Number of Pixels in Processed Spectrum: 2048
>>>>>Begin Processed Spectral Data<<<<<
365.73	121.71
365.92	121.71
366.12	121.71
366.32	58.51
366.52	84.26
366.72	81.92
366.91	63.19
367.11	88.94
367.31	53.83
367.51	74.90
367.70	25.75
367.90	65.54
368.10	28.09
368.30	56.17
368.49	0.00
368.69	72.56
368.89	86.60
369.09	88.94
369.28	37.45
369.48	86.60
369.68	100.64
369.87	84.26
370.07	100.64
370.27	210.65
370.47	229.37
370.66	404.91
370.86	428.32
371.06	388.53
371.25	437.68
371.45	489.17
371.65	433.00
371.84	404.91
372.04	421.30
372.24	510.24
372.44	468.11
372.63	512.58
372.83	447.04
373.03	454.06
373.22	449.38
373.42	451.72
373.62	505.56
373.81	475.13
374.01	514.92
374.21	528.96
374.40	505.56
374.60	552.37
374.79	552.37
374.99	519.60
375.19	477.47
375.38	582.79
375.58	517.26
375.78	554.71
375.97	631.94
376.17	571.09
376.37	566.41
376.56	596.84
376.76	514.92
376.95	613.22
377.15	603.86
377.35	573.43
377.54	477.47
377.74	568.75
377.93	564.07
378.13	617.90
378.33	594.50
378.52	557.05
378.72	608.54
378.91	627.26
379.11	559.39
379.31	575.77
379.50	564.07
379.70	596.84
379.89	564.07
380.09	664.71
380.28	613.22
380.48	582.79
380.68	631.94
380.87	589.82
381.07	676.41
381.26	667.05
381.46	620.24
381.65	770.04
381.85	702.16
382.04	622.58
382.24	688.12
382.43	599.18
382.63	645.99
382.83	648.33
383.02	636.63
383.22	739.61
383.41	690.46
383.61	758.33
383.80	814.51
384.00	751.31
384.19	615.56
384.39	702.16
384.58	723.23
384.78	704.50
384.97	758.33
385.17	653.01
385.36	758.33
385.56	763.01
385.75	744.29
385.95	779.40
386.14	725.57
386.34	755.99
386.53	739.61
386.72	737.27
386.92	826.21
387.11	828.55
387.31	767.70
387.50	784.08
387.70	774.72
387.89	788.76
388.09	854.30
388.28	741.95
388.48	784.08
388.67	903.45
388.86	788.76
389.06	837.91
389.25	858.98
389.45	854.30
389.64	842.59
389.84	926.85
390.03	851.96
390.22	877.70
390.42	795.78
390.61	910.47
390.81	894.08
391.00	901.11
391.19	922.17
391.39	1015.79
391.58	966.64
391.78	889.40
391.97	968.98
392.16	947.92
392.36	950.26
392.55	964.30
392.75	961.96
392.94	901.11
393.13	1064.94
393.33	959.62
393.52	987.71
393.71	1013.45
393.91	985.37
394.10	1060.26
394.29	1008.77
394.49	940.90
394.68	1107.07
394.88	1076.65
395.07	1043.88
395.26	1153.88
395.46	1060.26
395.65	1139.84
395.84	1057.92
396.04	1165.59
396.23	1097.71
396.42	1011.11
396.62	1191.33
396.81	1146.86
397.00	1149.20
397.19	1128.14
397.39	1083.67
397.58	1214.74
397.77	1247.51
397.97	1217.08
398.16	1151.54
398.35	1261.55
398.55	1160.91
398.74	1226.44
398.93	1320.06
399.12	1228.78
399.32	1116.44
399.51	1301.34
399.70	1299.00
399.90	1320.06
400.09	1310.70
400.28	1221.76
400.47	1341.13
400.67	1378.58
400.86	1366.87
401.05	1320.06
401.24	1350.49
401.44	1394.96
401.63	1404.32
401.82	1469.86
402.01	1467.52
402.21	1458.15
402.40	1472.20
402.59	1406.66
402.78	1390.28
402.97	1497.94
403.17	1432.41
403.36	1514.33
403.55	1643.06
403.74	1535.39
403.93	1568.16
404.13	1612.63
404.32	1563.48
404.51	1558.80
404.70	1617.31
404.89	1582.20
405.09	1652.42
405.28	1685.19
405.47	1610.29
405.66	1650.08
405.85	1682.85
406.05	1619.65
406.24	1666.46
406.43	1666.46
406.62	1797.53
406.81	1858.39
407.00	1689.87
407.20	1732.00
407.39	1781.15
407.58	1870.09
407.77	1856.04
407.96	1877.11
408.15	1888.81
408.34	1790.51
408.54	1874.77
408.73	2012.86
408.92	1858.39
409.11	1977.75
409.30	1940.30
409.49	1923.92
409.68	2005.84
409.87	1935.62
410.07	2026.90
410.26	1916.90
410.45	2033.93
410.64	2019.88
410.83	2092.44
411.02	2155.63
411.21	2172.02
411.40	2115.84
411.59	2230.53
411.78	2148.61
411.98	2181.38
412.17	2275.00
412.36	2331.17
412.55	2211.81
412.74	2359.26
412.93	2293.72
413.12	2246.91
413.31	2399.05
413.50	2267.98
413.69	2303.09
413.88	2445.86
414.07	2502.03
414.26	2497.35
414.45	2380.32
414.64	2537.14
414.83	2495.01
415.02	2473.95
415.22	2635.44
415.41	2729.06
415.60	2581.61
415.79	2640.12
415.98	2768.85
416.17	2708.00
416.36	2663.53
416.55	2665.87
416.74	2696.30
416.93	2796.94
417.12	2724.38
417.31	2899.92
417.50	2897.58
417.69	2813.32
417.88	2909.29
418.07	2906.95
418.26	2930.35
418.45	2979.50
418.64	3087.17
418.83	3007.59
419.02	3023.97
419.21	2995.89
419.39	2967.80
419.58	3005.25
419.77	3080.14
419.96	3178.45
420.15	3185.47
420.34	3164.40
420.53	3213.56
420.72	3218.24
420.91	3297.81
421.10	3239.30
421.29	3361.01
421.48	3194.83
421.67	3255.69
421.86	3201.85
422.05	3253.34
422.24	3344.63
422.43	3372.71
422.61	3351.65
422.80	3531.87
422.99	3424.20
423.18	3375.05
423.37	3496.76
423.56	3403.14
423.75	3407.82
423.94	3332.92
424.13	3105.89
424.32	3197.17
424.50	3440.59
424.69	3375.05
424.88	3461.65
425.07	3384.41
425.26	3328.24
425.45	3393.78
425.64	3293.13
425.83	3325.90
426.01	3480.38
426.20	3496.76
426.39	3536.55
426.58	3428.88
426.77	3463.99
426.96	3424.20
427.15	3489.74
427.33	3545.91
427.52	3620.81
427.71	3707.41
427.90	3606.77
428.09	3590.38
428.28	3585.70
428.46	3644.21
428.65	3620.81
428.84	3730.81
429.03	3810.39
429.22	3714.43
429.40	3733.15
429.59	3705.07
429.78	3538.89
429.97	3646.55
430.16	3566.98
430.34	3679.32
430.53	3728.47
430.72	3719.11
430.91	3730.81
431.10	3705.07
431.28	3899.33
431.47	3971.89
431.66	4072.53
431.85	4011.68
432.03	3974.23
432.22	4023.38
432.41	3969.55
432.60	3962.53
432.79	3967.21
432.97	4133.39
433.16	3999.98
433.35	4035.08
433.54	4114.66
433.72	4046.79
433.91	4140.41
434.10	4142.75
434.28	4107.64
434.47	3936.78
434.66	4238.71
434.85	4250.41
435.03	4187.22
435.22	4271.48
435.41	4500.85
435.59	4322.97
435.78	4337.01
435.97	4311.27
436.16	4320.63
436.34	4386.16
436.53	4484.47
436.72	4498.51
436.90	4461.06
437.09	4608.51
437.28	4248.07
437.46	4400.21
437.65	4454.04
437.84	4519.57
438.02	4531.28
438.21	4613.20
438.40	4610.86
438.58	4713.84
438.77	4770.01
438.96	4503.19
439.14	4697.46
439.33	4812.14
439.52	4880.02
439.70	4816.82
439.89	4786.40
440.08	4994.70
440.26	4961.94
440.45	4954.91
440.63	5027.47
440.82	5160.88
441.01	5125.77
441.19	5064.92
441.38	5254.50
441.57	5158.54
441.75	5336.42
441.94	5378.55
442.12	5350.46
442.31	5455.79
442.50	5448.77
442.68	5535.37
442.87	5266.21
443.05	5493.24
443.24	5568.13
443.43	5537.71
443.61	5570.48
443.80	5774.10
443.98	5511.96
444.17	5479.19
444.35	5717.93
444.54	5575.16
444.73	5584.52
444.91	5521.32
445.10	5584.52
445.28	5476.85
445.47	5547.07
445.65	5467.49
445.84	5551.75
446.02	5563.45
446.21	5671.12
446.39	5516.64
446.58	5771.76
446.77	5715.59
446.95	5717.93
447.14	5724.95
447.32	5799.85
447.51	5542.39
447.69	5631.33
447.88	5769.42
448.06	5799.85
448.25	5710.91
448.43	5797.51
448.62	5795.17
448.80	5795.17
448.99	5902.83
449.17	5832.62
449.36	5776.44
449.54	5956.66
449.73	6228.17
449.91	6015.18
450.10	6038.58
450.28	6066.67
450.46	6040.92
450.65	6136.88
450.83	6193.06
451.02	6200.08
451.20	6136.88
451.39	6157.95
451.57	6209.44
451.76	6085.39
451.94	6167.31
452.13	6274.98
452.31	6209.44
452.49	6193.06
452.68	6171.99
452.86	6274.98
453.05	6417.75
453.23	6389.66
453.42	6249.23
453.60	6352.21
453.78	6384.98
453.97	6363.92
454.15	6354.55
454.34	6506.69
454.52	6567.54
454.70	6431.79
454.89	6579.25
455.07	6490.31
455.26	6527.75
455.44	6607.33
455.62	6572.22
455.81	6595.63
455.99	6492.65
456.17	6775.85
456.36	6820.32
456.54	6892.88
456.73	6935.01
456.91	6932.67
457.09	6958.41
457.28	7052.03
457.46	6932.67
457.64	7000.54
457.83	6972.46
458.01	6981.82
458.19	7033.31
458.38	6972.46
458.56	7152.68
458.74	7199.49
458.93	7002.88
459.11	7180.76
459.29	7082.46
459.48	7267.36
459.66	7119.91
459.84	7358.64
460.03	7140.97
460.21	7363.33
460.39	7232.26
460.57	7218.21
460.76	7475.67
460.94	7527.16
461.12	7426.52
461.31	7531.84
461.49	7501.42
461.67	7377.37
461.85	7517.80
462.04	7550.57
462.22	8152.09
462.40	7728.45
462.59	7527.16
462.77	7681.64
462.95	7833.77
463.13	7784.62
463.32	7829.09
463.50	7831.43
463.68	7714.41
463.86	8028.04
464.05	7723.77
464.23	7894.63
464.41	7761.22
464.59	7683.98
464.78	8009.31
464.96	7906.33
465.14	7997.61
465.32	7906.33
465.50	8081.87
465.69	8147.40
465.87	8149.75
466.05	8056.12
466.23	8070.17
466.41	8058.46
466.60	8182.51
466.78	7948.46
466.96	8098.25
467.14	8154.43
467.32	8219.96
467.51	8194.22
467.69	7957.82
467.87	8346.35
468.05	8475.08
468.23	8353.37
468.41	8299.54
468.60	8203.58
468.78	8404.86
468.96	8273.79
469.14	8416.57
469.32	8486.78
469.50	8248.05
469.69	8610.83
469.87	8566.36
470.05	8636.58
470.23	8503.17
470.41	8601.47
470.59	8777.01
470.77	8844.88
470.95	8650.62
471.14	8943.19
471.32	8725.52
471.50	9259.16
471.68	8994.68
471.86	9013.40
472.04	8915.10
472.22	9114.05
472.40	8940.85
472.58	9074.26
472.77	9020.42
472.95	9284.91
473.13	9586.83
473.31	9181.92
473.49	9226.39
473.67	9561.09
473.85	9432.36
474.03	9507.26
474.21	9748.33
474.39	9879.40
474.57	9640.67
474.75	9727.27
474.93	9856.00
475.12	9738.97
475.30	10003.45
475.48	9825.57
475.66	9724.93
475.84	9881.74
476.02	9991.75
476.20	10012.81
476.38	10204.74
476.56	10406.02
476.74	10436.45
476.92	10373.25
477.10	10340.49
477.28	10562.84
477.46	10668.16
477.64	10640.08
477.82	10878.81
478.00	11115.20
478.18	11005.20
478.36	11169.04
478.54	11070.73
478.72	11103.50
478.90	11136.27
479.08	11501.39
479.26	11620.76
479.44	11257.98
479.62	11517.78
479.80	11461.60
479.98	11644.17
480.16	12116.95
480.34	12128.66
480.52	11955.46
480.70	12081.85
480.88	11852.47
481.06	12088.87
481.24	12159.08
481.41	12219.94
481.59	12575.70
481.77	12538.25
481.95	12730.17
482.13	12704.43
482.31	12641.23
482.49	12999.34
482.67	12952.52
482.85	13240.41
483.03	13401.91
483.21	13479.15
483.39	13565.74
483.57	13422.97
483.74	13870.01
483.92	13905.12
484.10	13717.88
484.28	14068.96
484.46	14303.01
484.64	14665.80
484.82	14136.84
485.00	14193.01
485.18	14616.65
485.35	14537.07
485.53	14537.07
485.71	14745.38
485.89	15091.77
486.07	14672.82
486.25	14808.57
486.43	15215.82
486.61	15314.13
486.78	15281.36
486.96	15637.12
487.14	15934.37
487.32	15690.95
487.50	16102.89
487.68	16032.67
487.85	16194.17
488.03	16369.71
488.21	16512.48
488.39	16388.43
488.57	16624.83
488.75	16926.75
488.92	16917.39
489.10	17273.15
489.28	17497.84
489.46	17408.90
489.64	17436.99
489.81	17624.23
489.99	17816.16
490.17	18052.55
490.35	17816.16
490.53	18036.17
490.70	18319.37
490.88	18415.34
491.06	18396.61
491.24	18427.04
491.41	18824.93
491.59	18696.20
491.77	18464.49
491.95	18902.17
492.13	19009.83
492.30	19365.59
492.48	19073.03
492.66	19309.42
492.84	19461.55
493.01	19690.93
493.19	19683.91
493.37	20315.85
493.54	19988.18
493.72	20247.97
493.90	20198.82
494.08	20437.56
494.25	20582.67
494.43	20671.61
494.61	20807.36
494.79	20758.21
494.96	20807.36
495.14	20929.07
495.32	21186.53
495.49	21228.66
495.67	21238.02
495.85	21401.86
496.02	21621.87
496.20	21563.36
496.38	21874.65
496.55	21727.19
496.73	22256.15
496.91	21970.61
497.09	22300.62
497.26	22125.08
497.44	22651.70
497.62	22515.95
497.79	22787.46
497.97	22354.46
498.14	23002.78
498.32	23058.96
498.50	23206.41
498.67	23192.37
498.85	23042.57
499.03	23520.04
499.20	23192.37
499.38	23297.69
499.56	23620.69
499.73	23775.16
499.91	23824.31
500.08	23709.63
500.26	23583.24
500.44	23838.36
500.61	23838.36
500.79	24226.89
500.97	24367.32
501.14	24821.38
501.32	24343.91
501.49	24652.86
501.67	24367.32
501.84	24489.03
502.02	24821.38
502.20	24872.87
502.37	25273.10
502.55	25074.16
502.72	25116.29
502.90	25289.49
503.07	24980.54
503.25	25717.81
503.43	25329.28
503.60	25671.00
503.78	25888.67
503.95	25951.86
504.13	26057.18
504.30	26160.17
504.48	25991.65
504.65	26099.31
504.83	26162.51
505.01	26071.23
505.18	26214.00
505.36	26647.00
505.53	26192.94
505.71	26345.07
505.88	26396.56
506.06	26590.83
506.23	26967.65
506.41	26497.20
506.58	26808.50
506.76	26881.05
506.93	27213.41
507.11	27028.51
507.28	27133.83
507.46	27316.39
507.63	27538.74
507.81	27695.56
507.98	27407.67
508.16	27587.89
508.33	27721.30
508.50	27796.20
508.68	27768.12
508.85	27920.25
509.03	28346.23
509.20	27948.34
509.38	28318.14
509.55	28252.61
509.73	28074.73
509.90	28662.20
510.08	28020.89
510.25	28350.91
510.42	28493.68
510.60	28816.68
510.77	28748.80
510.95	29029.66
511.12	28772.21
511.30	28821.36
511.47	29277.76
511.64	29095.20
511.82	29296.49
511.99	29312.87
512.17	29223.93
512.34	29390.11
512.51	29825.45
512.69	29565.65
512.86	30113.33
513.04	30162.48
513.21	29682.67
513.38	29958.86
513.56	29998.65
513.73	29972.90
513.90	30265.47
514.08	30150.78
514.25	30682.08
514.43	30326.32
514.60	30167.16
514.77	30213.98
514.95	30684.42
515.12	30583.78
515.29	30389.52
515.47	30759.32
515.64	30822.51
515.81	30527.61
515.99	30976.99
516.16	30969.97
516.33	30981.67
516.51	30916.14
516.68	30831.88
516.85	30429.30
517.03	31325.73
517.20	31119.76
517.37	31225.09
517.54	31732.98
517.72	31494.25
517.89	31236.79
518.06	31463.82
518.24	31655.75
518.41	31426.37
518.58	31587.87
518.75	31756.39
518.93	32313.44
519.10	31880.44
519.27	32105.13
519.45	31908.52
519.62	32290.03
519.79	32070.02
519.96	32332.16
520.14	32765.16
520.31	32268.97
520.48	32451.53
520.65	32589.62
520.83	32474.93
521.00	32861.12
521.17	32910.27
521.34	32720.69
521.52	33214.54
521.69	32659.84
521.86	33003.89
522.03	33385.40
522.20	33677.97
522.38	33333.91
522.55	33266.03
522.72	33684.99
522.89	33364.34
523.07	33834.78
523.24	33153.69
523.41	34106.29
523.58	33181.77
523.75	33855.85
523.92	33900.32
524.10	34256.08
524.27	33928.41
524.44	34059.48
524.61	34352.04
524.78	33893.30
524.96	34387.15
525.13	34249.06
525.30	34813.13
525.47	34295.87
525.64	34419.92
525.81	34918.45
525.98	34352.04
526.16	34642.27
526.33	34705.46
526.50	34670.36
526.67	34857.60
526.84	34946.54
527.01	34604.82
527.18	35023.78
527.36	35215.70
527.53	35285.92
527.70	35435.71
527.87	35784.45
528.04	35438.05
528.21	35758.70
528.38	35433.37
528.55	35508.27
528.72	35470.82
528.89	35571.46
529.07	35819.56
529.24	35239.11
529.41	35681.47
529.58	35854.67
529.75	35510.61
529.92	36332.14
530.09	35950.63
530.26	36315.75
530.43	36081.70
530.60	35915.52
530.77	35786.79
530.94	36355.54
531.11	36172.98
531.28	36313.41
531.46	36348.52
531.63	36608.32
531.80	36229.15
531.97	36397.67
532.14	36538.10
532.31	36776.84
532.48	36655.13
532.65	37081.11
532.82	36893.86
532.99	36879.82
533.16	36577.89
533.33	36872.80
533.50	37008.55
533.67	36947.70
533.84	36884.50
534.01	36959.40
534.18	37207.50
534.35	37284.73
534.52	37488.36
534.69	37322.18
534.86	37425.17
535.03	37141.96
535.20	37713.05
535.37	37738.80
535.54	37462.61
535.71	37488.36
535.88	37539.85
536.05	37383.04
536.22	37443.89
536.38	37886.25
536.55	38003.28
536.72	37593.68
536.89	37570.28
537.06	37998.60
537.23	37991.58
537.40	37792.63
537.57	37984.55
537.74	37944.76
537.91	38258.40
538.08	38384.79
538.25	38143.71
538.42	38202.22
538.59	38726.50
538.75	38382.45
538.92	38366.06
539.09	38518.20
539.26	38485.43
539.43	38614.16
539.60	38621.18
539.77	38541.60
539.94	38808.42
540.11	38698.42
540.28	39159.50
540.44	38799.06
540.61	38869.28
540.78	38557.99
540.95	38726.50
541.12	38431.60
541.29	38705.44
541.46	39056.52
541.62	39089.29
541.79	39075.24
541.96	38705.44
542.13	39002.69
542.30	39009.71
542.47	39222.70
542.63	39421.64
542.80	39283.55
542.97	39826.56
543.14	39826.56
543.31	39445.05
543.48	39580.80
543.64	40069.97
543.81	40285.30
543.98	40306.37
544.15	39917.84
544.32	39882.73
544.48	40208.06
544.65	40622.34
544.82	39798.47
544.99	39606.55
545.16	40308.71
545.32	40041.88
545.49	40320.41
545.66	40865.75
545.83	40184.66
546.00	40631.70
546.16	40706.60
546.33	40519.35
546.50	40114.44
546.67	40467.86
546.83	39866.34
547.00	40399.99
547.17	40189.34
547.34	40554.46
547.50	40238.49
547.67	40662.13
547.84	40507.65
548.00	41069.38
548.17	40879.80
548.34	41029.59
548.51	40699.58
548.67	40889.16
548.84	41163.00
549.01	40870.43
549.18	40861.07
549.34	41001.50
549.51	41202.79
549.68	40835.33
549.84	41013.21
550.01	41214.49
550.18	41071.72
550.34	41673.24
550.51	41354.93
550.68	40840.01
550.84	40535.74
551.01	41535.15
551.18	41265.99
551.34	41141.94
551.51	41462.59
551.68	41322.16
551.84	41549.19
552.01	41312.80
552.18	41598.34
552.34	41081.08
552.51	41680.26
552.68	41448.55
552.84	41837.08
553.01	42122.62
553.18	41820.69
553.34	41453.23
553.51	41366.63
553.67	41846.44
553.84	41996.23
554.01	42146.03
554.17	42014.96
554.34	41989.21
554.51	42328.59
554.67	42256.03
554.84	42529.87
555.00	41968.15
555.17	41975.17
555.33	42122.62
555.50	41827.71
555.67	42340.29
555.83	41918.99
556.00	42071.13
556.16	42590.73
556.33	42548.60
556.50	42454.98
556.66	42726.48
556.83	41759.84
556.99	43026.07
557.16	42464.34
557.32	42272.42
557.49	42515.83
557.65	42319.23
557.82	42600.09
557.98	42576.69
558.15	42466.68
558.32	42637.54
558.48	42803.72
558.65	42347.31
558.81	42539.24
558.98	42572.00
559.14	42581.37
559.31	42651.58
559.47	42588.39
559.64	43199.27
559.80	42923.08
559.97	42773.29
560.13	42857.55
560.30	42586.05
560.46	42897.34
560.63	42564.98
560.79	43093.94
560.96	43033.09
561.12	42843.51
561.29	43171.18
561.45	42895.00
561.61	43131.39
561.78	42822.44
561.94	42939.47
562.11	42934.79
562.27	43075.22
562.44	42939.47
562.60	43405.23
562.77	43203.95
562.93	43459.07
563.10	43405.23
563.26	43016.71
563.42	43363.11
563.59	43044.79
563.75	43075.22
563.92	43669.72
564.08	43194.59
564.24	43550.35
564.41	43100.97
564.57	43210.97
564.74	43171.18
564.90	43543.33
565.07	43304.59
565.23	43119.69
565.39	43517.58
565.56	43721.21
565.72	43115.01
565.88	43536.30
566.05	42925.42
566.21	43304.59
566.38	42871.59
566.54	43463.75
566.70	43648.65
566.87	43966.96
567.03	43311.61
567.19	43510.56
567.36	43655.67
567.52	43264.80
567.68	43643.97
567.85	43316.29
568.01	43580.78
568.17	43746.95
568.34	43587.80
568.50	43555.03
568.66	43489.49
568.83	43704.82
568.99	43498.86
569.15	43309.27
569.32	43306.93
569.48	43426.30
569.64	44030.16
569.81	43901.43
569.97	43473.11
570.13	43360.76
570.30	43248.42
570.46	43480.13
570.62	43257.78
570.78	43311.61
570.95	43459.07
571.11	43758.66
571.27	43779.72
571.43	43461.41
571.60	43992.71
571.76	43782.06
571.92	43353.74
572.09	43580.78
572.25	43529.28
572.41	43655.67
572.57	43962.28
572.74	44196.34
572.90	43875.68
573.06	43374.81
573.22	43679.08
573.38	43459.07
573.55	43852.28
573.71	43667.37
573.87	43981.01
574.03	43679.08
574.20	43969.30
574.36	43599.50
574.52	44245.49
574.68	43833.55
574.84	43784.40
575.01	43686.10
575.17	43875.68
575.33	43894.41
575.49	43744.61
575.65	44121.44
575.82	44362.51
575.98	44210.38
576.14	44067.61
576.30	44339.11
576.46	43620.56
576.62	43643.97
576.79	43622.90
576.95	43744.61
577.11	44254.85
577.27	43997.39
577.43	43885.04
577.59	43793.76
577.75	43917.81
577.92	43608.86
578.08	43842.92
578.24	43606.52
578.40	44051.22
578.56	44027.82
578.72	43620.56
578.88	44573.16
579.04	44013.77
579.21	44102.71
579.37	43929.51
579.53	43625.25
579.69	43777.38
579.85	44004.41
580.01	44245.49
580.17	43948.24
580.33	44079.31
580.49	44226.76
580.65	44327.41
580.82	44320.38
580.98	44161.23
581.14	43793.76
581.30	44048.88
581.46	43803.13
581.62	43917.81
581.78	43936.54
581.94	43978.67
582.10	44140.16
582.26	43835.89
582.42	43824.19
582.58	43948.24
582.74	43962.28
582.90	43896.75
583.06	44273.57
583.22	44318.04
583.38	44729.98
583.54	44137.82
583.70	43981.01
583.86	44257.19
584.02	43854.62
584.18	44538.05
584.34	44091.01
584.50	44074.63
584.66	43655.67
584.82	43899.09
584.98	44671.46
585.14	44685.51
585.30	43517.58
585.46	44149.53
585.62	43648.65
585.78	44126.12
585.94	43660.35
586.10	43955.26
586.26	44107.40
586.42	43938.88
586.58	43988.03
586.74	44107.40
586.90	43784.40
587.06	44191.65
587.22	44282.94
587.38	44226.76
587.54	44053.56
587.70	44208.04
587.86	44144.84
588.02	44151.87
588.18	44428.05
588.34	43999.73
588.49	43906.11
588.65	43805.47
588.81	44116.76
588.97	44275.91
589.13	44039.52
589.29	44116.76
589.45	44334.43
589.61	44399.96
589.77	44439.75
589.93	44516.99
590.08	44107.40
590.24	44381.24
590.40	44210.38
