SpectraSuite Data File
++++++++++++++++++++++++++++++++++++
Date: Fri Oct 25 11:23:22 EDT 2013
User: price-jones
Dark Spectrum Present: No
Reference Spectrum Present: No
Number of Sampled Component Spectra: 1
Spectrometers: USB2+H05261
Integration Time (usec): 100000 (USB2+H05261)
Spectra Averaged: 1 (USB2+H05261)
Boxcar Smoothing: 0 (USB2+H05261)
Correct for Electrical Dark: No (USB2+H05261)
Strobe/Lamp Enabled: No (USB2+H05261)
Correct for Detector Non-linearity: No (USB2+H05261)
Correct for Stray Light: No (USB2+H05261)
Number of Pixels in Processed Spectrum: 2048
>>>>>Begin Processed Spectral Data<<<<<
365.73	231.71
365.92	231.71
366.12	231.71
366.32	131.07
366.52	173.20
366.72	133.41
366.91	138.09
367.11	77.24
367.31	98.30
367.51	138.09
367.70	119.37
367.90	170.86
368.10	142.77
368.30	184.90
368.49	102.98
368.69	196.60
368.89	196.60
369.09	86.60
369.28	114.69
369.48	152.13
369.68	156.82
369.87	163.84
370.07	142.77
370.27	245.76
370.47	351.08
370.66	613.22
370.86	681.10
371.06	676.41
371.25	699.82
371.45	641.31
371.65	650.67
371.84	692.80
372.04	692.80
372.24	755.99
372.44	739.61
372.63	732.59
372.83	809.83
373.03	746.63
373.22	770.04
373.42	833.23
373.62	727.91
373.81	781.74
374.01	786.42
374.21	786.42
374.40	828.55
374.60	840.25
374.79	819.19
374.99	772.38
375.19	788.76
375.38	842.59
375.58	903.45
375.78	861.32
375.97	863.66
376.17	992.39
376.37	912.81
376.56	837.91
376.76	758.33
376.95	847.27
377.15	950.26
377.35	847.27
377.54	786.42
377.74	851.96
377.93	903.45
378.13	894.08
378.33	961.96
378.52	971.32
378.72	990.05
378.91	978.34
379.11	952.60
379.31	947.92
379.50	917.49
379.70	999.41
379.89	980.68
380.09	1027.50
380.28	1039.20
380.48	1006.43
380.68	917.49
380.87	1020.47
381.07	1027.50
381.26	1034.52
381.46	968.98
381.65	1057.92
381.85	1062.60
382.04	1104.73
382.24	1046.22
382.43	1104.73
382.63	1043.88
382.83	1055.58
383.02	1170.27
383.22	1125.80
383.41	1090.69
383.61	1144.52
383.80	1088.35
384.00	1151.54
384.19	1114.10
384.39	1109.41
384.58	1104.73
384.78	1125.80
384.97	1144.52
385.17	1191.33
385.36	1261.55
385.56	1231.12
385.75	1165.59
385.95	1254.53
386.14	1256.87
386.34	1205.38
386.53	1144.52
386.72	1207.72
386.92	1306.02
387.11	1277.93
387.31	1256.87
387.50	1357.51
387.70	1254.53
387.89	1289.64
388.09	1327.08
388.28	1275.59
388.48	1315.38
388.67	1249.85
388.86	1362.19
389.06	1359.85
389.25	1289.64
389.45	1284.95
389.64	1334.11
389.84	1474.54
390.03	1444.11
390.22	1460.49
390.42	1373.89
390.61	1359.85
390.81	1299.00
391.00	1476.88
391.19	1472.20
391.39	1507.30
391.58	1362.19
391.78	1472.20
391.97	1483.90
392.16	1472.20
392.36	1514.33
392.55	1526.03
392.75	1600.93
392.94	1530.71
393.13	1565.82
393.33	1519.01
393.52	1533.05
393.71	1533.05
393.91	1647.74
394.10	1519.01
394.29	1640.72
394.49	1591.56
394.68	1643.06
394.88	1598.59
395.07	1694.55
395.26	1593.90
395.46	1619.65
395.65	1680.50
395.84	1699.23
396.04	1631.35
396.23	1771.79
396.42	1713.27
396.62	1834.98
396.81	1816.26
397.00	1788.17
397.19	1762.42
397.39	1823.28
397.58	1839.66
397.77	1746.04
397.97	1860.73
398.16	1877.11
398.35	1842.00
398.55	1991.80
398.74	1842.00
398.93	2001.16
399.12	1900.52
399.32	1895.83
399.51	1940.30
399.70	1966.05
399.90	1961.37
400.09	2069.03
400.28	2094.78
400.47	2083.08
400.67	2174.36
400.86	1998.82
401.05	2104.14
401.24	2122.87
401.44	2003.50
401.63	2094.78
401.82	2176.70
402.01	2214.15
402.21	2221.17
402.40	2188.40
402.59	2272.66
402.78	2221.17
402.97	2169.68
403.17	2251.60
403.36	2202.44
403.55	2218.83
403.74	2373.30
403.93	2410.75
404.13	2396.71
404.32	2387.35
404.51	2389.69
404.70	2370.96
404.89	2420.11
405.09	2464.58
405.28	2434.16
405.47	2464.58
405.66	2448.20
405.85	2616.72
406.05	2457.56
406.24	2684.59
406.43	2635.44
406.62	2602.68
406.81	2736.09
407.00	2649.49
407.20	2675.23
407.39	2668.21
407.58	2621.40
407.77	2785.24
407.96	2729.06
408.15	2747.79
408.34	2705.66
408.54	2684.59
408.73	2827.37
408.92	2818.00
409.11	2818.00
409.30	2827.37
409.49	2970.14
409.68	2932.69
409.87	2920.99
410.07	3014.61
410.26	3002.91
410.45	3178.45
410.64	3066.10
410.83	3157.38
411.02	3045.04
411.21	3288.45
411.40	3016.95
411.59	3159.72
411.78	3199.51
411.98	3201.85
412.17	3307.18
412.36	3300.16
412.55	3456.97
412.74	3375.05
412.93	3246.32
413.12	3314.20
413.31	3534.21
413.50	3449.95
413.69	3506.12
413.88	3714.43
414.07	3639.53
414.26	3634.85
414.45	3688.68
414.64	3637.19
414.83	3712.09
415.02	3742.52
415.22	3772.94
415.41	3878.27
415.60	3899.33
415.79	3894.65
415.98	3985.93
416.17	3964.87
416.36	4037.42
416.55	4060.83
416.74	4154.45
416.93	4044.45
417.12	4142.75
417.31	4037.42
417.50	4236.37
417.69	4311.27
417.88	4166.15
418.07	4217.65
418.26	4278.50
418.45	4442.34
418.64	4538.30
418.83	4461.06
419.02	4451.70
419.21	4652.98
419.39	4411.91
419.58	4491.49
419.77	4395.53
419.96	4566.39
420.15	4542.98
420.34	4655.33
420.53	4690.43
420.72	4723.20
420.91	4702.14
421.10	4704.48
421.29	4884.70
421.48	4620.22
421.67	4821.50
421.86	4809.80
422.05	4767.67
422.24	4809.80
422.43	4980.66
422.61	4784.06
422.80	5043.85
422.99	4924.49
423.18	5050.88
423.37	5104.71
423.56	5011.09
423.75	4835.55
423.94	4847.25
424.13	4718.52
424.32	4699.80
424.50	4985.34
424.69	5139.82
424.88	5116.41
425.07	5004.07
425.26	4912.78
425.45	5036.83
425.64	5060.24
425.83	4837.89
426.01	4950.23
426.20	5029.81
426.39	5034.49
426.58	5046.20
426.77	5123.43
426.96	5151.52
427.15	5125.77
427.33	5174.92
427.52	5263.86
427.71	5320.04
427.90	5266.21
428.09	5263.86
428.28	5469.83
428.46	5413.66
428.65	5458.13
428.84	5565.79
429.03	5458.13
429.22	5270.89
429.40	5479.19
429.59	5458.13
429.78	5336.42
429.97	5273.23
430.16	5502.60
430.34	5497.92
430.53	5558.77
430.72	5678.14
430.91	5565.79
431.10	5507.28
431.28	5614.95
431.47	5776.44
431.66	5879.43
431.85	5788.14
432.03	6052.63
432.22	5856.02
432.41	5998.79
432.60	5818.57
432.79	5933.26
432.97	6036.24
433.16	6239.87
433.35	6029.22
433.54	6085.39
433.72	6076.03
433.91	6064.33
434.10	6193.06
434.28	6146.25
434.47	6003.47
434.66	6171.99
434.85	6307.74
435.03	6272.64
435.22	6356.90
435.41	6583.93
435.59	6410.73
435.78	6525.41
435.97	6413.07
436.16	6551.16
436.34	6541.80
436.53	6539.46
436.72	6551.16
436.90	6499.67
437.09	6717.34
437.28	6619.04
437.46	6616.69
437.65	6567.54
437.84	6832.02
438.02	6649.46
438.21	6775.85
438.40	6801.60
438.58	7162.04
438.77	7157.36
438.96	7070.76
439.14	7110.55
439.33	7117.57
439.52	7152.68
439.70	7316.51
439.89	7248.64
440.08	7382.05
440.26	7478.01
440.45	7592.70
440.63	7538.87
440.82	7698.02
441.01	7592.70
441.19	7478.01
441.38	7707.38
441.57	7819.73
441.75	8018.68
441.94	8018.68
442.12	7948.46
442.31	8072.51
442.50	8039.74
442.68	7999.95
442.87	7915.69
443.05	8074.85
443.24	8294.86
443.43	8128.68
443.61	8203.58
443.80	8423.59
443.98	8226.98
444.17	7918.03
444.35	8168.47
444.54	8463.38
444.73	8444.65
444.91	8397.84
445.10	8241.03
445.28	8372.10
445.47	8229.32
445.65	8341.67
445.84	8409.54
446.02	8526.57
446.21	8498.49
446.39	8458.70
446.58	8470.40
446.77	8461.04
446.95	8428.27
447.14	8533.59
447.32	8510.19
447.51	8402.52
447.69	8573.38
447.88	8566.36
448.06	8479.76
448.25	8400.18
448.43	8669.34
448.62	8674.03
448.80	8557.00
448.99	8730.20
449.17	8884.67
449.36	8685.73
449.54	8985.32
449.73	9050.85
449.91	9135.11
450.10	9034.47
450.28	9097.66
450.46	9090.64
450.65	9088.30
450.83	9142.13
451.02	8975.95
451.20	9181.92
451.39	9156.18
451.57	9170.22
451.76	8980.64
451.94	9210.01
452.13	9334.06
452.31	9202.99
452.49	9322.35
452.68	9247.46
452.86	9392.57
453.05	9378.53
453.23	9682.80
453.42	9474.49
453.60	9376.19
453.78	9643.01
453.97	9430.02
454.15	9607.90
454.34	9392.57
454.52	9771.74
454.70	9750.67
454.89	9757.69
455.07	9736.63
455.26	9783.44
455.44	10040.90
455.62	10064.30
455.81	9937.91
455.99	10066.64
456.17	10106.43
456.36	10057.28
456.54	10326.44
456.73	10516.03
456.91	10427.09
457.09	10246.87
457.28	10745.40
457.46	10354.53
457.64	10452.83
457.83	10565.18
458.01	10506.66
458.19	10785.19
458.38	10726.68
458.56	10740.72
458.74	10621.35
458.93	10593.26
459.11	10799.23
459.29	10799.23
459.48	10939.66
459.66	10876.47
459.84	11103.50
460.03	10988.82
460.21	10895.19
460.39	10888.17
460.57	10958.39
460.76	11318.83
460.94	11215.85
461.12	11253.30
461.31	11260.32
461.49	11215.85
461.67	11211.17
461.85	11349.26
462.04	11351.60
462.22	11653.53
462.40	11836.09
462.59	11693.32
462.77	11510.75
462.95	11747.15
463.13	11747.15
463.32	11892.26
463.50	11941.41
463.68	11850.13
463.86	11782.26
464.05	11613.74
464.23	11632.46
464.41	11967.16
464.59	11796.30
464.78	12210.57
464.96	11847.79
465.14	11756.51
465.32	12159.08
465.50	12135.68
465.69	12236.32
465.87	12287.81
466.05	12053.76
466.23	12049.08
466.41	12231.64
466.60	12645.91
466.78	12353.35
466.96	12196.53
467.14	12233.98
467.32	12386.12
467.51	12519.53
467.69	12276.11
467.87	12615.49
468.05	12465.69
468.23	12613.15
468.41	12538.25
468.60	12910.40
468.78	12870.61
468.96	12849.54
469.14	12758.26
469.32	12837.84
469.50	12830.82
469.69	12805.07
469.87	13083.59
470.05	13327.01
470.23	13432.33
470.41	13123.38
470.59	13273.18
470.77	13231.05
470.95	13249.77
471.14	13565.74
471.32	13366.80
471.50	13558.72
471.68	13455.74
471.86	13902.78
472.04	13647.66
472.22	14104.07
472.40	13593.83
472.58	13820.86
472.77	14059.60
472.95	14384.93
473.13	14450.47
473.31	14066.62
473.49	14326.42
473.67	14223.44
473.85	14150.88
474.03	14750.06
474.21	14745.38
474.39	14761.76
474.57	14661.12
474.75	14822.61
474.93	15136.24
475.12	14963.04
475.30	15279.02
475.48	15143.27
475.66	15353.91
475.84	15421.79
476.02	15552.86
476.20	15442.85
476.38	15943.73
476.56	16025.65
476.74	16067.78
476.92	15957.77
477.10	15992.88
477.28	16196.51
477.46	16339.28
477.64	16475.03
477.82	16681.00
478.00	16844.84
478.18	16762.92
478.36	17022.72
478.54	17207.62
478.72	17231.02
478.90	17692.11
479.08	17898.08
479.26	17818.50
479.44	17689.77
479.62	18038.51
479.80	18127.45
479.98	18260.86
480.16	18618.96
480.34	18359.16
480.52	18747.69
480.70	18721.95
480.88	18677.48
481.06	18696.20
481.24	18827.27
481.41	19110.47
481.59	19461.55
481.77	19742.42
481.95	19559.86
482.13	19601.99
482.31	19800.93
482.49	20346.28
482.67	20198.82
482.85	20606.08
483.03	20940.77
483.21	20713.74
483.39	21076.52
483.57	21039.08
483.74	21193.55
483.92	21441.65
484.10	21558.67
484.28	21982.31
484.46	21848.90
484.64	22588.51
484.82	21898.05
485.00	22333.39
485.18	22560.42
485.35	22981.72
485.53	22651.70
485.71	23005.13
485.89	23555.15
486.07	23033.21
486.25	23606.64
486.43	23999.85
486.61	24144.97
486.78	24264.33
486.96	24519.45
487.14	24648.18
487.32	24751.17
487.50	24877.55
487.68	25025.01
487.85	25259.06
488.03	25713.13
488.21	25879.30
488.39	25993.99
488.57	25975.27
488.75	26333.37
488.92	26511.25
489.10	26721.90
489.28	26742.96
489.46	27323.41
489.64	27175.96
489.81	27740.03
489.99	27744.71
490.17	27491.93
490.35	28503.04
490.53	27962.38
490.70	28540.49
490.88	28760.50
491.06	29212.23
491.24	29083.50
491.41	29259.04
491.59	29619.48
491.77	29542.24
491.95	30192.91
492.13	30073.54
492.30	30155.46
492.48	30391.86
492.66	30188.23
492.84	30302.92
493.01	30712.51
493.19	30462.07
493.37	31360.84
493.54	31358.50
493.72	31585.53
493.90	31398.29
494.08	32044.27
494.25	32278.33
494.43	32348.54
494.61	32287.69
494.79	32582.60
494.96	32496.00
495.14	32854.10
495.32	33237.95
495.49	33179.43
495.67	33198.16
495.85	33752.87
496.02	33792.65
496.20	34366.09
496.38	34031.39
496.55	33993.94
496.73	35140.80
496.91	34824.83
497.09	35147.82
497.26	35281.24
497.44	35351.45
497.62	35576.14
497.79	35393.58
497.97	35807.86
498.14	36034.89
498.32	36392.99
498.50	36453.84
498.67	36699.60
498.85	36570.87
499.03	37027.28
499.20	37081.11
499.38	36528.74
499.56	37411.12
499.73	37184.09
499.91	37401.76
500.08	37895.61
500.26	37565.60
500.44	37809.01
500.61	37858.17
500.79	38204.56
500.97	38412.87
501.14	38754.59
501.32	38817.78
501.49	38824.81
501.67	38752.25
501.84	38930.13
502.02	38876.30
502.20	39290.57
502.37	39477.82
502.55	39388.88
502.72	39400.58
502.90	40116.78
503.07	39826.56
503.25	40076.99
503.43	40184.66
503.60	40072.31
503.78	40474.88
503.95	40746.39
504.13	40849.37
504.30	40783.83
504.48	40886.82
504.65	40832.99
504.83	40889.16
505.01	41371.31
505.18	41294.07
505.36	41673.24
505.53	41553.87
505.71	41476.63
505.88	42033.68
506.06	41666.22
506.23	42117.94
506.41	42103.90
506.58	42270.08
506.76	42471.36
506.93	42581.37
507.11	42981.60
507.28	42471.36
507.46	43002.66
507.63	42960.53
507.81	43311.61
507.98	43384.17
508.16	43208.63
508.33	43658.01
508.50	43819.51
508.68	43543.33
508.85	44472.52
509.03	44212.72
509.20	44219.74
509.38	44676.15
509.55	44526.35
509.73	44645.72
509.90	44891.48
510.08	44247.83
510.25	44811.90
510.42	44882.11
510.60	45191.06
510.77	45455.54
510.95	45743.43
511.12	45467.25
511.30	45371.28
511.47	45366.60
511.64	45668.53
511.82	45986.85
511.99	45804.28
512.17	46031.32
512.34	45944.72
512.51	46314.52
512.69	46784.97
512.86	46412.82
513.04	47119.66
513.21	46782.63
513.38	46719.43
513.56	47000.30
513.73	46724.11
513.90	47353.72
514.08	47098.60
514.25	47583.09
514.43	47388.83
514.60	47753.95
514.77	47679.05
514.95	47959.92
515.12	47770.33
515.29	47763.31
515.47	48151.84
515.64	48289.93
515.81	47868.64
515.99	48495.90
516.16	48519.31
516.33	48711.23
516.51	48608.25
516.68	48474.84
516.85	48636.33
517.03	49015.50
517.20	49340.83
517.37	48982.73
517.54	48835.28
517.72	49074.01
517.89	49177.00
518.06	49631.06
518.24	49411.05
518.41	49418.07
518.58	49336.15
518.75	49617.02
518.93	49549.14
519.10	49720.00
519.27	49925.97
519.45	49752.77
519.62	50197.47
519.79	50234.92
519.96	50040.65
520.14	50475.99
520.31	50110.87
520.48	50901.97
520.65	50401.10
520.83	50642.17
521.00	50930.06
521.17	50864.52
521.34	50703.03
521.52	51079.85
521.69	51299.86
521.86	51194.54
522.03	51428.59
522.20	51664.99
522.38	51583.07
522.55	51533.92
522.72	51669.67
522.89	51491.79
523.07	52116.71
523.24	51716.48
523.41	51796.06
523.58	51515.19
523.75	52243.10
523.92	51964.57
524.10	51976.28
524.27	52168.20
524.44	52353.10
524.61	52128.41
524.78	52465.45
524.96	52439.70
525.13	52360.12
525.30	53001.43
525.47	52554.39
525.64	52589.50
525.81	52694.82
525.98	52795.46
526.16	52818.87
526.33	52762.70
526.50	53111.44
526.67	53097.39
526.84	52961.64
527.01	53167.61
527.18	53038.88
527.36	53017.82
527.53	53097.39
527.70	53492.94
527.87	53289.32
528.04	53097.39
528.21	53389.96
528.38	53317.40
528.55	53546.78
528.72	53415.71
528.89	53738.70
529.07	53710.61
529.24	53741.04
529.41	54026.59
529.58	53834.66
529.75	53755.08
529.92	54012.54
530.09	54145.95
530.26	54064.03
530.43	53958.71
530.60	53846.36
530.77	53890.83
530.94	54326.17
531.11	54251.28
531.28	54209.15
531.46	54323.83
531.63	54328.52
531.80	54518.10
531.97	54485.33
532.14	54480.65
532.31	54740.45
532.48	54583.63
532.65	54791.94
532.82	54681.94
532.99	54695.98
533.16	54801.30
533.33	54962.80
533.50	54951.10
533.67	54721.72
533.84	54899.61
534.01	54997.91
534.18	55271.75
534.35	55557.30
534.52	55341.97
534.69	55430.91
534.86	55395.80
535.03	55271.75
535.20	55189.83
535.37	55304.52
535.54	55407.50
535.71	55346.65
535.88	55409.84
536.05	55856.88
536.22	55711.77
536.38	55873.27
536.55	55697.73
536.72	55547.93
536.89	55592.40
537.06	55721.13
537.23	55973.91
537.40	55730.50
537.57	56069.87
537.74	56004.34
537.91	56282.86
538.08	55962.21
538.25	56074.55
538.42	55845.18
538.59	56395.21
538.75	56107.32
538.92	56170.52
539.09	56184.56
539.26	56343.72
539.43	56088.60
539.60	56250.09
539.77	56374.14
539.94	56282.86
540.11	56463.08
540.28	56664.37
540.44	56313.29
540.61	56811.82
540.78	56706.50
540.95	56563.73
541.12	56505.21
541.29	56573.09
541.46	56732.25
541.62	56727.56
541.79	56828.21
541.96	56376.48
542.13	56505.21
542.30	56856.29
542.47	56987.36
542.63	57001.41
542.80	57010.77
542.97	57230.78
543.14	57286.95
543.31	57265.89
543.48	57450.79
543.64	57549.09
543.81	57567.82
543.98	57490.58
544.15	57331.42
544.32	57565.48
544.48	57427.38
544.65	57380.57
544.82	57696.55
544.99	57389.94
545.16	57677.82
545.32	57432.07
545.49	57752.72
545.66	57827.62
545.83	57729.31
546.00	57762.08
546.16	57968.05
546.33	57616.97
546.50	57521.01
546.67	57799.53
546.83	57403.98
547.00	57902.51
547.17	57752.72
547.34	57860.38
547.50	58115.50
547.67	58080.39
547.84	58127.20
548.00	58241.89
548.17	58583.61
548.34	58450.20
548.51	58377.64
548.67	58454.88
548.84	58410.41
549.01	58337.85
549.18	58089.76
549.34	58471.26
549.51	58230.19
549.68	58422.11
549.84	58511.05
550.01	58599.99
550.18	58541.48
550.34	58672.55
550.51	58684.25
550.68	58560.20
550.84	58372.96
551.01	58768.51
551.18	58564.88
551.34	58630.42
551.51	58599.99
551.68	58897.24
551.84	58705.32
552.01	58581.27
552.18	58623.40
552.34	58567.23
552.51	58705.32
552.68	58728.72
552.84	58714.68
553.01	59203.85
553.18	58986.18
553.34	58801.28
553.51	59004.91
553.67	58789.58
553.84	58911.28
554.01	59000.22
554.17	59227.26
554.34	59154.70
554.51	59042.35
554.67	59079.80
554.84	59089.16
555.00	58981.50
555.17	59063.42
555.33	59302.15
555.50	59063.42
555.67	59229.60
555.83	59213.21
556.00	59271.73
556.16	59414.50
556.33	59583.02
556.50	59175.76
556.66	59587.70
556.83	59082.14
556.99	59583.02
557.16	59561.95
557.32	59503.44
557.49	59753.88
557.65	59683.66
557.82	59531.53
557.98	59571.32
558.15	59583.02
558.32	59487.06
558.48	59409.82
558.65	59545.57
558.81	59557.27
558.98	59590.04
559.14	59632.17
559.31	59723.45
559.47	59922.40
559.64	59611.10
559.80	59840.48
559.97	60044.10
560.13	59704.73
560.30	59910.69
560.46	59821.75
560.63	59929.42
560.79	59997.29
560.96	60161.13
561.12	60039.42
561.29	60055.81
561.45	59973.89
561.61	59922.40
561.78	60074.53
561.94	60069.85
562.11	60102.62
562.27	59908.35
562.44	60046.44
562.60	60210.28
562.77	60109.64
562.93	59833.46
563.10	59945.80
563.26	60030.06
563.42	60294.54
563.59	60151.77
563.75	60121.34
563.92	60072.19
564.08	60065.17
564.24	60233.69
564.41	60313.26
564.57	60289.86
564.74	60388.16
564.90	60193.90
565.07	60317.95
565.23	60193.90
565.39	60280.50
565.56	60310.92
565.72	60355.39
565.88	60299.22
566.05	60315.61
566.21	60313.26
566.38	60339.01
566.54	60207.94
566.70	60587.11
566.87	60626.90
567.03	60317.95
567.19	60521.57
567.36	60451.36
567.52	60315.61
567.68	60584.77
567.85	60760.31
568.01	60439.65
568.17	60605.83
568.34	60542.64
568.50	60673.71
568.66	60460.72
568.83	60598.81
568.99	60601.15
569.15	60512.21
569.32	60357.74
569.48	60596.47
569.64	60811.80
569.81	60685.41
569.97	60317.95
570.13	60594.13
570.30	60434.97
570.46	60608.17
570.62	60699.45
570.78	60725.20
570.95	60488.80
571.11	60739.24
571.27	60591.79
571.43	60704.13
571.60	60594.13
571.76	60804.78
571.92	60809.46
572.09	60601.15
572.25	60959.25
572.41	60736.90
572.57	60762.65
572.74	60837.54
572.90	60727.54
573.06	60741.58
573.22	60800.10
573.38	60755.63
573.55	60793.07
573.71	60795.42
573.87	60736.90
574.03	60788.39
574.20	61006.06
574.36	60750.94
574.52	60776.69
574.68	60795.42
574.84	60966.27
575.01	60891.38
575.17	60786.05
575.33	60846.91
575.49	60589.45
575.65	61092.66
575.82	60884.36
575.98	61001.38
576.14	61207.35
576.30	60989.68
576.46	60928.83
576.62	60802.44
576.79	61013.08
576.95	60802.44
577.11	60851.59
577.27	60856.27
577.43	60961.59
577.59	60999.04
577.75	60933.51
577.92	60692.43
578.08	60832.86
578.24	60966.27
578.40	61001.38
578.56	60980.32
578.72	60858.61
578.88	61078.62
579.04	61071.60
579.21	61078.62
579.37	61279.91
579.53	61006.06
579.69	60828.18
579.85	60917.12
580.01	61095.00
580.17	60940.53
580.33	61055.21
580.49	61010.74
580.65	61038.83
580.82	61228.41
580.98	60931.17
581.14	60872.65
581.30	61069.26
581.46	60942.87
581.62	61095.00
581.78	61013.08
581.94	61195.65
582.10	61188.63
582.26	60987.34
582.42	60996.70
582.58	61085.64
582.74	60966.27
582.90	60905.42
583.06	61125.43
583.22	60919.46
583.38	60905.42
583.54	61069.26
583.70	61221.39
583.86	61146.50
584.02	60872.65
584.18	61165.22
584.34	61181.60
584.50	61006.06
584.66	60945.21
584.82	60910.10
584.98	61216.71
585.14	61134.79
585.30	60928.83
585.46	61085.64
585.62	61296.29
585.78	61268.20
585.94	61010.74
586.10	61216.71
586.26	61160.54
586.42	61300.97
586.58	61057.56
586.74	61202.67
586.90	61092.66
587.06	60963.93
587.22	61132.45
587.38	61352.46
587.54	61298.63
587.70	61427.36
587.86	61144.16
588.02	61286.93
588.18	61469.49
588.34	61090.32
