SpectraSuite Data File
++++++++++++++++++++++++++++++++++++
Date: Fri Oct 25 10:47:25 EDT 2013
User: price-jones
Dark Spectrum Present: No
Reference Spectrum Present: No
Number of Sampled Component Spectra: 1
Spectrometers: USB2+H05261
Integration Time (usec): 100000 (USB2+H05261)
Spectra Averaged: 1 (USB2+H05261)
Boxcar Smoothing: 0 (USB2+H05261)
Correct for Electrical Dark: No (USB2+H05261)
Strobe/Lamp Enabled: No (USB2+H05261)
Correct for Detector Non-linearity: No (USB2+H05261)
Correct for Stray Light: No (USB2+H05261)
Number of Pixels in Processed Spectrum: 2048
>>>>>Begin Processed Spectral Data<<<<<
365.73	107.66
365.92	107.66
366.12	107.66
366.32	74.90
366.52	63.19
366.72	86.60
366.91	0.00
367.11	86.60
367.31	9.36
367.51	18.72
367.70	0.00
367.90	0.00
368.10	7.02
368.30	107.66
368.49	58.51
368.69	32.77
368.89	124.05
369.09	56.17
369.28	110.01
369.48	72.56
369.68	128.73
369.87	117.03
370.07	126.39
370.27	56.17
370.47	273.84
370.66	299.59
370.86	383.85
371.06	493.85
371.25	381.51
371.45	397.89
371.65	449.38
371.84	451.72
372.04	430.66
372.24	449.38
372.44	423.64
372.63	423.64
372.83	519.60
373.03	447.04
373.22	428.32
373.42	458.74
373.62	528.96
373.81	540.66
374.01	543.00
374.21	526.62
374.40	463.43
374.60	568.75
374.79	514.92
374.99	587.47
375.19	582.79
375.38	547.69
375.58	557.05
375.78	587.47
375.97	561.73
376.17	660.03
376.37	545.34
376.56	599.18
376.76	564.07
376.95	477.47
377.15	629.60
377.35	580.45
377.54	589.82
377.74	608.54
377.93	683.44
378.13	669.39
378.33	671.73
378.52	627.26
378.72	678.76
378.91	582.79
379.11	636.63
379.31	596.84
379.50	596.84
379.70	631.94
379.89	629.60
380.09	674.07
380.28	638.97
380.48	692.80
380.68	613.22
380.87	617.90
381.07	709.18
381.26	711.52
381.46	674.07
381.65	617.90
381.85	582.79
382.04	713.86
382.24	713.86
382.43	653.01
382.63	681.10
382.83	723.23
383.02	720.88
383.22	723.23
383.41	685.78
383.61	727.91
383.80	788.76
384.00	777.06
384.19	704.50
384.39	760.67
384.58	779.40
384.78	664.71
384.97	716.20
385.17	711.52
385.36	786.42
385.56	784.08
385.75	660.03
385.95	786.42
386.14	805.14
386.34	793.44
386.53	802.80
386.72	791.10
386.92	763.01
387.11	791.10
387.31	779.40
387.50	821.53
387.70	915.15
387.89	819.19
388.09	842.59
388.28	884.72
388.48	887.06
388.67	980.68
388.86	858.98
389.06	856.64
389.25	931.53
389.45	929.19
389.64	922.17
389.84	924.51
390.03	954.94
390.22	901.11
390.42	840.25
390.61	990.05
390.81	940.90
391.00	940.90
391.19	999.41
391.39	952.60
391.58	1034.52
391.78	980.68
391.97	929.19
392.16	830.89
392.36	983.02
392.55	889.40
392.75	966.64
392.94	947.92
393.13	940.90
393.33	961.96
393.52	1022.81
393.71	1025.15
393.91	961.96
394.10	1109.41
394.29	980.68
394.49	1071.97
394.68	1050.90
394.88	1125.80
395.07	1046.22
395.26	1076.65
395.46	1146.86
395.65	1093.03
395.84	1245.16
396.04	1135.16
396.23	1146.86
396.42	1097.71
396.62	1153.88
396.81	1123.46
397.00	1071.97
397.19	1158.57
397.39	1212.40
397.58	1303.68
397.77	1158.57
397.97	1233.46
398.16	1329.42
398.35	1254.53
398.55	1277.93
398.74	1320.06
398.93	1366.87
399.12	1303.68
399.32	1348.15
399.51	1193.67
399.70	1413.68
399.90	1406.66
400.09	1334.11
400.28	1448.79
400.47	1383.26
400.67	1416.02
400.86	1460.49
401.05	1401.98
401.24	1404.32
401.44	1474.54
401.63	1413.68
401.82	1364.53
402.01	1430.07
402.21	1493.26
402.40	1504.96
402.59	1519.01
402.78	1540.07
402.97	1647.74
403.17	1526.03
403.36	1664.12
403.55	1558.80
403.74	1582.20
403.93	1638.38
404.13	1687.53
404.32	1736.68
404.51	1607.95
404.70	1760.08
404.89	1666.46
405.09	1699.23
405.28	1717.95
405.47	1739.02
405.66	1753.06
405.85	1764.76
406.05	1701.57
406.24	1750.72
406.43	1757.74
406.62	1820.94
406.81	1795.19
407.00	1715.61
407.20	1872.43
407.39	1764.76
407.58	1881.79
407.77	1816.26
407.96	1834.98
408.15	1980.09
408.34	1977.75
408.54	1944.99
408.73	2010.52
408.92	2022.22
409.11	1933.28
409.30	1909.88
409.49	2097.12
409.68	1905.20
409.87	1961.37
410.07	2162.66
410.26	2122.87
410.45	2132.23
410.64	2132.23
410.83	2148.61
411.02	2312.45
411.21	2169.68
411.40	2232.87
411.59	2298.41
411.78	2275.00
411.98	2232.87
412.17	2298.41
412.36	2228.19
412.55	2403.73
412.74	2457.56
412.93	2392.03
413.12	2279.68
413.31	2462.24
413.50	2448.20
413.69	2574.59
413.88	2583.95
414.07	2548.84
414.26	2656.51
414.45	2544.16
414.64	2525.44
414.83	2495.01
415.02	2736.09
415.22	2738.43
415.41	2818.00
415.60	2766.51
415.79	2860.13
415.98	2930.35
416.17	2942.05
416.36	2904.60
416.55	2757.15
416.74	2839.07
416.93	2951.42
417.12	2867.16
417.31	2974.82
417.50	2897.58
417.69	3105.89
417.88	3038.02
418.07	3000.57
418.26	3016.95
418.45	3169.09
418.64	3061.42
418.83	3201.85
419.02	3176.11
419.21	3227.60
419.39	3192.49
419.58	3234.62
419.77	3033.33
419.96	3180.79
420.15	3260.37
420.34	3318.88
420.53	3307.18
420.72	3288.45
420.91	3276.75
421.10	3424.20
421.29	3407.82
421.48	3426.54
421.67	3403.14
421.86	3330.58
422.05	3452.29
422.24	3473.36
422.43	3442.93
422.61	3454.63
422.80	3389.10
422.99	3473.36
423.18	3503.78
423.37	3447.61
423.56	3597.40
423.75	3487.40
423.94	3417.18
424.13	3311.86
424.32	3318.88
424.50	3466.33
424.69	3545.91
424.88	3531.87
425.07	3461.65
425.26	3375.05
425.45	3531.87
425.64	3485.06
425.83	3452.29
426.01	3578.68
426.20	3562.30
426.39	3588.04
426.58	3506.12
426.77	3581.02
426.96	3602.08
427.15	3569.32
427.33	3637.19
427.52	3538.89
427.71	3590.38
427.90	3721.45
428.09	3779.97
428.28	3735.50
428.46	3761.24
428.65	3721.45
428.84	3791.67
429.03	3831.46
429.22	3801.03
429.40	3805.71
429.59	3810.39
429.78	3531.87
429.97	3658.26
430.16	3665.28
430.34	3754.22
430.53	3871.25
430.72	3796.35
430.91	3857.20
431.10	3922.74
431.28	4067.85
431.47	4138.07
431.66	4133.39
431.85	4056.15
432.03	4102.96
432.22	4264.46
432.41	4119.34
432.60	4236.37
432.79	4229.35
432.97	4325.31
433.16	4327.65
433.35	4182.54
433.54	4255.09
433.72	4205.94
433.91	4327.65
434.10	4313.61
434.28	4376.80
434.47	4238.71
434.66	4444.68
434.85	4376.80
435.03	4379.14
435.22	4325.31
435.41	4678.73
435.59	4540.64
435.78	4503.19
435.97	4550.00
436.16	4486.81
436.34	4678.73
436.53	4571.07
436.72	4678.73
436.90	4788.74
437.09	4699.80
437.28	4557.02
437.46	4727.88
437.65	4596.81
437.84	4587.45
438.02	4645.96
438.21	4685.75
438.40	4723.20
438.58	4844.91
438.77	4755.97
438.96	4800.44
439.14	4987.68
439.33	5048.54
439.52	5067.26
439.70	4975.98
439.89	5095.35
440.08	5057.90
440.26	5179.61
440.45	5198.33
440.63	5221.74
440.82	5338.76
441.01	5167.90
441.19	5495.58
441.38	5416.00
441.57	5584.52
441.75	5528.35
441.94	5572.82
442.12	5633.67
442.31	5668.78
442.50	5738.99
442.68	5659.42
442.87	5617.29
443.05	5682.82
443.24	5776.44
443.43	5514.30
443.61	5907.51
443.80	5851.34
443.98	5582.18
444.17	5423.02
444.35	5804.53
444.54	5818.57
444.73	6017.52
444.91	5687.50
445.10	5841.98
445.28	5668.78
445.47	5905.17
445.65	5867.72
445.84	5884.11
446.02	5905.17
446.21	5982.41
446.39	5825.59
446.58	5729.63
446.77	5970.71
446.95	5607.92
447.14	5907.51
447.32	6085.39
447.51	5865.38
447.69	5968.37
447.88	5923.90
448.06	6017.52
448.25	6064.33
448.43	6120.50
448.62	5849.00
448.80	6015.18
448.99	6176.67
449.17	6190.72
449.36	6050.28
449.54	6239.87
449.73	6258.59
449.91	6289.02
450.10	6167.31
450.28	6586.27
450.46	6459.88
450.65	6375.62
450.83	6317.11
451.02	6513.71
451.20	6513.71
451.39	6511.37
451.57	6274.98
451.76	6284.34
451.94	6483.28
452.13	6347.53
452.31	6506.69
452.49	6431.79
452.68	6626.06
452.86	6452.86
453.05	6534.78
453.23	6597.97
453.42	6506.69
453.60	6551.16
453.78	6719.68
453.97	6445.84
454.15	6600.31
454.34	6649.46
454.52	6677.55
454.70	6799.26
454.89	6829.68
455.07	6729.04
455.26	6839.05
455.44	6904.58
455.62	6874.15
455.81	6942.03
455.99	7002.88
456.17	7112.89
456.36	6932.67
456.54	7138.63
456.73	7255.66
456.91	7302.47
457.09	7091.82
457.28	7391.41
457.46	7262.68
457.64	7281.41
457.83	7248.64
458.01	7211.19
458.19	7379.71
458.38	7241.62
458.56	7358.64
458.74	7435.88
458.93	7382.05
459.11	7573.97
459.29	7398.43
459.48	7576.31
459.66	7489.71
459.84	7517.80
460.03	7583.34
460.21	7714.41
460.39	7655.89
460.57	7435.88
460.76	7768.24
460.94	7719.09
461.12	7620.78
461.31	7641.85
461.49	7798.66
461.67	7772.92
461.85	7967.18
462.04	7981.23
462.22	8395.50
462.40	8142.72
462.59	8018.68
462.77	7887.61
462.95	7988.25
463.13	7943.78
463.32	8070.17
463.50	8060.80
463.68	7936.76
463.86	8119.32
464.05	7939.10
464.23	8065.49
464.41	8187.19
464.59	8063.15
464.78	8336.99
464.96	8116.98
465.14	8245.71
465.32	8161.45
465.50	8381.46
465.69	8430.61
465.87	8140.38
466.05	8353.37
466.23	8367.42
466.41	8407.20
466.60	8585.08
466.78	8308.90
466.96	8322.94
467.14	8545.30
467.32	8514.87
467.51	8571.04
467.69	8402.52
467.87	8477.42
468.05	8526.57
468.23	8582.74
468.41	8538.27
468.60	8652.96
468.78	8697.43
468.96	8688.07
469.14	8884.67
469.32	8826.16
469.50	8594.45
469.69	8791.05
469.87	8966.59
470.05	8959.57
470.23	9036.81
470.41	8772.33
470.59	9011.06
470.77	8919.78
470.95	9100.00
471.14	9055.53
471.32	9088.30
471.50	9186.60
471.68	9383.21
471.86	9308.31
472.04	9198.31
472.22	9495.55
472.40	9280.22
472.58	9525.98
472.77	9399.59
472.95	9645.35
473.13	9715.56
473.31	9554.07
473.49	9544.70
473.67	9558.75
473.85	9708.54
474.03	9968.34
474.21	10132.18
474.39	10008.13
474.57	9977.70
474.75	9951.96
474.93	9980.04
475.12	10202.40
475.30	10303.04
475.48	10164.95
475.66	10251.55
475.84	10083.03
476.02	10263.25
476.20	10380.28
476.38	10775.83
476.56	10696.25
476.74	10988.82
476.92	10459.85
477.10	10829.66
477.28	10848.38
477.46	10834.34
477.64	10867.11
477.82	11129.25
478.00	11339.90
478.18	11332.87
478.36	11529.48
478.54	11419.47
478.72	11585.65
478.90	11609.06
479.08	11639.48
479.26	11779.92
479.44	12091.21
479.62	11932.05
479.80	12245.68
479.98	12128.66
480.16	12224.62
480.34	11868.86
480.52	12512.50
480.70	12606.13
480.88	12236.32
481.06	12428.24
481.24	12566.34
481.41	12849.54
481.59	12910.40
481.77	13013.38
481.95	13153.81
482.13	13193.60
482.31	12950.18
482.49	13338.71
482.67	13481.49
482.85	13671.07
483.03	13736.60
483.21	14029.17
483.39	13965.98
483.57	13965.98
483.74	14193.01
483.92	14295.99
484.10	14099.39
484.28	14090.02
484.46	14377.91
484.64	14803.89
484.82	14595.58
485.00	14752.40
485.18	14876.44
485.35	15080.07
485.53	14794.53
485.71	15037.94
485.89	15374.98
486.07	15489.67
486.25	15264.97
486.43	15370.30
486.61	15819.68
486.78	15899.26
486.96	16107.57
487.14	16503.12
487.32	16231.62
487.50	16517.16
487.68	16573.33
487.85	16919.73
488.03	16840.15
488.21	17144.42
488.39	16980.59
488.57	17090.59
488.75	17151.45
488.92	17483.80
489.10	17605.51
489.28	17617.21
489.46	17951.91
489.64	17673.39
489.81	17900.42
489.99	18513.64
490.17	18267.88
490.35	18675.13
490.53	18609.60
490.70	18464.49
490.88	18822.59
491.06	19183.03
491.24	18876.42
491.41	19187.71
491.59	19346.87
491.77	19014.51
491.95	19229.84
492.13	19578.58
492.30	19997.54
492.48	20051.37
492.66	20051.37
492.84	19620.71
493.01	20266.70
493.19	19971.79
493.37	20634.16
493.54	20603.74
493.72	20556.93
493.90	20610.76
494.08	21111.63
494.25	21097.59
494.43	21181.85
494.61	21472.07
494.79	21355.05
494.96	21341.00
495.14	21474.42
495.32	21495.48
495.49	22127.42
495.67	21874.65
495.85	22260.84
496.02	22405.95
496.20	22405.95
496.38	22441.06
496.55	22576.81
496.73	22993.42
496.91	22508.93
497.09	23122.15
497.26	22733.62
497.44	22998.10
497.62	23351.52
497.79	23190.03
497.97	23161.94
498.14	23424.08
498.32	23620.69
498.50	23662.82
498.67	23763.46
498.85	23864.10
499.03	23880.49
499.20	23920.28
499.38	24032.62
499.56	24404.77
499.73	24540.52
499.91	24545.20
500.08	24575.62
500.26	24535.84
500.44	24463.28
500.61	24334.55
500.79	24364.98
500.97	25022.67
501.14	25336.30
501.32	25495.46
501.49	25097.56
501.67	25069.48
501.84	25340.98
502.02	25439.28
502.20	25399.49
502.37	25476.73
502.55	25626.53
502.72	25635.89
502.90	25982.29
503.07	25663.97
503.25	25891.01
503.43	25928.45
503.60	26359.11
503.78	26260.81
503.95	26380.18
504.13	26380.18
504.30	26455.08
504.48	26448.05
504.65	26785.09
504.83	26888.07
505.01	27101.06
505.18	26824.88
505.36	26923.18
505.53	27253.20
505.71	27573.85
505.88	27330.44
506.06	27384.27
506.23	27300.01
506.41	27314.05
506.58	27417.04
506.76	27695.56
506.93	27812.59
507.11	27477.89
507.28	27662.79
507.46	27782.16
507.63	27857.06
507.81	27861.74
507.98	28409.42
508.16	27782.16
508.33	28627.09
508.50	28425.81
508.68	29071.79
508.85	29111.58
509.03	28535.81
509.20	28842.42
509.38	28985.19
509.55	29195.84
509.73	29256.70
509.90	29221.59
510.08	28912.64
510.25	28989.88
510.42	29762.25
510.60	29434.58
510.77	29493.09
510.95	29556.28
511.12	29034.35
511.30	29605.44
511.47	30251.42
511.64	29993.97
511.82	29804.38
511.99	29680.33
512.17	30396.54
512.34	30225.68
512.51	30139.08
512.69	30518.25
512.86	30623.57
513.04	30625.91
513.21	30586.12
513.38	30651.66
513.56	30164.82
513.73	30338.02
513.90	30558.03
514.08	30892.73
514.25	30944.22
514.43	30813.15
514.60	30969.97
514.77	30799.11
514.95	31875.76
515.12	31342.11
515.29	31402.97
515.47	31803.20
515.64	31566.81
515.81	31517.65
515.99	31608.93
516.16	31428.71
516.33	31466.16
516.51	31964.70
516.68	31885.12
516.85	31297.64
517.03	32130.87
517.20	31426.37
517.37	32198.75
517.54	32151.94
517.72	31880.44
517.89	32187.05
518.06	32130.87
518.24	32147.26
518.41	32100.45
518.58	32119.17
518.75	32250.24
518.93	32456.21
519.10	32488.98
519.27	32524.08
519.45	33008.58
519.62	33266.03
519.79	33071.77
519.96	33102.20
520.14	33310.50
520.31	33060.07
520.48	33839.47
520.65	33289.44
520.83	33773.93
521.00	33046.02
521.17	33631.16
521.34	33345.61
521.52	34024.37
521.69	33755.21
521.86	33905.00
522.03	33848.83
522.20	33989.26
522.38	34251.40
522.55	34319.28
522.72	34277.15
522.89	34300.55
523.07	34356.72
523.24	34562.69
523.41	34918.45
523.58	34607.16
523.75	35108.04
523.92	34686.74
524.10	34511.20
524.27	34785.04
524.44	35164.21
524.61	35072.93
524.78	35718.92
524.96	34955.90
525.13	35629.98
525.30	35669.76
525.47	35548.06
525.64	35159.53
525.81	35222.72
525.98	35700.19
526.16	35526.99
526.33	35220.38
526.50	35730.62
526.67	35129.10
526.84	35426.35
527.01	35199.32
527.18	35686.15
527.36	35929.56
527.53	35658.06
527.70	36177.66
527.87	36020.84
528.04	36147.23
528.21	36053.61
528.38	36112.13
528.55	36224.47
528.72	36772.16
528.89	36814.29
529.07	36273.62
529.24	36294.69
529.41	36395.33
529.58	36685.56
529.75	36348.52
529.92	36840.03
530.09	36737.05
530.26	37191.11
530.43	36868.12
530.60	36821.31
530.77	36938.33
530.94	36938.33
531.11	37397.08
531.28	37359.63
531.46	37392.40
531.63	36971.10
531.80	37322.18
531.97	36919.61
532.14	37298.78
532.31	37254.31
532.48	37357.29
532.65	37879.23
532.82	37673.26
532.99	37743.48
533.16	37331.54
533.33	37490.70
533.50	37876.89
533.67	37715.39
533.84	37734.12
534.01	37853.48
534.18	37556.24
534.35	38022.00
534.52	38110.94
534.69	38094.56
534.86	38232.65
535.03	37787.95
535.20	38291.16
535.37	38941.83
535.54	38667.99
535.71	38319.25
535.88	38258.40
536.05	38129.67
536.22	38562.67
536.38	38831.83
536.55	38508.83
536.72	38602.46
536.89	38160.09
537.06	38651.61
537.23	38553.30
537.40	38234.99
537.57	38658.63
537.74	38983.96
537.91	38829.49
538.08	39112.69
538.25	38574.37
538.42	38705.44
538.59	39328.02
538.75	38745.23
538.92	38906.73
539.09	39498.88
539.26	39484.84
539.43	39391.22
539.60	39093.97
539.77	39522.29
539.94	39615.91
540.11	39253.12
540.28	39367.81
540.44	39281.21
540.61	39536.33
540.78	39264.83
540.95	39243.76
541.12	39742.30
541.29	39288.23
541.46	39239.08
541.62	39875.71
541.79	39885.07
541.96	39901.45
542.13	39702.51
542.30	39927.20
542.47	40320.41
542.63	39854.64
542.80	39974.01
542.97	40589.57
543.14	40769.79
543.31	40430.41
543.48	40336.79
543.64	41109.17
543.81	40889.16
543.98	40332.11
544.15	40809.58
544.32	40528.72
544.48	40940.65
544.65	40722.98
544.82	40734.68
544.99	40388.28
545.16	40865.75
545.32	40524.04
545.49	41109.17
545.66	41083.42
545.83	41160.66
546.00	40928.95
546.16	41116.19
546.33	41071.72
546.50	40577.87
546.67	41521.10
546.83	40905.54
547.00	40734.68
547.17	40971.08
547.34	40835.33
547.50	41148.96
547.67	41511.74
547.84	41317.48
548.00	41668.56
548.17	41741.11
548.34	41612.38
548.51	41759.84
548.67	41874.52
548.84	41780.90
549.01	41528.13
549.18	41607.70
549.34	41631.11
549.51	42419.87
549.68	41935.38
549.84	41970.49
550.01	41867.50
550.18	42199.86
550.34	41918.99
550.51	41415.78
550.68	41993.89
550.84	41886.23
551.01	41759.84
551.18	41935.38
551.34	42078.15
551.51	42351.99
551.68	42279.44
551.84	42174.11
552.01	42394.12
552.18	42157.73
552.34	42328.59
552.51	42363.70
552.68	42050.06
552.84	42564.98
553.01	42611.79
553.18	42408.17
553.34	42396.46
553.51	42438.59
553.67	42539.24
553.84	42920.74
554.01	42911.38
554.17	42656.26
554.34	43014.37
554.51	42644.56
554.67	43075.22
554.84	42637.54
555.00	42990.96
555.17	42522.85
555.33	42553.28
555.50	42462.00
555.67	43126.71
555.83	42869.25
556.00	43210.97
556.16	43051.81
556.33	43445.02
556.50	43227.35
556.66	43430.98
556.83	43203.95
556.99	42909.04
557.16	43552.69
557.32	43232.04
557.49	42808.40
557.65	42644.56
557.82	43063.52
557.98	42934.79
558.15	43330.34
558.32	43484.81
558.48	43278.85
558.65	43288.21
558.81	42850.53
558.98	43672.06
559.14	43730.57
559.31	43365.45
559.47	43166.50
559.64	43632.27
559.80	43828.87
559.97	43751.63
560.13	43402.89
560.30	43416.94
560.46	43545.67
560.63	43295.23
560.79	43732.91
560.96	43639.29
561.12	43601.84
561.29	43821.85
561.45	43824.19
561.61	43793.76
561.78	43496.52
561.94	43737.59
562.11	43866.32
562.27	43660.35
562.44	43423.96
562.60	43997.39
562.77	44254.85
562.93	44264.21
563.10	43828.87
563.26	43721.21
563.42	43716.53
563.59	43786.74
563.75	43744.61
563.92	44039.52
564.08	43571.41
564.24	44081.65
564.41	43849.94
564.57	43784.40
564.74	44154.21
564.90	44119.10
565.07	43901.43
565.23	43777.38
565.39	44065.27
565.56	44196.34
565.72	43503.54
565.88	43920.15
566.05	43798.44
566.21	44168.25
566.38	43716.53
566.54	43931.86
566.70	43913.13
566.87	44222.08
567.03	44133.14
567.19	44116.76
567.36	44158.89
567.52	43929.51
567.68	44322.72
567.85	44114.42
568.01	43920.15
568.17	43768.02
568.34	44170.59
568.50	44435.07
568.66	44601.25
568.83	44505.29
568.99	44409.32
569.15	44006.75
569.32	43959.94
569.48	43835.89
569.64	44414.01
569.81	44149.53
569.97	43739.93
570.13	44114.42
570.30	43957.60
570.46	43985.69
570.62	43952.92
570.78	44116.76
570.95	43901.43
571.11	44107.40
571.27	43981.01
571.43	44198.68
571.60	44238.47
571.76	44313.36
571.92	44383.58
572.09	44512.31
572.25	44622.31
572.41	43878.02
572.57	44390.60
572.74	44708.91
572.90	44512.31
573.06	44409.32
573.22	44547.42
573.38	44851.69
573.55	44184.63
573.71	44428.05
573.87	44500.61
574.03	44339.11
574.20	44161.23
574.36	44360.17
574.52	44872.75
574.68	44568.48
574.84	44397.62
575.01	44540.39
575.17	44224.42
575.33	44615.29
575.49	44739.34
575.65	44931.26
575.82	44294.64
575.98	44271.23
576.14	44959.35
576.30	44617.63
576.46	44690.19
576.62	44542.74
576.79	44664.44
576.95	44318.04
577.11	44259.53
577.27	44500.61
577.43	44470.18
577.59	44952.33
577.75	44505.29
577.92	44507.63
578.08	44409.32
578.24	44334.43
578.40	44395.28
578.56	44540.39
578.72	44610.61
578.88	44844.66
579.04	44837.64
579.21	44486.56
579.37	44406.98
579.53	44807.22
579.69	44018.46
579.85	44502.95
580.01	44737.00
580.17	44481.88
580.33	44552.10
580.49	44638.70
580.65	44692.53
580.82	44446.77
580.98	44942.97
581.14	44285.28
581.30	44559.12
581.46	44847.00
581.62	44802.53
581.78	44795.51
581.94	44828.28
582.10	44732.32
582.26	44835.30
582.42	44540.39
582.58	44729.98
582.74	44453.79
582.90	44608.27
583.06	45174.68
583.22	45010.84
583.38	45038.93
583.54	44861.05
583.70	44402.30
583.86	44666.78
584.02	44313.36
584.18	44793.17
584.34	44706.57
584.50	45043.61
584.66	44699.55
584.82	44631.68
584.98	44982.76
585.14	44987.44
585.30	44816.58
585.46	44933.60
585.62	44495.92
585.78	44662.10
585.94	44229.10
586.10	44708.91
586.26	44444.43
586.42	44790.83
586.58	44772.11
586.74	44938.29
586.90	44472.52
587.06	44463.16
587.22	44666.78
587.38	44245.49
587.54	44882.11
587.70	44751.04
587.86	45298.73
588.02	44935.95
588.18	44886.79
588.34	44669.12
588.49	44781.47
588.65	44748.70
588.81	44374.22
588.97	44706.57
589.13	44741.68
589.29	44748.70
589.45	44634.02
589.61	45052.97
589.77	45113.83
589.93	44849.35
590.08	44985.10
590.24	45244.90
