SpectraSuite Data File
++++++++++++++++++++++++++++++++++++
Date: Fri Oct 25 10:47:01 EDT 2013
User: price-jones
Dark Spectrum Present: No
Reference Spectrum Present: No
Number of Sampled Component Spectra: 1
Spectrometers: USB2+H05261
Integration Time (usec): 100000 (USB2+H05261)
Spectra Averaged: 1 (USB2+H05261)
Boxcar Smoothing: 0 (USB2+H05261)
Correct for Electrical Dark: No (USB2+H05261)
Strobe/Lamp Enabled: No (USB2+H05261)
Correct for Detector Non-linearity: No (USB2+H05261)
Correct for Stray Light: No (USB2+H05261)
Number of Pixels in Processed Spectrum: 2048
>>>>>Begin Processed Spectral Data<<<<<
365.73	145.11
365.92	145.11
366.12	145.11
366.32	42.13
366.52	39.79
366.72	119.37
366.91	35.11
367.11	44.47
367.31	2.34
367.51	0.00
367.70	30.43
367.90	28.09
368.10	35.11
368.30	60.85
368.49	18.72
368.69	79.58
368.89	93.62
369.09	51.49
369.28	72.56
369.48	0.00
369.68	23.41
369.87	95.96
370.07	128.73
370.27	152.13
370.47	222.35
370.66	444.70
370.86	393.21
371.06	468.11
371.25	395.55
371.45	388.53
371.65	484.49
371.84	451.72
372.04	458.74
372.24	465.77
372.44	500.87
372.63	442.36
372.83	486.83
373.03	491.51
373.22	486.83
373.42	526.62
373.62	463.43
373.81	521.94
374.01	613.22
374.21	496.19
374.40	514.92
374.60	653.01
374.79	482.15
374.99	557.05
375.19	585.13
375.38	603.86
375.58	486.83
375.78	615.56
375.97	606.20
376.17	638.97
376.37	524.28
376.56	554.71
376.76	540.66
376.95	582.79
377.15	669.39
377.35	709.18
377.54	617.90
377.74	559.39
377.93	622.58
378.13	615.56
378.33	592.16
378.52	711.52
378.72	648.33
378.91	699.82
379.11	613.22
379.31	617.90
379.50	645.99
379.70	627.26
379.89	664.71
380.09	638.97
380.28	631.94
380.48	744.29
380.68	645.99
380.87	627.26
381.07	699.82
381.26	795.78
381.46	744.29
381.65	741.95
381.85	702.16
382.04	624.92
382.24	802.80
382.43	713.86
382.63	634.29
382.83	631.94
383.02	723.23
383.22	683.44
383.41	667.05
383.61	690.46
383.80	755.99
384.00	713.86
384.19	877.70
384.39	788.76
384.58	840.25
384.78	791.10
384.97	788.76
385.17	746.63
385.36	688.12
385.56	760.67
385.75	805.14
385.95	823.87
386.14	816.85
386.34	800.46
386.53	833.23
386.72	784.08
386.92	830.89
387.11	779.40
387.31	837.91
387.50	798.12
387.70	861.32
387.89	870.68
388.09	910.47
388.28	891.74
388.48	954.94
388.67	931.53
388.86	880.04
389.06	821.53
389.25	896.43
389.45	933.87
389.64	1013.45
389.84	1011.11
390.03	931.53
390.22	875.36
390.42	912.81
390.61	945.58
390.81	894.08
391.00	929.19
391.19	954.94
391.39	990.05
391.58	978.34
391.78	1020.47
391.97	990.05
392.16	973.66
392.36	997.07
392.55	985.37
392.75	957.28
392.94	968.98
393.13	908.13
393.33	1004.09
393.52	1006.43
393.71	1022.81
393.91	1128.14
394.10	1001.75
394.29	1018.13
394.49	1156.22
394.68	1181.97
394.88	1090.69
395.07	1149.20
395.26	1177.29
395.46	1076.65
395.65	1214.74
395.84	1151.54
396.04	1217.08
396.23	1181.97
396.42	1146.86
396.62	1200.69
396.81	1116.44
397.00	1214.74
397.19	1249.85
397.39	1181.97
397.58	1219.42
397.77	1355.17
397.97	1331.76
398.16	1303.68
398.35	1455.81
398.55	1303.68
398.74	1362.19
398.93	1409.00
399.12	1362.19
399.32	1409.00
399.51	1432.41
399.70	1486.24
399.90	1394.96
400.09	1387.94
400.28	1511.99
400.47	1535.39
400.67	1593.90
400.86	1535.39
401.05	1554.12
401.24	1472.20
401.44	1472.20
401.63	1507.30
401.82	1565.82
402.01	1605.61
402.21	1523.69
402.40	1593.90
402.59	1563.48
402.78	1605.61
402.97	1624.33
403.17	1703.91
403.36	1657.10
403.55	1760.08
403.74	1687.53
403.93	1675.82
404.13	1652.42
404.32	1764.76
404.51	1795.19
404.70	1727.32
404.89	1811.57
405.09	1872.43
405.28	1790.51
405.47	1884.13
405.66	1837.32
405.85	1823.28
406.05	1842.00
406.24	1767.10
406.43	1877.11
406.62	1839.66
406.81	1959.03
407.00	1921.58
407.20	1877.11
407.39	1832.64
407.58	1919.24
407.77	2054.99
407.96	1998.82
408.15	2064.35
408.34	2001.16
408.54	2094.78
408.73	2024.56
408.92	2106.48
409.11	2118.18
409.30	2235.21
409.49	2120.53
409.68	2221.17
409.87	2176.70
410.07	2207.13
410.26	2272.66
410.45	2244.57
410.64	2195.42
410.83	2237.55
411.02	2167.34
411.21	2403.73
411.40	2408.41
411.59	2485.65
411.78	2377.98
411.98	2401.39
412.17	2504.37
412.36	2537.14
412.55	2487.99
412.74	2583.95
412.93	2560.55
413.12	2541.82
413.31	2677.57
413.50	2504.37
413.69	2682.25
413.88	2612.04
414.07	2703.32
414.26	2672.89
414.45	2745.45
414.64	2785.24
414.83	2764.17
415.02	2785.24
415.22	2867.16
415.41	2883.54
415.60	2794.60
415.79	2946.73
415.98	2881.20
416.17	2925.67
416.36	2855.45
416.55	2932.69
416.74	2967.80
416.93	2984.18
417.12	3038.02
417.31	3112.91
417.50	3087.17
417.69	3222.92
417.88	3227.60
418.07	3286.11
418.26	3194.83
418.45	3129.30
418.64	3410.16
418.83	3365.69
419.02	3262.71
419.21	3368.03
419.39	3281.43
419.58	3363.35
419.77	3178.45
419.96	3501.44
420.15	3323.56
420.34	3555.27
420.53	3513.14
420.72	3513.14
420.91	3520.17
421.10	3552.93
421.29	3681.66
421.48	3548.25
421.67	3709.75
421.86	3606.77
422.05	3604.42
422.24	3503.78
422.43	3559.95
422.61	3646.55
422.80	3691.02
422.99	3557.61
423.18	3763.58
423.37	3754.22
423.56	3707.41
423.75	3611.45
423.94	3588.04
424.13	3447.61
424.32	3609.11
424.50	3618.47
424.69	3803.37
424.88	3599.74
425.07	3684.00
425.26	3557.61
425.45	3716.77
425.64	3620.81
425.83	3838.48
426.01	3850.18
426.20	3770.60
426.39	3812.73
426.58	3693.37
426.77	3742.52
426.96	3763.58
427.15	3700.39
427.33	3726.13
427.52	3770.60
427.71	3950.82
427.90	3918.06
428.09	3768.26
428.28	3983.59
428.46	3955.51
428.65	3829.12
428.84	4070.19
429.03	4056.15
429.22	3892.31
429.40	3948.48
429.59	4053.81
429.78	3744.86
429.97	3873.59
430.16	3779.97
430.34	3889.97
430.53	4004.66
430.72	3995.29
430.91	3992.95
431.10	4032.74
431.28	4355.74
431.47	4372.12
431.66	4381.48
431.85	4238.71
432.03	4351.06
432.22	4395.53
432.41	4219.99
432.60	4344.03
432.79	4402.55
432.97	4341.69
433.16	4212.96
433.35	4318.29
433.54	4229.35
433.72	4428.29
433.91	4262.12
434.10	4493.83
434.28	4505.53
434.47	4531.28
434.66	4648.30
434.85	4540.64
435.03	4603.83
435.22	4645.96
435.41	4751.29
435.59	4781.71
435.78	4812.14
435.97	4833.21
436.16	4847.25
436.34	4744.27
436.53	4741.93
436.72	4861.29
436.90	4725.54
437.09	4842.57
437.28	4926.83
437.46	4844.91
437.65	4814.48
437.84	4894.06
438.02	4929.17
438.21	4884.70
438.40	4945.55
438.58	4980.66
438.77	5179.61
438.96	5151.52
439.14	5160.88
439.33	5291.95
439.52	5249.82
439.70	5280.25
439.89	5249.82
440.08	5245.14
440.26	5233.44
440.45	5338.76
440.63	5462.81
440.82	5490.90
441.01	5563.45
441.19	5619.63
441.38	5820.91
441.57	5678.14
441.75	5657.07
441.94	5888.79
442.12	5757.72
442.31	5947.30
442.50	5849.00
442.68	5881.77
442.87	5961.34
443.05	5914.53
443.24	5940.28
443.43	6036.24
443.61	6157.95
443.80	6204.76
443.98	5881.77
444.17	5877.09
444.35	6134.54
444.54	6204.76
444.73	6169.65
444.91	6008.16
445.10	5991.77
445.28	5963.68
445.47	5975.39
445.65	6031.56
445.84	6005.81
446.02	6218.80
446.21	6073.69
446.39	6099.44
446.58	6239.87
446.77	6179.01
446.95	6106.46
447.14	6253.91
447.32	6286.68
447.51	6167.31
447.69	6183.70
447.88	6179.01
448.06	6188.38
448.25	6118.16
448.43	6410.73
448.62	6085.39
448.80	6148.59
448.99	6300.72
449.17	6176.67
449.36	6239.87
449.54	6675.21
449.73	6534.78
449.91	6590.95
450.10	6532.44
450.28	6726.70
450.46	6502.01
450.65	6649.46
450.83	6565.20
451.02	6684.57
451.20	6590.95
451.39	6677.55
451.57	6700.95
451.76	6562.86
451.94	6876.49
452.13	6995.86
452.31	6834.36
452.49	6560.52
452.68	6848.41
452.86	6836.70
453.05	6925.65
453.23	6862.45
453.42	6878.83
453.60	6881.18
453.78	6918.62
453.97	6843.73
454.15	6923.30
454.34	6956.07
454.52	7045.01
454.70	7274.38
454.89	7007.56
455.07	7021.61
455.26	7227.57
455.44	7213.53
455.62	7166.72
455.81	7183.10
455.99	7222.89
456.17	7201.83
456.36	7288.43
456.54	7449.93
456.73	7283.75
456.91	7695.68
457.09	7475.67
457.28	7817.39
457.46	7475.67
457.64	7555.25
457.83	7559.93
458.01	7426.52
458.19	7756.54
458.38	7646.53
458.56	7751.85
458.74	7707.38
458.93	7679.30
459.11	7735.47
459.29	7740.15
459.48	7894.63
459.66	7726.11
459.84	7908.67
460.03	8032.72
460.21	8077.19
460.39	8133.36
460.57	8037.40
460.76	7845.48
460.94	7941.44
461.12	7946.12
461.31	8131.02
461.49	7932.08
461.67	8297.20
461.85	8231.66
462.04	8210.60
462.22	8645.94
462.40	8320.60
462.59	8243.37
462.77	8297.20
462.95	8358.05
463.13	8191.88
463.32	8346.35
463.50	8580.40
463.68	8472.74
463.86	8414.23
464.05	8318.26
464.23	8416.57
464.41	8554.66
464.59	8381.46
464.78	8557.00
464.96	8564.02
465.14	8535.93
465.32	8674.03
465.50	8606.15
465.69	8725.52
465.87	8573.38
466.05	8753.60
466.23	8566.36
466.41	8702.11
466.60	8798.07
466.78	8568.70
466.96	8664.66
467.14	8744.24
467.32	8793.39
467.51	8652.96
467.69	8725.52
467.87	8931.48
468.05	8791.05
468.23	8769.99
468.41	9048.51
468.60	8926.80
468.78	9027.45
468.96	8908.08
469.14	8929.14
469.32	9399.59
469.50	8894.04
469.69	9142.13
469.87	9193.62
470.05	9378.53
470.23	9327.03
470.41	9345.76
470.59	9495.55
470.77	9441.72
470.95	9713.22
471.14	9556.41
471.32	9277.88
471.50	9685.14
471.68	9612.58
471.86	9565.77
472.04	9785.78
472.22	9879.40
472.40	9778.76
472.58	9834.93
472.77	10099.41
472.95	9830.25
473.13	10108.77
473.31	9858.34
473.49	10022.17
473.67	10019.83
473.85	10115.80
474.03	10108.77
474.21	10289.00
474.39	10258.57
474.57	10347.51
474.75	10490.28
474.93	10551.14
475.12	10509.01
475.30	10939.66
475.48	10410.70
475.66	10897.53
475.84	10626.03
476.02	10899.87
476.20	10679.86
476.38	10930.30
476.56	11164.36
476.74	11314.15
476.92	11119.89
477.10	11157.33
477.28	11440.54
477.46	11351.60
477.64	11606.72
477.82	11576.29
478.00	11885.24
478.18	11723.74
478.36	11826.73
478.54	11850.13
478.72	11988.22
478.90	12114.61
479.08	12163.76
479.26	12538.25
479.44	12222.28
479.62	12386.12
479.80	12617.83
479.98	12407.18
480.16	12910.40
480.34	12685.70
480.52	12915.08
480.70	12950.18
480.88	12901.03
481.06	13025.08
481.24	13078.91
481.41	13380.84
481.59	13397.23
481.77	13607.87
481.95	13542.34
482.13	13467.44
482.31	13598.51
482.49	14017.47
482.67	13703.84
482.85	14094.71
483.03	14272.59
483.21	14295.99
483.39	14649.41
483.57	14333.44
483.74	14705.59
483.92	14806.23
484.10	14724.31
484.28	15019.22
484.46	15283.70
484.64	15513.07
484.82	15044.96
485.00	15466.26
485.18	15620.74
485.35	15688.61
485.53	15440.51
485.71	15288.38
485.89	15822.02
486.07	15953.09
486.25	16074.80
486.43	15810.32
486.61	15688.61
486.78	16376.73
486.96	16376.73
487.14	16659.93
487.32	16910.37
487.50	17212.30
487.68	17326.99
487.85	17429.97
488.03	17645.30
488.21	17865.31
488.39	17554.02
488.57	17839.56
488.75	18001.06
488.92	17792.75
489.10	18420.02
489.28	18209.37
489.46	18640.03
489.64	18501.93
489.81	18998.13
489.99	19056.64
490.17	19054.30
490.35	19215.80
490.53	18939.62
490.70	19520.07
490.88	19332.82
491.06	19651.14
491.24	19405.38
491.41	19756.46
491.59	19777.53
491.77	19704.97
491.95	20046.69
492.13	20369.68
492.30	20594.37
492.48	20594.37
492.66	20744.17
492.84	20786.30
493.01	21013.33
493.19	21048.44
493.37	20926.73
493.54	20945.45
493.72	21635.91
493.90	21181.85
494.08	21596.12
494.25	21666.34
494.43	22015.08
494.61	21909.75
494.79	22267.86
494.96	22125.08
495.14	22284.24
495.32	22380.20
495.49	22635.32
495.67	22618.94
495.85	22822.56
496.02	22632.98
496.20	23009.81
496.38	23183.01
496.55	23353.87
496.73	24016.24
496.91	23594.94
497.09	23665.16
497.26	23819.63
497.44	23917.93
497.62	23981.13
497.79	24067.73
497.97	24254.97
498.14	24198.80
498.32	24159.01
498.50	24535.84
498.67	24666.91
498.85	24379.02
499.03	24786.27
499.20	25003.94
499.38	24952.45
499.56	25153.74
499.73	25333.96
499.91	25142.03
500.08	25490.77
500.26	25256.72
500.44	25434.60
500.61	25504.82
500.79	25453.33
500.97	25626.53
501.14	26052.50
501.32	25865.26
501.49	25984.63
501.67	26129.74
501.84	26101.65
502.02	25949.52
502.20	26380.18
502.37	26888.07
502.55	26595.51
502.72	26810.84
502.90	27030.85
503.07	26689.13
503.25	26588.49
503.43	26852.97
503.60	26841.26
503.78	27215.75
503.95	26913.82
504.13	27391.29
504.30	27253.20
504.48	27440.44
504.65	27498.95
504.83	27812.59
505.01	27880.46
505.18	27676.83
505.36	28299.42
505.53	27878.12
505.71	28245.58
505.88	28507.72
506.06	28142.60
506.23	28257.29
506.41	28137.92
506.58	28102.81
506.76	28673.90
506.93	28524.11
507.11	28678.58
507.28	29046.05
507.46	28701.99
507.63	28538.15
507.81	28952.43
507.98	28765.18
508.16	29308.19
508.33	29294.14
508.50	29289.46
508.68	29497.77
508.85	30000.99
509.03	29516.50
509.20	29825.45
509.38	29883.96
509.55	30010.35
509.73	29921.41
509.90	30143.76
510.08	29401.81
510.25	30218.66
510.42	30237.38
510.60	30050.14
510.77	30616.55
510.95	30548.67
511.12	30534.63
511.30	30892.73
511.47	31089.34
511.64	31040.18
511.82	30824.86
511.99	31014.44
512.17	31079.97
512.34	30876.35
512.51	31360.84
512.69	31189.98
512.86	31185.30
513.04	31960.02
513.21	31587.87
513.38	31597.23
513.56	31461.48
513.73	31566.81
513.90	31534.04
514.08	31461.48
514.25	31658.09
514.43	31983.42
514.60	31901.50
514.77	31920.23
514.95	32439.82
515.12	32070.02
515.29	32161.30
515.47	32439.82
515.64	32683.24
515.81	32034.91
515.99	32720.69
516.16	32655.15
516.33	32416.42
516.51	32615.37
516.68	32814.31
516.85	32423.44
517.03	32601.32
517.20	32821.33
517.37	32877.51
517.54	33137.30
517.72	32828.35
517.89	33254.33
518.06	32858.78
518.24	33085.81
518.41	32961.76
518.58	33638.18
518.75	33160.71
518.93	33743.50
519.10	33916.70
519.27	33963.51
519.45	33905.00
519.62	33839.47
519.79	33589.03
519.96	34195.23
520.14	34401.19
520.31	34007.98
520.48	34616.52
520.65	34375.45
520.83	34653.97
521.00	34892.71
521.17	34773.34
521.34	34918.45
521.52	34611.84
521.69	35030.80
521.86	35250.81
522.03	35175.91
522.20	35208.68
522.38	35388.90
522.55	35239.11
522.72	35035.48
522.89	35119.74
523.07	35386.56
523.24	35379.54
523.41	35594.87
523.58	35187.61
523.75	35716.58
523.92	35578.48
524.10	35864.03
524.27	35758.70
524.44	35864.03
524.61	35957.65
524.78	36072.34
524.96	35957.65
525.13	36453.84
525.30	36538.10
525.47	36533.42
525.64	36327.45
525.81	36498.31
525.98	36837.69
526.16	36629.38
526.33	36402.35
526.50	36825.99
526.67	36416.40
526.84	36327.45
527.01	36357.88
527.18	36369.58
527.36	37069.40
527.53	37057.70
527.70	37291.76
527.87	37078.77
528.04	37050.68
528.21	37221.54
528.38	37261.33
528.55	37839.44
528.72	37387.72
528.89	37727.10
529.07	37556.24
529.24	37207.50
529.41	37469.64
529.58	37710.71
529.75	37340.91
529.92	37816.04
530.09	37961.15
530.26	37818.38
530.43	37820.72
530.60	37544.53
530.77	37675.60
530.94	38373.08
531.11	38286.48
531.28	38230.31
531.46	38066.47
531.63	38190.52
531.80	38167.12
531.97	38286.48
532.14	38312.23
532.31	38270.10
532.48	38258.40
532.65	38588.41
532.82	38567.35
532.99	38567.35
533.16	38515.86
533.33	38129.67
533.50	39222.70
533.67	38806.08
533.84	38873.96
534.01	38682.03
534.18	38686.71
534.35	39016.73
534.52	38656.29
534.69	39084.61
534.86	39145.46
535.03	38855.23
535.20	39377.17
535.37	39414.62
535.54	39508.24
535.71	39199.29
535.88	39026.09
536.05	39402.92
536.22	39278.87
536.38	39693.15
536.55	39377.17
536.72	39515.26
536.89	39381.85
537.06	38906.73
537.23	39784.43
537.40	39477.82
537.57	39906.13
537.74	39531.65
537.91	40212.74
538.08	40329.77
538.25	39625.27
538.42	39662.72
538.59	40252.53
538.75	39548.03
538.92	39889.75
539.09	40388.28
539.26	40238.49
539.43	40425.73
539.60	40580.21
539.77	39983.37
539.94	40006.78
540.11	40107.42
540.28	40163.59
540.44	40201.04
540.61	40514.67
540.78	40556.80
540.95	40348.50
541.12	40383.60
541.29	40842.35
541.46	41069.38
541.62	40467.86
541.79	40898.52
541.96	40554.46
542.13	40755.75
542.30	40978.10
542.47	40765.11
542.63	41048.32
542.80	41170.02
542.97	41832.39
543.14	41460.25
543.31	41432.16
543.48	41546.85
543.64	42038.36
543.81	41918.99
543.98	41862.82
544.15	41415.78
544.32	41497.70
544.48	42127.30
544.65	41654.51
544.82	41610.04
544.99	41202.79
545.16	41827.71
545.32	41574.94
545.49	41947.08
545.66	41909.63
545.83	41844.10
546.00	42045.38
546.16	42258.37
546.33	42019.64
546.50	41972.83
546.67	42057.09
546.83	41612.38
547.00	42043.04
547.17	42012.62
547.34	42066.45
547.50	41689.62
547.67	42759.25
547.84	42656.26
548.00	42705.41
548.17	42995.64
548.34	42129.64
548.51	42347.31
548.67	42777.97
548.84	42656.26
549.01	42534.56
549.18	41975.17
549.34	42801.38
549.51	42981.60
549.68	43033.09
549.84	42810.74
550.01	42698.39
550.18	42660.94
550.34	42995.64
550.51	43005.00
550.68	43166.50
550.84	42546.26
551.01	43278.85
551.18	42855.21
551.34	43180.54
551.51	43051.81
551.68	43016.71
551.84	43302.25
552.01	43182.88
552.18	43009.68
552.34	42602.43
552.51	43526.94
552.68	42948.83
552.84	43393.53
553.01	43627.59
553.18	43311.61
553.34	43873.34
553.51	43164.16
553.67	43386.51
553.84	43861.64
554.01	43849.94
554.17	43590.14
554.34	43641.63
554.51	43442.68
554.67	43564.39
554.84	43297.57
555.00	43646.31
555.17	43477.79
555.33	43655.67
555.50	43435.66
555.67	44081.65
555.83	43761.00
556.00	43966.96
556.16	44037.18
556.33	44044.20
556.50	43840.57
556.66	44165.91
556.83	43732.91
556.99	43835.89
557.16	43840.57
557.32	44374.22
557.49	43601.84
557.65	43711.84
557.82	43906.11
557.98	44037.18
558.15	44172.93
558.32	44219.74
558.48	44308.68
558.65	44486.56
558.81	44112.08
558.98	44095.69
559.14	44348.47
559.31	44383.58
559.47	43819.51
559.64	44556.78
559.80	44849.35
559.97	44357.83
560.13	44205.70
560.30	44266.55
560.46	44222.08
560.63	44465.50
560.79	44374.22
560.96	44708.91
561.12	44245.49
561.29	44395.28
561.45	44622.31
561.61	44423.37
561.78	44306.34
561.94	44617.63
562.11	44638.70
562.27	44603.59
562.44	44589.55
562.60	44711.25
562.77	44919.56
562.93	44392.94
563.10	44701.89
563.26	44659.76
563.42	44924.24
563.59	44624.65
563.75	44788.49
563.92	44814.24
564.08	44554.44
564.24	44561.46
564.41	44748.70
564.57	44629.34
564.74	44748.70
564.90	44882.11
565.07	44734.66
565.23	44804.88
565.39	44666.78
565.56	44940.63
565.72	44685.51
565.88	44737.00
566.05	44467.84
566.21	44666.78
566.38	45179.36
566.54	44949.99
566.70	45074.04
566.87	44793.17
567.03	44832.96
567.19	45418.10
567.36	45696.62
567.52	44851.69
567.68	44680.83
567.85	44584.86
568.01	45139.57
568.17	44545.08
568.34	45008.50
568.50	45102.12
568.66	45064.67
568.83	45045.95
568.99	44868.07
569.15	44905.52
569.32	44961.69
569.48	45048.29
569.64	45137.23
569.81	45130.21
569.97	45549.17
570.13	45221.49
570.30	44772.11
570.46	44622.31
570.62	44744.02
570.78	44837.64
570.95	44968.71
571.11	45556.19
571.27	45085.74
571.43	45069.36
571.60	45097.44
571.76	45546.82
571.92	45099.78
572.09	45069.36
572.25	45020.20
572.41	44982.76
572.57	44772.11
572.74	45722.37
572.90	44856.37
573.06	44933.60
573.22	45177.02
573.38	45457.88
573.55	45170.00
573.71	45734.07
573.87	45113.83
574.03	45195.74
574.20	44575.50
574.36	45165.32
574.52	45694.28
574.68	45338.52
574.84	45698.96
575.01	45155.96
575.17	45352.56
575.33	45067.02
575.49	45249.58
575.65	45588.95
575.82	45469.59
575.98	45457.88
576.14	45467.25
576.30	45120.85
576.46	44996.80
576.62	45553.85
576.79	44884.45
576.95	44964.03
577.11	45113.83
577.27	45333.84
577.43	45057.65
577.59	45612.36
577.75	45574.91
577.92	45390.01
578.08	44947.65
578.24	45141.91
578.40	45120.85
578.56	45249.58
578.72	45263.62
578.88	45645.13
579.04	45565.55
579.21	45429.80
579.37	45165.32
579.53	45406.39
579.69	45113.83
579.85	45546.82
580.01	45301.07
580.17	45270.64
580.33	45104.46
580.49	45776.20
580.65	45551.51
580.82	45551.51
580.98	45366.60
581.14	44858.71
581.30	45446.18
581.46	45682.58
581.62	45986.85
581.78	45666.19
581.94	45565.55
582.10	45722.37
582.26	45516.40
582.42	45413.41
582.58	45502.35
582.74	44849.35
582.90	45556.19
583.06	45925.99
583.22	45514.06
583.38	45752.79
583.54	45633.42
583.70	45811.31
583.86	45235.53
584.02	45099.78
584.18	45420.44
584.34	45649.81
584.50	45588.95
584.66	45170.00
584.82	45331.50
584.98	45844.07
585.14	45497.67
585.30	45607.68
585.46	45865.14
585.62	45249.58
585.78	45504.70
585.94	45333.84
586.10	44935.95
586.26	45488.31
586.42	45394.69
586.58	45593.64
586.74	45322.13
586.90	45481.29
587.06	45375.97
587.22	45158.30
587.38	45436.82
587.54	45773.86
587.70	45776.20
587.86	45411.07
588.02	45305.75
588.18	46117.92
588.34	45776.20
588.49	45776.20
588.65	44877.43
588.81	45155.96
588.97	45247.24
589.13	45406.39
589.29	45443.84
589.45	45324.47
589.61	45771.52
589.77	45762.15
589.93	45640.45
590.08	45806.62
590.24	45785.56
