SpectraSuite Data File
++++++++++++++++++++++++++++++++++++
Date: Fri Oct 25 11:23:31 EDT 2013
User: price-jones
Dark Spectrum Present: No
Reference Spectrum Present: No
Number of Sampled Component Spectra: 1
Spectrometers: USB2+H05261
Integration Time (usec): 100000 (USB2+H05261)
Spectra Averaged: 1 (USB2+H05261)
Boxcar Smoothing: 0 (USB2+H05261)
Correct for Electrical Dark: No (USB2+H05261)
Strobe/Lamp Enabled: No (USB2+H05261)
Correct for Detector Non-linearity: No (USB2+H05261)
Correct for Stray Light: No (USB2+H05261)
Number of Pixels in Processed Spectrum: 2048
>>>>>Begin Processed Spectral Data<<<<<
365.73	210.65
365.92	210.65
366.12	210.65
366.32	147.45
366.52	163.84
366.72	198.95
366.91	44.47
367.11	112.35
367.31	152.13
367.51	98.30
367.70	77.24
367.90	168.52
368.10	198.95
368.30	140.43
368.49	149.79
368.69	105.32
368.89	166.18
369.09	135.75
369.28	161.50
369.48	107.66
369.68	166.18
369.87	154.48
370.07	198.95
370.27	227.03
370.47	337.04
370.66	533.64
370.86	620.24
371.06	564.07
371.25	685.78
371.45	685.78
371.65	681.10
371.84	683.44
372.04	669.39
372.24	739.61
372.44	725.57
372.63	788.76
372.83	702.16
373.03	741.95
373.22	765.36
373.42	746.63
373.62	833.23
373.81	784.08
374.01	858.98
374.21	772.38
374.40	746.63
374.60	828.55
374.79	821.53
374.99	894.08
375.19	854.30
375.38	847.27
375.58	821.53
375.78	856.64
375.97	840.25
376.17	889.40
376.37	922.17
376.56	816.85
376.76	800.46
376.95	901.11
377.15	905.79
377.35	858.98
377.54	903.45
377.74	884.72
377.93	891.74
378.13	805.14
378.33	978.34
378.52	894.08
378.72	1022.81
378.91	926.85
379.11	940.90
379.31	978.34
379.50	943.24
379.70	1036.86
379.89	976.00
380.09	901.11
380.28	896.43
380.48	997.07
380.68	1013.45
380.87	1032.18
381.07	1036.86
381.26	978.34
381.46	994.73
381.65	1078.99
381.85	1036.86
382.04	1076.65
382.24	1029.84
382.43	1090.69
382.63	1046.22
382.83	1053.24
383.02	1083.67
383.22	1142.18
383.41	1102.39
383.61	1088.35
383.80	1151.54
384.00	1088.35
384.19	1121.12
384.39	1043.88
384.58	1167.93
384.78	1163.25
384.97	1149.20
385.17	1149.20
385.36	1165.59
385.56	1116.44
385.75	1174.95
385.95	1093.03
386.14	1156.22
386.34	1289.64
386.53	1259.21
386.72	1228.78
386.92	1313.04
387.11	1198.35
387.31	1245.16
387.50	1238.14
387.70	1299.00
387.89	1212.40
388.09	1156.22
388.28	1219.42
388.48	1306.02
388.67	1425.39
388.86	1317.72
389.06	1320.06
389.25	1320.06
389.45	1373.89
389.64	1299.00
389.84	1380.92
390.03	1357.51
390.22	1385.60
390.42	1373.89
390.61	1280.27
390.81	1350.49
391.00	1315.38
391.19	1416.02
391.39	1430.07
391.58	1516.67
391.78	1418.36
391.97	1521.35
392.16	1411.34
392.36	1507.30
392.55	1500.28
392.75	1542.41
392.94	1535.39
393.13	1533.05
393.33	1490.92
393.52	1434.75
393.71	1657.10
393.91	1607.95
394.10	1619.65
394.29	1572.84
394.49	1645.40
394.68	1739.02
394.88	1645.40
395.07	1650.08
395.26	1680.50
395.46	1785.83
395.65	1769.44
395.84	1806.89
396.04	1790.51
396.23	1792.85
396.42	1739.02
396.62	1694.55
396.81	1809.23
397.00	1781.15
397.19	1832.64
397.39	1856.04
397.58	1797.53
397.77	1722.63
397.97	1832.64
398.16	1930.94
398.35	1930.94
398.55	1863.07
398.74	1872.43
398.93	2087.76
399.12	1881.79
399.32	1898.17
399.51	1956.69
399.70	2033.93
399.90	1968.39
400.09	2008.18
400.28	2127.55
400.47	1994.14
400.67	2197.76
400.86	2118.18
401.05	2115.84
401.24	2214.15
401.44	2087.76
401.63	2162.66
401.82	2099.46
402.01	2183.72
402.21	2169.68
402.40	2232.87
402.59	2256.28
402.78	2366.28
402.97	2282.02
403.17	2211.81
403.36	2197.76
403.55	2239.89
403.74	2354.58
403.93	2417.77
404.13	2356.92
404.32	2377.98
404.51	2282.02
404.70	2370.96
404.89	2347.56
405.09	2502.03
405.28	2480.97
405.47	2410.75
405.66	2464.58
405.85	2609.70
406.05	2574.59
406.24	2555.86
406.43	2635.44
406.62	2740.77
406.81	2663.53
407.00	2576.93
407.20	2623.74
407.39	2541.82
407.58	2736.09
407.77	2747.79
407.96	2825.03
408.15	2796.94
408.34	2642.46
408.54	2897.58
408.73	2810.98
408.92	2803.96
409.11	2874.18
409.30	2836.73
409.49	2869.50
409.68	2892.90
409.87	2956.10
410.07	3007.59
410.26	2970.14
410.45	3047.38
410.64	3056.74
410.83	3150.36
411.02	3241.64
411.21	3150.36
411.40	3204.19
411.59	3283.77
411.78	3258.03
411.98	3187.81
412.17	3220.58
412.36	3346.97
412.55	3473.36
412.74	3438.25
412.93	3508.46
413.12	3201.85
413.31	3445.27
413.50	3517.83
413.69	3536.55
413.88	3712.09
414.07	3578.68
414.26	3548.25
414.45	3590.38
414.64	3630.17
414.83	3698.05
415.02	3887.63
415.22	3751.88
415.41	3920.40
415.60	3978.91
415.79	4023.38
415.98	4067.85
416.17	4025.72
416.36	4032.74
416.55	4049.13
416.74	4077.21
416.93	4175.52
417.12	4166.15
417.31	4215.30
417.50	4248.07
417.69	4301.90
417.88	4325.31
418.07	4273.82
418.26	4388.50
418.45	4362.76
418.64	4603.83
418.83	4437.66
419.02	4430.63
419.21	4552.34
419.39	4685.75
419.58	4449.36
419.77	4402.55
419.96	4519.57
420.15	4622.56
420.34	4599.15
420.53	4690.43
420.72	4667.03
420.91	4748.95
421.10	4599.15
421.29	4826.18
421.48	4816.82
421.67	4697.46
421.86	4683.41
422.05	4919.81
422.24	4812.14
422.43	4903.42
422.61	4987.68
422.80	4985.34
422.99	4851.93
423.18	4957.25
423.37	5158.54
423.56	4847.25
423.75	4784.06
423.94	4837.89
424.13	4608.51
424.32	4788.74
424.50	5097.69
424.69	5203.01
424.88	5050.88
425.07	5004.07
425.26	5025.13
425.45	5060.24
425.64	4896.40
425.83	5085.98
426.01	5109.39
426.20	5146.84
426.39	4966.62
426.58	5078.96
426.77	5022.79
426.96	5149.18
427.15	5057.90
427.33	5210.03
427.52	5109.39
427.71	5308.34
427.90	5284.93
428.09	5266.21
428.28	5448.77
428.46	5334.08
428.65	5291.95
428.84	5451.11
429.03	5504.94
429.22	5495.58
429.40	5359.83
429.59	5542.39
429.78	5465.15
429.97	5373.87
430.16	5432.38
430.34	5654.73
430.53	5727.29
430.72	5783.46
430.91	5682.82
431.10	5458.13
431.28	5621.97
431.47	5729.63
431.66	5832.62
431.85	5736.65
432.03	5799.85
432.22	5989.43
432.41	6010.50
432.60	6057.31
432.79	6061.99
432.97	6202.42
433.16	5870.06
433.35	5970.71
433.54	6061.99
433.72	6139.23
433.91	6197.74
434.10	6237.53
434.28	6242.21
434.47	6162.63
434.66	6279.66
434.85	6464.56
435.03	6319.45
435.22	6176.67
435.41	6408.39
435.59	6389.66
435.78	6424.77
435.97	6609.67
436.16	6399.02
436.34	6349.87
436.53	6476.26
436.72	6850.75
436.90	6516.05
437.09	6642.44
437.28	6553.50
437.46	6628.40
437.65	6628.40
437.84	6717.34
438.02	6743.08
438.21	6787.55
438.40	6644.78
438.58	6937.35
438.77	7152.68
438.96	7103.53
439.14	7152.68
439.33	7159.70
439.52	7234.60
439.70	7197.15
439.89	7412.48
440.08	7456.95
440.26	7480.35
440.45	7426.52
440.63	7623.12
440.82	7566.95
441.01	7733.13
441.19	7583.34
441.38	7763.56
441.57	7733.13
441.75	7789.30
441.94	8145.06
442.12	7929.74
442.31	8051.44
442.50	8002.29
442.68	8035.06
442.87	8065.49
443.05	8147.40
443.24	8304.22
443.43	8217.62
443.61	8194.22
443.80	8414.23
443.98	8208.26
444.17	7896.97
444.35	8257.41
444.54	8280.82
444.73	8248.05
444.91	8285.50
445.10	8390.82
445.28	8290.18
445.47	8358.05
445.65	8514.87
445.84	8564.02
446.02	8456.36
446.21	8505.51
446.39	8435.29
446.58	8266.77
446.77	8437.63
446.95	8538.27
447.14	8592.11
447.32	8603.81
447.51	8566.36
447.69	8505.51
447.88	8547.64
448.06	8322.94
448.25	8622.53
448.43	8601.47
448.62	8519.55
448.80	8779.35
448.99	8837.86
449.17	8765.31
449.36	8641.26
449.54	8788.71
449.73	8922.12
449.91	8982.98
450.10	8800.41
450.28	9202.99
450.46	9069.58
450.65	9004.04
450.83	9067.24
451.02	9041.49
451.20	9289.59
451.39	9132.77
451.57	9069.58
451.76	9090.64
451.94	9317.67
452.13	9212.35
452.31	9146.81
452.49	9167.88
452.68	9385.55
452.86	9249.80
453.05	9420.66
453.23	9753.01
453.42	9460.45
453.60	9284.91
453.78	9624.28
453.97	9444.06
454.15	9507.26
454.34	9582.15
454.52	9530.66
454.70	9863.02
454.89	9818.55
455.07	9820.89
455.26	9975.36
455.44	9916.85
455.62	9895.78
455.81	9797.48
455.99	10136.86
456.17	10033.88
456.36	10274.95
456.54	10244.52
456.73	10396.66
456.91	10406.02
457.09	10408.36
457.28	10567.52
457.46	10232.82
457.64	10548.79
457.83	10576.88
458.01	10436.45
458.19	10726.68
458.38	10738.38
458.56	10705.61
458.74	10864.77
458.93	10860.09
459.11	10883.49
459.29	10839.02
459.48	10939.66
459.66	10773.49
459.84	10995.84
460.03	11297.77
460.21	11145.63
460.39	10946.69
460.57	11007.54
460.76	11477.99
460.94	11272.02
461.12	11037.97
461.31	11169.04
461.49	11353.94
461.67	11496.71
461.85	11356.28
462.04	11342.24
462.22	11875.88
462.40	11515.44
462.59	11634.80
462.77	11719.06
462.95	11751.83
463.13	11578.63
463.32	11698.00
463.50	11906.31
463.68	11861.84
463.86	11864.18
464.05	11836.09
464.23	11955.46
464.41	11969.50
464.59	11749.49
464.78	12301.86
464.96	12156.74
465.14	12102.91
465.32	12238.66
465.50	12028.01
465.69	12461.01
465.87	12353.35
466.05	12203.55
466.23	12121.63
466.41	12397.82
466.60	12606.13
466.78	11967.16
466.96	11915.67
467.14	12278.45
467.32	12439.95
467.51	12552.29
467.69	12484.42
467.87	12702.09
468.05	12643.57
468.23	12421.22
468.41	12683.36
468.60	12765.28
468.78	12957.21
468.96	12678.68
469.14	12954.87
469.32	12973.59
469.50	12755.92
469.69	12964.23
469.87	13135.09
470.05	13158.49
470.23	13282.54
470.41	13177.22
470.59	13415.95
470.77	13247.43
470.95	13118.70
471.14	13605.53
471.32	13256.79
471.50	13605.53
471.68	13654.69
471.86	13855.97
472.04	13631.28
472.22	14265.57
472.40	13867.67
472.58	13970.66
472.77	13965.98
472.95	14202.37
473.13	14890.49
473.31	14153.22
473.49	14197.69
473.67	14349.82
473.85	14195.35
474.03	14855.38
474.21	14705.59
474.39	14768.78
474.57	14663.46
474.75	14857.72
474.93	15030.92
475.12	14892.83
475.30	15353.91
475.48	15089.43
475.66	15391.36
475.84	15445.20
476.02	15143.27
476.20	15403.07
476.38	15737.76
476.56	16112.25
476.74	16173.10
476.92	15887.56
477.10	15927.35
477.28	16060.76
477.46	16339.28
477.64	16191.83
477.82	16814.41
478.00	16992.29
478.18	16975.91
478.36	17202.94
478.54	17336.35
478.72	16964.20
478.90	17685.09
479.08	17547.00
479.26	17628.92
479.44	17851.27
479.62	17635.94
479.80	18150.85
479.98	18380.23
480.16	18642.37
480.34	18394.27
480.52	18504.28
480.70	18813.23
480.88	18541.72
481.06	19058.98
481.24	18981.74
481.41	19129.20
481.59	19302.40
481.77	19658.16
481.95	19742.42
482.13	19882.85
482.31	19889.87
482.49	20292.44
482.67	20273.72
482.85	20482.03
483.03	20542.88
483.21	20877.58
483.39	20854.17
483.57	20685.65
483.74	21106.95
483.92	21521.23
484.10	21305.90
484.28	21937.84
484.46	22118.06
484.64	22672.77
484.82	22272.54
485.00	22419.99
485.18	22852.99
485.35	23028.53
485.53	22668.09
485.71	23035.55
485.89	23660.48
486.07	23669.84
486.25	23758.78
486.43	23754.10
486.61	24147.31
486.78	24479.66
486.96	24020.92
487.14	24954.79
487.32	25001.60
487.50	24741.80
487.68	25132.67
487.85	25514.18
488.03	25525.88
488.21	26153.15
488.39	25834.83
488.57	26211.66
488.75	26066.55
488.92	26803.82
489.10	26815.52
489.28	26979.36
489.46	27653.43
489.64	27122.13
489.81	28135.58
489.99	27711.94
490.17	27704.92
490.35	28170.69
490.53	28329.84
490.70	28308.78
490.88	28498.36
491.06	28858.81
491.24	29083.50
491.41	29340.96
491.59	29668.63
491.77	29619.48
491.95	30216.32
492.13	30010.35
492.30	30071.20
492.48	30382.49
492.66	30799.11
492.84	30848.26
493.01	30822.51
493.19	30834.22
493.37	31145.51
493.54	31222.75
493.72	31622.98
493.90	31622.98
494.08	32009.17
494.25	31901.50
494.43	32018.53
494.61	32425.78
494.79	32423.44
494.96	32933.68
495.14	32758.14
495.32	33228.59
495.49	32950.06
495.67	33464.98
495.85	33652.22
496.02	33827.76
496.20	34202.25
496.38	34410.56
496.55	34443.32
496.73	34637.59
496.91	34314.59
497.09	35363.15
497.26	35344.43
497.44	34873.98
497.62	35440.39
497.79	36266.60
497.97	35555.08
498.14	36091.06
498.32	36692.58
498.50	35999.78
498.67	36620.02
498.85	36734.71
499.03	36928.97
499.20	36971.10
499.38	36725.35
499.56	36931.31
499.73	37303.46
499.91	37603.05
500.08	37907.32
500.26	37881.57
500.44	38017.32
500.61	38223.29
500.79	37965.83
500.97	38258.40
501.14	38658.63
501.32	38675.01
501.49	38511.17
501.67	38464.36
501.84	39365.47
502.02	38752.25
502.20	39082.27
502.37	39674.42
502.55	39091.63
502.72	39805.49
502.90	39739.96
503.07	39419.30
503.25	40128.48
503.43	40165.93
503.60	40336.79
503.78	40655.11
503.95	40549.78
504.13	40697.24
504.30	40912.56
504.48	40893.84
504.65	41010.87
504.83	41226.20
505.01	41757.50
505.18	41406.42
505.36	41682.60
505.53	41273.01
505.71	41918.99
505.88	42368.38
506.06	41502.38
506.23	42216.24
506.41	42094.53
506.58	42192.84
506.76	42270.08
506.93	42845.85
507.11	42342.63
507.28	42810.74
507.46	43082.24
507.63	43143.09
507.81	43438.00
507.98	43112.67
508.16	43229.69
508.33	43772.70
508.50	43763.34
508.68	43917.81
508.85	43833.55
509.03	43878.02
509.20	43913.13
509.38	44570.82
509.55	44416.35
509.73	44371.88
509.90	45059.99
510.08	44718.28
510.25	45130.21
510.42	44891.48
510.60	45425.12
510.77	45446.18
510.95	45340.86
511.12	45507.04
511.30	45743.43
511.47	45226.17
511.64	45710.66
511.82	46141.32
511.99	45593.64
512.17	46450.27
512.34	46005.57
512.51	46415.16
512.69	46609.43
512.86	46609.43
513.04	46995.62
513.21	46894.97
513.38	47119.66
513.56	47058.81
513.73	47058.81
513.90	47332.65
514.08	47166.48
514.25	47377.12
514.43	47510.53
514.60	47749.27
514.77	47639.26
514.95	47782.04
515.12	48002.05
515.29	48292.27
515.47	48072.26
515.64	48336.74
515.81	48163.54
515.99	48374.19
516.16	48390.58
516.33	48636.33
516.51	49017.84
516.68	48662.08
516.85	48882.09
517.03	48921.88
517.20	49392.33
517.37	48921.88
517.54	49102.10
517.72	49312.75
517.89	49191.04
518.06	49614.68
518.24	49284.66
518.41	49642.76
518.58	49832.35
518.75	49495.31
518.93	49635.74
519.10	49624.04
519.27	49951.71
519.45	49799.58
519.62	50007.89
519.79	50199.81
519.96	49888.52
520.14	50309.82
520.31	50272.37
520.48	49977.46
520.65	50536.85
520.83	50827.07
521.00	50951.12
521.17	50618.77
521.34	50883.25
521.52	50864.52
521.69	50710.05
521.86	51210.92
522.03	51339.65
522.20	51501.15
522.38	51461.36
522.55	51536.26
522.72	51590.09
522.89	51564.34
523.07	51870.95
523.24	51557.32
523.41	51510.51
523.58	51447.32
523.75	51892.02
523.92	51924.78
524.10	52442.04
524.27	52219.69
524.44	52097.98
524.61	52465.45
524.78	52142.45
524.96	52233.74
525.13	52339.06
525.30	52575.45
525.47	52638.65
525.64	52519.28
525.81	52767.38
525.98	53088.03
526.16	52505.24
526.33	52903.13
526.50	53017.82
526.67	53001.43
526.84	52800.15
527.01	52933.56
527.18	53556.14
527.36	52905.47
527.53	53085.69
527.70	53705.93
527.87	53492.94
528.04	53212.08
528.21	53476.56
528.38	53478.90
528.55	53851.05
528.72	53668.48
528.89	53605.29
529.07	53659.12
529.24	53631.04
529.41	53722.32
529.58	53776.15
529.75	53876.79
529.92	54164.68
530.09	53881.47
530.26	54408.09
530.43	54094.46
530.60	53834.66
530.77	53954.03
530.94	54092.12
531.11	53907.22
531.28	54328.52
531.46	54326.17
531.63	54511.08
531.80	54478.31
531.97	54557.89
532.14	54527.46
532.31	54454.90
532.48	54646.83
532.65	54637.47
532.82	54651.51
532.99	55040.04
533.16	54876.20
533.33	55227.28
533.50	55103.23
533.67	54930.03
533.84	54983.86
534.01	55166.43
534.18	55384.10
534.35	55622.83
534.52	55257.71
534.69	55360.69
534.86	55330.26
535.03	55213.24
535.20	55597.09
535.37	55592.40
535.54	55533.89
535.71	55126.64
535.88	55594.74
536.05	55779.65
536.22	55650.92
536.38	55498.78
536.55	55707.09
536.72	55632.19
536.89	55629.85
537.06	55739.86
537.23	55945.83
537.40	55615.81
537.57	55882.63
537.74	55833.48
537.91	56086.26
538.08	55987.95
538.25	55798.37
538.42	55976.25
538.59	56252.44
538.75	56165.84
538.92	56390.53
539.09	56388.19
539.26	56193.92
539.43	56409.25
539.60	56292.22
539.77	56488.83
539.94	56624.58
540.11	56460.74
540.28	56713.52
540.44	56640.96
540.61	56732.25
540.78	56757.99
540.95	56816.50
541.12	56488.83
541.29	56741.61
541.46	56425.64
541.62	56615.22
541.79	56830.55
541.96	56633.94
542.13	56849.27
542.30	56781.40
542.47	56966.30
542.63	57102.05
542.80	57059.92
542.97	57111.41
543.14	57235.46
543.31	57279.93
543.48	57340.78
543.64	57495.26
543.81	57471.85
543.98	57567.82
544.15	57563.14
544.32	57584.20
544.48	57595.90
544.65	57546.75
544.82	57516.32
544.99	57439.09
545.16	57598.24
545.32	57537.39
545.49	57635.69
545.66	57881.45
545.83	57886.13
546.00	57876.77
546.16	57858.04
546.33	57579.52
546.50	57696.55
546.67	57963.37
546.83	57778.46
547.00	58068.69
547.17	57886.13
547.34	58000.82
547.50	58087.42
547.67	58197.42
547.84	58049.97
548.00	58183.38
548.17	58450.20
548.34	58255.93
548.51	58658.51
548.67	58375.30
548.84	58365.94
549.01	58054.65
549.18	58403.39
549.34	58415.09
549.51	58422.11
549.68	58478.28
549.84	58408.07
550.01	58674.89
550.18	58665.53
550.34	58707.66
550.51	58464.24
550.68	58548.50
550.84	58262.96
551.01	58719.36
551.18	58560.20
551.34	58525.10
551.51	58766.17
551.68	58967.46
551.84	58625.74
552.01	58677.23
552.18	58908.94
552.34	58546.16
552.51	58908.94
552.68	58710.00
552.84	58794.26
553.01	58899.58
553.18	58822.34
553.34	59068.10
553.51	58892.56
553.67	58986.18
553.84	59098.53
554.01	59079.80
554.17	59231.94
554.34	59192.15
554.51	59016.61
554.67	59091.51
554.84	59004.91
555.00	59161.72
555.17	58714.68
555.33	59131.29
555.50	59260.02
555.67	59124.27
555.83	59231.94
556.00	59341.94
556.16	59407.48
556.33	59355.99
556.50	59440.24
556.66	59440.24
556.83	59473.01
556.99	59407.48
557.16	59667.28
557.32	59676.64
557.49	59728.13
557.65	59473.01
557.82	59508.12
557.98	59533.87
558.15	59643.87
558.32	59704.73
558.48	59419.18
558.65	59503.44
558.81	59587.70
558.98	59814.73
559.14	59746.86
559.31	59545.57
559.47	59948.14
559.64	59760.90
559.80	59990.27
559.97	59732.81
560.13	59683.66
560.30	59845.16
560.46	59906.01
560.63	59948.14
560.79	60177.51
560.96	60027.72
561.12	59969.21
561.29	59891.97
561.45	59950.48
561.61	60067.51
561.78	59973.89
561.94	60023.04
562.11	60060.49
562.27	59957.50
562.44	60062.83
562.60	60079.21
562.77	60247.73
562.93	59934.10
563.10	60062.83
563.26	60076.87
563.42	60411.57
563.59	60198.58
563.75	59983.25
563.92	59992.61
564.08	60200.92
564.24	60128.36
564.41	60205.60
564.57	60294.54
564.74	60329.65
564.90	60301.56
565.07	60095.60
565.23	60282.84
565.39	60266.45
565.56	60219.64
565.72	60507.53
565.88	60310.92
566.05	60308.58
566.21	60362.42
566.38	60282.84
566.54	60306.24
566.70	60474.76
566.87	60444.33
567.03	60259.43
567.19	60685.41
567.36	60434.97
567.52	60329.65
567.68	60650.30
567.85	60444.33
568.01	60458.38
568.17	60519.23
568.34	60399.86
568.50	60556.68
568.66	60687.75
568.83	60397.52
568.99	60437.31
569.15	60381.14
569.32	60530.93
569.48	60409.23
569.64	60622.22
569.81	60601.15
569.97	60477.10
570.13	60683.07
570.30	60535.62
570.46	60488.80
570.62	60743.92
570.78	60680.73
570.95	60444.33
571.11	60781.37
571.27	60638.60
571.43	60631.58
571.60	60760.31
571.76	60800.10
571.92	60772.01
572.09	60844.57
572.25	60872.65
572.41	60647.96
572.57	60659.66
572.74	60863.29
572.90	60793.07
573.06	60643.28
573.22	60823.50
573.38	60673.71
573.55	60832.86
573.71	60928.83
573.87	60851.59
574.03	60860.95
574.20	60891.38
574.36	60533.28
574.52	60704.13
574.68	60952.23
574.84	60956.91
575.01	60842.23
575.17	60718.18
575.33	60769.67
575.49	60800.10
575.65	60949.89
575.82	60830.52
575.98	60844.57
576.14	60879.67
576.30	60982.66
576.46	61006.06
576.62	60821.16
576.79	60891.38
576.95	60713.50
577.11	60884.36
577.27	60832.86
577.43	61029.47
577.59	60963.93
577.75	60725.20
577.92	60849.25
578.08	60851.59
578.24	60849.25
578.40	61221.39
578.56	61207.35
578.72	60959.25
578.88	61134.79
579.04	61200.33
579.21	61132.45
579.37	60940.53
579.53	61083.30
579.69	61078.62
579.85	60797.76
580.01	60928.83
580.17	60837.54
580.33	60907.76
580.49	61071.60
580.65	61291.61
580.82	60884.36
580.98	60872.65
581.14	61001.38
581.30	61034.15
581.46	60959.25
581.62	60912.44
581.78	60940.53
581.94	61036.49
582.10	61132.45
582.26	61003.72
582.42	61104.37
582.58	61190.97
582.74	60825.84
582.90	61256.50
583.06	60977.98
583.22	60893.72
583.38	61080.96
583.54	61148.84
583.70	60954.57
583.86	61263.52
584.02	60989.68
584.18	61148.84
584.34	61275.22
584.50	61151.18
584.66	61085.64
584.82	60769.67
584.98	61200.33
585.14	61233.10
585.30	61043.51
585.46	61216.71
585.62	61242.46
585.78	61333.74
585.94	61134.79
586.10	61109.05
586.26	61160.54
586.42	61066.92
586.58	61272.88
586.74	61158.20
586.90	61008.40
587.06	60968.61
587.22	61336.08
587.38	61158.20
587.54	61345.44
587.70	61361.82
587.86	61340.76
588.02	61258.84
588.18	61237.78
588.34	61038.83
588.49	61160.54
