SpectraSuite Data File
++++++++++++++++++++++++++++++++++++
Date: Fri Oct 25 10:44:31 EDT 2013
User: price-jones
Dark Spectrum Present: No
Reference Spectrum Present: No
Number of Sampled Component Spectra: 1
Spectrometers: USB2+H05261
Integration Time (usec): 100000 (USB2+H05261)
Spectra Averaged: 1 (USB2+H05261)
Boxcar Smoothing: 0 (USB2+H05261)
Correct for Electrical Dark: No (USB2+H05261)
Strobe/Lamp Enabled: No (USB2+H05261)
Correct for Detector Non-linearity: No (USB2+H05261)
Correct for Stray Light: No (USB2+H05261)
Number of Pixels in Processed Spectrum: 2048
>>>>>Begin Processed Spectral Data<<<<<
365.73	145.11
365.92	145.11
366.12	145.11
366.32	42.13
366.52	44.47
366.72	74.90
366.91	65.54
367.11	0.00
367.31	0.00
367.51	9.36
367.70	35.11
367.90	35.11
368.10	18.72
368.30	49.15
368.49	0.00
368.69	39.79
368.89	18.72
369.09	0.00
369.28	65.54
369.48	67.88
369.68	93.62
369.87	14.04
370.07	149.79
370.27	184.90
370.47	187.24
370.66	341.72
370.86	315.97
371.06	486.83
371.25	519.60
371.45	400.23
371.65	447.04
371.84	444.70
372.04	440.02
372.24	463.43
372.44	521.94
372.63	491.51
372.83	524.28
373.03	400.23
373.22	512.58
373.42	454.06
373.62	566.41
373.81	465.77
374.01	517.26
374.21	517.26
374.40	512.58
374.60	461.09
374.79	524.28
374.99	589.82
375.19	655.35
375.38	543.00
375.58	617.90
375.78	540.66
375.97	491.51
376.17	606.20
376.37	596.84
376.56	624.92
376.76	585.13
376.95	580.45
377.15	589.82
377.35	627.26
377.54	645.99
377.74	622.58
377.93	617.90
378.13	589.82
378.33	683.44
378.52	568.75
378.72	650.67
378.91	589.82
379.11	653.01
379.31	636.63
379.50	603.86
379.70	699.82
379.89	650.67
380.09	620.24
380.28	638.97
380.48	723.23
380.68	641.31
380.87	587.47
381.07	718.54
381.26	713.86
381.46	718.54
381.65	667.05
381.85	702.16
382.04	718.54
382.24	727.91
382.43	725.57
382.63	711.52
382.83	702.16
383.02	723.23
383.22	788.76
383.41	683.44
383.61	723.23
383.80	774.72
384.00	695.14
384.19	711.52
384.39	793.44
384.58	723.23
384.78	725.57
384.97	753.65
385.17	863.66
385.36	814.51
385.56	732.59
385.75	706.84
385.95	755.99
386.14	758.33
386.34	788.76
386.53	791.10
386.72	866.00
386.92	833.23
387.11	833.23
387.31	835.57
387.50	805.14
387.70	793.44
387.89	861.32
388.09	889.40
388.28	784.08
388.48	837.91
388.67	903.45
388.86	814.51
389.06	917.49
389.25	992.39
389.45	1008.77
389.64	905.79
389.84	973.66
390.03	931.53
390.22	961.96
390.42	968.98
390.61	875.36
390.81	966.64
391.00	976.00
391.19	1078.99
391.39	976.00
391.58	978.34
391.78	994.73
391.97	1025.15
392.16	985.37
392.36	1039.20
392.55	1032.18
392.75	980.68
392.94	943.24
393.13	957.28
393.33	947.92
393.52	980.68
393.71	1146.86
393.91	978.34
394.10	1060.26
394.29	1032.18
394.49	1022.81
394.68	1095.37
394.88	1137.50
395.07	1151.54
395.26	1181.97
395.46	1132.82
395.65	1177.29
395.84	1188.99
396.04	1226.44
396.23	1172.61
396.42	1078.99
396.62	1111.75
396.81	1064.94
397.00	1151.54
397.19	1149.20
397.39	1256.87
397.58	1172.61
397.77	1308.36
397.97	1247.51
398.16	1313.04
398.35	1380.92
398.55	1401.98
398.74	1425.39
398.93	1437.09
399.12	1324.74
399.32	1263.89
399.51	1437.09
399.70	1451.13
399.90	1399.64
400.09	1399.64
400.28	1474.54
400.47	1320.06
400.67	1514.33
400.86	1558.80
401.05	1439.43
401.24	1533.05
401.44	1439.43
401.63	1596.25
401.82	1537.73
402.01	1624.33
402.21	1561.14
402.40	1647.74
402.59	1626.67
402.78	1589.22
402.97	1692.21
403.17	1710.93
403.36	1589.22
403.55	1624.33
403.74	1678.16
403.93	1699.23
404.13	1708.59
404.32	1680.50
404.51	1736.68
404.70	1699.23
404.89	1818.60
405.09	1788.17
405.28	1755.40
405.47	1820.94
405.66	1748.38
405.85	1827.96
406.05	1905.20
406.24	1834.98
406.43	1804.55
406.62	1886.47
406.81	1895.83
407.00	1930.94
407.20	1837.32
407.39	2003.50
407.58	1947.33
407.77	2017.54
407.96	2083.08
408.15	2085.42
408.34	1987.11
408.54	2064.35
408.73	2172.02
408.92	2200.10
409.11	2083.08
409.30	2120.53
409.49	2092.44
409.68	2062.01
409.87	2057.33
410.07	2167.34
410.26	2291.38
410.45	2284.36
410.64	2146.27
410.83	2221.17
411.02	2319.47
411.21	2373.30
411.40	2380.32
411.59	2307.77
411.78	2286.70
411.98	2473.95
412.17	2490.33
412.36	2417.77
412.55	2438.84
412.74	2492.67
412.93	2511.39
413.12	2530.12
413.31	2726.72
413.50	2530.12
413.69	2551.18
413.88	2670.55
414.07	2525.44
414.26	2738.43
414.45	2686.94
414.64	2658.85
414.83	2890.56
415.02	2768.85
415.22	2862.48
415.41	2841.41
415.60	2951.42
415.79	2981.84
415.98	2878.86
416.17	2953.76
416.36	2944.39
416.55	2942.05
416.74	3009.93
416.93	3023.97
417.12	3026.31
417.31	3052.06
417.50	3082.49
417.69	3171.43
417.88	3185.47
418.07	3251.00
418.26	3166.74
418.45	3262.71
418.64	3417.18
418.83	3311.86
419.02	3276.75
419.21	3403.14
419.39	3358.67
419.58	3363.35
419.77	3368.03
419.96	3407.82
420.15	3492.08
420.34	3307.18
420.53	3447.61
420.72	3564.64
420.91	3576.34
421.10	3517.83
421.29	3496.76
421.48	3569.32
421.67	3550.59
421.86	3494.42
422.05	3576.34
422.24	3597.40
422.43	3466.33
422.61	3658.26
422.80	3473.36
422.99	3723.79
423.18	3616.13
423.37	3676.98
423.56	3735.50
423.75	3578.68
423.94	3585.70
424.13	3466.33
424.32	3527.19
424.50	3667.62
424.69	3728.47
424.88	3630.17
425.07	3646.55
425.26	3693.37
425.45	3740.18
425.64	3707.41
425.83	3651.24
426.01	3803.37
426.20	3637.19
426.39	3735.50
426.58	3826.78
426.77	3686.34
426.96	3686.34
427.15	3672.30
427.33	3742.52
427.52	3880.61
427.71	3861.88
427.90	3803.37
428.09	3920.40
428.28	4037.42
428.46	3911.04
428.65	3735.50
428.84	4140.41
429.03	4077.21
429.22	3955.51
429.40	3995.29
429.59	3852.52
429.78	3627.83
429.97	3712.09
430.16	3768.26
430.34	3992.95
430.53	4060.83
430.72	3943.80
430.91	3997.64
431.10	4060.83
431.28	4191.90
431.47	4208.28
431.66	4477.44
431.85	4287.86
432.03	4348.72
432.22	4337.01
432.41	4304.25
432.60	4280.84
432.79	4283.18
432.97	4383.82
433.16	4388.50
433.35	4311.27
433.54	4311.27
433.72	4329.99
433.91	4262.12
434.10	4423.61
434.28	4477.44
434.47	4568.73
434.66	4510.21
434.85	4535.96
435.03	4648.30
435.22	4461.06
435.41	4753.63
435.59	4620.22
435.78	4657.67
435.97	4760.65
436.16	4641.28
436.34	4781.71
436.53	4755.97
436.72	4880.02
436.90	4695.11
437.09	4945.55
437.28	4643.62
437.46	4880.02
437.65	4800.44
437.84	4854.27
438.02	4786.40
438.21	4791.08
438.40	4901.08
438.58	5064.92
438.77	5053.22
438.96	5172.58
439.14	5242.80
439.33	5366.85
439.52	5177.26
439.70	5437.06
439.89	5324.72
440.08	5401.96
440.26	5308.34
440.45	5371.53
440.63	5441.75
440.82	5476.85
441.01	5579.84
441.19	5659.42
441.38	5579.84
441.57	5673.46
441.75	5760.06
441.94	5767.08
442.12	5760.06
442.31	5841.98
442.50	5926.24
442.68	5832.62
442.87	5914.53
443.05	5902.83
443.24	5888.79
443.43	5942.62
443.61	5921.56
443.80	6038.58
443.98	5919.21
444.17	5703.89
444.35	6033.90
444.54	6125.18
444.73	5825.59
444.91	5982.41
445.10	6157.95
445.28	6176.67
445.47	5970.71
445.65	6040.92
445.84	6230.51
446.02	6097.10
446.21	5909.85
446.39	6136.88
446.58	6162.63
446.77	6253.91
446.95	6017.52
447.14	6211.78
447.32	6218.80
447.51	6193.06
447.69	6298.38
447.88	6127.52
448.06	6244.55
448.25	6368.60
448.43	6155.61
448.62	6249.23
448.80	6375.62
448.99	6366.26
449.17	6223.48
449.36	6368.60
449.54	6567.54
449.73	6534.78
449.91	6602.65
450.10	6604.99
450.28	6864.79
450.46	6661.16
450.65	6527.75
450.83	6782.87
451.02	6415.41
451.20	6747.76
451.39	6689.25
451.57	6537.12
451.76	6663.51
451.94	6686.91
452.13	6876.49
452.31	6743.08
452.49	6635.42
452.68	6752.45
452.86	6689.25
453.05	6890.54
453.23	6787.55
453.42	6752.45
453.60	6796.92
453.78	6946.71
453.97	6862.45
454.15	6972.46
454.34	6815.64
454.52	6867.13
454.70	7075.44
454.89	7211.19
455.07	6909.26
455.26	7070.76
455.44	6963.09
455.62	7215.87
455.81	7122.25
455.99	7339.92
456.17	7293.11
456.36	7250.98
456.54	7419.50
456.73	7527.16
456.91	7648.87
457.09	7644.19
457.28	7583.34
457.46	7410.14
457.64	7569.29
457.83	7489.71
458.01	7534.18
458.19	7735.47
458.38	7801.01
458.56	7796.32
458.74	7796.32
458.93	7691.00
459.11	7829.09
459.29	7765.90
459.48	7672.28
459.66	7878.24
459.84	7735.47
460.03	7983.57
460.21	7801.01
460.39	8006.97
460.57	7999.95
460.76	7817.39
460.94	8093.57
461.12	7946.12
461.31	8128.68
461.49	8128.68
461.67	8028.04
461.85	8241.03
462.04	8002.29
462.22	8259.75
462.40	8336.99
462.59	8482.10
462.77	8358.05
462.95	8388.48
463.13	8133.36
463.32	8320.60
463.50	8493.80
463.68	8435.29
463.86	8439.97
464.05	8608.49
464.23	8510.19
464.41	8407.20
464.59	8383.80
464.78	8638.92
464.96	8521.89
465.14	8362.73
465.32	8732.54
465.50	8531.25
465.69	8734.88
465.87	8517.21
466.05	8437.63
466.23	8706.79
466.41	8610.83
466.60	8636.58
466.78	8737.22
466.96	8667.00
467.14	8746.58
467.32	8917.44
467.51	9062.55
467.69	8491.46
467.87	8678.71
468.05	9034.47
468.23	8891.70
468.41	8760.63
468.60	8926.80
468.78	8978.30
468.96	8795.73
469.14	9078.94
469.32	9100.00
469.50	8692.75
469.69	8973.61
469.87	8990.00
470.05	9357.46
470.23	9280.22
470.41	9366.82
470.59	9291.93
470.77	9210.01
470.95	9317.67
471.14	9678.12
471.32	9451.08
471.50	9638.33
471.68	9844.29
471.86	9760.03
472.04	9614.92
472.22	9905.15
472.40	9579.81
472.58	9806.84
472.77	9643.01
472.95	9900.47
473.13	10167.29
473.31	9994.09
473.49	9975.36
473.67	10064.30
473.85	10043.24
474.03	10253.89
474.21	10183.67
474.39	10340.49
474.57	10256.23
474.75	10193.03
474.93	10532.41
475.12	10546.45
475.30	10651.78
475.48	10611.99
475.66	10682.20
475.84	10658.80
476.02	10930.30
476.20	10897.53
476.38	10984.13
476.56	11185.42
476.74	11084.78
476.92	11077.76
477.10	11173.72
477.28	11272.02
477.46	11375.00
477.64	11639.48
477.82	11630.12
478.00	11896.94
478.18	11812.68
478.36	11674.59
478.54	11822.05
478.72	12121.63
478.90	11950.78
479.08	12205.89
479.26	12535.91
479.44	12423.56
479.62	12507.82
479.80	12882.31
479.98	12505.48
480.16	13015.72
480.34	12868.27
480.52	13029.76
480.70	12786.35
480.88	12908.05
481.06	12999.34
481.24	12856.56
481.41	13212.32
481.59	13619.58
481.77	13640.64
481.95	13544.68
482.13	13429.99
482.31	13748.31
482.49	13841.93
482.67	14054.92
482.85	14057.26
483.03	14349.82
483.21	14331.10
483.39	14647.07
483.57	14335.78
483.74	14417.70
483.92	14792.19
484.10	14384.93
484.28	14766.44
484.46	14913.89
484.64	15435.83
484.82	14923.26
485.00	15147.95
485.18	15499.03
485.35	15777.55
485.53	15094.11
485.71	15496.69
485.89	15730.74
486.07	15620.74
486.25	15833.72
486.43	16170.76
486.61	16362.69
486.78	16402.47
486.96	16552.27
487.14	16545.25
487.32	16884.62
487.50	16947.82
487.68	17020.38
487.85	17149.11
488.03	17385.50
488.21	17837.22
488.39	17441.67
488.57	17568.06
488.75	17729.56
488.92	18129.79
489.10	17977.65
489.28	18122.77
489.46	18707.90
489.64	18490.23
489.81	18970.04
489.99	19129.20
490.17	19349.21
490.35	19403.04
490.53	19295.38
490.70	19417.08
490.88	19241.54
491.06	19538.79
491.24	19400.70
491.41	19487.30
491.59	19749.44
491.77	19840.72
491.95	19976.47
492.13	20130.95
492.30	20341.60
492.48	20493.73
492.66	20498.41
492.84	20617.78
493.01	20868.22
493.19	20875.24
493.37	21010.99
493.54	21036.74
493.72	21348.03
493.90	21514.20
494.08	21575.06
494.25	21542.29
494.43	21837.20
494.61	22157.85
494.79	22342.75
494.96	22223.39
495.14	22309.99
495.32	22277.22
495.49	22553.40
495.67	22452.76
495.85	22546.38
496.02	23080.02
496.20	22965.34
496.38	23117.47
496.55	23302.37
496.73	23761.12
496.91	23543.45
497.09	23690.90
497.26	23665.16
497.44	23735.37
497.62	23569.19
497.79	24477.32
497.97	23843.04
498.14	24065.39
498.32	24243.27
498.50	24180.07
498.67	24489.03
498.85	24671.59
499.03	24737.12
499.20	24592.01
499.38	24929.05
499.56	24772.23
499.73	25123.31
499.91	25350.34
500.08	25256.72
500.26	24924.36
500.44	25373.75
500.61	25771.64
500.79	25383.11
500.97	25532.90
501.14	25975.27
501.32	25802.07
501.49	25582.06
501.67	25624.18
501.84	25989.31
502.02	25851.22
502.20	26101.65
502.37	26452.73
502.55	26478.48
502.72	27023.83
502.90	26553.38
503.07	26735.94
503.25	26796.79
503.43	26221.02
503.60	27044.89
503.78	26941.91
503.95	26972.33
504.13	27173.62
504.30	27262.56
504.48	27367.88
504.65	27505.98
504.83	27505.98
505.01	27630.02
505.18	27826.63
505.36	28095.79
505.53	27709.60
505.71	28161.33
505.88	27948.34
506.06	28074.73
506.23	28053.66
506.41	28374.31
506.58	28205.80
506.76	28512.41
506.93	28463.25
507.11	28510.07
507.28	28166.01
507.46	28320.48
507.63	28526.45
507.81	28788.59
507.98	28577.94
508.16	29048.39
508.33	29118.60
508.50	29099.88
508.68	29055.41
508.85	29607.78
509.03	29303.51
509.20	29422.87
509.38	30043.12
509.55	29766.93
509.73	29886.30
509.90	29970.56
510.08	29591.39
510.25	29755.23
510.42	30302.92
510.60	30258.45
510.77	30291.21
510.95	30419.94
511.12	30213.98
511.30	30740.60
511.47	30586.12
511.64	30829.54
511.82	31140.83
511.99	30536.97
512.17	30829.54
512.34	30508.88
512.51	31070.61
512.69	31468.50
512.86	31009.76
513.04	31419.35
513.21	31110.40
513.38	31414.67
513.56	31690.85
513.73	31189.98
513.90	31508.29
514.08	31665.11
514.25	31917.89
514.43	31674.47
514.60	31768.09
514.77	31761.07
514.95	31969.38
515.12	32297.05
515.29	32140.24
515.47	32524.08
515.64	32507.70
515.81	32510.04
515.99	32077.04
516.16	32503.02
516.33	32393.01
516.51	32451.53
516.68	32126.19
516.85	31796.18
517.03	31960.02
517.20	32615.37
517.37	32877.51
517.54	32783.88
517.72	32788.56
517.89	32631.75
518.06	32800.27
518.24	32924.32
518.41	32615.37
518.58	33010.92
518.75	33153.69
518.93	33577.33
519.10	33354.97
519.27	33991.60
519.45	33432.21
519.62	33865.21
519.79	33951.81
519.96	33546.90
520.14	34197.57
520.31	33972.88
520.48	33687.33
520.65	34450.35
520.83	34412.90
521.00	34443.32
521.17	34012.66
521.34	34368.43
521.52	34665.67
521.69	34267.78
521.86	34644.61
522.03	35145.48
522.20	34567.37
522.38	35033.14
522.55	34686.74
522.72	34462.05
522.89	34649.29
523.07	34923.13
523.24	35033.14
523.41	35211.02
523.58	35386.56
523.75	35739.98
523.92	35363.15
524.10	35625.29
524.27	35943.61
524.44	35548.06
524.61	35938.93
524.78	35981.06
524.96	36112.13
525.13	36360.22
525.30	35880.41
525.47	36261.92
525.64	36432.78
525.81	36294.69
525.98	36006.80
526.16	36051.27
526.33	35641.68
526.50	36364.90
526.67	36062.97
526.84	36137.87
527.01	36116.81
527.18	36271.28
527.36	36753.43
527.53	36715.98
527.70	36748.75
527.87	36924.29
528.04	37076.43
528.21	37139.62
528.38	37097.49
528.55	37003.87
528.72	37036.64
528.89	37448.57
529.07	37251.97
529.24	37244.94
529.41	37275.37
529.58	37125.58
529.75	36950.04
529.92	37376.01
530.09	37584.32
530.26	37387.72
530.43	37544.53
530.60	37544.53
530.77	37572.62
530.94	37703.69
531.11	37565.60
531.28	38057.11
531.46	38225.63
531.63	37514.11
531.80	37832.42
531.97	38445.64
532.14	38302.87
532.31	37523.47
532.48	38312.23
532.65	38054.77
532.82	38288.82
532.99	38073.49
533.16	37804.33
533.33	38686.71
533.50	38415.21
533.67	39044.82
533.84	38483.09
534.01	38279.46
534.18	38677.35
534.35	38829.49
534.52	38529.90
534.69	39007.37
534.86	39096.31
535.03	38780.34
535.20	39311.64
535.37	39608.89
535.54	39728.25
535.71	39468.45
535.88	39157.16
536.05	39178.23
536.22	39203.97
536.38	38857.57
536.55	39374.83
536.72	39248.44
536.89	39054.18
537.06	39342.06
537.23	39796.13
537.40	39576.12
537.57	39316.32
537.74	39704.85
537.91	39828.90
538.08	39503.56
538.25	39585.48
538.42	39463.77
538.59	40151.89
538.75	39573.78
538.92	39222.70
539.09	39772.72
539.26	39882.73
539.43	39938.90
539.60	40088.70
539.77	40032.52
539.94	40116.78
540.11	39840.60
540.28	39847.62
540.44	40020.82
540.61	40116.78
540.78	40341.47
540.95	40231.47
541.12	40076.99
541.29	39899.11
541.46	40854.05
541.62	39931.88
541.79	40404.67
541.96	40458.50
542.13	40748.73
542.30	40584.89
542.47	40664.47
542.63	40119.12
542.80	40938.31
542.97	41319.82
543.14	41516.42
543.31	41127.89
543.48	41193.43
543.64	41858.14
543.81	41514.08
543.98	41624.09
544.15	41542.17
544.32	41521.10
544.48	41649.83
544.65	41507.06
544.82	41317.48
544.99	41165.34
545.16	41322.16
545.32	41151.30
545.49	42010.28
545.66	41933.04
545.83	41841.76
546.00	41476.63
546.16	41673.24
546.33	41104.49
546.50	41352.58
546.67	41673.24
546.83	42019.64
547.00	42000.91
547.17	41626.43
547.34	41567.91
547.50	41556.21
547.67	42117.94
547.84	41900.27
548.00	41989.21
548.17	42190.50
548.34	42384.76
548.51	42302.84
548.67	42192.84
548.84	42387.10
549.01	42644.56
549.18	42012.62
549.34	41897.93
549.51	42349.65
549.68	42745.20
549.84	42459.66
550.01	42792.01
550.18	42445.62
550.34	42670.31
550.51	42794.36
550.68	42829.46
550.84	42424.55
551.01	42768.61
551.18	42157.73
551.34	42932.45
551.51	42958.19
551.68	42646.90
551.84	42590.73
552.01	42539.24
552.18	42550.94
552.34	42714.78
552.51	42628.18
552.68	43112.67
552.84	43381.83
553.01	43386.51
553.18	43051.81
553.34	43115.01
553.51	43100.97
553.67	43054.15
553.84	43498.86
554.01	42817.76
554.17	43559.71
554.34	43323.32
554.51	43189.91
554.67	43742.27
554.84	43536.30
555.00	42946.49
555.17	43152.46
555.33	43138.41
555.50	43264.80
555.67	43161.82
555.83	43580.78
556.00	43559.71
556.16	43817.17
556.33	43482.47
556.50	43639.29
556.66	43688.44
556.83	43377.15
556.99	43566.73
557.16	44105.06
557.32	43643.97
557.49	43697.80
557.65	43407.58
557.82	43646.31
557.98	43627.59
558.15	43721.21
558.32	43756.32
558.48	43655.67
558.65	43702.48
558.81	43896.75
558.98	43803.13
559.14	43929.51
559.31	43356.08
559.47	43845.26
559.64	43880.36
559.80	44002.07
559.97	44079.31
560.13	43775.04
560.30	44069.95
560.46	43812.49
560.63	44065.27
560.79	44154.21
560.96	44383.58
561.12	44156.55
561.29	43878.02
561.45	44226.76
561.61	44247.83
561.78	44098.03
561.94	43805.47
562.11	44098.03
562.27	44406.98
562.44	44381.24
562.60	44376.56
562.77	44751.04
562.93	44201.02
563.10	44479.54
563.26	43831.21
563.42	44563.80
563.59	44285.28
563.75	43763.34
563.92	44732.32
564.08	44622.31
564.24	44308.68
564.41	44467.84
564.57	44306.34
564.74	44294.64
564.90	44215.06
565.07	44105.06
565.23	44020.80
565.39	44425.71
565.56	44734.66
565.72	44697.21
565.88	44175.27
566.05	44715.93
566.21	44346.13
566.38	44301.66
566.54	44395.28
566.70	44797.85
566.87	45207.45
567.03	44816.58
567.19	44868.07
567.36	44385.92
567.52	44432.73
567.68	44905.52
567.85	44254.85
568.01	44720.62
568.17	44495.92
568.34	44575.50
568.50	44648.06
568.66	44444.43
568.83	44575.50
568.99	44474.86
569.15	44711.25
569.32	44612.95
569.48	44395.28
569.64	44568.48
569.81	44573.16
569.97	44605.93
570.13	44657.42
570.30	44296.98
570.46	44704.23
570.62	44685.51
570.78	44369.54
570.95	44233.78
571.11	44945.31
571.27	44381.24
571.43	44683.17
571.60	44634.02
571.76	44329.75
571.92	44772.11
572.09	44406.98
572.25	44226.76
572.41	44786.15
572.57	45008.50
572.74	44821.26
572.90	44802.53
573.06	44964.03
573.22	44837.64
573.38	44926.58
573.55	44861.05
573.71	45188.72
573.87	44835.30
574.03	44767.43
574.20	45017.86
574.36	44711.25
574.52	45219.15
574.68	45216.81
574.84	44748.70
575.01	44498.26
575.17	45008.50
575.33	44556.78
575.49	44701.89
575.65	44692.53
575.82	44793.17
575.98	45186.38
576.14	45022.54
576.30	45408.73
576.46	44624.65
576.62	44697.21
576.79	44804.88
576.95	44596.57
577.11	45095.10
577.27	44760.40
577.43	45242.56
577.59	44842.32
577.75	44800.19
577.92	44601.25
578.08	44259.53
578.24	44804.88
578.40	44802.53
578.56	45099.78
578.72	45130.21
578.88	45275.32
579.04	45085.74
579.21	44795.51
579.37	45207.45
579.53	44863.39
579.69	44928.92
579.85	45216.81
580.01	45237.87
580.17	44655.08
580.33	45331.50
580.49	45343.20
580.65	45137.23
580.82	44992.12
580.98	44966.37
581.14	44975.73
581.30	45195.74
581.46	45404.05
581.62	45036.59
581.78	44847.00
581.94	45277.66
582.10	45074.04
582.26	45074.04
582.42	45411.07
582.58	44973.39
582.74	44486.56
582.90	45385.33
583.06	45280.00
583.22	45319.79
583.38	45382.99
583.54	45298.73
583.70	45256.60
583.86	45226.17
584.02	44746.36
584.18	45134.89
584.34	45071.70
584.50	44980.42
584.66	45148.93
584.82	44811.90
584.98	45162.98
585.14	45205.11
585.30	45160.64
585.46	45579.59
585.62	44912.54
585.78	45586.61
585.94	44491.24
586.10	45120.85
586.26	45193.40
586.42	45170.00
586.58	45336.18
586.74	45425.12
586.90	45113.83
587.06	45050.63
587.22	45022.54
587.38	44933.60
587.54	45179.36
587.70	45406.39
587.86	45572.57
588.02	45394.69
588.18	45448.52
588.34	45003.82
588.49	44854.03
588.65	44746.36
588.81	44807.22
588.97	44465.50
589.13	45010.84
589.29	45373.63
589.45	44933.60
589.61	44980.42
589.77	45045.95
589.93	45471.93
590.08	45563.21
590.24	45207.45
