SpectraSuite Data File
++++++++++++++++++++++++++++++++++++
Date: Fri Oct 25 10:44:01 EDT 2013
User: price-jones
Dark Spectrum Present: No
Reference Spectrum Present: No
Number of Sampled Component Spectra: 1
Spectrometers: USB2+H05261
Integration Time (usec): 100000 (USB2+H05261)
Spectra Averaged: 1 (USB2+H05261)
Boxcar Smoothing: 0 (USB2+H05261)
Correct for Electrical Dark: No (USB2+H05261)
Strobe/Lamp Enabled: No (USB2+H05261)
Correct for Detector Non-linearity: No (USB2+H05261)
Correct for Stray Light: No (USB2+H05261)
Number of Pixels in Processed Spectrum: 2048
>>>>>Begin Processed Spectral Data<<<<<
365.73	159.16
365.92	159.16
366.12	159.16
366.32	7.02
366.52	121.71
366.72	105.32
366.91	9.36
367.11	79.58
367.31	0.00
367.51	0.00
367.70	0.00
367.90	67.88
368.10	23.41
368.30	0.00
368.49	74.90
368.69	21.06
368.89	105.32
369.09	30.43
369.28	95.96
369.48	53.83
369.68	49.15
369.87	149.79
370.07	74.90
370.27	154.48
370.47	163.84
370.66	330.02
370.86	414.27
371.06	510.24
371.25	456.40
371.45	458.74
371.65	512.58
371.84	472.79
372.04	456.40
372.24	437.68
372.44	421.30
372.63	566.41
372.83	514.92
373.03	463.43
373.22	528.96
373.42	472.79
373.62	472.79
373.81	606.20
374.01	638.97
374.21	550.03
374.40	580.45
374.60	573.43
374.79	491.51
374.99	566.41
375.19	566.41
375.38	603.86
375.58	578.11
375.78	641.31
375.97	615.56
376.17	596.84
376.37	631.94
376.56	725.57
376.76	557.05
376.95	617.90
377.15	622.58
377.35	720.88
377.54	681.10
377.74	638.97
377.93	744.29
378.13	727.91
378.33	716.20
378.52	641.31
378.72	711.52
378.91	690.46
379.11	624.92
379.31	671.73
379.50	695.14
379.70	678.76
379.89	781.74
380.09	720.88
380.28	692.80
380.48	716.20
380.68	706.84
380.87	650.67
381.07	798.12
381.26	718.54
381.46	667.05
381.65	826.21
381.85	737.27
382.04	699.82
382.24	704.50
382.43	711.52
382.63	716.20
382.83	741.95
383.02	837.91
383.22	744.29
383.41	662.37
383.61	676.41
383.80	840.25
384.00	748.97
384.19	795.78
384.39	816.85
384.58	816.85
384.78	833.23
384.97	767.70
385.17	791.10
385.36	830.89
385.56	889.40
385.75	863.66
385.95	877.70
386.14	856.64
386.34	830.89
386.53	856.64
386.72	880.04
386.92	828.55
387.11	854.30
387.31	877.70
387.50	910.47
387.70	805.14
387.89	873.02
388.09	777.06
388.28	898.77
388.48	919.83
388.67	964.30
388.86	959.62
389.06	940.90
389.25	936.21
389.45	1048.56
389.64	978.34
389.84	1050.90
390.03	1041.54
390.22	1020.47
390.42	1060.26
390.61	987.71
390.81	1062.60
391.00	1114.10
391.19	1071.97
391.39	1111.75
391.58	1062.60
391.78	1041.54
391.97	1104.73
392.16	1090.69
392.36	1088.35
392.55	987.71
392.75	1013.45
392.94	978.34
393.13	1004.09
393.33	945.58
393.52	1137.50
393.71	1167.93
393.91	1062.60
394.10	1074.31
394.29	1153.88
394.49	1200.69
394.68	1291.98
394.88	1261.55
395.07	1329.42
395.26	1214.74
395.46	1294.32
395.65	1212.40
395.84	1184.31
396.04	1242.82
396.23	1132.82
396.42	1240.48
396.62	1179.63
396.81	1144.52
397.00	1240.48
397.19	1308.36
397.39	1301.34
397.58	1565.82
397.77	1392.62
397.97	1420.71
398.16	1423.05
398.35	1565.82
398.55	1565.82
398.74	1607.95
398.93	1636.03
399.12	1633.69
399.32	1507.30
399.51	1563.48
399.70	1600.93
399.90	1577.52
400.09	1540.07
400.28	1603.27
400.47	1652.42
400.67	1736.68
400.86	1710.93
401.05	1678.16
401.24	1774.13
401.44	1785.83
401.63	1771.79
401.82	1795.19
402.01	1720.29
402.21	1767.10
402.40	1921.58
402.59	1699.23
402.78	1764.76
402.97	1823.28
403.17	1844.34
403.36	1830.30
403.55	1877.11
403.74	1947.33
403.93	1788.17
404.13	1846.68
404.32	1799.87
404.51	1886.47
404.70	1973.07
404.89	1952.01
405.09	2076.06
405.28	2012.86
405.47	2108.82
405.66	2059.67
405.85	1989.46
406.05	1996.48
406.24	2026.90
406.43	2113.50
406.62	2174.36
406.81	2176.70
407.00	2162.66
407.20	2167.34
407.39	2099.46
407.58	2146.27
407.77	2263.30
407.96	2249.25
408.15	2244.57
408.34	2326.49
408.54	2356.92
408.73	2363.94
408.92	2359.26
409.11	2363.94
409.30	2349.90
409.49	2293.72
409.68	2265.64
409.87	2317.13
410.07	2392.03
410.26	2532.46
410.45	2392.03
410.64	2523.10
410.83	2534.80
411.02	2576.93
411.21	2649.49
411.40	2548.84
411.59	2724.38
411.78	2682.25
411.98	2787.58
412.17	2825.03
412.36	2663.53
412.55	2710.34
412.74	2803.96
412.93	2855.45
413.12	2899.92
413.31	2951.42
413.50	2946.73
413.69	2972.48
413.88	2977.16
414.07	2862.48
414.26	3061.42
414.45	3007.59
414.64	2939.71
414.83	3023.97
415.02	3063.76
415.22	3068.44
415.41	3171.43
415.60	3042.70
415.79	3246.32
415.98	3335.26
416.17	3309.52
416.36	3332.92
416.55	3419.52
416.74	3405.48
416.93	3363.35
417.12	3517.83
417.31	3440.59
417.50	3496.76
417.69	3508.46
417.88	3538.89
418.07	3543.57
418.26	3648.90
418.45	3707.41
418.64	3719.11
418.83	3581.02
419.02	3815.07
419.21	3791.67
419.39	3831.46
419.58	3702.73
419.77	3590.38
419.96	3775.28
420.15	3824.44
420.34	3911.04
420.53	3850.18
420.72	3976.57
420.91	3889.97
421.10	3861.88
421.29	3985.93
421.48	3936.78
421.67	3939.12
421.86	3911.04
422.05	3932.10
422.24	3911.04
422.43	3939.12
422.61	3906.35
422.80	3899.33
422.99	4063.17
423.18	4145.09
423.37	4229.35
423.56	4007.00
423.75	3974.23
423.94	4058.49
424.13	3843.16
424.32	3803.37
424.50	4205.94
424.69	3988.27
424.88	4285.52
425.07	3920.40
425.26	3974.23
425.45	3985.93
425.64	4100.62
425.83	4053.81
426.01	4194.24
426.20	4124.02
426.39	4128.70
426.58	4021.04
426.77	4126.36
426.96	4109.98
427.15	4051.47
427.33	4095.94
427.52	4187.22
427.71	4135.73
427.90	4248.07
428.09	4383.82
428.28	4273.82
428.46	4329.99
428.65	4159.13
428.84	4313.61
429.03	4290.20
429.22	3995.29
429.40	4252.75
429.59	4259.78
429.78	4056.15
429.97	3999.98
430.16	4028.06
430.34	4166.15
430.53	4276.16
430.72	4320.63
430.91	4273.82
431.10	4341.69
431.28	4629.58
431.47	4697.46
431.66	4699.80
431.85	4739.58
432.03	4725.54
432.22	4648.30
432.41	4622.56
432.60	4737.24
432.79	4606.17
432.97	4812.14
433.16	4812.14
433.35	4793.42
433.54	4788.74
433.72	4713.84
433.91	4765.33
434.10	4952.57
434.28	4835.55
434.47	4957.25
434.66	5200.67
434.85	5081.30
435.03	5114.07
435.22	5093.01
435.41	5462.81
435.59	5039.17
435.78	5303.65
435.97	5390.25
436.16	5486.22
436.34	5203.01
436.53	5254.50
436.72	5474.51
436.90	5345.78
437.09	5313.02
437.28	5245.14
437.46	5439.40
437.65	5284.93
437.84	5401.96
438.02	5263.86
438.21	5327.06
438.40	5394.93
438.58	5455.79
438.77	5413.66
438.96	5561.11
439.14	5820.91
439.33	5813.89
439.52	5802.19
439.70	5797.51
439.89	5729.63
440.08	5720.27
440.26	5975.39
440.45	5750.70
440.63	6073.69
440.82	6139.23
441.01	6207.10
441.19	6211.78
441.38	6216.46
441.57	6218.80
441.75	6429.45
441.94	6331.15
442.12	6424.77
442.31	6452.86
442.50	6471.58
442.68	6466.90
442.87	6270.30
443.05	6483.28
443.24	6628.40
443.43	6677.55
443.61	6492.65
443.80	6815.64
443.98	6612.01
444.17	6410.73
444.35	6642.44
444.54	6710.32
444.73	6677.55
444.91	6579.25
445.10	6722.02
445.28	6445.84
445.47	6420.09
445.65	6539.46
445.84	6689.25
446.02	6705.63
446.21	6817.98
446.39	6693.93
446.58	6897.56
446.77	6897.56
446.95	6810.96
447.14	6902.24
447.32	6881.18
447.51	6972.46
447.69	6722.02
447.88	6750.10
448.06	6668.19
448.25	6850.75
448.43	6913.94
448.62	7054.37
448.80	7016.93
448.99	6789.89
449.17	6995.86
449.36	7073.10
449.54	7133.95
449.73	7311.83
449.91	7286.09
450.10	7204.17
450.28	7653.55
450.46	7353.96
450.65	7414.82
450.83	7206.51
451.02	7253.32
451.20	7487.37
451.39	7515.46
451.57	7382.05
451.76	7309.49
451.94	7541.21
452.13	7454.61
452.31	7370.35
452.49	7145.66
452.68	7178.42
452.86	7456.95
453.05	7473.33
453.23	7281.41
453.42	7433.54
453.60	7384.39
453.78	7707.38
453.97	7531.84
454.15	7613.76
454.34	7478.01
454.52	7765.90
454.70	7667.60
454.89	7789.30
455.07	7831.43
455.26	7927.39
455.44	7953.14
455.62	7950.80
455.81	7997.61
455.99	7934.42
456.17	7899.31
456.36	7997.61
456.54	8196.56
456.73	8229.32
456.91	8395.50
457.09	8226.98
457.28	8402.52
457.46	8278.47
457.64	8439.97
457.83	8280.82
458.01	8105.28
458.19	8332.31
458.38	8585.08
458.56	8360.39
458.74	8374.44
458.93	8524.23
459.11	8592.11
459.29	8397.84
459.48	8451.67
459.66	8711.47
459.84	8692.75
460.03	8805.10
460.21	8798.07
460.39	8610.83
460.57	8662.32
460.76	8833.18
460.94	8767.65
461.12	8908.08
461.31	8990.00
461.49	8959.57
461.67	8652.96
461.85	9146.81
462.04	9006.38
462.22	9579.81
462.40	9263.84
462.59	9029.79
462.77	9092.98
462.95	9301.29
463.13	9163.20
463.32	8938.51
463.50	9172.56
463.68	9219.37
463.86	9214.69
464.05	9252.14
464.23	9039.15
464.41	9364.48
464.59	9088.30
464.78	9387.89
464.96	9359.80
465.14	9310.65
465.32	9376.19
465.50	9645.35
465.69	9568.11
465.87	9352.78
466.05	9568.11
466.23	9408.95
466.41	9420.66
466.60	9575.13
466.78	9376.19
466.96	9329.38
467.14	9439.38
467.32	9451.08
467.51	9745.99
467.69	9502.58
467.87	9764.72
468.05	9624.28
468.23	9652.37
468.41	9799.82
468.60	9783.44
468.78	9792.80
468.96	9757.69
469.14	9900.47
469.32	10026.86
469.50	9605.56
469.69	9942.60
469.87	9980.04
470.05	9975.36
470.23	10012.81
470.41	9914.51
470.59	10162.61
470.77	10047.92
470.95	10076.01
471.14	10424.75
471.32	10253.89
471.50	10445.81
471.68	10623.69
471.86	10689.23
472.04	10588.58
472.22	10984.13
472.40	10700.93
472.58	10375.59
472.77	10686.89
472.95	10590.92
473.13	11300.11
473.31	10956.05
473.49	10628.37
473.67	10789.87
473.85	10995.84
474.03	11351.60
474.21	11335.21
474.39	11396.07
474.57	11265.00
474.75	11318.83
474.93	11693.32
475.12	11365.64
475.30	11447.56
475.48	11597.35
475.66	11412.45
475.84	11342.24
476.02	11705.02
476.20	11676.93
476.38	11939.07
476.56	12278.45
476.74	11913.33
476.92	12135.68
477.10	12210.57
477.28	12446.97
477.46	12283.13
477.64	12531.23
477.82	12784.01
478.00	12762.94
478.18	13025.08
478.36	13020.40
478.54	13160.83
478.72	13069.55
478.90	13242.75
479.08	13291.90
479.26	13401.91
479.44	13425.31
479.62	13455.74
479.80	13565.74
479.98	13558.72
480.16	13813.84
480.34	13858.31
480.52	14047.90
480.70	14106.41
480.88	14108.75
481.06	13970.66
481.24	14031.51
481.41	14579.20
481.59	14717.29
481.77	14757.08
481.95	14988.79
482.13	14853.04
482.31	14937.30
482.49	15152.63
482.67	15070.71
482.85	15442.85
483.03	15604.35
483.21	15754.15
483.39	15941.39
483.57	15606.69
483.74	16056.08
483.92	16210.55
484.10	15997.56
484.28	16388.43
484.46	16512.48
484.64	16673.98
484.82	16329.92
485.00	16442.26
485.18	16615.46
485.35	16856.54
485.53	16346.30
485.71	16365.03
485.89	16760.58
486.07	16732.49
486.25	17104.64
486.43	17221.66
486.61	17418.27
486.78	17774.03
486.96	17638.28
487.14	17827.86
487.32	17874.67
487.50	18363.84
487.68	18377.89
487.85	18621.30
488.03	18890.46
488.21	19073.03
488.39	18930.25
488.57	19220.48
488.75	19215.80
488.92	19487.30
489.10	19531.77
489.28	19946.05
489.46	20219.89
489.64	20269.04
489.81	20765.23
489.99	21109.29
490.17	20489.05
490.35	20514.80
490.53	20711.40
490.70	20968.86
490.88	21060.14
491.06	21441.65
491.24	21301.22
491.41	21301.22
491.59	21216.96
491.77	21289.51
491.95	21441.65
492.13	21823.16
492.30	21994.01
492.48	21982.31
492.66	22347.44
492.84	22239.77
493.01	22506.59
493.19	22354.46
493.37	22773.41
493.54	22890.44
493.72	23061.30
493.90	23063.64
494.08	23531.75
494.25	23541.11
494.43	23695.58
494.61	23871.12
494.79	23943.68
494.96	23864.10
495.14	24013.90
495.32	24191.78
495.49	24135.60
495.67	24240.93
495.85	24512.43
496.02	24882.24
496.20	24767.55
496.38	25017.99
496.55	24809.68
496.73	25717.81
496.91	25326.94
497.09	25825.47
497.26	25773.98
497.44	25504.82
497.62	25951.86
497.79	26199.96
497.97	25614.82
498.14	26127.40
498.32	26059.52
498.50	26106.34
498.67	26632.96
498.85	26672.74
499.03	26911.48
499.20	26960.63
499.38	27136.17
499.56	27234.47
499.73	27070.64
499.91	27447.46
500.08	27297.67
500.26	27058.93
500.44	27126.81
500.61	27447.46
500.79	27288.31
500.97	27337.46
501.14	27878.12
501.32	27964.72
501.49	27840.67
501.67	28105.15
501.84	27990.47
502.02	28273.67
502.20	28187.07
502.37	28528.79
502.55	28498.36
502.72	28783.91
502.90	28421.13
503.07	28243.24
503.25	28687.95
503.43	28526.45
503.60	28484.32
503.78	28673.90
503.95	28566.24
504.13	29088.18
504.30	29500.11
504.48	29397.13
504.65	29563.31
504.83	29551.60
505.01	29685.01
505.18	29862.90
505.36	30340.36
505.53	30073.54
505.71	30103.97
505.88	30597.82
506.06	30071.20
506.23	30417.60
506.41	29984.60
506.58	30448.03
506.76	30380.15
506.93	30663.36
507.11	30501.86
507.28	30726.55
507.46	30583.78
507.63	30691.44
507.81	30476.12
507.98	30635.27
508.16	30991.03
508.33	31166.57
508.50	31545.74
508.68	31695.53
508.85	31758.73
509.03	31573.83
509.20	31538.72
509.38	31459.14
509.55	31777.45
509.73	31952.99
509.90	32292.37
510.08	31730.64
510.25	32442.17
510.42	32058.32
510.60	32367.27
510.77	32423.44
510.95	32577.92
511.12	32449.19
511.30	32833.04
511.47	32858.78
511.64	33010.92
511.82	33354.97
511.99	32938.36
512.17	33362.00
512.34	33422.85
512.51	33254.33
512.69	32929.00
512.86	32760.48
513.04	33249.65
513.21	33472.00
513.38	33125.60
513.56	33352.63
513.73	33273.06
513.90	33720.10
514.08	33802.02
514.25	33865.21
514.43	33670.95
514.60	33970.54
514.77	34117.99
514.95	34256.08
515.12	34110.97
515.29	34293.53
515.47	34859.94
515.64	34583.76
515.81	34183.52
515.99	34558.01
516.16	34693.76
516.33	34377.79
516.51	34218.63
516.68	33649.88
516.85	34029.05
517.03	34202.25
517.20	34480.77
517.37	34827.17
517.54	35332.73
517.72	35468.48
517.89	34361.40
518.06	34670.36
518.24	34899.73
518.41	34712.49
518.58	34948.88
518.75	35421.67
518.93	35885.09
519.10	35655.72
519.27	35646.36
519.45	35716.58
519.62	35943.61
519.79	35934.24
519.96	36051.27
520.14	36037.23
520.31	35742.32
520.48	36243.20
520.65	36336.82
520.83	36559.17
521.00	36313.41
521.17	36683.22
521.34	36708.96
521.52	36627.04
521.69	36800.24
521.86	36903.23
522.03	37436.87
522.20	36912.59
522.38	36748.75
522.55	37158.34
522.72	36999.19
522.89	36975.78
523.07	37069.40
523.24	37247.29
523.41	37858.17
523.58	37467.30
523.75	38227.97
523.92	37846.46
524.10	38476.07
524.27	38234.99
524.44	38359.04
524.61	37909.66
524.78	38227.97
524.96	38124.99
525.13	38384.79
525.30	38330.95
525.47	38501.81
525.64	38471.39
525.81	37933.06
525.98	38319.25
526.16	37769.22
526.33	37745.82
526.50	38230.31
526.67	37972.85
526.84	38410.53
527.01	38197.54
527.18	38408.19
527.36	38871.62
527.53	39042.48
527.70	39510.58
527.87	39491.86
528.04	38614.16
528.21	38967.58
528.38	39517.60
528.55	39555.05
528.72	39906.13
528.89	40076.99
529.07	39351.43
529.24	39629.95
529.41	39618.25
529.58	39431.01
529.75	39103.33
529.92	39697.83
530.09	39611.23
530.26	39871.03
530.43	40172.96
530.60	39976.35
530.77	39875.71
530.94	40046.57
531.11	40198.70
531.28	40360.20
531.46	40044.23
531.63	40603.61
531.80	40456.16
531.97	40037.20
532.14	40229.13
532.31	39643.99
532.48	40280.62
532.65	40601.27
532.82	40444.46
532.99	40376.58
533.16	40484.25
533.33	41048.32
533.50	41020.23
533.67	40744.05
533.84	40360.20
534.01	40453.82
534.18	41027.25
534.35	40905.54
534.52	41216.83
534.69	41132.57
534.86	41270.67
535.03	41495.36
535.20	41827.71
535.37	41378.33
535.54	41923.68
535.71	41055.34
535.88	41212.15
536.05	41394.71
536.22	41354.93
536.38	40940.65
536.55	41439.18
536.72	41600.68
536.89	41624.09
537.06	41574.94
537.23	41834.74
537.40	41790.27
537.57	42033.68
537.74	41677.92
537.91	42094.53
538.08	41621.75
538.25	41673.24
538.42	41806.65
538.59	42113.26
538.75	42059.43
538.92	41806.65
539.09	42181.13
539.26	42029.00
539.43	42000.91
539.60	42368.38
539.77	41806.65
539.94	42047.72
540.11	41926.02
540.28	41670.90
540.44	41841.76
540.61	42249.01
540.78	42176.45
540.95	42120.28
541.12	42190.50
541.29	42422.21
541.46	42410.51
541.62	42389.44
541.79	42717.12
541.96	42101.56
542.13	42630.52
542.30	42501.79
542.47	42714.78
542.63	42375.40
542.80	42759.25
542.97	43344.38
543.14	43533.96
543.31	43475.45
543.48	43306.93
543.64	43775.04
543.81	43805.47
543.98	43505.88
544.15	43267.14
544.32	43482.47
544.48	43672.06
544.65	43903.77
544.82	43999.73
544.99	43639.29
545.16	43627.59
545.32	43728.23
545.49	44079.31
545.66	44266.55
545.83	44196.34
546.00	44140.16
546.16	43676.74
546.33	43456.73
546.50	43295.23
546.67	44102.71
546.83	43753.97
547.00	43653.33
547.17	43964.62
547.34	44210.38
547.50	44107.40
547.67	44542.74
547.84	44055.90
548.00	44439.75
548.17	44114.42
548.34	44353.15
548.51	44236.12
548.67	44512.31
548.84	44488.90
549.01	43814.83
549.18	44570.82
549.34	44182.29
549.51	44734.66
549.68	44697.21
549.84	44250.17
550.01	44835.30
550.18	44549.76
550.34	44718.28
550.51	44491.24
550.68	44858.71
550.84	44402.30
551.01	44900.84
551.18	44662.10
551.34	45350.22
551.51	45359.58
551.68	45132.55
551.84	45406.39
552.01	45031.91
552.18	44938.29
552.34	44439.75
552.51	45001.48
552.68	44896.16
552.84	45310.43
553.01	45492.99
553.18	45057.65
553.34	45118.51
553.51	45146.59
553.67	45240.21
553.84	45305.75
554.01	45722.37
554.17	45511.72
554.34	45240.21
554.51	45521.08
554.67	45893.22
554.84	45652.15
555.00	45322.13
555.17	45151.27
555.33	45731.73
555.50	45415.76
555.67	45174.68
555.83	45818.33
556.00	45607.68
556.16	45588.95
556.33	45212.13
556.50	45645.13
556.66	45677.90
556.83	45476.61
556.99	45778.54
557.16	45783.22
557.32	45986.85
557.49	45785.56
557.65	45542.14
557.82	45464.91
557.98	45935.35
558.15	46028.98
558.32	45743.43
558.48	45600.66
558.65	45935.35
558.81	45752.79
558.98	45897.91
559.14	45801.94
559.31	45280.00
559.47	45860.46
559.64	45904.93
559.80	46197.49
559.97	46146.00
560.13	46225.58
560.30	45815.99
560.46	46218.56
560.63	45977.48
560.79	46270.05
560.96	46473.68
561.12	45893.22
561.29	46150.68
561.45	46085.15
561.61	46330.90
561.78	45820.67
561.94	45911.95
562.11	45708.32
562.27	45776.20
562.44	46108.55
562.60	46571.98
562.77	46422.19
562.93	46466.66
563.10	46440.91
563.26	45474.27
563.42	46066.42
563.59	45958.76
563.75	46164.73
563.92	46314.52
564.08	46546.23
564.24	46492.40
564.41	46710.07
564.57	46230.26
564.74	46312.18
564.90	46405.80
565.07	46461.97
565.23	45886.20
565.39	46309.84
565.56	46115.58
565.72	45752.79
565.88	46396.44
566.05	46176.43
566.21	45897.91
566.38	45876.84
566.54	46277.07
566.70	46497.08
566.87	46536.87
567.03	46295.80
567.19	46965.19
567.36	46506.44
567.52	46546.23
567.68	46354.31
567.85	46202.18
568.01	46618.79
568.17	46408.14
568.34	46256.01
568.50	46204.52
568.66	46590.70
568.83	46614.11
568.99	46368.35
569.15	46138.98
569.32	46307.50
569.48	46192.81
569.64	46899.65
569.81	46866.89
569.97	46279.41
570.13	46436.23
570.30	46422.19
570.46	46424.53
570.62	46150.68
570.78	45961.10
570.95	46459.63
571.11	46440.91
571.27	45949.40
571.43	46618.79
571.60	46630.49
571.76	46621.13
571.92	46761.56
572.09	46382.40
572.25	46557.94
572.41	46740.50
572.57	46700.71
572.74	46632.83
572.90	46852.84
573.06	46735.82
573.22	46478.36
573.38	46586.02
573.55	46183.45
573.71	46909.02
573.87	46862.21
574.03	46539.21
574.20	46600.07
574.36	46754.54
574.52	46625.81
574.68	46717.09
574.84	46571.98
575.01	46806.03
575.17	46389.42
575.33	46681.98
575.49	46258.35
575.65	46677.30
575.82	46937.10
575.98	46504.10
576.14	46838.80
576.30	46969.87
576.46	46550.91
576.62	46579.00
576.79	46555.60
576.95	46272.39
577.11	46429.21
577.27	46775.61
577.43	46485.38
577.59	46543.89
577.75	46644.54
577.92	46506.44
578.08	46557.94
578.24	46618.79
578.40	46370.69
578.56	46614.11
578.72	46827.10
578.88	46899.65
579.04	46759.22
579.21	46555.60
579.37	46649.22
579.53	46773.27
579.69	46581.34
579.85	46513.47
580.01	47035.41
580.17	46855.18
580.33	46653.90
580.49	46944.12
580.65	47217.97
580.82	46623.47
580.98	46628.15
581.14	46581.34
581.30	46653.90
581.46	46972.21
581.62	46646.88
581.78	46876.25
581.94	46777.95
582.10	46983.91
582.26	46981.57
582.42	46499.42
582.58	46904.34
582.74	47122.01
582.90	46939.44
583.06	46946.47
583.22	47098.60
583.38	47136.05
583.54	46955.83
583.70	47377.12
583.86	46822.42
584.02	46707.73
584.18	46822.42
584.34	46794.33
584.50	47054.13
584.66	47096.26
584.82	46850.50
584.98	46660.92
585.14	47203.92
585.30	46808.37
585.46	46948.81
585.62	46621.13
585.78	46562.62
585.94	46408.14
586.10	46583.68
586.26	46539.21
586.42	47056.47
586.58	46986.25
586.74	46948.81
586.90	46403.46
587.06	46738.16
587.22	46827.10
587.38	46576.66
587.54	47023.70
587.70	47194.56
587.86	46997.96
588.02	47035.41
588.18	47065.83
588.34	46733.48
588.49	46330.90
588.65	46043.02
588.81	46082.81
588.97	46146.00
589.13	46401.12
589.29	46660.92
589.45	46569.64
589.61	46721.77
589.77	46689.01
589.93	46707.73
