SpectraSuite Data File
++++++++++++++++++++++++++++++++++++
Date: Fri Oct 25 10:43:53 EDT 2013
User: price-jones
Dark Spectrum Present: No
Reference Spectrum Present: No
Number of Sampled Component Spectra: 1
Spectrometers: USB2+H05261
Integration Time (usec): 100000 (USB2+H05261)
Spectra Averaged: 1 (USB2+H05261)
Boxcar Smoothing: 0 (USB2+H05261)
Correct for Electrical Dark: No (USB2+H05261)
Strobe/Lamp Enabled: No (USB2+H05261)
Correct for Detector Non-linearity: No (USB2+H05261)
Correct for Stray Light: No (USB2+H05261)
Number of Pixels in Processed Spectrum: 2048
>>>>>Begin Processed Spectral Data<<<<<
365.73	114.69
365.92	114.69
366.12	114.69
366.32	51.49
366.52	9.36
366.72	21.06
366.91	30.43
367.11	63.19
367.31	70.22
367.51	79.58
367.70	21.06
367.90	49.15
368.10	18.72
368.30	77.24
368.49	0.00
368.69	79.58
368.89	65.54
369.09	46.81
369.28	51.49
369.48	16.38
369.68	67.88
369.87	42.13
370.07	128.73
370.27	138.09
370.47	215.33
370.66	376.83
370.86	449.38
371.06	456.40
371.25	547.69
371.45	402.57
371.65	468.11
371.84	519.60
372.04	433.00
372.24	482.15
372.44	531.30
372.63	554.71
372.83	582.79
373.03	512.58
373.22	550.03
373.42	472.79
373.62	517.26
373.81	543.00
374.01	606.20
374.21	622.58
374.40	594.50
374.60	585.13
374.79	575.77
374.99	547.69
375.19	662.37
375.38	645.99
375.58	634.29
375.78	650.67
375.97	638.97
376.17	678.76
376.37	664.71
376.56	645.99
376.76	610.88
376.95	575.77
377.15	676.41
377.35	671.73
377.54	711.52
377.74	624.92
377.93	627.26
378.13	667.05
378.33	718.54
378.52	629.60
378.72	608.54
378.91	713.86
379.11	669.39
379.31	664.71
379.50	624.92
379.70	774.72
379.89	692.80
380.09	653.01
380.28	770.04
380.48	760.67
380.68	727.91
380.87	709.18
381.07	802.80
381.26	748.97
381.46	751.31
381.65	713.86
381.85	692.80
382.04	737.27
382.24	753.65
382.43	624.92
382.63	683.44
382.83	777.06
383.02	737.27
383.22	702.16
383.41	737.27
383.61	758.33
383.80	791.10
384.00	819.19
384.19	894.08
384.39	884.72
384.58	875.36
384.78	875.36
384.97	861.32
385.17	840.25
385.36	760.67
385.56	873.02
385.75	833.23
385.95	814.51
386.14	861.32
386.34	863.66
386.53	837.91
386.72	842.59
386.92	973.66
387.11	875.36
387.31	826.21
387.50	905.79
387.70	877.70
387.89	847.27
388.09	877.70
388.28	882.38
388.48	926.85
388.67	940.90
388.86	947.92
389.06	1022.81
389.25	940.90
389.45	968.98
389.64	1060.26
389.84	1048.56
390.03	994.73
390.22	1078.99
390.42	1062.60
390.61	992.39
390.81	1001.75
391.00	1100.05
391.19	1170.27
391.39	1100.05
391.58	1111.75
391.78	1034.52
391.97	1104.73
392.16	961.96
392.36	1022.81
392.55	1004.09
392.75	999.41
392.94	973.66
393.13	980.68
393.33	950.26
393.52	1057.92
393.71	1135.16
393.91	1090.69
394.10	1086.01
394.29	1188.99
394.49	1203.04
394.68	1193.67
394.88	1294.32
395.07	1240.48
395.26	1343.47
395.46	1266.23
395.65	1301.34
395.84	1261.55
396.04	1277.93
396.23	1130.48
396.42	1198.35
396.62	1233.46
396.81	1245.16
397.00	1287.29
397.19	1334.11
397.39	1331.76
397.58	1425.39
397.77	1458.15
397.97	1376.24
398.16	1547.09
398.35	1481.56
398.55	1650.08
398.74	1600.93
398.93	1509.65
399.12	1556.46
399.32	1598.59
399.51	1647.74
399.70	1617.31
399.90	1577.52
400.09	1647.74
400.28	1799.87
400.47	1750.72
400.67	1654.76
400.86	1769.44
401.05	1757.74
401.24	1809.23
401.44	1729.66
401.63	1790.51
401.82	1827.96
402.01	1729.66
402.21	1921.58
402.40	1790.51
402.59	1830.30
402.78	1839.66
402.97	1842.00
403.17	1736.68
403.36	1818.60
403.55	1966.05
403.74	1975.41
403.93	2003.50
404.13	1994.14
404.32	1977.75
404.51	1928.60
404.70	2036.27
404.89	2054.99
405.09	1987.11
405.28	2029.24
405.47	2043.29
405.66	2104.14
405.85	2136.91
406.05	2085.42
406.24	2085.42
406.43	2076.06
406.62	2076.06
406.81	2230.53
407.00	2087.76
407.20	2132.23
407.39	2115.84
407.58	2209.47
407.77	2265.64
407.96	2347.56
408.15	2340.54
408.34	2349.90
408.54	2401.39
408.73	2272.66
408.92	2352.24
409.11	2375.64
409.30	2417.77
409.49	2363.94
409.68	2406.07
409.87	2305.43
410.07	2551.18
410.26	2469.27
410.45	2464.58
410.64	2499.69
410.83	2506.71
411.02	2623.74
411.21	2656.51
411.40	2656.51
411.59	2630.76
411.78	2698.64
411.98	2605.02
412.17	2810.98
412.36	2768.85
412.55	2836.73
412.74	2892.90
412.93	2951.42
413.12	2881.20
413.31	3157.38
413.50	2958.44
413.69	2925.67
413.88	3056.74
414.07	3009.93
414.26	3016.95
414.45	2995.89
414.64	3091.85
414.83	3208.87
415.02	3002.91
415.22	3206.53
415.41	3325.90
415.60	3162.06
415.79	3300.16
415.98	3281.43
416.17	3407.82
416.36	3358.67
416.55	3447.61
416.74	3417.18
416.93	3405.48
417.12	3478.04
417.31	3372.71
417.50	3447.61
417.69	3552.93
417.88	3574.00
418.07	3660.60
418.26	3545.91
418.45	3487.40
418.64	3637.19
418.83	3716.77
419.02	3686.34
419.21	3805.71
419.39	3669.96
419.58	3609.11
419.77	3728.47
419.96	3817.41
420.15	3744.86
420.34	3779.97
420.53	3700.39
420.72	3889.97
420.91	3999.98
421.10	3997.64
421.29	3922.74
421.48	3925.08
421.67	3934.44
421.86	3932.10
422.05	4025.72
422.24	3878.27
422.43	3847.84
422.61	3946.14
422.80	4102.96
422.99	4046.79
423.18	4131.05
423.37	4170.83
423.56	4159.13
423.75	4121.68
423.94	4145.09
424.13	3913.38
424.32	3941.46
424.50	4238.71
424.69	4145.09
424.88	4203.60
425.07	3957.85
425.26	4011.68
425.45	4131.05
425.64	4109.98
425.83	4093.60
426.01	4189.56
426.20	4093.60
426.39	4088.92
426.58	4112.32
426.77	4063.17
426.96	4091.26
427.15	4177.86
427.33	4290.20
427.52	4131.05
427.71	4341.69
427.90	4325.31
428.09	4170.83
428.28	4217.65
428.46	4264.46
428.65	4355.74
428.84	4411.91
429.03	4355.74
429.22	4322.97
429.40	4348.72
429.59	4388.50
429.78	4093.60
429.97	4177.86
430.16	4231.69
430.34	4133.39
430.53	4210.62
430.72	4432.97
430.91	4292.54
431.10	4489.15
431.28	4699.80
431.47	4805.12
431.66	4835.55
431.85	4777.03
432.03	4634.26
432.22	4667.03
432.41	4800.44
432.60	4842.57
432.79	4961.94
432.97	4943.21
433.16	4947.89
433.35	4741.93
433.54	4760.65
433.72	4917.47
433.91	4861.29
434.10	4933.85
434.28	4917.47
434.47	4997.04
434.66	5067.26
434.85	5235.78
435.03	5125.77
435.22	4983.00
435.41	5320.04
435.59	5305.99
435.78	5425.36
435.97	5387.91
436.16	5376.21
436.34	5350.46
436.53	5411.32
436.72	5366.85
436.90	5128.11
437.09	5362.17
437.28	5394.93
437.46	5376.21
437.65	5324.72
437.84	5416.00
438.02	5310.68
438.21	5235.78
438.40	5289.61
438.58	5497.92
438.77	5481.53
438.96	5476.85
439.14	5888.79
439.33	5874.74
439.52	5867.72
439.70	5956.66
439.89	5919.21
440.08	5706.23
440.26	6005.81
440.45	5900.49
440.63	6209.44
440.82	6235.19
441.01	6031.56
441.19	6085.39
441.38	6326.47
441.57	6286.68
441.75	6436.47
441.94	6548.82
442.12	6551.16
442.31	6532.44
442.50	6698.61
442.68	6541.80
442.87	6745.42
443.05	6558.18
443.24	6483.28
443.43	6616.69
443.61	6757.13
443.80	6839.05
443.98	6590.95
444.17	6462.22
444.35	6726.70
444.54	6822.66
444.73	6722.02
444.91	6841.39
445.10	6670.53
445.28	6813.30
445.47	6691.59
445.65	6579.25
445.84	6651.80
446.02	6782.87
446.21	6782.87
446.39	6787.55
446.58	6906.92
446.77	6909.26
446.95	6850.75
447.14	6871.81
447.32	6927.99
447.51	7059.06
447.69	6888.20
447.88	6925.65
448.06	6946.71
448.25	6820.32
448.43	6946.71
448.62	7016.93
448.80	7007.56
448.99	7073.10
449.17	7288.43
449.36	6958.41
449.54	7129.27
449.73	7384.39
449.91	7541.21
450.10	7419.50
450.28	7433.54
450.46	7396.09
450.65	7517.80
450.83	7463.97
451.02	7431.20
451.20	7398.43
451.39	7548.23
451.57	7353.96
451.76	7386.73
451.94	7485.03
452.13	7566.95
452.31	7325.88
452.49	7286.09
452.68	7442.90
452.86	7293.11
453.05	7548.23
453.23	7578.65
453.42	7545.89
453.60	7463.97
453.78	7730.79
453.97	7726.11
454.15	7662.91
454.34	7735.47
454.52	7929.74
454.70	7843.14
454.89	7808.03
455.07	7899.31
455.26	7911.01
455.44	7866.54
455.62	7936.76
455.81	7997.61
455.99	8070.17
456.17	8109.96
456.36	8138.04
456.54	8257.41
456.73	8402.52
456.91	8280.82
457.09	8395.50
457.28	8505.51
457.46	8355.71
457.64	8348.69
457.83	8383.80
458.01	8418.91
458.19	8535.93
458.38	8428.27
458.56	8503.17
458.74	8711.47
458.93	8620.19
459.11	8535.93
459.29	8692.75
459.48	8688.07
459.66	8482.10
459.84	8929.14
460.03	8875.31
460.21	8734.88
460.39	8926.80
460.57	8957.23
460.76	8870.63
460.94	8915.10
461.12	9020.42
461.31	9048.51
461.49	8987.66
461.67	9055.53
461.85	9135.11
462.04	9312.99
462.22	9205.33
462.40	9242.78
462.59	9294.27
462.77	9235.75
462.95	9320.01
463.13	9050.85
463.32	9324.69
463.50	9280.22
463.68	9291.93
463.86	9483.85
464.05	9238.09
464.23	8992.34
464.41	9479.17
464.59	9004.04
464.78	9385.55
464.96	9504.92
465.14	9425.34
465.32	9455.76
465.50	9589.17
465.69	9598.54
465.87	9631.30
466.05	9458.10
466.23	9600.88
466.41	9535.34
466.60	9610.24
466.78	9614.92
466.96	9577.47
467.14	9327.03
467.32	9689.82
467.51	9980.04
467.69	9310.65
467.87	9743.65
468.05	9856.00
468.23	9547.05
468.41	9654.71
468.60	9722.59
468.78	9984.73
468.96	9804.50
469.14	10024.51
469.32	10097.07
469.50	9844.29
469.69	9944.94
469.87	9956.64
470.05	10129.84
470.23	10085.37
470.41	10090.05
470.59	10155.58
470.77	10174.31
470.95	10516.03
471.14	10431.77
471.32	10455.17
471.50	10485.60
471.68	10658.80
471.86	10670.50
472.04	10792.21
472.22	11037.97
472.40	10370.91
472.58	10520.71
472.77	10778.17
472.95	10916.26
473.13	11136.27
473.31	10871.79
473.49	10888.17
473.67	10899.87
473.85	10878.81
474.03	11213.51
474.21	11372.66
474.39	11492.03
474.57	11412.45
474.75	11480.33
474.93	11585.65
475.12	11564.59
475.30	11536.50
475.48	11515.44
475.66	11468.62
475.84	11758.85
476.02	11756.51
476.20	11831.41
476.38	12145.04
476.56	12315.90
476.74	12236.32
476.92	12203.55
477.10	12297.17
477.28	12500.80
477.46	12533.57
477.64	12856.56
477.82	12807.41
478.00	12922.10
478.18	12863.58
478.36	12987.63
478.54	13160.83
478.72	13041.46
478.90	13252.11
479.08	13373.82
479.26	13584.47
479.44	13617.24
479.62	13507.23
479.80	13598.51
479.98	13783.41
480.16	13865.33
480.34	13916.83
480.52	14223.44
480.70	14209.39
480.88	14167.26
481.06	14303.01
481.24	14274.93
481.41	14602.60
481.59	15073.05
481.77	14843.68
481.95	14934.96
482.13	15164.33
482.31	15007.52
482.49	15353.91
482.67	15506.05
482.85	15499.03
483.03	15541.16
483.21	15843.09
483.39	15953.09
483.57	15749.46
483.74	15896.92
483.92	16079.48
484.10	15892.24
484.28	16456.31
484.46	16496.10
484.64	16915.05
484.82	16538.23
485.00	16872.92
485.18	16748.87
485.35	16996.97
485.53	16439.92
485.71	16751.21
485.89	17046.12
486.07	16924.41
486.25	17111.66
486.43	17350.39
486.61	17600.83
486.78	17844.24
486.96	17804.46
487.14	18317.03
487.32	18242.14
487.50	18380.23
487.68	18450.44
487.85	18787.48
488.03	18897.49
488.21	19183.03
488.39	19241.54
488.57	19110.47
488.75	19503.68
488.92	19503.68
489.10	19920.30
489.28	19882.85
489.46	20081.80
489.64	20601.40
489.81	21090.57
489.99	20905.66
490.17	20753.53
490.35	21025.03
490.53	21088.23
490.70	21207.59
490.88	21025.03
491.06	21699.11
491.24	21619.53
491.41	21521.23
491.59	21642.93
491.77	21565.70
491.95	21523.57
492.13	21853.58
492.30	22359.14
492.48	22466.80
492.66	22354.46
492.84	22506.59
493.01	23080.02
493.19	22752.35
493.37	22733.62
493.54	23073.00
493.72	23061.30
493.90	23487.28
494.08	23885.17
494.25	23920.28
494.43	23922.62
494.61	24039.64
494.79	24105.18
494.96	24004.53
495.14	24128.58
495.32	24369.66
495.49	24353.27
495.67	24489.03
495.85	24512.43
496.02	24559.24
496.20	25041.39
496.38	24886.92
496.55	25324.60
496.73	25839.51
496.91	25706.10
497.09	25624.18
497.26	26174.21
497.44	25757.60
497.62	26307.62
497.79	26087.61
497.97	25773.98
498.14	25851.22
498.32	26478.48
498.50	26342.73
498.67	26998.08
498.85	26775.73
499.03	26616.57
499.20	27250.86
499.38	26780.41
499.56	27234.47
499.73	27274.26
499.91	27243.84
500.08	27232.13
500.26	27187.66
500.44	27634.71
500.61	27541.08
500.79	27438.10
500.97	27365.54
501.14	27618.32
501.32	28030.26
501.49	27821.95
501.67	27817.27
501.84	28208.14
502.02	28203.46
502.20	28322.82
502.37	28847.10
502.55	28730.08
502.72	28982.85
502.90	28999.24
503.07	28863.49
503.25	29205.20
503.43	28931.36
503.60	29048.39
503.78	28842.42
503.95	28865.83
504.13	29289.46
504.30	29427.56
504.48	29254.36
504.65	29813.74
504.83	29570.33
505.01	29834.81
505.18	29972.90
505.36	30391.86
505.53	30441.01
505.71	30368.45
505.88	30529.95
506.06	30157.80
506.23	30707.83
506.41	30504.20
506.58	30370.79
506.76	30953.58
506.93	31173.60
507.11	30953.58
507.28	30895.07
507.46	31026.14
507.63	30764.00
507.81	31016.78
507.98	30803.79
508.16	31005.08
508.33	31358.50
508.50	31648.72
508.68	31714.26
508.85	32247.90
509.03	31740.00
509.20	31952.99
509.38	32268.97
509.55	32102.79
509.73	31992.78
509.90	32165.98
510.08	32290.03
510.25	32144.92
510.42	32505.36
510.60	32748.78
510.77	32676.22
510.95	33060.07
511.12	32903.25
511.30	33268.37
511.47	33134.96
511.64	33556.26
511.82	32826.01
511.99	33518.81
512.17	33226.24
512.34	32978.15
512.51	33518.81
512.69	34094.58
512.86	33736.48
513.04	33907.34
513.21	33656.90
513.38	33935.43
513.56	33736.48
513.73	33619.46
513.90	34136.71
514.08	34045.43
514.25	34057.14
514.43	33530.51
514.60	34094.58
514.77	34167.14
514.95	34068.84
515.12	34071.18
515.29	34752.27
515.47	35005.05
515.64	34859.94
515.81	34782.70
515.99	34902.07
516.16	34602.48
516.33	34101.61
516.51	34459.71
516.68	34064.16
516.85	34153.10
517.03	34422.26
517.20	34445.66
517.37	35173.57
517.54	35218.04
517.72	35388.90
517.89	34550.99
518.06	34895.05
518.24	34646.95
518.41	35124.42
518.58	35143.14
518.75	35604.23
518.93	35915.52
519.10	35569.12
519.27	35793.81
519.45	35952.97
519.62	36163.62
519.79	35964.67
519.96	35962.33
520.14	36371.92
520.31	35913.18
520.48	36051.27
520.65	36172.98
520.83	37287.07
521.00	36966.42
521.17	36788.54
521.34	36779.18
521.52	36989.83
521.69	37088.13
521.86	37310.48
522.03	37319.84
522.20	37118.56
522.38	37352.61
522.55	37368.99
522.72	37268.35
522.89	37247.29
523.07	36987.49
523.24	37666.24
523.41	37710.71
523.58	37364.31
523.75	38085.20
523.92	38014.98
524.10	38110.94
524.27	38113.28
524.44	37825.40
524.61	38167.12
524.78	38155.41
524.96	38618.84
525.13	38363.72
525.30	38960.56
525.47	38754.59
525.64	38555.64
525.81	38581.39
525.98	38068.81
526.16	38445.64
526.33	38005.62
526.50	38684.37
526.67	37930.72
526.84	37935.40
527.01	38499.47
527.18	38904.38
527.36	38890.34
527.53	39086.95
527.70	39086.95
527.87	39150.14
528.04	38946.51
528.21	39250.78
528.38	39384.19
528.55	39976.35
528.72	39629.95
528.89	39648.68
529.07	39985.71
529.24	39648.68
529.41	39611.23
529.58	39892.09
529.75	39927.20
529.92	39473.13
530.09	39695.49
530.26	40257.21
530.43	40449.14
530.60	39845.28
530.77	39793.79
530.94	40446.80
531.11	40348.50
531.28	40652.76
531.46	40622.34
531.63	40641.06
531.80	40519.35
531.97	40130.83
532.14	40259.55
532.31	39992.73
532.48	40048.91
532.65	40425.73
532.82	39985.71
532.99	40795.54
533.16	40442.12
533.33	40589.57
533.50	40793.20
533.67	40982.78
533.84	40730.00
534.01	40858.73
534.18	41268.33
534.35	41151.30
534.52	41284.71
534.69	41041.29
534.86	41441.53
535.03	41652.17
535.20	41226.20
535.37	41790.27
535.54	41727.07
535.71	41537.49
535.88	41233.22
536.05	41626.43
536.22	41846.44
536.38	41867.50
536.55	41453.23
536.72	41294.07
536.89	41354.93
537.06	41624.09
537.23	42071.13
537.40	41738.77
537.57	42120.28
537.74	41628.77
537.91	42244.33
538.08	41984.53
538.25	42080.49
538.42	41890.91
538.59	42225.60
538.75	41708.35
538.92	42380.08
539.09	42000.91
539.26	42588.39
539.43	42356.67
539.60	42256.03
539.77	42249.01
539.94	42220.92
540.11	41661.54
540.28	42637.54
540.44	42698.39
540.61	42380.08
540.78	41975.17
540.95	42160.07
541.12	42485.40
541.29	42422.21
541.46	42586.05
541.62	42799.04
541.79	43196.93
541.96	42895.00
542.13	42876.27
542.30	42417.53
542.47	43016.71
542.63	42895.00
542.80	42944.15
542.97	43508.22
543.14	43704.82
543.31	43138.41
543.48	43515.24
543.64	43426.30
543.81	44088.67
543.98	43683.76
544.15	43550.35
544.32	43580.78
544.48	44151.87
544.65	43519.92
544.82	43966.96
544.99	43653.33
545.16	43779.72
545.32	43515.24
545.49	44348.47
545.66	44322.72
545.83	43880.36
546.00	44254.85
546.16	44086.33
546.33	44100.37
546.50	44144.84
546.67	44313.36
546.83	43941.22
547.00	43798.44
547.17	43840.57
547.34	43880.36
547.50	44107.40
547.67	43906.11
547.84	44051.22
548.00	44404.64
548.17	44673.81
548.34	44460.82
548.51	44524.01
548.67	45022.54
548.84	44336.77
549.01	44694.87
549.18	44495.92
549.34	44498.26
549.51	44559.12
549.68	44442.09
549.84	44481.88
550.01	44755.72
550.18	44641.04
550.34	44882.11
550.51	44861.05
550.68	44907.86
550.84	44247.83
551.01	44741.68
551.18	44818.92
551.34	44617.63
551.51	45511.72
551.68	45448.52
551.84	44868.07
552.01	45074.04
552.18	45031.91
552.34	44772.11
552.51	45062.33
552.68	45125.53
552.84	45237.87
553.01	45588.95
553.18	45043.61
553.34	45371.28
553.51	45020.20
553.67	45387.67
553.84	45476.61
554.01	45661.51
554.17	45872.16
554.34	45537.46
554.51	45605.34
554.67	45825.35
554.84	45603.00
555.00	45701.30
555.17	45081.06
555.33	45502.35
555.50	45184.04
555.67	45677.90
555.83	45525.76
556.00	45799.60
556.16	46192.81
556.33	45940.04
556.50	45464.91
556.66	45727.05
556.83	45099.78
556.99	45820.67
557.16	45839.39
557.32	45815.99
557.49	46188.13
557.65	45846.41
557.82	45633.42
557.98	46157.70
558.15	45764.49
558.32	46005.57
558.48	45677.90
558.65	45375.97
558.81	45698.96
558.98	45975.14
559.14	46258.35
559.31	45771.52
559.47	46256.01
559.64	46405.80
559.80	45968.12
559.97	46033.66
560.13	45759.81
560.30	46045.36
560.46	46216.22
560.63	46286.43
560.79	45963.44
560.96	46291.12
561.12	46099.19
561.29	45918.97
561.45	46424.53
561.61	46218.56
561.78	45799.60
561.94	45734.07
562.11	46108.55
562.27	46277.07
562.44	46230.26
562.60	46810.71
562.77	46618.79
562.93	46260.69
563.10	46368.35
563.26	46045.36
563.42	46281.75
563.59	46478.36
563.75	46305.16
563.92	46342.61
564.08	46447.93
564.24	46265.37
564.41	46124.94
564.57	46452.61
564.74	45820.67
564.90	46101.53
565.07	46286.43
565.23	46349.63
565.39	46417.50
565.56	46124.94
565.72	45956.42
565.88	46202.18
566.05	46286.43
566.21	46653.90
566.38	46136.64
566.54	46110.89
566.70	46775.61
566.87	46667.94
567.03	46658.58
567.19	46937.10
567.36	46616.45
567.52	46504.10
567.68	46665.60
567.85	46553.26
568.01	46382.40
568.17	46419.84
568.34	46672.62
568.50	46642.20
568.66	46703.05
568.83	46389.42
568.99	45925.99
569.15	46305.16
569.32	46429.21
569.48	46855.18
569.64	47107.96
569.81	46600.07
569.97	46337.93
570.13	46658.58
570.30	46447.93
570.46	46059.40
570.62	46064.08
570.78	45991.53
570.95	46504.10
571.11	46880.93
571.27	46560.28
571.43	46167.07
571.60	46382.40
571.76	46583.68
571.92	46988.60
572.09	46913.70
572.25	46944.12
572.41	46546.23
572.57	47096.26
572.74	46925.40
572.90	46979.23
573.06	46639.86
573.22	46803.69
573.38	46712.41
573.55	46618.79
573.71	47213.29
573.87	46916.04
574.03	46794.33
574.20	46639.86
574.36	46777.95
574.52	46876.25
574.68	46810.71
574.84	46866.89
575.01	46459.63
575.17	46981.57
575.33	46333.24
575.49	46745.18
575.65	47147.75
575.82	47026.04
575.98	46522.83
576.14	46476.02
576.30	46939.44
576.46	46969.87
576.62	46368.35
576.79	46754.54
576.95	46436.23
577.11	46855.18
577.27	47049.45
577.43	46443.25
577.59	46653.90
577.75	46146.00
577.92	46316.86
578.08	46447.93
578.24	46330.90
578.40	46600.07
578.56	46883.27
578.72	46799.01
578.88	47042.43
579.04	47061.15
579.21	46361.33
579.37	46733.48
579.53	46904.34
579.69	46728.80
579.85	46337.93
580.01	46511.13
580.17	47096.26
580.33	46782.63
580.49	46838.80
580.65	46857.52
580.82	46948.81
580.98	46546.23
581.14	46417.50
581.30	46916.04
581.46	46602.41
581.62	46735.82
581.78	46866.89
581.94	47126.69
582.10	47208.61
582.26	46707.73
582.42	47126.69
582.58	46834.12
582.74	46611.77
582.90	47253.08
583.06	47119.66
583.22	46735.82
583.38	47143.07
583.54	46941.78
583.70	47089.24
583.86	47199.24
584.02	46864.55
584.18	46909.02
584.34	46789.65
584.50	46653.90
584.66	46897.31
584.82	46799.01
584.98	46595.38
585.14	46761.56
585.30	46887.95
585.46	46487.72
585.62	46775.61
585.78	46607.09
585.94	46459.63
586.10	46990.94
586.26	46852.84
586.42	46979.23
586.58	47063.49
586.74	47058.81
586.90	46763.90
587.06	46522.83
587.22	47182.86
587.38	46490.06
587.54	46836.46
587.70	47164.14
587.86	47260.10
588.02	46803.69
588.18	47370.10
588.34	46560.28
588.49	46370.69
588.65	46127.28
588.81	46366.01
588.97	46333.24
589.13	46464.32
589.29	46005.57
589.45	46536.87
589.61	46642.20
589.77	46843.48
589.93	47145.41
