SpectraSuite Data File
++++++++++++++++++++++++++++++++++++
Date: Fri Oct 25 11:33:56 EDT 2013
User: price-jones
Dark Spectrum Present: No
Reference Spectrum Present: No
Number of Sampled Component Spectra: 1
Spectrometers: USB2+H05261
Integration Time (usec): 100000 (USB2+H05261)
Spectra Averaged: 1 (USB2+H05261)
Boxcar Smoothing: 0 (USB2+H05261)
Correct for Electrical Dark: No (USB2+H05261)
Strobe/Lamp Enabled: No (USB2+H05261)
Correct for Detector Non-linearity: No (USB2+H05261)
Correct for Stray Light: No (USB2+H05261)
Number of Pixels in Processed Spectrum: 2048
>>>>>Begin Processed Spectral Data<<<<<
365.73	276.18
365.92	276.18
366.12	276.18
366.32	227.03
366.52	276.18
366.72	194.26
366.91	236.39
367.11	194.26
367.31	236.39
367.51	142.77
367.70	189.58
367.90	149.79
368.10	140.43
368.30	161.50
368.49	180.22
368.69	154.48
368.89	220.01
369.09	166.18
369.28	177.88
369.48	215.33
369.68	166.18
369.87	252.78
370.07	255.12
370.27	278.52
370.47	397.89
370.66	503.22
370.86	456.40
371.06	564.07
371.25	566.41
371.45	533.64
371.65	510.24
371.84	526.62
372.04	505.56
372.24	620.24
372.44	533.64
372.63	601.52
372.83	564.07
373.03	566.41
373.22	648.33
373.42	545.34
373.62	601.52
373.81	669.39
374.01	573.43
374.21	634.29
374.40	636.63
374.60	685.78
374.79	608.54
374.99	653.01
375.19	692.80
375.38	638.97
375.58	678.76
375.78	688.12
375.97	690.46
376.17	688.12
376.37	681.10
376.56	636.63
376.76	713.86
376.95	720.88
377.15	746.63
377.35	706.84
377.54	641.31
377.74	671.73
377.93	669.39
378.13	678.76
378.33	725.57
378.52	653.01
378.72	723.23
378.91	627.26
379.11	739.61
379.31	671.73
379.50	692.80
379.70	739.61
379.89	814.51
380.09	718.54
380.28	692.80
380.48	734.93
380.68	753.65
380.87	671.73
381.07	706.84
381.26	746.63
381.46	788.76
381.65	795.78
381.85	720.88
382.04	779.40
382.24	716.20
382.43	823.87
382.63	751.31
382.83	734.93
383.02	856.64
383.22	861.32
383.41	763.01
383.61	779.40
383.80	826.21
384.00	758.33
384.19	884.72
384.39	875.36
384.58	812.17
384.78	823.87
384.97	847.27
385.17	812.17
385.36	833.23
385.56	833.23
385.75	847.27
385.95	826.21
386.14	910.47
386.34	833.23
386.53	849.61
386.72	875.36
386.92	830.89
387.11	898.77
387.31	922.17
387.50	966.64
387.70	924.51
387.89	919.83
388.09	798.12
388.28	926.85
388.48	945.58
388.67	917.49
388.86	931.53
389.06	929.19
389.25	891.74
389.45	968.98
389.64	901.11
389.84	912.81
390.03	973.66
390.22	976.00
390.42	973.66
390.61	926.85
390.81	905.79
391.00	971.32
391.19	1034.52
391.39	1057.92
391.58	1008.77
391.78	943.24
391.97	1081.33
392.16	1011.11
392.36	1062.60
392.55	1074.31
392.75	1203.04
392.94	1083.67
393.13	1093.03
393.33	1020.47
393.52	1153.88
393.71	1158.57
393.91	1095.37
394.10	1048.56
394.29	1118.78
394.49	1102.39
394.68	1097.71
394.88	1034.52
395.07	1158.57
395.26	1198.35
395.46	1151.54
395.65	1212.40
395.84	1193.67
396.04	1205.38
396.23	1203.04
396.42	1198.35
396.62	1188.99
396.81	1268.57
397.00	1303.68
397.19	1186.65
397.39	1130.48
397.58	1299.00
397.77	1177.29
397.97	1259.21
398.16	1317.72
398.35	1294.32
398.55	1303.68
398.74	1275.59
398.93	1273.25
399.12	1233.46
399.32	1329.42
399.51	1242.82
399.70	1380.92
399.90	1294.32
400.09	1411.34
400.28	1369.21
400.47	1322.40
400.67	1390.28
400.86	1345.81
401.05	1432.41
401.24	1490.92
401.44	1383.26
401.63	1519.01
401.82	1437.09
402.01	1465.18
402.21	1401.98
402.40	1542.41
402.59	1474.54
402.78	1486.24
402.97	1500.28
403.17	1469.86
403.36	1448.79
403.55	1556.46
403.74	1614.97
403.93	1675.82
404.13	1540.07
404.32	1575.18
404.51	1561.14
404.70	1657.10
404.89	1652.42
405.09	1675.82
405.28	1722.63
405.47	1645.40
405.66	1657.10
405.85	1657.10
406.05	1706.25
406.24	1696.89
406.43	1671.14
406.62	1771.79
406.81	1806.89
407.00	1741.36
407.20	1739.02
407.39	1832.64
407.58	1842.00
407.77	1900.52
407.96	1867.75
408.15	1816.26
408.34	1818.60
408.54	1867.75
408.73	1813.92
408.92	1933.28
409.11	1912.22
409.30	1923.92
409.49	1846.68
409.68	1933.28
409.87	1975.41
410.07	1998.82
410.26	2090.10
410.45	2071.37
410.64	2071.37
410.83	2062.01
411.02	2150.95
411.21	2090.10
411.40	2153.29
411.59	2162.66
411.78	2207.13
411.98	2104.14
412.17	2349.90
412.36	2111.16
412.55	2209.47
412.74	2356.92
412.93	2354.58
413.12	2267.98
413.31	2441.18
413.50	2277.34
413.69	2373.30
413.88	2502.03
414.07	2406.07
414.26	2555.86
414.45	2480.97
414.64	2548.84
414.83	2619.06
415.02	2520.76
415.22	2633.10
415.41	2623.74
415.60	2614.38
415.79	2574.59
415.98	2757.15
416.17	2572.25
416.36	2700.98
416.55	2740.77
416.74	2780.56
416.93	2785.24
417.12	2743.11
417.31	2745.45
417.50	2895.24
417.69	3054.40
417.88	2937.37
418.07	2897.58
418.26	2869.50
418.45	2923.33
418.64	3192.49
418.83	3012.27
419.02	3042.70
419.21	3030.99
419.39	3009.93
419.58	3115.25
419.77	2986.52
419.96	3162.06
420.15	3183.13
420.34	3208.87
420.53	3176.11
420.72	3145.68
420.91	3204.19
421.10	3150.36
421.29	3241.64
421.48	3307.18
421.67	3281.43
421.86	3126.96
422.05	3304.84
422.24	3318.88
422.43	3314.20
422.61	3293.13
422.80	3414.84
422.99	3318.88
423.18	3468.67
423.37	3599.74
423.56	3372.71
423.75	3262.71
423.94	3199.51
424.13	3138.66
424.32	3138.66
424.50	3297.81
424.69	3452.29
424.88	3534.21
425.07	3283.77
425.26	3325.90
425.45	3272.07
425.64	3421.86
425.83	3393.78
426.01	3494.42
426.20	3403.14
426.39	3510.80
426.58	3461.65
426.77	3442.93
426.96	3513.14
427.15	3489.74
427.33	3412.50
427.52	3566.98
427.71	3590.38
427.90	3522.51
428.09	3747.20
428.28	3688.68
428.46	3578.68
428.65	3707.41
428.84	3733.15
429.03	3613.79
429.22	3768.26
429.40	3723.79
429.59	3786.99
429.78	3599.74
429.97	3688.68
430.16	3695.71
430.34	3908.69
430.53	3845.50
430.72	3758.90
430.91	3866.56
431.10	3946.14
431.28	3889.97
431.47	3901.67
431.66	3885.29
431.85	3901.67
432.03	3971.89
432.22	4023.38
432.41	4037.42
432.60	4046.79
432.79	4205.94
432.97	3983.59
433.16	4002.32
433.35	4021.04
433.54	4072.53
433.72	4128.70
433.91	4163.81
434.10	4112.32
434.28	4264.46
434.47	4222.33
434.66	4315.95
434.85	4315.95
435.03	4285.52
435.22	4212.96
435.41	4477.44
435.59	4294.88
435.78	4414.25
435.97	4402.55
436.16	4245.73
436.34	4320.63
436.53	4425.95
436.72	4510.21
436.90	4484.47
437.09	4535.96
437.28	4454.04
437.46	4674.05
437.65	4411.91
437.84	4568.73
438.02	4542.98
438.21	4660.01
438.40	4704.48
438.58	4812.14
438.77	4718.52
438.96	4528.94
439.14	4720.86
439.33	4915.12
439.52	5053.22
439.70	4901.08
439.89	4978.32
440.08	5137.48
440.26	5104.71
440.45	4868.31
440.63	5060.24
440.82	5296.63
441.01	5193.65
441.19	5118.75
441.38	5137.48
441.57	5280.25
441.75	5132.79
441.94	5188.97
442.12	5383.23
442.31	5373.87
442.50	5245.14
442.68	5313.02
442.87	5397.28
443.05	5441.75
443.24	5659.42
443.43	5521.32
443.61	5399.62
443.80	5668.78
443.98	5432.38
444.17	5371.53
444.35	5703.89
444.54	5507.28
444.73	5661.76
444.91	5652.39
445.10	5610.26
445.28	5633.67
445.47	5731.97
445.65	5551.75
445.84	5703.89
446.02	5713.25
446.21	5624.31
446.39	5554.09
446.58	5783.46
446.77	5654.73
446.95	5528.35
447.14	5694.52
447.32	5767.08
447.51	5928.58
447.69	5748.36
447.88	5795.17
448.06	5776.44
448.25	5776.44
448.43	5724.95
448.62	5750.70
448.80	5856.02
448.99	5942.62
449.17	5797.51
449.36	5900.49
449.54	5944.96
449.73	5853.68
449.91	6029.22
450.10	5942.62
450.28	5963.68
450.46	6104.12
450.65	6031.56
450.83	6031.56
451.02	6125.18
451.20	6171.99
451.39	6216.46
451.57	6186.04
451.76	6122.84
451.94	6188.38
452.13	6324.13
452.31	6179.01
452.49	6214.12
452.68	6230.51
452.86	6326.47
453.05	6445.84
453.23	6469.24
453.42	6427.11
453.60	6113.48
453.78	6363.92
453.97	6354.55
454.15	6403.71
454.34	6366.26
454.52	6480.94
454.70	6256.25
454.89	6525.41
455.07	6548.82
455.26	6513.71
455.44	6682.23
455.62	6595.63
455.81	6633.08
455.99	6647.12
456.17	6677.55
456.36	6881.18
456.54	6920.96
456.73	6850.75
456.91	6935.01
457.09	6953.73
457.28	6902.24
457.46	6843.73
457.64	7159.70
457.83	7009.90
458.01	6902.24
458.19	7171.40
458.38	7136.29
458.56	7222.89
458.74	7115.23
458.93	7162.04
459.11	7119.91
459.29	7117.57
459.48	7178.42
459.66	7524.82
459.84	7129.27
460.03	7363.33
460.21	7616.10
460.39	7236.94
460.57	7445.24
460.76	7454.61
460.94	7421.84
461.12	7545.89
461.31	7290.77
461.49	7557.59
461.67	7478.01
461.85	7733.13
462.04	7527.16
462.22	7992.93
462.40	7573.97
462.59	7583.34
462.77	7758.88
462.95	7801.01
463.13	7772.92
463.32	7611.42
463.50	7733.13
463.68	8002.29
463.86	7737.81
464.05	7801.01
464.23	7648.87
464.41	7838.45
464.59	7793.98
464.78	7981.23
464.96	8028.04
465.14	8004.63
465.32	8184.85
465.50	8006.97
465.69	8191.88
465.87	8077.19
466.05	8086.55
466.23	8009.31
466.41	8189.53
466.60	8269.11
466.78	8091.23
466.96	7948.46
467.14	8170.81
467.32	7990.59
467.51	8313.58
467.69	8140.38
467.87	8243.37
468.05	8339.33
468.23	8203.58
468.41	8159.11
468.60	8131.02
468.78	8376.78
468.96	8308.90
469.14	8407.20
469.32	8692.75
469.50	8564.02
469.69	8709.13
469.87	8802.75
470.05	8622.53
470.23	8854.25
470.41	8659.98
470.59	8809.78
470.77	8884.67
470.95	8975.95
471.14	8987.66
471.32	8627.21
471.50	9207.67
471.68	8835.52
471.86	8769.99
472.04	9109.36
472.22	9137.45
472.40	9083.62
472.58	9088.30
472.77	9158.52
472.95	9329.38
473.13	9607.90
473.31	9401.93
473.49	9481.51
473.67	9327.03
473.85	9458.10
474.03	9607.90
474.21	9568.11
474.39	9561.09
474.57	9799.82
474.75	9802.16
474.93	9907.49
475.12	9713.22
475.30	9966.00
475.48	9994.09
475.66	10286.65
475.84	10003.45
476.02	10267.93
476.20	10113.45
476.38	10436.45
476.56	10413.04
476.74	10310.06
476.92	10347.51
477.10	10464.54
477.28	10836.68
477.46	10754.76
477.64	10689.23
477.82	10860.09
478.00	11152.65
478.18	10937.32
478.36	11096.48
478.54	11307.13
478.72	11283.72
478.90	11300.11
479.08	11562.25
479.26	11571.61
479.44	11506.07
479.62	11679.27
479.80	11950.78
479.98	11791.62
480.16	11913.33
480.34	12030.35
480.52	12091.21
480.70	12133.34
480.88	12145.04
481.06	12306.54
481.24	12329.94
481.41	12290.15
481.59	12746.56
481.77	12774.64
481.95	12791.03
482.13	12861.24
482.31	12889.33
482.49	12961.89
482.67	13240.41
482.85	13284.88
483.03	13422.97
483.21	13614.90
483.39	13706.18
483.57	13504.89
483.74	13577.45
483.92	14164.92
484.10	13659.37
484.28	14164.92
484.46	14338.12
484.64	14490.26
484.82	14516.00
485.00	14574.52
485.18	14792.19
485.35	14946.66
485.53	14780.48
485.71	14857.72
485.89	15218.16
486.07	15435.83
486.25	15021.56
486.43	15510.73
486.61	15651.16
486.78	15721.38
486.96	15644.14
487.14	15807.98
487.32	15976.50
487.50	16315.87
487.68	16400.13
487.85	16510.14
488.03	16491.41
488.21	17015.69
488.39	16912.71
488.57	16968.88
488.75	16978.25
488.92	17259.11
489.10	17240.39
489.28	17572.74
489.46	17586.79
489.64	17649.98
489.81	18064.25
489.99	17961.27
490.17	17989.36
490.35	18270.22
490.53	18331.08
490.70	18698.54
490.88	18361.50
491.06	18977.06
491.24	18754.71
491.41	18988.77
491.59	19253.25
491.77	19000.47
491.95	19112.81
492.13	19281.33
492.30	19496.66
492.48	19672.20
492.66	19880.51
492.84	20020.94
493.01	19824.34
493.19	20224.57
493.37	19988.18
493.54	20435.22
493.72	20556.93
493.90	20535.86
494.08	20482.03
494.25	20666.93
494.43	20599.05
494.61	21116.31
494.79	21235.68
494.96	21071.84
495.14	21546.97
495.32	21886.35
495.49	21392.50
495.67	21764.64
495.85	21596.12
496.02	21811.45
496.20	21949.54
496.38	22185.94
496.55	22417.65
496.73	22668.09
496.91	22408.29
497.09	22492.55
497.26	22363.82
497.44	22981.72
497.62	23094.07
497.79	23136.20
497.97	23264.92
498.14	23213.43
498.32	23641.75
498.50	23435.78
498.67	23910.91
498.85	23580.90
499.03	23805.59
499.20	23852.40
499.38	23992.83
499.56	24095.82
499.73	24079.43
499.91	24357.96
500.08	24456.26
500.26	24297.10
500.44	24437.53
500.61	24573.28
500.79	24613.07
500.97	24676.27
501.14	25479.07
501.32	25186.50
501.49	25135.01
501.67	25308.21
501.84	25312.89
502.02	25401.83
502.20	25474.39
502.37	25591.42
502.55	25518.86
502.72	25855.90
502.90	25535.24
503.07	25701.42
503.25	25891.01
503.43	25738.87
503.60	26188.25
503.78	26118.04
503.95	26225.70
504.13	26279.54
504.30	26726.58
504.48	26331.03
504.65	27026.17
504.83	26785.09
505.01	26911.48
505.18	27311.71
505.36	27110.43
505.53	27281.28
505.71	27449.80
505.88	27250.86
506.06	27065.96
506.23	27370.22
506.41	27152.55
506.58	27786.84
506.76	27543.42
506.93	27639.39
507.11	27707.26
507.28	28418.78
507.46	27662.79
507.63	27784.50
507.81	28673.90
507.98	28240.90
508.16	28327.50
508.33	28414.10
508.50	28428.15
508.68	28409.42
508.85	28531.13
509.03	28493.68
509.20	28725.39
509.38	28868.17
509.55	29329.25
509.73	29102.22
509.90	29303.51
510.08	29050.73
510.25	29160.73
510.42	29472.03
510.60	29317.55
510.77	29841.83
510.95	29916.73
511.12	29371.38
511.30	29759.91
511.47	29876.94
511.64	29584.37
511.82	29944.81
511.99	29467.34
512.17	30284.19
512.34	30064.18
512.51	30546.33
512.69	30340.36
512.86	30754.64
513.04	30752.30
513.21	30780.39
513.38	30703.15
513.56	31014.44
513.73	30965.29
513.90	30960.61
514.08	30972.31
514.25	31044.87
514.43	31227.43
514.60	31487.23
514.77	31393.61
514.95	32032.57
515.12	31620.64
515.29	31508.29
515.47	31665.11
515.64	32039.59
515.81	31505.95
515.99	31971.72
516.16	32025.55
516.33	31962.36
516.51	32168.32
516.68	32411.74
516.85	31761.07
517.03	32542.81
517.20	32320.46
517.37	32552.17
517.54	32301.73
517.72	32095.77
517.89	32638.77
518.06	32872.82
518.24	32545.15
518.41	32573.24
518.58	32816.65
518.75	33188.80
518.93	33223.90
519.10	33127.94
519.27	33095.18
519.45	33118.58
519.62	33584.35
519.79	33343.27
519.96	33116.24
520.14	33319.87
520.31	33483.70
520.48	33827.76
520.65	33532.86
520.83	34087.56
521.00	34031.39
521.17	33853.51
521.34	34375.45
521.52	34263.10
521.69	34164.80
521.86	34558.01
522.03	34579.07
522.20	34665.67
522.38	34850.58
522.55	35140.80
522.72	35117.40
522.89	35143.14
523.07	34766.32
523.24	34976.97
523.41	35077.61
523.58	34873.98
523.75	35204.00
523.92	35594.87
524.10	35185.27
524.27	35632.32
524.44	35388.90
524.61	35943.61
524.78	35763.39
524.96	36070.00
525.13	35861.69
525.30	35629.98
525.47	35952.97
525.64	35889.77
525.81	35938.93
525.98	36041.91
526.16	36205.75
526.33	35634.66
526.50	36102.76
526.67	35800.83
526.84	36102.76
527.01	36240.86
527.18	35985.74
527.36	36381.29
527.53	36627.04
527.70	36725.35
527.87	37338.57
528.04	36542.78
528.21	36549.81
528.38	37205.16
528.55	37172.39
528.72	36367.24
528.89	36865.78
529.07	37078.77
529.24	36793.22
529.41	36882.16
529.58	37034.30
529.75	36928.97
529.92	37275.37
530.09	37305.80
530.26	37378.36
530.43	37221.54
530.60	37092.81
530.77	37794.97
530.94	37326.86
531.11	37518.79
531.28	37542.19
531.46	37565.60
531.63	37471.98
531.80	37633.47
531.97	38054.77
532.14	37743.48
532.31	38026.68
532.48	38071.15
532.65	38492.45
532.82	37993.92
532.99	38223.29
533.16	37982.21
533.33	38157.75
533.50	38195.20
533.67	38375.42
533.84	38595.43
534.01	38721.82
534.18	38770.97
534.35	39267.17
534.52	38768.63
534.69	39035.45
534.86	38892.68
535.03	38738.21
535.20	38972.26
535.37	38958.22
535.54	39201.63
535.71	38742.89
535.88	39206.31
536.05	39093.97
536.22	39538.67
536.38	39332.70
536.55	39187.59
536.72	39578.46
536.89	39426.32
537.06	39241.42
537.23	39856.98
537.40	39180.57
537.57	39768.04
537.74	39496.54
537.91	40062.95
538.08	40105.08
538.25	39529.31
538.42	40259.55
538.59	40144.87
538.75	39526.97
538.92	40130.83
539.09	40332.11
539.26	40217.43
539.43	40051.25
539.60	40362.54
539.77	40353.18
539.94	40292.32
540.11	40580.21
540.28	40802.56
540.44	40383.60
540.61	39856.98
540.78	40243.17
540.95	40484.25
541.12	40507.65
541.29	40392.97
541.46	40861.07
541.62	40694.89
541.79	40947.67
541.96	40383.60
542.13	40772.13
542.30	40620.00
542.47	41017.89
542.63	41055.34
542.80	41273.01
542.97	41312.80
543.14	41511.74
543.31	41315.14
543.48	41357.27
543.64	41977.51
543.81	41399.40
543.98	41858.14
544.15	41357.27
544.32	41467.27
544.48	41923.68
544.65	42014.96
544.82	42026.66
544.99	41691.96
545.16	42380.08
545.32	42061.77
545.49	42625.84
545.66	42412.85
545.83	42197.52
546.00	42054.75
546.16	42270.08
546.33	41853.46
546.50	42141.35
546.67	42483.06
546.83	42040.70
547.00	42471.36
547.17	42141.35
547.34	42059.43
547.50	42588.39
547.67	42880.95
547.84	42555.62
548.00	42480.72
548.17	43215.65
548.34	42871.59
548.51	42445.62
548.67	42621.16
548.84	43105.65
549.01	42902.02
549.18	43023.73
549.34	43220.33
549.51	43166.50
549.68	43243.74
549.84	42834.14
550.01	43239.06
550.18	42993.30
550.34	43159.48
550.51	43077.56
550.68	43299.91
550.84	43098.62
551.01	43423.96
551.18	43225.01
551.34	42834.14
551.51	43325.66
551.68	43278.85
551.84	43648.65
552.01	43409.92
552.18	43384.17
552.34	43330.34
552.51	43894.41
552.68	43456.73
552.84	43711.84
553.01	43550.35
553.18	43852.28
553.34	43681.42
553.51	43646.31
553.67	43768.02
553.84	44322.72
554.01	44250.17
554.17	44170.59
554.34	44067.61
554.51	44037.18
554.67	44456.14
554.84	44041.86
555.00	43650.99
555.17	44016.11
555.33	44053.56
555.50	44137.82
555.67	44535.71
555.83	44198.68
556.00	44507.63
556.16	45116.17
556.33	44032.50
556.50	44502.95
556.66	44715.93
556.83	44435.07
556.99	44718.28
557.16	44891.48
557.32	44678.49
557.49	44474.86
557.65	44144.84
557.82	44414.01
557.98	44215.06
558.15	44886.79
558.32	45029.57
558.48	44839.98
558.65	44985.10
558.81	45247.24
558.98	44652.74
559.14	44919.56
559.31	44790.83
559.47	45052.97
559.64	45036.59
559.80	44985.10
559.97	44971.05
560.13	44814.24
560.30	45020.20
560.46	45263.62
560.63	45223.83
560.79	45457.88
560.96	45291.71
561.12	45052.97
561.29	45177.02
561.45	45488.31
561.61	45457.88
561.78	45289.37
561.94	45188.72
562.11	45076.38
562.27	45354.90
562.44	45127.87
562.60	46005.57
562.77	45514.06
562.93	45186.38
563.10	45904.93
563.26	45659.17
563.42	45900.25
563.59	45656.83
563.75	45394.69
563.92	45902.59
564.08	45134.89
564.24	45801.94
564.41	45460.23
564.57	45640.45
564.74	45584.27
564.90	45553.85
565.07	45989.19
565.23	45350.22
565.39	45598.32
565.56	45703.64
565.72	45769.18
565.88	45757.47
566.05	45846.41
566.21	45855.78
566.38	46075.79
566.54	45865.14
566.70	46101.53
566.87	45916.63
567.03	45823.01
567.19	46012.59
567.36	45785.56
567.52	45790.24
567.68	46340.27
567.85	46363.67
568.01	46417.50
568.17	45918.97
568.34	46443.25
568.50	45792.58
568.66	45851.09
568.83	45925.99
568.99	46176.43
569.15	46094.51
569.32	46150.68
569.48	46248.99
569.64	46803.69
569.81	46120.26
569.97	46333.24
570.13	45769.18
570.30	46143.66
570.46	46630.49
570.62	45996.21
570.78	46440.91
570.95	46375.37
571.11	46658.58
571.27	46363.67
571.43	46295.80
571.60	46681.98
571.76	46026.63
571.92	46377.72
572.09	46234.94
572.25	46129.62
572.41	46082.81
572.57	46351.97
572.74	46768.58
572.90	46415.16
573.06	46354.31
573.22	46536.87
573.38	46583.68
573.55	46618.79
573.71	47157.11
573.87	46461.97
574.03	46663.26
574.20	46848.16
574.36	46483.04
574.52	46614.11
574.68	46667.94
574.84	46728.80
575.01	46499.42
575.17	46791.99
575.33	46609.43
575.49	46859.87
575.65	46595.38
575.82	46752.20
575.98	46564.96
576.14	46890.29
576.30	46693.69
576.46	46085.15
576.62	46761.56
576.79	46569.64
576.95	46569.64
577.11	46195.15
577.27	46845.82
577.43	46841.14
577.59	46777.95
577.75	46241.96
577.92	46068.76
578.08	46501.76
578.24	46642.20
578.40	46930.08
578.56	46827.10
578.72	46855.18
578.88	46990.94
579.04	46705.39
579.21	46471.34
579.37	46923.06
579.53	47063.49
579.69	46859.87
579.85	46806.03
580.01	46703.05
580.17	46677.30
580.33	46794.33
580.49	46490.06
580.65	47089.24
580.82	46679.64
580.98	46749.86
581.14	46548.57
581.30	47004.98
581.46	46396.44
581.62	46202.18
581.78	46983.91
581.94	47124.35
582.10	46422.19
582.26	46923.06
582.42	46712.41
582.58	47112.64
582.74	46988.60
582.90	47054.13
583.06	47122.01
583.22	46885.61
583.38	47028.38
583.54	46827.10
583.70	46829.44
583.86	47124.35
584.02	46920.72
584.18	47339.68
584.34	47126.69
584.50	47084.56
584.66	46986.25
584.82	46920.72
584.98	47295.21
585.14	47269.46
585.30	47047.11
585.46	47220.31
585.62	46560.28
585.78	47033.07
585.94	46457.29
586.10	47014.34
586.26	46962.85
586.42	46873.91
586.58	46892.63
586.74	46742.84
586.90	47082.22
587.06	46796.67
587.22	47164.14
587.38	47232.01
587.54	47381.80
587.70	47299.89
587.86	47016.68
588.02	47033.07
588.18	47016.68
588.34	46679.64
588.49	46897.31
588.65	47311.59
588.81	46735.82
588.97	46958.17
589.13	47470.75
589.29	47533.94
589.45	47140.73
589.61	47412.23
589.77	47318.61
589.93	47210.95
590.08	47349.04
