SpectraSuite Data File
++++++++++++++++++++++++++++++++++++
Date: Fri Oct 25 11:26:09 EDT 2013
User: price-jones
Dark Spectrum Present: No
Reference Spectrum Present: No
Number of Sampled Component Spectra: 1
Spectrometers: USB2+H05261
Integration Time (usec): 100000 (USB2+H05261)
Spectra Averaged: 1 (USB2+H05261)
Boxcar Smoothing: 0 (USB2+H05261)
Correct for Electrical Dark: No (USB2+H05261)
Strobe/Lamp Enabled: No (USB2+H05261)
Correct for Detector Non-linearity: No (USB2+H05261)
Correct for Stray Light: No (USB2+H05261)
Number of Pixels in Processed Spectrum: 2048
>>>>>Begin Processed Spectral Data<<<<<
365.73	241.08
365.92	241.08
366.12	241.08
366.32	196.60
366.52	138.09
366.72	145.11
366.91	102.98
367.11	131.07
367.31	105.32
367.51	154.48
367.70	114.69
367.90	168.52
368.10	212.99
368.30	126.39
368.49	126.39
368.69	121.71
368.89	140.43
369.09	170.86
369.28	187.24
369.48	194.26
369.68	215.33
369.87	191.92
370.07	241.08
370.27	217.67
370.47	313.63
370.66	613.22
370.86	706.84
371.06	706.84
371.25	695.14
371.45	692.80
371.65	723.23
371.84	683.44
372.04	709.18
372.24	727.91
372.44	718.54
372.63	746.63
372.83	781.74
373.03	716.20
373.22	800.46
373.42	798.12
373.62	772.38
373.81	772.38
374.01	772.38
374.21	681.10
374.40	819.19
374.60	793.44
374.79	805.14
374.99	849.61
375.19	784.08
375.38	809.83
375.58	814.51
375.78	835.57
375.97	805.14
376.17	954.94
376.37	882.38
376.56	844.93
376.76	924.51
376.95	849.61
377.15	882.38
377.35	950.26
377.54	882.38
377.74	889.40
377.93	929.19
378.13	931.53
378.33	875.36
378.52	880.04
378.72	1006.43
378.91	994.73
379.11	891.74
379.31	924.51
379.50	851.96
379.70	1013.45
379.89	1062.60
380.09	1046.22
380.28	1013.45
380.48	968.98
380.68	959.62
380.87	1046.22
381.07	985.37
381.26	1046.22
381.46	1057.92
381.65	1022.81
381.85	1048.56
382.04	1057.92
382.24	1060.26
382.43	1036.86
382.63	1081.33
382.83	1074.31
383.02	1207.72
383.22	1125.80
383.41	1067.28
383.61	1062.60
383.80	1116.44
384.00	1193.67
384.19	1039.20
384.39	1055.58
384.58	1172.61
384.78	1095.37
384.97	1186.65
385.17	1249.85
385.36	1146.86
385.56	1231.12
385.75	1121.12
385.95	1207.72
386.14	1142.18
386.34	1083.67
386.53	1203.04
386.72	1158.57
386.92	1266.23
387.11	1196.01
387.31	1303.68
387.50	1193.67
387.70	1259.21
387.89	1210.06
388.09	1214.74
388.28	1322.40
388.48	1275.59
388.67	1329.42
388.86	1275.59
389.06	1291.98
389.25	1364.53
389.45	1320.06
389.64	1343.47
389.84	1355.17
390.03	1444.11
390.22	1406.66
390.42	1362.19
390.61	1317.72
390.81	1406.66
391.00	1406.66
391.19	1425.39
391.39	1460.49
391.58	1488.58
391.78	1549.43
391.97	1427.73
392.16	1500.28
392.36	1533.05
392.55	1549.43
392.75	1500.28
392.94	1490.92
393.13	1600.93
393.33	1509.65
393.52	1624.33
393.71	1652.42
393.91	1420.71
394.10	1584.54
394.29	1516.67
394.49	1621.99
394.68	1621.99
394.88	1610.29
395.07	1640.72
395.26	1710.93
395.46	1694.55
395.65	1614.97
395.84	1626.67
396.04	1830.30
396.23	1769.44
396.42	1689.87
396.62	1713.27
396.81	1781.15
397.00	1643.06
397.19	1785.83
397.39	1792.85
397.58	1792.85
397.77	1816.26
397.97	1884.13
398.16	1853.70
398.35	1849.02
398.55	1865.41
398.74	1923.92
398.93	1942.64
399.12	1919.24
399.32	1914.56
399.51	1944.99
399.70	2104.14
399.90	1959.03
400.09	1949.67
400.28	2017.54
400.47	2005.84
400.67	2047.97
400.86	2076.06
401.05	2040.95
401.24	2080.74
401.44	2064.35
401.63	2134.57
401.82	2204.78
402.01	2148.61
402.21	2057.33
402.40	2155.63
402.59	2242.23
402.78	2143.93
402.97	2249.25
403.17	2207.13
403.36	2310.11
403.55	2284.36
403.74	2417.77
403.93	2347.56
404.13	2333.51
404.32	2321.81
404.51	2300.75
404.70	2413.09
404.89	2436.50
405.09	2464.58
405.28	2441.18
405.47	2504.37
405.66	2539.48
405.85	2490.33
406.05	2443.52
406.24	2511.39
406.43	2443.52
406.62	2551.18
406.81	2637.78
407.00	2621.40
407.20	2581.61
407.39	2583.95
407.58	2637.78
407.77	2703.32
407.96	2705.66
408.15	2754.81
408.34	2700.98
408.54	2822.69
408.73	2834.39
408.92	2764.17
409.11	2864.82
409.30	2935.03
409.49	2832.05
409.68	2864.82
409.87	2942.05
410.07	2892.90
410.26	2939.71
410.45	3080.14
410.64	2998.23
410.83	2988.86
411.02	3061.42
411.21	3169.09
411.40	3070.78
411.59	3133.98
411.78	3297.81
411.98	3082.49
412.17	3276.75
412.36	3255.69
412.55	3361.01
412.74	3372.71
412.93	3325.90
413.12	3375.05
413.31	3372.71
413.50	3396.12
413.69	3391.44
413.88	3620.81
414.07	3599.74
414.26	3665.28
414.45	3585.70
414.64	3611.45
414.83	3681.66
415.02	3810.39
415.22	3782.31
415.41	3896.99
415.60	3730.81
415.79	3889.97
415.98	3997.64
416.17	4011.68
416.36	3978.91
416.55	4011.68
416.74	4053.81
416.93	4135.73
417.12	4004.66
417.31	4067.85
417.50	4208.28
417.69	4283.18
417.88	4187.22
418.07	4227.01
418.26	4215.30
418.45	4304.25
418.64	4425.95
418.83	4334.67
419.02	4301.90
419.21	4447.02
419.39	4283.18
419.58	4528.94
419.77	4407.23
419.96	4592.13
420.15	4550.00
420.34	4606.17
420.53	4528.94
420.72	4704.48
420.91	4697.46
421.10	4690.43
421.29	4671.71
421.48	4608.51
421.67	4725.54
421.86	4765.33
422.05	4788.74
422.24	4924.49
422.43	4730.22
422.61	4765.33
422.80	4884.70
422.99	5046.20
423.18	4898.74
423.37	4990.02
423.56	5029.81
423.75	4882.36
423.94	4947.89
424.13	4697.46
424.32	4702.14
424.50	4966.62
424.69	5107.05
424.88	5041.51
425.07	5004.07
425.26	4805.12
425.45	4812.14
425.64	5048.54
425.83	5034.49
426.01	5025.13
426.20	5200.67
426.39	4992.36
426.58	5109.39
426.77	5036.83
426.96	5116.41
427.15	5114.07
427.33	5036.83
427.52	4887.04
427.71	5228.76
427.90	5200.67
428.09	5385.57
428.28	5308.34
428.46	5362.17
428.65	5291.95
428.84	5493.24
429.03	5516.64
429.22	5362.17
429.40	5437.06
429.59	5533.03
429.78	5362.17
429.97	5184.29
430.16	5324.72
430.34	5703.89
430.53	5561.11
430.72	5530.69
430.91	5682.82
431.10	5589.20
431.28	5685.16
431.47	5678.14
431.66	5841.98
431.85	5767.08
432.03	5959.00
432.22	5963.68
432.41	5874.74
432.60	5827.93
432.79	6019.86
432.97	5874.74
433.16	6111.14
433.35	5898.15
433.54	6092.41
433.72	6005.81
433.91	6066.67
434.10	6176.67
434.28	5959.00
434.47	6223.48
434.66	6239.87
434.85	6207.10
435.03	6232.85
435.22	6319.45
435.41	6394.34
435.59	6532.44
435.78	6427.11
435.97	6249.23
436.16	6445.84
436.34	6312.42
436.53	6499.67
436.72	6829.68
436.90	6382.64
437.09	6588.61
437.28	6289.02
437.46	6562.86
437.65	6602.65
437.84	6970.12
438.02	6640.10
438.21	6656.48
438.40	6569.88
438.58	6942.03
438.77	7115.23
438.96	7049.69
439.14	7162.04
439.33	7108.21
439.52	7140.97
439.70	7304.81
439.89	7396.09
440.08	7265.02
440.26	7342.26
440.45	7176.08
440.63	7492.05
440.82	7494.40
441.01	7417.16
441.19	7524.82
441.38	7606.74
441.57	7583.34
441.75	7707.38
441.94	7789.30
442.12	7915.69
442.31	7983.57
442.50	8025.70
442.68	7871.22
442.87	7847.82
443.05	8142.72
443.24	8196.56
443.43	8166.13
443.61	7906.33
443.80	8461.04
443.98	7976.55
444.17	7836.11
444.35	8074.85
444.54	8566.36
444.73	8231.66
444.91	8255.07
445.10	8255.07
445.28	8189.53
445.47	8301.88
445.65	8437.63
445.84	8465.72
446.02	8325.29
446.21	8439.97
446.39	8241.03
446.58	8435.29
446.77	8411.89
446.95	8203.58
447.14	8250.39
447.32	8545.30
447.51	8404.86
447.69	8388.48
447.88	8393.16
448.06	8528.91
448.25	8374.44
448.43	8568.70
448.62	8564.02
448.80	8454.02
448.99	8727.86
449.17	8692.75
449.36	8648.28
449.54	8858.93
449.73	9050.85
449.91	8980.64
450.10	8938.51
450.28	9118.73
450.46	9034.47
450.65	8987.66
450.83	8854.25
451.02	8910.42
451.20	9083.62
451.39	9095.32
451.57	9036.81
451.76	8936.17
451.94	9125.75
452.13	9282.56
452.31	9315.33
452.49	8961.91
452.68	9320.01
452.86	9277.88
453.05	9350.44
453.23	9303.63
453.42	9465.13
453.60	9315.33
453.78	9591.52
453.97	9284.91
454.15	9383.21
454.34	9352.78
454.52	9694.50
454.70	9610.24
454.89	9582.15
455.07	9537.68
455.26	9886.42
455.44	9944.94
455.62	9694.50
455.81	9643.01
455.99	9881.74
456.17	10171.97
456.36	9886.42
456.54	9970.68
456.73	10031.54
456.91	10583.90
457.09	10406.02
457.28	10579.22
457.46	10277.29
457.64	10438.79
457.83	10633.05
458.01	10204.74
458.19	10759.44
458.38	10399.00
458.56	10960.73
458.74	10579.22
458.93	10654.12
459.11	10509.01
459.29	10621.35
459.48	10782.85
459.66	10881.15
459.84	10806.25
460.03	11061.37
460.21	10829.66
460.39	10757.10
460.57	10953.71
460.76	11068.39
460.94	11091.80
461.12	11042.65
461.31	10981.79
461.49	11063.71
461.67	11269.68
461.85	11379.68
462.04	11222.87
462.22	11714.38
462.40	11548.20
462.59	11506.07
462.77	11332.87
462.95	11648.85
463.13	11587.99
463.32	11506.07
463.50	11838.43
463.68	11803.32
463.86	11932.05
464.05	11513.10
464.23	11583.31
464.41	11723.74
464.59	11786.94
464.78	12168.45
464.96	11819.71
465.14	11843.11
465.32	12020.99
465.50	12187.17
465.69	12039.72
465.87	12067.80
466.05	12077.16
466.23	12056.10
466.41	12105.25
466.60	12381.43
466.78	12231.64
466.96	12245.68
467.14	12421.22
467.32	12306.54
467.51	12430.59
467.69	12149.72
467.87	12430.59
468.05	12571.02
468.23	12388.46
468.41	12294.83
468.60	12751.24
468.78	12498.46
468.96	12510.16
469.14	12638.89
469.32	12835.50
469.50	12699.75
469.69	12842.52
469.87	12973.59
470.05	13069.55
470.23	13247.43
470.41	13081.25
470.59	12959.55
470.77	13057.85
470.95	13125.72
471.14	13528.30
471.32	13167.85
471.50	13249.77
471.68	13509.57
471.86	13687.45
472.04	13706.18
472.22	13928.53
472.40	13448.72
472.58	13762.35
472.77	13788.10
472.95	14073.64
473.13	14654.09
473.31	13858.31
473.49	14150.88
473.67	14104.07
473.85	14118.11
474.03	14572.18
474.21	14448.13
474.39	14602.60
474.57	14658.78
474.75	14719.63
474.93	15073.05
475.12	15346.89
475.30	15096.46
475.48	14913.89
475.66	15115.18
475.84	15023.90
476.02	15370.30
476.20	15487.32
476.38	15932.03
476.56	16079.48
476.74	15800.96
476.92	15817.34
477.10	15754.15
477.28	15964.79
477.46	16067.78
477.64	16519.50
477.82	16320.56
478.00	16924.41
478.18	16809.73
478.36	16762.92
478.54	17125.70
478.72	16982.93
478.90	17228.68
479.08	17401.88
479.26	17397.20
479.44	17661.68
479.62	17640.62
479.80	17872.33
479.98	18111.07
480.16	18609.60
480.34	18043.19
480.52	18515.98
480.70	18464.49
480.88	18382.57
481.06	18654.07
481.24	18630.66
481.41	19208.78
481.59	18944.30
481.77	19302.40
481.95	19260.27
482.13	19803.27
482.31	19658.16
482.49	20355.64
482.67	20273.72
482.85	20418.83
483.03	20423.51
483.21	20566.29
483.39	20968.86
483.57	20568.63
483.74	20886.94
483.92	21282.49
484.10	21216.96
484.28	21394.84
484.46	21699.11
484.64	22284.24
484.82	21984.65
485.00	22106.36
485.18	22614.26
485.35	22771.07
485.53	23005.13
485.71	22993.42
485.89	23372.59
486.07	22836.61
486.25	23014.49
486.43	23307.05
486.61	23805.59
486.78	23470.89
486.96	23936.66
487.14	24547.54
487.32	24582.65
487.50	24648.18
487.68	25256.72
487.85	25387.79
488.03	25472.05
488.21	25568.01
488.39	25755.26
488.57	26122.72
488.75	26370.82
488.92	26551.04
489.10	26855.31
489.28	26551.04
489.46	26845.94
489.64	26897.44
489.81	27721.30
489.99	27571.51
490.17	27683.86
490.35	28460.91
490.53	28039.62
490.70	28442.19
490.88	27999.83
491.06	29273.08
491.24	28652.84
491.41	28725.39
491.59	29242.65
491.77	29160.73
491.95	29766.93
492.13	29532.88
492.30	29809.06
492.48	29921.41
492.66	29771.61
492.84	30202.27
493.01	30515.90
493.19	30433.99
493.37	30866.98
493.54	31063.59
493.72	31122.10
493.90	31138.49
494.08	31585.53
494.25	31957.67
494.43	32198.75
494.61	31971.72
494.79	32236.20
494.96	32151.94
495.14	32360.25
495.32	32943.04
495.49	33127.94
495.67	33144.33
495.85	33422.85
496.02	33284.76
496.20	33425.19
496.38	33745.84
496.55	33944.79
496.73	34588.44
496.91	34307.57
497.09	34712.49
497.26	34677.38
497.44	34857.60
497.62	35360.81
497.79	35271.87
497.97	35285.92
498.14	36154.26
498.32	36095.74
498.50	36046.59
498.67	36378.95
498.85	36128.51
499.03	36428.10
499.20	36451.50
499.38	36697.26
499.56	36704.28
499.73	36776.84
499.91	36980.46
500.08	37074.09
500.26	37153.66
500.44	37411.12
500.61	37706.03
500.79	37226.22
500.97	37909.66
501.14	38029.02
501.32	38139.03
501.49	38419.89
501.67	38443.30
501.84	38794.38
502.02	38576.71
502.20	38902.04
502.37	39201.63
502.55	39267.17
502.72	39119.71
502.90	39491.86
503.07	39445.05
503.25	39503.56
503.43	39531.65
503.60	40156.57
503.78	40182.32
503.95	39590.16
504.13	40451.48
504.30	40587.23
504.48	40545.10
504.65	40671.49
504.83	41172.36
505.01	41069.38
505.18	40861.07
505.36	40957.03
505.53	41017.89
505.71	41621.75
505.88	41755.16
506.06	41347.90
506.23	41677.92
506.41	41411.10
506.58	41752.82
506.76	42024.32
506.93	42401.14
507.11	42288.80
507.28	42649.24
507.46	42609.45
507.63	43044.79
507.81	43435.66
507.98	42527.53
508.16	42986.28
508.33	43040.11
508.50	43246.08
508.68	43665.03
508.85	43548.01
509.03	43658.01
509.20	43868.66
509.38	44378.90
509.55	44067.61
509.73	44388.26
509.90	44275.91
510.08	44170.59
510.25	44261.87
510.42	44617.63
510.60	44828.28
510.77	44748.70
510.95	44851.69
511.12	44673.81
511.30	45207.45
511.47	45413.41
511.64	45193.40
511.82	45656.83
511.99	45738.75
512.17	45734.07
512.34	45607.68
512.51	46162.39
512.69	46337.93
512.86	45888.54
513.04	46632.83
513.21	46340.27
513.38	46749.86
513.56	47047.11
513.73	46480.70
513.90	46691.35
514.08	46674.96
514.25	47185.20
514.43	47339.68
514.60	47049.45
514.77	47246.05
514.95	47414.57
515.12	47505.85
515.29	47278.82
515.47	47686.07
515.64	47821.83
515.81	47826.51
515.99	48083.97
516.16	48467.81
516.33	47927.15
516.51	48502.92
516.68	48191.63
516.85	48198.65
517.03	48374.19
517.20	48615.27
517.37	48514.62
517.54	48706.55
517.72	48498.24
517.89	48673.78
518.06	48849.32
518.24	48919.54
518.41	48825.92
518.58	48837.62
518.75	49041.24
518.93	49546.80
519.10	49656.81
519.27	49364.24
519.45	49230.83
519.62	49940.01
519.79	50010.23
519.96	49710.64
520.14	49832.35
520.31	49844.05
520.48	50190.45
520.65	49785.54
520.83	50136.62
521.00	50806.01
521.17	50681.96
521.34	50150.66
521.52	50459.61
521.69	50674.94
521.86	50663.24
522.03	50871.54
522.20	50789.62
522.38	50859.84
522.55	51215.60
522.72	51192.20
522.89	51035.38
523.07	51627.54
523.24	51395.82
523.41	51227.31
523.58	51379.44
523.75	51749.24
523.92	51466.04
524.10	51868.61
524.27	52069.90
524.44	51744.56
524.61	51980.96
524.78	52200.97
524.96	51620.52
525.13	51971.60
525.30	52292.25
525.47	52310.97
525.64	52442.04
525.81	52844.62
525.98	52479.49
526.16	52418.64
526.33	52310.97
526.50	52753.33
526.67	52619.92
526.84	52811.85
527.01	52849.30
527.18	52519.28
527.36	52743.97
527.53	52774.40
527.70	53275.27
527.87	53148.88
528.04	52921.85
528.21	53123.14
528.38	52928.87
528.55	53345.49
528.72	53352.51
528.89	53404.00
529.07	53095.05
529.24	53439.11
529.41	53577.20
529.58	53551.46
529.75	53542.10
529.92	53645.08
530.09	53214.42
530.26	53670.82
530.43	54033.61
530.60	53762.11
530.77	53799.55
530.94	53956.37
531.11	53764.45
531.28	54277.02
531.46	54141.27
531.63	54241.92
531.80	54148.29
531.97	54110.85
532.14	54148.29
532.31	54457.24
532.48	54251.28
532.65	54447.88
532.82	54497.03
532.99	54583.63
533.16	54494.69
533.33	54656.19
533.50	54773.22
533.67	54567.25
533.84	54625.76
534.01	54681.94
534.18	54885.56
534.35	55234.30
534.52	55180.47
534.69	55093.87
534.86	55133.66
535.03	54855.14
535.20	54756.83
535.37	55009.61
535.54	55175.79
535.71	55213.24
535.88	55098.55
536.05	55290.48
536.22	55360.69
536.38	55215.58
536.55	55526.87
536.72	55360.69
536.89	55269.41
537.06	55440.27
537.23	55414.52
537.40	55419.20
537.57	55573.68
537.74	55767.94
537.91	55856.88
538.08	55800.71
538.25	55466.02
538.42	55791.35
538.59	55945.83
538.75	55786.67
538.92	55882.63
539.09	56119.02
539.26	55877.95
539.43	56137.75
539.60	56025.40
539.77	56137.75
539.94	56479.47
540.11	56317.97
540.28	56392.87
540.44	56301.59
540.61	56147.11
540.78	56336.69
540.95	56212.65
541.12	56259.46
541.29	56086.26
541.46	56320.31
541.62	56582.45
541.79	56453.72
541.96	56252.44
542.13	56364.78
542.30	56687.78
542.47	56933.53
542.63	56961.62
542.80	56718.20
542.97	57043.54
543.14	56996.73
543.31	57153.54
543.48	56753.31
543.64	57308.02
543.81	57153.54
543.98	57420.36
544.15	57233.12
544.32	57352.49
544.48	57506.96
544.65	57172.27
544.82	57387.60
544.99	57261.21
545.16	57183.97
545.32	57331.42
545.49	57279.93
545.66	57537.39
545.83	57516.32
546.00	57506.96
546.16	57469.51
546.33	57289.29
546.50	57467.17
546.67	57663.78
546.83	57272.91
547.00	57691.86
547.17	57834.64
547.34	57361.85
547.50	57930.60
547.67	58064.01
547.84	57647.39
548.00	57949.32
548.17	58089.76
548.34	58064.01
548.51	57989.11
548.67	58164.65
548.84	57921.24
549.01	58089.76
549.18	57923.58
549.34	58073.37
549.51	58202.10
549.68	58358.92
549.84	58087.42
550.01	58316.79
550.18	58010.18
550.34	58384.66
550.51	58262.96
550.68	58225.51
550.84	58277.00
551.01	58440.84
551.18	58277.00
551.34	58478.28
551.51	58452.54
551.68	58522.76
551.84	58384.66
552.01	58159.97
552.18	58349.56
552.34	58239.55
552.51	58714.68
552.68	58337.85
552.84	58487.65
553.01	58794.26
553.18	58681.91
553.34	58768.51
553.51	58628.08
553.67	58719.36
553.84	58752.13
554.01	58843.41
554.17	58831.71
554.34	58700.64
554.51	58768.51
554.67	58955.75
554.84	58869.15
555.00	58822.34
555.17	58812.98
555.33	58969.80
555.50	58862.13
555.67	58913.62
555.83	58859.79
556.00	59007.25
556.16	59262.36
556.33	59143.00
556.50	59070.44
556.66	59271.73
556.83	58918.31
556.99	59260.02
557.16	59238.96
557.32	59318.54
557.49	59615.79
557.65	59428.54
557.82	59334.92
557.98	59175.76
558.15	59257.68
558.32	59634.51
558.48	59327.90
558.65	59430.88
558.81	59248.32
558.98	59353.65
559.14	59419.18
559.31	59583.02
559.47	59517.48
559.64	59667.28
559.80	59529.19
559.97	59594.72
560.13	59721.11
560.30	59590.04
560.46	59636.85
560.63	59704.73
560.79	59444.93
560.96	59704.73
561.12	59615.79
561.29	59480.03
561.45	59718.77
561.61	59777.28
561.78	59718.77
561.94	59896.65
562.11	59604.08
562.27	59882.61
562.44	59765.58
562.60	60088.57
562.77	59898.99
562.93	59674.30
563.10	59948.14
563.26	59601.74
563.42	60060.49
563.59	59861.54
563.75	59868.56
563.92	59742.17
564.08	60088.57
564.24	60083.89
564.41	59934.10
564.57	59903.67
564.74	59957.50
564.90	60013.68
565.07	60154.11
565.23	59938.78
565.39	60060.49
565.56	60203.26
565.72	59962.18
565.88	60198.58
566.05	59945.80
566.21	59978.57
566.38	60037.08
566.54	60097.94
566.70	60154.11
566.87	60240.71
567.03	60133.04
567.19	60392.84
567.36	60140.07
567.52	60238.37
567.68	60313.26
567.85	60212.62
568.01	60371.78
568.17	60142.41
568.34	60184.54
568.50	60055.81
568.66	60287.52
568.83	60273.48
568.99	60259.43
569.15	60229.01
569.32	60301.56
569.48	60055.81
569.64	60427.95
569.81	60329.65
569.97	60329.65
570.13	60416.25
570.30	60119.00
570.46	60411.57
570.62	60219.64
570.78	60275.82
570.95	60172.83
571.11	60376.46
571.27	60161.13
571.43	60502.85
571.60	60505.19
571.76	60556.68
571.92	60439.65
572.09	60615.19
572.25	60430.29
572.41	60257.09
572.57	60441.99
572.74	60519.23
572.90	60500.51
573.06	60423.27
573.22	60477.10
573.38	60378.80
573.55	60456.04
573.71	60542.64
573.87	60549.66
574.03	60540.30
574.20	60601.15
574.36	60526.25
574.52	60535.62
574.68	60647.96
574.84	60706.47
575.01	60640.94
575.17	60617.53
575.33	60589.45
575.49	60392.84
575.65	60750.94
575.82	60652.64
575.98	60474.76
576.14	60650.30
576.30	60647.96
576.46	60615.19
576.62	60779.03
576.79	60701.79
576.95	60493.49
577.11	60657.32
577.27	60849.25
577.43	60514.55
577.59	60697.11
577.75	60722.86
577.92	60594.13
578.08	60729.88
578.24	60622.22
578.40	60879.67
578.56	60884.36
578.72	60846.91
578.88	60851.59
579.04	60795.42
579.21	60774.35
579.37	60926.49
579.53	60821.16
579.69	60509.87
579.85	60757.97
580.01	60865.63
580.17	60589.45
580.33	60905.42
580.49	60713.50
580.65	60727.54
580.82	60781.37
580.98	60643.28
581.14	60750.94
581.30	60966.27
581.46	60938.19
581.62	60786.05
581.78	60750.94
581.94	60947.55
582.10	60879.67
582.26	60720.52
582.42	60575.40
582.58	60748.60
582.74	60954.57
582.90	60877.33
583.06	60872.65
583.22	60662.00
583.38	60755.63
583.54	60753.29
583.70	60989.68
583.86	61045.85
584.02	60701.79
584.18	61064.58
584.34	60790.73
584.50	61015.43
584.66	60914.78
584.82	60781.37
584.98	61109.05
585.14	60910.10
585.30	60865.63
585.46	61029.47
585.62	60830.52
585.78	60896.06
585.94	60849.25
586.10	60769.67
586.26	60846.91
586.42	60884.36
586.58	61066.92
586.74	60884.36
586.90	60711.16
587.06	60832.86
587.22	60966.27
587.38	60898.40
587.54	61045.85
587.70	60989.68
587.86	60882.02
588.02	61006.06
588.18	61031.81
588.34	60818.82
