SpectraSuite Data File
++++++++++++++++++++++++++++++++++++
Date: Fri Oct 25 11:22:50 EDT 2013
User: price-jones
Dark Spectrum Present: No
Reference Spectrum Present: No
Number of Sampled Component Spectra: 1
Spectrometers: USB2+H05261
Integration Time (usec): 100000 (USB2+H05261)
Spectra Averaged: 1 (USB2+H05261)
Boxcar Smoothing: 0 (USB2+H05261)
Correct for Electrical Dark: No (USB2+H05261)
Strobe/Lamp Enabled: No (USB2+H05261)
Correct for Detector Non-linearity: No (USB2+H05261)
Correct for Stray Light: No (USB2+H05261)
Number of Pixels in Processed Spectrum: 2048
>>>>>Begin Processed Spectral Data<<<<<
365.73	161.50
365.92	161.50
366.12	161.50
366.32	201.29
366.52	140.43
366.72	180.22
366.91	119.37
367.11	149.79
367.31	79.58
367.51	46.81
367.70	135.75
367.90	126.39
368.10	65.54
368.30	102.98
368.49	138.09
368.69	194.26
368.89	159.16
369.09	198.95
369.28	124.05
369.48	107.66
369.68	147.45
369.87	245.76
370.07	145.11
370.27	250.44
370.47	355.76
370.66	620.24
370.86	615.56
371.06	592.16
371.25	706.84
371.45	589.82
371.65	744.29
371.84	638.97
372.04	727.91
372.24	755.99
372.44	706.84
372.63	657.69
372.83	706.84
373.03	730.25
373.22	763.01
373.42	706.84
373.62	800.46
373.81	741.95
374.01	774.72
374.21	725.57
374.40	781.74
374.60	870.68
374.79	802.80
374.99	802.80
375.19	866.00
375.38	936.21
375.58	758.33
375.78	910.47
375.97	912.81
376.17	875.36
376.37	889.40
376.56	833.23
376.76	851.96
376.95	889.40
377.15	837.91
377.35	856.64
377.54	884.72
377.74	858.98
377.93	814.51
378.13	917.49
378.33	964.30
378.52	987.71
378.72	926.85
378.91	1011.11
379.11	997.07
379.31	908.13
379.50	957.28
379.70	924.51
379.89	1027.50
380.09	903.45
380.28	945.58
380.48	919.83
380.68	901.11
380.87	1004.09
381.07	997.07
381.26	1034.52
381.46	1006.43
381.65	926.85
381.85	1097.71
382.04	1018.13
382.24	1137.50
382.43	1125.80
382.63	1025.15
382.83	1043.88
383.02	1062.60
383.22	1001.75
383.41	1088.35
383.61	1097.71
383.80	1050.90
384.00	1137.50
384.19	1060.26
384.39	1191.33
384.58	1093.03
384.78	1224.10
384.97	1205.38
385.17	1116.44
385.36	1203.04
385.56	1196.01
385.75	1200.69
385.95	1205.38
386.14	1203.04
386.34	1261.55
386.53	1217.08
386.72	1273.25
386.92	1266.23
387.11	1254.53
387.31	1282.61
387.50	1270.91
387.70	1252.19
387.89	1184.31
388.09	1242.82
388.28	1200.69
388.48	1256.87
388.67	1238.14
388.86	1240.48
389.06	1291.98
389.25	1348.15
389.45	1357.51
389.64	1324.74
389.84	1432.41
390.03	1399.64
390.22	1378.58
390.42	1423.05
390.61	1430.07
390.81	1392.62
391.00	1404.32
391.19	1416.02
391.39	1406.66
391.58	1423.05
391.78	1486.24
391.97	1469.86
392.16	1533.05
392.36	1460.49
392.55	1584.54
392.75	1502.62
392.94	1549.43
393.13	1493.26
393.33	1556.46
393.52	1605.61
393.71	1558.80
393.91	1575.18
394.10	1542.41
394.29	1636.03
394.49	1614.97
394.68	1600.93
394.88	1579.86
395.07	1713.27
395.26	1614.97
395.46	1652.42
395.65	1760.08
395.84	1792.85
396.04	1799.87
396.23	1724.97
396.42	1696.89
396.62	1809.23
396.81	1781.15
397.00	1797.53
397.19	1809.23
397.39	1771.79
397.58	1930.94
397.77	1795.19
397.97	1865.41
398.16	1853.70
398.35	1867.75
398.55	1813.92
398.74	1888.81
398.93	2066.69
399.12	1963.71
399.32	1912.22
399.51	1942.64
399.70	2033.93
399.90	1975.41
400.09	2010.52
400.28	2078.40
400.47	2015.20
400.67	2076.06
400.86	2047.97
401.05	2155.63
401.24	2115.84
401.44	2090.10
401.63	2057.33
401.82	2195.42
402.01	2129.89
402.21	2150.95
402.40	2169.68
402.59	2223.51
402.78	2190.74
402.97	2249.25
403.17	2237.55
403.36	2340.54
403.55	2223.51
403.74	2286.70
403.93	2359.26
404.13	2291.38
404.32	2340.54
404.51	2368.62
404.70	2382.67
404.89	2450.54
405.09	2541.82
405.28	2359.26
405.47	2523.10
405.66	2485.65
405.85	2544.16
406.05	2513.74
406.24	2497.35
406.43	2572.25
406.62	2668.21
406.81	2752.47
407.00	2640.12
407.20	2548.84
407.39	2495.01
407.58	2731.41
407.77	2801.62
407.96	2813.32
408.15	2785.24
408.34	2715.02
408.54	2916.31
408.73	2708.00
408.92	2885.88
409.11	2871.84
409.30	2892.90
409.49	2888.22
409.68	2897.58
409.87	2869.50
410.07	2949.08
410.26	2960.78
410.45	2890.56
410.64	3073.12
410.83	3049.72
411.02	3274.41
411.21	3255.69
411.40	3110.57
411.59	3094.19
411.78	3197.17
411.98	3309.52
412.17	3330.58
412.36	3304.84
412.55	3454.63
412.74	3353.99
412.93	3344.63
413.12	3307.18
413.31	3510.80
413.50	3559.95
413.69	3428.88
413.88	3684.00
414.07	3655.92
414.26	3644.21
414.45	3648.90
414.64	3662.94
414.83	3936.78
415.02	3796.35
415.22	4004.66
415.41	3943.80
415.60	3922.74
415.79	3803.37
415.98	3983.59
416.17	4009.34
416.36	3936.78
416.55	4191.90
416.74	4299.56
416.93	4105.30
417.12	4159.13
417.31	4236.37
417.50	4152.11
417.69	4243.39
417.88	4241.05
418.07	4304.25
418.26	4278.50
418.45	4383.82
418.64	4479.79
418.83	4484.47
419.02	4322.97
419.21	4531.28
419.39	4674.05
419.58	4545.32
419.77	4454.04
419.96	4585.11
420.15	4634.26
420.34	4713.84
420.53	4624.90
420.72	4732.56
420.91	4674.05
421.10	4760.65
421.29	4901.08
421.48	4622.56
421.67	4737.24
421.86	4762.99
422.05	4858.95
422.24	4858.95
422.43	4931.51
422.61	4957.25
422.80	4877.68
422.99	5011.09
423.18	4957.25
423.37	4959.60
423.56	4858.95
423.75	4903.42
423.94	4933.85
424.13	4491.49
424.32	4732.56
424.50	4947.89
424.69	5179.61
424.88	5184.29
425.07	4936.19
425.26	4936.19
425.45	5064.92
425.64	4978.32
425.83	5004.07
426.01	5118.75
426.20	5050.88
426.39	5090.67
426.58	5078.96
426.77	5160.88
426.96	5085.98
427.15	5172.58
427.33	5167.90
427.52	5041.51
427.71	5245.14
427.90	5238.12
428.09	5305.99
428.28	5369.19
428.46	5359.83
428.65	5392.59
428.84	5535.37
429.03	5540.05
429.22	5369.19
429.40	5481.53
429.59	5591.54
429.78	5341.10
429.97	5217.05
430.16	5603.24
430.34	5645.37
430.53	5757.72
430.72	5743.67
430.91	5694.52
431.10	5738.99
431.28	5970.71
431.47	5781.12
431.66	5802.19
431.85	5877.09
432.03	5893.47
432.22	5973.05
432.41	5996.45
432.60	5949.64
432.79	6045.60
432.97	6019.86
433.16	6150.93
433.35	6057.31
433.54	6073.69
433.72	6129.86
433.91	6120.50
434.10	6179.01
434.28	6235.19
434.47	6354.55
434.66	6235.19
434.85	6392.00
435.03	6438.81
435.22	6270.30
435.41	6593.29
435.59	6546.48
435.78	6588.61
435.97	6499.67
436.16	6370.94
436.34	6436.47
436.53	6637.76
436.72	6532.44
436.90	6354.55
437.09	6551.16
437.28	6548.82
437.46	6719.68
437.65	6768.83
437.84	6747.76
438.02	6663.51
438.21	6792.23
438.40	6855.43
438.58	6970.12
438.77	6937.35
438.96	7016.93
439.14	7295.45
439.33	7304.81
439.52	7351.62
439.70	7220.55
439.89	7426.52
440.08	7442.90
440.26	7672.28
440.45	7463.97
440.63	7843.14
440.82	7688.66
441.01	7513.12
441.19	7435.88
441.38	7873.56
441.57	7686.32
441.75	7943.78
441.94	8051.44
442.12	7953.14
442.31	7882.92
442.50	8198.90
442.68	8063.15
442.87	8044.42
443.05	8269.11
443.24	8353.37
443.43	8273.79
443.61	8196.56
443.80	8615.51
443.98	8084.21
444.17	8044.42
444.35	8112.30
444.54	8512.53
444.73	8395.50
444.91	8404.86
445.10	8475.08
445.28	8341.67
445.47	8404.86
445.65	8414.23
445.84	8564.02
446.02	8489.12
446.21	8425.93
446.39	8671.68
446.58	8585.08
446.77	8542.96
446.95	8327.63
447.14	8489.12
447.32	8608.49
447.51	8538.27
447.69	8519.55
447.88	8685.73
448.06	8475.08
448.25	8461.04
448.43	8683.39
448.62	8552.32
448.80	8655.30
448.99	8798.07
449.17	8929.14
449.36	8645.94
449.54	8795.73
449.73	9078.94
449.91	9156.18
450.10	9011.06
450.28	9170.22
450.46	9156.18
450.65	8987.66
450.83	9139.79
451.02	9114.05
451.20	9247.46
451.39	9210.01
451.57	9207.67
451.76	9081.28
451.94	9195.96
452.13	9397.25
452.31	9439.38
452.49	9280.22
452.68	9472.15
452.86	9380.87
453.05	9610.24
453.23	9483.85
453.42	9408.95
453.60	9437.04
453.78	9568.11
453.97	9544.70
454.15	9558.75
454.34	9486.19
454.52	9738.97
454.70	9912.17
454.89	9792.80
455.07	10190.69
455.26	9949.62
455.44	9944.94
455.62	9963.66
455.81	10066.64
455.99	10080.69
456.17	10092.39
456.36	10352.19
456.54	10200.05
456.73	10370.91
456.91	10525.39
457.09	10555.82
457.28	10511.35
457.46	10317.08
457.64	10420.06
457.83	10497.30
458.01	10511.35
458.19	10721.99
458.38	10595.61
458.56	10916.26
458.74	10761.78
458.93	10906.90
459.11	10979.45
459.29	10885.83
459.48	11152.65
459.66	10888.17
459.84	10869.45
460.03	11073.07
460.21	11220.53
460.39	10853.06
460.57	11147.97
460.76	11040.31
460.94	11185.42
461.12	11346.92
461.31	11171.38
461.49	11159.67
461.67	11136.27
461.85	11587.99
462.04	11257.98
462.22	12020.99
462.40	11728.42
462.59	11805.66
462.77	11477.99
462.95	11889.92
463.13	11618.42
463.32	11548.20
463.50	11850.13
463.68	11852.47
463.86	11836.09
464.05	11690.98
464.23	11829.07
464.41	11831.41
464.59	11639.48
464.78	12173.13
464.96	11990.56
465.14	11894.60
465.32	12423.56
465.50	12304.20
465.69	12142.70
465.87	12126.32
466.05	12121.63
466.23	12496.12
466.41	12329.94
466.60	12437.61
466.78	12217.60
466.96	12203.55
467.14	12297.17
467.32	12556.97
467.51	12835.50
467.69	12280.79
467.87	12587.40
468.05	12648.26
468.23	12517.18
468.41	12545.27
468.60	12730.17
468.78	12603.78
468.96	12533.57
469.14	12774.64
469.32	13235.73
469.50	12659.96
469.69	13238.07
469.87	13364.46
470.05	13247.43
470.23	13289.56
470.41	13200.62
470.59	13441.70
470.77	13184.24
470.95	13352.76
471.14	13490.85
471.32	13287.22
471.50	13600.85
471.68	13652.34
471.86	13956.61
472.04	13795.12
472.22	14209.39
472.40	13745.97
472.58	13827.88
472.77	14244.50
472.95	14303.01
473.13	14441.11
473.31	14078.32
473.49	14403.66
473.67	14457.49
473.85	14225.78
474.03	14682.18
474.21	14843.68
474.39	14890.49
474.57	14792.19
474.75	14794.53
474.93	15274.34
475.12	14967.73
475.30	15367.96
475.48	15234.55
475.66	15171.35
475.84	14958.36
476.02	15496.69
476.20	15356.25
476.38	16013.95
476.56	15922.66
476.74	16058.42
476.92	16208.21
477.10	15971.82
477.28	16306.51
477.46	16418.86
477.64	16512.48
477.82	16629.51
478.00	17018.04
478.18	16884.62
478.36	17008.67
478.54	17179.53
478.72	17294.22
478.90	17539.97
479.08	17984.68
479.26	17603.17
479.44	17799.77
479.62	17841.90
479.80	18251.50
479.98	18485.55
480.16	18810.89
480.34	18256.18
480.52	18515.98
480.70	18707.90
480.88	18604.92
481.06	18998.13
481.24	18874.08
481.41	19236.86
481.59	19442.83
481.77	19747.10
481.95	19976.47
482.13	19880.51
482.31	19793.91
482.49	20276.06
482.67	20130.95
482.85	20662.25
483.03	20725.44
483.21	21200.57
483.39	21074.18
483.57	20954.82
483.74	21542.29
483.92	21549.31
484.10	21507.18
484.28	21853.58
484.46	21750.60
484.64	22314.67
484.82	22487.87
485.00	22483.19
485.18	23033.21
485.35	23126.83
485.53	23009.81
485.71	23363.23
485.89	23559.83
486.07	23618.35
486.25	23672.18
486.43	24013.90
486.61	24147.31
486.78	24383.70
486.96	24563.92
487.14	24704.35
487.32	24606.05
487.50	25287.15
487.68	25240.34
487.85	25556.31
488.03	25795.04
488.21	26061.87
488.39	25968.24
488.57	26356.77
488.75	26384.86
488.92	26651.68
489.10	26845.94
489.28	26752.32
489.46	27192.34
489.64	27264.90
489.81	28133.24
489.99	27606.62
490.17	28154.30
490.35	28133.24
490.53	28430.49
490.70	28678.58
490.88	28706.67
491.06	29125.63
491.24	28652.84
491.41	29465.00
491.59	29113.92
491.77	29855.87
491.95	29668.63
492.13	30134.40
492.30	30115.67
492.48	30211.64
492.66	30536.97
492.84	30649.32
493.01	30663.36
493.19	30859.96
493.37	31374.88
493.54	31248.49
493.72	31527.02
493.90	31297.64
494.08	31920.23
494.25	31936.61
494.43	32390.67
494.61	32566.21
494.79	32676.22
494.96	32919.63
495.14	32460.89
495.32	33493.07
495.49	33425.19
495.67	33902.66
495.85	34059.48
496.02	33825.42
496.20	34302.89
496.38	34050.11
496.55	34122.67
496.73	35016.75
496.91	34387.15
497.09	34911.43
497.26	35337.41
497.44	35461.46
497.62	35438.05
497.79	36093.40
497.97	35648.70
498.14	36400.01
498.32	36156.60
498.50	36371.92
498.67	36631.72
498.85	36994.51
499.03	37184.09
499.20	36779.18
499.38	37097.49
499.56	37364.31
499.73	37689.65
499.91	37560.92
500.08	38012.64
500.26	37467.30
500.44	37928.38
500.61	38139.03
500.79	37897.95
500.97	38550.96
501.14	38557.99
501.32	39182.91
501.49	39042.48
501.67	39342.06
501.84	39344.41
502.02	39012.05
502.20	39194.61
502.37	39889.75
502.55	39192.27
502.72	39807.83
502.90	39880.39
503.07	39922.52
503.25	40116.78
503.43	40135.51
503.60	40240.83
503.78	40706.60
503.95	40437.44
504.13	40744.05
504.30	41104.49
504.48	40919.59
504.65	40947.67
504.83	41911.97
505.01	41532.81
505.18	41516.42
505.36	41799.63
505.53	41289.39
505.71	41963.46
505.88	42136.66
506.06	41844.10
506.23	42394.12
506.41	42092.19
506.58	42466.68
506.76	42576.69
506.93	43023.73
507.11	42473.70
507.28	42735.84
507.46	42937.13
507.63	43136.07
507.81	43543.33
507.98	43365.45
508.16	43580.78
508.33	43384.17
508.50	43988.03
508.68	43548.01
508.85	44076.97
509.03	43929.51
509.20	44460.82
509.38	44343.79
509.55	45036.59
509.73	44891.48
509.90	45364.26
510.08	45024.89
510.25	44924.24
510.42	44687.85
510.60	45696.62
510.77	45874.50
510.95	45579.59
511.12	45469.59
511.30	45649.81
511.47	45801.94
511.64	45780.88
511.82	45654.49
511.99	45933.01
512.17	46129.62
512.34	46384.74
512.51	46885.61
512.69	46649.22
512.86	46548.57
513.04	46791.99
513.21	46946.47
513.38	47063.49
513.56	47264.78
513.73	47077.54
513.90	47353.72
514.08	47356.06
514.25	47421.59
514.43	47742.25
514.60	47760.97
514.77	47564.37
514.95	48154.18
515.12	47615.86
515.29	47985.66
515.47	48177.59
515.64	48385.89
515.81	48315.68
515.99	48481.86
516.16	48701.87
516.33	48662.08
516.51	48982.73
516.68	48650.38
516.85	48945.28
517.03	49291.68
517.20	49324.45
517.37	49441.48
517.54	49478.92
517.72	49319.77
517.89	49514.03
518.06	49848.73
518.24	49647.44
518.41	49680.21
518.58	49516.37
518.75	49684.89
518.93	50064.06
519.10	49914.26
519.27	49991.50
519.45	50127.25
519.62	50174.06
519.79	50122.57
519.96	50335.56
520.14	50471.31
520.31	50042.99
520.48	51019.00
520.65	50536.85
520.83	51030.70
521.00	50899.63
521.17	50696.00
521.34	50899.63
521.52	51262.41
521.69	51374.76
521.86	51505.83
522.03	51456.68
522.20	51709.46
522.38	51618.17
522.55	52062.88
522.72	51526.89
522.89	51550.30
523.07	52189.27
523.24	51793.71
523.41	51835.84
523.58	52009.04
523.75	51945.85
523.92	51964.57
524.10	51973.94
524.27	52217.35
524.44	52273.52
524.61	51971.60
524.78	52521.62
524.96	52388.21
525.13	52582.48
525.30	52802.49
525.47	52781.42
525.64	52931.22
525.81	52816.53
525.98	53013.13
526.16	52872.70
526.33	52846.96
526.50	52968.66
526.67	53151.23
526.84	53216.76
527.01	53127.82
527.18	53064.63
527.36	53031.86
527.53	53551.46
527.70	53820.62
527.87	53382.94
528.04	53226.12
528.21	53432.09
528.38	53542.10
528.55	53712.95
528.72	53497.62
528.89	53642.74
529.07	53558.48
529.24	53944.67
529.41	54028.93
529.58	53783.17
529.75	54017.22
529.92	53846.36
530.09	54265.32
530.26	54342.56
530.43	54307.45
530.60	54239.57
530.77	54164.68
530.94	54431.50
531.11	54307.45
531.28	54513.42
531.46	54461.93
531.63	54246.60
531.80	54707.68
531.97	54731.09
532.14	54438.52
532.31	54958.12
532.48	54944.08
532.65	54871.52
532.82	54574.27
532.99	55208.56
533.16	54932.37
533.33	54955.78
533.50	55250.69
533.67	55140.68
533.84	54932.37
534.01	55299.84
534.18	55147.70
534.35	55405.16
534.52	55274.09
534.69	55482.40
534.86	55379.42
535.03	55222.60
535.20	55344.31
535.37	55456.65
535.54	55643.90
535.71	55597.09
535.88	55849.86
536.05	55861.57
536.22	55765.60
536.38	55962.21
536.55	55664.96
536.72	55641.56
536.89	55800.71
537.06	55812.41
537.23	56186.90
537.40	55735.18
537.57	55807.73
537.74	56193.92
537.91	56147.11
538.08	56175.20
538.25	56058.17
538.42	56069.87
538.59	56275.84
538.75	56107.32
538.92	56495.85
539.09	56669.05
539.26	56327.33
539.43	56303.93
539.60	56587.13
539.77	56458.40
539.94	56612.88
540.11	56488.83
540.28	56521.60
540.44	56420.95
540.61	56694.80
540.78	56502.87
540.95	56678.41
541.12	56725.22
541.29	56669.05
541.46	56816.50
541.62	56868.00
541.79	56711.18
541.96	56514.58
542.13	56783.74
542.30	56818.84
542.47	57205.03
542.63	57095.03
542.80	57092.69
542.97	57357.17
543.14	57425.04
543.31	57303.34
543.48	57476.54
543.64	57509.30
543.81	57418.02
543.98	57453.13
544.15	57584.20
544.32	57595.90
544.48	57862.72
544.65	57743.36
544.82	57408.66
544.99	57471.85
545.16	57881.45
545.32	57506.96
545.49	58052.31
545.66	57989.11
545.83	57911.88
546.00	57888.47
546.16	57839.32
546.33	57703.57
546.50	57574.84
546.67	57930.60
546.83	57745.70
547.00	58028.90
547.17	57883.79
547.34	57705.91
547.50	58145.93
547.67	58347.21
547.84	58213.80
548.00	58356.58
548.17	58653.82
548.34	58347.21
548.51	58646.80
548.67	58522.76
548.84	58340.19
549.01	58340.19
549.18	58532.12
549.34	58422.11
549.51	58440.84
549.68	58665.53
549.84	58513.39
550.01	58625.74
550.18	58548.50
550.34	58663.19
550.51	58822.34
550.68	58536.80
550.84	58459.56
551.01	58904.26
551.18	58770.85
551.34	58780.21
551.51	58798.94
551.68	58794.26
551.84	58915.96
552.01	58461.90
552.18	58871.49
552.34	58784.90
552.51	58986.18
552.68	58766.17
552.84	58618.72
553.01	59025.97
553.18	59089.16
553.34	58986.18
553.51	58953.41
553.67	58962.78
553.84	59147.68
554.01	59093.85
554.17	58965.12
554.34	59267.05
554.51	59220.23
554.67	59332.58
554.84	59196.83
555.00	59133.63
555.17	59217.89
555.33	58864.47
555.50	59154.70
555.67	59145.34
555.83	59173.42
556.00	59262.36
556.16	59641.53
556.33	59653.23
556.50	59299.81
556.66	59587.70
556.83	59126.61
556.99	59590.04
557.16	59564.29
557.32	59639.19
557.49	59767.92
557.65	59676.64
557.82	59395.77
557.98	59533.87
558.15	59739.83
558.32	59594.72
558.48	59505.78
558.65	59625.15
558.81	59833.46
558.98	59760.90
559.14	59896.65
559.31	59849.84
559.47	59891.97
559.64	59896.65
559.80	60044.10
559.97	59873.24
560.13	59927.08
560.30	59861.54
560.46	59873.24
560.63	59945.80
560.79	59889.63
560.96	60072.19
561.12	60107.30
561.29	60121.34
561.45	60093.25
561.61	60133.04
561.78	60107.30
561.94	60034.74
562.11	60004.31
562.27	60081.55
562.44	60179.85
562.60	60236.03
562.77	59987.93
562.93	60144.75
563.10	60275.82
563.26	60046.44
563.42	60399.86
563.59	60327.31
563.75	60224.32
563.92	60200.92
564.08	60102.62
564.24	60399.86
564.41	60355.39
564.57	60310.92
564.74	60310.92
564.90	60294.54
565.07	60423.27
565.23	60252.41
565.39	60294.54
565.56	60619.88
565.72	60456.04
565.88	60423.27
566.05	60341.35
566.21	60343.69
566.38	60570.72
566.54	60474.76
566.70	60615.19
566.87	60643.28
567.03	60378.80
567.19	60704.13
567.36	60505.19
567.52	60451.36
567.68	60666.69
567.85	60659.66
568.01	60615.19
568.17	60626.90
568.34	60519.23
568.50	60615.19
568.66	60449.02
568.83	60619.88
568.99	60463.06
569.15	60645.62
569.32	60554.34
569.48	60390.50
569.64	60676.05
569.81	60556.68
569.97	60521.57
570.13	60519.23
570.30	60556.68
570.46	60830.52
570.62	60818.82
570.78	60900.74
570.95	60596.47
571.11	60530.93
571.27	60757.97
571.43	60900.74
571.60	60914.78
571.76	60947.55
571.92	60985.00
572.09	60779.03
572.25	60949.89
572.41	60757.97
572.57	60589.45
572.74	61064.58
572.90	60858.61
573.06	60910.10
573.22	60837.54
573.38	60772.01
573.55	60935.85
573.71	61064.58
573.87	60872.65
574.03	60629.24
574.20	61010.74
574.36	60762.65
574.52	60715.84
574.68	61069.26
574.84	60893.72
575.01	61001.38
575.17	60954.57
575.33	60867.97
575.49	60917.12
575.65	61024.79
575.82	61120.75
575.98	61008.40
576.14	61099.68
576.30	61078.62
576.46	60963.93
576.62	60931.17
576.79	61076.28
576.95	60736.90
577.11	61034.15
577.27	61153.52
577.43	61064.58
577.59	60814.14
577.75	60893.72
577.92	61038.83
578.08	60905.42
578.24	61043.51
578.40	61043.51
578.56	61130.11
578.72	60992.02
578.88	61118.41
579.04	61174.58
579.21	61095.00
579.37	61261.18
579.53	61275.22
579.69	60989.68
579.85	60844.57
580.01	60949.89
580.17	60879.67
580.33	61146.50
580.49	61200.33
580.65	61249.48
580.82	61038.83
580.98	61064.58
581.14	60985.00
581.30	61240.12
581.46	61043.51
581.62	61109.05
581.78	61015.43
581.94	61183.94
582.10	61298.63
582.26	61162.88
582.42	61001.38
582.58	61179.26
582.74	61113.73
582.90	61219.05
583.06	61240.12
583.22	60863.29
583.38	61029.47
583.54	61254.16
583.70	61183.94
583.86	61118.41
584.02	61015.43
584.18	61244.80
584.34	61087.98
584.50	61120.75
584.66	61162.88
584.82	60945.21
584.98	61350.12
585.14	61052.87
585.30	60961.59
585.46	61340.76
585.62	61286.93
585.78	61418.00
585.94	61125.43
586.10	61209.69
586.26	61188.63
586.42	61092.66
586.58	61296.29
586.74	61303.31
586.90	61179.26
587.06	61059.90
587.22	61324.38
587.38	61279.91
587.54	61293.95
587.70	61322.04
587.86	61195.65
588.02	61134.79
588.18	61446.08
588.34	61312.67
588.49	61244.80
