SpectraSuite Data File
++++++++++++++++++++++++++++++++++++
Date: Fri Oct 25 11:24:03 EDT 2013
User: price-jones
Dark Spectrum Present: No
Reference Spectrum Present: No
Number of Sampled Component Spectra: 1
Spectrometers: USB2+H05261
Integration Time (usec): 100000 (USB2+H05261)
Spectra Averaged: 1 (USB2+H05261)
Boxcar Smoothing: 0 (USB2+H05261)
Correct for Electrical Dark: No (USB2+H05261)
Strobe/Lamp Enabled: No (USB2+H05261)
Correct for Detector Non-linearity: No (USB2+H05261)
Correct for Stray Light: No (USB2+H05261)
Number of Pixels in Processed Spectrum: 2048
>>>>>Begin Processed Spectral Data<<<<<
365.73	182.56
365.92	182.56
366.12	182.56
366.32	161.50
366.52	63.19
366.72	208.31
366.91	140.43
367.11	145.11
367.31	175.54
367.51	72.56
367.70	135.75
367.90	105.32
368.10	156.82
368.30	93.62
368.49	173.20
368.69	156.82
368.89	156.82
369.09	107.66
369.28	149.79
369.48	147.45
369.68	257.46
369.87	236.39
370.07	182.56
370.27	182.56
370.47	320.65
370.66	543.00
370.86	608.54
371.06	655.35
371.25	734.93
371.45	634.29
371.65	645.99
371.84	683.44
372.04	685.78
372.24	685.78
372.44	657.69
372.63	746.63
372.83	800.46
373.03	774.72
373.22	723.23
373.42	723.23
373.62	816.85
373.81	746.63
374.01	753.65
374.21	830.89
374.40	772.38
374.60	770.04
374.79	837.91
374.99	894.08
375.19	725.57
375.38	835.57
375.58	891.74
375.78	889.40
375.97	732.59
376.17	880.04
376.37	758.33
376.56	973.66
376.76	917.49
376.95	884.72
377.15	873.02
377.35	849.61
377.54	866.00
377.74	945.58
377.93	896.43
378.13	908.13
378.33	919.83
378.52	954.94
378.72	987.71
378.91	947.92
379.11	1025.15
379.31	924.51
379.50	964.30
379.70	926.85
379.89	959.62
380.09	976.00
380.28	1022.81
380.48	999.41
380.68	957.28
380.87	1076.65
381.07	1050.90
381.26	1004.09
381.46	997.07
381.65	1053.24
381.85	1022.81
382.04	997.07
382.24	1069.62
382.43	1029.84
382.63	1102.39
382.83	1053.24
383.02	1006.43
383.22	1116.44
383.41	1095.37
383.61	1074.31
383.80	1125.80
384.00	1097.71
384.19	1071.97
384.39	1170.27
384.58	1048.56
384.78	1170.27
384.97	1205.38
385.17	1151.54
385.36	1174.95
385.56	1121.12
385.75	1123.46
385.95	1170.27
386.14	1165.59
386.34	1254.53
386.53	1200.69
386.72	1306.02
386.92	1235.80
387.11	1217.08
387.31	1224.10
387.50	1212.40
387.70	1207.72
387.89	1228.78
388.09	1196.01
388.28	1273.25
388.48	1200.69
388.67	1289.64
388.86	1383.26
389.06	1301.34
389.25	1320.06
389.45	1434.75
389.64	1320.06
389.84	1320.06
390.03	1394.96
390.22	1392.62
390.42	1406.66
390.61	1373.89
390.81	1416.02
391.00	1469.86
391.19	1404.32
391.39	1476.88
391.58	1444.11
391.78	1460.49
391.97	1387.94
392.16	1401.98
392.36	1589.22
392.55	1561.14
392.75	1460.49
392.94	1563.48
393.13	1565.82
393.33	1577.52
393.52	1554.12
393.71	1624.33
393.91	1575.18
394.10	1533.05
394.29	1596.25
394.49	1621.99
394.68	1694.55
394.88	1600.93
395.07	1668.80
395.26	1593.90
395.46	1666.46
395.65	1764.76
395.84	1689.87
396.04	1785.83
396.23	1781.15
396.42	1668.80
396.62	1778.81
396.81	1813.92
397.00	1837.32
397.19	1842.00
397.39	1783.49
397.58	1849.02
397.77	1834.98
397.97	1865.41
398.16	1872.43
398.35	1949.67
398.55	1863.07
398.74	1832.64
398.93	1935.62
399.12	1902.86
399.32	1886.47
399.51	1930.94
399.70	2022.22
399.90	2090.10
400.09	2015.20
400.28	1998.82
400.47	2026.90
400.67	1977.75
400.86	2108.82
401.05	2033.93
401.24	2122.87
401.44	2143.93
401.63	2076.06
401.82	2050.31
402.01	2183.72
402.21	2270.32
402.40	2125.21
402.59	2221.17
402.78	2211.81
402.97	2256.28
403.17	2249.25
403.36	2298.41
403.55	2284.36
403.74	2347.56
403.93	2275.00
404.13	2277.34
404.32	2406.07
404.51	2366.28
404.70	2328.83
404.89	2368.62
405.09	2459.90
405.28	2429.48
405.47	2462.24
405.66	2511.39
405.85	2504.37
406.05	2436.50
406.24	2588.63
406.43	2569.91
406.62	2513.74
406.81	2609.70
407.00	2548.84
407.20	2588.63
407.39	2511.39
407.58	2768.85
407.77	2754.81
407.96	2780.56
408.15	2799.28
408.34	2808.64
408.54	2825.03
408.73	2829.71
408.92	2881.20
409.11	2897.58
409.30	2876.52
409.49	2857.79
409.68	2988.86
409.87	2960.78
410.07	2981.84
410.26	2946.73
410.45	3049.72
410.64	3049.72
410.83	3056.74
411.02	3194.83
411.21	3208.87
411.40	3204.19
411.59	3206.53
411.78	3302.50
411.98	3185.47
412.17	3243.98
412.36	3356.33
412.55	3405.48
412.74	3393.78
412.93	3400.80
413.12	3384.41
413.31	3588.04
413.50	3503.78
413.69	3545.91
413.88	3564.64
414.07	3583.36
414.26	3566.98
414.45	3559.95
414.64	3632.51
414.83	3852.52
415.02	3756.56
415.22	3875.93
415.41	3992.95
415.60	3817.41
415.79	3934.44
415.98	3927.42
416.17	3995.29
416.36	3978.91
416.55	4046.79
416.74	4084.23
416.93	4039.76
417.12	4107.64
417.31	4177.86
417.50	4348.72
417.69	4461.06
417.88	4273.82
418.07	4245.73
418.26	4339.35
418.45	4390.84
418.64	4514.89
418.83	4313.61
419.02	4348.72
419.21	4463.40
419.39	4510.21
419.58	4428.29
419.77	4545.32
419.96	4709.16
420.15	4746.61
420.34	4620.22
420.53	4718.52
420.72	4669.37
420.91	4636.60
421.10	4695.11
421.29	4835.55
421.48	4730.22
421.67	4870.65
421.86	4870.65
422.05	4961.94
422.24	4748.95
422.43	5062.58
422.61	4910.44
422.80	5078.96
422.99	4931.51
423.18	5025.13
423.37	5083.64
423.56	4910.44
423.75	4952.57
423.94	4767.67
424.13	4643.62
424.32	4772.35
424.50	4987.68
424.69	5125.77
424.88	5046.20
425.07	5018.11
425.26	4964.28
425.45	5015.77
425.64	5041.51
425.83	5027.47
426.01	5048.54
426.20	5064.92
426.39	5128.11
426.58	5041.51
426.77	5114.07
426.96	5188.97
427.15	5195.99
427.33	5296.63
427.52	5245.14
427.71	5313.02
427.90	5291.95
428.09	5462.81
428.28	5310.68
428.46	5500.26
428.65	5336.42
428.84	5378.55
429.03	5533.03
429.22	5392.59
429.40	5636.01
429.59	5521.32
429.78	5448.77
429.97	5486.22
430.16	5423.02
430.34	5731.97
430.53	5650.05
430.72	5762.40
430.91	5636.01
431.10	5661.76
431.28	5776.44
431.47	5715.59
431.66	5797.51
431.85	5694.52
432.03	6015.18
432.22	6099.44
432.41	5734.31
432.60	5942.62
432.79	6076.03
432.97	5916.87
433.16	6141.57
433.35	6179.01
433.54	6181.35
433.72	6164.97
433.91	6073.69
434.10	6157.95
434.28	6085.39
434.47	6160.29
434.66	6324.13
434.85	6349.87
435.03	6277.32
435.22	6310.08
435.41	6406.05
435.59	6417.75
435.78	6244.55
435.97	6532.44
436.16	6328.81
436.34	6560.52
436.53	6572.22
436.72	6679.89
436.90	6509.03
437.09	6693.93
437.28	6677.55
437.46	6565.20
437.65	6696.27
437.84	6953.73
438.02	6691.59
438.21	6794.58
438.40	6733.72
438.58	6995.86
438.77	7112.89
438.96	6956.07
439.14	7042.67
439.33	7234.60
439.52	7332.90
439.70	7384.39
439.89	7403.11
440.08	7304.81
440.26	7466.31
440.45	7531.84
440.63	7358.64
440.82	7733.13
441.01	7637.17
441.19	7562.27
441.38	7719.09
441.57	7824.41
441.75	7847.82
441.94	7845.48
442.12	7808.03
442.31	8021.02
442.50	7953.14
442.68	8084.21
442.87	7990.59
443.05	8070.17
443.24	8196.56
443.43	8329.97
443.61	8236.35
443.80	8444.65
443.98	8196.56
444.17	7896.97
444.35	8208.26
444.54	8461.04
444.73	8311.24
444.91	8393.16
445.10	8308.90
445.28	8168.47
445.47	8234.00
445.65	8489.12
445.84	8573.38
446.02	8519.55
446.21	8524.23
446.39	8444.65
446.58	8723.18
446.77	8542.96
446.95	8411.89
447.14	8486.78
447.32	8479.76
447.51	8362.73
447.69	8589.77
447.88	8456.36
448.06	8622.53
448.25	8592.11
448.43	8758.28
448.62	8613.17
448.80	8545.30
448.99	8751.26
449.17	9025.11
449.36	8737.22
449.54	8851.91
449.73	9022.77
449.91	9074.26
450.10	8992.34
450.28	8938.51
450.46	9081.28
450.65	8954.89
450.83	9027.45
451.02	8894.04
451.20	9233.41
451.39	9280.22
451.57	9252.14
451.76	8982.98
451.94	9254.48
452.13	9195.96
452.31	9439.38
452.49	9153.84
452.68	9488.53
452.86	9282.56
453.05	9664.07
453.23	9383.21
453.42	9186.60
453.60	9533.00
453.78	9160.86
453.97	9516.62
454.15	9586.83
454.34	9528.32
454.52	9790.46
454.70	9710.88
454.89	9757.69
455.07	9942.60
455.26	9760.03
455.44	10090.05
455.62	10064.30
455.81	10057.28
455.99	9947.28
456.17	10115.80
456.36	10146.22
456.54	10106.43
456.73	10092.39
456.91	10293.68
457.09	10359.21
457.28	10558.16
457.46	10480.92
457.64	10644.76
457.83	10441.13
458.01	10401.34
458.19	10918.60
458.38	10420.06
458.56	10927.96
458.74	10691.57
458.93	10799.23
459.11	10848.38
459.29	10682.20
459.48	10841.36
459.66	10700.93
459.84	10736.04
460.03	11250.96
460.21	11122.23
460.39	11140.95
460.57	10801.57
460.76	11103.50
460.94	11356.28
461.12	11318.83
461.31	11126.91
461.49	11262.66
461.67	11070.73
461.85	11515.44
462.04	11169.04
462.22	11438.20
462.40	11632.46
462.59	11627.78
462.77	11452.24
462.95	11822.05
463.13	11688.64
463.32	11602.04
463.50	11782.26
463.68	11810.34
463.86	11882.90
464.05	11854.81
464.23	11632.46
464.41	12035.03
464.59	11847.79
464.78	12070.14
464.96	12180.15
465.14	11630.12
465.32	11894.60
465.50	12051.42
465.69	12290.15
465.87	12184.83
466.05	12308.88
466.23	12114.61
466.41	12112.27
466.60	12671.66
466.78	12276.11
466.96	12264.41
467.14	12465.69
467.32	12582.72
467.51	12610.81
467.69	12315.90
467.87	12292.49
468.05	12629.53
468.23	12610.81
468.41	12524.21
468.60	12847.20
468.78	12566.34
468.96	12571.02
469.14	12837.84
469.32	12884.65
469.50	13128.06
469.69	12971.25
469.87	13032.10
470.05	13011.04
470.23	13249.77
470.41	13287.22
470.59	13181.90
470.77	13224.03
470.95	13355.10
471.14	13577.45
471.32	13076.57
471.50	13855.97
471.68	13778.73
471.86	13729.58
472.04	13804.48
472.22	14003.43
472.40	13638.30
472.58	14057.26
472.77	14331.10
472.95	14207.05
473.13	14295.99
473.31	14230.46
473.49	14291.31
473.67	14267.91
473.85	14457.49
474.03	14614.30
474.21	14724.31
474.39	15131.56
474.57	14686.86
474.75	14850.70
474.93	15096.46
475.12	15208.80
475.30	15311.78
475.48	14967.73
475.66	15384.34
475.84	15307.10
476.02	15344.55
476.20	15487.32
476.38	15815.00
476.56	16053.73
476.74	16137.99
476.92	15908.62
477.10	15826.70
477.28	16175.44
477.46	16346.30
477.64	16367.37
477.82	16781.64
478.00	17139.74
478.18	16996.97
478.36	16807.39
478.54	17214.64
478.72	17186.55
478.90	17350.39
479.08	17427.63
479.26	17832.54
479.44	17874.67
479.62	17745.94
479.80	18141.49
479.98	18244.48
480.16	18892.80
480.34	18424.70
480.52	18600.24
480.70	18703.22
480.88	18333.42
481.06	18719.60
481.24	18939.62
481.41	19073.03
481.59	19604.33
481.77	19597.31
481.95	19735.40
482.13	19625.39
482.31	19667.52
482.49	20563.95
482.67	20444.58
482.85	20987.58
483.03	20879.92
483.21	21090.57
483.39	21088.23
483.57	21198.23
483.74	21193.55
483.92	21434.63
484.10	21369.09
484.28	21788.05
484.46	22258.49
484.64	22300.62
484.82	21968.27
485.00	22476.16
485.18	22874.06
485.35	23208.75
485.53	22838.95
485.71	22965.34
485.89	23756.44
486.07	23410.04
486.25	23552.81
486.43	23868.78
486.61	23974.11
486.78	23917.93
486.96	24531.15
487.14	24940.75
487.32	24865.85
487.50	25371.41
487.68	25205.23
487.85	25305.87
488.03	25317.57
488.21	26031.44
488.39	26118.04
488.57	26328.69
488.75	26450.39
488.92	26689.13
489.10	27042.55
489.28	26679.77
489.46	26920.84
489.64	27147.87
489.81	27608.96
489.99	28070.04
490.17	27805.56
490.35	28245.58
490.53	28568.58
490.70	28507.72
490.88	28596.67
491.06	29092.86
491.24	29090.52
491.41	29057.75
491.59	29401.81
491.77	29495.43
491.95	30190.57
492.13	29933.11
492.30	30082.91
492.48	30288.87
492.66	30366.11
492.84	30450.37
493.01	31131.47
493.19	30829.54
493.37	30911.46
493.54	31606.59
493.72	31615.96
493.90	31852.35
494.08	32074.70
494.25	32322.80
494.43	32093.43
494.61	32678.56
494.79	32891.55
494.96	33022.62
495.14	32919.63
495.32	33163.05
495.49	33593.71
495.67	33532.86
495.85	33593.71
496.02	33860.53
496.20	33916.70
496.38	34543.97
496.55	34017.35
496.73	35161.87
496.91	34850.58
497.09	34909.09
497.26	35108.04
497.44	34979.31
497.62	35700.19
497.79	35835.94
497.97	35407.62
498.14	36392.99
498.32	36116.81
498.50	36299.37
498.67	36547.47
498.85	37151.32
499.03	36793.22
499.20	36947.70
499.38	37156.00
499.56	37357.29
499.73	37240.26
499.91	37357.29
500.08	38050.09
500.26	37317.50
500.44	37759.86
500.61	38253.72
500.79	38167.12
500.97	38424.57
501.14	38667.99
501.32	38883.32
501.49	38911.41
501.67	38810.76
501.84	39337.38
502.02	39377.17
502.20	39129.08
502.37	39665.06
502.55	39433.35
502.72	39920.18
502.90	39941.24
503.07	39856.98
503.25	39812.51
503.43	40353.18
503.60	40425.73
503.78	40423.39
503.95	40898.52
504.13	40727.66
504.30	40999.16
504.48	40669.15
504.65	41249.60
504.83	41315.14
505.01	41619.41
505.18	41305.77
505.36	42033.68
505.53	41460.25
505.71	41874.52
505.88	42124.96
506.06	41729.41
506.23	42394.12
506.41	42190.50
506.58	42129.64
506.76	41911.97
506.93	42658.60
507.11	41958.78
507.28	42955.85
507.46	42616.47
507.63	43269.48
507.81	43484.81
507.98	43391.19
508.16	43660.35
508.33	43894.41
508.50	43330.34
508.68	43927.17
508.85	44432.73
509.03	44072.29
509.20	44182.29
509.38	44318.04
509.55	44444.43
509.73	44598.91
509.90	44589.55
510.08	44985.10
510.25	44741.68
510.42	44715.93
510.60	45195.74
510.77	45315.11
510.95	45446.18
511.12	45034.25
511.30	45277.66
511.47	45928.33
511.64	45895.56
511.82	46197.49
511.99	45521.08
512.17	46506.44
512.34	45806.62
512.51	46609.43
512.69	46581.34
512.86	46719.43
513.04	46752.20
513.21	46532.19
513.38	47126.69
513.56	47152.43
513.73	46974.55
513.90	47065.83
514.08	47391.17
514.25	47936.51
514.43	47725.86
514.60	47770.33
514.77	47594.79
514.95	47835.87
515.12	47807.78
515.29	47990.34
515.47	47838.21
515.64	48411.64
515.81	48212.70
515.99	48210.35
516.16	48910.17
516.33	48727.61
516.51	48318.02
516.68	49366.58
516.85	48514.62
517.03	49045.93
517.20	49015.50
517.37	49120.82
517.54	49055.29
517.72	49467.22
517.89	49146.57
518.06	49064.65
518.24	49586.59
518.41	49642.76
518.58	49490.63
518.75	49581.91
518.93	49579.57
519.10	50101.51
519.27	49932.99
519.45	49769.15
519.62	50005.55
519.79	49928.31
519.96	50527.48
520.14	50370.67
520.31	50698.34
520.48	50639.83
520.65	50255.98
520.83	50623.45
521.00	50742.81
521.17	50983.89
521.34	50857.50
521.52	51093.89
521.69	51447.32
521.86	51056.45
522.03	51447.32
522.20	51414.55
522.38	51526.89
522.55	51810.10
522.72	51648.60
522.89	51540.94
523.07	51880.31
523.24	51344.33
523.41	51995.00
523.58	51753.93
523.75	52025.43
523.92	52011.38
524.10	52200.97
524.27	52076.92
524.44	52002.02
524.61	52502.90
524.78	51880.31
524.96	52280.55
525.13	52538.01
525.30	52825.89
525.47	52554.39
525.64	52552.05
525.81	52853.98
525.98	53130.16
526.16	52954.62
526.33	52999.09
526.50	53078.67
526.67	52678.44
526.84	53340.81
527.01	52884.40
527.18	52898.45
527.36	53301.02
527.53	53174.63
527.70	53560.82
527.87	53357.19
528.04	53279.96
528.21	53483.58
528.38	53296.34
528.55	53684.87
528.72	53640.40
528.89	53642.74
529.07	53411.02
529.24	53261.23
529.41	53649.76
529.58	53881.47
529.75	53944.67
529.92	53986.80
530.09	54035.95
530.26	53825.30
530.43	54272.34
530.60	53743.38
530.77	53970.41
530.94	54117.87
531.11	54134.25
531.28	54536.82
531.46	54244.26
531.63	54630.44
531.80	54382.35
531.97	54752.15
532.14	54408.09
532.31	54738.11
532.48	55018.97
532.65	54948.76
532.82	54873.86
532.99	55000.25
533.16	54813.01
533.33	55016.63
533.50	55140.68
533.67	55021.31
533.84	54768.54
534.01	55234.30
534.18	55004.93
534.35	55348.99
534.52	55145.36
534.69	55260.05
534.86	55264.73
535.03	55290.48
535.20	55306.86
535.37	55660.28
535.54	55454.31
535.71	55423.89
535.88	55557.30
536.05	55662.62
536.22	55655.60
536.38	55653.26
536.55	55966.89
536.72	55744.54
536.89	55756.24
537.06	56097.96
537.23	55758.58
537.40	55849.86
537.57	55814.76
537.74	55884.97
537.91	56053.49
538.08	56067.53
538.25	55732.84
538.42	56362.44
538.59	56186.90
538.75	56112.00
538.92	56229.03
539.09	56324.99
539.26	56207.97
539.43	56444.36
539.60	56360.10
539.77	56549.68
539.94	56556.70
540.11	56495.85
540.28	56615.22
540.44	56680.75
540.61	56741.61
540.78	56631.60
540.95	56502.87
541.12	56622.24
541.29	56570.75
541.46	56884.38
541.62	56797.78
541.79	56725.22
541.96	56594.15
542.13	56779.06
542.30	56872.68
542.47	56914.81
542.63	57167.58
542.80	57123.11
542.97	57190.99
543.14	57347.81
543.31	57265.89
543.48	57038.86
543.64	57633.35
543.81	57546.75
543.98	57396.96
544.15	57577.18
544.32	57663.78
544.48	57851.02
544.65	57708.25
544.82	57462.49
544.99	57340.78
545.16	57469.51
545.32	57509.30
545.49	57773.78
545.66	57673.14
545.83	57951.66
546.00	57769.10
546.16	57687.18
546.33	57741.02
546.50	57792.51
546.67	57836.98
546.83	57757.40
547.00	57944.64
547.17	57645.05
547.34	57851.02
547.50	58026.56
547.67	58007.84
547.84	58042.95
548.00	58281.68
548.17	58354.24
548.34	58251.25
548.51	58375.30
548.67	58262.96
548.84	58108.48
549.01	58192.74
549.18	58068.69
549.34	58478.28
549.51	58141.25
549.68	58497.01
549.84	58508.71
550.01	58712.34
550.18	58258.27
550.34	58836.39
550.51	58859.79
550.68	58665.53
550.84	58471.26
551.01	58665.53
551.18	58639.78
551.34	58555.52
551.51	58656.17
551.68	58803.62
551.84	58611.70
552.01	58766.17
552.18	58890.22
552.34	58618.72
552.51	59016.61
552.68	58649.14
552.84	58791.92
553.01	59056.40
553.18	58979.16
553.34	59063.42
553.51	58827.02
553.67	59077.46
553.84	59004.91
554.01	59124.27
554.17	59107.89
554.34	59213.21
554.51	59161.72
554.67	59227.26
554.84	59105.55
555.00	59077.46
555.17	59229.60
555.33	59196.83
555.50	59147.68
555.67	59072.78
555.83	59283.43
556.00	59222.58
556.16	59377.05
556.33	59566.63
556.50	59381.73
556.66	59484.72
556.83	59363.01
556.99	59501.10
557.16	59496.42
557.32	59552.59
557.49	59852.18
557.65	59723.45
557.82	59423.86
557.98	59557.27
558.15	59564.29
558.32	59613.44
558.48	59501.10
558.65	59517.48
558.81	59604.08
558.98	59622.81
559.14	59817.07
559.31	59835.80
559.47	59812.39
559.64	59505.78
559.80	59901.33
559.97	59966.87
560.13	59693.02
560.30	59882.61
560.46	59814.73
560.63	59955.16
560.79	59863.88
560.96	60086.23
561.12	59796.01
561.29	59908.35
561.45	60090.91
561.61	59805.37
561.78	59957.50
561.94	59887.29
562.11	59784.30
562.27	59906.01
562.44	60081.55
562.60	60299.22
562.77	60264.11
562.93	59969.21
563.10	60149.43
563.26	60074.53
563.42	60278.16
563.59	60025.38
563.75	60491.15
563.92	60030.06
564.08	60315.61
564.24	60388.16
564.41	60165.81
564.57	60406.89
564.74	60282.84
564.90	60416.25
565.07	60147.09
565.23	60177.51
565.39	60320.29
565.56	60402.21
565.72	60193.90
565.88	60233.69
566.05	60158.79
566.21	60154.11
566.38	60404.55
566.54	60315.61
566.70	60580.09
566.87	60516.89
567.03	60474.76
567.19	60640.94
567.36	60521.57
567.52	60460.72
567.68	60629.24
567.85	60495.83
568.01	60605.83
568.17	60385.82
568.34	60559.02
568.50	60362.42
568.66	60601.15
568.83	60472.42
568.99	60427.95
569.15	60594.13
569.32	60484.12
569.48	60439.65
569.64	60678.39
569.81	60725.20
569.97	60458.38
570.13	60552.00
570.30	60549.66
570.46	60645.62
570.62	60699.45
570.78	60683.07
570.95	60608.17
571.11	60846.91
571.27	60498.17
571.43	60491.15
571.60	60786.05
571.76	60533.28
571.92	60596.47
572.09	60743.92
572.25	60781.37
572.41	60837.54
572.57	60589.45
572.74	60863.29
572.90	60711.16
573.06	60687.75
573.22	60760.31
573.38	61020.11
573.55	60762.65
573.71	60739.24
573.87	61038.83
574.03	60727.54
574.20	60743.92
574.36	61003.72
574.52	60907.76
574.68	60734.56
574.84	60853.93
575.01	60907.76
575.17	60872.65
575.33	60762.65
575.49	60804.78
575.65	60809.46
575.82	61003.72
575.98	60898.40
576.14	61043.51
576.30	60879.67
576.46	60917.12
576.62	60905.42
576.79	60933.51
576.95	60711.16
577.11	60856.27
577.27	60961.59
577.43	60996.70
577.59	60734.56
577.75	60739.24
577.92	60949.89
578.08	60816.48
578.24	60973.30
578.40	61120.75
578.56	61106.71
578.72	61148.84
578.88	61066.92
579.04	61134.79
579.21	61048.19
579.37	61113.73
579.53	61205.01
579.69	60942.87
579.85	60935.85
580.01	60968.61
580.17	60853.93
580.33	61214.37
580.49	61305.65
580.65	61116.07
580.82	60886.70
580.98	61015.43
581.14	60884.36
581.30	61148.84
581.46	60989.68
581.62	61062.24
581.78	61109.05
581.94	61010.74
582.10	61167.56
582.26	61193.31
582.42	61085.64
582.58	61034.15
582.74	61069.26
582.90	61228.41
583.06	61013.08
583.22	60933.51
583.38	61104.37
583.54	61095.00
583.70	61104.37
583.86	61275.22
584.02	61120.75
584.18	61300.97
584.34	61176.92
584.50	61045.85
584.66	61001.38
584.82	60825.84
584.98	61169.90
585.14	61242.46
585.30	61233.10
585.46	61123.09
585.62	61181.60
585.78	61282.25
585.94	60900.74
586.10	61073.94
586.26	61123.09
586.42	61087.98
586.58	61090.32
586.74	61151.18
586.90	61048.19
587.06	61020.11
587.22	61399.27
587.38	61240.12
587.54	61333.74
587.70	61315.01
587.86	61090.32
588.02	61141.81
588.18	61436.72
588.34	61205.01
588.49	61284.59
