SpectraSuite Data File
++++++++++++++++++++++++++++++++++++
Date: Fri Oct 25 11:25:03 EDT 2013
User: price-jones
Dark Spectrum Present: No
Reference Spectrum Present: No
Number of Sampled Component Spectra: 1
Spectrometers: USB2+H05261
Integration Time (usec): 100000 (USB2+H05261)
Spectra Averaged: 1 (USB2+H05261)
Boxcar Smoothing: 0 (USB2+H05261)
Correct for Electrical Dark: No (USB2+H05261)
Strobe/Lamp Enabled: No (USB2+H05261)
Correct for Detector Non-linearity: No (USB2+H05261)
Correct for Stray Light: No (USB2+H05261)
Number of Pixels in Processed Spectrum: 2048
>>>>>Begin Processed Spectral Data<<<<<
365.73	250.44
365.92	250.44
366.12	250.44
366.32	159.16
366.52	163.84
366.72	147.45
366.91	147.45
367.11	131.07
367.31	142.77
367.51	88.94
367.70	126.39
367.90	154.48
368.10	180.22
368.30	222.35
368.49	110.01
368.69	133.41
368.89	98.30
369.09	152.13
369.28	177.88
369.48	140.43
369.68	227.03
369.87	149.79
370.07	114.69
370.27	159.16
370.47	325.33
370.66	636.63
370.86	645.99
371.06	678.76
371.25	798.12
371.45	653.01
371.65	685.78
371.84	650.67
372.04	653.01
372.24	772.38
372.44	727.91
372.63	704.50
372.83	727.91
373.03	723.23
373.22	758.33
373.42	814.51
373.62	770.04
373.81	809.83
374.01	777.06
374.21	823.87
374.40	807.48
374.60	863.66
374.79	870.68
374.99	753.65
375.19	814.51
375.38	835.57
375.58	933.87
375.78	922.17
375.97	807.48
376.17	894.08
376.37	842.59
376.56	877.70
376.76	734.93
376.95	926.85
377.15	842.59
377.35	856.64
377.54	915.15
377.74	894.08
377.93	901.11
378.13	910.47
378.33	983.02
378.52	912.81
378.72	976.00
378.91	943.24
379.11	994.73
379.31	940.90
379.50	877.70
379.70	987.71
379.89	992.39
380.09	896.43
380.28	966.64
380.48	978.34
380.68	1001.75
380.87	1004.09
381.07	945.58
381.26	978.34
381.46	961.96
381.65	1020.47
381.85	1025.15
382.04	1086.01
382.24	1043.88
382.43	1064.94
382.63	1050.90
382.83	1062.60
383.02	1081.33
383.22	1107.07
383.41	1043.88
383.61	1060.26
383.80	1158.57
384.00	1174.95
384.19	1036.86
384.39	1146.86
384.58	1128.14
384.78	1212.40
384.97	1205.38
385.17	1217.08
385.36	1200.69
385.56	1268.57
385.75	1207.72
385.95	1144.52
386.14	1188.99
386.34	1193.67
386.53	1170.27
386.72	1263.89
386.92	1327.08
387.11	1158.57
387.31	1111.75
387.50	1214.74
387.70	1266.23
387.89	1235.80
388.09	1247.51
388.28	1273.25
388.48	1217.08
388.67	1343.47
388.86	1313.04
389.06	1327.08
389.25	1233.46
389.45	1296.66
389.64	1350.49
389.84	1366.87
390.03	1366.87
390.22	1432.41
390.42	1467.52
390.61	1324.74
390.81	1404.32
391.00	1448.79
391.19	1350.49
391.39	1413.68
391.58	1357.51
391.78	1469.86
391.97	1446.45
392.16	1427.73
392.36	1624.33
392.55	1455.81
392.75	1582.20
392.94	1474.54
393.13	1490.92
393.33	1483.90
393.52	1476.88
393.71	1605.61
393.91	1572.84
394.10	1610.29
394.29	1619.65
394.49	1666.46
394.68	1596.25
394.88	1579.86
395.07	1680.50
395.26	1647.74
395.46	1645.40
395.65	1710.93
395.84	1657.10
396.04	1799.87
396.23	1678.16
396.42	1645.40
396.62	1774.13
396.81	1825.62
397.00	1774.13
397.19	1746.04
397.39	1842.00
397.58	1813.92
397.77	1774.13
397.97	1870.09
398.16	1909.88
398.35	1853.70
398.55	1888.81
398.74	1834.98
398.93	1933.28
399.12	1888.81
399.32	1926.26
399.51	1947.33
399.70	1970.73
399.90	1952.01
400.09	1996.48
400.28	2045.63
400.47	2024.56
400.67	2026.90
400.86	2043.29
401.05	1952.01
401.24	2125.21
401.44	2190.74
401.63	2120.53
401.82	2010.52
402.01	2148.61
402.21	2169.68
402.40	2190.74
402.59	2120.53
402.78	2176.70
402.97	2172.02
403.17	2282.02
403.36	2181.38
403.55	2251.60
403.74	2413.09
403.93	2473.95
404.13	2354.58
404.32	2403.73
404.51	2363.94
404.70	2558.21
404.89	2401.39
405.09	2476.29
405.28	2394.37
405.47	2438.84
405.66	2455.22
405.85	2424.80
406.05	2476.29
406.24	2551.18
406.43	2511.39
406.62	2616.72
406.81	2691.62
407.00	2530.12
407.20	2640.12
407.39	2637.78
407.58	2773.53
407.77	2644.81
407.96	2743.11
408.15	2663.53
408.34	2696.30
408.54	2708.00
408.73	2750.13
408.92	2672.89
409.11	2750.13
409.30	2829.71
409.49	3005.25
409.68	2888.22
409.87	2939.71
410.07	3028.65
410.26	3045.04
410.45	3096.53
410.64	3145.68
410.83	3049.72
411.02	3169.09
411.21	3143.34
411.40	3190.15
411.59	3276.75
411.78	3169.09
411.98	3276.75
412.17	3169.09
412.36	3321.22
412.55	3290.79
412.74	3337.60
412.93	3459.31
413.12	3267.39
413.31	3510.80
413.50	3480.38
413.69	3550.59
413.88	3574.00
414.07	3412.50
414.26	3641.87
414.45	3552.93
414.64	3702.73
414.83	3627.83
415.02	3857.20
415.22	3824.44
415.41	3861.88
415.60	3740.18
415.79	3819.75
415.98	3964.87
416.17	3798.69
416.36	3953.16
416.55	4011.68
416.74	3964.87
416.93	4161.47
417.12	4194.24
417.31	4184.88
417.50	4058.49
417.69	4383.82
417.88	4273.82
418.07	4231.69
418.26	4182.54
418.45	4175.52
418.64	4535.96
418.83	4418.93
419.02	4397.87
419.21	4550.00
419.39	4470.42
419.58	4571.07
419.77	4547.66
419.96	4664.69
420.15	4526.60
420.34	4585.11
420.53	4554.68
420.72	4599.15
420.91	4582.77
421.10	4788.74
421.29	4880.02
421.48	4725.54
421.67	4835.55
421.86	4858.95
422.05	4847.25
422.24	4777.03
422.43	4788.74
422.61	4929.17
422.80	4952.57
422.99	4894.06
423.18	4940.87
423.37	5062.58
423.56	4968.96
423.75	4919.81
423.94	4905.76
424.13	4636.60
424.32	4901.08
424.50	4849.59
424.69	5123.43
424.88	5020.45
425.07	4854.27
425.26	4826.18
425.45	4957.25
425.64	4905.76
425.83	5036.83
426.01	4973.64
426.20	4964.28
426.39	5008.75
426.58	4971.30
426.77	4943.21
426.96	5137.48
427.15	5069.60
427.33	5212.37
427.52	5118.75
427.71	5188.97
427.90	5076.62
428.09	5364.51
428.28	5490.90
428.46	5270.89
428.65	5334.08
428.84	5441.75
429.03	5502.60
429.22	5226.42
429.40	5490.90
429.59	5612.60
429.78	5184.29
429.97	5214.71
430.16	5483.88
430.34	5596.22
430.53	5757.72
430.72	5706.23
430.91	5687.50
431.10	5607.92
431.28	5804.53
431.47	5713.25
431.66	5792.83
431.85	5659.42
432.03	5827.93
432.22	5865.38
432.41	6080.71
432.60	5748.36
432.79	5921.56
432.97	5973.05
433.16	5926.24
433.35	5841.98
433.54	6260.93
433.72	6129.86
433.91	6094.76
434.10	6108.80
434.28	5933.26
434.47	6120.50
434.66	6106.46
434.85	6345.19
435.03	6200.08
435.22	6366.26
435.41	6448.18
435.59	6459.88
435.78	6485.62
435.97	6604.99
436.16	6492.65
436.34	6401.37
436.53	6401.37
436.72	6567.54
436.90	6443.49
437.09	6541.80
437.28	6537.12
437.46	6600.31
437.65	6572.22
437.84	6787.55
438.02	6630.74
438.21	6546.48
438.40	6712.66
438.58	7119.91
438.77	7049.69
438.96	6855.43
439.14	7173.74
439.33	7131.61
439.52	7190.13
439.70	7077.78
439.89	7351.62
440.08	7309.49
440.26	7442.90
440.45	7372.69
440.63	7323.54
440.82	7674.62
441.01	7637.17
441.19	7541.21
441.38	7798.66
441.57	7772.92
441.75	7742.49
441.94	7997.61
442.12	7873.56
442.31	8142.72
442.50	8079.53
442.68	8081.87
442.87	8072.51
443.05	8030.38
443.24	8166.13
443.43	8138.04
443.61	8173.15
443.80	8273.79
443.98	7967.18
444.17	7705.04
444.35	8409.54
444.54	8210.60
444.73	8257.41
444.91	8322.94
445.10	8278.47
445.28	8245.71
445.47	8311.24
445.65	8418.91
445.84	8386.14
446.02	8568.70
446.21	8386.14
446.39	8344.01
446.58	8535.93
446.77	8461.04
446.95	8372.10
447.14	8126.34
447.32	8463.38
447.51	8531.25
447.69	8358.05
447.88	8238.69
448.06	8425.93
448.25	8383.80
448.43	8603.81
448.62	8664.66
448.80	8507.85
448.99	8636.58
449.17	8678.71
449.36	8748.92
449.54	8709.13
449.73	8732.54
449.91	9090.64
450.10	8964.25
450.28	9104.68
450.46	9116.39
450.65	8980.64
450.83	8999.36
451.02	9291.93
451.20	9291.93
451.39	9235.75
451.57	9174.90
451.76	9219.37
451.94	9107.02
452.13	9263.84
452.31	9210.01
452.49	9195.96
452.68	9493.21
452.86	9334.06
453.05	9394.91
453.23	9600.88
453.42	9350.44
453.60	9441.72
453.78	9659.39
453.97	9430.02
454.15	9371.50
454.34	9554.07
454.52	9966.00
454.70	9703.86
454.89	9778.76
455.07	9530.66
455.26	9860.68
455.44	10125.16
455.62	9753.01
455.81	9898.13
455.99	10113.45
456.17	9954.30
456.36	10298.36
456.54	10078.35
456.73	10160.27
456.91	10497.30
457.09	10415.38
457.28	10401.34
457.46	10345.17
457.64	10684.55
457.83	10523.05
458.01	10314.74
458.19	10656.46
458.38	10539.43
458.56	10626.03
458.74	10703.27
458.93	10544.11
459.11	10764.12
459.29	10721.99
459.48	10885.83
459.66	10892.85
459.84	10766.46
460.03	10888.17
460.21	10693.91
460.39	10970.09
460.57	11087.12
460.76	11103.50
460.94	11096.48
461.12	11248.61
461.31	11143.29
461.49	11150.31
461.67	11110.52
461.85	11389.05
462.04	11171.38
462.22	11866.52
462.40	11690.98
462.59	11644.17
462.77	11321.17
462.95	11641.82
463.13	11590.33
463.32	11571.61
463.50	11899.28
463.68	11779.92
463.86	11798.64
464.05	11566.93
464.23	11920.35
464.41	11819.71
464.59	11651.19
464.78	12049.08
464.96	11852.47
465.14	11707.36
465.32	11665.23
465.50	12067.80
465.69	12233.98
465.87	12166.10
466.05	12163.76
466.23	12149.72
466.41	12215.26
466.60	12552.29
466.78	12217.60
466.96	12154.40
467.14	12395.48
467.32	12229.30
467.51	12552.29
467.69	12175.47
467.87	12381.43
468.05	12582.72
468.23	12376.75
468.41	12535.91
468.60	12575.70
468.78	12634.21
468.96	12486.76
469.14	12709.11
469.32	12936.14
469.50	12746.56
469.69	12879.97
469.87	12947.84
470.05	12980.61
470.23	13118.70
470.41	12966.57
470.59	13327.01
470.77	13228.71
470.95	13322.33
471.14	13888.74
471.32	13029.76
471.50	13551.70
471.68	13598.51
471.86	13582.13
472.04	13689.79
472.22	13909.80
472.40	13490.85
472.58	13877.04
472.77	13949.59
472.95	14143.86
473.13	14413.02
473.31	13764.69
473.49	14193.01
473.67	14122.79
473.85	13905.12
474.03	14691.54
474.21	14387.27
474.39	14623.67
474.57	14520.68
474.75	14707.93
474.93	14738.35
475.12	14911.55
475.30	15007.52
475.48	14974.75
475.66	15393.70
475.84	15019.22
476.02	15513.07
476.20	15337.53
476.38	15632.44
476.56	16203.53
476.74	15934.37
476.92	15829.04
477.10	15887.56
477.28	16126.29
477.46	16002.24
477.64	16460.99
477.82	16655.25
478.00	16727.81
478.18	16753.55
478.36	16552.27
478.54	16978.25
478.72	17095.27
478.90	17205.28
479.08	17514.23
479.26	17649.98
479.44	17722.54
479.62	17811.48
479.80	18008.08
479.98	18059.57
480.16	18506.62
480.34	18366.18
480.52	18637.69
480.70	18628.32
480.88	18429.38
481.06	18813.23
481.24	18822.59
481.41	18841.31
481.59	19541.13
481.77	19417.08
481.95	19267.29
482.13	19854.76
482.31	19606.67
482.49	20065.41
482.67	19997.54
482.85	20236.27
483.03	20573.31
483.21	20472.67
483.39	20856.51
483.57	20769.91
483.74	20968.86
483.92	21275.47
484.10	21366.75
484.28	21757.62
484.46	21965.93
484.64	22113.38
484.82	21921.46
485.00	22600.21
485.18	22581.49
485.35	23393.65
485.53	22836.61
485.71	22904.48
485.89	23447.49
486.07	23077.68
486.25	23332.80
486.43	23459.19
486.61	23800.91
486.78	24280.72
486.96	24020.92
487.14	24362.64
487.32	24116.88
487.50	25170.12
487.68	24680.95
487.85	25191.19
488.03	25165.44
488.21	25839.51
488.39	25846.54
488.57	26195.28
488.75	26195.28
488.92	26228.04
489.10	26918.50
489.28	26588.49
489.46	27367.88
489.64	26745.30
489.81	27316.39
489.99	27445.12
490.17	27576.19
490.35	27908.55
490.53	28112.17
490.70	28491.34
490.88	28442.19
491.06	28966.47
491.24	28676.24
491.41	28879.87
491.59	29167.76
491.77	29387.77
491.95	29591.39
492.13	29907.37
492.30	29820.77
492.48	29844.17
492.66	30286.53
492.84	30487.82
493.01	30429.30
493.19	30438.67
493.37	30888.05
493.54	30895.07
493.72	31374.88
493.90	31447.44
494.08	31438.08
494.25	31983.42
494.43	31878.10
494.61	32180.03
494.79	32460.89
494.96	32144.92
495.14	33024.96
495.32	32992.19
495.49	33198.16
495.67	32701.96
495.85	33769.25
496.02	33649.88
496.20	34499.50
496.38	34211.61
496.55	33993.94
496.73	34768.66
496.91	34670.36
497.09	34583.76
497.26	35108.04
497.44	34979.31
497.62	35117.40
497.79	36062.97
497.97	35569.12
498.14	35842.96
498.32	36102.76
498.50	35803.17
498.67	36397.67
498.85	36795.56
499.03	36463.21
499.20	36643.43
499.38	36781.52
499.56	36978.12
499.73	36971.10
499.91	37099.83
500.08	37574.96
500.26	37366.65
500.44	37528.15
500.61	37464.96
500.79	37792.63
500.97	37865.19
501.14	38340.32
501.32	38314.57
501.49	38312.23
501.67	38642.24
501.84	38810.76
502.02	38932.47
502.20	39346.75
502.37	39271.85
502.55	39313.98
502.72	39730.59
502.90	39393.56
503.07	39536.33
503.25	39896.77
503.43	39606.55
503.60	40004.44
503.78	40088.70
503.95	40170.61
504.13	40142.53
504.30	40769.79
504.48	40069.97
504.65	40458.50
504.83	41146.62
505.01	41031.93
505.18	40952.35
505.36	41060.02
505.53	41429.82
505.71	41542.17
505.88	42110.92
506.06	41460.25
506.23	41818.35
506.41	41663.88
506.58	41895.59
506.76	42092.19
506.93	42232.63
507.11	42183.48
507.28	42600.09
507.46	42738.18
507.63	42148.37
507.81	43159.48
507.98	42951.17
508.16	42859.89
508.33	43440.34
508.50	43344.38
508.68	43477.79
508.85	43620.56
509.03	43880.36
509.20	43746.95
509.38	44516.99
509.55	44027.82
509.73	44509.97
509.90	44744.02
510.08	44800.19
510.25	44624.65
510.42	44713.59
510.60	45109.14
510.77	45041.27
510.95	45184.04
511.12	45015.52
511.30	45193.40
511.47	45301.07
511.64	45478.95
511.82	45607.68
511.99	45748.11
512.17	45677.90
512.34	46066.42
512.51	46199.83
512.69	45904.93
512.86	46061.74
513.04	46485.38
513.21	46859.87
513.38	46539.21
513.56	46693.69
513.73	47140.73
513.90	46925.40
514.08	46801.35
514.25	47262.44
514.43	47157.11
514.60	47845.23
514.77	47594.79
514.95	47835.87
515.12	47496.49
515.29	47742.25
515.47	48004.39
515.64	48198.65
515.81	47716.50
515.99	48296.95
516.16	48086.31
516.33	48385.89
516.51	48247.80
516.68	48327.38
516.85	48561.44
517.03	49045.93
517.20	49059.97
517.37	48582.50
517.54	48968.69
517.72	48919.54
517.89	48870.39
518.06	48938.26
518.24	49467.22
518.41	48884.43
518.58	49394.67
518.75	49443.82
518.93	49366.58
519.10	49148.91
519.27	49839.37
519.45	49717.66
519.62	49949.37
519.79	49748.09
519.96	49844.05
520.14	50183.43
520.31	50157.68
520.48	50145.98
520.65	50134.28
520.83	50433.86
521.00	50588.34
521.17	50401.10
521.34	50281.73
521.52	50923.04
521.69	50967.51
521.86	50761.54
522.03	51215.60
522.20	51196.88
522.38	51447.32
522.55	51147.73
522.72	51608.81
522.89	51140.71
523.07	51400.50
523.24	51358.38
523.41	51936.49
523.58	51686.05
523.75	51767.97
523.92	51543.28
524.10	51899.04
524.27	51915.42
524.44	52175.22
524.61	51765.63
524.78	52355.44
524.96	52123.73
525.13	52163.52
525.30	52446.72
525.47	52926.53
525.64	52594.18
525.81	52645.67
525.98	52437.36
526.16	52538.01
526.33	52741.63
526.50	53003.77
526.67	52795.46
526.84	52713.55
527.01	52898.45
527.18	52837.59
527.36	52952.28
527.53	53062.29
527.70	53219.10
527.87	53202.72
528.04	52971.00
528.21	53485.92
528.38	53251.87
528.55	53558.48
528.72	53205.06
528.89	53719.98
529.07	53572.52
529.24	53586.57
529.41	53607.63
529.58	53499.97
529.75	53352.51
529.92	53694.23
530.09	53820.62
530.26	53675.51
530.43	53881.47
530.60	53563.16
530.77	53993.82
530.94	54042.97
531.11	53867.43
531.28	53829.98
531.46	54073.40
531.63	54277.02
531.80	54244.26
531.97	54138.93
532.14	54623.42
532.31	54768.54
532.48	54314.47
532.65	54726.41
532.82	54436.18
532.99	54478.31
533.16	54501.71
533.33	55161.75
533.50	54974.50
533.67	54710.02
533.84	54686.62
534.01	55033.02
534.18	55028.34
534.35	55082.17
534.52	54871.52
534.69	54995.57
534.86	55164.09
535.03	54787.26
535.20	55124.30
535.37	55341.97
535.54	55346.65
535.71	55100.89
535.88	55437.93
536.05	55456.65
536.22	55636.87
536.38	55592.40
536.55	55388.78
536.72	55756.24
536.89	55405.16
537.06	55594.74
537.23	55679.00
537.40	55569.00
537.57	55494.10
537.74	55657.94
537.91	56016.04
538.08	55608.79
538.25	55683.69
538.42	55798.37
538.59	55945.83
538.75	56034.77
538.92	56303.93
539.09	56310.95
539.26	55971.57
539.43	55990.30
539.60	56104.98
539.77	56149.45
539.94	56622.24
540.11	56467.76
540.28	56240.73
540.44	56491.17
540.61	56355.42
540.78	56210.31
540.95	56247.75
541.12	56556.70
541.29	56332.01
541.46	56708.84
541.62	56371.80
541.79	56587.13
541.96	56409.25
542.13	56449.04
542.30	56685.43
542.47	56605.86
542.63	56882.04
542.80	56662.03
542.97	56928.85
543.14	57181.63
543.31	57092.69
543.48	57200.35
543.64	57293.97
543.81	57186.31
543.98	57251.84
544.15	57256.53
544.32	57361.85
544.48	57509.30
544.65	57097.37
544.82	57279.93
544.99	57233.12
545.16	57495.26
545.32	57284.61
545.49	57581.86
545.66	57450.79
545.83	57411.00
546.00	57682.50
546.16	57553.77
546.33	57525.69
546.50	57429.72
546.67	57703.57
546.83	57455.47
547.00	57724.63
547.17	57696.55
547.34	57975.07
547.50	57680.16
547.67	58145.93
547.84	57911.88
548.00	58110.82
548.17	58253.59
548.34	58117.84
548.51	58232.53
548.67	57911.88
548.84	57998.48
549.01	58005.50
549.18	58232.53
549.34	58246.57
549.51	58159.97
549.68	58450.20
549.84	58515.73
550.01	58314.45
550.18	58253.59
550.34	58457.22
550.51	58679.57
550.68	58387.00
550.84	58213.80
551.01	58354.24
551.18	58234.87
551.34	58534.46
551.51	58459.56
551.68	58604.67
551.84	58607.01
552.01	58642.12
552.18	58623.40
552.34	58553.18
552.51	58571.91
552.68	58473.60
552.84	58681.91
553.01	58894.90
553.18	58784.90
553.34	58887.88
553.51	58585.95
553.67	58841.07
553.84	58859.79
554.01	58890.22
554.17	58890.22
554.34	58967.46
554.51	58918.31
554.67	59091.51
554.84	59011.93
555.00	59138.32
555.17	58927.67
555.33	59040.01
555.50	59061.08
555.67	59068.10
555.83	58979.16
556.00	58817.66
556.16	59344.28
556.33	59180.45
556.50	59143.00
556.66	59210.87
556.83	59040.01
556.99	59325.56
557.16	59568.97
557.32	59154.70
557.49	59618.13
557.65	59180.45
557.82	59440.24
557.98	59257.68
558.15	59245.98
558.32	59419.18
558.48	59231.94
558.65	59510.46
558.81	59339.60
558.98	59543.23
559.14	59491.74
559.31	59751.54
559.47	59664.94
559.64	59721.11
559.80	59613.44
559.97	59784.30
560.13	59566.63
560.30	59554.93
560.46	59709.41
560.63	59805.37
560.79	59976.23
560.96	59674.30
561.12	59810.05
561.29	59772.60
561.45	59723.45
561.61	59800.69
561.78	59737.49
561.94	59859.20
562.11	60111.98
562.27	59702.38
562.44	59906.01
562.60	59927.08
562.77	60069.85
562.93	59831.11
563.10	59943.46
563.26	59873.24
563.42	60240.71
563.59	59997.29
563.75	59845.16
563.92	60030.06
564.08	59976.23
564.24	60343.69
564.41	59950.48
564.57	60025.38
564.74	59875.58
564.90	59948.14
565.07	60107.30
565.23	60093.25
565.39	60097.94
565.56	60175.17
565.72	59999.63
565.88	60254.75
566.05	60093.25
566.21	60186.88
566.38	60126.02
566.54	60067.51
566.70	60465.40
566.87	60402.21
567.03	60104.96
567.19	60395.18
567.36	60331.99
567.52	60423.27
567.68	60699.45
567.85	60397.52
568.01	60388.16
568.17	60233.69
568.34	60299.22
568.50	60397.52
568.66	60397.52
568.83	60425.61
568.99	60273.48
569.15	60341.35
569.32	60404.55
569.48	60266.45
569.64	60760.31
569.81	60402.21
569.97	60413.91
570.13	60451.36
570.30	60252.41
570.46	60446.68
570.62	60498.17
570.78	60460.72
570.95	60542.64
571.11	60582.43
571.27	60444.33
571.43	60413.91
571.60	60657.32
571.76	60722.86
571.92	60683.07
572.09	60556.68
572.25	60662.00
572.41	60657.32
572.57	60477.10
572.74	60711.16
572.90	60498.17
573.06	60687.75
573.22	60495.83
573.38	60603.49
573.55	60594.13
573.71	60669.03
573.87	60526.25
574.03	60456.04
574.20	60748.60
574.36	60540.30
574.52	60612.85
574.68	60715.84
574.84	60647.96
575.01	60615.19
575.17	60711.16
575.33	60645.62
575.49	60549.66
575.65	60769.67
575.82	60736.90
575.98	60776.69
576.14	60912.44
576.30	60741.58
576.46	60767.33
576.62	60767.33
576.79	60544.98
576.95	60470.08
577.11	60734.56
577.27	60687.75
577.43	60879.67
577.59	60594.13
577.75	60816.48
577.92	60664.35
578.08	60807.12
578.24	60821.16
578.40	60858.61
578.56	60968.61
578.72	60921.80
578.88	60989.68
579.04	61123.09
579.21	60762.65
579.37	60896.06
579.53	60949.89
579.69	60797.76
579.85	60662.00
580.01	60772.01
580.17	60842.23
580.33	60816.48
580.49	60933.51
580.65	60844.57
580.82	60996.70
580.98	60914.78
581.14	60882.02
581.30	61123.09
581.46	60867.97
581.62	60942.87
581.78	61006.06
581.94	60788.39
582.10	60849.25
582.26	60893.72
582.42	60786.05
582.58	60867.97
582.74	60795.42
582.90	60975.64
583.06	60872.65
583.22	60814.14
583.38	60860.95
583.54	60903.08
583.70	60921.80
583.86	60851.59
584.02	60732.22
584.18	61148.84
584.34	60933.51
584.50	60858.61
584.66	60809.46
584.82	60673.71
584.98	61106.71
585.14	61041.17
585.30	60863.29
585.46	61097.34
585.62	60772.01
585.78	61097.34
585.94	60842.23
586.10	60917.12
586.26	60926.49
586.42	61010.74
586.58	60985.00
586.74	60985.00
586.90	60954.57
587.06	60860.95
587.22	60952.23
587.38	61109.05
587.54	61090.32
587.70	61080.96
587.86	61001.38
588.02	60884.36
588.18	61155.86
588.34	60893.72
588.49	61066.92
