SpectraSuite Data File
++++++++++++++++++++++++++++++++++++
Date: Fri Oct 25 10:44:38 EDT 2013
User: price-jones
Dark Spectrum Present: No
Reference Spectrum Present: No
Number of Sampled Component Spectra: 1
Spectrometers: USB2+H05261
Integration Time (usec): 100000 (USB2+H05261)
Spectra Averaged: 1 (USB2+H05261)
Boxcar Smoothing: 0 (USB2+H05261)
Correct for Electrical Dark: No (USB2+H05261)
Strobe/Lamp Enabled: No (USB2+H05261)
Correct for Detector Non-linearity: No (USB2+H05261)
Correct for Stray Light: No (USB2+H05261)
Number of Pixels in Processed Spectrum: 2048
>>>>>Begin Processed Spectral Data<<<<<
365.73	95.96
365.92	95.96
366.12	95.96
366.32	58.51
366.52	18.72
366.72	56.17
366.91	21.06
367.11	0.00
367.31	112.35
367.51	63.19
367.70	51.49
367.90	39.79
368.10	11.70
368.30	14.04
368.49	16.38
368.69	0.00
368.89	9.36
369.09	42.13
369.28	102.98
369.48	14.04
369.68	72.56
369.87	74.90
370.07	60.85
370.27	72.56
370.47	180.22
370.66	283.20
370.86	372.15
371.06	337.04
371.25	418.96
371.45	454.06
371.65	351.08
371.84	468.11
372.04	482.15
372.24	437.68
372.44	458.74
372.63	430.66
372.83	526.62
373.03	393.21
373.22	456.40
373.42	489.17
373.62	578.11
373.81	507.90
374.01	496.19
374.21	531.30
374.40	573.43
374.60	566.41
374.79	568.75
374.99	582.79
375.19	521.94
375.38	613.22
375.58	622.58
375.78	641.31
375.97	491.51
376.17	580.45
376.37	573.43
376.56	610.88
376.76	484.49
376.95	559.39
377.15	564.07
377.35	636.63
377.54	568.75
377.74	528.96
377.93	592.16
378.13	564.07
378.33	692.80
378.52	594.50
378.72	594.50
378.91	561.73
379.11	627.26
379.31	526.62
379.50	566.41
379.70	690.46
379.89	730.25
380.09	615.56
380.28	554.71
380.48	683.44
380.68	573.43
380.87	608.54
381.07	580.45
381.26	746.63
381.46	634.29
381.65	662.37
381.85	753.65
382.04	613.22
382.24	718.54
382.43	678.76
382.63	648.33
382.83	648.33
383.02	653.01
383.22	704.50
383.41	571.09
383.61	674.07
383.80	664.71
384.00	676.41
384.19	777.06
384.39	746.63
384.58	744.29
384.78	812.17
384.97	720.88
385.17	767.70
385.36	653.01
385.56	709.18
385.75	739.61
385.95	702.16
386.14	833.23
386.34	755.99
386.53	758.33
386.72	791.10
386.92	791.10
387.11	723.23
387.31	730.25
387.50	805.14
387.70	702.16
387.89	781.74
388.09	828.55
388.28	784.08
388.48	908.13
388.67	849.61
388.86	807.48
389.06	912.81
389.25	887.06
389.45	791.10
389.64	880.04
389.84	896.43
390.03	957.28
390.22	947.92
390.42	884.72
390.61	938.55
390.81	976.00
391.00	851.96
391.19	964.30
391.39	1050.90
391.58	966.64
391.78	983.02
391.97	1027.50
392.16	959.62
392.36	1034.52
392.55	1004.09
392.75	971.32
392.94	959.62
393.13	933.87
393.33	945.58
393.52	983.02
393.71	1062.60
393.91	926.85
394.10	971.32
394.29	999.41
394.49	1004.09
394.68	1025.15
394.88	1029.84
395.07	1130.48
395.26	1097.71
395.46	1083.67
395.65	1207.72
395.84	1100.05
396.04	1149.20
396.23	1151.54
396.42	1109.41
396.62	1062.60
396.81	1125.80
397.00	1104.73
397.19	1144.52
397.39	1156.22
397.58	1291.98
397.77	1256.87
397.97	1249.85
398.16	1207.72
398.35	1329.42
398.55	1296.66
398.74	1329.42
398.93	1310.70
399.12	1256.87
399.32	1306.02
399.51	1345.81
399.70	1397.30
399.90	1357.51
400.09	1289.64
400.28	1409.00
400.47	1324.74
400.67	1490.92
400.86	1448.79
401.05	1455.81
401.24	1462.83
401.44	1483.90
401.63	1572.84
401.82	1547.09
402.01	1565.82
402.21	1467.52
402.40	1558.80
402.59	1486.24
402.78	1416.02
402.97	1530.71
403.17	1598.59
403.36	1643.06
403.55	1666.46
403.74	1650.08
403.93	1633.69
404.13	1710.93
404.32	1614.97
404.51	1629.01
404.70	1771.79
404.89	1729.66
405.09	1746.04
405.28	1727.32
405.47	1783.49
405.66	1659.44
405.85	1666.46
406.05	1694.55
406.24	1769.44
406.43	1762.42
406.62	1813.92
406.81	2001.16
407.00	1827.96
407.20	1973.07
407.39	1760.08
407.58	1811.57
407.77	1900.52
407.96	1900.52
408.15	1935.62
408.34	1853.70
408.54	1956.69
408.73	1984.77
408.92	2017.54
409.11	2085.42
409.30	2010.52
409.49	2064.35
409.68	2057.33
409.87	2087.76
410.07	2111.16
410.26	2139.25
410.45	2202.44
410.64	2150.95
410.83	2162.66
411.02	2146.27
411.21	2260.96
411.40	2136.91
411.59	2216.49
411.78	2415.43
411.98	2253.94
412.17	2354.58
412.36	2354.58
412.55	2370.96
412.74	2445.86
412.93	2457.56
413.12	2457.56
413.31	2462.24
413.50	2569.91
413.69	2473.95
413.88	2619.06
414.07	2527.78
414.26	2595.65
414.45	2630.76
414.64	2525.44
414.83	2525.44
415.02	2773.53
415.22	2738.43
415.41	2785.24
415.60	2752.47
415.79	2867.16
415.98	2850.77
416.17	2808.64
416.36	2806.30
416.55	2846.09
416.74	2913.97
416.93	2904.60
417.12	2843.75
417.31	2993.55
417.50	3023.97
417.69	3145.68
417.88	2979.50
418.07	2937.37
418.26	3075.46
418.45	3056.74
418.64	3243.98
418.83	3030.99
419.02	3176.11
419.21	3185.47
419.39	3178.45
419.58	3138.66
419.77	3115.25
419.96	3187.81
420.15	3208.87
420.34	3126.96
420.53	3318.88
420.72	3361.01
420.91	3339.94
421.10	3370.37
421.29	3318.88
421.48	3307.18
421.67	3487.40
421.86	3389.10
422.05	3365.69
422.24	3419.52
422.43	3398.46
422.61	3382.07
422.80	3595.06
422.99	3524.85
423.18	3501.44
423.37	3468.67
423.56	3520.17
423.75	3419.52
423.94	3407.82
424.13	3222.92
424.32	3311.86
424.50	3548.25
424.69	3534.21
424.88	3534.21
425.07	3609.11
425.26	3461.65
425.45	3522.51
425.64	3522.51
425.83	3562.30
426.01	3520.17
426.20	3618.47
426.39	3494.42
426.58	3620.81
426.77	3536.55
426.96	3562.30
427.15	3609.11
427.33	3595.06
427.52	3595.06
427.71	3550.59
427.90	3751.88
428.09	3674.64
428.28	3817.41
428.46	3775.28
428.65	3702.73
428.84	3918.06
429.03	3831.46
429.22	3700.39
429.40	3765.92
429.59	3861.88
429.78	3660.60
429.97	3728.47
430.16	3794.01
430.34	3744.86
430.53	3946.14
430.72	3681.66
430.91	3843.16
431.10	3997.64
431.28	4021.04
431.47	4086.58
431.66	4070.19
431.85	4060.83
432.03	4074.87
432.22	4037.42
432.41	4114.66
432.60	4177.86
432.79	4304.25
432.97	4421.27
433.16	4358.08
433.35	4208.28
433.54	4297.22
433.72	4339.35
433.91	4203.60
434.10	4297.22
434.28	4273.82
434.47	4482.13
434.66	4325.31
434.85	4372.12
435.03	4538.30
435.22	4376.80
435.41	4578.09
435.59	4531.28
435.78	4421.27
435.97	4564.04
436.16	4500.85
436.34	4610.86
436.53	4430.63
436.72	4702.14
436.90	4648.30
437.09	4461.06
437.28	4451.70
437.46	4674.05
437.65	4648.30
437.84	4732.56
438.02	4734.90
438.21	4784.06
438.40	4723.20
438.58	4919.81
438.77	4943.21
438.96	4889.38
439.14	4805.12
439.33	5020.45
439.52	5123.43
439.70	5156.20
439.89	5212.37
440.08	5214.71
440.26	5179.61
440.45	4987.68
440.63	5226.42
440.82	5359.83
441.01	5235.78
441.19	5362.17
441.38	5270.89
441.57	5472.17
441.75	5572.82
441.94	5638.35
442.12	5504.94
442.31	5731.97
442.50	5776.44
442.68	5659.42
442.87	5692.18
443.05	5703.89
443.24	5790.49
443.43	5713.25
443.61	5736.65
443.80	5912.19
443.98	5511.96
444.17	5678.14
444.35	5844.32
444.54	5797.51
444.73	5867.72
444.91	5926.24
445.10	5902.83
445.28	5694.52
445.47	5755.38
445.65	5813.89
445.84	5853.68
446.02	5968.37
446.21	5729.63
446.39	5839.64
446.58	5912.19
446.77	6012.84
446.95	5949.64
447.14	5956.66
447.32	6073.69
447.51	5980.07
447.69	5902.83
447.88	5970.71
448.06	5916.87
448.25	6008.16
448.43	6001.13
448.62	5951.98
448.80	5877.09
448.99	6015.18
449.17	6073.69
449.36	6003.47
449.54	6132.20
449.73	6497.33
449.91	6394.34
450.10	6363.92
450.28	6384.98
450.46	6401.37
450.65	6347.53
450.83	6335.83
451.02	6279.66
451.20	6387.32
451.39	6335.83
451.57	6478.60
451.76	6331.15
451.94	6296.04
452.13	6562.86
452.31	6469.24
452.49	6464.56
452.68	6654.14
452.86	6513.71
453.05	6665.85
453.23	6633.08
453.42	6466.90
453.60	6621.38
453.78	6590.95
453.97	6539.46
454.15	6623.72
454.34	6583.93
454.52	6923.30
454.70	6707.98
454.89	6715.00
455.07	6740.74
455.26	6874.15
455.44	7059.06
455.62	6841.39
455.81	6897.56
455.99	6796.92
456.17	7014.59
456.36	6871.81
456.54	7080.12
456.73	7232.26
456.91	7176.08
457.09	7166.72
457.28	7279.07
457.46	7176.08
457.64	7323.54
457.83	7370.35
458.01	7155.02
458.19	7431.20
458.38	7229.91
458.56	7393.75
458.74	7487.37
458.93	7489.71
459.11	7297.79
459.29	7241.62
459.48	7573.97
459.66	7356.30
459.84	7595.04
460.03	7599.72
460.21	7592.70
460.39	7522.48
460.57	7569.29
460.76	7770.58
460.94	7772.92
461.12	7824.41
461.31	7676.96
461.49	7445.24
461.67	7707.38
461.85	7997.61
462.04	7831.43
462.22	8079.53
462.40	7932.08
462.59	8002.29
462.77	7878.24
462.95	8133.36
463.13	7932.08
463.32	7911.01
463.50	8016.33
463.68	8140.38
463.86	8063.15
464.05	8067.83
464.23	8121.66
464.41	8023.36
464.59	8109.96
464.78	8372.10
464.96	8198.90
465.14	8145.06
465.32	8336.99
465.50	8304.22
465.69	8585.08
465.87	8423.59
466.05	8416.57
466.23	8224.64
466.41	8290.18
466.60	8351.03
466.78	8322.94
466.96	8332.31
467.14	8297.20
467.32	8379.12
467.51	8552.32
467.69	8065.49
467.87	8610.83
468.05	8500.83
468.23	8545.30
468.41	8498.49
468.60	8498.49
468.78	8631.90
468.96	8798.07
469.14	8868.29
469.32	8727.86
469.50	8437.63
469.69	8762.97
469.87	8828.50
470.05	8856.59
470.23	8929.14
470.41	8795.73
470.59	9004.04
470.77	8795.73
470.95	8992.34
471.14	9100.00
471.32	9006.38
471.50	9277.88
471.68	9320.01
471.86	9345.76
472.04	9195.96
472.22	9441.72
472.40	9334.06
472.58	9303.63
472.77	9647.69
472.95	9671.09
473.13	9790.46
473.31	9523.64
473.49	9460.45
473.67	9488.53
473.85	9832.59
474.03	9846.63
474.21	9841.95
474.39	9844.29
474.57	10019.83
474.75	9977.70
474.93	10134.52
475.12	10157.92
475.30	10221.12
475.48	10104.09
475.66	10101.75
475.84	10258.57
476.02	10242.18
476.20	10256.23
476.38	10406.02
476.56	10874.13
476.74	10623.69
476.92	10794.55
477.10	10778.17
477.28	10967.75
477.46	10721.99
477.64	11030.94
477.82	11351.60
478.00	11487.35
478.18	11325.85
478.36	11262.66
478.54	11599.70
478.72	11370.32
478.90	11424.15
479.08	11948.43
479.26	11857.15
479.44	11786.94
479.62	11988.22
479.80	12119.29
479.98	12208.23
480.16	12236.32
480.34	12154.40
480.52	12435.27
480.70	12374.41
480.88	12360.37
481.06	12496.12
481.24	12589.74
481.41	12830.82
481.59	12842.52
481.77	13060.19
481.95	12959.55
482.13	13217.01
482.31	13137.43
482.49	13252.11
482.67	13469.78
482.85	13572.77
483.03	13743.63
483.21	13778.73
483.39	13900.44
483.57	13956.61
483.74	13907.46
483.92	14129.81
484.10	14188.33
484.28	14443.45
484.46	14703.25
484.64	14768.78
484.82	14480.89
485.00	14759.42
485.18	15063.69
485.35	15136.24
485.53	14820.27
485.71	15035.60
485.89	15353.91
486.07	15222.84
486.25	15105.82
486.43	15283.70
486.61	15789.25
486.78	15791.59
486.96	16023.31
487.14	15875.85
487.32	16201.19
487.50	16222.25
487.68	16358.00
487.85	16652.91
488.03	16931.44
488.21	17261.45
488.39	17226.34
488.57	17006.33
488.75	17209.96
488.92	17397.20
489.10	17467.42
489.28	17809.14
489.46	17940.21
489.64	18045.53
489.81	18181.28
489.99	18324.05
490.17	18328.74
490.35	18668.11
490.53	18583.85
490.70	18876.42
490.88	18654.07
491.06	18824.93
491.24	18986.43
491.41	18993.45
491.59	19276.65
491.77	18743.01
491.95	19164.31
492.13	19445.17
492.30	19786.89
492.48	19531.77
492.66	19999.88
492.84	19889.87
493.01	20203.50
493.19	20126.27
493.37	20259.68
493.54	20744.17
493.72	20800.34
493.90	20828.43
494.08	20886.94
494.25	20905.66
494.43	21074.18
494.61	21046.10
494.79	21191.21
494.96	21135.04
495.14	21451.01
495.32	21685.06
495.49	21745.92
495.67	22001.04
495.85	22040.82
496.02	21996.35
496.20	22174.24
496.38	22394.25
496.55	22492.55
496.73	22913.84
496.91	22555.74
497.09	22934.91
497.26	23243.86
497.44	22916.19
497.62	23021.51
497.79	23218.11
497.97	23274.29
498.14	23330.46
498.32	23550.47
498.50	23777.50
498.67	23550.47
498.85	23704.95
499.03	24049.00
499.20	24098.16
499.38	24077.09
499.56	24098.16
499.73	24170.71
499.91	24334.55
500.08	24313.48
500.26	24418.81
500.44	24531.15
500.61	24343.91
500.79	24524.13
500.97	24861.17
501.14	24856.49
501.32	25106.93
501.49	25514.18
501.67	25235.66
501.84	24872.87
502.02	25296.51
502.20	25603.12
502.37	25378.43
502.55	25610.14
502.72	25692.06
502.90	26120.38
503.07	25680.36
503.25	26281.88
503.43	25560.99
503.60	25935.48
503.78	26192.94
503.95	26005.69
504.13	26237.41
504.30	26057.18
504.48	26583.80
504.65	26501.89
504.83	26541.68
505.01	27206.39
505.18	26644.66
505.36	27040.21
505.53	26998.08
505.71	27150.21
505.88	27452.14
506.06	27077.66
506.23	27218.09
506.41	27463.85
506.58	27557.47
506.76	27400.65
506.93	27711.94
507.11	27931.95
507.28	27711.94
507.46	27630.02
507.63	27803.22
507.81	28023.23
507.98	28060.68
508.16	27962.38
508.33	28123.88
508.50	28388.36
508.68	28386.02
508.85	28720.71
509.03	28573.26
509.20	28645.82
509.38	29233.29
509.55	29029.66
509.73	28861.15
509.90	28882.21
510.08	29057.75
510.25	28905.62
510.42	29216.91
510.60	29113.92
510.77	29270.74
510.95	29394.79
511.12	29308.19
511.30	29713.10
511.47	29898.00
511.64	29647.57
511.82	29855.87
511.99	29462.66
512.17	29642.88
512.34	29919.07
512.51	30139.08
512.69	30019.71
512.86	30068.86
513.04	30522.93
513.21	30483.14
513.38	30897.41
513.56	30546.33
513.73	30518.25
513.90	30895.07
514.08	30551.01
514.25	30689.10
514.43	30433.99
514.60	30822.51
514.77	31089.34
514.95	31267.22
515.12	31290.62
515.29	31262.54
515.47	31421.69
515.64	31180.62
515.81	31145.51
515.99	31466.16
516.16	31524.68
516.33	31178.28
516.51	31477.86
516.68	31653.40
516.85	31332.75
517.03	31653.40
517.20	31934.27
517.37	31887.46
517.54	32194.07
517.72	32037.25
517.89	31864.05
518.06	31690.85
518.24	31786.82
518.41	32205.77
518.58	32233.86
518.75	32311.10
518.93	32844.74
519.10	32568.55
519.27	32526.42
519.45	32393.01
519.62	32788.56
519.79	32727.71
519.96	33057.73
520.14	32830.69
520.31	33156.03
520.48	33041.34
520.65	33055.39
520.83	33371.36
521.00	33684.99
521.17	33593.71
521.34	33834.78
521.52	33340.93
521.69	33420.51
521.86	33785.63
522.03	33991.60
522.20	34019.69
522.38	33937.77
522.55	33865.21
522.72	33645.20
522.89	34073.52
523.07	34298.21
523.24	34464.39
523.41	34380.13
523.58	34183.52
523.75	34684.40
523.92	34623.54
524.10	34572.05
524.27	34998.03
524.44	34817.81
524.61	35002.71
524.78	34951.22
524.96	35096.33
525.13	34895.05
525.30	35133.78
525.47	35278.89
525.64	35168.89
525.81	35487.20
525.98	35292.94
526.16	34983.99
526.33	35463.80
526.50	35653.38
526.67	35051.86
526.84	35234.42
527.01	34623.54
527.18	35323.36
527.36	35770.41
527.53	35920.20
527.70	36067.66
527.87	36093.40
528.04	35688.49
528.21	36453.84
528.38	35948.29
528.55	36308.73
528.72	35873.39
528.89	36671.51
529.07	35997.44
529.24	35981.06
529.41	36378.95
529.58	36383.63
529.75	36072.34
529.92	36371.92
530.09	36818.97
530.26	37031.96
530.43	36594.28
530.60	36694.92
530.77	36566.19
530.94	37088.13
531.11	36238.51
531.28	36694.92
531.46	37113.87
531.63	37251.97
531.80	37027.28
531.97	36907.91
532.14	36840.03
532.31	37289.42
532.48	37053.02
532.65	37441.55
532.82	37062.38
532.99	37226.22
533.16	36767.48
533.33	37476.66
533.50	37427.51
533.67	37635.81
533.84	37436.87
534.01	37420.48
534.18	37399.42
534.35	37624.11
534.52	37514.11
534.69	38019.66
534.86	37986.89
535.03	37736.46
535.20	38188.18
535.37	38520.54
535.54	37839.44
535.71	37738.80
535.88	38600.12
536.05	38005.62
536.22	38642.24
536.38	38239.67
536.55	38089.88
536.72	38436.28
536.89	37696.67
537.06	38232.65
537.23	38127.33
537.40	38525.22
537.57	38649.27
537.74	38979.28
537.91	38890.34
538.08	39033.11
538.25	38965.24
538.42	38735.87
538.59	39016.73
538.75	38745.23
538.92	39084.61
539.09	39119.71
539.26	39051.84
539.43	38471.39
539.60	39131.42
539.77	38892.68
539.94	38913.75
540.11	39070.56
540.28	39215.68
540.44	39470.79
540.61	39641.65
540.78	39124.40
540.95	39093.97
541.12	39042.48
541.29	39578.46
541.46	39655.70
541.62	39606.55
541.79	39707.19
541.96	39447.39
542.13	39545.69
542.30	39452.07
542.47	39714.21
542.63	40065.29
542.80	40009.12
542.97	39782.09
543.14	40020.82
543.31	40179.98
543.48	40378.92
543.64	40800.22
543.81	40435.10
543.98	40474.88
544.15	40421.05
544.32	40509.99
544.48	40416.37
544.65	40168.27
544.82	40273.60
544.99	40128.48
545.16	41261.30
545.32	40453.82
545.49	40470.20
545.66	40488.93
545.83	40907.88
546.00	40741.71
546.16	40566.16
546.33	40877.46
546.50	40566.16
546.67	40362.54
546.83	40945.33
547.00	40804.90
547.17	40545.10
547.34	41055.34
547.50	41146.62
547.67	41251.94
547.84	40828.30
548.00	41478.97
548.17	41511.74
548.34	41326.84
548.51	41198.11
548.67	41591.32
548.84	41535.15
549.01	41113.85
549.18	41291.73
549.34	41228.54
549.51	41797.29
549.68	41254.28
549.84	41626.43
550.01	41823.03
550.18	41600.68
550.34	41542.17
550.51	41605.36
550.68	41652.17
550.84	41546.85
551.01	41855.80
551.18	42150.71
551.34	41439.18
551.51	41858.14
551.68	41963.46
551.84	41813.67
552.01	41799.63
552.18	41900.27
552.34	41867.50
552.51	41993.89
552.68	41996.23
552.84	42012.62
553.01	42466.68
553.18	42164.75
553.34	42272.42
553.51	42335.61
553.67	42384.76
553.84	42504.13
554.01	41930.70
554.17	42522.85
554.34	42822.44
554.51	42529.87
554.67	42932.45
554.84	42539.24
555.00	42583.71
555.17	42405.83
555.33	42494.77
555.50	42574.34
555.67	43079.90
555.83	42391.78
556.00	42335.61
556.16	42927.77
556.33	42417.53
556.50	42581.37
556.66	42663.28
556.83	42244.33
556.99	42595.41
557.16	42742.86
557.32	42836.48
557.49	43463.75
557.65	42511.15
557.82	42717.12
557.98	43028.41
558.15	42916.06
558.32	42918.40
558.48	43400.55
558.65	43023.73
558.81	42494.77
558.98	42520.51
559.14	43232.04
559.31	42621.16
559.47	43257.78
559.64	43508.22
559.80	43517.58
559.97	43203.95
560.13	42677.33
560.30	42630.52
560.46	43264.80
560.63	42925.42
560.79	43562.05
560.96	43494.18
561.12	43234.38
561.29	43529.28
561.45	43157.14
561.61	43381.83
561.78	43423.96
561.94	43288.21
562.11	43658.01
562.27	43133.73
562.44	43164.16
562.60	43438.00
562.77	43196.93
562.93	43044.79
563.10	43812.49
563.26	43442.68
563.42	43697.80
563.59	43264.80
563.75	43337.36
563.92	43744.61
564.08	43632.27
564.24	43812.49
564.41	43367.79
564.57	43622.90
564.74	43569.07
564.90	43117.35
565.07	43536.30
565.23	43285.87
565.39	43763.34
565.56	43419.28
565.72	43311.61
565.88	43594.82
566.05	43611.20
566.21	43496.52
566.38	43749.29
566.54	43496.52
566.70	43922.49
566.87	44053.56
567.03	43901.43
567.19	44004.41
567.36	43955.26
567.52	43856.96
567.68	43871.00
567.85	43728.23
568.01	43985.69
568.17	43622.90
568.34	43992.71
568.50	43739.93
568.66	43658.01
568.83	44044.20
568.99	43917.81
569.15	43501.20
569.32	43728.23
569.48	43721.21
569.64	44414.01
569.81	44030.16
569.97	44004.41
570.13	43964.62
570.30	43976.33
570.46	44053.56
570.62	44053.56
570.78	43737.59
570.95	43304.59
571.11	44128.46
571.27	43999.73
571.43	43782.06
571.60	43917.81
571.76	43714.19
571.92	43686.10
572.09	44039.52
572.25	43650.99
572.41	43917.81
572.57	43882.70
572.74	44107.40
572.90	43863.98
573.06	43812.49
573.22	44512.31
573.38	44772.11
573.55	43620.56
573.71	44416.35
573.87	43533.96
574.03	44306.34
574.20	44140.16
574.36	43540.99
574.52	44142.50
574.68	44240.81
574.84	44264.21
575.01	43885.04
575.17	43620.56
575.33	43761.00
575.49	43751.63
575.65	44231.44
575.82	44271.23
575.98	44264.21
576.14	44360.17
576.30	44289.96
576.46	43840.57
576.62	44271.23
576.79	44135.48
576.95	44151.87
577.11	44456.14
577.27	44231.44
577.43	44580.18
577.59	44149.53
577.75	43749.29
577.92	43557.37
578.08	43892.07
578.24	43955.26
578.40	43737.59
578.56	44098.03
578.72	44163.57
578.88	44402.30
579.04	44636.36
579.21	44168.25
579.37	44287.62
579.53	44273.57
579.69	44301.66
579.85	44109.74
580.01	44299.32
580.17	44151.87
580.33	44341.45
580.49	43983.35
580.65	44802.53
580.82	44123.78
580.98	44275.91
581.14	44257.19
581.30	44772.11
581.46	44343.79
581.62	44580.18
581.78	44053.56
581.94	44311.02
582.10	44046.54
582.26	44484.22
582.42	44435.07
582.58	44362.51
582.74	44027.82
582.90	44322.72
583.06	44636.36
583.22	44058.24
583.38	44507.63
583.54	44437.41
583.70	44369.54
583.86	44432.73
584.02	44154.21
584.18	44409.32
584.34	44257.19
584.50	44341.45
584.66	44236.12
584.82	43952.92
584.98	44790.83
585.14	44416.35
585.30	44392.94
585.46	44121.44
585.62	44271.23
585.78	44336.77
585.94	44030.16
586.10	44390.60
586.26	43952.92
586.42	44568.48
586.58	44421.03
586.74	45020.20
586.90	43934.20
587.06	43927.17
587.22	44437.41
587.38	44135.48
587.54	44121.44
587.70	44388.26
587.86	44348.47
588.02	44596.57
588.18	44395.28
588.34	44421.03
588.49	44194.00
588.65	43501.20
588.81	43814.83
588.97	44238.47
589.13	44128.46
589.29	44168.25
589.45	44596.57
589.61	44540.39
589.77	44463.16
589.93	44678.49
590.08	44687.85
590.24	44898.50
590.40	44615.29
