SpectraSuite Data File
++++++++++++++++++++++++++++++++++++
Date: Fri Oct 25 10:47:43 EDT 2013
User: price-jones
Dark Spectrum Present: No
Reference Spectrum Present: No
Number of Sampled Component Spectra: 1
Spectrometers: USB2+H05261
Integration Time (usec): 100000 (USB2+H05261)
Spectra Averaged: 1 (USB2+H05261)
Boxcar Smoothing: 0 (USB2+H05261)
Correct for Electrical Dark: No (USB2+H05261)
Strobe/Lamp Enabled: No (USB2+H05261)
Correct for Detector Non-linearity: No (USB2+H05261)
Correct for Stray Light: No (USB2+H05261)
Number of Pixels in Processed Spectrum: 2048
>>>>>Begin Processed Spectral Data<<<<<
365.73	138.09
365.92	138.09
366.12	138.09
366.32	81.92
366.52	35.11
366.72	60.85
366.91	0.00
367.11	23.41
367.31	11.70
367.51	9.36
367.70	9.36
367.90	105.32
368.10	84.26
368.30	107.66
368.49	0.00
368.69	4.68
368.89	18.72
369.09	7.02
369.28	51.49
369.48	60.85
369.68	84.26
369.87	53.83
370.07	91.28
370.27	198.95
370.47	210.65
370.66	318.31
370.86	346.40
371.06	414.27
371.25	433.00
371.45	491.51
371.65	463.43
371.84	449.38
372.04	465.77
372.24	442.36
372.44	376.83
372.63	468.11
372.83	482.15
373.03	543.00
373.22	540.66
373.42	564.07
373.62	524.28
373.81	526.62
374.01	510.24
374.21	578.11
374.40	575.77
374.60	587.47
374.79	557.05
374.99	613.22
375.19	528.96
375.38	578.11
375.58	589.82
375.78	617.90
375.97	599.18
376.17	585.13
376.37	620.24
376.56	533.64
376.76	599.18
376.95	566.41
377.15	594.50
377.35	550.03
377.54	638.97
377.74	512.58
377.93	627.26
378.13	671.73
378.33	669.39
378.52	617.90
378.72	744.29
378.91	629.60
379.11	582.79
379.31	571.09
379.50	592.16
379.70	690.46
379.89	741.95
380.09	667.05
380.28	603.86
380.48	615.56
380.68	638.97
380.87	631.94
381.07	716.20
381.26	636.63
381.46	636.63
381.65	723.23
381.85	631.94
382.04	676.41
382.24	657.69
382.43	713.86
382.63	688.12
382.83	669.39
383.02	751.31
383.22	716.20
383.41	674.07
383.61	678.76
383.80	711.52
384.00	713.86
384.19	725.57
384.39	746.63
384.58	753.65
384.78	697.48
384.97	716.20
385.17	770.04
385.36	777.06
385.56	744.29
385.75	697.48
385.95	858.98
386.14	816.85
386.34	821.53
386.53	849.61
386.72	805.14
386.92	828.55
387.11	826.21
387.31	814.51
387.50	851.96
387.70	788.76
387.89	889.40
388.09	940.90
388.28	819.19
388.48	800.46
388.67	849.61
388.86	830.89
389.06	877.70
389.25	901.11
389.45	894.08
389.64	863.66
389.84	898.77
390.03	994.73
390.22	943.24
390.42	910.47
390.61	919.83
390.81	952.60
391.00	891.74
391.19	964.30
391.39	959.62
391.58	1013.45
391.78	910.47
391.97	964.30
392.16	866.00
392.36	959.62
392.55	1022.81
392.75	959.62
392.94	1029.84
393.13	1107.07
393.33	936.21
393.52	997.07
393.71	1048.56
393.91	1053.24
394.10	1039.20
394.29	1076.65
394.49	1043.88
394.68	1116.44
394.88	1015.79
395.07	1118.78
395.26	1245.16
395.46	1090.69
395.65	1217.08
395.84	1090.69
396.04	1196.01
396.23	1149.20
396.42	1111.75
396.62	1097.71
396.81	1137.50
397.00	1261.55
397.19	1132.82
397.39	1191.33
397.58	1210.06
397.77	1252.19
397.97	1277.93
398.16	1090.69
398.35	1397.30
398.55	1205.38
398.74	1329.42
398.93	1406.66
399.12	1329.42
399.32	1277.93
399.51	1373.89
399.70	1341.13
399.90	1350.49
400.09	1373.89
400.28	1362.19
400.47	1357.51
400.67	1413.68
400.86	1355.17
401.05	1364.53
401.24	1540.07
401.44	1434.75
401.63	1533.05
401.82	1523.69
402.01	1504.96
402.21	1497.94
402.40	1500.28
402.59	1434.75
402.78	1603.27
402.97	1502.62
403.17	1575.18
403.36	1556.46
403.55	1603.27
403.74	1586.88
403.93	1664.12
404.13	1699.23
404.32	1617.31
404.51	1561.14
404.70	1685.19
404.89	1671.14
405.09	1633.69
405.28	1706.25
405.47	1708.59
405.66	1776.47
405.85	1839.66
406.05	1790.51
406.24	1774.13
406.43	1774.13
406.62	1806.89
406.81	1832.64
407.00	1884.13
407.20	1748.38
407.39	1842.00
407.58	1846.68
407.77	1998.82
407.96	1994.14
408.15	1907.54
408.34	1942.64
408.54	1942.64
408.73	1956.69
408.92	1912.22
409.11	2064.35
409.30	2008.18
409.49	1961.37
409.68	1991.80
409.87	2026.90
410.07	2094.78
410.26	2005.84
410.45	2052.65
410.64	2010.52
410.83	2179.04
411.02	2165.00
411.21	2293.72
411.40	2277.34
411.59	2289.04
411.78	2272.66
411.98	2270.32
412.17	2345.22
412.36	2298.41
412.55	2410.75
412.74	2305.43
412.93	2338.20
413.12	2312.45
413.31	2492.67
413.50	2541.82
413.69	2483.31
413.88	2619.06
414.07	2511.39
414.26	2513.74
414.45	2602.68
414.64	2518.42
414.83	2647.15
415.02	2679.91
415.22	2710.34
415.41	2818.00
415.60	2672.89
415.79	2794.60
415.98	2871.84
416.17	2883.54
416.36	2839.07
416.55	2612.04
416.74	2899.92
416.93	2827.37
417.12	2928.01
417.31	2864.82
417.50	3014.61
417.69	2930.35
417.88	2923.33
418.07	2988.86
418.26	3098.87
418.45	2979.50
418.64	3204.19
418.83	3129.30
419.02	3138.66
419.21	3068.44
419.39	3112.91
419.58	3246.32
419.77	3178.45
419.96	3199.51
420.15	3204.19
420.34	3187.81
420.53	3311.86
420.72	3424.20
420.91	3318.88
421.10	3487.40
421.29	3241.64
421.48	3260.37
421.67	3396.12
421.86	3379.73
422.05	3407.82
422.24	3361.01
422.43	3344.63
422.61	3440.59
422.80	3496.76
422.99	3510.80
423.18	3552.93
423.37	3559.95
423.56	3485.06
423.75	3534.21
423.94	3461.65
424.13	3218.24
424.32	3321.22
424.50	3527.19
424.69	3639.53
424.88	3480.38
425.07	3552.93
425.26	3494.42
425.45	3487.40
425.64	3534.21
425.83	3466.33
426.01	3513.14
426.20	3646.55
426.39	3644.21
426.58	3536.55
426.77	3492.08
426.96	3578.68
427.15	3562.30
427.33	3618.47
427.52	3669.96
427.71	3599.74
427.90	3648.90
428.09	3707.41
428.28	3740.18
428.46	3709.75
428.65	3749.54
428.84	3791.67
429.03	3824.44
429.22	3709.75
429.40	3822.09
429.59	3597.40
429.78	3548.25
429.97	3613.79
430.16	3688.68
430.34	3854.86
430.53	3864.22
430.72	3920.40
430.91	3866.56
431.10	3992.95
431.28	4002.32
431.47	4156.79
431.66	4184.88
431.85	3939.12
432.03	4079.55
432.22	4287.86
432.41	4255.09
432.60	4187.22
432.79	4128.70
432.97	4346.37
433.16	4173.18
433.35	4241.05
433.54	4203.60
433.72	4100.62
433.91	4175.52
434.10	4322.97
434.28	4161.47
434.47	4346.37
434.66	4376.80
434.85	4454.04
435.03	4332.33
435.22	4407.23
435.41	4533.62
435.59	4418.93
435.78	4540.64
435.97	4802.78
436.16	4489.15
436.34	4531.28
436.53	4587.45
436.72	4727.88
436.90	4550.00
437.09	4585.11
437.28	4587.45
437.46	4603.83
437.65	4629.58
437.84	4741.93
438.02	4645.96
438.21	4685.75
438.40	4592.13
438.58	4868.31
438.77	4931.51
438.96	4868.31
439.14	5034.49
439.33	4924.49
439.52	5043.85
439.70	4987.68
439.89	5069.60
440.08	4954.91
440.26	5085.98
440.45	5046.20
440.63	5261.52
440.82	5296.63
441.01	5289.61
441.19	5203.01
441.38	5317.70
441.57	5320.04
441.75	5387.91
441.94	5455.79
442.12	5528.35
442.31	5547.07
442.50	5579.84
442.68	5577.50
442.87	5626.65
443.05	5647.71
443.24	5664.10
443.43	5628.99
443.61	5804.53
443.80	5856.02
443.98	5628.99
444.17	5434.72
444.35	5687.50
444.54	5764.74
444.73	5633.67
444.91	5767.08
445.10	5769.42
445.28	5664.10
445.47	5806.87
445.65	5717.93
445.84	5895.81
446.02	5902.83
446.21	5830.27
446.39	5678.14
446.58	5851.34
446.77	5921.56
446.95	5790.49
447.14	5884.11
447.32	5905.17
447.51	5888.79
447.69	5923.90
447.88	5928.58
448.06	5987.09
448.25	5884.11
448.43	6190.72
448.62	5944.96
448.80	5989.43
448.99	6209.44
449.17	6324.13
449.36	6169.65
449.54	6106.46
449.73	6221.14
449.91	6324.13
450.10	6387.32
450.28	6216.46
450.46	6237.53
450.65	6267.95
450.83	6380.30
451.02	6230.51
451.20	6263.27
451.39	6518.39
451.57	6326.47
451.76	6511.37
451.94	6452.86
452.13	6326.47
452.31	6396.68
452.49	6324.13
452.68	6607.33
452.86	6455.20
453.05	6413.07
453.23	6612.01
453.42	6572.22
453.60	6565.20
453.78	6773.51
453.97	6509.03
454.15	6506.69
454.34	6684.57
454.52	6726.70
454.70	6764.15
454.89	6764.15
455.07	6712.66
455.26	6902.24
455.44	6796.92
455.62	6839.05
455.81	6986.50
455.99	6876.49
456.17	6974.80
456.36	6946.71
456.54	7002.88
456.73	7150.34
456.91	7248.64
457.09	7000.54
457.28	7307.15
457.46	7052.03
457.64	7459.29
457.83	7080.12
458.01	7061.40
458.19	7178.42
458.38	7267.36
458.56	7398.43
458.74	7318.86
458.93	7515.46
459.11	7515.46
459.29	7255.66
459.48	7468.65
459.66	7529.50
459.84	7370.35
460.03	7625.47
460.21	7578.65
460.39	7466.31
460.57	7590.36
460.76	7585.68
460.94	7452.27
461.12	7559.93
461.31	7712.07
461.49	7590.36
461.67	7751.85
461.85	7648.87
462.04	7831.43
462.22	8390.82
462.40	7922.71
462.59	8152.09
462.77	7899.31
462.95	7969.52
463.13	8051.44
463.32	8189.53
463.50	8131.02
463.68	8135.70
463.86	7969.52
464.05	7962.50
464.23	8060.80
464.41	8077.19
464.59	7861.86
464.78	8231.66
464.96	8259.75
465.14	8065.49
465.32	8196.56
465.50	8269.11
465.69	8320.60
465.87	8152.09
466.05	8100.59
466.23	8264.43
466.41	8414.23
466.60	8585.08
466.78	8194.22
466.96	8299.54
467.14	8219.96
467.32	8442.31
467.51	8444.65
467.69	8344.01
467.87	8540.61
468.05	8631.90
468.23	8496.14
468.41	8458.70
468.60	8636.58
468.78	8599.13
468.96	8571.04
469.14	8545.30
469.32	8681.05
469.50	8489.12
469.69	8629.56
469.87	8936.17
470.05	8894.04
470.23	8924.46
470.41	8793.39
470.59	8901.06
470.77	9011.06
470.95	8922.12
471.14	9167.88
471.32	8894.04
471.50	9359.80
471.68	9160.86
471.86	9359.80
472.04	9212.35
472.22	9404.27
472.40	9144.47
472.58	9404.27
472.77	9350.44
472.95	9432.36
473.13	9865.36
473.31	9495.55
473.49	9514.28
473.67	9423.00
473.85	9654.71
474.03	9860.68
474.21	9813.87
474.39	10036.22
474.57	9687.48
474.75	10139.20
474.93	10178.99
475.12	10017.49
475.30	10150.90
475.48	10157.92
475.66	10373.25
475.84	10155.58
476.02	10377.94
476.20	10340.49
476.38	10429.43
476.56	10640.08
476.74	10745.40
476.92	10677.52
477.10	10492.62
477.28	10867.11
477.46	10635.39
477.64	11187.76
477.82	11147.97
478.00	11452.24
478.18	11197.12
478.36	11389.05
478.54	11487.35
478.72	11592.67
478.90	11520.12
479.08	11758.85
479.26	11648.85
479.44	12070.14
479.62	11913.33
479.80	12290.15
479.98	12098.23
480.16	12238.66
480.34	12273.77
480.52	12407.18
480.70	12245.68
480.88	12428.24
481.06	12379.09
481.24	12613.15
481.41	12732.51
481.59	12872.95
481.77	13001.68
481.95	13020.40
482.13	13390.20
482.31	12945.50
482.49	13460.42
482.67	13422.97
482.85	13741.29
483.03	13792.78
483.21	13933.21
483.39	14090.02
483.57	13734.26
483.74	14375.57
483.92	14525.36
484.10	13968.32
484.28	14618.99
484.46	14820.27
484.64	14555.79
484.82	14324.08
485.00	14731.33
485.18	15112.84
485.35	15159.65
485.53	15073.05
485.71	15110.50
485.89	15342.21
486.07	15091.77
486.25	15536.48
486.43	15379.66
486.61	15470.94
486.78	15896.92
486.96	16135.65
487.14	16035.01
487.32	16353.32
487.50	16318.22
487.68	16252.68
487.85	16870.58
488.03	16833.13
488.21	16893.99
488.39	16842.50
488.57	17088.25
488.75	17298.90
488.92	17422.95
489.10	17432.31
489.28	17359.75
489.46	17884.03
489.64	17575.08
489.81	18405.97
489.99	18281.92
490.17	18595.56
490.35	18457.46
490.53	18553.43
490.70	18946.64
490.88	18604.92
491.06	19030.90
491.24	19066.00
491.41	19002.81
491.59	19000.47
491.77	18941.96
491.95	19431.13
492.13	19379.64
492.30	19517.73
492.48	19110.47
492.66	19831.36
492.84	19924.98
493.01	20266.70
493.19	19955.41
493.37	20669.27
493.54	20294.79
493.72	20350.96
493.90	20592.03
494.08	20905.66
494.25	21451.01
494.43	21139.72
494.61	21219.30
494.79	21219.30
494.96	21273.13
495.14	21429.94
495.32	21500.16
495.49	21792.73
495.67	21720.17
495.85	22073.59
496.02	22232.75
496.20	22387.22
496.38	22492.55
496.55	22295.94
496.73	23091.73
496.91	22775.75
497.09	22888.10
497.26	22576.81
497.44	22808.52
497.62	22799.16
497.79	23171.30
497.97	23117.47
498.14	23463.87
498.32	23833.68
498.50	23426.42
498.67	23669.84
498.85	23644.09
499.03	23920.28
499.20	24009.22
499.38	24339.23
499.56	23927.30
499.73	24231.57
499.91	24147.31
500.08	24472.64
500.26	24100.50
500.44	24615.41
500.61	24741.80
500.79	24451.58
500.97	24669.25
501.14	25324.60
501.32	25476.73
501.49	24809.68
501.67	25097.56
501.84	25462.69
502.02	24989.90
502.20	25411.20
502.37	25675.68
502.55	25488.43
502.72	25687.38
502.90	25757.60
503.07	25614.82
503.25	25633.55
503.43	25666.31
503.60	25919.09
503.78	26082.93
503.95	26214.00
504.13	26499.55
504.30	26618.91
504.48	26197.62
504.65	26583.80
504.83	26707.85
505.01	26984.04
505.18	27058.93
505.36	27150.21
505.53	26979.36
505.71	27428.74
505.88	27077.66
506.06	26941.91
506.23	27428.74
506.41	27182.98
506.58	27459.16
506.76	27405.33
506.93	27590.24
507.11	27866.42
507.28	28048.98
507.46	27782.16
507.63	27662.79
507.81	27885.14
507.98	27864.08
508.16	27868.76
508.33	27803.22
508.50	28442.19
508.68	28299.42
508.85	28563.90
509.03	28629.43
509.20	29149.03
509.38	28940.72
509.55	28996.90
509.73	28823.70
509.90	29181.80
510.08	28786.25
510.25	28575.60
510.42	29170.10
510.60	29457.98
510.77	29619.48
510.95	29790.34
511.12	29350.32
511.30	29404.15
511.47	30141.42
511.64	29837.15
511.82	30068.86
511.99	29764.59
512.17	30000.99
512.34	30211.64
512.51	30492.50
512.69	30089.93
512.86	30183.55
513.04	30569.74
513.21	30237.38
513.38	30747.62
513.56	30391.86
513.73	30218.66
513.90	30925.50
514.08	30752.30
514.25	30871.67
514.43	31255.51
514.60	30967.63
514.77	30679.74
514.95	31157.21
515.12	30967.63
515.29	31227.43
515.47	31960.02
515.64	31398.29
515.81	31468.50
515.99	31480.21
516.16	31772.77
516.33	31449.78
516.51	31690.85
516.68	31402.97
516.85	31695.53
517.03	31983.42
517.20	31541.06
517.37	31711.92
517.54	32039.59
517.72	32034.91
517.89	32346.20
518.06	31777.45
518.24	31882.78
518.41	32201.09
518.58	32173.00
518.75	32477.27
518.93	33247.31
519.10	32833.04
519.27	32769.84
519.45	32987.51
519.62	33050.70
519.79	33003.89
519.96	32559.19
520.14	33312.84
520.31	33479.02
520.48	33399.44
520.65	33542.22
520.83	33364.34
521.00	33317.53
521.17	33387.74
521.34	33722.44
521.52	33553.92
521.69	33954.15
521.86	33560.94
522.03	33783.29
522.20	34225.65
522.38	34108.63
522.55	34487.79
522.72	34183.52
522.89	34075.86
523.07	34115.65
523.24	34195.23
523.41	34593.12
523.58	34136.71
523.75	35152.51
523.92	34677.38
524.10	34558.01
524.27	34780.36
524.44	34829.51
524.61	34902.07
524.78	35367.84
524.96	34902.07
525.13	34962.92
525.30	35257.83
525.47	35414.65
525.64	35257.83
525.81	35480.18
525.98	35192.30
526.16	35019.10
526.33	35218.04
526.50	35931.90
526.67	35402.94
526.84	35199.32
527.01	35449.75
527.18	35786.79
527.36	35620.61
527.53	35573.80
527.70	36170.64
527.87	36196.38
528.04	36346.18
528.21	35985.74
528.38	36254.90
528.55	36407.03
528.72	36095.74
528.89	36505.34
529.07	36060.63
529.24	36210.43
529.41	36320.43
529.58	36034.89
529.75	36430.44
529.92	36535.76
530.09	36741.73
530.26	36610.66
530.43	36753.43
530.60	36673.85
530.77	36779.18
530.94	37205.16
531.11	37069.40
531.28	37029.62
531.46	37256.65
531.63	37083.45
531.80	37064.72
531.97	37062.38
532.14	37471.98
532.31	37244.94
532.48	37198.13
532.65	37560.92
532.82	37319.84
532.99	37614.75
533.16	37158.34
533.33	37886.25
533.50	37518.79
533.67	37366.65
533.84	37441.55
534.01	37589.00
534.18	37832.42
534.35	37743.48
534.52	38022.00
534.69	37919.02
534.86	38237.33
535.03	37507.08
535.20	38038.39
535.37	38719.48
535.54	38707.78
535.71	38148.39
535.88	38213.93
536.05	38220.95
536.22	38438.62
536.38	38621.18
536.55	38347.34
536.72	38557.99
536.89	38246.69
537.06	38307.55
537.23	38675.01
537.40	38382.45
537.57	38792.04
537.74	38499.47
537.91	39068.22
538.08	38958.22
538.25	38305.21
538.42	38796.72
538.59	39012.05
538.75	38831.83
538.92	39056.52
539.09	39147.80
539.26	39351.43
539.43	39538.67
539.60	39398.24
539.77	39323.34
539.94	39426.32
540.11	38904.38
540.28	39318.66
540.44	39391.22
540.61	39501.22
540.78	39236.74
540.95	39388.88
541.12	39201.63
541.29	39374.83
541.46	39501.22
541.62	39707.19
541.79	39908.47
541.96	39248.44
542.13	39349.09
542.30	39508.24
542.47	39988.05
542.63	40079.33
542.80	39777.40
542.97	40357.86
543.14	40297.00
543.31	40395.31
543.48	40215.08
543.64	40692.55
543.81	40720.64
543.98	40273.60
544.15	40456.16
544.32	40488.93
544.48	41544.51
544.65	40088.70
544.82	40477.22
544.99	40348.50
545.16	40776.81
545.32	40479.57
545.49	40987.46
545.66	40912.56
545.83	41118.53
546.00	40971.08
546.16	41261.30
546.33	40886.82
546.50	40694.89
546.67	40914.90
546.83	40577.87
547.00	41177.04
547.17	40678.51
547.34	41109.17
547.50	41256.62
547.67	41397.06
547.84	41174.70
548.00	41509.40
548.17	41600.68
548.34	41596.00
548.51	41792.61
548.67	41698.98
548.84	41338.54
549.01	41429.82
549.18	41500.04
549.34	41750.48
549.51	41659.20
549.68	41888.57
549.84	41816.01
550.01	42005.59
550.18	41567.91
550.34	41968.15
550.51	41951.76
550.68	41724.73
550.84	41361.95
551.01	42239.65
551.18	41642.81
551.34	41965.81
551.51	41900.27
551.68	42122.62
551.84	42211.56
552.01	42012.62
552.18	42557.96
552.34	41979.85
552.51	42347.31
552.68	42443.27
552.84	42494.77
553.01	42197.52
553.18	42401.14
553.34	42223.26
553.51	42206.88
553.67	42438.59
553.84	42745.20
554.01	42876.27
554.17	42220.92
554.34	43138.41
554.51	42859.89
554.67	42485.40
554.84	43058.84
555.00	43002.66
555.17	42478.38
555.33	42707.76
555.50	42239.65
555.67	42583.71
555.83	42789.67
556.00	42965.21
556.16	43264.80
556.33	42756.91
556.50	43047.13
556.66	43428.64
556.83	42930.11
556.99	42993.30
557.16	43573.75
557.32	42572.00
557.49	43035.43
557.65	42674.99
557.82	42909.04
557.98	42852.87
558.15	43407.58
558.32	43007.34
558.48	43194.59
558.65	43304.59
558.81	42859.89
558.98	43416.94
559.14	43035.43
559.31	43440.34
559.47	43152.46
559.64	43555.03
559.80	44133.14
559.97	43250.76
560.13	43281.19
560.30	43304.59
560.46	43346.72
560.63	43133.73
560.79	43583.12
560.96	43732.91
561.12	44044.20
561.29	43377.15
561.45	43515.24
561.61	43480.13
561.78	43894.41
561.94	43508.22
562.11	43571.41
562.27	43344.38
562.44	43817.17
562.60	43325.66
562.77	44149.53
562.93	43592.48
563.10	44210.38
563.26	43564.39
563.42	43805.47
563.59	43519.92
563.75	43854.62
563.92	43796.10
564.08	44081.65
564.24	44065.27
564.41	43796.10
564.57	43789.08
564.74	44004.41
564.90	43721.21
565.07	43716.53
565.23	43896.75
565.39	44034.84
565.56	44058.24
565.72	43690.78
565.88	43803.13
566.05	43924.83
566.21	44100.37
566.38	43810.15
566.54	44219.74
566.70	44123.78
566.87	44414.01
567.03	44088.67
567.19	44442.09
567.36	43936.54
567.52	43791.42
567.68	44030.16
567.85	43789.08
568.01	44364.85
568.17	43955.26
568.34	44013.77
568.50	43643.97
568.66	44184.63
568.83	44198.68
568.99	43660.35
569.15	43908.45
569.32	43899.09
569.48	43810.15
569.64	44449.11
569.81	44238.47
569.97	43941.22
570.13	44151.87
570.30	43931.86
570.46	44229.10
570.62	43868.66
570.78	44210.38
570.95	43971.64
571.11	44254.85
571.27	44479.54
571.43	44254.85
571.60	44844.66
571.76	44161.23
571.92	44418.69
572.09	44142.50
572.25	44355.49
572.41	44165.91
572.57	44219.74
572.74	44727.64
572.90	44083.99
573.06	44505.29
573.22	44603.59
573.38	44694.87
573.55	43735.25
573.71	44538.05
573.87	44641.04
574.03	44231.44
574.20	44622.31
574.36	44385.92
574.52	44734.66
574.68	44296.98
574.84	44774.45
575.01	44432.73
575.17	44364.85
575.33	44170.59
575.49	44238.47
575.65	44332.09
575.82	44460.82
575.98	44411.67
576.14	44751.04
576.30	44453.79
576.46	44528.69
576.62	44198.68
576.79	44299.32
576.95	44430.39
577.11	44479.54
577.27	44217.40
577.43	44907.86
577.59	44676.15
577.75	44594.23
577.92	44364.85
578.08	44678.49
578.24	44493.58
578.40	44329.75
578.56	44378.90
578.72	44512.31
578.88	44577.84
579.04	44666.78
579.21	44147.18
579.37	44289.96
579.53	44404.64
579.69	44182.29
579.85	44671.46
580.01	44755.72
580.17	44168.25
580.33	45165.32
580.49	44573.16
580.65	44598.91
580.82	44767.43
580.98	44362.51
581.14	44556.78
581.30	44748.70
581.46	44856.37
581.62	44533.37
581.78	44306.34
581.94	45041.27
582.10	44818.92
582.26	44645.72
582.42	44573.16
582.58	44451.45
582.74	44327.41
582.90	44182.29
583.06	44774.45
583.22	44891.48
583.38	45085.74
583.54	44762.75
583.70	44570.82
583.86	44383.58
584.02	44348.47
584.18	44561.46
584.34	44767.43
584.50	44584.86
584.66	44451.45
584.82	44191.65
584.98	44697.21
585.14	44851.69
585.30	44556.78
585.46	44591.89
585.62	44673.81
585.78	45022.54
585.94	44294.64
586.10	44280.60
586.26	44680.83
586.42	44570.82
586.58	44942.97
586.74	44706.57
586.90	44755.72
587.06	44542.74
587.22	44830.62
587.38	44516.99
587.54	45158.30
587.70	45085.74
587.86	44893.82
588.02	44755.72
588.18	45221.49
588.34	44807.22
588.49	44797.85
588.65	44542.74
588.81	44484.22
588.97	44355.49
589.13	44463.16
589.29	44971.05
589.45	44662.10
589.61	44748.70
589.77	44992.12
589.93	44968.71
590.08	45064.67
590.24	45029.57
