SpectraSuite Data File
++++++++++++++++++++++++++++++++++++
Date: Fri Oct 25 10:47:20 EDT 2013
User: price-jones
Dark Spectrum Present: No
Reference Spectrum Present: No
Number of Sampled Component Spectra: 1
Spectrometers: USB2+H05261
Integration Time (usec): 100000 (USB2+H05261)
Spectra Averaged: 1 (USB2+H05261)
Boxcar Smoothing: 0 (USB2+H05261)
Correct for Electrical Dark: No (USB2+H05261)
Strobe/Lamp Enabled: No (USB2+H05261)
Correct for Detector Non-linearity: No (USB2+H05261)
Correct for Stray Light: No (USB2+H05261)
Number of Pixels in Processed Spectrum: 2048
>>>>>Begin Processed Spectral Data<<<<<
365.73	46.81
365.92	46.81
366.12	46.81
366.32	51.49
366.52	84.26
366.72	35.11
366.91	65.54
367.11	46.81
367.31	39.79
367.51	152.13
367.70	95.96
367.90	117.03
368.10	0.00
368.30	81.92
368.49	49.15
368.69	81.92
368.89	51.49
369.09	39.79
369.28	100.64
369.48	126.39
369.68	65.54
369.87	135.75
370.07	32.77
370.27	173.20
370.47	170.86
370.66	355.76
370.86	421.30
371.06	404.91
371.25	514.92
371.45	454.06
371.65	500.87
371.84	456.40
372.04	454.06
372.24	475.13
372.44	388.53
372.63	512.58
372.83	540.66
373.03	440.02
373.22	535.98
373.42	622.58
373.62	486.83
373.81	510.24
374.01	477.47
374.21	521.94
374.40	498.53
374.60	533.64
374.79	543.00
374.99	603.86
375.19	514.92
375.38	531.30
375.58	531.30
375.78	631.94
375.97	601.52
376.17	615.56
376.37	669.39
376.56	594.50
376.76	517.26
376.95	554.71
377.15	528.96
377.35	657.69
377.54	545.34
377.74	552.37
377.93	641.31
378.13	592.16
378.33	669.39
378.52	631.94
378.72	662.37
378.91	606.20
379.11	566.41
379.31	526.62
379.50	554.71
379.70	622.58
379.89	620.24
380.09	667.05
380.28	683.44
380.48	662.37
380.68	571.09
380.87	636.63
381.07	685.78
381.26	681.10
381.46	655.35
381.65	692.80
381.85	585.13
382.04	627.26
382.24	674.07
382.43	671.73
382.63	681.10
382.83	669.39
383.02	620.24
383.22	716.20
383.41	720.88
383.61	730.25
383.80	777.06
384.00	709.18
384.19	585.13
384.39	786.42
384.58	758.33
384.78	734.93
384.97	751.31
385.17	734.93
385.36	760.67
385.56	727.91
385.75	758.33
385.95	713.86
386.14	779.40
386.34	795.78
386.53	875.36
386.72	763.01
386.92	809.83
387.11	873.02
387.31	791.10
387.50	746.63
387.70	774.72
387.89	826.21
388.09	856.64
388.28	866.00
388.48	816.85
388.67	940.90
388.86	828.55
389.06	844.93
389.25	844.93
389.45	915.15
389.64	898.77
389.84	915.15
390.03	894.08
390.22	901.11
390.42	889.40
390.61	894.08
390.81	943.24
391.00	842.59
391.19	985.37
391.39	954.94
391.58	980.68
391.78	936.21
391.97	983.02
392.16	884.72
392.36	1020.47
392.55	961.96
392.75	943.24
392.94	903.45
393.13	945.58
393.33	898.77
393.52	952.60
393.71	1001.75
393.91	1036.86
394.10	1057.92
394.29	1074.31
394.49	1060.26
394.68	1078.99
394.88	1100.05
395.07	1067.28
395.26	1104.73
395.46	1142.18
395.65	1090.69
395.84	1109.41
396.04	1135.16
396.23	1020.47
396.42	1029.84
396.62	1142.18
396.81	1151.54
397.00	1177.29
397.19	1121.12
397.39	1144.52
397.58	1181.97
397.77	1252.19
397.97	1238.14
398.16	1221.76
398.35	1240.48
398.55	1275.59
398.74	1238.14
398.93	1338.79
399.12	1315.38
399.32	1306.02
399.51	1317.72
399.70	1284.95
399.90	1378.58
400.09	1341.13
400.28	1486.24
400.47	1399.64
400.67	1420.71
400.86	1380.92
401.05	1455.81
401.24	1455.81
401.44	1273.25
401.63	1483.90
401.82	1500.28
402.01	1570.50
402.21	1458.15
402.40	1533.05
402.59	1591.56
402.78	1495.60
402.97	1556.46
403.17	1561.14
403.36	1678.16
403.55	1472.20
403.74	1540.07
403.93	1614.97
404.13	1504.96
404.32	1668.80
404.51	1631.35
404.70	1563.48
404.89	1659.44
405.09	1715.61
405.28	1764.76
405.47	1694.55
405.66	1743.70
405.85	1678.16
406.05	1696.89
406.24	1661.78
406.43	1706.25
406.62	1717.95
406.81	1818.60
407.00	1795.19
407.20	1774.13
407.39	1802.21
407.58	1956.69
407.77	1926.26
407.96	1982.43
408.15	2015.20
408.34	1912.22
408.54	1947.33
408.73	2005.84
408.92	2019.88
409.11	2008.18
409.30	2057.33
409.49	2069.03
409.68	1952.01
409.87	2008.18
410.07	1973.07
410.26	2062.01
410.45	2050.31
410.64	2024.56
410.83	2225.85
411.02	2282.02
411.21	2256.28
411.40	2172.02
411.59	2319.47
411.78	2209.47
411.98	2167.34
412.17	2335.85
412.36	2296.07
412.55	2354.58
412.74	2331.17
412.93	2385.01
413.12	2251.60
413.31	2586.29
413.50	2434.16
413.69	2553.52
413.88	2523.10
414.07	2548.84
414.26	2499.69
414.45	2572.25
414.64	2492.67
414.83	2562.89
415.02	2738.43
415.22	2768.85
415.41	2764.17
415.60	2864.82
415.79	2710.34
415.98	2736.09
416.17	2841.41
416.36	2738.43
416.55	2771.19
416.74	2857.79
416.93	2883.54
417.12	2888.22
417.31	2853.11
417.50	2925.67
417.69	3056.74
417.88	2986.52
418.07	2953.76
418.26	3080.14
418.45	3094.19
418.64	3084.83
418.83	3087.17
419.02	3309.52
419.21	3152.70
419.39	3150.36
419.58	3133.98
419.77	3145.68
419.96	3180.79
420.15	3199.51
420.34	3133.98
420.53	3236.96
420.72	3283.77
420.91	3396.12
421.10	3300.16
421.29	3419.52
421.48	3414.84
421.67	3243.98
421.86	3365.69
422.05	3405.48
422.24	3267.39
422.43	3475.70
422.61	3445.27
422.80	3431.23
422.99	3480.38
423.18	3419.52
423.37	3555.27
423.56	3456.97
423.75	3351.65
423.94	3449.95
424.13	3253.34
424.32	3262.71
424.50	3534.21
424.69	3517.83
424.88	3499.10
425.07	3407.82
425.26	3513.14
425.45	3524.85
425.64	3496.76
425.83	3576.34
426.01	3595.06
426.20	3431.23
426.39	3522.51
426.58	3513.14
426.77	3522.51
426.96	3616.13
427.15	3646.55
427.33	3581.02
427.52	3655.92
427.71	3733.15
427.90	3639.53
428.09	3735.50
428.28	3730.81
428.46	3672.30
428.65	3585.70
428.84	3810.39
429.03	3810.39
429.22	3716.77
429.40	3878.27
429.59	3922.74
429.78	3709.75
429.97	3590.38
430.16	3749.54
430.34	3864.22
430.53	3819.75
430.72	3730.81
430.91	3901.67
431.10	3901.67
431.28	3904.01
431.47	4067.85
431.66	4109.98
431.85	4056.15
432.03	4086.58
432.22	4259.78
432.41	4011.68
432.60	4107.64
432.79	4196.58
432.97	4229.35
433.16	4191.90
433.35	4187.22
433.54	4152.11
433.72	4194.24
433.91	4243.39
434.10	4212.96
434.28	4219.99
434.47	4175.52
434.66	4304.25
434.85	4479.79
435.03	4372.12
435.22	4526.60
435.41	4578.09
435.59	4386.16
435.78	4542.98
435.97	4449.36
436.16	4545.32
436.34	4456.38
436.53	4449.36
436.72	4669.37
436.90	4468.08
437.09	4589.79
437.28	4542.98
437.46	4603.83
437.65	4510.21
437.84	4599.15
438.02	4657.67
438.21	4582.77
438.40	4559.36
438.58	4660.01
438.77	4727.88
438.96	4770.01
439.14	4856.61
439.33	4844.91
439.52	4999.38
439.70	4964.28
439.89	5015.77
440.08	5025.13
440.26	5114.07
440.45	5109.39
440.63	5231.10
440.82	5179.61
441.01	5296.63
441.19	5308.34
441.38	5287.27
441.57	5408.98
441.75	5509.62
441.94	5446.43
442.12	5437.06
442.31	5474.51
442.50	5563.45
442.68	5614.95
442.87	5652.39
443.05	5572.82
443.24	5624.31
443.43	5722.61
443.61	5717.93
443.80	5827.93
443.98	5685.16
444.17	5701.54
444.35	5598.56
444.54	5863.04
444.73	5657.07
444.91	5818.57
445.10	5715.59
445.28	5738.99
445.47	5710.91
445.65	5741.33
445.84	5813.89
446.02	5914.53
446.21	5806.87
446.39	5804.53
446.58	5785.80
446.77	5959.00
446.95	5668.78
447.14	5849.00
447.32	5851.34
447.51	5877.09
447.69	5860.70
447.88	5795.17
448.06	5933.26
448.25	5781.12
448.43	6047.94
448.62	6080.71
448.80	5881.77
448.99	5916.87
449.17	5954.32
449.36	6050.28
449.54	6157.95
449.73	6190.72
449.91	6298.38
450.10	6253.91
450.28	6270.30
450.46	6424.77
450.65	6298.38
450.83	6345.19
451.02	6312.42
451.20	6352.21
451.39	6537.12
451.57	6251.57
451.76	6289.02
451.94	6298.38
452.13	6551.16
452.31	6228.17
452.49	6286.68
452.68	6438.81
452.86	6506.69
453.05	6494.99
453.23	6408.39
453.42	6441.15
453.60	6452.86
453.78	6633.08
453.97	6499.67
454.15	6415.41
454.34	6347.53
454.52	6579.25
454.70	6715.00
454.89	6530.09
455.07	6715.00
455.26	6799.26
455.44	6846.07
455.62	6700.95
455.81	6895.22
455.99	6942.03
456.17	6925.65
456.36	6970.12
456.54	6956.07
456.73	7122.25
456.91	7206.51
457.09	7185.44
457.28	7131.61
457.46	7283.75
457.64	7323.54
457.83	7199.49
458.01	7190.13
458.19	7468.65
458.38	7248.64
458.56	7449.93
458.74	7382.05
458.93	7281.41
459.11	7307.15
459.29	7358.64
459.48	7468.65
459.66	7356.30
459.84	7417.16
460.03	7503.76
460.21	7620.78
460.39	7592.70
460.57	7630.15
460.76	7564.61
460.94	7559.93
461.12	7559.93
461.31	7620.78
461.49	7854.84
461.67	7527.16
461.85	7878.24
462.04	7590.36
462.22	8367.42
462.40	7911.01
462.59	7896.97
462.77	7997.61
462.95	7854.84
463.13	7983.57
463.32	7705.04
463.50	7908.67
463.68	7911.01
463.86	8119.32
464.05	7880.58
464.23	8042.08
464.41	8102.93
464.59	7934.42
464.78	8241.03
464.96	8004.63
465.14	8161.45
465.32	8311.24
465.50	8126.34
465.69	8437.63
465.87	8226.98
466.05	8283.16
466.23	8107.62
466.41	8166.13
466.60	8435.29
466.78	8243.37
466.96	8269.11
467.14	8311.24
467.32	8510.19
467.51	8734.88
467.69	8138.04
467.87	8465.72
468.05	8594.45
468.23	8463.38
468.41	8482.10
468.60	8344.01
468.78	8674.03
468.96	8554.66
469.14	8732.54
469.32	8882.33
469.50	8353.37
469.69	8631.90
469.87	8678.71
470.05	8819.14
470.23	8908.08
470.41	8819.14
470.59	9013.40
470.77	8847.22
470.95	9057.87
471.14	9060.21
471.32	8795.73
471.50	9137.45
471.68	9245.12
471.86	9334.06
472.04	9303.63
472.22	9476.83
472.40	9132.77
472.58	9233.41
472.77	9252.14
472.95	9427.68
473.13	9551.73
473.31	9399.59
473.49	9509.60
473.67	9542.36
473.85	9530.66
474.03	9811.53
474.21	9933.23
474.39	9977.70
474.57	9846.63
474.75	10015.15
474.93	10148.56
475.12	10228.14
475.30	10181.33
475.48	10017.49
475.66	10080.69
475.84	10139.20
476.02	10242.18
476.20	10326.44
476.38	10520.71
476.56	10501.98
476.74	10799.23
476.92	10651.78
477.10	10490.28
477.28	10853.06
477.46	11019.24
477.64	10693.91
477.82	10801.57
478.00	11220.53
478.18	11150.31
478.36	11126.91
478.54	11442.88
478.72	11367.98
478.90	11485.01
479.08	11674.59
479.26	11768.21
479.44	11868.86
479.62	11702.68
479.80	12119.29
479.98	12028.01
480.16	12322.92
480.34	12032.69
480.52	12294.83
480.70	12334.62
480.88	12156.74
481.06	12465.69
481.24	12379.09
481.41	12468.03
481.59	13004.02
481.77	12933.80
481.95	12987.63
482.13	12966.57
482.31	13025.08
482.49	13308.29
482.67	13249.77
482.85	13383.18
483.03	13642.98
483.21	13963.64
483.39	14075.98
483.57	13855.97
483.74	14181.31
483.92	14047.90
484.10	13961.30
484.28	14321.74
484.46	14600.26
484.64	14633.03
484.82	14420.04
485.00	14548.77
485.18	14946.66
485.35	14813.25
485.53	15012.20
485.71	14794.53
485.89	15248.59
486.07	14984.11
486.25	15131.56
486.43	15424.13
486.61	15489.67
486.78	15882.88
486.96	15723.72
487.14	15997.56
487.32	15784.57
487.50	16219.91
487.68	16348.64
487.85	16615.46
488.03	16858.88
488.21	16849.52
488.39	16877.60
488.57	16849.52
488.75	16996.97
488.92	17315.28
489.10	17404.22
489.28	17539.97
489.46	17778.71
489.64	17610.19
489.81	17893.40
489.99	18094.68
490.17	18319.37
490.35	18616.62
490.53	18794.50
490.70	18520.66
490.88	18609.60
491.06	18792.16
491.24	18888.12
491.41	18824.93
491.59	19185.37
491.77	19075.37
491.95	19445.17
492.13	19557.52
492.30	19442.83
492.48	19758.80
492.66	19637.09
492.84	19508.37
493.01	19864.13
493.19	20018.60
493.37	20414.15
493.54	20161.37
493.72	20629.48
493.90	20362.66
494.08	20830.77
494.25	21116.31
494.43	20952.48
494.61	20905.66
494.79	21067.16
494.96	21179.51
495.14	21331.64
495.32	21596.12
495.49	21640.59
495.67	21895.71
495.85	21977.63
496.02	22157.85
496.20	22087.64
496.38	22237.43
496.55	21919.12
496.73	22604.89
496.91	22366.16
497.09	22492.55
497.26	22902.14
497.44	22787.46
497.62	23009.81
497.79	23592.60
497.97	23103.43
498.14	23283.65
498.32	23396.00
498.50	23442.81
498.67	23674.52
498.85	23407.70
499.03	23620.69
499.20	23688.56
499.38	23824.31
499.56	24219.86
499.73	24336.89
499.91	24135.60
500.08	24245.61
500.26	24224.54
500.44	24493.71
500.61	24442.21
500.79	24505.41
500.97	24472.64
501.14	24907.98
501.32	24828.40
501.49	24690.31
501.67	24978.20
501.84	24996.92
502.02	25055.43
502.20	25287.15
502.37	25364.39
502.55	25490.77
502.72	25956.54
502.90	25710.78
503.07	25673.34
503.25	25972.92
503.43	25853.56
503.60	25982.29
503.78	25865.26
503.95	25729.51
504.13	26103.99
504.30	26703.17
504.48	26239.75
504.65	26199.96
504.83	26581.46
505.01	26654.02
505.18	26237.41
505.36	26993.40
505.53	26881.05
505.71	27323.41
505.88	27330.44
506.06	27147.87
506.23	27618.32
506.41	27054.25
506.58	27442.78
506.76	27253.20
506.93	27419.38
507.11	27311.71
507.28	27716.62
507.46	27728.33
507.63	27637.05
507.81	28100.47
507.98	27875.78
508.16	28173.03
508.33	28233.88
508.50	28346.23
508.68	28538.15
508.85	28662.20
509.03	28580.28
509.20	28734.76
509.38	28884.55
509.55	28531.13
509.73	29172.44
509.90	28622.41
510.08	28978.17
510.25	28830.72
510.42	28922.00
510.60	29247.33
510.77	29476.71
510.95	29626.50
511.12	29434.58
511.30	29619.48
511.47	29708.42
511.64	30089.93
511.82	29846.51
511.99	29844.17
512.17	29991.62
512.34	29654.59
512.51	30120.35
512.69	30377.81
512.86	30075.88
513.04	30532.29
513.21	30438.67
513.38	30450.37
513.56	30897.41
513.73	30354.41
513.90	30764.00
514.08	30532.29
514.25	31101.04
514.43	30471.43
514.60	30668.04
514.77	30714.85
514.95	31346.79
515.12	31264.88
515.29	31276.58
515.47	31592.55
515.64	31449.78
515.81	31042.53
515.99	31201.68
516.16	31510.63
516.33	31419.35
516.51	31700.22
516.68	31274.24
516.85	31208.70
517.03	31456.80
517.20	31307.01
517.37	31683.83
517.54	31978.74
517.72	31955.33
517.89	31875.76
518.06	32018.53
518.24	31791.50
518.41	32074.70
518.58	32582.60
518.75	32130.87
518.93	32414.08
519.10	32547.49
519.27	32615.37
519.45	32685.58
519.62	32879.85
519.79	33111.56
519.96	32907.93
520.14	33055.39
520.31	33015.60
520.48	33071.77
520.65	33111.56
520.83	33163.05
521.00	33462.64
521.17	33357.32
521.34	33158.37
521.52	33855.85
521.69	33624.14
521.86	33687.33
522.03	33996.28
522.20	33851.17
522.38	33954.15
522.55	34164.80
522.72	34382.47
522.89	33902.66
523.07	34225.65
523.24	33876.91
523.41	34511.20
523.58	34036.07
523.75	34675.04
523.92	34443.32
524.10	34539.29
524.27	34691.42
524.44	34787.38
524.61	35086.97
524.78	34857.60
524.96	35253.15
525.13	34848.24
525.30	35615.93
525.47	35365.49
525.64	35716.58
525.81	34869.30
525.98	34993.35
526.16	35236.77
526.33	34960.58
526.50	35222.72
526.67	35358.47
526.84	35077.61
527.01	35274.21
527.18	35459.12
527.36	35711.89
527.53	35634.66
527.70	35847.64
527.87	35896.80
528.04	35934.24
528.21	35915.52
528.38	35742.32
528.55	36053.61
528.72	36318.09
528.89	36463.21
529.07	36233.83
529.24	36070.00
529.41	36488.95
529.58	36287.67
529.75	36231.49
529.92	36924.29
530.09	36484.27
530.26	36407.03
530.43	36629.38
530.60	36184.68
530.77	36678.54
530.94	37111.53
531.11	36685.56
531.28	36776.84
531.46	37156.00
531.63	37329.20
531.80	37057.70
531.97	37200.47
532.14	37404.10
532.31	36914.93
532.48	37275.37
532.65	37282.39
532.82	36730.03
532.99	37317.50
533.16	37359.63
533.33	37184.09
533.50	37537.51
533.67	37591.34
533.84	37544.53
534.01	37993.92
534.18	37635.81
534.35	37923.70
534.52	38171.80
534.69	38078.18
534.86	38169.46
535.03	37729.44
535.20	38377.76
535.37	38340.32
535.54	38426.92
535.71	38300.53
535.88	38728.84
536.05	38157.75
536.22	38485.43
536.38	38447.98
536.55	38022.00
536.72	38389.47
536.89	38646.93
537.06	38267.76
537.23	38806.08
537.40	38775.66
537.57	38717.14
537.74	38799.06
537.91	39023.75
538.08	39000.35
538.25	38515.86
538.42	38848.21
538.59	38455.00
538.75	38515.86
538.92	39393.56
539.09	39016.73
539.26	39150.14
539.43	39009.71
539.60	39330.36
539.77	38780.34
539.94	39182.91
540.11	39358.45
540.28	38869.28
540.44	39627.61
540.61	39775.06
540.78	39370.15
540.95	39084.61
541.12	39232.06
541.29	39239.08
541.46	39454.41
541.62	39828.90
541.79	39512.92
541.96	38895.02
542.13	39236.74
542.30	39470.79
542.47	39819.53
542.63	39735.27
542.80	39936.56
542.97	40086.36
543.14	40357.86
543.31	40095.72
543.48	40559.14
543.64	40556.80
543.81	40643.40
543.98	40552.12
544.15	40643.40
544.32	40627.02
544.48	41045.97
544.65	40484.25
544.82	40500.63
544.99	40081.67
545.16	40371.90
545.32	40851.71
545.49	41111.51
545.66	41017.89
545.83	40861.07
546.00	40942.99
546.16	40898.52
546.33	40634.04
546.50	40629.36
546.67	40910.22
546.83	40617.66
547.00	40882.14
547.17	41027.25
547.34	40964.06
547.50	41233.22
547.67	41364.29
547.84	41439.18
548.00	41443.87
548.17	41787.92
548.34	41408.76
548.51	41434.50
548.67	41223.86
548.84	41432.16
549.01	41743.45
549.18	41579.62
549.34	41846.44
549.51	41263.64
549.68	41659.20
549.84	41731.75
550.01	42113.26
550.18	41926.02
550.34	41387.69
550.51	41883.89
550.68	41436.84
550.84	41448.55
551.01	41982.19
551.18	41610.04
551.34	41689.62
551.51	42319.23
551.68	42340.29
551.84	42204.54
552.01	42019.64
552.18	42017.30
552.34	41677.92
552.51	42230.29
552.68	42272.42
552.84	42714.78
553.01	42354.33
553.18	42492.43
553.34	42527.53
553.51	42377.74
553.67	42351.99
553.84	42689.03
554.01	42670.31
554.17	42506.47
554.34	42672.65
554.51	42885.64
554.67	42906.70
554.84	42632.86
555.00	42511.15
555.17	42209.22
555.33	42230.29
555.50	42768.61
555.67	42740.52
555.83	42637.54
556.00	42890.32
556.16	43065.86
556.33	42731.16
556.50	42754.57
556.66	43494.18
556.83	42927.77
556.99	43063.52
557.16	42960.53
557.32	43154.80
557.49	43262.46
557.65	42609.45
557.82	42705.41
557.98	43033.09
558.15	42916.06
558.32	43264.80
558.48	43173.52
558.65	43047.13
558.81	43028.41
558.98	43201.61
559.14	42895.00
559.31	43096.28
559.47	43407.58
559.64	43248.42
559.80	43655.67
559.97	43571.41
560.13	43414.60
560.30	43115.01
560.46	43409.92
560.63	43618.22
560.79	43779.72
560.96	43468.43
561.12	43739.93
561.29	43452.05
561.45	43564.39
561.61	43686.10
561.78	43723.55
561.94	43449.70
562.11	43147.78
562.27	43306.93
562.44	43388.85
562.60	43871.00
562.77	43302.25
562.93	43461.41
563.10	43835.89
563.26	43014.37
563.42	43899.09
563.59	43849.94
563.75	43667.37
563.92	44023.14
564.08	43945.90
564.24	44037.18
564.41	43548.01
564.57	43812.49
564.74	44161.23
564.90	44208.04
565.07	44392.94
565.23	43871.00
565.39	43777.38
565.56	43901.43
565.72	44079.31
565.88	43863.98
566.05	43763.34
566.21	43924.83
566.38	43739.93
566.54	43966.96
566.70	44194.00
566.87	44238.47
567.03	43838.23
567.19	44498.26
567.36	44016.11
567.52	44264.21
567.68	44004.41
567.85	43985.69
568.01	44460.82
568.17	43765.68
568.34	44289.96
568.50	43985.69
568.66	43924.83
568.83	43915.47
568.99	43849.94
569.15	43976.33
569.32	44250.17
569.48	43973.98
569.64	44250.17
569.81	44641.04
569.97	43917.81
570.13	44350.81
570.30	43828.87
570.46	44191.65
570.62	43660.35
570.78	43845.26
570.95	43875.68
571.11	44467.84
571.27	44067.61
571.43	43875.68
571.60	44191.65
571.76	44348.47
571.92	44264.21
572.09	44011.43
572.25	44383.58
572.41	43910.79
572.57	44254.85
572.74	45308.09
572.90	44385.92
573.06	44191.65
573.22	44304.00
573.38	44334.43
573.55	44140.16
573.71	44472.52
573.87	44020.80
574.03	44210.38
574.20	44020.80
574.36	44147.18
574.52	44067.61
574.68	44341.45
574.84	44580.18
575.01	44360.17
575.17	44182.29
575.33	44231.44
575.49	44362.51
575.65	45261.28
575.82	45151.27
575.98	44685.51
576.14	44783.81
576.30	44357.83
576.46	44205.70
576.62	44177.61
576.79	44065.27
576.95	44198.68
577.11	44512.31
577.27	44491.24
577.43	44423.37
577.59	44257.19
577.75	44395.28
577.92	44320.38
578.08	43962.28
578.24	44474.86
578.40	43814.83
578.56	44486.56
578.72	44032.50
578.88	44715.93
579.04	44708.91
579.21	44355.49
579.37	44306.34
579.53	44928.92
579.69	44479.54
579.85	44182.29
580.01	44451.45
580.17	44189.31
580.33	44446.77
580.49	45006.16
580.65	44720.62
580.82	44502.95
580.98	44552.10
581.14	44282.94
581.30	44912.54
581.46	44388.26
581.62	44552.10
581.78	44645.72
581.94	44638.70
582.10	45036.59
582.26	44669.12
582.42	44575.50
582.58	44219.74
582.74	44559.12
582.90	44790.83
583.06	45064.67
583.22	44926.58
583.38	44451.45
583.54	44809.56
583.70	44076.97
583.86	44830.62
584.02	44402.30
584.18	45022.54
584.34	44652.74
584.50	44692.53
584.66	43791.42
584.82	44341.45
584.98	44985.10
585.14	45216.81
585.30	44399.96
585.46	44570.82
585.62	44465.50
585.78	44556.78
585.94	44409.32
586.10	44114.42
586.26	44495.92
586.42	44568.48
586.58	44748.70
586.74	44507.63
586.90	44645.72
587.06	44252.51
587.22	44961.69
587.38	44282.94
587.54	45200.43
587.70	45282.34
587.86	44720.62
588.02	44858.71
588.18	44961.69
588.34	44451.45
588.49	44470.18
588.65	44535.71
588.81	44098.03
588.97	44573.16
589.13	44437.41
589.29	44786.15
589.45	44790.83
589.61	44519.33
589.77	44598.91
589.93	44713.59
590.08	44727.64
590.24	45003.82
