SpectraSuite Data File
++++++++++++++++++++++++++++++++++++
Date: Fri Oct 25 11:34:25 EDT 2013
User: price-jones
Dark Spectrum Present: No
Reference Spectrum Present: No
Number of Sampled Component Spectra: 1
Spectrometers: USB2+H05261
Integration Time (usec): 100000 (USB2+H05261)
Spectra Averaged: 1 (USB2+H05261)
Boxcar Smoothing: 0 (USB2+H05261)
Correct for Electrical Dark: No (USB2+H05261)
Strobe/Lamp Enabled: No (USB2+H05261)
Correct for Detector Non-linearity: No (USB2+H05261)
Correct for Stray Light: No (USB2+H05261)
Number of Pixels in Processed Spectrum: 2048
>>>>>Begin Processed Spectral Data<<<<<
365.73	297.25
365.92	297.25
366.12	297.25
366.32	227.03
366.52	182.56
366.72	257.46
366.91	196.60
367.11	210.65
367.31	177.88
367.51	283.20
367.70	198.95
367.90	250.44
368.10	208.31
368.30	180.22
368.49	210.65
368.69	259.80
368.89	140.43
369.09	196.60
369.28	177.88
369.48	264.48
369.68	220.01
369.87	308.95
370.07	231.71
370.27	287.89
370.47	304.27
370.66	486.83
370.86	447.04
371.06	484.49
371.25	582.79
371.45	521.94
371.65	552.37
371.84	608.54
372.04	540.66
372.24	545.34
372.44	500.87
372.63	589.82
372.83	650.67
373.03	606.20
373.22	578.11
373.42	613.22
373.62	610.88
373.81	627.26
374.01	629.60
374.21	580.45
374.40	550.03
374.60	667.05
374.79	571.09
374.99	606.20
375.19	634.29
375.38	622.58
375.58	676.41
375.78	753.65
375.97	667.05
376.17	760.67
376.37	608.54
376.56	730.25
376.76	664.71
376.95	704.50
377.15	702.16
377.35	720.88
377.54	641.31
377.74	617.90
377.93	690.46
378.13	664.71
378.33	763.01
378.52	664.71
378.72	685.78
378.91	608.54
379.11	711.52
379.31	655.35
379.50	720.88
379.70	704.50
379.89	793.44
380.09	746.63
380.28	718.54
380.48	706.84
380.68	706.84
380.87	704.50
381.07	713.86
381.26	718.54
381.46	697.48
381.65	755.99
381.85	791.10
382.04	774.72
382.24	730.25
382.43	798.12
382.63	746.63
382.83	739.61
383.02	791.10
383.22	840.25
383.41	875.36
383.61	732.59
383.80	873.02
384.00	737.27
384.19	786.42
384.39	905.79
384.58	800.46
384.78	847.27
384.97	753.65
385.17	711.52
385.36	877.70
385.56	835.57
385.75	882.38
385.95	884.72
386.14	847.27
386.34	669.39
386.53	905.79
386.72	807.48
386.92	842.59
387.11	861.32
387.31	856.64
387.50	788.76
387.70	851.96
387.89	912.81
388.09	842.59
388.28	833.23
388.48	833.23
388.67	858.98
388.86	884.72
389.06	952.60
389.25	961.96
389.45	826.21
389.64	833.23
389.84	933.87
390.03	1020.47
390.22	978.34
390.42	901.11
390.61	926.85
390.81	990.05
391.00	997.07
391.19	938.55
391.39	976.00
391.58	1041.54
391.78	1025.15
391.97	1039.20
392.16	1032.18
392.36	1055.58
392.55	1022.81
392.75	1018.13
392.94	1006.43
393.13	1196.01
393.33	1008.77
393.52	1086.01
393.71	1039.20
393.91	999.41
394.10	1093.03
394.29	1067.28
394.49	1022.81
394.68	1116.44
394.88	1142.18
395.07	1156.22
395.26	1142.18
395.46	1135.16
395.65	1149.20
395.84	1177.29
396.04	1191.33
396.23	1118.78
396.42	1151.54
396.62	1217.08
396.81	1165.59
397.00	1146.86
397.19	1252.19
397.39	1226.44
397.58	1313.04
397.77	1233.46
397.97	1191.33
398.16	1139.84
398.35	1231.12
398.55	1184.31
398.74	1287.29
398.93	1254.53
399.12	1277.93
399.32	1249.85
399.51	1219.42
399.70	1373.89
399.90	1341.13
400.09	1350.49
400.28	1350.49
400.47	1320.06
400.67	1301.34
400.86	1273.25
401.05	1362.19
401.24	1277.93
401.44	1308.36
401.63	1488.58
401.82	1427.73
402.01	1401.98
402.21	1441.77
402.40	1465.18
402.59	1404.32
402.78	1439.43
402.97	1490.92
403.17	1455.81
403.36	1502.62
403.55	1432.41
403.74	1558.80
403.93	1598.59
404.13	1535.39
404.32	1521.35
404.51	1533.05
404.70	1654.76
404.89	1591.56
405.09	1680.50
405.28	1612.63
405.47	1633.69
405.66	1584.54
405.85	1687.53
406.05	1668.80
406.24	1626.67
406.43	1640.72
406.62	1699.23
406.81	1682.85
407.00	1769.44
407.20	1767.10
407.39	1741.36
407.58	1750.72
407.77	1863.07
407.96	1732.00
408.15	1830.30
408.34	1783.49
408.54	1877.11
408.73	1956.69
408.92	1797.53
409.11	1900.52
409.30	1881.79
409.49	1898.17
409.68	1977.75
409.87	1949.67
410.07	2059.67
410.26	2101.80
410.45	1947.33
410.64	2001.16
410.83	2010.52
411.02	2176.70
411.21	2195.42
411.40	2120.53
411.59	2155.63
411.78	2106.48
411.98	2176.70
412.17	2111.16
412.36	2069.03
412.55	2134.57
412.74	2277.34
412.93	2253.94
413.12	2279.68
413.31	2282.02
413.50	2448.20
413.69	2361.60
413.88	2385.01
414.07	2361.60
414.26	2518.42
414.45	2352.24
414.64	2445.86
414.83	2614.38
415.02	2457.56
415.22	2555.86
415.41	2537.14
415.60	2441.18
415.79	2495.01
415.98	2640.12
416.17	2686.94
416.36	2677.57
416.55	2588.63
416.74	2677.57
416.93	2752.47
417.12	2818.00
417.31	2799.28
417.50	2691.62
417.69	2869.50
417.88	2867.16
418.07	2862.48
418.26	2822.69
418.45	2803.96
418.64	2942.05
418.83	2832.05
419.02	3002.91
419.21	2984.18
419.39	2977.16
419.58	3056.74
419.77	2930.35
419.96	2956.10
420.15	2991.20
420.34	3138.66
420.53	3019.29
420.72	3192.49
420.91	3087.17
421.10	2986.52
421.29	3232.28
421.48	3138.66
421.67	3180.79
421.86	3157.38
422.05	3171.43
422.24	3204.19
422.43	3269.73
422.61	3251.00
422.80	3346.97
422.99	3152.70
423.18	3361.01
423.37	3356.33
423.56	3382.07
423.75	3363.35
423.94	3194.83
424.13	3000.57
424.32	3229.94
424.50	3251.00
424.69	3311.86
424.88	3377.39
425.07	3396.12
425.26	3337.60
425.45	3304.84
425.64	3412.50
425.83	3222.92
426.01	3396.12
426.20	3452.29
426.39	3356.33
426.58	3262.71
426.77	3400.80
426.96	3300.16
427.15	3379.73
427.33	3407.82
427.52	3466.33
427.71	3379.73
427.90	3417.18
428.09	3522.51
428.28	3644.21
428.46	3524.85
428.65	3478.04
428.84	3611.45
429.03	3742.52
429.22	3548.25
429.40	3606.77
429.59	3522.51
429.78	3510.80
429.97	3330.58
430.16	3559.95
430.34	3620.81
430.53	3803.37
430.72	3761.24
430.91	3789.33
431.10	3721.45
431.28	3878.27
431.47	3866.56
431.66	3810.39
431.85	3812.73
432.03	3906.35
432.22	3880.61
432.41	3875.93
432.60	3868.91
432.79	3885.29
432.97	4028.06
433.16	3871.25
433.35	3925.08
433.54	3892.31
433.72	3866.56
433.91	4023.38
434.10	3988.27
434.28	3964.87
434.47	4238.71
434.66	4070.19
434.85	4124.02
435.03	4072.53
435.22	4184.88
435.41	4337.01
435.59	4245.73
435.78	4308.93
435.97	4301.90
436.16	4023.38
436.34	4287.86
436.53	4348.72
436.72	4442.34
436.90	4128.70
437.09	4517.23
437.28	4341.69
437.46	4418.93
437.65	4208.28
437.84	4329.99
438.02	4449.36
438.21	4507.87
438.40	4482.13
438.58	4575.75
438.77	4610.86
438.96	4648.30
439.14	4566.39
439.33	4795.76
439.52	4760.65
439.70	4704.48
439.89	4784.06
440.08	4819.16
440.26	4894.06
440.45	4767.67
440.63	4964.28
440.82	5055.56
441.01	4777.03
441.19	5039.17
441.38	5032.15
441.57	5036.83
441.75	5095.35
441.94	5118.75
442.12	5114.07
442.31	5181.95
442.50	5242.80
442.68	5121.09
442.87	5263.86
443.05	5404.30
443.24	5226.42
443.43	5247.48
443.61	5355.15
443.80	5584.52
443.98	5247.48
444.17	5221.74
444.35	5476.85
444.54	5518.98
444.73	5481.53
444.91	5427.70
445.10	5558.77
445.28	5448.77
445.47	5488.56
445.65	5416.00
445.84	5448.77
446.02	5481.53
446.21	5575.16
446.39	5497.92
446.58	5518.98
446.77	5647.71
446.95	5500.26
447.14	5458.13
447.32	5465.15
447.51	5460.47
447.69	5544.73
447.88	5465.15
448.06	5575.16
448.25	5526.00
448.43	5430.04
448.62	5568.13
448.80	5518.98
448.99	5811.55
449.17	5687.50
449.36	5554.09
449.54	5717.93
449.73	5774.10
449.91	5900.49
450.10	5865.38
450.28	5671.12
450.46	5877.09
450.65	5963.68
450.83	5877.09
451.02	5975.39
451.20	5905.17
451.39	5874.74
451.57	5930.92
451.76	5956.66
451.94	5961.34
452.13	5898.15
452.31	6040.92
452.49	5905.17
452.68	6045.60
452.86	6115.82
453.05	6038.58
453.23	6174.33
453.42	6064.33
453.60	6141.57
453.78	6083.05
453.97	6015.18
454.15	6265.61
454.34	6003.47
454.52	6363.92
454.70	6347.53
454.89	6232.85
455.07	6260.93
455.26	6349.87
455.44	6464.56
455.62	6483.28
455.81	6356.90
455.99	6307.74
456.17	6382.64
456.36	6375.62
456.54	6502.01
456.73	6534.78
456.91	6895.22
457.09	6876.49
457.28	6782.87
457.46	6773.51
457.64	6820.32
457.83	6789.89
458.01	6857.77
458.19	6932.67
458.38	6724.36
458.56	6986.50
458.74	6867.13
458.93	6822.66
459.11	6918.62
459.29	7101.19
459.48	7040.33
459.66	7049.69
459.84	7173.74
460.03	7396.09
460.21	7133.95
460.39	7007.56
460.57	7133.95
460.76	7229.91
460.94	7129.27
461.12	7122.25
461.31	7241.62
461.49	7286.09
461.67	7056.72
461.85	7316.51
462.04	7431.20
462.22	7840.79
462.40	7314.17
462.59	7410.14
462.77	7452.27
462.95	7295.45
463.13	7480.35
463.32	7375.03
463.50	7599.72
463.68	7679.30
463.86	7669.94
464.05	7604.40
464.23	7681.64
464.41	7655.89
464.59	7515.46
464.78	7887.61
464.96	7866.54
465.14	7550.57
465.32	7667.60
465.50	7962.50
465.69	7927.39
465.87	7639.51
466.05	7754.19
466.23	7770.58
466.41	7939.10
466.60	7941.44
466.78	7822.07
466.96	7719.09
467.14	7941.44
467.32	7988.25
467.51	8124.00
467.69	7936.76
467.87	7934.42
468.05	8156.77
468.23	7990.59
468.41	7829.09
468.60	8149.75
468.78	8112.30
468.96	8056.12
469.14	8037.40
469.32	8444.65
469.50	8248.05
469.69	8437.63
469.87	8336.99
470.05	8348.69
470.23	8489.12
470.41	8442.31
470.59	8559.34
470.77	8629.56
470.95	8353.37
471.14	8704.45
471.32	8531.25
471.50	8648.28
471.68	8739.56
471.86	8568.70
472.04	8664.66
472.22	8964.25
472.40	8788.71
472.58	9097.66
472.77	9036.81
472.95	9081.28
473.13	9282.56
473.31	8994.68
473.49	9022.77
473.67	8980.64
473.85	9083.62
474.03	9240.44
474.21	9397.25
474.39	9535.34
474.57	9245.12
474.75	9542.36
474.93	9537.68
475.12	9610.24
475.30	9727.27
475.48	9657.05
475.66	9724.93
475.84	9795.14
476.02	9966.00
476.20	9998.77
476.38	10001.11
476.56	10274.95
476.74	10317.08
476.92	10148.56
477.10	9928.55
477.28	10314.74
477.46	10354.53
477.64	10340.49
477.82	10516.03
478.00	10860.09
478.18	10462.19
478.36	10724.33
478.54	10789.87
478.72	10934.98
478.90	11084.78
479.08	11044.99
479.26	11213.51
479.44	10953.71
479.62	11274.36
479.80	11487.35
479.98	11459.26
480.16	11693.32
480.34	11630.12
480.52	11662.89
480.70	11918.01
480.88	11761.19
481.06	12009.29
481.24	11925.03
481.41	11925.03
481.59	12320.58
481.77	12416.54
481.95	12540.59
482.13	12622.51
482.31	12489.10
482.49	12886.99
482.67	12788.69
482.85	12872.95
483.03	13261.48
483.21	13200.62
483.39	13282.54
483.57	13217.01
483.74	13408.93
483.92	13596.17
484.10	13572.77
484.28	13998.74
484.46	13874.70
484.64	14061.94
484.82	13879.38
485.00	14321.74
485.18	14263.22
485.35	14560.47
485.53	14272.59
485.71	14750.06
485.89	14644.73
486.07	14820.27
486.25	14523.02
486.43	15091.77
486.61	15009.86
486.78	15140.93
486.96	15077.73
487.14	15463.92
487.32	15520.09
487.50	15791.59
487.68	15421.79
487.85	16044.37
488.03	15917.98
488.21	16313.53
488.39	16257.36
488.57	16379.07
488.75	16388.43
488.92	16748.87
489.10	16851.86
489.28	16739.51
489.46	17158.47
489.64	17125.70
489.81	17638.28
489.99	17252.09
490.17	17146.76
490.35	17453.37
490.53	17589.13
490.70	17912.12
490.88	17790.41
491.06	18043.19
491.24	18197.67
491.41	18150.85
491.59	18504.28
491.77	18384.91
491.95	18686.84
492.13	18759.39
492.30	18927.91
492.48	18869.40
492.66	19040.26
492.84	19206.44
493.01	19379.64
493.19	19337.51
493.37	19304.74
493.54	19491.98
493.72	19683.91
493.90	19475.60
494.08	19791.57
494.25	20086.48
494.43	20025.62
494.61	20613.10
494.79	20620.12
494.96	20503.09
495.14	20535.86
495.32	20828.43
495.49	20823.75
495.67	21062.48
495.85	21348.03
496.02	21521.23
496.20	21338.66
496.38	21413.56
496.55	21467.39
496.73	22001.04
496.91	21774.00
497.09	21944.86
497.26	22108.70
497.44	21900.39
497.62	22148.49
497.79	22588.51
497.97	21970.61
498.14	22565.10
498.32	22705.54
498.50	22934.91
498.67	22897.46
498.85	22965.34
499.03	22860.01
499.20	23253.22
499.38	23253.22
499.56	23122.15
499.73	23653.45
499.91	23307.05
500.08	23644.09
500.26	23555.15
500.44	23854.74
500.61	23941.34
500.79	23557.49
500.97	24079.43
501.14	23997.51
501.32	24240.93
501.49	24432.85
501.67	24243.27
501.84	24657.54
502.02	24500.73
502.20	24587.33
502.37	24540.52
502.55	24652.86
502.72	24837.76
502.90	24718.40
503.07	24957.13
503.25	25151.40
503.43	25095.22
503.60	25048.41
503.78	25118.63
503.95	25249.70
504.13	25546.95
504.30	25788.02
504.48	25689.72
504.65	25839.51
504.83	25813.77
505.01	25748.23
505.18	25935.48
505.36	26483.16
505.53	26246.77
505.71	26085.27
505.88	26354.43
506.06	26668.06
506.23	26078.25
506.41	26368.48
506.58	26546.36
506.76	26506.57
506.93	26684.45
507.11	26590.83
507.28	27281.28
507.46	26782.75
507.63	27042.55
507.81	27473.21
507.98	27164.26
508.16	27419.38
508.33	27353.84
508.50	27398.31
508.68	27534.06
508.85	27831.31
509.03	27728.33
509.20	28020.89
509.38	27983.44
509.55	27929.61
509.73	27990.47
509.90	28170.69
510.08	28074.73
510.25	28048.98
510.42	28091.11
510.60	28559.22
510.77	28765.18
510.95	28854.12
511.12	28652.84
511.30	28531.13
511.47	28620.07
511.64	28952.43
511.82	29046.05
511.99	29118.60
512.17	29106.90
512.34	29336.27
512.51	29390.11
512.69	30190.57
512.86	28966.47
513.04	29713.10
513.21	29858.21
513.38	29677.99
513.56	30157.80
513.73	29710.76
513.90	29867.58
514.08	30043.12
514.25	30146.10
514.43	30054.82
514.60	30452.71
514.77	30352.07
514.95	30637.61
515.12	30202.27
515.29	30560.37
515.47	30927.84
515.64	30953.58
515.81	30567.40
515.99	30775.70
516.16	30991.03
516.33	30775.70
516.51	31061.25
516.68	30441.01
516.85	31321.05
517.03	31424.03
517.20	31395.95
517.37	31276.58
517.54	31665.11
517.72	31477.86
517.89	31559.78
518.06	31929.59
518.24	32173.00
518.41	31576.17
518.58	32044.27
518.75	31435.74
518.93	32030.23
519.10	32011.51
519.27	32315.78
519.45	32154.28
519.62	32460.89
519.79	32554.51
519.96	32430.46
520.14	32606.00
520.31	32184.71
520.48	32493.66
520.65	32781.54
520.83	32964.10
521.00	32790.91
521.17	32676.22
521.34	33350.29
521.52	33125.60
521.69	33163.05
521.86	33284.76
522.03	33380.72
522.20	33415.83
522.38	33479.02
522.55	33717.76
522.72	33734.14
522.89	34132.03
523.07	33968.19
523.24	33518.81
523.41	33670.95
523.58	33645.20
523.75	33869.89
523.92	33982.24
524.10	34590.78
524.27	34031.39
524.44	34162.46
524.61	34307.57
524.78	34213.95
524.96	34558.01
525.13	34244.38
525.30	34700.78
525.47	35143.14
525.64	34621.20
525.81	35119.74
525.98	35082.29
526.16	35065.91
526.33	35112.72
526.50	34944.20
526.67	34916.11
526.84	34972.28
527.01	35283.58
527.18	35271.87
527.36	35239.11
527.53	35442.73
527.70	35309.32
527.87	35484.86
528.04	35571.46
528.21	35505.93
528.38	35735.30
528.55	35529.33
528.72	35419.33
528.89	35866.37
529.07	35749.34
529.24	35526.99
529.41	35864.03
529.58	35754.02
529.75	35997.44
529.92	36217.45
530.09	36224.47
530.26	36348.52
530.43	36390.65
530.60	36201.07
530.77	36109.78
530.94	36596.62
531.11	36297.03
531.28	36620.02
531.46	36486.61
531.63	36507.68
531.80	36636.41
531.97	36718.32
532.14	37057.70
532.31	36542.78
532.48	37008.55
532.65	37376.01
532.82	37195.79
532.99	37165.37
533.16	37345.59
533.33	36786.20
533.50	37493.04
533.67	37207.50
533.84	37275.37
534.01	37331.54
534.18	37509.43
534.35	37764.54
534.52	37436.87
534.69	38349.68
534.86	37436.87
535.03	37483.68
535.20	37659.22
535.37	38295.85
535.54	38213.93
535.71	38071.15
535.88	38401.17
536.05	37518.79
536.22	38263.08
536.38	38232.65
536.55	38012.64
536.72	38068.81
536.89	38157.75
537.06	37738.80
537.23	38319.25
537.40	38113.28
537.57	38167.12
537.74	38127.33
537.91	38747.57
538.08	38541.60
538.25	38167.12
538.42	38689.06
538.59	38862.26
538.75	38288.82
538.92	38778.00
539.09	38810.76
539.26	38948.85
539.43	38740.55
539.60	39100.99
539.77	39119.71
539.94	38665.65
540.11	39012.05
540.28	39377.17
540.44	39487.18
540.61	39342.06
540.78	38923.11
540.95	39154.82
541.12	39009.71
541.29	39260.15
541.46	39262.49
541.62	39208.65
541.79	39562.08
541.96	38754.59
542.13	39407.60
542.30	39328.02
542.47	39529.31
542.63	39358.45
542.80	40020.82
542.97	39894.43
543.14	39974.01
543.31	40086.36
543.48	40002.10
543.64	40821.28
543.81	40486.59
543.98	39814.85
544.15	40030.18
544.32	40371.90
544.48	41226.20
544.65	40304.02
544.82	40442.12
544.99	40554.46
545.16	40662.13
545.32	40399.99
545.49	40978.10
545.66	40835.33
545.83	40893.84
546.00	40769.79
546.16	41074.06
546.33	40722.98
546.50	40346.15
546.67	41092.79
546.83	40346.15
547.00	40992.14
547.17	41031.93
547.34	41043.63
547.50	41319.82
547.67	41596.00
547.84	40795.54
548.00	41514.08
548.17	41612.38
548.34	41675.58
548.51	41698.98
548.67	41991.55
548.84	41303.43
549.01	41490.68
549.18	40966.40
549.34	41600.68
549.51	41640.47
549.68	41717.71
549.84	41577.28
550.01	41645.15
550.18	41743.45
550.34	41628.77
550.51	41748.14
550.68	41916.65
550.84	41539.83
551.01	41921.34
551.18	41806.65
551.34	42178.79
551.51	42012.62
551.68	42078.15
551.84	42085.17
552.01	42134.32
552.18	42122.62
552.34	42019.64
552.51	42234.97
552.68	42293.48
552.84	42164.75
553.01	42181.13
553.18	42534.56
553.34	42607.11
553.51	42188.16
553.67	42394.12
553.84	42611.79
554.01	42572.00
554.17	42476.04
554.34	42972.24
554.51	42967.55
554.67	43241.40
554.84	42909.04
555.00	42499.45
555.17	42450.30
555.33	43522.26
555.50	43117.35
555.67	43019.05
555.83	43028.41
556.00	43033.09
556.16	43414.60
556.33	43058.84
556.50	43227.35
556.66	42962.87
556.83	43533.96
556.99	43124.37
557.16	43250.76
557.32	43377.15
557.49	43430.98
557.65	43023.73
557.82	43185.22
557.98	43323.32
558.15	43213.31
558.32	43386.51
558.48	43159.48
558.65	43215.65
558.81	43562.05
558.98	43248.42
559.14	43594.82
559.31	42953.51
559.47	43648.65
559.64	43646.31
559.80	43536.30
559.97	43672.06
560.13	43629.93
560.30	43732.91
560.46	44053.56
560.63	43873.34
560.79	43800.79
560.96	43866.32
561.12	43758.66
561.29	43793.76
561.45	44416.35
561.61	43988.03
561.78	43819.51
561.94	43845.26
562.11	43775.04
562.27	44240.81
562.44	43863.98
562.60	44430.39
562.77	44280.60
562.93	44016.11
563.10	44147.18
563.26	43962.28
563.42	44739.34
563.59	44140.16
563.75	43976.33
563.92	44364.85
564.08	43945.90
564.24	43962.28
564.41	44388.26
564.57	44076.97
564.74	44032.50
564.90	44203.36
565.07	44135.48
565.23	44362.51
565.39	44198.68
565.56	44577.84
565.72	43995.05
565.88	44404.64
566.05	44533.37
566.21	44505.29
566.38	44652.74
566.54	44622.31
566.70	44612.95
566.87	44856.37
567.03	44596.57
567.19	45106.80
567.36	44746.36
567.52	44692.53
567.68	44774.45
567.85	44559.12
568.01	45003.82
568.17	44418.69
568.34	44540.39
568.50	44371.88
568.66	44626.99
568.83	44643.38
568.99	44687.85
569.15	44505.29
569.32	44643.38
569.48	44531.03
569.64	45212.13
569.81	45317.45
569.97	44837.64
570.13	45249.58
570.30	44697.21
570.46	44947.65
570.62	44612.95
570.78	44942.97
570.95	44680.83
571.11	44980.42
571.27	44966.37
571.43	44645.72
571.60	44949.99
571.76	44657.42
571.92	44886.79
572.09	44601.25
572.25	44942.97
572.41	44982.76
572.57	45078.72
572.74	45237.87
572.90	44559.12
573.06	45399.37
573.22	45546.82
573.38	45076.38
573.55	45151.27
573.71	45462.57
573.87	44992.12
574.03	45113.83
574.20	45151.27
574.36	44800.19
574.52	45474.27
574.68	45284.68
574.84	45483.63
575.01	45275.32
575.17	45560.87
575.33	45158.30
575.49	45029.57
575.65	45453.20
575.82	45148.93
575.98	44830.62
576.14	45446.18
576.30	45256.60
576.46	45284.68
576.62	45331.50
576.79	45324.47
576.95	45317.45
577.11	45336.18
577.27	44879.77
577.43	45027.23
577.59	45265.96
577.75	45006.16
577.92	44900.84
578.08	45301.07
578.24	44854.03
578.40	45275.32
578.56	45382.99
578.72	45284.68
578.88	45591.30
579.04	45001.48
579.21	45525.76
579.37	45558.53
579.53	45581.93
579.69	45397.03
579.85	45282.34
580.01	45848.75
580.17	45326.81
580.33	45544.48
580.49	45446.18
580.65	45621.72
580.82	45675.55
580.98	45359.58
581.14	45418.10
581.30	45577.25
581.46	45329.16
581.62	45340.86
581.78	45198.09
581.94	45455.54
582.10	45441.50
582.26	45345.54
582.42	45446.18
582.58	45675.55
582.74	45801.94
582.90	45539.80
583.06	45727.05
583.22	45876.84
583.38	45518.74
583.54	45483.63
583.70	45909.61
583.86	45633.42
584.02	45343.20
584.18	45839.39
584.34	45940.04
584.50	45918.97
584.66	45439.16
584.82	45598.32
584.98	46073.45
585.14	45785.56
585.30	45621.72
585.46	45652.15
585.62	45460.23
585.78	45911.95
585.94	44914.88
586.10	45682.58
586.26	45305.75
586.42	45228.51
586.58	46082.81
586.74	45448.52
586.90	45619.38
587.06	45380.65
587.22	45925.99
587.38	45151.27
587.54	45656.83
587.70	45904.93
587.86	45837.05
588.02	45577.25
588.18	45736.41
588.34	45478.95
588.49	45677.90
588.65	45691.94
588.81	46148.34
588.97	45598.32
589.13	45750.45
589.29	45649.81
589.45	46251.33
589.61	45846.41
589.77	46185.79
589.93	45858.12
590.08	45682.58
