SpectraSuite Data File
++++++++++++++++++++++++++++++++++++
Date: Fri Oct 25 10:44:52 EDT 2013
User: price-jones
Dark Spectrum Present: No
Reference Spectrum Present: No
Number of Sampled Component Spectra: 1
Spectrometers: USB2+H05261
Integration Time (usec): 100000 (USB2+H05261)
Spectra Averaged: 1 (USB2+H05261)
Boxcar Smoothing: 0 (USB2+H05261)
Correct for Electrical Dark: No (USB2+H05261)
Strobe/Lamp Enabled: No (USB2+H05261)
Correct for Detector Non-linearity: No (USB2+H05261)
Correct for Stray Light: No (USB2+H05261)
Number of Pixels in Processed Spectrum: 2048
>>>>>Begin Processed Spectral Data<<<<<
365.73	93.62
365.92	93.62
366.12	93.62
366.32	0.00
366.52	16.38
366.72	63.19
366.91	53.83
367.11	28.09
367.31	18.72
367.51	77.24
367.70	93.62
367.90	53.83
368.10	0.00
368.30	56.17
368.49	0.00
368.69	98.30
368.89	39.79
369.09	77.24
369.28	9.36
369.48	42.13
369.68	63.19
369.87	46.81
370.07	65.54
370.27	60.85
370.47	194.26
370.66	367.46
370.86	451.72
371.06	433.00
371.25	435.34
371.45	411.93
371.65	477.47
371.84	421.30
372.04	409.59
372.24	433.00
372.44	458.74
372.63	482.15
372.83	538.32
373.03	421.30
373.22	463.43
373.42	498.53
373.62	463.43
373.81	587.47
374.01	571.09
374.21	552.37
374.40	500.87
374.60	505.56
374.79	496.19
374.99	517.26
375.19	575.77
375.38	610.88
375.58	533.64
375.78	601.52
375.97	528.96
376.17	580.45
376.37	533.64
376.56	559.39
376.76	610.88
376.95	559.39
377.15	589.82
377.35	489.17
377.54	585.13
377.74	575.77
377.93	627.26
378.13	622.58
378.33	571.09
378.52	594.50
378.72	634.29
378.91	573.43
379.11	650.67
379.31	571.09
379.50	564.07
379.70	655.35
379.89	550.03
380.09	624.92
380.28	678.76
380.48	629.60
380.68	650.67
380.87	629.60
381.07	629.60
381.26	688.12
381.46	667.05
381.65	671.73
381.85	667.05
382.04	716.20
382.24	690.46
382.43	748.97
382.63	678.76
382.83	585.13
383.02	727.91
383.22	713.86
383.41	713.86
383.61	657.69
383.80	720.88
384.00	697.48
384.19	732.59
384.39	748.97
384.58	800.46
384.78	751.31
384.97	732.59
385.17	699.82
385.36	779.40
385.56	770.04
385.75	711.52
385.95	741.95
386.14	854.30
386.34	709.18
386.53	720.88
386.72	791.10
386.92	786.42
387.11	763.01
387.31	765.36
387.50	840.25
387.70	772.38
387.89	791.10
388.09	835.57
388.28	770.04
388.48	774.72
388.67	868.34
388.86	800.46
389.06	786.42
389.25	873.02
389.45	931.53
389.64	835.57
389.84	940.90
390.03	1071.97
390.22	966.64
390.42	954.94
390.61	903.45
390.81	943.24
391.00	936.21
391.19	1041.54
391.39	1001.75
391.58	945.58
391.78	952.60
391.97	1004.09
392.16	976.00
392.36	971.32
392.55	933.87
392.75	854.30
392.94	999.41
393.13	990.05
393.33	917.49
393.52	1011.11
393.71	1050.90
393.91	1048.56
394.10	1043.88
394.29	1067.28
394.49	1015.79
394.68	1011.11
394.88	1191.33
395.07	1111.75
395.26	1132.82
395.46	1029.84
395.65	1086.01
395.84	1205.38
396.04	1165.59
396.23	1144.52
396.42	1118.78
396.62	1100.05
396.81	1128.14
397.00	1111.75
397.19	1226.44
397.39	1233.46
397.58	1259.21
397.77	1273.25
397.97	1200.69
398.16	1217.08
398.35	1359.85
398.55	1273.25
398.74	1277.93
398.93	1355.17
399.12	1362.19
399.32	1376.24
399.51	1327.08
399.70	1324.74
399.90	1380.92
400.09	1366.87
400.28	1397.30
400.47	1409.00
400.67	1383.26
400.86	1385.60
401.05	1420.71
401.24	1401.98
401.44	1540.07
401.63	1544.75
401.82	1500.28
402.01	1572.84
402.21	1563.48
402.40	1575.18
402.59	1521.35
402.78	1528.37
402.97	1565.82
403.17	1600.93
403.36	1584.54
403.55	1570.50
403.74	1612.63
403.93	1687.53
404.13	1764.76
404.32	1612.63
404.51	1673.48
404.70	1675.82
404.89	1612.63
405.09	1680.50
405.28	1741.36
405.47	1818.60
405.66	1736.68
405.85	1736.68
406.05	1781.15
406.24	1764.76
406.43	1823.28
406.62	1879.45
406.81	1916.90
407.00	1872.43
407.20	1795.19
407.39	1872.43
407.58	1905.20
407.77	2033.93
407.96	1895.83
408.15	1872.43
408.34	2064.35
408.54	2054.99
408.73	2005.84
408.92	2026.90
409.11	2040.95
409.30	2197.76
409.49	2012.86
409.68	1973.07
409.87	2080.74
410.07	2122.87
410.26	2153.29
410.45	2047.97
410.64	2181.38
410.83	2230.53
411.02	2232.87
411.21	2375.64
411.40	2235.21
411.59	2195.42
411.78	2307.77
411.98	2270.32
412.17	2296.07
412.36	2356.92
412.55	2349.90
412.74	2497.35
412.93	2487.99
413.12	2583.95
413.31	2436.50
413.50	2499.69
413.69	2520.76
413.88	2612.04
414.07	2565.23
414.26	2719.70
414.45	2656.51
414.64	2595.65
414.83	2649.49
415.02	2850.77
415.22	2738.43
415.41	2869.50
415.60	2780.56
415.79	2808.64
415.98	2855.45
416.17	2911.63
416.36	2850.77
416.55	2792.26
416.74	2951.42
416.93	2897.58
417.12	2942.05
417.31	3002.91
417.50	3038.02
417.69	2993.55
417.88	3162.06
418.07	3014.61
418.26	3033.33
418.45	3070.78
418.64	3258.03
418.83	3166.74
419.02	3054.40
419.21	3166.74
419.39	3365.69
419.58	3274.41
419.77	3136.32
419.96	3152.70
420.15	3178.45
420.34	3328.24
420.53	3274.41
420.72	3316.54
420.91	3393.78
421.10	3365.69
421.29	3454.63
421.48	3403.14
421.67	3407.82
421.86	3386.76
422.05	3510.80
422.24	3283.77
422.43	3447.61
422.61	3454.63
422.80	3499.10
422.99	3478.04
423.18	3562.30
423.37	3602.08
423.56	3681.66
423.75	3616.13
423.94	3475.70
424.13	3309.52
424.32	3445.27
424.50	3665.28
424.69	3503.78
424.88	3641.87
425.07	3454.63
425.26	3480.38
425.45	3524.85
425.64	3597.40
425.83	3548.25
426.01	3611.45
426.20	3676.98
426.39	3719.11
426.58	3775.28
426.77	3527.19
426.96	3616.13
427.15	3503.78
427.33	3707.41
427.52	3765.92
427.71	3728.47
427.90	3747.20
428.09	3772.94
428.28	3789.33
428.46	3782.31
428.65	3819.75
428.84	3751.88
429.03	3742.52
429.22	3775.28
429.40	3770.60
429.59	3761.24
429.78	3653.58
429.97	3644.21
430.16	3791.67
430.34	3882.95
430.53	3901.67
430.72	3868.91
430.91	3836.14
431.10	4002.32
431.28	4079.55
431.47	4276.16
431.66	4098.28
431.85	4032.74
432.03	4353.40
432.22	4301.90
432.41	4156.79
432.60	4049.13
432.79	4257.43
432.97	4257.43
433.16	4301.90
433.35	4184.88
433.54	4297.22
433.72	4187.22
433.91	4353.40
434.10	4334.67
434.28	4360.42
434.47	4308.93
434.66	4416.59
434.85	4547.66
435.03	4432.97
435.22	4514.89
435.41	4559.36
435.59	4568.73
435.78	4634.26
435.97	4704.48
436.16	4678.73
436.34	4711.50
436.53	4631.92
436.72	4779.37
436.90	4690.43
437.09	4688.09
437.28	4671.71
437.46	4638.94
437.65	4678.73
437.84	4636.60
438.02	4753.63
438.21	4664.69
438.40	4589.79
438.58	4880.02
438.77	4901.08
438.96	4929.17
439.14	5006.41
439.33	5186.63
439.52	5135.14
439.70	5191.31
439.89	5172.58
440.08	5146.84
440.26	5268.55
440.45	5181.95
440.63	5214.71
440.82	5334.08
441.01	5345.78
441.19	5474.51
441.38	5301.31
441.57	5507.28
441.75	5605.58
441.94	5596.22
442.12	5589.20
442.31	5706.23
442.50	5680.48
442.68	5675.80
442.87	5713.25
443.05	5657.07
443.24	5701.54
443.43	5905.17
443.61	5846.66
443.80	5870.06
443.98	5617.29
444.17	5427.70
444.35	5930.92
444.54	5959.00
444.73	5930.92
444.91	5905.17
445.10	5884.11
445.28	5820.91
445.47	5825.59
445.65	5888.79
445.84	5898.15
446.02	5994.11
446.21	5998.79
446.39	6033.90
446.58	5942.62
446.77	6001.13
446.95	5977.73
447.14	5926.24
447.32	6106.46
447.51	5790.49
447.69	5989.43
447.88	5921.56
448.06	5949.64
448.25	6153.27
448.43	5973.05
448.62	6040.92
448.80	5947.30
448.99	6050.28
449.17	6122.84
449.36	6251.57
449.54	6228.17
449.73	6216.46
449.91	6389.66
450.10	6438.81
450.28	6469.24
450.46	6506.69
450.65	6532.44
450.83	6581.59
451.02	6558.18
451.20	6579.25
451.39	6497.33
451.57	6356.90
451.76	6476.26
451.94	6478.60
452.13	6588.61
452.31	6473.92
452.49	6361.58
452.68	6569.88
452.86	6441.15
453.05	6654.14
453.23	6750.10
453.42	6422.43
453.60	6679.89
453.78	6593.29
453.97	6717.34
454.15	6771.17
454.34	6677.55
454.52	6633.08
454.70	6782.87
454.89	6663.51
455.07	6827.34
455.26	6827.34
455.44	7009.90
455.62	6920.96
455.81	6841.39
455.99	6970.12
456.17	7087.14
456.36	7148.00
456.54	7026.29
456.73	7307.15
456.91	7250.98
457.09	7325.88
457.28	7503.76
457.46	7279.07
457.64	7442.90
457.83	7431.20
458.01	7407.80
458.19	7529.50
458.38	7356.30
458.56	7468.65
458.74	7442.90
458.93	7552.91
459.11	7564.61
459.29	7393.75
459.48	7559.93
459.66	7578.65
459.84	7597.38
460.03	7721.43
460.21	7611.42
460.39	7709.72
460.57	7658.23
460.76	7602.06
460.94	7946.12
461.12	7983.57
461.31	7791.64
461.49	7786.96
461.67	7768.24
461.85	8163.79
462.04	7864.20
462.22	8002.29
462.40	8056.12
462.59	8023.36
462.77	7936.76
462.95	7925.05
463.13	8079.53
463.32	7929.74
463.50	8163.79
463.68	8056.12
463.86	8297.20
464.05	8018.68
464.23	8126.34
464.41	8395.50
464.59	8135.70
464.78	8266.77
464.96	8266.77
465.14	8131.02
465.32	8470.40
465.50	8540.61
465.69	8468.06
465.87	8367.42
466.05	8374.44
466.23	8454.02
466.41	8306.56
466.60	8496.14
466.78	8297.20
466.96	8397.84
467.14	8606.15
467.32	8484.44
467.51	8643.60
467.69	8351.03
467.87	8531.25
468.05	8549.98
468.23	8779.35
468.41	8564.02
468.60	8725.52
468.78	8753.60
468.96	8908.08
469.14	8940.85
469.32	8755.94
469.50	8718.50
469.69	8821.48
469.87	8851.91
470.05	8720.84
470.23	8980.64
470.41	9015.74
470.59	9104.68
470.77	9011.06
470.95	9139.79
471.14	9315.33
471.32	9114.05
471.50	9493.21
471.68	9273.20
471.86	9490.87
472.04	9434.70
472.22	9460.45
472.40	9383.21
472.58	9486.19
472.77	9643.01
472.95	9518.96
473.13	9832.59
473.31	9650.03
473.49	9645.35
473.67	9788.12
473.85	9657.05
474.03	10043.24
474.21	9900.47
474.39	10054.94
474.57	9963.66
474.75	10251.55
474.93	10221.12
475.12	10080.69
475.30	10111.11
475.48	10249.21
475.66	10471.56
475.84	10190.69
476.02	10286.65
476.20	10342.83
476.38	10541.77
476.56	10628.37
476.74	10827.32
476.92	10626.03
477.10	10839.02
477.28	11089.46
477.46	11199.46
477.64	10953.71
477.82	11131.59
478.00	11307.13
478.18	11463.94
478.36	11400.75
478.54	11482.67
478.72	11634.80
478.90	11939.07
479.08	11878.22
479.26	11985.88
479.44	11742.47
479.62	12217.60
479.80	12077.16
479.98	12367.39
480.16	12425.90
480.34	12327.60
480.52	12423.56
480.70	12482.08
480.88	12414.20
481.06	12622.51
481.24	12631.87
481.41	12985.29
481.59	13046.15
481.77	13163.17
481.95	12886.99
482.13	13448.72
482.31	13490.85
482.49	13682.77
482.67	13458.08
482.85	13575.11
483.03	13745.97
483.21	13537.66
483.39	13998.74
483.57	14047.90
483.74	14281.95
483.92	14513.66
484.10	14375.57
484.28	14668.14
484.46	14813.25
484.64	15171.35
484.82	14867.08
485.00	14679.84
485.18	15009.86
485.35	15152.63
485.53	14904.53
485.71	14890.49
485.89	15103.48
486.07	15211.14
486.25	15594.99
486.43	15992.88
486.61	15571.58
486.78	16081.82
486.96	16112.25
487.14	16173.10
487.32	16311.19
487.50	16645.89
487.68	16606.10
487.85	16924.41
488.03	16884.62
488.21	17191.23
488.39	17275.49
488.57	17111.66
488.75	17511.89
488.92	17666.36
489.10	17951.91
489.28	17977.65
489.46	17898.08
489.64	17844.24
489.81	18263.20
489.99	18251.50
490.17	18637.69
490.35	18597.90
490.53	18813.23
490.70	18789.82
490.88	18838.97
491.06	19159.63
491.24	18941.96
491.41	19159.63
491.59	19232.18
491.77	19021.53
491.95	19711.99
492.13	19686.25
492.30	19882.85
492.48	20027.96
492.66	19939.02
492.84	20306.49
493.01	20299.47
493.19	20306.49
493.37	20472.67
493.54	20631.82
493.72	20727.78
493.90	20959.50
494.08	21053.12
494.25	21476.76
494.43	21369.09
494.61	21635.91
494.79	21572.72
494.96	21631.23
495.14	21507.18
495.32	21834.86
495.49	21837.20
495.67	21998.70
495.85	22237.43
496.02	22143.81
496.20	22305.31
496.38	22616.60
496.55	22670.43
496.73	23269.61
496.91	22813.20
497.09	22885.76
497.26	22876.40
497.44	22906.82
497.62	23171.30
497.79	23592.60
497.97	23349.18
498.14	23501.32
498.32	23917.93
498.50	23552.81
498.67	23999.85
498.85	23828.99
499.03	24280.72
499.20	24161.35
499.38	23899.21
499.56	24135.60
499.73	24491.37
499.91	24505.41
500.08	24367.32
500.26	24472.64
500.44	24854.15
500.61	24428.17
500.79	24613.07
500.97	24886.92
501.14	25521.20
501.32	25338.64
501.49	25408.86
501.67	25144.38
501.84	25570.35
502.02	25142.03
502.20	25685.04
502.37	25537.59
502.55	25671.00
502.72	25757.60
502.90	26155.49
503.07	26094.63
503.25	25848.88
503.43	26001.01
503.60	26249.11
503.78	26146.12
503.95	26253.79
504.13	26499.55
504.30	26588.49
504.48	26714.87
504.65	26834.24
504.83	27267.24
505.01	26925.52
505.18	27058.93
505.36	27412.35
505.53	27447.46
505.71	27543.42
505.88	27646.41
506.06	27089.36
506.23	27683.86
506.41	27358.52
506.58	27711.94
506.76	27831.31
506.93	27885.14
507.11	27924.93
507.28	28025.57
507.46	27962.38
507.63	28180.05
507.81	28402.40
507.98	28135.58
508.16	28346.23
508.33	28664.54
508.50	28587.30
508.68	28929.02
508.85	28835.40
509.03	28980.51
509.20	29076.48
509.38	29048.39
509.55	29394.79
509.73	29088.18
509.90	29062.43
510.08	29076.48
510.25	29343.30
510.42	29422.87
510.60	29621.82
510.77	29780.98
510.95	29846.51
511.12	29858.21
511.30	29876.94
511.47	30099.29
511.64	30185.89
511.82	30403.56
511.99	30228.02
512.17	30841.24
512.34	30040.78
512.51	30501.86
512.69	30721.87
512.86	30742.94
513.04	30918.48
513.21	30993.37
513.38	30806.13
513.56	30670.38
513.73	30644.63
513.90	30895.07
514.08	30841.24
514.25	31021.46
514.43	31330.41
514.60	31197.00
514.77	31339.77
514.95	31227.43
515.12	31632.34
515.29	31103.38
515.47	31674.47
515.64	31880.44
515.81	31398.29
515.99	31721.28
516.16	32037.25
516.33	31742.35
516.51	31826.60
516.68	31524.68
516.85	31924.91
517.03	31697.88
517.20	31854.69
517.37	32283.01
517.54	32297.05
517.72	32215.13
517.89	32093.43
518.06	32212.79
518.24	32088.74
518.41	32341.52
518.58	32226.84
518.75	32741.75
518.93	32816.65
519.10	32896.23
519.27	33071.77
519.45	32907.93
519.62	33273.06
519.79	32933.68
519.96	33364.34
520.14	33432.21
520.31	33125.60
520.48	33118.58
520.65	33050.70
520.83	33481.36
521.00	34029.05
521.17	33509.45
521.34	33958.83
521.52	33820.74
521.69	34139.05
521.86	34382.47
522.03	34401.19
522.20	34403.53
522.38	34319.28
522.55	34066.50
522.72	34452.69
522.89	34394.17
523.07	34749.93
523.24	34305.23
523.41	34707.80
523.58	34733.55
523.75	34979.31
523.92	34862.28
524.10	35117.40
524.27	35211.02
524.44	35079.95
524.61	35454.44
524.78	34986.33
524.96	35335.07
525.13	35260.17
525.30	35512.95
525.47	35470.82
525.64	35435.71
525.81	35590.19
525.98	35791.47
526.16	35208.68
526.33	35213.36
526.50	35831.26
526.67	35246.13
526.84	35447.41
527.01	35620.61
527.18	35899.14
527.36	36079.36
527.53	36156.60
527.70	36201.07
527.87	36444.48
528.04	36409.37
528.21	36130.85
528.38	36404.69
528.55	36367.24
528.72	36449.16
528.89	36594.28
529.07	36290.01
529.24	36669.17
529.41	36737.05
529.58	36622.36
529.75	36849.39
529.92	36917.27
530.09	37013.23
530.26	36589.59
530.43	37153.66
530.60	36875.14
530.77	36753.43
530.94	37153.66
531.11	37078.77
531.28	37165.37
531.46	37170.05
531.63	37462.61
531.80	37394.74
531.97	36971.10
532.14	37586.66
532.31	37184.09
532.48	37223.88
532.65	37745.82
532.82	37488.36
532.99	37441.55
533.16	37600.71
533.33	37528.15
533.50	38337.98
533.67	37897.95
533.84	37673.26
534.01	38054.77
534.18	37785.61
534.35	38190.52
534.52	37902.64
534.69	38258.40
534.86	38377.76
535.03	37652.20
535.20	38588.41
535.37	38801.40
535.54	38672.67
535.71	38370.74
535.88	38122.65
536.05	38363.72
536.22	38513.52
536.38	38581.39
536.55	38433.94
536.72	38813.10
536.89	38312.23
537.06	38719.48
537.23	38726.50
537.40	38616.50
537.57	39105.67
537.74	38974.60
537.91	39065.88
538.08	39489.52
538.25	38637.56
538.42	38930.13
538.59	38824.81
538.75	38520.54
538.92	39283.55
539.09	39157.16
539.26	39421.64
539.43	39168.87
539.60	39669.74
539.77	39578.46
539.94	39147.80
540.11	39089.29
540.28	39494.20
540.44	39519.95
540.61	39402.92
540.78	39763.36
540.95	39487.18
541.12	39285.89
541.29	39653.36
541.46	39309.30
541.62	39517.60
541.79	39772.72
541.96	39751.66
542.13	39854.64
542.30	39660.38
542.47	39859.32
542.63	40261.90
542.80	40126.14
542.97	40264.24
543.14	40608.29
543.31	40641.06
543.48	40512.33
543.64	41352.58
543.81	40893.84
543.98	40781.49
544.15	40898.52
544.32	40701.92
544.48	41453.23
544.65	40903.20
544.82	41127.89
544.99	40868.09
545.16	41041.29
545.32	40992.14
545.49	40961.72
545.66	41219.17
545.83	41139.60
546.00	41170.02
546.16	41151.30
546.33	40737.02
546.50	40638.72
546.67	40947.67
546.83	40989.80
547.00	40896.18
547.17	41158.32
547.34	41310.46
547.50	40961.72
547.67	42106.24
547.84	40933.63
548.00	41076.40
548.17	41851.12
548.34	41546.85
548.51	41897.93
548.67	42012.62
548.84	42024.32
549.01	41600.68
549.18	41811.33
549.34	41820.69
549.51	41818.35
549.68	41677.92
549.84	42101.56
550.01	41930.70
550.18	41572.60
550.34	42122.62
550.51	41783.24
550.68	41916.65
550.84	41759.84
551.01	42307.52
551.18	41979.85
551.34	42085.17
551.51	42033.68
551.68	42171.77
551.84	42457.32
552.01	42010.28
552.18	42178.79
552.34	42174.11
552.51	42326.25
552.68	42593.07
552.84	42834.14
553.01	42459.66
553.18	42134.32
553.34	42157.73
553.51	42019.64
553.67	42672.65
553.84	42927.77
554.01	42717.12
554.17	43049.47
554.34	42717.12
554.51	42555.62
554.67	42761.59
554.84	42539.24
555.00	42579.03
555.17	42773.29
555.33	42951.17
555.50	42883.30
555.67	42469.02
555.83	42808.40
556.00	42871.59
556.16	42967.55
556.33	42871.59
556.50	42700.73
556.66	42902.02
556.83	42501.79
556.99	43402.89
557.16	43335.02
557.32	43295.23
557.49	43208.63
557.65	42916.06
557.82	42955.85
557.98	43372.47
558.15	43150.12
558.32	43372.47
558.48	43442.68
558.65	43016.71
558.81	43016.71
558.98	43019.05
559.14	43070.54
559.31	43526.94
559.47	43115.01
559.64	43477.79
559.80	43438.00
559.97	43409.92
560.13	43302.25
560.30	43318.64
560.46	43660.35
560.63	43522.26
560.79	43686.10
560.96	43590.14
561.12	43421.62
561.29	43548.01
561.45	43817.17
561.61	43728.23
561.78	43522.26
561.94	43763.34
562.11	43320.98
562.27	43618.22
562.44	43798.44
562.60	43955.26
562.77	43924.83
562.93	43615.88
563.10	44156.55
563.26	43599.50
563.42	43973.98
563.59	43377.15
563.75	43981.01
563.92	44250.17
564.08	44004.41
564.24	43896.75
564.41	43718.87
564.57	43697.80
564.74	43360.76
564.90	44140.16
565.07	43714.19
565.23	43997.39
565.39	43716.53
565.56	43845.26
565.72	43402.89
565.88	43562.05
566.05	43716.53
566.21	43952.92
566.38	44102.71
566.54	44041.86
566.70	44210.38
566.87	44481.88
567.03	43992.71
567.19	43950.58
567.36	44135.48
567.52	43852.28
567.68	44353.15
567.85	43934.20
568.01	44100.37
568.17	44107.40
568.34	44376.56
568.50	44123.78
568.66	44027.82
568.83	44334.43
568.99	43999.73
569.15	44156.55
569.32	44126.12
569.48	44083.99
569.64	44332.09
569.81	44229.10
569.97	44273.57
570.13	44247.83
570.30	43978.67
570.46	43753.97
570.62	44208.04
570.78	44119.10
570.95	44208.04
571.11	44133.14
571.27	44179.95
571.43	43990.37
571.60	44519.33
571.76	44545.08
571.92	44243.15
572.09	44266.55
572.25	44584.86
572.41	44236.12
572.57	44734.66
572.74	44830.62
572.90	44516.99
573.06	44711.25
573.22	44048.88
573.38	44203.36
573.55	44109.74
573.71	44692.53
573.87	43702.48
574.03	44072.29
574.20	44114.42
574.36	44306.34
574.52	44332.09
574.68	44397.62
574.84	44638.70
575.01	44619.97
575.17	44069.95
575.33	44208.04
575.49	44130.80
575.65	44746.36
575.82	44261.87
575.98	44205.70
576.14	44296.98
576.30	44390.60
576.46	44526.35
576.62	44758.06
576.79	44397.62
576.95	44463.16
577.11	44671.46
577.27	44643.38
577.43	44694.87
577.59	44296.98
577.75	44591.89
577.92	44397.62
578.08	44458.48
578.24	44395.28
578.40	44053.56
578.56	44362.51
578.72	44514.65
578.88	44598.91
579.04	44505.29
579.21	44306.34
579.37	44837.64
579.53	44582.52
579.69	44512.31
579.85	44428.05
580.01	44505.29
580.17	44949.99
580.33	44748.70
580.49	44371.88
580.65	44704.23
580.82	44563.80
580.98	44292.30
581.14	44409.32
581.30	44821.26
581.46	44545.08
581.62	44739.34
581.78	44451.45
581.94	44919.56
582.10	44570.82
582.26	44362.51
582.42	44430.39
582.58	44638.70
582.74	44254.85
582.90	44718.28
583.06	44844.66
583.22	44533.37
583.38	44954.67
583.54	44931.26
583.70	44664.44
583.86	44516.99
584.02	44091.01
584.18	44414.01
584.34	44500.61
584.50	44535.71
584.66	44172.93
584.82	44062.93
584.98	44781.47
585.14	44414.01
585.30	44421.03
585.46	44793.17
585.62	44472.52
585.78	44041.86
585.94	44584.86
586.10	44491.24
586.26	44577.84
586.42	44776.79
586.58	44912.54
586.74	44830.62
586.90	44435.07
587.06	44411.67
587.22	44687.85
587.38	44287.62
587.54	44348.47
587.70	44790.83
587.86	44650.40
588.02	44624.65
588.18	45034.25
588.34	44414.01
588.49	43955.26
588.65	43704.82
588.81	44261.87
588.97	44498.26
589.13	44495.92
589.29	44388.26
589.45	44715.93
589.61	44566.14
589.77	44720.62
589.93	44809.56
590.08	44643.38
590.24	45148.93
