SpectraSuite Data File
++++++++++++++++++++++++++++++++++++
Date: Fri Oct 25 11:23:35 EDT 2013
User: price-jones
Dark Spectrum Present: No
Reference Spectrum Present: No
Number of Sampled Component Spectra: 1
Spectrometers: USB2+H05261
Integration Time (usec): 100000 (USB2+H05261)
Spectra Averaged: 1 (USB2+H05261)
Boxcar Smoothing: 0 (USB2+H05261)
Correct for Electrical Dark: No (USB2+H05261)
Strobe/Lamp Enabled: No (USB2+H05261)
Correct for Detector Non-linearity: No (USB2+H05261)
Correct for Stray Light: No (USB2+H05261)
Number of Pixels in Processed Spectrum: 2048
>>>>>Begin Processed Spectral Data<<<<<
365.73	287.89
365.92	287.89
366.12	287.89
366.32	184.90
366.52	180.22
366.72	117.03
366.91	191.92
367.11	189.58
367.31	100.64
367.51	105.32
367.70	49.15
367.90	117.03
368.10	121.71
368.30	119.37
368.49	156.82
368.69	91.28
368.89	161.50
369.09	149.79
369.28	196.60
369.48	189.58
369.68	98.30
369.87	201.29
370.07	205.97
370.27	269.16
370.47	355.76
370.66	578.11
370.86	627.26
371.06	610.88
371.25	753.65
371.45	631.94
371.65	683.44
371.84	711.52
372.04	688.12
372.24	763.01
372.44	674.07
372.63	695.14
372.83	774.72
373.03	800.46
373.22	760.67
373.42	767.70
373.62	753.65
373.81	779.40
374.01	884.72
374.21	833.23
374.40	807.48
374.60	807.48
374.79	856.64
374.99	800.46
375.19	851.96
375.38	842.59
375.58	795.78
375.78	894.08
375.97	875.36
376.17	910.47
376.37	807.48
376.56	873.02
376.76	795.78
376.95	868.34
377.15	931.53
377.35	877.70
377.54	924.51
377.74	844.93
377.93	908.13
378.13	915.15
378.33	938.55
378.52	947.92
378.72	917.49
378.91	964.30
379.11	1025.15
379.31	833.23
379.50	901.11
379.70	931.53
379.89	938.55
380.09	943.24
380.28	919.83
380.48	985.37
380.68	954.94
380.87	980.68
381.07	1022.81
381.26	1032.18
381.46	964.30
381.65	1067.28
381.85	1107.07
382.04	1100.05
382.24	1076.65
382.43	1074.31
382.63	1067.28
382.83	1046.22
383.02	1109.41
383.22	1149.20
383.41	1158.57
383.61	1095.37
383.80	1125.80
384.00	1102.39
384.19	1132.82
384.39	1097.71
384.58	1135.16
384.78	1139.84
384.97	1160.91
385.17	1170.27
385.36	1107.07
385.56	1137.50
385.75	1067.28
385.95	1137.50
386.14	1172.61
386.34	1198.35
386.53	1221.76
386.72	1289.64
386.92	1221.76
387.11	1210.06
387.31	1203.04
387.50	1263.89
387.70	1247.51
387.89	1203.04
388.09	1256.87
388.28	1198.35
388.48	1341.13
388.67	1301.34
388.86	1324.74
389.06	1313.04
389.25	1224.10
389.45	1399.64
389.64	1380.92
389.84	1345.81
390.03	1369.21
390.22	1383.26
390.42	1430.07
390.61	1322.40
390.81	1462.83
391.00	1432.41
391.19	1453.47
391.39	1521.35
391.58	1430.07
391.78	1423.05
391.97	1437.09
392.16	1465.18
392.36	1481.56
392.55	1563.48
392.75	1523.69
392.94	1497.94
393.13	1563.48
393.33	1458.15
393.52	1558.80
393.71	1519.01
393.91	1582.20
394.10	1577.52
394.29	1645.40
394.49	1645.40
394.68	1617.31
394.88	1586.88
395.07	1689.87
395.26	1750.72
395.46	1626.67
395.65	1703.91
395.84	1701.57
396.04	1778.81
396.23	1797.53
396.42	1748.38
396.62	1748.38
396.81	1755.40
397.00	1830.30
397.19	1753.06
397.39	1785.83
397.58	1844.34
397.77	1816.26
397.97	1776.47
398.16	1827.96
398.35	1879.45
398.55	1909.88
398.74	1907.54
398.93	1977.75
399.12	1870.09
399.32	1846.68
399.51	1881.79
399.70	2033.93
399.90	1949.67
400.09	1942.64
400.28	2066.69
400.47	2043.29
400.67	2092.44
400.86	2115.84
401.05	2008.18
401.24	2118.18
401.44	2097.12
401.63	2090.10
401.82	2113.50
402.01	2040.95
402.21	2176.70
402.40	2064.35
402.59	2167.34
402.78	2076.06
402.97	2260.96
403.17	2207.13
403.36	2125.21
403.55	2251.60
403.74	2349.90
403.93	2420.11
404.13	2530.12
404.32	2272.66
404.51	2396.71
404.70	2471.61
404.89	2438.84
405.09	2476.29
405.28	2492.67
405.47	2509.05
405.66	2392.03
405.85	2473.95
406.05	2513.74
406.24	2499.69
406.43	2642.46
406.62	2616.72
406.81	2616.72
407.00	2574.59
407.20	2597.99
407.39	2633.10
407.58	2719.70
407.77	2792.26
407.96	2803.96
408.15	2736.09
408.34	2724.38
408.54	2752.47
408.73	2846.09
408.92	2832.05
409.11	2841.41
409.30	2909.29
409.49	2937.37
409.68	2946.73
409.87	3066.10
410.07	2963.12
410.26	3014.61
410.45	3052.06
410.64	2981.84
410.83	3124.62
411.02	3101.21
411.21	3117.59
411.40	3087.17
411.59	3241.64
411.78	3283.77
411.98	3030.99
412.17	3356.33
412.36	3197.17
412.55	3300.16
412.74	3414.84
412.93	3433.57
413.12	3309.52
413.31	3602.08
413.50	3447.61
413.69	3445.27
413.88	3557.61
414.07	3669.96
414.26	3639.53
414.45	3660.60
414.64	3754.22
414.83	3819.75
415.02	3810.39
415.22	3712.09
415.41	3735.50
415.60	3992.95
415.79	3894.65
415.98	3983.59
416.17	4025.72
416.36	3817.41
416.55	4051.47
416.74	4105.30
416.93	4030.40
417.12	4060.83
417.31	4161.47
417.50	4117.00
417.69	4257.43
417.88	4231.69
418.07	4257.43
418.26	4341.69
418.45	4222.33
418.64	4451.70
418.83	4470.42
419.02	4390.84
419.21	4468.08
419.39	4393.19
419.58	4447.02
419.77	4444.68
419.96	4505.53
420.15	4634.26
420.34	4526.60
420.53	4662.35
420.72	4702.14
420.91	4678.73
421.10	4915.12
421.29	4861.29
421.48	4823.84
421.67	4751.29
421.86	4947.89
422.05	4716.18
422.24	5046.20
422.43	4830.87
422.61	5043.85
422.80	4997.04
422.99	4798.10
423.18	4980.66
423.37	4975.98
423.56	4903.42
423.75	4922.15
423.94	5032.15
424.13	4706.82
424.32	4645.96
424.50	4915.12
424.69	5205.35
424.88	4917.47
425.07	4901.08
425.26	4936.19
425.45	4966.62
425.64	5015.77
425.83	5078.96
426.01	5074.28
426.20	5036.83
426.39	5020.45
426.58	4940.87
426.77	5156.20
426.96	5191.31
427.15	5013.43
427.33	5125.77
427.52	5109.39
427.71	5231.10
427.90	5474.51
428.09	5289.61
428.28	5336.42
428.46	5383.23
428.65	5406.64
428.84	5397.28
429.03	5458.13
429.22	5224.08
429.40	5453.45
429.59	5439.40
429.78	5320.04
429.97	5207.69
430.16	5540.05
430.34	5430.04
430.53	5652.39
430.72	5603.24
430.91	5596.22
431.10	5479.19
431.28	5811.55
431.47	5809.21
431.66	5825.59
431.85	5834.96
432.03	5989.43
432.22	5827.93
432.41	5785.80
432.60	5914.53
432.79	5902.83
432.97	5891.13
433.16	5973.05
433.35	5816.23
433.54	6054.97
433.72	6132.20
433.91	6136.88
434.10	6087.73
434.28	6223.48
434.47	6249.23
434.66	6230.51
434.85	6298.38
435.03	6345.19
435.22	6274.98
435.41	6562.86
435.59	6328.81
435.78	6422.43
435.97	6452.86
436.16	6356.90
436.34	6487.96
436.53	6469.24
436.72	6766.49
436.90	6518.39
437.09	6572.22
437.28	6483.28
437.46	6647.12
437.65	6670.53
437.84	6747.76
438.02	6663.51
438.21	6850.75
438.40	6717.34
438.58	6942.03
438.77	6923.30
438.96	6998.20
439.14	7056.72
439.33	7084.80
439.52	7265.02
439.70	7375.03
439.89	7473.33
440.08	7356.30
440.26	7351.62
440.45	7545.89
440.63	7552.91
440.82	7604.40
441.01	7426.52
441.19	7723.77
441.38	7581.00
441.57	7756.54
441.75	7892.29
441.94	7768.24
442.12	8021.02
442.31	8255.07
442.50	7929.74
442.68	7941.44
442.87	8023.36
443.05	8241.03
443.24	8205.92
443.43	8159.11
443.61	8102.93
443.80	8311.24
443.98	8021.02
444.17	7798.66
444.35	8226.98
444.54	8376.78
444.73	8355.71
444.91	8128.68
445.10	8390.82
445.28	8348.69
445.47	8201.24
445.65	8329.97
445.84	8627.21
446.02	8468.06
446.21	8479.76
446.39	8454.02
446.58	8430.61
446.77	8402.52
446.95	8224.64
447.14	8493.80
447.32	8465.72
447.51	8475.08
447.69	8404.86
447.88	8734.88
448.06	8564.02
448.25	8571.04
448.43	8524.23
448.62	8655.30
448.80	8739.56
448.99	8533.59
449.17	8688.07
449.36	8617.85
449.54	8802.75
449.73	8767.65
449.91	8959.57
450.10	8882.33
450.28	9053.19
450.46	9263.84
450.65	9029.79
450.83	8938.51
451.02	9034.47
451.20	9081.28
451.39	9041.49
451.57	9179.58
451.76	9217.03
451.94	9146.81
452.13	9521.30
452.31	9369.16
452.49	9111.71
452.68	9430.02
452.86	9418.32
453.05	9336.40
453.23	9523.64
453.42	9343.42
453.60	9518.96
453.78	9565.77
453.97	9366.82
454.15	9430.02
454.34	9568.11
454.52	9799.82
454.70	9809.19
454.89	9762.37
455.07	9717.90
455.26	9767.06
455.44	9994.09
455.62	9951.96
455.81	10038.56
455.99	9996.43
456.17	10260.91
456.36	10057.28
456.54	10267.93
456.73	10178.99
456.91	10506.66
457.09	10377.94
457.28	10394.32
457.46	10289.00
457.64	10476.24
457.83	10523.05
458.01	10258.57
458.19	10661.14
458.38	10691.57
458.56	10782.85
458.74	10834.34
458.93	10665.82
459.11	10729.02
459.29	10839.02
459.48	10876.47
459.66	10750.08
459.84	11176.06
460.03	11089.46
460.21	11040.31
460.39	10890.51
460.57	10951.37
460.76	11002.86
460.94	11290.74
461.12	11304.79
461.31	11080.10
461.49	11009.88
461.67	11115.20
461.85	11527.14
462.04	11314.15
462.22	11634.80
462.40	11456.92
462.59	11405.43
462.77	11506.07
462.95	11852.47
463.13	11576.29
463.32	11541.18
463.50	11791.62
463.68	11838.43
463.86	12011.63
464.05	11613.74
464.23	11602.04
464.41	12020.99
464.59	11789.28
464.78	11903.96
464.96	12011.63
465.14	11953.12
465.32	12182.49
465.50	12131.00
465.69	12304.20
465.87	11999.93
466.05	12332.28
466.23	12201.21
466.41	12301.86
466.60	12402.50
466.78	12028.01
466.96	12105.25
467.14	12423.56
467.32	12461.01
467.51	12489.10
467.69	12112.27
467.87	12589.74
468.05	12477.40
468.23	12334.62
468.41	12503.14
468.60	12533.57
468.78	12734.85
468.96	12748.90
469.14	12716.13
469.32	13221.69
469.50	12608.47
469.69	12739.54
469.87	13277.86
470.05	13069.55
470.23	13132.75
470.41	13057.85
470.59	13355.10
470.77	13181.90
470.95	13217.01
471.14	13727.24
471.32	13291.90
471.50	13694.47
471.68	13406.59
471.86	13682.77
472.04	13848.95
472.22	14033.85
472.40	13638.30
472.58	13783.41
472.77	13935.55
472.95	13944.91
473.13	14459.83
473.31	14286.63
473.49	14204.71
473.67	14200.03
473.85	14513.66
474.03	14597.92
474.21	14494.94
474.39	15094.11
474.57	14661.12
474.75	15108.16
474.93	15080.07
475.12	15208.80
475.30	15194.76
475.48	14876.44
475.66	15279.02
475.84	15222.84
476.02	15330.51
476.20	15473.28
476.38	15508.39
476.56	15786.91
476.74	16046.71
476.92	15885.22
477.10	15798.62
477.28	15960.11
477.46	16243.32
477.64	16388.43
477.82	16734.83
478.00	17174.85
478.18	17130.38
478.36	16608.44
478.54	16905.69
478.72	17350.39
478.90	17355.07
479.08	17465.08
479.26	17626.57
479.44	17664.02
479.62	17895.74
479.80	18293.63
479.98	18310.01
480.16	18782.80
480.34	18082.98
480.52	18565.13
480.70	18661.09
480.88	18324.05
481.06	18773.44
481.24	18815.57
481.41	18892.80
481.59	19288.35
481.77	19346.87
481.95	19522.41
482.13	19527.09
482.31	19651.14
482.49	20233.93
482.67	20545.22
482.85	20439.90
483.03	20657.57
483.21	20959.50
483.39	20968.86
483.57	20861.19
483.74	21465.05
483.92	21378.45
484.10	21495.48
484.28	21383.13
484.46	22246.79
484.64	22148.49
484.82	21876.99
485.00	22438.72
485.18	22471.48
485.35	23138.54
485.53	22883.42
485.71	23063.64
485.89	23740.05
486.07	23267.27
486.25	23477.91
486.43	23386.63
486.61	23798.57
486.78	24201.14
486.96	24320.51
487.14	24482.00
487.32	24685.63
487.50	24938.41
487.68	25071.82
487.85	25188.85
488.03	25687.38
488.21	26033.78
488.39	25762.28
488.57	26096.97
488.75	26298.26
488.92	26263.15
489.10	27009.78
489.28	27030.85
489.46	27136.17
489.64	27016.80
489.81	27775.14
489.99	27742.37
490.17	27765.78
490.35	28194.09
490.53	28198.77
490.70	28481.98
490.88	28297.08
491.06	28769.86
491.24	28879.87
491.41	28971.15
491.59	29039.03
491.77	29390.11
491.95	29422.87
492.13	29886.30
492.30	29963.54
492.48	30080.56
492.66	30143.76
492.84	30464.41
493.01	30742.94
493.19	30759.32
493.37	31054.23
493.54	31290.62
493.72	31622.98
493.90	31761.07
494.08	31700.22
494.25	31840.65
494.43	32109.81
494.61	32519.40
494.79	32655.15
494.96	32666.86
495.14	32697.28
495.32	32650.47
495.49	33209.86
495.67	33603.07
495.85	33434.55
496.02	33834.78
496.20	34192.89
496.38	34302.89
496.55	34492.47
496.73	35093.99
496.91	35098.67
497.09	35295.28
497.26	34778.02
497.44	34939.52
497.62	35005.05
497.79	35735.30
497.97	35494.22
498.14	36018.50
498.32	36390.65
498.50	36175.32
498.67	36517.04
498.85	36306.39
499.03	36601.30
499.20	37013.23
499.38	36978.12
499.56	36978.12
499.73	37046.00
499.91	37254.31
500.08	37907.32
500.26	37471.98
500.44	37841.78
500.61	37916.68
500.79	37319.84
500.97	38012.64
501.14	38494.79
501.32	38799.06
501.49	38604.80
501.67	39042.48
501.84	39461.43
502.02	39220.36
502.20	39250.78
502.37	39871.03
502.55	39096.31
502.72	39662.72
502.90	40095.72
503.07	39775.06
503.25	40175.30
503.43	40076.99
503.60	40474.88
503.78	40395.31
503.95	40163.59
504.13	40875.12
504.30	40816.60
504.48	40627.02
504.65	40524.04
504.83	40797.88
505.01	41069.38
505.18	41352.58
505.36	41759.84
505.53	41233.22
505.71	41551.53
505.88	41848.78
506.06	41471.95
506.23	41970.49
506.41	42122.62
506.58	42330.93
506.76	42071.13
506.93	42548.60
507.11	42064.11
507.28	42520.51
507.46	42579.03
507.63	43093.94
507.81	42899.68
507.98	42705.41
508.16	43580.78
508.33	43557.37
508.50	43557.37
508.68	43583.12
508.85	44222.08
509.03	43805.47
509.20	44238.47
509.38	44549.76
509.55	44605.93
509.73	44825.94
509.90	44704.23
510.08	44603.59
510.25	44643.38
510.42	44498.26
510.60	45256.60
510.77	45460.23
510.95	45411.07
511.12	45378.31
511.30	45179.36
511.47	45832.37
511.64	45764.49
511.82	45794.92
511.99	46050.04
512.17	46005.57
512.34	46007.91
512.51	46265.37
512.69	46188.13
512.86	45991.53
513.04	46679.64
513.21	46838.80
513.38	46712.41
513.56	46946.47
513.73	46681.98
513.90	46934.76
514.08	46733.48
514.25	47271.80
514.43	47618.20
514.60	47107.96
514.77	47538.62
514.95	47807.78
515.12	47639.26
515.29	47714.16
515.47	48182.27
515.64	48053.54
515.81	47910.77
515.99	48421.00
516.16	48545.05
516.33	48392.92
516.51	48769.74
516.68	48376.53
516.85	48891.45
517.03	48657.40
517.20	49155.93
517.37	48868.05
517.54	49052.95
517.72	48861.02
517.89	48783.79
518.06	49097.42
518.24	49207.42
518.41	49205.08
518.58	49450.84
518.75	49015.50
518.93	49336.15
519.10	49621.70
519.27	49853.41
519.45	50136.62
519.62	50003.20
519.79	49972.78
519.96	49862.77
520.14	50057.04
520.31	50082.78
520.48	50466.63
520.65	50553.23
520.83	50733.45
521.00	50471.31
521.17	50890.27
521.34	50698.34
521.52	51030.70
521.69	51110.28
521.86	50983.89
522.03	51306.88
522.20	51416.89
522.38	51576.04
522.55	51545.62
522.72	51377.10
522.89	51625.20
523.07	51877.97
523.24	51639.24
523.41	51744.56
523.58	52018.41
523.75	52034.79
523.92	51821.80
524.10	51962.23
524.27	52109.69
524.44	51903.72
524.61	52119.05
524.78	51863.93
524.96	52622.26
525.13	52465.45
525.30	52554.39
525.47	52676.10
525.64	52610.56
525.81	52399.91
525.98	52853.98
526.16	52418.64
526.33	52732.27
526.50	53062.29
526.67	52732.27
526.84	53207.40
527.01	52790.78
527.18	52956.96
527.36	52938.24
527.53	53155.91
527.70	53020.16
527.87	53418.05
528.04	53059.94
528.21	53663.80
528.38	53118.46
528.55	53481.24
528.72	53394.64
528.89	53434.43
529.07	53308.04
529.24	53544.44
529.41	53984.46
529.58	53673.16
529.75	53717.64
529.92	53598.27
530.09	53670.82
530.26	53872.11
530.43	54003.18
530.60	53822.96
530.77	53888.49
530.94	54005.52
531.11	54164.68
531.28	54293.41
531.46	54248.94
531.63	54326.17
531.80	54274.68
531.97	54309.79
532.14	54555.55
532.31	54515.76
532.48	54670.23
532.65	54546.18
532.82	54387.03
532.99	54939.39
533.16	54541.50
533.33	54796.62
533.50	55178.13
533.67	54939.39
533.84	54632.78
534.01	54887.90
534.18	54777.90
534.35	55320.90
534.52	55047.06
534.69	55182.81
534.86	55238.98
535.03	54866.84
535.20	55428.57
535.37	55325.58
535.54	55194.51
535.71	55377.08
535.88	55480.06
536.05	55540.91
536.22	55742.20
536.38	55669.64
536.55	55707.09
536.72	55763.26
536.89	55667.30
537.06	55657.94
537.23	55695.39
537.40	55805.39
537.57	55833.48
537.74	55842.84
537.91	55945.83
538.08	55849.86
538.25	55896.67
538.42	56107.32
538.59	56058.17
538.75	55821.78
538.92	56133.07
539.09	56376.48
539.26	55962.21
539.43	56170.52
539.60	56327.33
539.77	55994.98
539.94	56577.77
540.11	56460.74
540.28	56456.06
540.44	56566.07
540.61	56633.94
540.78	56437.34
540.95	56486.49
541.12	56346.06
541.29	56650.33
541.46	56427.98
541.62	56762.67
541.79	56774.37
541.96	56282.86
542.13	56526.28
542.30	56669.05
542.47	56762.67
542.63	57069.28
542.80	56921.83
542.97	57071.62
543.14	57352.49
543.31	57537.39
543.48	57242.48
543.64	57619.31
543.81	57457.81
543.98	57359.51
544.15	57509.30
544.32	57577.18
544.48	57577.18
544.65	57359.51
544.82	57506.96
544.99	57422.70
545.16	57574.84
545.32	57436.75
545.49	57799.53
545.66	57771.44
545.83	57523.35
546.00	57846.34
546.16	57733.99
546.33	57626.33
546.50	57389.94
546.67	57984.43
546.83	57523.35
547.00	57939.96
547.17	57684.84
547.34	57862.72
547.50	57862.72
547.67	58188.06
547.84	57923.58
548.00	57925.92
548.17	58337.85
548.34	58157.63
548.51	58267.64
548.67	58251.25
548.84	58145.93
549.01	58288.70
549.18	58127.20
549.34	58391.68
549.51	58396.37
549.68	58375.30
549.84	58543.82
550.01	58429.13
550.18	58405.73
550.34	58195.08
550.51	58595.31
550.68	58447.86
550.84	58445.52
551.01	58562.54
551.18	58564.88
551.34	58567.23
551.51	58719.36
551.68	58525.10
551.84	58583.61
552.01	58637.44
552.18	58775.53
552.34	58642.12
552.51	58920.65
552.68	58691.27
552.84	58543.82
553.01	59147.68
553.18	58667.87
553.34	58976.82
553.51	58649.14
553.67	58742.77
553.84	58798.94
554.01	58930.01
554.17	59063.42
554.34	59098.53
554.51	59009.59
554.67	59077.46
554.84	58887.88
555.00	59035.33
555.17	58995.54
555.33	59098.53
555.50	58908.94
555.67	59206.19
555.83	59061.08
556.00	59276.41
556.16	59573.66
556.33	59288.11
556.50	59283.43
556.66	59154.70
556.83	59159.38
556.99	59412.16
557.16	59573.66
557.32	59657.91
557.49	59746.86
557.65	59405.14
557.82	59384.07
557.98	59325.56
558.15	59440.24
558.32	59554.93
558.48	59370.03
558.65	59449.61
558.81	59260.02
558.98	59355.99
559.14	59632.17
559.31	59606.42
559.47	59831.11
559.64	59884.95
559.80	59739.83
559.97	59749.20
560.13	59700.04
560.30	59571.32
560.46	59716.43
560.63	59847.50
560.79	59777.28
560.96	59859.20
561.12	59964.52
561.29	59767.92
561.45	59854.52
561.61	59866.22
561.78	59870.90
561.94	59924.74
562.11	59842.82
562.27	59948.14
562.44	59898.99
562.60	59964.52
562.77	59962.18
562.93	59716.43
563.10	59966.87
563.26	59796.01
563.42	60100.28
563.59	60004.31
563.75	59966.87
563.92	60179.85
564.08	60088.57
564.24	60158.79
564.41	60390.50
564.57	60179.85
564.74	60294.54
564.90	60217.30
565.07	60196.24
565.23	60088.57
565.39	59969.21
565.56	60151.77
565.72	60339.01
565.88	60374.12
566.05	60175.17
566.21	60163.47
566.38	60339.01
566.54	60233.69
566.70	60556.68
566.87	60280.50
567.03	60257.09
567.19	60519.23
567.36	60334.33
567.52	60341.35
567.68	60860.95
567.85	60460.72
568.01	60329.65
568.17	60465.40
568.34	60502.85
568.50	60245.39
568.66	60374.12
568.83	60507.53
568.99	60369.44
569.15	60430.29
569.32	60179.85
569.48	60317.95
569.64	60566.04
569.81	60392.84
569.97	60526.25
570.13	60711.16
570.30	60636.26
570.46	60493.49
570.62	60530.93
570.78	60434.97
570.95	60549.66
571.11	60764.99
571.27	60673.71
571.43	60491.15
571.60	60753.29
571.76	60577.75
571.92	60654.98
572.09	60608.17
572.25	60566.04
572.41	60568.38
572.57	60664.35
572.74	60811.80
572.90	60533.28
573.06	60678.39
573.22	60760.31
573.38	60584.77
573.55	60725.20
573.71	60886.70
573.87	60779.03
574.03	60570.72
574.20	60863.29
574.36	60662.00
574.52	60886.70
574.68	60640.94
574.84	60977.98
575.01	60755.63
575.17	60734.56
575.33	60767.33
575.49	60767.33
575.65	60715.84
575.82	60830.52
575.98	60917.12
576.14	61024.79
576.30	60800.10
576.46	60666.69
576.62	60788.39
576.79	60851.59
576.95	60523.91
577.11	60753.29
577.27	60760.31
577.43	60877.33
577.59	60776.69
577.75	60776.69
577.92	60669.03
578.08	60727.54
578.24	60816.48
578.40	60928.83
578.56	60985.00
578.72	60814.14
578.88	61090.32
579.04	61029.47
579.21	60954.57
579.37	61034.15
579.53	60825.84
579.69	60797.76
579.85	60987.34
580.01	60879.67
580.17	60807.12
580.33	60992.02
580.49	60982.66
580.65	60853.93
580.82	61036.49
580.98	60874.99
581.14	60736.90
581.30	60980.32
581.46	60816.48
581.62	61013.08
581.78	60879.67
581.94	61109.05
582.10	61085.64
582.26	61015.43
582.42	60851.59
582.58	60956.91
582.74	60889.04
582.90	60907.76
583.06	61064.58
583.22	60919.46
583.38	61095.00
583.54	61120.75
583.70	60874.99
583.86	61151.18
584.02	61022.45
584.18	61202.67
584.34	60891.38
584.50	61113.73
584.66	60830.52
584.82	60907.76
584.98	61174.58
585.14	61113.73
585.30	60767.33
585.46	61144.16
585.62	61059.90
585.78	61439.06
585.94	60982.66
586.10	61085.64
586.26	61010.74
586.42	61230.75
586.58	61169.90
586.74	61132.45
586.90	60935.85
587.06	60802.44
587.22	61347.78
587.38	61099.68
587.54	61347.78
587.70	61268.20
587.86	61073.94
588.02	61153.52
588.18	61172.24
588.34	60949.89
588.49	61130.11
