SpectraSuite Data File
++++++++++++++++++++++++++++++++++++
Date: Fri Oct 25 11:25:46 EDT 2013
User: price-jones
Dark Spectrum Present: No
Reference Spectrum Present: No
Number of Sampled Component Spectra: 1
Spectrometers: USB2+H05261
Integration Time (usec): 100000 (USB2+H05261)
Spectra Averaged: 1 (USB2+H05261)
Boxcar Smoothing: 0 (USB2+H05261)
Correct for Electrical Dark: No (USB2+H05261)
Strobe/Lamp Enabled: No (USB2+H05261)
Correct for Detector Non-linearity: No (USB2+H05261)
Correct for Stray Light: No (USB2+H05261)
Number of Pixels in Processed Spectrum: 2048
>>>>>Begin Processed Spectral Data<<<<<
365.73	287.89
365.92	287.89
366.12	287.89
366.32	177.88
366.52	117.03
366.72	166.18
366.91	191.92
367.11	154.48
367.31	70.22
367.51	98.30
367.70	154.48
367.90	114.69
368.10	91.28
368.30	175.54
368.49	93.62
368.69	182.56
368.89	180.22
369.09	189.58
369.28	189.58
369.48	145.11
369.68	222.35
369.87	170.86
370.07	161.50
370.27	224.69
370.47	339.38
370.66	552.37
370.86	653.01
371.06	746.63
371.25	702.16
371.45	678.76
371.65	753.65
371.84	676.41
372.04	638.97
372.24	711.52
372.44	741.95
372.63	791.10
372.83	662.37
373.03	746.63
373.22	713.86
373.42	781.74
373.62	671.73
373.81	786.42
374.01	833.23
374.21	814.51
374.40	868.34
374.60	779.40
374.79	802.80
374.99	870.68
375.19	795.78
375.38	837.91
375.58	814.51
375.78	873.02
375.97	784.08
376.17	882.38
376.37	816.85
376.56	837.91
376.76	858.98
376.95	828.55
377.15	880.04
377.35	875.36
377.54	854.30
377.74	954.94
377.93	929.19
378.13	922.17
378.33	917.49
378.52	945.58
378.72	987.71
378.91	924.51
379.11	873.02
379.31	1022.81
379.50	990.05
379.70	959.62
379.89	1013.45
380.09	901.11
380.28	1043.88
380.48	938.55
380.68	1043.88
380.87	999.41
381.07	997.07
381.26	959.62
381.46	954.94
381.65	1050.90
381.85	1053.24
382.04	1118.78
382.24	1050.90
382.43	1090.69
382.63	1004.09
382.83	1018.13
383.02	1076.65
383.22	1132.82
383.41	1027.50
383.61	992.39
383.80	1165.59
384.00	1100.05
384.19	1184.31
384.39	1165.59
384.58	1114.10
384.78	1217.08
384.97	1111.75
385.17	1238.14
385.36	1135.16
385.56	1121.12
385.75	1086.01
385.95	1102.39
386.14	1156.22
386.34	1174.95
386.53	1142.18
386.72	1188.99
386.92	1217.08
387.11	1266.23
387.31	1343.47
387.50	1273.25
387.70	1294.32
387.89	1268.57
388.09	1308.36
388.28	1238.14
388.48	1228.78
388.67	1296.66
388.86	1252.19
389.06	1369.21
389.25	1338.79
389.45	1369.21
389.64	1306.02
389.84	1275.59
390.03	1359.85
390.22	1404.32
390.42	1394.96
390.61	1397.30
390.81	1343.47
391.00	1399.64
391.19	1451.13
391.39	1504.96
391.58	1441.77
391.78	1486.24
391.97	1413.68
392.16	1502.62
392.36	1528.37
392.55	1451.13
392.75	1528.37
392.94	1476.88
393.13	1638.38
393.33	1563.48
393.52	1593.90
393.71	1633.69
393.91	1563.48
394.10	1565.82
394.29	1603.27
394.49	1519.01
394.68	1570.50
394.88	1624.33
395.07	1732.00
395.26	1675.82
395.46	1687.53
395.65	1682.85
395.84	1633.69
396.04	1778.81
396.23	1746.04
396.42	1713.27
396.62	1769.44
396.81	1839.66
397.00	1774.13
397.19	1776.47
397.39	1769.44
397.58	1767.10
397.77	1881.79
397.97	1879.45
398.16	1797.53
398.35	1877.11
398.55	1820.94
398.74	1891.15
398.93	1970.73
399.12	1942.64
399.32	1973.07
399.51	1905.20
399.70	2127.55
399.90	1914.56
400.09	1980.09
400.28	2001.16
400.47	2050.31
400.67	1970.73
400.86	2106.48
401.05	2146.27
401.24	2204.78
401.44	2092.44
401.63	2045.63
401.82	2139.25
402.01	2202.44
402.21	2165.00
402.40	2300.75
402.59	2181.38
402.78	2073.71
402.97	2221.17
403.17	2291.38
403.36	2218.83
403.55	2307.77
403.74	2277.34
403.93	2282.02
404.13	2317.13
404.32	2361.60
404.51	2356.92
404.70	2422.45
404.89	2356.92
405.09	2349.90
405.28	2483.31
405.47	2413.09
405.66	2544.16
405.85	2452.88
406.05	2506.71
406.24	2616.72
406.43	2602.68
406.62	2647.15
406.81	2621.40
407.00	2487.99
407.20	2595.65
407.39	2616.72
407.58	2644.81
407.77	2663.53
407.96	2764.17
408.15	2841.41
408.34	2679.91
408.54	2785.24
408.73	2724.38
408.92	2654.17
409.11	2918.65
409.30	2860.13
409.49	2785.24
409.68	2932.69
409.87	2881.20
410.07	3030.99
410.26	2911.63
410.45	2925.67
410.64	3005.25
410.83	3021.63
411.02	3124.62
411.21	3063.76
411.40	3272.07
411.59	3243.98
411.78	3103.55
411.98	3185.47
412.17	3187.81
412.36	3375.05
412.55	3262.71
412.74	3318.88
412.93	3325.90
413.12	3243.98
413.31	3459.31
413.50	3382.07
413.69	3478.04
413.88	3611.45
414.07	3555.27
414.26	3674.64
414.45	3599.74
414.64	3756.56
414.83	3691.02
415.02	3726.13
415.22	3761.24
415.41	3847.84
415.60	3939.12
415.79	3871.25
415.98	3939.12
416.17	4030.40
416.36	3974.23
416.55	3988.27
416.74	4091.26
416.93	3960.19
417.12	4088.92
417.31	4084.23
417.50	4046.79
417.69	4271.48
417.88	4248.07
418.07	3997.64
418.26	4290.20
418.45	4344.03
418.64	4365.10
418.83	4383.82
419.02	4407.23
419.21	4482.13
419.39	4470.42
419.58	4297.22
419.77	4475.10
419.96	4456.38
420.15	4468.08
420.34	4458.72
420.53	4528.94
420.72	4676.39
420.91	4652.98
421.10	4709.16
421.29	4732.56
421.48	4615.54
421.67	4758.31
421.86	4741.93
422.05	4718.52
422.24	4826.18
422.43	4830.87
422.61	4774.69
422.80	5015.77
422.99	4945.55
423.18	5025.13
423.37	4964.28
423.56	4926.83
423.75	4835.55
423.94	4767.67
424.13	4697.46
424.32	4767.67
424.50	4968.96
424.69	4961.94
424.88	5200.67
425.07	4947.89
425.26	4950.23
425.45	4947.89
425.64	4809.80
425.83	5018.11
426.01	5011.09
426.20	4966.62
426.39	5029.81
426.58	4929.17
426.77	5015.77
426.96	5153.86
427.15	5174.92
427.33	5149.18
427.52	5277.91
427.71	5277.91
427.90	5135.14
428.09	5266.21
428.28	5268.55
428.46	5233.44
428.65	5238.12
428.84	5598.56
429.03	5420.68
429.22	5355.15
429.40	5427.70
429.59	5462.81
429.78	5355.15
429.97	5280.25
430.16	5441.75
430.34	5610.26
430.53	5544.73
430.72	5563.45
430.91	5823.25
431.10	5591.54
431.28	5760.06
431.47	5689.84
431.66	5989.43
431.85	5652.39
432.03	5657.07
432.22	5886.45
432.41	5863.04
432.60	5898.15
432.79	5813.89
432.97	5926.24
433.16	6076.03
433.35	5926.24
433.54	6202.42
433.72	6253.91
433.91	6108.80
434.10	6169.65
434.28	5994.11
434.47	6087.73
434.66	6225.82
434.85	6118.16
435.03	6125.18
435.22	6333.49
435.41	6539.46
435.59	6396.68
435.78	6471.58
435.97	6298.38
436.16	6345.19
436.34	6466.90
436.53	6586.27
436.72	6572.22
436.90	6408.39
437.09	6600.31
437.28	6314.77
437.46	6588.61
437.65	6644.78
437.84	6672.87
438.02	6780.53
438.21	6668.19
438.40	6513.71
438.58	6792.23
438.77	7028.63
438.96	6981.82
439.14	7119.91
439.33	7194.81
439.52	7126.93
439.70	7169.06
439.89	7173.74
440.08	7222.89
440.26	7260.34
440.45	7080.12
440.63	7463.97
440.82	7751.85
441.01	7456.95
441.19	7644.19
441.38	7466.31
441.57	7723.77
441.75	7679.30
441.94	7939.10
442.12	7857.18
442.31	7892.29
442.50	8039.74
442.68	8044.42
442.87	8016.33
443.05	8105.28
443.24	8072.51
443.43	8081.87
443.61	8114.64
443.80	8297.20
443.98	7777.60
444.17	7801.01
444.35	8346.35
444.54	8461.04
444.73	8159.11
444.91	8086.55
445.10	8236.35
445.28	8280.82
445.47	8035.06
445.65	8163.79
445.84	8444.65
446.02	8430.61
446.21	8365.07
446.39	8322.94
446.58	8395.50
446.77	8332.31
446.95	8149.75
447.14	8262.09
447.32	8720.84
447.51	8542.96
447.69	8344.01
447.88	8365.07
448.06	8505.51
448.25	8514.87
448.43	8486.78
448.62	8418.91
448.80	8699.77
448.99	8559.34
449.17	8524.23
449.36	8568.70
449.54	8524.23
449.73	8959.57
449.91	8901.06
450.10	8994.68
450.28	9156.18
450.46	9046.17
450.65	8889.35
450.83	9174.90
451.02	9085.96
451.20	9210.01
451.39	9057.87
451.57	9327.03
451.76	9224.05
451.94	8982.98
452.13	9273.20
452.31	9378.53
452.49	8973.61
452.68	9156.18
452.86	9385.55
453.05	9284.91
453.23	9420.66
453.42	9343.42
453.60	9217.03
453.78	9373.85
453.97	9327.03
454.15	9394.91
454.34	9385.55
454.52	9680.46
454.70	9444.06
454.89	9577.47
455.07	9593.86
455.26	9600.88
455.44	9872.38
455.62	9820.89
455.81	9811.53
455.99	9944.94
456.17	10059.62
456.36	9783.44
456.54	10258.57
456.73	10200.05
456.91	10424.75
457.09	10485.60
457.28	10551.14
457.46	10396.66
457.64	10452.83
457.83	10626.03
458.01	10462.19
458.19	10773.49
458.38	10452.83
458.56	10874.13
458.74	10487.94
458.93	10663.48
459.11	10832.00
459.29	10551.14
459.48	10569.86
459.66	10740.72
459.84	10836.68
460.03	10951.37
460.21	10967.75
460.39	10925.62
460.57	10843.70
460.76	11131.59
460.94	11012.22
461.12	11152.65
461.31	11084.78
461.49	11035.63
461.67	11169.04
461.85	11227.55
462.04	11059.03
462.22	11779.92
462.40	11494.37
462.59	11424.15
462.77	11267.34
462.95	11571.61
463.13	11463.94
463.32	11485.01
463.50	11566.93
463.68	11810.34
463.86	11789.28
464.05	11566.93
464.23	11569.27
464.41	12063.12
464.59	11576.29
464.78	12035.03
464.96	11812.68
465.14	11939.07
465.32	11992.90
465.50	12189.51
465.69	12105.25
465.87	12114.61
466.05	12009.29
466.23	12126.32
466.41	12180.15
466.60	12245.68
466.78	12016.31
466.96	11971.84
467.14	12152.06
467.32	12276.11
467.51	12634.21
467.69	12149.72
467.87	12470.37
468.05	12666.98
468.23	12461.01
468.41	12519.53
468.60	12638.89
468.78	12798.05
468.96	12889.33
469.14	12734.85
469.32	12954.87
469.50	12706.77
469.69	12776.98
469.87	13205.30
470.05	12992.31
470.23	13050.83
470.41	12835.50
470.59	13111.68
470.77	13116.36
470.95	12854.22
471.14	13352.76
471.32	12917.42
471.50	13692.13
471.68	13397.23
471.86	13523.62
472.04	13682.77
472.22	14092.37
472.40	13549.36
472.58	13844.27
472.77	13926.19
472.95	13853.63
473.13	14740.69
473.31	14122.79
473.49	13977.68
473.67	13958.96
473.85	13949.59
474.03	14672.82
474.21	14672.82
474.39	14511.32
474.57	14249.18
474.75	14855.38
474.93	14806.23
475.12	14787.50
475.30	14834.32
475.48	14934.96
475.66	15000.49
475.84	14883.47
476.02	15080.07
476.20	15269.66
476.38	15644.14
476.56	15702.65
476.74	15969.48
476.92	15662.86
477.10	15681.59
477.28	16079.48
477.46	16123.95
477.64	16379.07
477.82	16669.30
478.00	17099.95
478.18	16470.35
478.36	17090.59
478.54	17036.76
478.72	17116.34
478.90	16978.25
479.08	17511.89
479.26	17809.14
479.44	17495.50
479.62	17790.41
479.80	17914.46
479.98	18129.79
480.16	18328.74
480.34	18120.43
480.52	18525.34
480.70	18628.32
480.88	18260.86
481.06	18595.56
481.24	18630.66
481.41	18815.57
481.59	19241.54
481.77	19534.11
481.95	19506.02
482.13	19398.36
482.31	19419.42
482.49	19913.28
482.67	20156.69
482.85	20252.66
483.03	20276.06
483.21	20547.56
483.39	20720.76
483.57	20760.55
483.74	20985.24
483.92	21362.07
484.10	21273.13
484.28	21656.98
484.46	21783.37
484.64	22080.61
484.82	21968.27
485.00	22260.84
485.18	22394.25
485.35	23028.53
485.53	22761.71
485.71	22703.20
485.89	23360.89
486.07	23166.62
486.25	23454.51
486.43	23260.24
486.61	23564.51
486.78	23747.08
486.96	24004.53
487.14	24376.68
487.32	24421.15
487.50	24474.98
487.68	24821.38
487.85	24875.21
488.03	25010.96
488.21	25729.51
488.39	25530.56
488.57	25776.32
488.75	26197.62
488.92	26291.24
489.10	26651.68
489.28	26415.29
489.46	26890.41
489.64	26670.40
489.81	27344.48
489.99	27777.48
490.17	27524.70
490.35	27623.00
490.53	27936.63
490.70	28030.26
490.88	28283.03
491.06	28680.92
491.24	28601.35
491.41	29013.28
491.59	29359.68
491.77	28828.38
491.95	29205.20
492.13	29570.33
492.30	29841.83
492.48	30066.52
492.66	30010.35
492.84	30347.39
493.01	30295.89
493.19	30169.51
493.37	30888.05
493.54	30677.40
493.72	31309.35
493.90	31281.26
494.08	31592.55
494.25	32121.51
494.43	32018.53
494.61	31992.78
494.79	32074.70
494.96	32409.40
495.14	32346.20
495.32	33146.67
495.49	32978.15
495.67	32968.79
495.85	33149.01
496.02	33535.20
496.20	33787.97
496.38	33881.60
496.55	34082.88
496.73	34696.10
496.91	34003.30
497.09	34644.61
497.26	34565.03
497.44	34431.62
497.62	34850.58
497.79	35789.13
497.97	35730.62
498.14	35704.87
498.32	36046.59
498.50	35805.52
498.67	36271.28
498.85	36404.69
499.03	36367.24
499.20	36620.02
499.38	36381.29
499.56	36842.37
499.73	36723.01
499.91	37336.23
500.08	37331.54
500.26	37120.90
500.44	37694.33
500.61	37619.43
500.79	37453.25
500.97	37666.24
501.14	38190.52
501.32	38096.90
501.49	38401.17
501.67	38464.36
501.84	38653.95
502.02	38298.19
502.20	38555.64
502.37	38934.81
502.55	39370.15
502.72	39239.08
502.90	39552.71
503.07	39459.09
503.25	39569.10
503.43	39599.52
503.60	39597.18
503.78	39658.04
503.95	39957.63
504.13	40098.06
504.30	40142.53
504.48	40334.45
504.65	40589.57
504.83	40758.09
505.01	40910.22
505.18	40847.03
505.36	41574.94
505.53	40840.01
505.71	41256.62
505.88	41745.80
506.06	40863.41
506.23	41251.94
506.41	41579.62
506.58	41886.23
506.76	41687.28
506.93	42333.27
507.11	41724.73
507.28	42403.49
507.46	42721.80
507.63	42508.81
507.81	42852.87
507.98	42520.51
508.16	42792.01
508.33	43384.17
508.50	43550.35
508.68	43473.11
508.85	43386.51
509.03	43650.99
509.20	43688.44
509.38	43887.39
509.55	44170.59
509.73	44612.95
509.90	43983.35
510.08	44339.11
510.25	44322.72
510.42	44673.81
510.60	44772.11
510.77	45345.54
510.95	45090.42
511.12	44608.27
511.30	44907.86
511.47	45045.95
511.64	45160.64
511.82	45619.38
511.99	45497.67
512.17	45588.95
512.34	45226.17
512.51	46031.32
512.69	46096.85
512.86	46003.23
513.04	46253.67
513.21	46167.07
513.38	46258.35
513.56	46335.59
513.73	46391.76
513.90	46845.82
514.08	46328.56
514.25	46855.18
514.43	47339.68
514.60	47510.53
514.77	47604.16
514.95	47711.82
515.12	46986.25
515.29	47117.32
515.47	47878.00
515.64	47798.42
515.81	47899.06
515.99	47887.36
516.16	48392.92
516.33	47980.98
516.51	48357.81
516.68	48072.26
516.85	48041.84
517.03	48992.09
517.20	48601.22
517.37	48568.46
517.54	48601.22
517.72	48802.51
517.89	48914.86
518.06	49017.84
518.24	48753.36
518.41	48704.21
518.58	49015.50
518.75	49029.54
518.93	49523.40
519.10	49303.38
519.27	49102.10
519.45	49612.34
519.62	49542.12
519.79	50176.40
519.96	49954.05
520.14	49921.29
520.31	49937.67
520.48	49727.02
520.65	50108.53
520.83	50459.61
521.00	50508.76
521.17	50422.16
521.34	50536.85
521.52	50543.87
521.69	50447.91
521.86	51049.42
522.03	51072.83
522.20	51082.19
522.38	51208.58
522.55	51311.56
522.72	50852.82
522.89	51327.95
523.07	51620.52
523.24	51248.37
523.41	51285.82
523.58	51505.83
523.75	51732.86
523.92	51707.12
524.10	51522.21
524.27	51875.63
524.44	51894.36
524.61	52037.13
524.78	52107.35
524.96	51941.17
525.13	52172.88
525.30	52158.84
525.47	52334.38
525.64	52165.86
525.81	52521.62
525.98	52442.04
526.16	52500.56
526.33	52505.24
526.50	53057.60
526.67	52491.19
526.84	52907.81
527.01	52734.61
527.18	52924.19
527.36	52577.79
527.53	52865.68
527.70	53289.32
527.87	53069.31
528.04	53071.65
528.21	53193.36
528.38	52818.87
528.55	53387.62
528.72	52905.47
528.89	53235.48
529.07	53151.23
529.24	53265.91
529.41	53481.24
529.58	53511.67
529.75	53366.55
529.92	53645.08
530.09	53530.39
530.26	53750.40
530.43	53698.91
530.60	53579.54
530.77	53614.65
530.94	53984.46
531.11	53888.49
531.28	54103.82
531.46	54021.90
531.63	54075.74
531.80	54049.99
531.97	54040.63
532.14	54075.74
532.31	54637.47
532.48	54342.56
532.65	54365.96
532.82	54211.49
532.99	54714.70
533.16	54342.56
533.33	54616.40
533.50	54885.56
533.67	54525.12
533.84	54576.61
534.01	54424.48
534.18	54820.03
534.35	54960.46
534.52	54749.81
534.69	54944.08
534.86	55042.38
535.03	55018.97
535.20	54967.48
535.37	55131.32
535.54	55356.01
535.71	55035.36
535.88	55119.62
536.05	55250.69
536.22	55489.42
536.38	55468.36
536.55	55203.88
536.72	55360.69
536.89	55388.78
537.06	55608.79
537.23	55559.64
537.40	55480.06
537.57	55667.30
537.74	55512.83
537.91	55896.67
538.08	55828.80
538.25	55409.84
538.42	55737.52
538.59	56030.08
538.75	55793.69
538.92	56144.77
539.09	56030.08
539.26	55891.99
539.43	56009.02
539.60	56306.27
539.77	55791.35
539.94	56306.27
540.11	56334.35
540.28	56112.00
540.44	56292.22
540.61	56130.73
540.78	56184.56
540.95	56406.91
541.12	56353.08
541.29	56245.41
541.46	56285.20
541.62	56493.51
541.79	56502.87
541.96	56224.35
542.13	56502.87
542.30	56376.48
542.47	56472.45
542.63	56708.84
542.80	56996.73
542.97	56872.68
543.14	57286.95
543.31	57080.98
543.48	56992.04
543.64	57308.02
543.81	57308.02
543.98	56985.02
544.15	57078.64
544.32	57160.56
544.48	57457.81
544.65	57125.46
544.82	57237.80
544.99	57200.35
545.16	57432.07
545.32	57247.16
545.49	57574.84
545.66	57631.01
545.83	57518.67
546.00	57478.88
546.16	57399.30
546.33	57506.96
546.50	57420.36
546.67	57518.67
546.83	57256.53
547.00	57745.70
547.17	57846.34
547.34	57710.59
547.50	57893.15
547.67	57895.49
547.84	57848.68
548.00	57970.39
548.17	58113.16
548.34	58080.39
548.51	57970.39
548.67	58171.67
548.84	58115.50
549.01	57839.32
549.18	57925.92
549.34	58005.50
549.51	58028.90
549.68	58127.20
549.84	58155.29
550.01	58260.62
550.18	58185.72
550.34	58246.57
550.51	58478.28
550.68	58361.26
550.84	58115.50
551.01	58471.26
551.18	58384.66
551.34	58504.03
551.51	58527.44
551.68	58419.77
551.84	58248.91
552.01	58319.13
552.18	58604.67
552.34	58391.68
552.51	58529.78
552.68	58511.05
552.84	58518.07
553.01	58808.30
553.18	58532.12
553.34	58946.39
553.51	58698.30
553.67	58597.65
553.84	58864.47
554.01	58688.93
554.17	58913.62
554.34	58759.15
554.51	59023.63
554.67	58988.52
554.84	58922.99
555.00	58698.30
555.17	58885.54
555.33	58944.05
555.50	58651.48
555.67	58885.54
555.83	58686.59
556.00	58857.45
556.16	59166.40
556.33	59138.32
556.50	59203.85
556.66	58997.88
556.83	58913.62
556.99	59423.86
557.16	59501.10
557.32	59276.41
557.49	59550.25
557.65	59100.87
557.82	59222.58
557.98	59154.70
558.15	59372.37
558.32	59374.71
558.48	59288.11
558.65	59215.55
558.81	59430.88
558.98	59377.05
559.14	59597.06
559.31	59564.29
559.47	59524.50
559.64	59688.34
559.80	59554.93
559.97	59704.73
560.13	59363.01
560.30	59442.59
560.46	59669.62
560.63	59643.87
560.79	59643.87
560.96	59817.07
561.12	59643.87
561.29	59669.62
561.45	59723.45
561.61	59718.77
561.78	59667.28
561.94	59643.87
562.11	59611.10
562.27	59611.10
562.44	59739.83
562.60	59856.86
562.77	59697.70
562.93	59664.94
563.10	60158.79
563.26	59587.70
563.42	59985.59
563.59	59821.75
563.75	59889.63
563.92	59772.60
564.08	59704.73
564.24	60018.36
564.41	59971.55
564.57	59884.95
564.74	59901.33
564.90	60039.42
565.07	59849.84
565.23	59980.91
565.39	59749.20
565.56	60025.38
565.72	59913.03
565.88	60214.96
566.05	60093.25
566.21	60041.76
566.38	60027.72
566.54	60041.76
566.70	60320.29
566.87	60252.41
567.03	60144.75
567.19	60147.09
567.36	60109.64
567.52	60161.13
567.68	60427.95
567.85	60355.39
568.01	60355.39
568.17	60095.60
568.34	60062.83
568.50	60252.41
568.66	60285.18
568.83	60320.29
568.99	60175.17
569.15	60233.69
569.32	60245.39
569.48	60111.98
569.64	60273.48
569.81	60186.88
569.97	60172.83
570.13	60252.41
570.30	60212.62
570.46	60247.73
570.62	60285.18
570.78	60355.39
570.95	60416.25
571.11	60657.32
571.27	60327.31
571.43	60121.34
571.60	60425.61
571.76	60348.37
571.92	60388.16
572.09	60626.90
572.25	60484.12
572.41	60109.64
572.57	60320.29
572.74	60549.66
572.90	60280.50
573.06	60472.42
573.22	60395.18
573.38	60633.92
573.55	60652.64
573.71	60781.37
573.87	60598.81
574.03	60411.57
574.20	60601.15
574.36	60570.72
574.52	60547.32
574.68	60647.96
574.84	60905.42
575.01	60533.28
575.17	60498.17
575.33	60589.45
575.49	60505.19
575.65	60493.49
575.82	60601.15
575.98	60521.57
576.14	61013.08
576.30	60526.25
576.46	60535.62
576.62	60528.59
576.79	60500.51
576.95	60369.44
577.11	60631.58
577.27	60633.92
577.43	60561.36
577.59	60584.77
577.75	60643.28
577.92	60617.53
578.08	60804.78
578.24	60750.94
578.40	60912.44
578.56	60718.18
578.72	60575.40
578.88	60853.93
579.04	60954.57
579.21	60788.39
579.37	60879.67
579.53	60954.57
579.69	60624.56
579.85	60643.28
580.01	60626.90
580.17	60636.26
580.33	60842.23
580.49	60884.36
580.65	60619.88
580.82	60743.92
580.98	60610.51
581.14	60729.88
581.30	60671.37
581.46	60786.05
581.62	60757.97
581.78	60673.71
581.94	60664.35
582.10	60750.94
582.26	60732.22
582.42	60821.16
582.58	60886.70
582.74	60802.44
582.90	60807.12
583.06	60832.86
583.22	60580.09
583.38	60980.32
583.54	60844.57
583.70	60982.66
583.86	60963.93
584.02	60589.45
584.18	60891.38
584.34	60821.16
584.50	60804.78
584.66	60704.13
584.82	60800.10
584.98	60917.12
585.14	60832.86
585.30	60884.36
585.46	60968.61
585.62	60755.63
585.78	60931.17
585.94	60772.01
586.10	60828.18
586.26	60940.53
586.42	61102.03
586.58	60980.32
586.74	61017.77
586.90	60949.89
587.06	60839.89
587.22	60982.66
587.38	60800.10
587.54	61020.11
587.70	61078.62
587.86	60793.07
588.02	61015.43
588.18	61034.15
588.34	60790.73
588.49	61010.74
