SpectraSuite Data File
++++++++++++++++++++++++++++++++++++
Date: Fri Oct 25 10:44:20 EDT 2013
User: price-jones
Dark Spectrum Present: No
Reference Spectrum Present: No
Number of Sampled Component Spectra: 1
Spectrometers: USB2+H05261
Integration Time (usec): 100000 (USB2+H05261)
Spectra Averaged: 1 (USB2+H05261)
Boxcar Smoothing: 0 (USB2+H05261)
Correct for Electrical Dark: No (USB2+H05261)
Strobe/Lamp Enabled: No (USB2+H05261)
Correct for Detector Non-linearity: No (USB2+H05261)
Correct for Stray Light: No (USB2+H05261)
Number of Pixels in Processed Spectrum: 2048
>>>>>Begin Processed Spectral Data<<<<<
365.73	131.07
365.92	131.07
366.12	131.07
366.32	53.83
366.52	0.00
366.72	16.38
366.91	35.11
367.11	2.34
367.31	0.00
367.51	37.45
367.70	44.47
367.90	0.00
368.10	0.00
368.30	56.17
368.49	25.75
368.69	0.00
368.89	0.00
369.09	25.75
369.28	51.49
369.48	37.45
369.68	18.72
369.87	58.51
370.07	86.60
370.27	152.13
370.47	187.24
370.66	322.99
370.86	430.66
371.06	454.06
371.25	519.60
371.45	552.37
371.65	458.74
371.84	421.30
372.04	411.93
372.24	500.87
372.44	486.83
372.63	538.32
372.83	470.45
373.03	564.07
373.22	433.00
373.42	500.87
373.62	528.96
373.81	500.87
374.01	547.69
374.21	596.84
374.40	585.13
374.60	510.24
374.79	564.07
374.99	643.65
375.19	571.09
375.38	531.30
375.58	671.73
375.78	685.78
375.97	603.86
376.17	713.86
376.37	634.29
376.56	585.13
376.76	629.60
376.95	627.26
377.15	617.90
377.35	695.14
377.54	709.18
377.74	634.29
377.93	669.39
378.13	653.01
378.33	709.18
378.52	638.97
378.72	702.16
378.91	664.71
379.11	732.59
379.31	758.33
379.50	667.05
379.70	727.91
379.89	706.84
380.09	704.50
380.28	746.63
380.48	737.27
380.68	723.23
380.87	725.57
381.07	767.70
381.26	695.14
381.46	772.38
381.65	739.61
381.85	746.63
382.04	678.76
382.24	791.10
382.43	772.38
382.63	767.70
382.83	751.31
383.02	821.53
383.22	779.40
383.41	706.84
383.61	748.97
383.80	807.48
384.00	748.97
384.19	821.53
384.39	858.98
384.58	809.83
384.78	889.40
384.97	739.61
385.17	856.64
385.36	816.85
385.56	816.85
385.75	809.83
385.95	837.91
386.14	898.77
386.34	849.61
386.53	863.66
386.72	798.12
386.92	870.68
387.11	889.40
387.31	905.79
387.50	926.85
387.70	894.08
387.89	973.66
388.09	844.93
388.28	987.71
388.48	947.92
388.67	929.19
388.86	954.94
389.06	1001.75
389.25	1069.62
389.45	983.02
389.64	990.05
389.84	1006.43
390.03	1041.54
390.22	1036.86
390.42	992.39
390.61	1027.50
390.81	1043.88
391.00	1027.50
391.19	1069.62
391.39	1135.16
391.58	1118.78
391.78	1090.69
391.97	1172.61
392.16	1050.90
392.36	1149.20
392.55	1064.94
392.75	1064.94
392.94	987.71
393.13	1015.79
393.33	994.73
393.52	1067.28
393.71	1090.69
393.91	1083.67
394.10	1100.05
394.29	1179.63
394.49	1249.85
394.68	1263.89
394.88	1221.76
395.07	1303.68
395.26	1301.34
395.46	1296.66
395.65	1317.72
395.84	1254.53
396.04	1280.27
396.23	1228.78
396.42	1125.80
396.62	1235.80
396.81	1371.55
397.00	1299.00
397.19	1310.70
397.39	1387.94
397.58	1441.77
397.77	1366.87
397.97	1437.09
398.16	1589.22
398.35	1610.29
398.55	1537.73
398.74	1575.18
398.93	1619.65
399.12	1617.31
399.32	1631.35
399.51	1614.97
399.70	1701.57
399.90	1664.12
400.09	1661.78
400.28	1661.78
400.47	1764.76
400.67	1837.32
400.86	1764.76
401.05	1851.36
401.24	1743.70
401.44	1736.68
401.63	1750.72
401.82	1732.00
402.01	1851.36
402.21	1778.81
402.40	1827.96
402.59	1724.97
402.78	1839.66
402.97	1823.28
403.17	1935.62
403.36	1952.01
403.55	1944.99
403.74	2043.29
403.93	1961.37
404.13	1984.77
404.32	1935.62
404.51	1975.41
404.70	1956.69
404.89	2019.88
405.09	2099.46
405.28	2022.22
405.47	1980.09
405.66	2118.18
405.85	2083.08
406.05	2054.99
406.24	2087.76
406.43	2076.06
406.62	2157.97
406.81	2209.47
407.00	2216.49
407.20	2087.76
407.39	2197.76
407.58	2207.13
407.77	2242.23
407.96	2394.37
408.15	2300.75
408.34	2349.90
408.54	2338.20
408.73	2382.67
408.92	2349.90
409.11	2385.01
409.30	2413.09
409.49	2380.32
409.68	2382.67
409.87	2399.05
410.07	2466.92
410.26	2555.86
410.45	2480.97
410.64	2590.97
410.83	2520.76
411.02	2712.68
411.21	2696.30
411.40	2722.04
411.59	2745.45
411.78	2789.92
411.98	2780.56
412.17	2773.53
412.36	2864.82
412.55	2860.13
412.74	2848.43
412.93	2920.99
413.12	2885.88
413.31	2951.42
413.50	2958.44
413.69	2895.24
413.88	3000.57
414.07	3021.63
414.26	3098.87
414.45	2993.55
414.64	3075.46
414.83	3213.56
415.02	3145.68
415.22	3225.26
415.41	3243.98
415.60	3279.09
415.79	3253.34
415.98	3496.76
416.17	3426.54
416.36	3288.45
416.55	3330.58
416.74	3389.10
416.93	3478.04
417.12	3375.05
417.31	3588.04
417.50	3468.67
417.69	3531.87
417.88	3611.45
418.07	3536.55
418.26	3658.26
418.45	3599.74
418.64	3669.96
418.83	3681.66
419.02	3768.26
419.21	3803.37
419.39	3751.88
419.58	3604.42
419.77	3623.15
419.96	3700.39
420.15	3892.31
420.34	3997.64
420.53	3889.97
420.72	4063.17
420.91	3908.69
421.10	3960.19
421.29	4025.72
421.48	3981.25
421.67	3950.82
421.86	4002.32
422.05	4056.15
422.24	3936.78
422.43	3882.95
422.61	4009.34
422.80	3997.64
422.99	4016.36
423.18	4135.73
423.37	4128.70
423.56	4133.39
423.75	3969.55
423.94	3934.44
424.13	3920.40
424.32	3927.42
424.50	4152.11
424.69	4215.30
424.88	4133.39
425.07	4009.34
425.26	3955.51
425.45	4133.39
425.64	4138.07
425.83	4128.70
426.01	4070.19
426.20	4229.35
426.39	4086.58
426.58	4166.15
426.77	4039.76
426.96	4189.56
427.15	4074.87
427.33	4339.35
427.52	4175.52
427.71	4248.07
427.90	4332.33
428.09	4341.69
428.28	4306.59
428.46	4318.29
428.65	4325.31
428.84	4458.72
429.03	4418.93
429.22	4241.05
429.40	4360.42
429.59	4152.11
429.78	4154.45
429.97	4009.34
430.16	4285.52
430.34	4182.54
430.53	4308.93
430.72	4379.14
430.91	4404.89
431.10	4550.00
431.28	4709.16
431.47	4840.23
431.66	4882.36
431.85	4807.46
432.03	4702.14
432.22	4828.53
432.41	4844.91
432.60	4788.74
432.79	4952.57
432.97	4973.64
433.16	4844.91
433.35	4837.89
433.54	4833.21
433.72	4800.44
433.91	4889.38
434.10	4952.57
434.28	5100.03
434.47	4858.95
434.66	4980.66
434.85	5181.95
435.03	5240.46
435.22	5165.56
435.41	5376.21
435.59	5313.02
435.78	5387.91
435.97	5526.00
436.16	5373.87
436.34	5355.15
436.53	5376.21
436.72	5451.11
436.90	5207.69
437.09	5324.72
437.28	5310.68
437.46	5301.31
437.65	5448.77
437.84	5558.77
438.02	5406.64
438.21	5331.74
438.40	5275.57
438.58	5528.35
438.77	5605.58
438.96	5664.10
439.14	5893.47
439.33	5755.38
439.52	5951.98
439.70	5654.73
439.89	5851.34
440.08	5804.53
440.26	5935.60
440.45	6008.16
440.63	6076.03
440.82	6256.25
441.01	6134.54
441.19	6324.13
441.38	6347.53
441.57	6356.90
441.75	6511.37
441.94	6483.28
442.12	6572.22
442.31	6703.29
442.50	6607.33
442.68	6607.33
442.87	6616.69
443.05	6899.90
443.24	6832.02
443.43	6677.55
443.61	6628.40
443.80	6965.43
443.98	6750.10
444.17	6499.67
444.35	6801.60
444.54	6803.94
444.73	6995.86
444.91	6827.34
445.10	6661.16
445.28	6792.23
445.47	6607.33
445.65	6665.85
445.84	6766.49
446.02	6904.58
446.21	6621.38
446.39	6916.28
446.58	6932.67
446.77	6925.65
446.95	6817.98
447.14	6902.24
447.32	6995.86
447.51	6967.77
447.69	6927.99
447.88	7110.55
448.06	6857.77
448.25	7075.44
448.43	6991.18
448.62	6860.11
448.80	7012.24
448.99	7077.78
449.17	7288.43
449.36	7087.14
449.54	7349.28
449.73	7382.05
449.91	7384.39
450.10	7566.95
450.28	7527.16
450.46	7559.93
450.65	7293.11
450.83	7494.40
451.02	7618.44
451.20	7777.60
451.39	7578.65
451.57	7562.27
451.76	7571.63
451.94	7452.27
452.13	7494.40
452.31	7569.29
452.49	7190.13
452.68	7506.10
452.86	7396.09
453.05	7550.57
453.23	7744.83
453.42	7613.76
453.60	7550.57
453.78	7674.62
453.97	7878.24
454.15	7604.40
454.34	7627.81
454.52	7889.95
454.70	7871.22
454.89	7868.88
455.07	7964.84
455.26	8021.02
455.44	8212.94
455.62	8189.53
455.81	8276.13
455.99	8058.46
456.17	8131.02
456.36	8098.25
456.54	8226.98
456.73	8388.48
456.91	8547.64
457.09	8456.36
457.28	8463.38
457.46	8301.88
457.64	8414.23
457.83	8505.51
458.01	8304.22
458.19	8571.04
458.38	8407.20
458.56	8641.26
458.74	8566.36
458.93	8463.38
459.11	8540.61
459.29	8748.92
459.48	8650.62
459.66	8627.21
459.84	8755.94
460.03	8924.46
460.21	8739.56
460.39	8882.33
460.57	8734.88
460.76	8882.33
460.94	8861.27
461.12	9043.83
461.31	9130.43
461.49	8704.45
461.67	8954.89
461.85	9125.75
462.04	9034.47
462.22	9294.27
462.40	9210.01
462.59	9097.66
462.77	9317.67
462.95	9362.14
463.13	9263.84
463.32	9490.87
463.50	9418.32
463.68	9425.34
463.86	9399.59
464.05	9242.78
464.23	9324.69
464.41	9284.91
464.59	9125.75
464.78	9502.58
464.96	9589.17
465.14	9282.56
465.32	9500.23
465.50	9621.94
465.69	9727.27
465.87	9535.34
466.05	9500.23
466.23	9509.60
466.41	9390.23
466.60	9762.37
466.78	9692.16
466.96	9664.07
467.14	9635.99
467.32	9540.02
467.51	9692.16
467.69	9488.53
467.87	9827.91
468.05	9816.21
468.23	9706.20
468.41	9776.42
468.60	10003.45
468.78	10200.05
468.96	9863.02
469.14	10085.37
469.32	10183.67
469.50	9888.76
469.69	9980.04
469.87	10204.74
470.05	10033.88
470.23	10279.63
470.41	9998.77
470.59	10443.47
470.77	10115.80
470.95	10452.83
471.14	10331.12
471.32	10413.04
471.50	10696.25
471.68	10642.42
471.86	10867.11
472.04	10567.52
472.22	10986.47
472.40	10733.70
472.58	10817.96
472.77	10600.29
472.95	10775.83
473.13	11382.03
473.31	10773.49
473.49	10738.38
473.67	11171.38
473.85	11239.25
474.03	11377.34
474.21	11316.49
474.39	11576.29
474.57	11517.78
474.75	11503.73
474.93	11501.39
475.12	11468.62
475.30	11613.74
475.48	11667.57
475.66	11580.97
475.84	11796.30
476.02	11836.09
476.20	11913.33
476.38	12081.85
476.56	12226.96
476.74	12180.15
476.92	12189.51
477.10	12241.00
477.28	12437.61
477.46	12545.27
477.64	12786.35
477.82	12903.37
478.00	13062.53
478.18	13067.21
478.36	12968.91
478.54	12910.40
478.72	13350.42
478.90	13025.08
479.08	13764.69
479.26	13504.89
479.44	13752.99
479.62	13832.57
479.80	13851.29
479.98	13860.65
480.16	13898.10
480.34	13951.93
480.52	14338.12
480.70	14197.69
480.88	14319.40
481.06	14375.57
481.24	14345.14
481.41	14862.40
481.59	15166.67
481.77	14904.53
481.95	14941.98
482.13	14862.40
482.31	14831.97
482.49	15274.34
482.67	15477.96
482.85	15620.74
483.03	15660.52
483.21	15978.84
483.39	16173.10
483.57	15929.69
483.74	16187.14
483.92	16365.03
484.10	15974.16
484.28	16411.84
484.46	16681.00
484.64	16945.48
484.82	16622.48
485.00	16568.65
485.18	17011.01
485.35	16917.39
485.53	16746.53
485.71	16842.50
485.89	16978.25
486.07	16809.73
486.25	17193.58
486.43	17584.44
486.61	17479.12
486.78	17717.86
486.96	17895.74
487.14	18321.71
487.32	18340.44
487.50	18747.69
487.68	18787.48
487.85	19185.37
488.03	18946.64
488.21	19379.64
488.39	19096.43
488.57	19171.33
488.75	18953.66
488.92	19616.03
489.10	20250.32
489.28	19988.18
489.46	20210.53
489.64	20503.09
489.81	20893.96
489.99	20790.98
490.17	20765.23
490.35	21277.81
490.53	21106.95
490.70	21216.96
490.88	21404.20
491.06	21600.80
491.24	21404.20
491.41	21493.14
491.59	21385.47
491.77	21359.73
491.95	21916.78
492.13	21731.87
492.30	22389.56
492.48	22354.46
492.66	22586.17
492.84	22710.22
493.01	22946.61
493.19	22874.06
493.37	22845.97
493.54	22876.40
493.72	23501.32
493.90	23498.98
494.08	23503.66
494.25	23922.62
494.43	23955.38
494.61	24313.48
494.79	24091.13
494.96	23929.64
495.14	24460.94
495.32	24390.72
495.49	24741.80
495.67	24582.65
495.85	24891.60
496.02	25127.99
496.20	24954.79
496.38	25352.68
496.55	25366.73
496.73	25914.41
496.91	25743.55
497.09	25933.14
497.26	25883.98
497.44	26279.54
497.62	25954.20
497.79	26209.32
497.97	25764.62
498.14	26466.78
498.32	26412.95
498.50	26686.79
498.67	27168.94
498.85	26874.03
499.03	27164.26
499.20	27072.98
499.38	26955.95
499.56	27262.56
499.73	27225.11
499.91	27346.82
500.08	27529.38
500.26	27101.06
500.44	27445.12
500.61	27503.64
500.79	27386.61
500.97	27637.05
501.14	27782.16
501.32	27999.83
501.49	27922.59
501.67	27953.02
501.84	28163.67
502.02	28294.74
502.20	28343.89
502.37	28980.51
502.55	28788.59
502.72	28428.15
502.90	28739.44
503.07	28865.83
503.25	28968.81
503.43	28507.72
503.60	28961.79
503.78	29226.27
503.95	29102.22
504.13	29486.07
504.30	29212.23
504.48	29411.17
504.65	29869.92
504.83	29979.92
505.01	30246.74
505.18	30703.15
505.36	30235.04
505.53	30265.47
505.71	30735.92
505.88	30696.13
506.06	30569.74
506.23	30661.02
506.41	30455.05
506.58	30794.43
506.76	30679.74
506.93	31129.12
507.11	30698.47
507.28	31215.72
507.46	30693.79
507.63	30822.51
507.81	31124.44
507.98	30609.53
508.16	31377.22
508.33	31763.41
508.50	31789.16
508.68	31821.92
508.85	31974.06
509.03	31873.42
509.20	32189.39
509.38	32606.00
509.55	32161.30
509.73	32491.32
509.90	32191.73
510.08	32243.22
510.25	32271.31
510.42	32650.47
510.60	32620.05
510.77	33130.28
510.95	32950.06
511.12	33090.49
511.30	33137.30
511.47	33502.43
511.64	33467.32
511.82	33443.91
511.99	33277.74
512.17	33521.15
512.34	33474.34
512.51	33495.41
512.69	33930.75
512.86	33727.12
513.04	33809.04
513.21	33675.63
513.38	33450.94
513.56	33680.31
513.73	33181.77
513.90	33734.14
514.08	33727.12
514.25	34347.36
514.43	34307.57
514.60	34281.83
514.77	34244.38
514.95	34836.53
515.12	34972.28
515.29	35005.05
515.47	35056.54
515.64	34986.33
515.81	34808.45
515.99	34644.61
516.16	34387.15
516.33	34164.80
516.51	34384.81
516.68	34302.89
516.85	33837.12
517.03	34216.29
517.20	34616.52
517.37	35178.25
517.54	35566.78
517.72	35473.16
517.89	34974.63
518.06	35108.04
518.24	34937.18
518.41	35126.76
518.58	35482.52
518.75	35241.45
518.93	35838.28
519.10	35658.06
519.27	35931.90
519.45	35978.72
519.62	36177.66
519.79	36315.75
519.96	36144.89
520.14	36638.75
520.31	36425.76
520.48	36643.43
520.65	36428.10
520.83	36563.85
521.00	37167.71
521.17	37015.57
521.34	36982.80
521.52	37249.63
521.69	37556.24
521.86	37422.83
522.03	37502.40
522.20	37783.27
522.38	37429.85
522.55	37532.83
522.72	37535.17
522.89	37146.64
523.07	37923.70
523.24	37528.15
523.41	38057.11
523.58	38132.01
523.75	38204.56
523.92	38361.38
524.10	38499.47
524.27	38775.66
524.44	38473.73
524.61	38806.08
524.78	38497.13
524.96	38321.59
525.13	38714.80
525.30	38352.02
525.47	39112.69
525.64	38478.41
525.81	38780.34
525.98	38108.60
526.16	38019.66
526.33	38370.74
526.50	38405.85
526.67	38050.09
526.84	38291.16
527.01	38466.70
527.18	38899.70
527.36	39428.66
527.53	39414.62
527.70	39271.85
527.87	39573.78
528.04	39210.99
528.21	39377.17
528.38	39344.41
528.55	39791.45
528.72	39896.77
528.89	39709.53
529.07	39746.98
529.24	39922.52
529.41	39906.13
529.58	39728.25
529.75	39730.59
529.92	40233.81
530.09	40032.52
530.26	40109.76
530.43	40320.41
530.60	40189.34
530.77	40343.81
530.94	40854.05
531.11	40816.60
531.28	40589.57
531.46	41027.25
531.63	40701.92
531.80	40879.80
531.97	40430.41
532.14	40407.01
532.31	40364.88
532.48	40297.00
532.65	40540.42
532.82	40882.14
532.99	40741.71
533.16	40781.49
533.33	41088.10
533.50	41319.82
533.67	40842.35
533.84	40884.48
534.01	41411.10
534.18	41338.54
534.35	41216.83
534.52	41134.92
534.69	41446.21
534.86	41853.46
535.03	41425.14
535.20	41448.55
535.37	42227.95
535.54	41846.44
535.71	41668.56
535.88	42005.59
536.05	41565.57
536.22	41865.16
536.38	42029.00
536.55	41841.76
536.72	41668.56
536.89	42099.22
537.06	42026.66
537.23	42057.09
537.40	42143.69
537.57	41752.82
537.74	42031.34
537.91	42459.66
538.08	42284.12
538.25	41963.46
538.42	41914.31
538.59	42567.32
538.75	41839.42
538.92	42272.42
539.09	42312.20
539.26	42483.06
539.43	42784.99
539.60	42265.39
539.77	42429.23
539.94	42284.12
540.11	42061.77
540.28	42408.17
540.44	42616.47
540.61	42792.01
540.78	42405.83
540.95	42419.87
541.12	42707.76
541.29	42588.39
541.46	42665.63
541.62	43012.02
541.79	43180.54
541.96	42859.89
542.13	42494.77
542.30	42887.98
542.47	42873.93
542.63	43248.42
542.80	42934.79
542.97	44140.16
543.14	43821.85
543.31	43440.34
543.48	43976.33
543.64	44289.96
543.81	44184.63
543.98	43814.83
544.15	43257.78
544.32	43690.78
544.48	44411.67
544.65	44069.95
544.82	44217.40
544.99	43943.56
545.16	44186.97
545.32	43817.17
545.49	44392.94
545.66	44428.05
545.83	44495.92
546.00	44690.19
546.16	44493.58
546.33	44205.70
546.50	43889.73
546.67	44402.30
546.83	44128.46
547.00	44165.91
547.17	44027.82
547.34	44535.71
547.50	44612.95
547.67	44847.00
547.84	44481.88
548.00	44629.34
548.17	44872.75
548.34	44835.30
548.51	44563.80
548.67	44830.62
548.84	44914.88
549.01	44786.15
549.18	44444.43
549.34	44800.19
549.51	44732.32
549.68	45027.23
549.84	44783.81
550.01	45099.78
550.18	44942.97
550.34	44971.05
550.51	45111.49
550.68	45048.29
550.84	44900.84
551.01	45411.07
551.18	44732.32
551.34	45134.89
551.51	45214.47
551.68	45738.75
551.84	45366.60
552.01	45155.96
552.18	45661.51
552.34	45057.65
552.51	45418.10
552.68	45048.29
552.84	45848.75
553.01	45764.49
553.18	45666.19
553.34	45666.19
553.51	45237.87
553.67	45436.82
553.84	45743.43
554.01	45542.14
554.17	45935.35
554.34	45907.27
554.51	45532.78
554.67	46195.15
554.84	46157.70
555.00	45605.34
555.17	45485.97
555.33	45820.67
555.50	45560.87
555.67	45638.11
555.83	45322.13
556.00	45900.25
556.16	45961.10
556.33	45488.31
556.50	45642.79
556.66	45933.01
556.83	45757.47
556.99	46230.26
557.16	45869.82
557.32	45813.65
557.49	46141.32
557.65	45757.47
557.82	45869.82
557.98	46134.30
558.15	46246.65
558.32	46122.60
558.48	45801.94
558.65	46146.00
558.81	45986.85
558.98	45727.05
559.14	45872.16
559.31	46101.53
559.47	46469.00
559.64	46286.43
559.80	46476.02
559.97	46363.67
560.13	45837.05
560.30	45968.12
560.46	46337.93
560.63	45825.35
560.79	46459.63
560.96	46106.21
561.12	46440.91
561.29	46564.96
561.45	46171.75
561.61	46527.51
561.78	46518.15
561.94	45724.71
562.11	46553.26
562.27	46447.93
562.44	46256.01
562.60	46513.47
562.77	46663.26
562.93	46766.24
563.10	46454.95
563.26	46312.18
563.42	46705.39
563.59	46541.55
563.75	46403.46
563.92	46731.14
564.08	46850.50
564.24	46745.18
564.41	46972.21
564.57	46728.80
564.74	47012.00
564.90	46609.43
565.07	46899.65
565.23	46347.29
565.39	46293.46
565.56	46799.01
565.72	46183.45
565.88	46644.54
566.05	46316.86
566.21	46770.93
566.38	46635.17
566.54	47161.79
566.70	46806.03
566.87	46983.91
567.03	46703.05
567.19	47241.37
567.36	46873.91
567.52	46815.40
567.68	46714.75
567.85	46761.56
568.01	46649.22
568.17	46883.27
568.34	46918.38
568.50	46777.95
568.66	46644.54
568.83	46986.25
568.99	46368.35
569.15	46443.25
569.32	46691.35
569.48	46749.86
569.64	46972.21
569.81	47023.70
569.97	46880.93
570.13	46894.97
570.30	46366.01
570.46	46576.66
570.62	46579.00
570.78	46340.27
570.95	46389.42
571.11	46902.00
571.27	46602.41
571.43	46438.57
571.60	46646.88
571.76	47033.07
571.92	46742.84
572.09	47103.28
572.25	46719.43
572.41	46852.84
572.57	47000.30
572.74	47173.50
572.90	46930.08
573.06	46810.71
573.22	47388.83
573.38	47119.66
573.55	46892.63
573.71	47000.30
573.87	47042.43
574.03	46916.04
574.20	47000.30
574.36	46892.63
574.52	46887.95
574.68	46852.84
574.84	46579.00
575.01	46904.34
575.17	46944.12
575.33	46637.51
575.49	46731.14
575.65	47194.56
575.82	46988.60
575.98	47112.64
576.14	47236.69
576.30	47178.18
576.46	46759.22
576.62	46850.50
576.79	46871.57
576.95	46436.23
577.11	46845.82
577.27	47178.18
577.43	47014.34
577.59	47210.95
577.75	46553.26
577.92	46674.96
578.08	46363.67
578.24	46738.16
578.40	46986.25
578.56	46576.66
578.72	47042.43
578.88	46714.75
579.04	47035.41
579.21	46834.12
579.37	47072.85
579.53	47257.76
579.69	46873.91
579.85	46932.42
580.01	47021.36
580.17	46990.94
580.33	47159.45
580.49	47229.67
580.65	47360.74
580.82	47199.24
580.98	47138.39
581.14	46838.80
581.30	47122.01
581.46	47342.02
581.62	47105.62
581.78	46995.62
581.94	47452.02
582.10	46918.38
582.26	47505.85
582.42	47187.54
582.58	47342.02
582.74	47030.72
582.90	46946.47
583.06	47051.79
583.22	47686.07
583.38	47234.35
583.54	47353.72
583.70	47501.17
583.86	47281.16
584.02	46887.95
584.18	47229.67
584.34	47124.35
584.50	47084.56
584.66	46913.70
584.82	46890.29
584.98	46890.29
585.14	47482.45
585.30	47117.32
585.46	47030.72
585.62	46761.56
585.78	47267.12
585.94	46553.26
586.10	47061.15
586.26	47014.34
586.42	47306.91
586.58	47318.61
586.74	47325.63
586.90	46766.24
587.06	46972.21
587.22	47203.92
587.38	46614.11
587.54	47267.12
587.70	47056.47
587.86	47358.40
588.02	47173.50
588.18	47021.36
588.34	46623.47
588.49	46375.37
588.65	46220.90
588.81	46300.48
588.97	46529.85
589.13	46909.02
589.29	46773.27
589.45	47063.49
589.61	46588.36
589.77	47522.24
589.93	46965.19
