SpectraSuite Data File
++++++++++++++++++++++++++++++++++++
Date: Fri Oct 25 11:33:24 EDT 2013
User: price-jones
Dark Spectrum Present: No
Reference Spectrum Present: No
Number of Sampled Component Spectra: 1
Spectrometers: USB2+H05261
Integration Time (usec): 100000 (USB2+H05261)
Spectra Averaged: 1 (USB2+H05261)
Boxcar Smoothing: 0 (USB2+H05261)
Correct for Electrical Dark: No (USB2+H05261)
Strobe/Lamp Enabled: No (USB2+H05261)
Correct for Detector Non-linearity: No (USB2+H05261)
Correct for Stray Light: No (USB2+H05261)
Number of Pixels in Processed Spectrum: 2048
>>>>>Begin Processed Spectral Data<<<<<
365.73	271.50
365.92	271.50
366.12	271.50
366.32	215.33
366.52	182.56
366.72	234.05
366.91	84.26
367.11	241.08
367.31	166.18
367.51	117.03
367.70	119.37
367.90	222.35
368.10	159.16
368.30	177.88
368.49	217.67
368.69	255.12
368.89	224.69
369.09	196.60
369.28	231.71
369.48	234.05
369.68	168.52
369.87	234.05
370.07	205.97
370.27	285.55
370.47	301.93
370.66	543.00
370.86	550.03
371.06	578.11
371.25	601.52
371.45	538.32
371.65	491.51
371.84	575.77
372.04	599.18
372.24	554.71
372.44	601.52
372.63	517.26
372.83	606.20
373.03	589.82
373.22	617.90
373.42	641.31
373.62	641.31
373.81	606.20
374.01	627.26
374.21	650.67
374.40	631.94
374.60	641.31
374.79	620.24
374.99	690.46
375.19	653.01
375.38	732.59
375.58	688.12
375.78	634.29
375.97	638.97
376.17	674.07
376.37	723.23
376.56	716.20
376.76	681.10
376.95	650.67
377.15	674.07
377.35	709.18
377.54	622.58
377.74	720.88
377.93	655.35
378.13	692.80
378.33	685.78
378.52	758.33
378.72	683.44
378.91	786.42
379.11	711.52
379.31	753.65
379.50	716.20
379.70	758.33
379.89	688.12
380.09	683.44
380.28	711.52
380.48	655.35
380.68	732.59
380.87	770.04
381.07	737.27
381.26	751.31
381.46	816.85
381.65	746.63
381.85	737.27
382.04	739.61
382.24	706.84
382.43	772.38
382.63	744.29
382.83	765.36
383.02	851.96
383.22	884.72
383.41	765.36
383.61	784.08
383.80	870.68
384.00	812.17
384.19	772.38
384.39	866.00
384.58	858.98
384.78	826.21
384.97	866.00
385.17	849.61
385.36	765.36
385.56	887.06
385.75	835.57
385.95	777.06
386.14	847.27
386.34	866.00
386.53	868.34
386.72	807.48
386.92	898.77
387.11	835.57
387.31	994.73
387.50	894.08
387.70	940.90
387.89	898.77
388.09	903.45
388.28	950.26
388.48	903.45
388.67	929.19
388.86	933.87
389.06	964.30
389.25	917.49
389.45	992.39
389.64	957.28
389.84	926.85
390.03	873.02
390.22	1001.75
390.42	992.39
390.61	891.74
390.81	1001.75
391.00	1001.75
391.19	1001.75
391.39	1048.56
391.58	1053.24
391.78	973.66
391.97	898.77
392.16	1027.50
392.36	1057.92
392.55	1062.60
392.75	1029.84
392.94	1036.86
393.13	1086.01
393.33	1025.15
393.52	1086.01
393.71	1036.86
393.91	1088.35
394.10	987.71
394.29	1137.50
394.49	1107.07
394.68	1104.73
394.88	1123.46
395.07	1156.22
395.26	1116.44
395.46	1116.44
395.65	1149.20
395.84	1130.48
396.04	1296.66
396.23	1151.54
396.42	1153.88
396.62	1160.91
396.81	1179.63
397.00	1111.75
397.19	1235.80
397.39	1193.67
397.58	1277.93
397.77	1233.46
397.97	1247.51
398.16	1308.36
398.35	1242.82
398.55	1254.53
398.74	1212.40
398.93	1303.68
399.12	1277.93
399.32	1294.32
399.51	1280.27
399.70	1334.11
399.90	1416.02
400.09	1425.39
400.28	1418.36
400.47	1336.45
400.67	1306.02
400.86	1441.77
401.05	1308.36
401.24	1460.49
401.44	1455.81
401.63	1455.81
401.82	1479.22
402.01	1472.20
402.21	1399.64
402.40	1397.30
402.59	1495.60
402.78	1448.79
402.97	1584.54
403.17	1544.75
403.36	1488.58
403.55	1643.06
403.74	1575.18
403.93	1680.50
404.13	1643.06
404.32	1607.95
404.51	1654.76
404.70	1708.59
404.89	1565.82
405.09	1671.14
405.28	1717.95
405.47	1774.13
405.66	1633.69
405.85	1771.79
406.05	1741.36
406.24	1748.38
406.43	1708.59
406.62	1739.02
406.81	1944.99
407.00	1795.19
407.20	1830.30
407.39	1790.51
407.58	1827.96
407.77	1834.98
407.96	1928.60
408.15	1907.54
408.34	1849.02
408.54	1905.20
408.73	1926.26
408.92	1937.96
409.11	2010.52
409.30	1952.01
409.49	2111.16
409.68	2113.50
409.87	1994.14
410.07	1961.37
410.26	2050.31
410.45	2045.63
410.64	2026.90
410.83	2207.13
411.02	2129.89
411.21	2298.41
411.40	2223.51
411.59	2190.74
411.78	2354.58
411.98	2188.40
412.17	2176.70
412.36	2324.15
412.55	2298.41
412.74	2335.85
412.93	2382.67
413.12	2361.60
413.31	2331.17
413.50	2415.43
413.69	2370.96
413.88	2562.89
414.07	2495.01
414.26	2476.29
414.45	2530.12
414.64	2499.69
414.83	2534.80
415.02	2642.46
415.22	2562.89
415.41	2600.34
415.60	2649.49
415.79	2595.65
415.98	2722.04
416.17	2644.81
416.36	2857.79
416.55	2759.49
416.74	2810.98
416.93	2843.75
417.12	2825.03
417.31	2864.82
417.50	2920.99
417.69	2928.01
417.88	2836.73
418.07	2970.14
418.26	2916.31
418.45	2960.78
418.64	3073.12
418.83	3047.38
419.02	3038.02
419.21	3199.51
419.39	3187.81
419.58	3054.40
419.77	3040.36
419.96	3087.17
420.15	3201.85
420.34	3126.96
420.53	3124.62
420.72	3197.17
420.91	3279.09
421.10	3288.45
421.29	3318.88
421.48	3243.98
421.67	3290.79
421.86	3239.30
422.05	3328.24
422.24	3328.24
422.43	3353.99
422.61	3433.57
422.80	3424.20
422.99	3344.63
423.18	3417.18
423.37	3361.01
423.56	3389.10
423.75	3276.75
423.94	3325.90
424.13	3243.98
424.32	3304.84
424.50	3559.95
424.69	3454.63
424.88	3506.12
425.07	3517.83
425.26	3456.97
425.45	3454.63
425.64	3501.44
425.83	3471.01
426.01	3531.87
426.20	3346.97
426.39	3499.10
426.58	3503.78
426.77	3454.63
426.96	3454.63
427.15	3641.87
427.33	3529.53
427.52	3613.79
427.71	3686.34
427.90	3585.70
428.09	3698.05
428.28	3707.41
428.46	3634.85
428.65	3609.11
428.84	3782.31
429.03	3852.52
429.22	3810.39
429.40	3730.81
429.59	3932.10
429.78	3602.08
429.97	3676.98
430.16	3906.35
430.34	3840.82
430.53	3943.80
430.72	3700.39
430.91	3911.04
431.10	3737.84
431.28	3899.33
431.47	4063.17
431.66	3985.93
431.85	3845.50
432.03	3901.67
432.22	4198.92
432.41	4147.43
432.60	4152.11
432.79	4138.07
432.97	4117.00
433.16	4119.34
433.35	4292.54
433.54	4201.26
433.72	4227.01
433.91	4294.88
434.10	4250.41
434.28	4133.39
434.47	4217.65
434.66	4280.84
434.85	4142.75
435.03	4369.78
435.22	4376.80
435.41	4624.90
435.59	4447.02
435.78	4456.38
435.97	4566.39
436.16	4252.75
436.34	4461.06
436.53	4456.38
436.72	4643.62
436.90	4402.55
437.09	4557.02
437.28	4451.70
437.46	4599.15
437.65	4575.75
437.84	4440.00
438.02	4732.56
438.21	4601.49
438.40	4603.83
438.58	4720.86
438.77	4823.84
438.96	4868.31
439.14	4730.22
439.33	4933.85
439.52	4887.04
439.70	4905.76
439.89	4903.42
440.08	4924.49
440.26	5114.07
440.45	4880.02
440.63	5158.54
440.82	5123.43
441.01	5151.52
441.19	5181.95
441.38	5144.50
441.57	5212.37
441.75	5174.92
441.94	5378.55
442.12	5383.23
442.31	5462.81
442.50	5589.20
442.68	5366.85
442.87	5446.43
443.05	5551.75
443.24	5689.84
443.43	5547.07
443.61	5495.58
443.80	5657.07
443.98	5596.22
444.17	5301.31
444.35	5591.54
444.54	5628.99
444.73	5628.99
444.91	5687.50
445.10	5657.07
445.28	5689.84
445.47	5577.50
445.65	5507.28
445.84	5771.76
446.02	5696.86
446.21	5680.48
446.39	5769.42
446.58	5799.85
446.77	5738.99
446.95	5727.29
447.14	5767.08
447.32	5802.19
447.51	5713.25
447.69	5678.14
447.88	5827.93
448.06	5886.45
448.25	5816.23
448.43	5795.17
448.62	5863.04
448.80	5748.36
448.99	5891.13
449.17	5949.64
449.36	5963.68
449.54	5905.17
449.73	5968.37
449.91	6225.82
450.10	6115.82
450.28	6209.44
450.46	6282.00
450.65	6167.31
450.83	6237.53
451.02	6143.91
451.20	6228.17
451.39	6162.63
451.57	6160.29
451.76	6249.23
451.94	6132.20
452.13	6298.38
452.31	6183.70
452.49	6148.59
452.68	6326.47
452.86	6354.55
453.05	6349.87
453.23	6307.74
453.42	6303.06
453.60	6345.19
453.78	6483.28
453.97	6328.81
454.15	6331.15
454.34	6485.62
454.52	6647.12
454.70	6637.76
454.89	6537.12
455.07	6691.59
455.26	6722.02
455.44	6808.62
455.62	6803.94
455.81	6471.58
455.99	6698.61
456.17	6773.51
456.36	6707.98
456.54	6740.74
456.73	6820.32
456.91	7173.74
457.09	6927.99
457.28	7040.33
457.46	6883.52
457.64	7016.93
457.83	7150.34
458.01	7082.46
458.19	7321.20
458.38	7129.27
458.56	7201.83
458.74	7098.84
458.93	7140.97
459.11	7173.74
459.29	7475.67
459.48	7250.98
459.66	7213.53
459.84	7396.09
460.03	7510.78
460.21	7353.96
460.39	7405.46
460.57	7375.03
460.76	7382.05
460.94	7527.16
461.12	7793.98
461.31	7569.29
461.49	7581.00
461.67	7414.82
461.85	7719.09
462.04	7672.28
462.22	8037.40
462.40	7826.75
462.59	7852.50
462.77	7723.77
462.95	7852.50
463.13	7742.49
463.32	7964.84
463.50	8058.46
463.68	7964.84
463.86	8011.65
464.05	7922.71
464.23	7822.07
464.41	7953.14
464.59	7918.03
464.78	7815.05
464.96	8032.72
465.14	7967.18
465.32	8102.93
465.50	8245.71
465.69	8102.93
465.87	8156.77
466.05	8184.85
466.23	8229.32
466.41	8245.71
466.60	8521.89
466.78	8175.49
466.96	8219.96
467.14	8269.11
467.32	8451.67
467.51	8526.57
467.69	8241.03
467.87	8341.67
468.05	8573.38
468.23	8379.12
468.41	8341.67
468.60	8461.04
468.78	8402.52
468.96	8409.54
469.14	8564.02
469.32	8688.07
469.50	8355.71
469.69	8695.09
469.87	8727.86
470.05	8767.65
470.23	8847.22
470.41	8919.78
470.59	8978.30
470.77	8879.99
470.95	8961.91
471.14	9043.83
471.32	8870.63
471.50	9022.77
471.68	8950.21
471.86	9067.24
472.04	9191.28
472.22	9373.85
472.40	9032.13
472.58	9170.22
472.77	9249.80
472.95	9383.21
473.13	9755.35
473.31	9453.42
473.49	9722.59
473.67	9462.79
473.85	9617.26
474.03	9528.32
474.21	9647.69
474.39	9870.04
474.57	9755.35
474.75	10040.90
474.93	9792.80
475.12	9841.95
475.30	10104.09
475.48	10059.62
475.66	10169.63
475.84	10071.33
476.02	10326.44
476.20	10237.50
476.38	10335.81
476.56	10616.67
476.74	10572.20
476.92	10366.23
477.10	10455.17
477.28	11002.86
477.46	10597.95
477.64	10771.15
477.82	11009.88
478.00	11211.17
478.18	11091.80
478.36	11332.87
478.54	11386.71
478.72	11241.59
478.90	11606.72
479.08	11719.06
479.26	11698.00
479.44	11712.04
479.62	11889.92
479.80	11812.68
479.98	11955.46
480.16	12074.82
480.34	12121.63
480.52	12395.48
480.70	12376.75
480.88	12116.95
481.06	12269.09
481.24	12528.89
481.41	12634.21
481.59	12769.96
481.77	13027.42
481.95	13050.83
482.13	13224.03
482.31	13034.44
482.49	13385.52
482.67	13352.76
482.85	13366.80
483.03	13638.30
483.21	13839.59
483.39	13537.66
483.57	13745.97
483.74	14174.28
483.92	14239.82
484.10	13998.74
484.28	14347.48
484.46	14361.53
484.64	14768.78
484.82	14569.83
485.00	14520.68
485.18	15115.18
485.35	14829.63
485.53	15143.27
485.71	15126.88
485.89	15583.29
486.07	15248.59
486.25	15283.70
486.43	15611.37
486.61	15861.81
486.78	16004.58
486.96	15948.41
487.14	16060.76
487.32	16222.25
487.50	16229.27
487.68	16641.21
487.85	16542.91
488.03	16903.35
488.21	16872.92
488.39	16872.92
488.57	17406.56
488.75	17209.96
488.92	17387.84
489.10	17635.94
489.28	17633.60
489.46	17858.29
489.64	18029.15
489.81	18001.06
489.99	18279.58
490.17	18195.32
490.35	18476.19
490.53	18717.26
490.70	18735.99
490.88	18668.11
491.06	19042.60
491.24	19264.95
491.41	19239.20
491.59	19496.66
491.77	19473.26
491.95	19468.58
492.13	19534.11
492.30	19506.02
492.48	19981.15
492.66	19772.85
492.84	20070.09
493.01	20418.83
493.19	20542.88
493.37	20226.91
493.54	20383.73
493.72	20940.77
493.90	20676.29
494.08	21158.44
494.25	21097.59
494.43	20994.61
494.61	21420.58
494.79	20903.32
494.96	21380.79
495.14	21343.35
495.32	21722.51
495.49	21860.60
495.67	21607.83
495.85	22045.51
496.02	22040.82
496.20	22504.25
496.38	22602.55
496.55	22588.51
496.73	22981.72
496.91	22810.86
497.09	22822.56
497.26	23145.56
497.44	23145.56
497.62	23035.55
497.79	23747.08
497.97	23175.98
498.14	23398.34
498.32	23744.73
498.50	23782.18
498.67	24039.64
498.85	23768.14
499.03	24355.61
499.20	24442.21
499.38	24294.76
499.56	24250.29
499.73	24259.65
499.91	24797.98
500.08	24938.41
500.26	24531.15
500.44	24865.85
500.61	25167.78
500.79	24746.48
500.97	25214.59
501.14	25523.54
501.32	25350.34
501.49	25331.62
501.67	25652.27
501.84	25469.71
502.02	25621.84
502.20	25633.55
502.37	25954.20
502.55	25525.88
502.72	25582.06
502.90	25996.33
503.07	25902.71
503.25	25865.26
503.43	26422.31
503.60	26347.41
503.78	26412.95
503.95	26396.56
504.13	26583.80
504.30	26948.93
504.48	26782.75
504.65	27021.48
504.83	27218.09
505.01	27433.42
505.18	27328.10
505.36	27150.21
505.53	27548.11
505.71	27749.39
505.88	27672.15
506.06	27482.57
506.23	28011.53
506.41	27777.48
506.58	27922.59
506.76	27817.27
506.93	28334.53
507.11	28226.86
507.28	28407.08
507.46	28280.69
507.63	28374.31
507.81	28442.19
507.98	28189.41
508.16	28559.22
508.33	29088.18
508.50	28519.43
508.68	28786.25
508.85	29338.62
509.03	29116.26
509.20	28797.95
509.38	29350.32
509.55	29713.10
509.73	29556.28
509.90	29184.14
510.08	29261.38
510.25	29673.31
510.42	29717.78
510.60	30000.99
510.77	30157.80
510.95	30242.06
511.12	29710.76
511.30	30087.59
511.47	30050.14
511.64	30476.12
511.82	30504.20
511.99	30115.67
512.17	30778.04
512.34	30771.02
512.51	30948.90
512.69	30976.99
512.86	31007.42
513.04	30937.20
513.21	31534.04
513.38	31236.79
513.56	31164.23
513.73	30930.18
513.90	31395.95
514.08	31250.83
514.25	31763.41
514.43	31538.72
514.60	31742.35
514.77	32006.83
514.95	31828.95
515.12	31761.07
515.29	31655.75
515.47	31981.08
515.64	32154.28
515.81	31873.42
515.99	32229.18
516.16	32290.03
516.33	32313.44
516.51	32575.58
516.68	32261.94
516.85	32795.59
517.03	32701.96
517.20	32950.06
517.37	32467.91
517.54	33343.27
517.72	33085.81
517.89	32823.67
518.06	32882.19
518.24	33638.18
518.41	33078.79
518.58	33275.40
518.75	33453.28
518.93	33542.22
519.10	33497.75
519.27	33282.42
519.45	33841.81
519.62	33345.61
519.79	34106.29
519.96	34099.26
520.14	34160.12
520.31	33783.29
520.48	34293.53
520.65	34085.22
520.83	34490.13
521.00	34267.78
521.17	34733.55
521.34	34462.05
521.52	35218.04
521.69	34691.42
521.86	34796.74
522.03	35187.61
522.20	34773.34
522.38	35204.00
522.55	34939.52
522.72	34827.17
522.89	35330.39
523.07	35594.87
523.24	35105.70
523.41	35037.82
523.58	35328.05
523.75	35590.19
523.92	35728.28
524.10	35552.74
524.27	35929.56
524.44	35416.99
524.61	36030.21
524.78	36294.69
524.96	36198.73
525.13	36409.37
525.30	36634.06
525.47	35959.99
525.64	36170.64
525.81	36418.74
525.98	36561.51
526.16	36137.87
526.33	36151.91
526.50	36758.11
526.67	36217.45
526.84	36706.62
527.01	36877.48
527.18	36814.29
527.36	37053.02
527.53	36690.24
527.70	37092.81
527.87	37523.47
528.04	37221.54
528.21	37158.34
528.38	37144.30
528.55	37266.01
528.72	37270.69
528.89	37181.75
529.07	37195.79
529.24	37235.58
529.41	37720.07
529.58	37350.27
529.75	37347.93
529.92	37570.28
530.09	37748.16
530.26	38106.26
530.43	37823.06
530.60	37935.40
530.77	37844.12
530.94	38593.09
531.11	37968.17
531.28	38281.80
531.46	38560.33
531.63	38204.56
531.80	38405.85
531.97	38527.56
532.14	38579.05
532.31	38370.74
532.48	38644.59
532.65	38768.63
532.82	38380.10
532.99	38909.07
533.16	39091.63
533.33	38986.30
533.50	39159.50
533.67	38534.58
533.84	38700.76
534.01	38686.71
534.18	38916.09
534.35	39480.16
534.52	39564.42
534.69	39374.83
534.86	39557.39
535.03	39295.25
535.20	39765.70
535.37	39709.53
535.54	39660.38
535.71	39690.80
535.88	39732.93
536.05	39814.85
536.22	39903.79
536.38	39758.68
536.55	39662.72
536.72	39800.81
536.89	39791.45
537.06	40247.85
537.23	39971.67
537.40	39763.36
537.57	39957.63
537.74	40037.20
537.91	40165.93
538.08	40130.83
538.25	39899.11
538.42	39992.73
538.59	40800.22
538.75	40273.60
538.92	40446.80
539.09	40921.93
539.26	40517.01
539.43	40896.18
539.60	40617.66
539.77	40659.79
539.94	40854.05
540.11	40868.09
540.28	41172.36
540.44	41106.83
540.61	41013.21
540.78	40809.58
540.95	40987.46
541.12	40741.71
541.29	41027.25
541.46	41205.13
541.62	41078.74
541.79	41581.96
541.96	40914.90
542.13	41120.87
542.30	41535.15
542.47	41439.18
542.63	41397.06
542.80	41504.72
542.97	41897.93
543.14	41626.43
543.31	41706.01
543.48	42284.12
543.64	42178.79
543.81	42462.00
543.98	42377.74
544.15	42426.89
544.32	42260.71
544.48	42452.64
544.65	42497.11
544.82	42822.44
544.99	42150.71
545.16	42333.27
545.32	42410.51
545.49	42593.07
545.66	42965.21
545.83	42822.44
546.00	42836.48
546.16	42733.50
546.33	42761.59
546.50	42630.52
546.67	43206.29
546.83	42307.52
547.00	42417.53
547.17	42677.33
547.34	42761.59
547.50	43257.78
547.67	43463.75
547.84	42696.05
548.00	43225.01
548.17	43765.68
548.34	43302.25
548.51	43772.70
548.67	43672.06
548.84	43047.13
549.01	43192.25
549.18	43330.34
549.34	43896.75
549.51	44055.90
549.68	43789.08
549.84	43505.88
550.01	43899.09
550.18	44011.43
550.34	43543.33
550.51	43604.18
550.68	43826.53
550.84	43452.05
551.01	44060.58
551.18	43714.19
551.34	43913.13
551.51	44128.46
551.68	44088.67
551.84	44121.44
552.01	43742.27
552.18	44315.70
552.34	43856.96
552.51	44086.33
552.68	43826.53
552.84	44264.21
553.01	44416.35
553.18	43910.79
553.34	44484.22
553.51	44172.93
553.67	44329.75
553.84	44910.20
554.01	44655.08
554.17	44479.54
554.34	44856.37
554.51	44935.95
554.67	44980.42
554.84	44619.97
555.00	44966.37
555.17	44622.31
555.33	44694.87
555.50	44626.99
555.67	44498.26
555.83	45137.23
556.00	44758.06
556.16	45965.78
556.33	44739.34
556.50	45251.92
556.66	45184.04
556.83	44811.90
556.99	45411.07
557.16	45338.52
557.32	44957.01
557.49	45514.06
557.65	45057.65
557.82	44849.35
557.98	45427.46
558.15	45439.16
558.32	45221.49
558.48	45551.51
558.65	45492.99
558.81	45331.50
558.98	45371.28
559.14	45427.46
559.31	45467.25
559.47	45310.43
559.64	45663.85
559.80	45652.15
559.97	45825.35
560.13	45404.05
560.30	45729.39
560.46	45982.16
560.63	45736.41
560.79	45790.24
560.96	46085.15
561.12	45530.44
561.29	46279.41
561.45	46213.88
561.61	45663.85
561.78	45553.85
561.94	45787.90
562.11	45633.42
562.27	45801.94
562.44	46220.90
562.60	46014.93
562.77	46085.15
562.93	45844.07
563.10	46024.29
563.26	45975.14
563.42	46113.23
563.59	46174.09
563.75	45701.30
563.92	46447.93
564.08	45839.39
564.24	46251.33
564.41	46174.09
564.57	46057.06
564.74	46272.39
564.90	45787.90
565.07	46253.67
565.23	46515.81
565.39	46216.22
565.56	46424.53
565.72	46354.31
565.88	46192.81
566.05	46377.72
566.21	46356.65
566.38	46225.58
566.54	46358.99
566.70	46768.58
566.87	46307.50
567.03	46564.96
567.19	46569.64
567.36	46443.25
567.52	46859.87
567.68	46808.37
567.85	46639.86
568.01	46864.55
568.17	47019.02
568.34	46742.84
568.50	46761.56
568.66	46562.62
568.83	46618.79
568.99	46635.17
569.15	46927.74
569.32	46773.27
569.48	46522.83
569.64	47023.70
569.81	46745.18
569.97	47026.04
570.13	47037.75
570.30	46277.07
570.46	47051.79
570.62	46677.30
570.78	47133.71
570.95	46838.80
571.11	47021.36
571.27	46834.12
571.43	46707.73
571.60	47388.83
571.76	46740.50
571.92	46642.20
572.09	46417.50
572.25	46454.95
572.41	46965.19
572.57	46894.97
572.74	47133.71
572.90	47435.64
573.06	47227.33
573.22	46890.29
573.38	46993.28
573.55	46958.17
573.71	47276.48
573.87	47470.75
574.03	47274.14
574.20	47454.36
574.36	47313.93
574.52	46967.53
574.68	47159.45
574.84	47484.79
575.01	47367.76
575.17	47222.65
575.33	47323.29
575.49	47292.86
575.65	47480.11
575.82	47203.92
575.98	46815.40
576.14	47384.15
576.30	47454.36
576.46	46939.44
576.62	46951.15
576.79	47063.49
576.95	46993.28
577.11	46909.02
577.27	47068.17
577.43	47159.45
577.59	47470.75
577.75	46923.06
577.92	46979.23
578.08	47119.66
578.24	47437.98
578.40	47349.04
578.56	47571.39
578.72	47374.78
578.88	47185.20
579.04	47697.78
579.21	47496.49
579.37	47459.04
579.53	47463.72
579.69	47206.26
579.85	47098.60
580.01	48058.22
580.17	47224.99
580.33	47756.29
580.49	47540.96
580.65	47620.54
580.82	47030.72
580.98	47402.87
581.14	46817.74
581.30	47555.00
581.46	47285.84
581.62	47384.15
581.78	47098.60
581.94	47707.14
582.10	47110.30
582.26	47400.53
582.42	47597.13
582.58	47639.26
582.74	47566.71
582.90	47089.24
583.06	47938.85
583.22	47318.61
583.38	47683.73
583.54	47262.44
583.70	47386.49
583.86	47667.35
584.02	47672.03
584.18	47632.24
584.34	47505.85
584.50	48011.41
584.66	47782.04
584.82	47409.89
584.98	48126.10
585.14	47468.40
585.30	47363.08
585.46	47449.68
585.62	47365.42
585.78	47370.10
585.94	47327.97
586.10	47461.38
586.26	47393.51
586.42	47613.52
586.58	47522.24
586.74	47351.38
586.90	47550.32
587.06	47412.23
587.22	47803.10
587.38	47550.32
587.54	47819.49
587.70	47674.37
587.86	47566.71
588.02	47224.99
588.18	47318.61
588.34	47470.75
588.49	47496.49
588.65	47166.48
588.81	47690.76
588.97	47842.89
589.13	47995.03
589.29	47669.69
589.45	48231.42
589.61	47885.02
589.77	48299.30
589.93	47732.89
