SpectraSuite Data File
++++++++++++++++++++++++++++++++++++
Date: Fri Oct 25 10:48:34 EDT 2013
User: price-jones
Dark Spectrum Present: No
Reference Spectrum Present: No
Number of Sampled Component Spectra: 1
Spectrometers: USB2+H05261
Integration Time (usec): 100000 (USB2+H05261)
Spectra Averaged: 1 (USB2+H05261)
Boxcar Smoothing: 0 (USB2+H05261)
Correct for Electrical Dark: No (USB2+H05261)
Strobe/Lamp Enabled: No (USB2+H05261)
Correct for Detector Non-linearity: No (USB2+H05261)
Correct for Stray Light: No (USB2+H05261)
Number of Pixels in Processed Spectrum: 2048
>>>>>Begin Processed Spectral Data<<<<<
365.73	154.48
365.92	154.48
366.12	154.48
366.32	39.79
366.52	0.00
366.72	18.72
366.91	35.11
367.11	21.06
367.31	81.92
367.51	60.85
367.70	67.88
367.90	9.36
368.10	30.43
368.30	53.83
368.49	95.96
368.69	44.47
368.89	74.90
369.09	110.01
369.28	35.11
369.48	105.32
369.68	98.30
369.87	124.05
370.07	67.88
370.27	84.26
370.47	208.31
370.66	379.17
370.86	489.17
371.06	472.79
371.25	479.81
371.45	449.38
371.65	496.19
371.84	465.77
372.04	514.92
372.24	461.09
372.44	484.49
372.63	496.19
372.83	510.24
373.03	573.43
373.22	559.39
373.42	543.00
373.62	568.75
373.81	596.84
374.01	585.13
374.21	594.50
374.40	578.11
374.60	601.52
374.79	641.31
374.99	615.56
375.19	557.05
375.38	636.63
375.58	655.35
375.78	613.22
375.97	674.07
376.17	751.31
376.37	657.69
376.56	610.88
376.76	561.73
376.95	641.31
377.15	706.84
377.35	699.82
377.54	660.03
377.74	699.82
377.93	767.70
378.13	727.91
378.33	711.52
378.52	695.14
378.72	683.44
378.91	765.36
379.11	671.73
379.31	573.43
379.50	631.94
379.70	725.57
379.89	718.54
380.09	716.20
380.28	744.29
380.48	758.33
380.68	709.18
380.87	772.38
381.07	777.06
381.26	758.33
381.46	739.61
381.65	772.38
381.85	716.20
382.04	746.63
382.24	746.63
382.43	751.31
382.63	711.52
382.83	777.06
383.02	730.25
383.22	763.01
383.41	765.36
383.61	809.83
383.80	884.72
384.00	777.06
384.19	816.85
384.39	866.00
384.58	805.14
384.78	868.34
384.97	936.21
385.17	905.79
385.36	816.85
385.56	809.83
385.75	866.00
385.95	812.17
386.14	910.47
386.34	809.83
386.53	891.74
386.72	882.38
386.92	933.87
387.11	945.58
387.31	854.30
387.50	929.19
387.70	919.83
387.89	985.37
388.09	905.79
388.28	938.55
388.48	926.85
388.67	987.71
388.86	997.07
389.06	968.98
389.25	1060.26
389.45	1013.45
389.64	1039.20
389.84	1074.31
390.03	1071.97
390.22	1090.69
390.42	1025.15
390.61	1039.20
390.81	1114.10
391.00	1057.92
391.19	1109.41
391.39	1139.84
391.58	1144.52
391.78	1083.67
391.97	1163.25
392.16	1074.31
392.36	1020.47
392.55	1114.10
392.75	1036.86
392.94	1064.94
393.13	1074.31
393.33	1118.78
393.52	1074.31
393.71	1165.59
393.91	1135.16
394.10	1163.25
394.29	1198.35
394.49	1245.16
394.68	1252.19
394.88	1310.70
395.07	1219.42
395.26	1270.91
395.46	1231.12
395.65	1306.02
395.84	1315.38
396.04	1268.57
396.23	1170.27
396.42	1249.85
396.62	1275.59
396.81	1193.67
397.00	1277.93
397.19	1371.55
397.39	1336.45
397.58	1425.39
397.77	1514.33
397.97	1434.75
398.16	1479.22
398.35	1495.60
398.55	1469.86
398.74	1511.99
398.93	1614.97
399.12	1619.65
399.32	1614.97
399.51	1643.06
399.70	1682.85
399.90	1666.46
400.09	1619.65
400.28	1675.82
400.47	1645.40
400.67	1720.29
400.86	1727.32
401.05	1788.17
401.24	1746.04
401.44	1778.81
401.63	1743.70
401.82	1834.98
402.01	1776.47
402.21	1804.55
402.40	1858.39
402.59	1804.55
402.78	1860.73
402.97	1755.40
403.17	1844.34
403.36	1975.41
403.55	1839.66
403.74	1942.64
403.93	2003.50
404.13	1963.71
404.32	1933.28
404.51	1818.60
404.70	2029.24
404.89	1994.14
405.09	2066.69
405.28	2078.40
405.47	2052.65
405.66	2019.88
405.85	2019.88
406.05	2085.42
406.24	1944.99
406.43	2087.76
406.62	2188.40
406.81	2176.70
407.00	2108.82
407.20	2083.08
407.39	2165.00
407.58	2275.00
407.77	2277.34
407.96	2207.13
408.15	2317.13
408.34	2359.26
408.54	2452.88
408.73	2277.34
408.92	2424.80
409.11	2359.26
409.30	2429.48
409.49	2324.15
409.68	2321.81
409.87	2321.81
410.07	2462.24
410.26	2471.61
410.45	2399.05
410.64	2558.21
410.83	2656.51
411.02	2546.50
411.21	2635.44
411.40	2572.25
411.59	2581.61
411.78	2647.15
411.98	2715.02
412.17	2761.83
412.36	2677.57
412.55	2780.56
412.74	2909.29
412.93	2796.94
413.12	2864.82
413.31	2953.76
413.50	2850.77
413.69	2977.16
413.88	3045.04
414.07	3019.29
414.26	3087.17
414.45	3131.64
414.64	3115.25
414.83	3105.89
415.02	3021.63
415.22	3169.09
415.41	3232.28
415.60	3150.36
415.79	3321.22
415.98	3281.43
416.17	3417.18
416.36	3365.69
416.55	3375.05
416.74	3311.86
416.93	3447.61
417.12	3356.33
417.31	3508.46
417.50	3405.48
417.69	3543.57
417.88	3616.13
418.07	3651.24
418.26	3487.40
418.45	3613.79
418.64	3925.08
418.83	3695.71
419.02	3669.96
419.21	3789.33
419.39	3613.79
419.58	3599.74
419.77	3599.74
419.96	3723.79
420.15	3875.93
420.34	3784.65
420.53	3904.01
420.72	4002.32
420.91	4081.89
421.10	3955.51
421.29	3955.51
421.48	3826.78
421.67	3948.48
421.86	3899.33
422.05	3943.80
422.24	3943.80
422.43	3962.53
422.61	3948.48
422.80	4049.13
422.99	3955.51
423.18	4156.79
423.37	4131.05
423.56	4079.55
423.75	4065.51
423.94	4021.04
424.13	3852.52
424.32	3845.50
424.50	4124.02
424.69	4133.39
424.88	4196.58
425.07	4091.26
425.26	4014.02
425.45	4037.42
425.64	4023.38
425.83	3922.74
426.01	4081.89
426.20	4093.60
426.39	4140.41
426.58	4170.83
426.77	4046.79
426.96	4257.43
427.15	4086.58
427.33	4329.99
427.52	4177.86
427.71	4196.58
427.90	4145.09
428.09	4306.59
428.28	4320.63
428.46	4241.05
428.65	4140.41
428.84	4407.23
429.03	4325.31
429.22	4205.94
429.40	4301.90
429.59	4327.65
429.78	4168.49
429.97	4112.32
430.16	4124.02
430.34	4222.33
430.53	4304.25
430.72	4264.46
430.91	4344.03
431.10	4496.17
431.28	4645.96
431.47	4741.93
431.66	4690.43
431.85	4685.75
432.03	4772.35
432.22	4924.49
432.41	4683.41
432.60	4816.82
432.79	4858.95
432.97	4971.30
433.16	4873.00
433.35	4901.08
433.54	4805.12
433.72	4844.91
433.91	4868.31
434.10	4854.27
434.28	4863.63
434.47	5036.83
434.66	5039.17
434.85	5076.62
435.03	5114.07
435.22	5195.99
435.41	5348.12
435.59	5132.79
435.78	5219.39
435.97	5310.68
436.16	5404.30
436.34	5476.85
436.53	5472.17
436.72	5404.30
436.90	5355.15
437.09	5373.87
437.28	5284.93
437.46	5287.27
437.65	5404.30
437.84	5390.25
438.02	5392.59
438.21	5493.24
438.40	5364.51
438.58	5724.95
438.77	5584.52
438.96	5591.54
439.14	5795.17
439.33	5781.12
439.52	5804.53
439.70	5998.79
439.89	5970.71
440.08	5923.90
440.26	5851.34
440.45	5841.98
440.63	6099.44
440.82	6200.08
441.01	6209.44
441.19	6033.90
441.38	6361.58
441.57	6232.85
441.75	6436.47
441.94	6494.99
442.12	6520.73
442.31	6745.42
442.50	6403.71
442.68	6370.94
442.87	6567.54
443.05	6658.82
443.24	6682.23
443.43	6628.40
443.61	6675.21
443.80	6862.45
443.98	6406.05
444.17	6530.09
444.35	6761.81
444.54	6911.60
444.73	6803.94
444.91	6726.70
445.10	6665.85
445.28	6722.02
445.47	6740.74
445.65	6672.87
445.84	6642.44
446.02	6817.98
446.21	6789.89
446.39	6752.45
446.58	6862.45
446.77	6991.18
446.95	6808.62
447.14	7119.91
447.32	7059.06
447.51	7016.93
447.69	6913.94
447.88	6916.28
448.06	7002.88
448.25	7033.31
448.43	6869.47
448.62	6920.96
448.80	7000.54
448.99	7115.23
449.17	7281.41
449.36	7110.55
449.54	7215.87
449.73	7281.41
449.91	7274.38
450.10	7384.39
450.28	7499.08
450.46	7475.67
450.65	7372.69
450.83	7529.50
451.02	7447.58
451.20	7620.78
451.39	7590.36
451.57	7557.59
451.76	7412.48
451.94	7461.63
452.13	7543.55
452.31	7524.82
452.49	7421.84
452.68	7419.50
452.86	7358.64
453.05	7470.99
453.23	7531.84
453.42	7403.11
453.60	7487.37
453.78	7712.07
453.97	7473.33
454.15	7726.11
454.34	7658.23
454.52	7840.79
454.70	7721.43
454.89	7817.39
455.07	7655.89
455.26	7801.01
455.44	7946.12
455.62	7969.52
455.81	8133.36
455.99	8056.12
456.17	7978.89
456.36	8114.64
456.54	8210.60
456.73	8189.53
456.91	8238.69
457.09	8477.42
457.28	8636.58
457.46	8140.38
457.64	8631.90
457.83	8517.21
458.01	8187.19
458.19	8528.91
458.38	8376.78
458.56	8648.28
458.74	8732.54
458.93	8442.31
459.11	8564.02
459.29	8709.13
459.48	8690.41
459.66	8622.53
459.84	8636.58
460.03	8762.97
460.21	8912.76
460.39	8692.75
460.57	9060.21
460.76	8844.88
460.94	8954.89
461.12	8865.95
461.31	9053.19
461.49	8987.66
461.67	9034.47
461.85	9109.36
462.04	8987.66
462.22	9596.20
462.40	9076.60
462.59	9128.09
462.77	9394.91
462.95	9287.25
463.13	9280.22
463.32	9380.87
463.50	9268.52
463.68	9261.50
463.86	9350.44
464.05	9202.99
464.23	9172.56
464.41	9448.74
464.59	9114.05
464.78	9600.88
464.96	9320.01
465.14	9376.19
465.32	9504.92
465.50	9511.94
465.69	9600.88
465.87	9558.75
466.05	9530.66
466.23	9359.80
466.41	9397.25
466.60	9696.84
466.78	9390.23
466.96	9619.60
467.14	9511.94
467.32	9760.03
467.51	9874.72
467.69	9502.58
467.87	9724.93
468.05	9614.92
468.23	9776.42
468.41	9774.08
468.60	9888.76
468.78	9958.98
468.96	9916.85
469.14	9944.94
469.32	10174.31
469.50	9921.53
469.69	10181.33
469.87	10059.62
470.05	10066.64
470.23	10221.12
470.41	10148.56
470.59	10420.06
470.77	10146.22
470.95	10155.58
471.14	10457.51
471.32	10415.38
471.50	10593.26
471.68	10595.61
471.86	10719.65
472.04	10782.85
472.22	11009.88
472.40	10586.24
472.58	10839.02
472.77	10995.84
472.95	10944.34
473.13	11311.81
473.31	10677.52
473.49	10934.98
473.67	10981.79
473.85	10836.68
474.03	11506.07
474.21	11683.95
474.39	11311.81
474.57	11325.85
474.75	11625.44
474.93	11503.73
475.12	11407.77
475.30	11705.02
475.48	11845.45
475.66	11761.19
475.84	11669.91
476.02	11810.34
476.20	11786.94
476.38	12119.29
476.56	12140.36
476.74	12280.79
476.92	12308.88
477.10	12329.94
477.28	12578.04
477.46	12461.01
477.64	12765.28
477.82	12762.94
478.00	13053.17
478.18	12748.90
478.36	13102.32
478.54	13322.33
478.72	12901.03
478.90	13247.43
479.08	13383.18
479.26	13685.11
479.44	13582.13
479.62	13593.83
479.80	13778.73
479.98	13996.40
480.16	13853.63
480.34	14005.77
480.52	14080.66
480.70	14178.97
480.88	14127.47
481.06	14347.48
481.24	14319.40
481.41	14651.75
481.59	15012.20
481.77	14960.70
481.95	14665.80
482.13	15229.87
482.31	15056.67
482.49	15461.58
482.67	15468.60
482.85	15487.32
483.03	15599.67
483.21	15815.00
483.39	16020.97
483.57	15946.07
483.74	16116.93
483.92	16095.86
484.10	16037.35
484.28	16669.30
484.46	16479.71
484.64	16734.83
484.82	16802.71
485.00	16706.74
485.18	16863.56
485.35	16734.83
485.53	16723.13
485.71	16774.62
485.89	16940.80
486.07	16912.71
486.25	17668.70
486.43	17170.17
486.61	17745.94
486.78	17783.39
486.96	17970.63
487.14	18207.03
487.32	18265.54
487.50	18628.32
487.68	18754.71
487.85	19000.47
488.03	19005.15
488.21	19225.16
488.39	19061.32
488.57	19330.48
488.75	19426.45
488.92	19646.46
489.10	20210.53
489.28	19927.32
489.46	20645.87
489.64	20517.14
489.81	20819.07
489.99	20767.57
490.17	20814.38
490.35	21032.05
490.53	21090.57
490.70	21322.28
490.88	21050.78
491.06	21532.93
491.24	21502.50
491.41	21429.94
491.59	21362.07
491.77	21425.26
491.95	21509.52
492.13	21848.90
492.30	22164.87
492.48	22647.02
492.66	22532.34
492.84	22434.03
493.01	22869.37
493.19	22845.97
493.37	23070.66
493.54	23236.84
493.72	23190.03
493.90	23452.17
494.08	23332.80
494.25	23892.19
494.43	23950.70
494.61	23985.81
494.79	23985.81
494.96	24343.91
495.14	24299.44
495.32	24205.82
495.49	24147.31
495.67	24680.95
495.85	24940.75
496.02	24940.75
496.20	25106.93
496.38	25111.61
496.55	25523.54
496.73	25621.84
496.91	25504.82
497.09	25851.22
497.26	26153.15
497.44	25792.70
497.62	25755.26
497.79	26356.77
497.97	26026.76
498.14	26209.32
498.32	26668.06
498.50	26864.67
498.67	26651.68
498.85	26719.56
499.03	27171.28
499.20	27199.37
499.38	26962.97
499.56	27264.90
499.73	27269.58
499.91	27449.80
500.08	27484.91
500.26	27056.59
500.44	27496.61
500.61	27819.61
500.79	27688.54
500.97	27482.57
501.14	27981.10
501.32	28032.60
501.49	27922.59
501.67	28044.30
501.84	28334.53
502.02	28610.71
502.20	28692.63
502.37	28730.08
502.55	28716.03
502.72	28924.34
502.90	28938.38
503.07	28896.25
503.25	28973.49
503.43	28786.25
503.60	28779.23
503.78	29240.31
503.95	29123.29
504.13	29422.87
504.30	29572.67
504.48	29645.23
504.65	29914.39
504.83	30169.51
505.01	30188.23
505.18	30256.11
505.36	30113.33
505.53	30288.87
505.71	30829.54
505.88	30946.56
506.06	30331.00
506.23	30384.83
506.41	30654.00
506.58	30625.91
506.76	30878.69
506.93	31068.27
507.11	30469.09
507.28	30824.86
507.46	30822.51
507.63	31108.06
507.81	31159.55
507.98	31189.98
508.16	31201.68
508.33	31545.74
508.50	31489.57
508.68	31594.89
508.85	32257.26
509.03	32170.66
509.20	32252.58
509.38	31988.10
509.55	32390.67
509.73	32119.17
509.90	32519.40
510.08	32287.69
510.25	32254.92
510.42	32634.09
510.60	32950.06
510.77	32617.71
510.95	32818.99
511.12	33006.23
511.30	32624.73
511.47	33464.98
511.64	33376.04
511.82	33106.88
511.99	33289.44
512.17	33219.22
512.34	33186.46
512.51	33373.70
512.69	33773.93
512.86	33766.91
513.04	33862.87
513.21	34024.37
513.38	33766.91
513.56	33830.10
513.73	33633.50
513.90	34029.05
514.08	34251.40
514.25	34389.49
514.43	34323.96
514.60	34497.16
514.77	34773.34
514.95	34981.65
515.12	33991.60
515.29	34700.78
515.47	35054.20
515.64	35466.14
515.81	34642.27
515.99	34859.94
516.16	34651.63
516.33	34691.42
516.51	34689.08
516.68	34270.12
516.85	34017.35
517.03	34782.70
517.20	34962.92
517.37	35290.60
517.54	35496.56
517.72	35648.70
517.89	35309.32
518.06	35035.48
518.24	35166.55
518.41	35068.25
518.58	35402.94
518.75	35534.01
518.93	36009.14
519.10	35632.32
519.27	36355.54
519.45	36163.62
519.62	36306.39
519.79	36591.94
519.96	36119.15
520.14	36924.29
520.31	36290.01
520.48	36465.55
520.65	36591.94
520.83	36636.41
521.00	36879.82
521.17	36718.32
521.34	37127.92
521.52	37003.87
521.69	37041.32
521.86	37429.85
522.03	37280.05
522.20	37305.80
522.38	37474.32
522.55	37701.35
522.72	37675.60
522.89	37514.11
523.07	37907.32
523.24	37270.69
523.41	37940.08
523.58	38148.39
523.75	38588.41
523.92	37947.11
524.10	38124.99
524.27	38408.19
524.44	38998.01
524.61	38398.83
524.78	38878.64
524.96	38689.06
525.13	38862.26
525.30	39225.04
525.47	38789.70
525.64	38211.59
525.81	38696.08
525.98	38775.66
526.16	38323.93
526.33	38337.98
526.50	38719.48
526.67	38113.28
526.84	38490.11
527.01	38305.21
527.18	38653.95
527.36	39145.46
527.53	39538.67
527.70	39995.07
527.87	39936.56
528.04	39798.47
528.21	39622.93
528.38	39950.60
528.55	40184.66
528.72	40470.20
528.89	40301.68
529.07	40418.71
529.24	40123.80
529.41	39873.37
529.58	39828.90
529.75	39995.07
529.92	40051.25
530.09	40006.78
530.26	40273.60
530.43	40268.92
530.60	39990.39
530.77	40271.26
530.94	40708.94
531.11	40584.89
531.28	40875.12
531.46	40886.82
531.63	41116.19
531.80	40708.94
531.97	40947.67
532.14	40580.21
532.31	40191.68
532.48	40807.24
532.65	41001.50
532.82	41020.23
532.99	40849.37
533.16	40605.95
533.33	41375.99
533.50	41378.33
533.67	41294.07
533.84	40608.29
534.01	41170.02
534.18	41216.83
534.35	41642.81
534.52	41165.34
534.69	41476.63
534.86	41661.54
535.03	41097.47
535.20	42040.70
535.37	42309.86
535.54	42141.35
535.71	41738.77
535.88	41902.61
536.05	42036.02
536.22	42188.16
536.38	41865.16
536.55	42120.28
536.72	41766.86
536.89	41830.05
537.06	42272.42
537.23	42742.86
537.40	42153.05
537.57	42096.88
537.74	42483.06
537.91	42583.71
538.08	42593.07
538.25	42316.89
538.42	42300.50
538.59	42745.20
538.75	42494.77
538.92	42522.85
539.09	42302.84
539.26	42253.69
539.43	42567.32
539.60	42504.13
539.77	42204.54
539.94	42499.45
540.11	42401.14
540.28	42637.54
540.44	42560.30
540.61	42749.88
540.78	42644.56
540.95	42887.98
541.12	42780.31
541.29	42464.34
541.46	42855.21
541.62	42897.34
541.79	43227.35
541.96	43084.58
542.13	43463.75
542.30	43445.02
542.47	43068.20
542.63	43122.03
542.80	43082.24
542.97	43878.02
543.14	43810.15
543.31	43613.54
543.48	43999.73
543.64	44399.96
543.81	44030.16
543.98	43999.73
544.15	44072.29
544.32	44109.74
544.48	44402.30
544.65	44114.42
544.82	43948.24
544.99	43894.41
545.16	43803.13
545.32	44350.81
545.49	44416.35
545.66	44524.01
545.83	44903.18
546.00	44509.97
546.16	44664.44
546.33	44058.24
546.50	44002.07
546.67	44268.89
546.83	43882.70
547.00	44313.36
547.17	44554.44
547.34	43910.79
547.50	44304.00
547.67	44629.34
547.84	44760.40
548.00	44772.11
548.17	45233.19
548.34	44704.23
548.51	44601.25
548.67	45001.48
548.84	45095.10
549.01	44697.21
549.18	44982.76
549.34	45027.23
549.51	45244.90
549.68	45240.21
549.84	45137.23
550.01	45460.23
550.18	44975.73
550.34	45406.39
550.51	45448.52
550.68	44715.93
550.84	44835.30
551.01	45151.27
551.18	45003.82
551.34	45659.17
551.51	45343.20
551.68	45528.10
551.84	45406.39
552.01	45514.06
552.18	45537.46
552.34	45605.34
552.51	45485.97
552.68	45347.88
552.84	45844.07
553.01	45675.55
553.18	45595.98
553.34	45181.70
553.51	45818.33
553.67	46183.45
553.84	45815.99
554.01	45858.12
554.17	46328.56
554.34	45972.80
554.51	45722.37
554.67	46225.58
554.84	45965.78
555.00	45378.31
555.17	45668.53
555.33	45834.71
555.50	45839.39
555.67	46068.76
555.83	45834.71
556.00	45832.37
556.16	46232.60
556.33	45759.81
556.50	46050.04
556.66	45872.16
556.83	45778.54
556.99	46089.83
557.16	46450.27
557.32	46129.62
557.49	46461.97
557.65	46319.20
557.82	45977.48
557.98	46061.74
558.15	46347.29
558.32	45918.97
558.48	46204.52
558.65	46005.57
558.81	46368.35
558.98	46204.52
559.14	46204.52
559.31	46450.27
559.47	46312.18
559.64	46351.97
559.80	46597.73
559.97	46679.64
560.13	46052.38
560.30	46719.43
560.46	46522.83
560.63	46796.67
560.79	46948.81
560.96	46703.05
561.12	46728.80
561.29	46277.07
561.45	46679.64
561.61	46555.60
561.78	46728.80
561.94	46459.63
562.11	46801.35
562.27	46618.79
562.44	46590.70
562.60	47028.38
562.77	47187.54
562.93	46808.37
563.10	47000.30
563.26	46508.79
563.42	46993.28
563.59	46293.46
563.75	46546.23
563.92	46913.70
564.08	46714.75
564.24	46871.57
564.41	47248.39
564.57	46670.28
564.74	46728.80
564.90	46712.41
565.07	46916.04
565.23	46611.77
565.39	46822.42
565.56	46845.82
565.72	46902.00
565.88	47079.88
566.05	46628.15
566.21	46644.54
566.38	46649.22
566.54	46834.12
566.70	47264.78
566.87	47421.59
567.03	47063.49
567.19	47459.04
567.36	47000.30
567.52	47185.20
567.68	47737.57
567.85	46471.34
568.01	46857.52
568.17	47096.26
568.34	47159.45
568.50	46756.88
568.66	47077.54
568.83	47227.33
568.99	46902.00
569.15	46916.04
569.32	46923.06
569.48	47004.98
569.64	47199.24
569.81	47189.88
569.97	46911.36
570.13	46932.42
570.30	46679.64
570.46	46848.16
570.62	46511.13
570.78	46672.62
570.95	46609.43
571.11	47117.32
571.27	46845.82
571.43	47295.21
571.60	47363.08
571.76	47112.64
571.92	47311.59
572.09	46803.69
572.25	47445.00
572.41	46960.51
572.57	47232.01
572.74	47707.14
572.90	47217.97
573.06	47320.95
573.22	47391.17
573.38	47208.61
573.55	47241.37
573.71	47210.95
573.87	47351.38
574.03	47152.43
574.20	47234.35
574.36	47236.69
574.52	47278.82
574.68	47093.92
574.84	47423.93
575.01	47257.76
575.17	47236.69
575.33	47316.27
575.49	47482.45
575.65	47224.99
575.82	47613.52
575.98	47311.59
576.14	47236.69
576.30	47388.83
576.46	47606.50
576.62	46766.24
576.79	47285.84
576.95	46969.87
577.11	46852.84
577.27	47772.67
577.43	47632.24
577.59	47044.77
577.75	47173.50
577.92	46813.05
578.08	46990.94
578.24	46665.60
578.40	47002.64
578.56	47356.06
578.72	46597.73
578.88	47330.31
579.04	47358.40
579.21	47260.10
579.37	47276.48
579.53	47199.24
579.69	47356.06
579.85	47306.91
580.01	47576.07
580.17	47227.33
580.33	47091.58
580.49	47201.58
580.65	47334.99
580.82	47756.29
580.98	47262.44
581.14	46784.97
581.30	47503.51
581.46	47292.86
581.62	47601.82
581.78	47435.64
581.94	47770.33
582.10	47461.38
582.26	47695.44
582.42	47126.69
582.58	47435.64
582.74	47159.45
582.90	47770.33
583.06	47627.56
583.22	47999.71
583.38	47641.60
583.54	47337.33
583.70	47213.29
583.86	47587.77
584.02	47014.34
584.18	47679.05
584.34	47131.37
584.50	47625.22
584.66	47267.12
584.82	46689.01
584.98	47627.56
585.14	46997.96
585.30	47196.90
585.46	47543.30
585.62	47051.79
585.78	47290.52
585.94	47033.07
586.10	46930.08
586.26	47243.71
586.42	47400.53
586.58	47508.19
586.74	47330.31
586.90	47459.04
587.06	47634.58
587.22	47545.64
587.38	46960.51
587.54	47360.74
587.70	47318.61
587.86	47056.47
588.02	47262.44
588.18	47330.31
588.34	47194.56
588.49	46419.84
588.65	46899.65
588.81	46909.02
588.97	47065.83
589.13	46576.66
589.29	47229.67
589.45	46986.25
589.61	47283.50
589.77	47765.65
