SpectraSuite Data File
++++++++++++++++++++++++++++++++++++
Date: Fri Oct 25 10:47:38 EDT 2013
User: price-jones
Dark Spectrum Present: No
Reference Spectrum Present: No
Number of Sampled Component Spectra: 1
Spectrometers: USB2+H05261
Integration Time (usec): 100000 (USB2+H05261)
Spectra Averaged: 1 (USB2+H05261)
Boxcar Smoothing: 0 (USB2+H05261)
Correct for Electrical Dark: No (USB2+H05261)
Strobe/Lamp Enabled: No (USB2+H05261)
Correct for Detector Non-linearity: No (USB2+H05261)
Correct for Stray Light: No (USB2+H05261)
Number of Pixels in Processed Spectrum: 2048
>>>>>Begin Processed Spectral Data<<<<<
365.73	168.52
365.92	168.52
366.12	168.52
366.32	28.09
366.52	35.11
366.72	100.64
366.91	4.68
367.11	42.13
367.31	58.51
367.51	42.13
367.70	0.00
367.90	4.68
368.10	51.49
368.30	114.69
368.49	42.13
368.69	110.01
368.89	70.22
369.09	14.04
369.28	21.06
369.48	23.41
369.68	58.51
369.87	91.28
370.07	124.05
370.27	126.39
370.47	210.65
370.66	454.06
370.86	407.25
371.06	428.32
371.25	451.72
371.45	458.74
371.65	477.47
371.84	447.04
372.04	369.80
372.24	454.06
372.44	463.43
372.63	512.58
372.83	519.60
373.03	524.28
373.22	449.38
373.42	554.71
373.62	500.87
373.81	538.32
374.01	550.03
374.21	510.24
374.40	540.66
374.60	484.49
374.79	535.98
374.99	496.19
375.19	554.71
375.38	606.20
375.58	688.12
375.78	566.41
375.97	650.67
376.17	603.86
376.37	650.67
376.56	484.49
376.76	606.20
376.95	578.11
377.15	620.24
377.35	585.13
377.54	648.33
377.74	606.20
377.93	596.84
378.13	627.26
378.33	533.64
378.52	648.33
378.72	620.24
378.91	610.88
379.11	620.24
379.31	580.45
379.50	582.79
379.70	603.86
379.89	662.37
380.09	699.82
380.28	690.46
380.48	657.69
380.68	599.18
380.87	578.11
381.07	685.78
381.26	704.50
381.46	643.65
381.65	706.84
381.85	610.88
382.04	685.78
382.24	660.03
382.43	629.60
382.63	744.29
382.83	650.67
383.02	826.21
383.22	699.82
383.41	772.38
383.61	802.80
383.80	706.84
384.00	720.88
384.19	716.20
384.39	791.10
384.58	720.88
384.78	734.93
384.97	713.86
385.17	793.44
385.36	781.74
385.56	807.48
385.75	758.33
385.95	837.91
386.14	777.06
386.34	755.99
386.53	795.78
386.72	833.23
386.92	800.46
387.11	784.08
387.31	802.80
387.50	746.63
387.70	737.27
387.89	784.08
388.09	830.89
388.28	844.93
388.48	854.30
388.67	938.55
388.86	842.59
389.06	889.40
389.25	980.68
389.45	933.87
389.64	887.06
389.84	945.58
390.03	947.92
390.22	875.36
390.42	912.81
390.61	940.90
390.81	936.21
391.00	933.87
391.19	985.37
391.39	1055.58
391.58	952.60
391.78	1057.92
391.97	973.66
392.16	903.45
392.36	1067.28
392.55	966.64
392.75	933.87
392.94	1011.11
393.13	1041.54
393.33	1025.15
393.52	1032.18
393.71	1128.14
393.91	1048.56
394.10	1046.22
394.29	1076.65
394.49	1004.09
394.68	1170.27
394.88	1067.28
395.07	1144.52
395.26	1104.73
395.46	1146.86
395.65	1050.90
395.84	1107.07
396.04	1149.20
396.23	1160.91
396.42	1146.86
396.62	1151.54
396.81	1109.41
397.00	1137.50
397.19	1299.00
397.39	1097.71
397.58	1256.87
397.77	1263.89
397.97	1252.19
398.16	1231.12
398.35	1350.49
398.55	1371.55
398.74	1387.94
398.93	1364.53
399.12	1268.57
399.32	1409.00
399.51	1343.47
399.70	1404.32
399.90	1238.14
400.09	1437.09
400.28	1425.39
400.47	1467.52
400.67	1610.29
400.86	1497.94
401.05	1528.37
401.24	1556.46
401.44	1579.86
401.63	1481.56
401.82	1577.52
402.01	1507.30
402.21	1497.94
402.40	1605.61
402.59	1516.67
402.78	1624.33
402.97	1617.31
403.17	1678.16
403.36	1621.99
403.55	1619.65
403.74	1612.63
403.93	1741.36
404.13	1593.90
404.32	1680.50
404.51	1680.50
404.70	1701.57
404.89	1729.66
405.09	1762.42
405.28	1771.79
405.47	1689.87
405.66	1813.92
405.85	1926.26
406.05	1830.30
406.24	1870.09
406.43	1785.83
406.62	1811.57
406.81	1891.15
407.00	1905.20
407.20	1788.17
407.39	1856.04
407.58	1930.94
407.77	2015.20
407.96	2019.88
408.15	1968.39
408.34	2094.78
408.54	2143.93
408.73	2064.35
408.92	2064.35
409.11	2125.21
409.30	2040.95
409.49	1996.48
409.68	2157.97
409.87	2092.44
410.07	2181.38
410.26	2160.31
410.45	2134.57
410.64	2204.78
410.83	2275.00
411.02	2263.30
411.21	2272.66
411.40	2298.41
411.59	2387.35
411.78	2368.62
411.98	2340.54
412.17	2326.49
412.36	2298.41
412.55	2424.80
412.74	2450.54
412.93	2555.86
413.12	2434.16
413.31	2740.77
413.50	2551.18
413.69	2621.40
413.88	2630.76
414.07	2633.10
414.26	2696.30
414.45	2733.75
414.64	2640.12
414.83	2661.19
415.02	2761.83
415.22	2799.28
415.41	2736.09
415.60	2825.03
415.79	2944.39
415.98	2972.48
416.17	2928.01
416.36	3002.91
416.55	2965.46
416.74	2860.13
416.93	2993.55
417.12	2953.76
417.31	2871.84
417.50	3077.80
417.69	3194.83
417.88	3133.98
418.07	3082.49
418.26	3105.89
418.45	3171.43
418.64	3176.11
418.83	3155.04
419.02	3248.66
419.21	3356.33
419.39	3222.92
419.58	3227.60
419.77	3368.03
419.96	3281.43
420.15	3281.43
420.34	3459.31
420.53	3358.67
420.72	3501.44
420.91	3459.31
421.10	3424.20
421.29	3424.20
421.48	3424.20
421.67	3515.48
421.86	3435.91
422.05	3466.33
422.24	3414.84
422.43	3407.82
422.61	3564.64
422.80	3637.19
422.99	3557.61
423.18	3527.19
423.37	3693.37
423.56	3513.14
423.75	3623.15
423.94	3583.36
424.13	3363.35
424.32	3461.65
424.50	3719.11
424.69	3646.55
424.88	3712.09
425.07	3625.49
425.26	3473.36
425.45	3581.02
425.64	3684.00
425.83	3632.51
426.01	3700.39
426.20	3733.15
426.39	3641.87
426.58	3543.57
426.77	3517.83
426.96	3618.47
427.15	3557.61
427.33	3777.62
427.52	3768.26
427.71	3684.00
427.90	3705.07
428.09	3840.82
428.28	3843.16
428.46	3812.73
428.65	3892.31
428.84	3854.86
429.03	3985.93
429.22	3911.04
429.40	3857.20
429.59	3840.82
429.78	3758.90
429.97	3693.37
430.16	3665.28
430.34	3908.69
430.53	3882.95
430.72	4107.64
430.91	3803.37
431.10	3992.95
431.28	4147.43
431.47	4262.12
431.66	4203.60
431.85	4222.33
432.03	4205.94
432.22	4245.73
432.41	4278.50
432.60	4327.65
432.79	4304.25
432.97	4212.96
433.16	4376.80
433.35	4306.59
433.54	4308.93
433.72	4423.61
433.91	4461.06
434.10	4346.37
434.28	4503.19
434.47	4498.51
434.66	4524.26
434.85	4411.91
435.03	4535.96
435.22	4475.10
435.41	4685.75
435.59	4727.88
435.78	4699.80
435.97	4676.39
436.16	4678.73
436.34	4500.85
436.53	4840.23
436.72	4777.03
436.90	4739.58
437.09	4772.35
437.28	4615.54
437.46	4713.84
437.65	4765.33
437.84	4849.59
438.02	4861.29
438.21	4795.76
438.40	4809.80
438.58	4950.23
438.77	4922.15
438.96	4975.98
439.14	5095.35
439.33	5217.05
439.52	5217.05
439.70	5327.06
439.89	5200.67
440.08	5142.16
440.26	5275.57
440.45	5327.06
440.63	5369.19
440.82	5472.17
441.01	5378.55
441.19	5322.38
441.38	5657.07
441.57	5483.88
441.75	5518.98
441.94	5556.43
442.12	5666.44
442.31	5680.48
442.50	5762.40
442.68	5710.91
442.87	5760.06
443.05	5781.12
443.24	5926.24
443.43	5706.23
443.61	5907.51
443.80	5926.24
443.98	5825.59
444.17	5650.05
444.35	5970.71
444.54	5909.85
444.73	5930.92
444.91	5973.05
445.10	5809.21
445.28	5858.36
445.47	5909.85
445.65	5877.09
445.84	5844.32
446.02	6054.97
446.21	5940.28
446.39	6024.54
446.58	6050.28
446.77	6167.31
446.95	5944.96
447.14	6214.12
447.32	6094.76
447.51	5968.37
447.69	6050.28
447.88	5982.41
448.06	6003.47
448.25	6157.95
448.43	6115.82
448.62	6101.78
448.80	6087.73
448.99	6282.00
449.17	6286.68
449.36	6258.59
449.54	6434.13
449.73	6389.66
449.91	6403.71
450.10	6347.53
450.28	6562.86
450.46	6532.44
450.65	6509.03
450.83	6567.54
451.02	6413.07
451.20	6649.46
451.39	6539.46
451.57	6562.86
451.76	6553.50
451.94	6619.04
452.13	6509.03
452.31	6506.69
452.49	6527.75
452.68	6736.06
452.86	6509.03
453.05	6555.84
453.23	6623.72
453.42	6604.99
453.60	6750.10
453.78	6733.72
453.97	6719.68
454.15	6644.78
454.34	6630.74
454.52	6810.96
454.70	7000.54
454.89	6902.24
455.07	6738.40
455.26	6963.09
455.44	7286.09
455.62	7204.17
455.81	7164.38
455.99	7063.74
456.17	7187.79
456.36	7033.31
456.54	7241.62
456.73	7187.79
456.91	7384.39
457.09	7372.69
457.28	7435.88
457.46	7456.95
457.64	7318.86
457.83	7630.15
458.01	7356.30
458.19	7585.68
458.38	7454.61
458.56	7583.34
458.74	7665.25
458.93	7501.42
459.11	7573.97
459.29	7665.25
459.48	7623.12
459.66	7541.21
459.84	7730.79
460.03	7716.75
460.21	7733.13
460.39	7903.99
460.57	7730.79
460.76	7810.37
460.94	7831.43
461.12	7999.95
461.31	7810.37
461.49	7817.39
461.67	7824.41
461.85	8056.12
462.04	7730.79
462.22	8381.46
462.40	8201.24
462.59	8072.51
462.77	8133.36
462.95	7892.29
463.13	8098.25
463.32	8287.84
463.50	8255.07
463.68	8285.50
463.86	8355.71
464.05	8287.84
464.23	8145.06
464.41	8217.62
464.59	8006.97
464.78	8641.26
464.96	8231.66
465.14	8322.94
465.32	8599.13
465.50	8500.83
465.69	8465.72
465.87	8456.36
466.05	8456.36
466.23	8259.75
466.41	8507.85
466.60	8898.72
466.78	8631.90
466.96	8603.81
467.14	8549.98
467.32	8549.98
467.51	8711.47
467.69	8430.61
467.87	8552.32
468.05	8730.20
468.23	8891.70
468.41	8751.26
468.60	8746.58
468.78	8784.03
468.96	8828.50
469.14	8744.24
469.32	8805.10
469.50	8690.41
469.69	9116.39
469.87	9210.01
470.05	9013.40
470.23	9188.94
470.41	9174.90
470.59	9062.55
470.77	8990.00
470.95	9254.48
471.14	9476.83
471.32	9172.56
471.50	9516.62
471.68	9502.58
471.86	9530.66
472.04	9640.67
472.22	9643.01
472.40	9462.79
472.58	9439.38
472.77	9675.77
472.95	9713.22
473.13	10036.22
473.31	9804.50
473.49	9788.12
473.67	9577.47
473.85	9713.22
474.03	10342.83
474.21	9989.41
474.39	10377.94
474.57	10153.24
474.75	10246.87
474.93	10406.02
475.12	10244.52
475.30	10504.32
475.48	10157.92
475.66	10354.53
475.84	10417.72
476.02	10504.32
476.20	10469.22
476.38	10848.38
476.56	10965.41
476.74	11009.88
476.92	11073.07
477.10	10972.43
477.28	11300.11
477.46	11054.35
477.64	11246.27
477.82	11318.83
478.00	11751.83
478.18	11723.74
478.36	11466.28
478.54	11702.68
478.72	11679.27
478.90	11875.88
479.08	12100.57
479.26	11903.96
479.44	12093.55
479.62	12208.23
479.80	12208.23
479.98	12334.62
480.16	12512.50
480.34	12564.00
480.52	12692.73
480.70	12826.14
480.88	12468.03
481.06	12861.24
481.24	12943.16
481.41	12992.31
481.59	13411.27
481.77	13404.25
481.95	13177.22
482.13	13654.69
482.31	13284.88
482.49	13790.44
482.67	13895.76
482.85	13783.41
483.03	13715.54
483.21	14047.90
483.39	14380.25
483.57	14293.65
483.74	14415.36
483.92	14661.12
484.10	14190.67
484.28	14876.44
484.46	14853.04
484.64	14958.36
484.82	15171.35
485.00	15192.42
485.18	15234.55
485.35	15344.55
485.53	15215.82
485.71	15250.93
485.89	15501.37
486.07	15503.71
486.25	15571.58
486.43	15988.20
486.61	15917.98
486.78	15948.41
486.96	16095.86
487.14	16245.66
487.32	16716.11
487.50	16669.30
487.68	16692.70
487.85	16901.01
488.03	17385.50
488.21	17355.07
488.39	17324.65
488.57	17305.92
488.75	17575.08
488.92	17647.64
489.10	18075.96
489.28	18104.04
489.46	18338.10
489.64	18253.84
489.81	18888.12
489.99	18735.99
490.17	18705.56
490.35	18733.65
490.53	18829.61
490.70	19515.39
490.88	19255.59
491.06	19552.84
491.24	19566.88
491.41	19126.86
491.59	19529.43
491.77	19391.34
491.95	19601.99
492.13	19758.80
492.30	19915.62
492.48	20252.66
492.66	20255.00
492.84	20435.22
493.01	20648.21
493.19	20407.13
493.37	20896.30
493.54	20856.51
493.72	21387.82
493.90	21032.05
494.08	21153.76
494.25	21596.12
494.43	21387.82
494.61	21764.64
494.79	21919.12
494.96	21783.37
495.14	21968.27
495.32	22134.45
495.49	22321.69
495.67	22422.33
495.85	22410.63
496.02	22506.59
496.20	22647.02
496.38	22916.19
496.55	22764.05
496.73	23339.82
496.91	22808.52
497.09	23555.15
497.26	23365.57
497.44	23302.37
497.62	23311.74
497.79	23721.33
497.97	23658.14
498.14	24198.80
498.32	23728.35
498.50	23718.99
498.67	24364.98
498.85	24114.54
499.03	24435.19
499.20	24460.94
499.38	24889.26
499.56	24575.62
499.73	24809.68
499.91	24608.39
500.08	24910.32
500.26	24947.77
500.44	25111.61
500.61	25139.69
500.79	24957.13
500.97	25319.92
501.14	25572.69
501.32	25273.10
501.49	25333.96
501.67	25722.49
501.84	25778.66
502.02	25888.67
502.20	25823.13
502.37	26291.24
502.55	26045.48
502.72	26111.02
502.90	26134.42
503.07	26073.57
503.25	26441.03
503.43	26368.48
503.60	26415.29
503.78	26462.10
503.95	26370.82
504.13	26801.47
504.30	26707.85
504.48	26705.51
504.65	27138.51
504.83	27042.55
505.01	27428.74
505.18	27407.67
505.36	27733.01
505.53	27309.37
505.71	28161.33
505.88	27590.24
506.06	27503.64
506.23	27803.22
506.41	27590.24
506.58	27924.93
506.76	28189.41
506.93	28233.88
507.11	28259.63
507.28	28463.25
507.46	28105.15
507.63	28264.31
507.81	28577.94
507.98	28657.52
508.16	28645.82
508.33	28643.48
508.50	28882.21
508.68	29233.29
508.85	29142.01
509.03	29214.57
509.20	29003.92
509.38	29619.48
509.55	29645.23
509.73	29832.47
509.90	29362.02
510.08	29518.84
510.25	29429.90
510.42	29935.45
510.60	29869.92
510.77	30092.27
510.95	29895.66
511.12	29530.54
511.30	30244.40
511.47	30574.42
511.64	30518.25
511.82	30754.64
511.99	30597.82
512.17	30651.66
512.34	30553.35
512.51	30824.86
512.69	31026.14
512.86	30752.30
513.04	30885.71
513.21	30944.22
513.38	30911.46
513.56	31112.74
513.73	30995.71
513.90	31433.39
514.08	31304.67
514.25	31620.64
514.43	31023.80
514.60	31765.75
514.77	31541.06
514.95	31646.38
515.12	31630.00
515.29	31669.79
515.47	32488.98
515.64	32215.13
515.81	32161.30
515.99	31873.42
516.16	31967.04
516.33	31948.31
516.51	32240.88
516.68	31714.26
516.85	31634.68
517.03	32196.41
517.20	32297.05
517.37	32339.18
517.54	32315.78
517.72	32423.44
517.89	32423.44
518.06	32638.77
518.24	32711.33
518.41	32568.55
518.58	32566.21
518.75	32762.82
518.93	33460.30
519.10	33137.30
519.27	33731.80
519.45	33397.10
519.62	33610.09
519.79	33317.53
519.96	33851.17
520.14	33940.11
520.31	33752.87
520.48	33893.30
520.65	33832.44
520.83	34323.96
521.00	33738.82
521.17	34125.01
521.34	34373.11
521.52	34267.78
521.69	34178.84
521.86	34555.67
522.03	34541.63
522.20	34527.58
522.38	34232.68
522.55	34759.30
522.72	34583.76
522.89	34930.16
523.07	35077.61
523.24	34906.75
523.41	34979.31
523.58	34756.96
523.75	35353.79
523.92	35218.04
524.10	35431.03
524.27	35536.35
524.44	35737.64
524.61	35243.79
524.78	35573.80
524.96	35793.81
525.13	35756.36
525.30	35777.43
525.47	36278.30
525.64	35681.47
525.81	36053.61
525.98	35707.21
526.16	35669.76
526.33	35779.77
526.50	35690.83
526.67	35449.75
526.84	35885.09
527.01	36077.02
527.18	35618.27
527.36	36421.08
527.53	36205.75
527.70	36708.96
527.87	36793.22
528.04	36493.63
528.21	36704.28
528.38	36608.32
528.55	36755.77
528.72	36753.43
528.89	36950.04
529.07	36762.79
529.24	36577.89
529.41	36868.12
529.58	36573.21
529.75	37053.02
529.92	37659.22
530.09	36985.15
530.26	37897.95
530.43	37441.55
530.60	37291.76
530.77	37422.83
530.94	37067.06
531.11	37352.61
531.28	37591.34
531.46	37818.38
531.63	37886.25
531.80	37565.60
531.97	37493.04
532.14	38022.00
532.31	37525.81
532.48	37762.20
532.65	38302.87
532.82	37755.18
532.99	37954.13
533.16	37839.44
533.33	38223.29
533.50	38171.80
533.67	38258.40
533.84	38539.26
534.01	38487.77
534.18	38829.49
534.35	38672.67
534.52	38501.81
534.69	38504.15
534.86	38637.56
535.03	38822.47
535.20	38724.16
535.37	39480.16
535.54	38925.45
535.71	38618.84
535.88	39058.86
536.05	38623.52
536.22	38632.88
536.38	38965.24
536.55	39061.20
536.72	38916.09
536.89	38972.26
537.06	39295.25
537.23	39302.28
537.40	39115.03
537.57	39187.59
537.74	39316.32
537.91	39543.35
538.08	39386.54
538.25	39271.85
538.42	39548.03
538.59	39697.83
538.75	39480.16
538.92	39501.22
539.09	39658.04
539.26	39789.11
539.43	40032.52
539.60	39826.56
539.77	39744.64
539.94	39990.39
540.11	39452.07
540.28	39700.17
540.44	40020.82
540.61	40119.12
540.78	39583.14
540.95	40069.97
541.12	39910.82
541.29	39798.47
541.46	39938.90
541.62	40280.62
541.79	40467.86
541.96	40016.14
542.13	40184.66
542.30	40236.15
542.47	40421.05
542.63	40154.23
542.80	40598.93
542.97	40830.65
543.14	40889.16
543.31	40900.86
543.48	40914.90
543.64	41448.55
543.81	41205.13
543.98	40708.94
544.15	40570.85
544.32	41294.07
544.48	41263.64
544.65	41191.09
544.82	41420.46
544.99	41013.21
545.16	41375.99
545.32	41280.03
545.49	41275.35
545.66	41247.26
545.83	41628.77
546.00	41612.38
546.16	41544.51
546.33	41296.41
546.50	41698.98
546.67	41940.06
546.83	41083.42
547.00	41336.20
547.17	41773.88
547.34	41614.72
547.50	41799.63
547.67	41773.88
547.84	41839.42
548.00	41778.56
548.17	42045.38
548.34	42094.53
548.51	41923.68
548.67	42141.35
548.84	42356.67
549.01	42220.92
549.18	41911.97
549.34	42295.82
549.51	42384.76
549.68	42775.63
549.84	42267.73
550.01	42501.79
550.18	42265.39
550.34	42433.91
550.51	42237.31
550.68	42211.56
550.84	41471.95
551.01	42686.69
551.18	42307.52
551.34	42312.20
551.51	42864.57
551.68	42122.62
551.84	42885.64
552.01	42705.41
552.18	42384.76
552.34	42522.85
552.51	43112.67
552.68	42653.92
552.84	42658.60
553.01	42939.47
553.18	42644.56
553.34	42721.80
553.51	42569.66
553.67	43243.74
553.84	43030.75
554.01	42993.30
554.17	43147.78
554.34	43161.82
554.51	43030.75
554.67	43365.45
554.84	43093.94
555.00	42948.83
555.17	42983.94
555.33	43423.96
555.50	42937.13
555.67	43117.35
555.83	43653.33
556.00	43304.59
556.16	43812.49
556.33	43363.11
556.50	43377.15
556.66	43573.75
556.83	43381.83
556.99	43758.66
557.16	43679.08
557.32	43496.52
557.49	43842.92
557.65	43232.04
557.82	43206.29
557.98	43578.43
558.15	43477.79
558.32	43643.97
558.48	43887.39
558.65	43775.04
558.81	43765.68
558.98	43363.11
559.14	43735.25
559.31	43803.13
559.47	44114.42
559.64	43796.10
559.80	44516.99
559.97	43966.96
560.13	43423.96
560.30	43498.86
560.46	43653.33
560.63	43955.26
560.79	44186.97
560.96	44505.29
561.12	43756.32
561.29	44091.01
561.45	44030.16
561.61	44217.40
561.78	44006.75
561.94	43854.62
562.11	43833.55
562.27	44261.87
562.44	44226.76
562.60	44107.40
562.77	44201.02
562.93	44062.93
563.10	44512.31
563.26	44390.60
563.42	44493.58
563.59	44161.23
563.75	44364.85
563.92	44348.47
564.08	44091.01
564.24	44706.57
564.41	44954.67
564.57	44261.87
564.74	44456.14
564.90	44624.65
565.07	44566.14
565.23	44170.59
565.39	44205.70
565.56	44390.60
565.72	43929.51
565.88	44376.56
566.05	43856.96
566.21	44411.67
566.38	44498.26
566.54	44414.01
566.70	44514.65
566.87	44385.92
567.03	44306.34
567.19	44748.70
567.36	44470.18
567.52	44835.30
567.68	45256.60
567.85	44886.79
568.01	44699.55
568.17	44212.72
568.34	44313.36
568.50	44561.46
568.66	44753.38
568.83	44348.47
568.99	44554.44
569.15	44650.40
569.32	44383.58
569.48	44098.03
569.64	44999.14
569.81	44720.62
569.97	44460.82
570.13	44495.92
570.30	44348.47
570.46	44409.32
570.62	44149.53
570.78	44385.92
570.95	44797.85
571.11	44692.53
571.27	44318.04
571.43	44626.99
571.60	45006.16
571.76	44584.86
571.92	44949.99
572.09	44385.92
572.25	44729.98
572.41	44683.17
572.57	44542.74
572.74	44945.31
572.90	45036.59
573.06	45111.49
573.22	44655.08
573.38	44502.95
573.55	44683.17
573.71	45081.06
573.87	45198.09
574.03	44662.10
574.20	44547.42
574.36	45067.02
574.52	44872.75
574.68	45010.84
574.84	45181.70
575.01	45088.08
575.17	44442.09
575.33	44737.00
575.49	44666.78
575.65	45516.40
575.82	45375.97
575.98	45148.93
576.14	45106.80
576.30	44912.54
576.46	45064.67
576.62	44612.95
576.79	44952.33
576.95	44828.28
577.11	44804.88
577.27	44708.91
577.43	45375.97
577.59	44671.46
577.75	45116.17
577.92	44296.98
578.08	45132.55
578.24	44641.04
578.40	44598.91
578.56	44856.37
578.72	44928.92
578.88	44875.09
579.04	44975.73
579.21	44690.19
579.37	44545.08
579.53	44933.60
579.69	44760.40
579.85	45345.54
580.01	44942.97
580.17	45064.67
580.33	44924.24
580.49	45036.59
580.65	44982.76
580.82	45469.59
580.98	44598.91
581.14	45057.65
581.30	45397.03
581.46	44896.16
581.62	45151.27
581.78	44570.82
581.94	45289.37
582.10	44982.76
582.26	45207.45
582.42	44502.95
582.58	45151.27
582.74	44465.50
582.90	44928.92
583.06	45195.74
583.22	45062.33
583.38	45303.41
583.54	45010.84
583.70	45027.23
583.86	44605.93
584.02	44486.56
584.18	44938.29
584.34	45041.27
584.50	45375.97
584.66	44624.65
584.82	44739.34
584.98	45406.39
585.14	45338.52
585.30	45116.17
585.46	44947.65
585.62	44926.58
585.78	44830.62
585.94	44493.58
586.10	45057.65
586.26	44559.12
586.42	45294.05
586.58	45336.18
586.74	44992.12
586.90	45155.96
587.06	44727.64
587.22	45326.81
587.38	45113.83
587.54	45036.59
587.70	45544.48
587.86	45298.73
588.02	45294.05
588.18	45207.45
588.34	45200.43
588.49	45256.60
588.65	44772.11
588.81	45083.40
588.97	44839.98
589.13	45022.54
589.29	44877.43
589.45	44755.72
589.61	45558.53
589.77	45308.09
589.93	45188.72
590.08	45439.16
590.24	45287.03
