SpectraSuite Data File
++++++++++++++++++++++++++++++++++++
Date: Fri Oct 25 11:22:31 EDT 2013
User: price-jones
Dark Spectrum Present: No
Reference Spectrum Present: No
Number of Sampled Component Spectra: 1
Spectrometers: USB2+H05261
Integration Time (usec): 100000 (USB2+H05261)
Spectra Averaged: 1 (USB2+H05261)
Boxcar Smoothing: 0 (USB2+H05261)
Correct for Electrical Dark: No (USB2+H05261)
Strobe/Lamp Enabled: No (USB2+H05261)
Correct for Detector Non-linearity: No (USB2+H05261)
Correct for Stray Light: No (USB2+H05261)
Number of Pixels in Processed Spectrum: 2048
>>>>>Begin Processed Spectral Data<<<<<
365.73	156.82
365.92	156.82
366.12	156.82
366.32	114.69
366.52	126.39
366.72	163.84
366.91	140.43
367.11	140.43
367.31	56.17
367.51	65.54
367.70	131.07
367.90	170.86
368.10	142.77
368.30	93.62
368.49	60.85
368.69	133.41
368.89	175.54
369.09	102.98
369.28	168.52
369.48	156.82
369.68	156.82
369.87	138.09
370.07	212.99
370.27	205.97
370.47	299.59
370.66	585.13
370.86	653.01
371.06	655.35
371.25	678.76
371.45	702.16
371.65	702.16
371.84	741.95
372.04	697.48
372.24	692.80
372.44	763.01
372.63	741.95
372.83	713.86
373.03	795.78
373.22	699.82
373.42	683.44
373.62	718.54
373.81	798.12
374.01	847.27
374.21	791.10
374.40	856.64
374.60	788.76
374.79	851.96
374.99	847.27
375.19	835.57
375.38	830.89
375.58	840.25
375.78	807.48
375.97	896.43
376.17	880.04
376.37	919.83
376.56	905.79
376.76	770.04
376.95	798.12
377.15	847.27
377.35	861.32
377.54	983.02
377.74	861.32
377.93	868.34
378.13	940.90
378.33	917.49
378.52	891.74
378.72	880.04
378.91	891.74
379.11	908.13
379.31	931.53
379.50	882.38
379.70	978.34
379.89	1078.99
380.09	997.07
380.28	1048.56
380.48	922.17
380.68	1029.84
380.87	933.87
381.07	999.41
381.26	1001.75
381.46	994.73
381.65	1043.88
381.85	1015.79
382.04	994.73
382.24	1055.58
382.43	1043.88
382.63	1020.47
382.83	1128.14
383.02	1107.07
383.22	1083.67
383.41	1032.18
383.61	1053.24
383.80	1114.10
384.00	1053.24
384.19	1177.29
384.39	1043.88
384.58	1121.12
384.78	1125.80
384.97	1170.27
385.17	1181.97
385.36	1252.19
385.56	1170.27
385.75	1203.04
385.95	1172.61
386.14	1303.68
386.34	1310.70
386.53	1203.04
386.72	1224.10
386.92	1207.72
387.11	1299.00
387.31	1217.08
387.50	1231.12
387.70	1247.51
387.89	1338.79
388.09	1303.68
388.28	1306.02
388.48	1263.89
388.67	1289.64
388.86	1287.29
389.06	1350.49
389.25	1259.21
389.45	1399.64
389.64	1345.81
389.84	1371.55
390.03	1294.32
390.22	1420.71
390.42	1441.77
390.61	1455.81
390.81	1401.98
391.00	1490.92
391.19	1387.94
391.39	1448.79
391.58	1502.62
391.78	1439.43
391.97	1493.26
392.16	1467.52
392.36	1488.58
392.55	1526.03
392.75	1511.99
392.94	1500.28
393.13	1502.62
393.33	1507.30
393.52	1605.61
393.71	1603.27
393.91	1621.99
394.10	1575.18
394.29	1561.14
394.49	1554.12
394.68	1640.72
394.88	1661.78
395.07	1680.50
395.26	1743.70
395.46	1783.49
395.65	1736.68
395.84	1874.77
396.04	1785.83
396.23	1710.93
396.42	1760.08
396.62	1734.34
396.81	1802.21
397.00	1839.66
397.19	1781.15
397.39	1895.83
397.58	1900.52
397.77	1785.83
397.97	1839.66
398.16	1912.22
398.35	1933.28
398.55	1865.41
398.74	1834.98
398.93	1942.64
399.12	1839.66
399.32	1907.54
399.51	1891.15
399.70	1984.77
399.90	1977.75
400.09	2043.29
400.28	2085.42
400.47	1977.75
400.67	2043.29
400.86	2054.99
401.05	1996.48
401.24	2066.69
401.44	2045.63
401.63	2200.10
401.82	2284.36
402.01	2181.38
402.21	2160.31
402.40	2228.19
402.59	2321.81
402.78	2307.77
402.97	2209.47
403.17	2347.56
403.36	2244.57
403.55	2361.60
403.74	2420.11
403.93	2335.85
404.13	2354.58
404.32	2424.80
404.51	2399.05
404.70	2457.56
404.89	2410.75
405.09	2560.55
405.28	2518.42
405.47	2499.69
405.66	2567.57
405.85	2672.89
406.05	2504.37
406.24	2607.36
406.43	2532.46
406.62	2628.42
406.81	2722.04
407.00	2651.83
407.20	2576.93
407.39	2668.21
407.58	2822.69
407.77	2729.06
407.96	2736.09
408.15	2825.03
408.34	2722.04
408.54	2869.50
408.73	2883.54
408.92	2820.35
409.11	2935.03
409.30	2920.99
409.49	2977.16
409.68	2988.86
409.87	3000.57
410.07	2972.48
410.26	3002.91
410.45	2874.18
410.64	3164.40
410.83	3136.32
411.02	3162.06
411.21	3318.88
411.40	3316.54
411.59	3330.58
411.78	3316.54
411.98	3208.87
412.17	3258.03
412.36	3243.98
412.55	3187.81
412.74	3412.50
412.93	3361.01
413.12	3492.08
413.31	3648.90
413.50	3382.07
413.69	3417.18
413.88	3534.21
414.07	3559.95
414.26	3768.26
414.45	3737.84
414.64	3723.79
414.83	3772.94
415.02	3887.63
415.22	3852.52
415.41	3983.59
415.60	3784.65
415.79	4039.76
415.98	4032.74
416.17	3908.69
416.36	4121.68
416.55	3948.48
416.74	4152.11
416.93	4044.45
417.12	4182.54
417.31	4109.98
417.50	4142.75
417.69	4372.12
417.88	4360.42
418.07	4409.57
418.26	4346.37
418.45	4390.84
418.64	4573.41
418.83	4500.85
419.02	4435.32
419.21	4606.17
419.39	4624.90
419.58	4451.70
419.77	4634.26
419.96	4777.03
420.15	4608.51
420.34	4571.07
420.53	4603.83
420.72	4645.96
420.91	4664.69
421.10	4777.03
421.29	4905.76
421.48	4788.74
421.67	4840.23
421.86	4840.23
422.05	4840.23
422.24	4961.94
422.43	4833.21
422.61	5015.77
422.80	5027.47
422.99	5107.05
423.18	5034.49
423.37	5149.18
423.56	4940.87
423.75	4868.31
423.94	4943.21
424.13	4660.01
424.32	4908.10
424.50	5039.17
424.69	5139.82
424.88	5097.69
425.07	5004.07
425.26	4975.98
425.45	5081.30
425.64	5013.43
425.83	5039.17
426.01	5203.01
426.20	5228.76
426.39	5214.71
426.58	5174.92
426.77	5095.35
426.96	5177.26
427.15	5235.78
427.33	5217.05
427.52	5060.24
427.71	5263.86
427.90	5252.16
428.09	5439.40
428.28	5385.57
428.46	5535.37
428.65	5451.11
428.84	5624.31
429.03	5743.67
429.22	5437.06
429.40	5554.09
429.59	5563.45
429.78	5472.17
429.97	5479.19
430.16	5582.18
430.34	5628.99
430.53	5661.76
430.72	5675.80
430.91	5570.48
431.10	5694.52
431.28	5776.44
431.47	5935.60
431.66	6026.88
431.85	5767.08
432.03	6019.86
432.22	6050.28
432.41	6047.94
432.60	5937.94
432.79	5984.75
432.97	5982.41
433.16	6148.59
433.35	6015.18
433.54	6148.59
433.72	6050.28
433.91	6216.46
434.10	6174.33
434.28	6204.76
434.47	6111.14
434.66	6338.17
434.85	6384.98
435.03	6340.51
435.22	6366.26
435.41	6513.71
435.59	6518.39
435.78	6621.38
435.97	6527.75
436.16	6328.81
436.34	6619.04
436.53	6593.29
436.72	6604.99
436.90	6619.04
437.09	6736.06
437.28	6626.06
437.46	6612.01
437.65	6743.08
437.84	6822.66
438.02	6855.43
438.21	6766.49
438.40	6696.27
438.58	7063.74
438.77	6937.35
438.96	6967.77
439.14	7117.57
439.33	7239.28
439.52	7372.69
439.70	7026.29
439.89	7524.82
440.08	7456.95
440.26	7311.83
440.45	7442.90
440.63	7510.78
440.82	7737.81
441.01	7581.00
441.19	7810.37
441.38	7775.26
441.57	7829.09
441.75	7861.86
441.94	8013.99
442.12	8060.80
442.31	8002.29
442.50	8168.47
442.68	8135.70
442.87	8250.39
443.05	8311.24
443.24	8327.63
443.43	8100.59
443.61	8454.02
443.80	8482.10
443.98	8191.88
444.17	8035.06
444.35	8400.18
444.54	8435.29
444.73	8365.07
444.91	8294.86
445.10	8402.52
445.28	8524.23
445.47	8329.97
445.65	8446.99
445.84	8608.49
446.02	8697.43
446.21	8709.13
446.39	8566.36
446.58	8573.38
446.77	8538.27
446.95	8430.61
447.14	8592.11
447.32	8477.42
447.51	8547.64
447.69	8580.40
447.88	8664.66
448.06	8664.66
448.25	8615.51
448.43	8798.07
448.62	8746.58
448.80	8636.58
448.99	8674.03
449.17	8755.94
449.36	8774.67
449.54	8968.93
449.73	9135.11
449.91	9305.97
450.10	8896.38
450.28	9195.96
450.46	9198.31
450.65	9107.02
450.83	9322.35
451.02	9193.62
451.20	9469.81
451.39	9263.84
451.57	9341.08
451.76	9179.58
451.94	9151.49
452.13	9533.00
452.31	9350.44
452.49	9282.56
452.68	9303.63
452.86	9617.26
453.05	9579.81
453.23	9619.60
453.42	9549.39
453.60	9610.24
453.78	9643.01
453.97	9699.18
454.15	9626.62
454.34	9640.67
454.52	9858.34
454.70	9729.61
454.89	9905.15
455.07	10071.33
455.26	10120.48
455.44	10136.86
455.62	10127.50
455.81	10068.98
455.99	9954.30
456.17	9958.98
456.36	10143.88
456.54	10277.29
456.73	10331.12
456.91	10534.75
457.09	10394.32
457.28	10714.97
457.46	10579.22
457.64	10555.82
457.83	10824.98
458.01	10651.78
458.19	10899.87
458.38	10593.26
458.56	10827.32
458.74	10881.15
458.93	10768.80
459.11	10991.16
459.29	10810.93
459.48	11082.44
459.66	10974.77
459.84	10909.24
460.03	11346.92
460.21	11232.23
460.39	11040.31
460.57	11293.08
460.76	11452.24
460.94	11372.66
461.12	11386.71
461.31	11515.44
461.49	11360.96
461.67	11297.77
461.85	11843.11
462.04	11494.37
462.22	12079.50
462.40	11786.94
462.59	11786.94
462.77	11510.75
462.95	11578.63
463.13	11765.87
463.32	11719.06
463.50	11843.11
463.68	11873.54
463.86	11974.18
464.05	11845.45
464.23	11918.01
464.41	12013.97
464.59	11901.62
464.78	12362.71
464.96	12046.74
465.14	12030.35
465.32	12023.33
465.50	12411.86
465.69	12381.43
465.87	12149.72
466.05	12140.36
466.23	12451.65
466.41	12355.69
466.60	12606.13
466.78	12369.73
466.96	12334.62
467.14	12360.37
467.32	12547.61
467.51	12854.22
467.69	12400.16
467.87	12554.63
468.05	12627.19
468.23	12500.80
468.41	12477.40
468.60	12636.55
468.78	12971.25
468.96	12823.80
469.14	13142.11
469.32	12947.84
469.50	12753.58
469.69	13097.64
469.87	13179.56
470.05	13102.32
470.23	13263.82
470.41	13006.36
470.59	13455.74
470.77	13209.98
470.95	13404.25
471.14	13748.31
471.32	13448.72
471.50	13757.67
471.68	13708.52
471.86	13823.20
472.04	13858.31
472.22	14164.92
472.40	13919.17
472.58	14019.81
472.77	14019.81
472.95	14469.19
473.13	14824.95
473.31	14090.02
473.49	14443.45
473.67	14230.46
473.85	14466.85
474.03	14895.17
474.21	14822.61
474.39	14967.73
474.57	14841.34
474.75	14904.53
474.93	15353.91
475.12	15077.73
475.30	15332.85
475.48	15353.91
475.66	15463.92
475.84	15503.71
476.02	15744.78
476.20	15594.99
476.38	15868.83
476.56	16248.00
476.74	16027.99
476.92	16130.97
477.10	15917.98
477.28	16105.23
477.46	16348.64
477.64	16659.93
477.82	16758.24
478.00	17165.49
478.18	17083.57
478.36	17158.47
478.54	17598.49
478.72	17392.52
478.90	17556.36
479.08	17752.96
479.26	17759.98
479.44	18001.06
479.62	17996.38
479.80	18136.81
479.98	18298.31
480.16	18775.78
480.34	18703.22
480.52	18829.61
480.70	18731.31
480.88	18794.50
481.06	18970.04
481.24	18902.17
481.41	19440.49
481.59	19709.65
481.77	19878.17
481.95	20084.14
482.13	20112.22
482.31	19850.08
482.49	20683.31
482.67	20421.17
482.85	20739.49
483.03	21233.34
483.21	21427.60
483.39	21172.49
483.57	21371.43
483.74	21212.28
483.92	21727.19
484.10	21633.57
484.28	22160.19
484.46	22305.31
484.64	22803.84
484.82	22302.96
485.00	22656.39
485.18	22904.48
485.35	23484.94
485.53	23311.74
485.71	23388.97
485.89	23695.58
486.07	23875.80
486.25	23814.95
486.43	24016.24
486.61	24079.43
486.78	24283.06
486.96	24369.66
487.14	25118.63
487.32	24872.87
487.50	24961.81
487.68	25586.74
487.85	25748.23
488.03	25755.26
488.21	26448.05
488.39	26094.63
488.57	26103.99
488.75	26820.20
488.92	26677.43
489.10	27094.04
489.28	26918.50
489.46	27786.84
489.64	27421.72
489.81	27894.50
489.99	27988.13
490.17	28166.01
490.35	28353.25
490.53	28552.20
490.70	28493.68
490.88	28489.00
491.06	29127.97
491.24	29673.31
491.41	29708.42
491.59	30312.28
491.77	29652.25
491.95	29717.78
492.13	30061.84
492.30	30422.28
492.48	30639.95
492.66	30604.84
492.84	30740.60
493.01	31189.98
493.19	31084.65
493.37	31297.64
493.54	31519.99
493.72	31707.24
493.90	31899.16
494.08	32343.86
494.25	32325.14
494.43	32650.47
494.61	32779.20
494.79	33064.75
494.96	32912.61
495.14	33467.32
495.32	33666.27
495.49	33425.19
495.67	33890.96
495.85	33923.72
496.02	34061.82
496.20	34010.32
496.38	34698.44
496.55	34693.76
496.73	34653.97
496.91	34583.76
497.09	35304.64
497.26	35896.80
497.44	35756.36
497.62	35943.61
497.79	36275.96
497.97	36556.83
498.14	36243.20
498.32	37085.79
498.50	36800.24
498.67	37223.88
498.85	37137.28
499.03	36952.38
499.20	37282.39
499.38	37308.14
499.56	37769.22
499.73	37638.15
499.91	38050.09
500.08	38555.64
500.26	37893.27
500.44	38176.48
500.61	38689.06
500.79	37996.26
500.97	38836.51
501.14	39143.12
501.32	38902.04
501.49	39075.24
501.67	38859.91
501.84	39559.73
502.02	39246.10
502.20	39536.33
502.37	40177.64
502.55	39950.60
502.72	39751.66
502.90	39988.05
503.07	40016.14
503.25	40418.71
503.43	40357.86
503.60	40781.49
503.78	40879.80
503.95	41067.04
504.13	41132.57
504.30	40882.14
504.48	41216.83
504.65	41406.42
504.83	41720.05
505.01	42272.42
505.18	41706.01
505.36	42490.09
505.53	42391.78
505.71	42405.83
505.88	42363.70
506.06	42359.02
506.23	42513.49
506.41	42249.01
506.58	42918.40
506.76	43075.22
506.93	42895.00
507.11	43098.62
507.28	43356.08
507.46	43615.88
507.63	43395.87
507.81	44135.48
507.98	43447.36
508.16	43463.75
508.33	43660.35
508.50	43744.61
508.68	44123.78
508.85	44425.71
509.03	44236.12
509.20	44540.39
509.38	44631.68
509.55	45153.62
509.73	45244.90
509.90	45099.78
510.08	45069.36
510.25	45055.31
510.42	44865.73
510.60	45471.93
510.77	45525.76
510.95	46206.86
511.12	45755.13
511.30	45537.46
511.47	46038.34
511.64	45998.55
511.82	46026.63
511.99	45937.69
512.17	46391.76
512.34	46548.57
512.51	46712.41
512.69	47283.50
512.86	46780.29
513.04	47227.33
513.21	46972.21
513.38	47075.19
513.56	47704.80
513.73	47503.51
513.90	47327.97
514.08	47257.76
514.25	48058.22
514.43	47917.79
514.60	48093.33
514.77	47810.12
514.95	48638.67
515.12	48198.65
515.29	47945.87
515.47	48591.86
515.64	48727.61
515.81	48418.66
515.99	49001.46
516.16	49027.20
516.33	48877.41
516.51	49392.33
516.68	48832.94
516.85	49240.19
517.03	49556.16
517.20	49345.51
517.37	49230.83
517.54	49469.56
517.72	49464.88
517.89	49666.17
518.06	49968.10
518.24	49834.69
518.41	49703.62
518.58	49860.43
518.75	49818.30
518.93	50176.40
519.10	49928.31
519.27	50115.55
519.45	50389.39
519.62	50293.43
519.79	50033.63
519.96	50351.94
520.14	50272.37
520.31	50497.06
520.48	50962.82
520.65	51002.61
520.83	51323.27
521.00	51393.48
521.17	50981.55
521.34	50944.10
521.52	51295.18
521.69	51145.39
521.86	51489.45
522.03	51641.58
522.20	51821.80
522.38	52097.98
522.55	52051.17
522.72	51716.48
522.89	51831.16
523.07	51969.26
523.24	51913.08
523.41	52154.16
523.58	51779.67
523.75	52463.11
523.92	52280.55
524.10	52617.58
524.27	52479.49
524.44	52594.18
524.61	52767.38
524.78	52514.60
524.96	52355.44
525.13	52746.31
525.30	53179.31
525.47	53085.69
525.64	52975.69
525.81	53155.91
525.98	53291.66
526.16	53043.56
526.33	53076.33
526.50	53429.75
526.67	53207.40
526.84	53708.27
527.01	53427.41
527.18	53411.02
527.36	53312.72
527.53	53340.81
527.70	53827.64
527.87	54017.22
528.04	53577.20
528.21	53680.19
528.38	53900.20
528.55	53961.05
528.72	53846.36
528.89	53930.62
529.07	53858.07
529.24	53947.01
529.41	54071.06
529.58	54017.22
529.75	53820.62
529.92	54206.81
530.09	54412.77
530.26	54391.71
530.43	54464.27
530.60	54106.16
530.77	54202.13
530.94	54316.81
531.11	54571.93
531.28	54660.87
531.46	54550.87
531.63	54607.04
531.80	54834.07
531.97	54920.67
532.14	54953.44
532.31	54618.74
532.48	55030.68
532.65	54965.14
532.82	54522.78
532.99	55433.25
533.16	55079.83
533.33	55318.56
533.50	55407.50
533.67	55217.92
533.84	55192.17
534.01	55313.88
534.18	55430.91
534.35	55781.99
534.52	55463.67
534.69	55711.77
534.86	55840.50
535.03	55388.78
535.20	55744.54
535.37	55667.30
535.54	55648.58
535.71	55620.49
535.88	55805.39
536.05	55931.78
536.22	55910.72
536.38	55913.06
536.55	55891.99
536.72	56072.21
536.89	55807.73
537.06	55990.30
537.23	56303.93
537.40	55915.40
537.57	55767.94
537.74	56200.94
537.91	56357.76
538.08	56324.99
538.25	56205.62
538.42	56348.40
538.59	56498.19
538.75	56341.38
538.92	56432.66
539.09	56399.89
539.26	56528.62
539.43	56280.52
539.60	56591.81
539.77	56685.43
539.94	56788.42
540.11	56865.66
540.28	56956.94
540.44	56853.95
540.61	56662.03
540.78	56868.00
540.95	56549.68
541.12	56757.99
541.29	56938.21
541.46	56900.76
541.62	56921.83
541.79	56959.28
541.96	56615.22
542.13	56961.62
542.30	56999.07
542.47	57326.74
542.63	57186.31
542.80	57289.29
542.97	57427.38
543.14	57724.63
543.31	57251.84
543.48	57462.49
543.64	57719.95
543.81	57677.82
543.98	57588.88
544.15	57584.20
544.32	57811.23
544.48	58010.18
544.65	57736.34
544.82	57696.55
544.99	57860.38
545.16	57902.51
545.32	57694.21
545.49	57956.35
545.66	57944.64
545.83	58075.71
546.00	58164.65
546.16	57984.43
546.33	58000.82
546.50	57717.61
546.67	58127.20
546.83	57970.39
547.00	58190.40
547.17	58213.80
547.34	58061.67
547.50	58440.84
547.67	58541.48
547.84	58658.51
548.00	58361.26
548.17	58607.01
548.34	58422.11
548.51	58691.27
548.67	58628.08
548.84	58452.54
549.01	58358.92
549.18	58574.25
549.34	58459.56
549.51	58431.47
549.68	58728.72
549.84	58630.42
550.01	58873.84
550.18	58562.54
550.34	58714.68
550.51	58796.60
550.68	58677.23
550.84	58590.63
551.01	58918.31
551.18	58976.82
551.34	58845.75
551.51	58880.86
551.68	58850.43
551.84	58869.15
552.01	58651.48
552.18	59150.02
552.34	58712.34
552.51	58967.46
552.68	58843.41
552.84	59068.10
553.01	59145.34
553.18	59077.46
553.34	59262.36
553.51	59250.66
553.67	59126.61
553.84	59189.81
554.01	59128.95
554.17	59405.14
554.34	59206.19
554.51	59283.43
554.67	59505.78
554.84	59590.04
555.00	59374.71
555.17	59215.55
555.33	59412.16
555.50	59248.32
555.67	59196.83
555.83	59468.33
556.00	59442.59
556.16	59714.09
556.33	59519.82
556.50	59407.48
556.66	59587.70
556.83	59519.82
556.99	59784.30
557.16	59746.86
557.32	59889.63
557.49	59957.50
557.65	59678.98
557.82	59704.73
557.98	59625.15
558.15	59849.84
558.32	60041.76
558.48	59800.69
558.65	59873.24
558.81	59870.90
558.98	59903.67
559.14	60048.78
559.31	60086.23
559.47	60023.04
559.64	60119.00
559.80	59854.52
559.97	59922.40
560.13	59927.08
560.30	60060.49
560.46	60020.70
560.63	59957.50
560.79	60175.17
560.96	60186.88
561.12	60006.65
561.29	60224.32
561.45	60177.51
561.61	60067.51
561.78	60296.88
561.94	60154.11
562.11	60123.68
562.27	60044.10
562.44	60348.37
562.60	60423.27
562.77	60048.78
562.93	60350.71
563.10	60306.24
563.26	60243.05
563.42	60697.11
563.59	60299.22
563.75	60287.52
563.92	60427.95
564.08	60320.29
564.24	60425.61
564.41	60224.32
564.57	60484.12
564.74	60310.92
564.90	60652.64
565.07	60353.05
565.23	60282.84
565.39	60198.58
565.56	60381.14
565.72	60292.20
565.88	60701.79
566.05	60484.12
566.21	60334.33
566.38	60786.05
566.54	60659.66
566.70	60626.90
566.87	60715.84
567.03	60645.62
567.19	60797.76
567.36	60762.65
567.52	60472.42
567.68	60647.96
567.85	60566.04
568.01	60846.91
568.17	60584.77
568.34	60605.83
568.50	60554.34
568.66	60474.76
568.83	60914.78
568.99	60666.69
569.15	60921.80
569.32	60697.11
569.48	60772.01
569.64	60975.64
569.81	60704.13
569.97	60872.65
570.13	60757.97
570.30	60659.66
570.46	60849.25
570.62	60935.85
570.78	60832.86
570.95	60987.34
571.11	60830.52
571.27	60891.38
571.43	60853.93
571.60	60977.98
571.76	60900.74
571.92	60839.89
572.09	60837.54
572.25	60968.61
572.41	60898.40
572.57	61064.58
572.74	61279.91
572.90	61102.03
573.06	60970.96
573.22	60973.30
573.38	60893.72
573.55	60947.55
573.71	61293.95
573.87	61003.72
574.03	60800.10
574.20	60858.61
574.36	60825.84
574.52	61031.81
574.68	61020.11
574.84	61219.05
575.01	60917.12
575.17	61087.98
575.33	60968.61
575.49	60945.21
575.65	61080.96
575.82	61303.31
575.98	61230.75
576.14	61249.48
576.30	61237.78
576.46	61050.53
576.62	60896.06
576.79	61080.96
576.95	60921.80
577.11	61010.74
577.27	60987.34
577.43	61099.68
577.59	60985.00
577.75	61109.05
577.92	60905.42
578.08	61116.07
578.24	61144.16
578.40	61155.86
578.56	61305.65
578.72	61258.84
578.88	61186.28
579.04	61455.45
579.21	61235.44
579.37	61371.19
579.53	61268.20
579.69	61254.16
579.85	61137.13
580.01	61174.58
580.17	61197.99
580.33	61300.97
580.49	61272.88
580.65	61256.50
580.82	61186.28
580.98	61179.26
581.14	60996.70
581.30	61336.08
581.46	61111.39
581.62	61268.20
581.78	61205.01
581.94	61240.12
582.10	61284.59
582.26	61265.86
582.42	61155.86
582.58	61148.84
582.74	61425.02
582.90	61354.80
583.06	61212.03
583.22	61001.38
583.38	61401.61
583.54	61422.68
583.70	61265.86
583.86	61326.72
584.02	61169.90
584.18	61443.74
584.34	61403.95
584.50	61279.91
584.66	61151.18
584.82	61003.72
584.98	61427.36
585.14	61230.75
585.30	61303.31
585.46	61279.91
585.62	61205.01
585.78	61511.62
585.94	61279.91
586.10	61326.72
586.26	61277.57
586.42	61364.17
586.58	61399.27
586.74	61298.63
586.90	61228.41
587.06	61324.38
587.22	61638.01
587.38	61635.67
587.54	61630.99
587.70	61614.60
587.86	61457.79
588.02	61312.67
588.18	61640.35
588.34	61427.36
588.49	61279.91
