SpectraSuite Data File
++++++++++++++++++++++++++++++++++++
Date: Fri Oct 25 10:46:55 EDT 2013
User: price-jones
Dark Spectrum Present: No
Reference Spectrum Present: No
Number of Sampled Component Spectra: 1
Spectrometers: USB2+H05261
Integration Time (usec): 100000 (USB2+H05261)
Spectra Averaged: 1 (USB2+H05261)
Boxcar Smoothing: 0 (USB2+H05261)
Correct for Electrical Dark: No (USB2+H05261)
Strobe/Lamp Enabled: No (USB2+H05261)
Correct for Detector Non-linearity: No (USB2+H05261)
Correct for Stray Light: No (USB2+H05261)
Number of Pixels in Processed Spectrum: 2048
>>>>>Begin Processed Spectral Data<<<<<
365.73	159.16
365.92	159.16
366.12	159.16
366.32	2.34
366.52	0.00
366.72	95.96
366.91	25.75
367.11	112.35
367.31	25.75
367.51	18.72
367.70	25.75
367.90	0.00
368.10	32.77
368.30	67.88
368.49	56.17
368.69	37.45
368.89	0.00
369.09	46.81
369.28	32.77
369.48	0.00
369.68	65.54
369.87	114.69
370.07	63.19
370.27	67.88
370.47	184.90
370.66	414.27
370.86	449.38
371.06	486.83
371.25	458.74
371.45	430.66
371.65	407.25
371.84	510.24
372.04	547.69
372.24	496.19
372.44	514.92
372.63	573.43
372.83	540.66
373.03	543.00
373.22	524.28
373.42	573.43
373.62	489.17
373.81	573.43
374.01	585.13
374.21	557.05
374.40	564.07
374.60	550.03
374.79	587.47
374.99	636.63
375.19	561.73
375.38	634.29
375.58	645.99
375.78	648.33
375.97	636.63
376.17	636.63
376.37	650.67
376.56	620.24
376.76	610.88
376.95	669.39
377.15	601.52
377.35	655.35
377.54	709.18
377.74	638.97
377.93	737.27
378.13	695.14
378.33	667.05
378.52	683.44
378.72	709.18
378.91	650.67
379.11	643.65
379.31	702.16
379.50	631.94
379.70	650.67
379.89	704.50
380.09	699.82
380.28	702.16
380.48	690.46
380.68	723.23
380.87	702.16
381.07	718.54
381.26	699.82
381.46	758.33
381.65	758.33
381.85	716.20
382.04	744.29
382.24	702.16
382.43	734.93
382.63	730.25
382.83	723.23
383.02	798.12
383.22	830.89
383.41	739.61
383.61	755.99
383.80	760.67
384.00	802.80
384.19	683.44
384.39	781.74
384.58	849.61
384.78	793.44
384.97	821.53
385.17	849.61
385.36	805.14
385.56	858.98
385.75	781.74
385.95	849.61
386.14	842.59
386.34	875.36
386.53	856.64
386.72	800.46
386.92	777.06
387.11	868.34
387.31	901.11
387.50	901.11
387.70	835.57
387.89	889.40
388.09	926.85
388.28	826.21
388.48	873.02
388.67	1039.20
388.86	968.98
389.06	894.08
389.25	1032.18
389.45	931.53
389.64	903.45
389.84	971.32
390.03	950.26
390.22	973.66
390.42	994.73
390.61	983.02
390.81	1011.11
391.00	1027.50
391.19	1083.67
391.39	1043.88
391.58	994.73
391.78	1025.15
391.97	1095.37
392.16	1032.18
392.36	1102.39
392.55	980.68
392.75	1022.81
392.94	1020.47
393.13	1076.65
393.33	985.37
393.52	1053.24
393.71	1125.80
393.91	1151.54
394.10	1151.54
394.29	1097.71
394.49	1128.14
394.68	1193.67
394.88	1233.46
395.07	1313.04
395.26	1200.69
395.46	1313.04
395.65	1221.76
395.84	1233.46
396.04	1268.57
396.23	1240.48
396.42	1249.85
396.62	1299.00
396.81	1207.72
397.00	1221.76
397.19	1256.87
397.39	1397.30
397.58	1376.24
397.77	1423.05
397.97	1416.02
398.16	1416.02
398.35	1465.18
398.55	1324.74
398.74	1437.09
398.93	1500.28
399.12	1507.30
399.32	1486.24
399.51	1568.16
399.70	1511.99
399.90	1516.67
400.09	1629.01
400.28	1647.74
400.47	1586.88
400.67	1565.82
400.86	1657.10
401.05	1692.21
401.24	1724.97
401.44	1640.72
401.63	1764.76
401.82	1605.61
402.01	1685.19
402.21	1762.42
402.40	1753.06
402.59	1614.97
402.78	1624.33
402.97	1771.79
403.17	1764.76
403.36	1806.89
403.55	1769.44
403.74	1844.34
403.93	1884.13
404.13	1844.34
404.32	1844.34
404.51	1853.70
404.70	1959.03
404.89	1975.41
405.09	2022.22
405.28	1914.56
405.47	1902.86
405.66	1921.58
405.85	2050.31
406.05	1912.22
406.24	1944.99
406.43	1949.67
406.62	2106.48
406.81	2108.82
407.00	1996.48
407.20	2003.50
407.39	1968.39
407.58	2207.13
407.77	2111.16
407.96	2132.23
408.15	2223.51
408.34	2200.10
408.54	2286.70
408.73	2249.25
408.92	2211.81
409.11	2321.81
409.30	2429.48
409.49	2356.92
409.68	2232.87
409.87	2354.58
410.07	2345.22
410.26	2272.66
410.45	2356.92
410.64	2401.39
410.83	2457.56
411.02	2361.60
411.21	2499.69
411.40	2579.27
411.59	2516.08
411.78	2605.02
411.98	2605.02
412.17	2593.31
412.36	2572.25
412.55	2679.91
412.74	2747.79
412.93	2686.94
413.12	2635.44
413.31	2759.49
413.50	2752.47
413.69	2855.45
413.88	2944.39
414.07	2850.77
414.26	2839.07
414.45	2946.73
414.64	3054.40
414.83	3005.25
415.02	2986.52
415.22	3054.40
415.41	2993.55
415.60	3033.33
415.79	3190.15
415.98	3229.94
416.17	3117.59
416.36	3148.02
416.55	3227.60
416.74	3272.07
416.93	3272.07
417.12	3225.26
417.31	3330.58
417.50	3398.46
417.69	3396.12
417.88	3435.91
418.07	3377.39
418.26	3435.91
418.45	3492.08
418.64	3585.70
418.83	3613.79
419.02	3440.59
419.21	3496.76
419.39	3571.66
419.58	3389.10
419.77	3421.86
419.96	3574.00
420.15	3609.11
420.34	3667.62
420.53	3775.28
420.72	3775.28
420.91	3775.28
421.10	3899.33
421.29	3765.92
421.48	3871.25
421.67	3882.95
421.86	3779.97
422.05	3782.31
422.24	3733.15
422.43	3686.34
422.61	3770.60
422.80	3861.88
422.99	3892.31
423.18	3950.82
423.37	3960.19
423.56	3885.29
423.75	3761.24
423.94	3894.65
424.13	3646.55
424.32	3740.18
424.50	3845.50
424.69	4011.68
424.88	3997.64
425.07	4004.66
425.26	3808.05
425.45	3836.14
425.64	4025.72
425.83	3836.14
426.01	4070.19
426.20	3992.95
426.39	4053.81
426.58	3957.85
426.77	3754.22
426.96	3985.93
427.15	4037.42
427.33	4088.92
427.52	4065.51
427.71	3875.93
427.90	4189.56
428.09	4060.83
428.28	4067.85
428.46	4042.11
428.65	4231.69
428.84	4112.32
429.03	4175.52
429.22	3974.23
429.40	4063.17
429.59	4072.53
429.78	3974.23
429.97	3927.42
430.16	4147.43
430.34	4159.13
430.53	4107.64
430.72	4262.12
430.91	4135.73
431.10	4283.18
431.28	4482.13
431.47	4440.00
431.66	4652.98
431.85	4475.10
432.03	4578.09
432.22	4674.05
432.41	4615.54
432.60	4660.01
432.79	4571.07
432.97	4847.25
433.16	4566.39
433.35	4533.62
433.54	4561.70
433.72	4620.22
433.91	4620.22
434.10	4552.34
434.28	4669.37
434.47	4737.24
434.66	4765.33
434.85	4791.08
435.03	4961.94
435.22	4833.21
435.41	5156.20
435.59	5004.07
435.78	5144.50
435.97	5146.84
436.16	5036.83
436.34	5025.13
436.53	5172.58
436.72	5231.10
436.90	5142.16
437.09	5076.62
437.28	4917.47
437.46	5153.86
437.65	5200.67
437.84	5053.22
438.02	5207.69
438.21	5160.88
438.40	5053.22
438.58	5336.42
438.77	5406.64
438.96	5432.38
439.14	5380.89
439.33	5514.30
439.52	5593.88
439.70	5638.35
439.89	5713.25
440.08	5544.73
440.26	5563.45
440.45	5575.16
440.63	5607.92
440.82	5905.17
441.01	5863.04
441.19	5865.38
441.38	6080.71
441.57	5949.64
441.75	6204.76
441.94	6263.27
442.12	6181.35
442.31	6239.87
442.50	6274.98
442.68	6204.76
442.87	6352.21
443.05	6232.85
443.24	6345.19
443.43	6389.66
443.61	6195.40
443.80	6492.65
443.98	6340.51
444.17	6033.90
444.35	6459.88
444.54	6438.81
444.73	6553.50
444.91	6408.39
445.10	6174.33
445.28	6282.00
445.47	6370.94
445.65	6307.74
445.84	6480.94
446.02	6544.14
446.21	6410.73
446.39	6427.11
446.58	6609.67
446.77	6506.69
446.95	6511.37
447.14	6555.84
447.32	6621.38
447.51	6555.84
447.69	6586.27
447.88	6462.22
448.06	6707.98
448.25	6700.95
448.43	6614.35
448.62	6670.53
448.80	6712.66
448.99	6698.61
449.17	6740.74
449.36	6874.15
449.54	6860.11
449.73	6927.99
449.91	6878.83
450.10	6946.71
450.28	7021.61
450.46	7082.46
450.65	7178.42
450.83	7241.62
451.02	7194.81
451.20	7117.57
451.39	7171.40
451.57	7129.27
451.76	7194.81
451.94	7236.94
452.13	7321.20
452.31	7236.94
452.49	7129.27
452.68	7138.63
452.86	7073.10
453.05	7272.04
453.23	7206.51
453.42	7042.67
453.60	7276.73
453.78	7400.77
453.97	7321.20
454.15	7470.99
454.34	7433.54
454.52	7499.08
454.70	7370.35
454.89	7541.21
455.07	7466.31
455.26	7683.98
455.44	7658.23
455.62	7599.72
455.81	7751.85
455.99	7899.31
456.17	7744.83
456.36	7852.50
456.54	7793.98
456.73	7925.05
456.91	7957.82
457.09	8091.23
457.28	8154.43
457.46	7864.20
457.64	8107.62
457.83	8112.30
458.01	7775.26
458.19	8168.47
458.38	8079.53
458.56	7950.80
458.74	7932.08
458.93	8004.63
459.11	8198.90
459.29	8241.03
459.48	8313.58
459.66	8386.14
459.84	8215.28
460.03	8262.09
460.21	8360.39
460.39	8477.42
460.57	8421.25
460.76	8634.24
460.94	8428.27
461.12	8493.80
461.31	8709.13
461.49	8514.87
461.67	8564.02
461.85	8863.61
462.04	8716.16
462.22	9170.22
462.40	8826.16
462.59	8847.22
462.77	8751.26
462.95	8781.69
463.13	9029.79
463.32	8788.71
463.50	8964.25
463.68	8997.02
463.86	8861.27
464.05	8669.34
464.23	8823.82
464.41	8676.37
464.59	8898.72
464.78	9200.65
464.96	8791.05
465.14	8847.22
465.32	9160.86
465.50	9228.73
465.69	9280.22
465.87	9200.65
466.05	9125.75
466.23	8980.64
466.41	9245.12
466.60	9371.50
466.78	9011.06
466.96	9327.03
467.14	9179.58
467.32	9172.56
467.51	9523.64
467.69	9036.81
467.87	9266.18
468.05	9329.38
468.23	9371.50
468.41	9298.95
468.60	9467.47
468.78	9441.72
468.96	9460.45
469.14	9537.68
469.32	9551.73
469.50	9584.49
469.69	9572.79
469.87	9650.03
470.05	9764.72
470.23	9792.80
470.41	9577.47
470.59	9942.60
470.77	9848.97
470.95	9753.01
471.14	9788.12
471.32	9755.35
471.50	10164.95
471.68	10057.28
471.86	10312.40
472.04	10251.55
472.22	10501.98
472.40	10101.75
472.58	10298.36
472.77	10396.66
472.95	10431.77
473.13	10771.15
473.31	10492.62
473.49	10406.02
473.67	10450.49
473.85	10747.74
474.03	10904.56
474.21	10785.19
474.39	10984.13
474.57	10817.96
474.75	11082.44
474.93	11101.16
475.12	10967.75
475.30	11180.74
475.48	11162.01
475.66	11140.95
475.84	11396.07
476.02	11405.43
476.20	11375.00
476.38	11496.71
476.56	11658.21
476.74	11510.75
476.92	11641.82
477.10	11887.58
477.28	11786.94
477.46	11868.86
477.64	12044.40
477.82	12369.73
478.00	12444.63
478.18	12540.59
478.36	12451.65
478.54	12496.12
478.72	12901.03
478.90	12807.41
479.08	12966.57
479.26	13282.54
479.44	13032.10
479.62	13160.83
479.80	13167.85
479.98	13078.91
480.16	13598.51
480.34	13348.08
480.52	13467.44
480.70	13631.28
480.88	13448.72
481.06	13626.60
481.24	14029.17
481.41	14284.29
481.59	14373.23
481.77	14328.76
481.95	14600.26
482.13	14197.69
482.31	14551.11
482.49	14663.46
482.67	14640.05
482.85	14691.54
483.03	15000.49
483.21	15234.55
483.39	15300.08
483.57	15424.13
483.74	15431.15
483.92	15477.96
484.10	15351.57
484.28	15683.93
484.46	16271.40
484.64	16159.06
484.82	15840.75
485.00	16189.49
485.18	16425.88
485.35	16472.69
485.53	16093.52
485.71	16297.15
485.89	16301.83
486.07	16343.96
486.25	16566.31
486.43	16772.28
486.61	17041.44
486.78	17067.19
486.96	17249.75
487.14	17614.87
487.32	17572.74
487.50	17811.48
487.68	17788.07
487.85	18328.74
488.03	18260.86
488.21	18574.49
488.39	18607.26
488.57	18443.42
488.75	18712.58
488.92	19049.62
489.10	19215.80
489.28	19250.91
489.46	19548.15
489.64	19314.10
489.81	19964.77
489.99	20027.96
490.17	20163.72
490.35	20425.86
490.53	20102.86
490.70	20669.27
490.88	20215.21
491.06	20929.07
491.24	20830.77
491.41	20659.91
491.59	20720.76
491.77	20872.90
491.95	21245.04
492.13	21046.10
492.30	21401.86
492.48	21764.64
492.66	21542.29
492.84	21806.77
493.01	21991.67
493.19	22221.05
493.37	21841.88
493.54	22370.84
493.72	22492.55
493.90	22588.51
494.08	23019.17
494.25	22637.66
494.43	22890.44
494.61	23012.15
494.79	23388.97
494.96	23058.96
495.14	23278.97
495.32	23239.18
495.49	23655.79
495.67	23686.22
495.85	23896.87
496.02	24081.77
496.20	23831.33
496.38	24013.90
496.55	24292.42
496.73	24978.20
496.91	24760.53
497.09	25118.63
497.26	24961.81
497.44	24886.92
497.62	24865.85
497.79	25193.53
497.97	25322.26
498.14	25640.57
498.32	25338.64
498.50	25259.06
498.67	25991.65
498.85	25434.60
499.03	26267.83
499.20	26218.68
499.38	26185.91
499.56	26199.96
499.73	26473.80
499.91	26235.06
500.08	26838.92
500.26	26356.77
500.44	26480.82
500.61	26504.23
500.79	26382.52
500.97	26766.37
501.14	26850.63
501.32	26831.90
501.49	26796.79
501.67	27194.68
501.84	27110.43
502.02	27166.60
502.20	27606.62
502.37	27384.27
502.55	27772.80
502.72	27807.90
502.90	28395.38
503.07	27777.48
503.25	28184.73
503.43	27854.72
503.60	28161.33
503.78	28034.94
503.95	28247.93
504.13	28371.97
504.30	28891.57
504.48	28699.65
504.65	28929.02
504.83	28730.08
505.01	29228.61
505.18	28938.38
505.36	29387.77
505.53	29207.55
505.71	29577.35
505.88	30092.27
506.06	29207.55
506.23	29221.59
506.41	29308.19
506.58	29631.18
506.76	29853.53
506.93	30054.82
507.11	29970.56
507.28	30141.42
507.46	29949.50
507.63	29729.48
507.81	30202.27
507.98	30188.23
508.16	30377.81
508.33	30183.55
508.50	30302.92
508.68	30834.22
508.85	31068.27
509.03	30890.39
509.20	30728.89
509.38	31147.85
509.55	31194.66
509.73	31639.36
509.90	31615.96
510.08	30993.37
510.25	31248.49
510.42	31370.20
510.60	31611.28
510.77	31653.40
510.95	32105.13
511.12	32002.14
511.30	31908.52
511.47	32252.58
511.64	32439.82
511.82	32418.76
511.99	32182.37
512.17	32233.86
512.34	32236.20
512.51	32690.26
512.69	32395.35
512.86	32868.14
513.04	32933.68
513.21	32818.99
513.38	32795.59
513.56	32704.31
513.73	32903.25
513.90	32811.97
514.08	33163.05
514.25	33174.75
514.43	33172.41
514.60	33467.32
514.77	33198.16
514.95	33759.89
515.12	34050.11
515.29	33577.33
515.47	33614.77
515.64	34422.26
515.81	33830.10
515.99	33584.35
516.16	33308.16
516.33	33535.20
516.51	33617.11
516.68	33647.54
516.85	33450.94
517.03	33677.97
517.20	33680.31
517.37	33942.45
517.54	34022.03
517.72	34359.06
517.89	34356.72
518.06	33907.34
518.24	34284.17
518.41	34286.51
518.58	34253.74
518.75	34459.71
518.93	34747.59
519.10	34890.37
519.27	35086.97
519.45	35204.00
519.62	35255.49
519.79	34890.37
519.96	35077.61
520.14	35690.83
520.31	35351.45
520.48	35164.21
520.65	35140.80
520.83	36095.74
521.00	35988.08
521.17	35597.21
521.34	36070.00
521.52	36723.01
521.69	36170.64
521.86	36259.58
522.03	36196.38
522.20	36456.18
522.38	35985.74
522.55	36411.71
522.72	36318.09
522.89	36533.42
523.07	36783.86
523.24	36725.35
523.41	36582.57
523.58	36481.93
523.75	37596.03
523.92	37338.57
524.10	37172.39
524.27	37078.77
524.44	37148.98
524.61	37329.20
524.78	37495.38
524.96	37694.33
525.13	37642.84
525.30	38185.84
525.47	38064.13
525.64	37811.35
525.81	37509.43
525.98	37895.61
526.16	37219.20
526.33	37504.74
526.50	37624.11
526.67	36940.68
526.84	37301.12
527.01	37214.52
527.18	37638.15
527.36	38033.71
527.53	38096.90
527.70	38630.54
527.87	38232.65
528.04	38447.98
528.21	38422.23
528.38	38515.86
528.55	38855.23
528.72	38682.03
528.89	38689.06
529.07	38735.87
529.24	38466.70
529.41	39105.67
529.58	38859.91
529.75	38834.17
529.92	38876.30
530.09	38705.44
530.26	38965.24
530.43	39433.35
530.60	39089.29
530.77	39089.29
530.94	39531.65
531.11	39360.79
531.28	39332.70
531.46	39466.11
531.63	39700.17
531.80	39445.05
531.97	39480.16
532.14	39466.11
532.31	39519.95
532.48	39613.57
532.65	39379.51
532.82	39278.87
532.99	39966.99
533.16	39335.04
533.33	40177.64
533.50	40002.10
533.67	40032.52
533.84	39981.03
534.01	40430.41
534.18	40142.53
534.35	40301.68
534.52	40292.32
534.69	40631.70
534.86	40329.77
535.03	40161.25
535.20	40566.16
535.37	40996.82
535.54	40517.01
535.71	40669.15
535.88	40566.16
536.05	40629.36
536.22	40687.87
536.38	41258.96
536.55	40624.68
536.72	40842.35
536.89	40786.18
537.06	40758.09
537.23	41048.32
537.40	40722.98
537.57	40526.38
537.74	41226.20
537.91	41394.71
538.08	41535.15
538.25	41212.15
538.42	41553.87
538.59	41422.80
538.75	41179.39
538.92	41521.10
539.09	41682.60
539.26	41715.37
539.43	41212.15
539.60	41469.61
539.77	41446.21
539.94	41209.81
540.11	41441.53
540.28	41586.64
540.44	41542.17
540.61	42052.41
540.78	41624.09
540.95	41858.14
541.12	41710.69
541.29	41762.18
541.46	41434.50
541.62	42038.36
541.79	41731.75
541.96	42043.04
542.13	42241.99
542.30	41984.53
542.47	42017.30
542.63	41888.57
542.80	42497.11
542.97	42724.14
543.14	42988.62
543.31	43124.37
543.48	42735.84
543.64	43367.79
543.81	42979.26
543.98	42595.41
544.15	43065.86
544.32	42859.89
544.48	43196.93
544.65	42962.87
544.82	42923.08
544.99	42665.63
545.16	43222.67
545.32	42733.50
545.49	43199.27
545.66	43330.34
545.83	43096.28
546.00	43405.23
546.16	42806.06
546.33	43089.26
546.50	42990.96
546.67	43342.04
546.83	43470.77
547.00	43650.99
547.17	43225.01
547.34	43480.13
547.50	43143.09
547.67	43756.32
547.84	43604.18
548.00	43756.32
548.17	43826.53
548.34	43810.15
548.51	44039.52
548.67	43966.96
548.84	43765.68
549.01	44016.11
549.18	43859.30
549.34	43283.53
549.51	44121.44
549.68	44046.54
549.84	44519.33
550.01	44680.83
550.18	44130.80
550.34	44673.81
550.51	44135.48
550.68	43821.85
550.84	44030.16
551.01	44472.52
551.18	43950.58
551.34	43955.26
551.51	44289.96
551.68	44577.84
551.84	44449.11
552.01	44065.27
552.18	44353.15
552.34	44350.81
552.51	43878.02
552.68	44650.40
552.84	44683.17
553.01	44921.90
553.18	44971.05
553.34	44470.18
553.51	44538.05
553.67	44528.69
553.84	45170.00
554.01	45216.81
554.17	45069.36
554.34	45200.43
554.51	44556.78
554.67	45198.09
554.84	44800.19
555.00	44893.82
555.17	44786.15
555.33	45226.17
555.50	45008.50
555.67	44938.29
555.83	44928.92
556.00	44774.45
556.16	44931.26
556.33	45069.36
556.50	44910.20
556.66	45418.10
556.83	45127.87
556.99	45256.60
557.16	45223.83
557.32	45125.53
557.49	45242.56
557.65	44694.87
557.82	45366.60
557.98	45013.18
558.15	45057.65
558.32	45141.91
558.48	44999.14
558.65	45427.46
558.81	45219.15
558.98	45195.74
559.14	45106.80
559.31	45015.52
559.47	45347.88
559.64	45628.74
559.80	45521.08
559.97	45862.80
560.13	45352.56
560.30	45492.99
560.46	45918.97
560.63	45698.96
560.79	45621.72
560.96	45570.23
561.12	45619.38
561.29	45420.44
561.45	45551.51
561.61	45532.78
561.78	45708.32
561.94	45380.65
562.11	45603.00
562.27	45467.25
562.44	45624.06
562.60	45844.07
562.77	45851.09
562.93	45703.64
563.10	45832.37
563.26	45474.27
563.42	46089.83
563.59	45956.42
563.75	46038.34
563.92	46569.64
564.08	45947.06
564.24	46241.96
564.41	45937.69
564.57	45755.13
564.74	45663.85
564.90	45741.09
565.07	45968.12
565.23	45815.99
565.39	45572.57
565.56	46113.23
565.72	45947.06
565.88	45729.39
566.05	45780.88
566.21	46075.79
566.38	45759.81
566.54	45930.67
566.70	46134.30
566.87	46529.85
567.03	45993.87
567.19	46377.72
567.36	46087.49
567.52	45801.94
567.68	46174.09
567.85	45729.39
568.01	46316.86
568.17	46073.45
568.34	46380.06
568.50	46246.65
568.66	46014.93
568.83	45975.14
568.99	45827.69
569.15	46241.96
569.32	45801.94
569.48	45801.94
569.64	46576.66
569.81	46026.63
569.97	46422.19
570.13	46211.54
570.30	46101.53
570.46	45682.58
570.62	45911.95
570.78	45979.82
570.95	46096.85
571.11	46038.34
571.27	45867.48
571.43	45888.54
571.60	46454.95
571.76	46244.30
571.92	45965.78
572.09	46199.83
572.25	46206.86
572.41	46356.65
572.57	46305.16
572.74	46646.88
572.90	46337.93
573.06	46101.53
573.22	46321.54
573.38	46146.00
573.55	46316.86
573.71	46579.00
573.87	46160.05
574.03	46211.54
574.20	46476.02
574.36	45893.22
574.52	46490.06
574.68	46059.40
574.84	46405.80
575.01	46274.73
575.17	46115.58
575.33	46218.56
575.49	45729.39
575.65	46466.66
575.82	46291.12
575.98	46546.23
576.14	46401.12
576.30	46607.09
576.46	46146.00
576.62	46202.18
576.79	46394.10
576.95	45951.74
577.11	46607.09
577.27	45940.04
577.43	46384.74
577.59	46536.87
577.75	46466.66
577.92	46087.49
578.08	46019.61
578.24	46263.03
578.40	46611.77
578.56	46560.28
578.72	46724.11
578.88	46419.84
579.04	46117.92
579.21	46579.00
579.37	46431.55
579.53	46469.00
579.69	46045.36
579.85	46658.58
580.01	46845.82
580.17	46106.21
580.33	46403.46
580.49	46583.68
580.65	46209.20
580.82	46483.04
580.98	46497.08
581.14	46185.79
581.30	46515.81
581.46	47009.66
581.62	46499.42
581.78	46183.45
581.94	46983.91
582.10	46632.83
582.26	46445.59
582.42	46220.90
582.58	46513.47
582.74	46246.65
582.90	46349.63
583.06	46754.54
583.22	46630.49
583.38	46646.88
583.54	46419.84
583.70	46674.96
583.86	46040.68
584.02	46181.11
584.18	46410.48
584.34	46822.42
584.50	46534.53
584.66	46396.44
584.82	46670.28
584.98	46660.92
585.14	46246.65
585.30	46553.26
585.46	46555.60
585.62	46548.57
585.78	46529.85
585.94	46094.51
586.10	46466.66
586.26	46232.60
586.42	46967.53
586.58	46639.86
586.74	46754.54
586.90	46300.48
587.06	46263.03
587.22	46562.62
587.38	46480.70
587.54	46646.88
587.70	46660.92
587.86	46728.80
588.02	46443.25
588.18	46649.22
588.34	46806.03
588.49	46483.04
588.65	45724.71
588.81	46167.07
588.97	46078.13
589.13	46110.89
589.29	46162.39
589.45	46571.98
589.61	46431.55
589.77	46859.87
589.93	46752.20
590.08	46731.14
