SpectraSuite Data File
++++++++++++++++++++++++++++++++++++
Date: Fri Oct 25 10:43:47 EDT 2013
User: price-jones
Dark Spectrum Present: No
Reference Spectrum Present: No
Number of Sampled Component Spectra: 1
Spectrometers: USB2+H05261
Integration Time (usec): 100000 (USB2+H05261)
Spectra Averaged: 1 (USB2+H05261)
Boxcar Smoothing: 0 (USB2+H05261)
Correct for Electrical Dark: No (USB2+H05261)
Strobe/Lamp Enabled: No (USB2+H05261)
Correct for Detector Non-linearity: No (USB2+H05261)
Correct for Stray Light: No (USB2+H05261)
Number of Pixels in Processed Spectrum: 2048
>>>>>Begin Processed Spectral Data<<<<<
365.73	81.92
365.92	81.92
366.12	81.92
366.32	72.56
366.52	18.72
366.72	0.00
366.91	11.70
367.11	0.00
367.31	21.06
367.51	30.43
367.70	0.00
367.90	25.75
368.10	23.41
368.30	9.36
368.49	14.04
368.69	42.13
368.89	2.34
369.09	0.00
369.28	32.77
369.48	145.11
369.68	86.60
369.87	91.28
370.07	67.88
370.27	133.41
370.47	173.20
370.66	383.85
370.86	447.04
371.06	479.81
371.25	461.09
371.45	510.24
371.65	477.47
371.84	433.00
372.04	437.68
372.24	519.60
372.44	507.90
372.63	505.56
372.83	500.87
373.03	486.83
373.22	519.60
373.42	510.24
373.62	547.69
373.81	557.05
374.01	533.64
374.21	580.45
374.40	589.82
374.60	594.50
374.79	454.06
374.99	528.96
375.19	571.09
375.38	566.41
375.58	599.18
375.78	543.00
375.97	582.79
376.17	709.18
376.37	589.82
376.56	617.90
376.76	585.13
376.95	559.39
377.15	582.79
377.35	657.69
377.54	631.94
377.74	599.18
377.93	657.69
378.13	695.14
378.33	667.05
378.52	484.49
378.72	592.16
378.91	641.31
379.11	671.73
379.31	732.59
379.50	713.86
379.70	685.78
379.89	704.50
380.09	727.91
380.28	638.97
380.48	732.59
380.68	702.16
380.87	636.63
381.07	702.16
381.26	732.59
381.46	772.38
381.65	741.95
381.85	751.31
382.04	624.92
382.24	709.18
382.43	664.71
382.63	753.65
382.83	816.85
383.02	732.59
383.22	819.19
383.41	798.12
383.61	718.54
383.80	727.91
384.00	744.29
384.19	772.38
384.39	760.67
384.58	784.08
384.78	833.23
384.97	854.30
385.17	830.89
385.36	830.89
385.56	765.36
385.75	774.72
385.95	798.12
386.14	847.27
386.34	891.74
386.53	837.91
386.72	873.02
386.92	828.55
387.11	866.00
387.31	835.57
387.50	898.77
387.70	840.25
387.89	898.77
388.09	851.96
388.28	863.66
388.48	880.04
388.67	917.49
388.86	978.34
389.06	945.58
389.25	1025.15
389.45	1027.50
389.64	1032.18
389.84	1022.81
390.03	952.60
390.22	1039.20
390.42	1006.43
390.61	997.07
390.81	990.05
391.00	1086.01
391.19	1111.75
391.39	990.05
391.58	1043.88
391.78	1118.78
391.97	933.87
392.16	924.51
392.36	1086.01
392.55	1095.37
392.75	1036.86
392.94	1027.50
393.13	1036.86
393.33	990.05
393.52	1074.31
393.71	1093.03
393.91	1102.39
394.10	1100.05
394.29	1123.46
394.49	1179.63
394.68	1165.59
394.88	1174.95
395.07	1212.40
395.26	1219.42
395.46	1266.23
395.65	1191.33
395.84	1256.87
396.04	1245.16
396.23	1163.25
396.42	1146.86
396.62	1212.40
396.81	1205.38
397.00	1219.42
397.19	1231.12
397.39	1329.42
397.58	1308.36
397.77	1341.13
397.97	1397.30
398.16	1432.41
398.35	1504.96
398.55	1390.28
398.74	1549.43
398.93	1519.01
399.12	1441.77
399.32	1467.52
399.51	1504.96
399.70	1521.35
399.90	1533.05
400.09	1528.37
400.28	1605.61
400.47	1575.18
400.67	1734.34
400.86	1654.76
401.05	1614.97
401.24	1659.44
401.44	1734.34
401.63	1720.29
401.82	1626.67
402.01	1778.81
402.21	1755.40
402.40	1846.68
402.59	1748.38
402.78	1708.59
402.97	1764.76
403.17	1844.34
403.36	1804.55
403.55	1788.17
403.74	1818.60
403.93	1781.15
404.13	1760.08
404.32	1809.23
404.51	1879.45
404.70	1881.79
404.89	1954.35
405.09	1989.46
405.28	1975.41
405.47	1907.54
405.66	1935.62
405.85	1900.52
406.05	1959.03
406.24	1947.33
406.43	2052.65
406.62	1944.99
406.81	2101.80
407.00	2085.42
407.20	2019.88
407.39	2003.50
407.58	2200.10
407.77	2204.78
407.96	2225.85
408.15	2270.32
408.34	2237.55
408.54	2244.57
408.73	2260.96
408.92	2190.74
409.11	2420.11
409.30	2249.25
409.49	2181.38
409.68	2200.10
409.87	2270.32
410.07	2352.24
410.26	2464.58
410.45	2387.35
410.64	2305.43
410.83	2487.99
411.02	2485.65
411.21	2555.86
411.40	2642.46
411.59	2518.42
411.78	2562.89
411.98	2644.81
412.17	2700.98
412.36	2656.51
412.55	2675.23
412.74	2693.96
412.93	2663.53
413.12	2642.46
413.31	2965.46
413.50	2768.85
413.69	2799.28
413.88	2855.45
414.07	2855.45
414.26	2946.73
414.45	2963.12
414.64	2846.09
414.83	3016.95
415.02	3080.14
415.22	2988.86
415.41	3190.15
415.60	2993.55
415.79	3061.42
415.98	3152.70
416.17	3178.45
416.36	3225.26
416.55	3178.45
416.74	3089.51
416.93	3260.37
417.12	3262.71
417.31	3323.56
417.50	3389.10
417.69	3349.31
417.88	3368.03
418.07	3358.67
418.26	3475.70
418.45	3513.14
418.64	3679.32
418.83	3576.34
419.02	3646.55
419.21	3506.12
419.39	3555.27
419.58	3550.59
419.77	3590.38
419.96	3592.72
420.15	3634.85
420.34	3592.72
420.53	3772.94
420.72	3824.44
420.91	3747.20
421.10	3758.90
421.29	3702.73
421.48	3712.09
421.67	3798.69
421.86	3845.50
422.05	3712.09
422.24	3655.92
422.43	3754.22
422.61	3784.65
422.80	3955.51
422.99	3969.55
423.18	4016.36
423.37	3915.72
423.56	3913.38
423.75	3798.69
423.94	3871.25
424.13	3595.06
424.32	3786.99
424.50	3978.91
424.69	4014.02
424.88	4037.42
425.07	3847.84
425.26	3730.81
425.45	3941.46
425.64	3978.91
425.83	3882.95
426.01	4044.45
426.20	3983.59
426.39	3950.82
426.58	3822.09
426.77	3864.22
426.96	3871.25
427.15	3868.91
427.33	4018.70
427.52	4149.77
427.71	4196.58
427.90	4142.75
428.09	4198.92
428.28	4147.43
428.46	4121.68
428.65	4252.75
428.84	4283.18
429.03	4131.05
429.22	4021.04
429.40	4004.66
429.59	4205.94
429.78	3981.25
429.97	3929.76
430.16	4018.70
430.34	4152.11
430.53	4124.02
430.72	4191.90
430.91	4159.13
431.10	4348.72
431.28	4402.55
431.47	4592.13
431.66	4477.44
431.85	4561.70
432.03	4585.11
432.22	4697.46
432.41	4617.88
432.60	4617.88
432.79	4608.51
432.97	4784.06
433.16	4807.46
433.35	4711.50
433.54	4699.80
433.72	4648.30
433.91	4648.30
434.10	4685.75
434.28	4755.97
434.47	4664.69
434.66	4856.61
434.85	4873.00
435.03	4971.30
435.22	4828.53
435.41	5093.01
435.59	5022.79
435.78	5076.62
435.97	5064.92
436.16	4917.47
436.34	5071.94
436.53	5135.14
436.72	5247.48
436.90	5076.62
437.09	5097.69
437.28	5081.30
437.46	5191.31
437.65	4954.91
437.84	5167.90
438.02	5055.56
438.21	5261.52
438.40	5083.64
438.58	5289.61
438.77	5254.50
438.96	5329.40
439.14	5518.98
439.33	5509.62
439.52	5495.58
439.70	5579.84
439.89	5551.75
440.08	5703.89
440.26	5509.62
440.45	5640.69
440.63	5963.68
440.82	6040.92
441.01	5947.30
441.19	5881.77
441.38	6134.54
441.57	6244.55
441.75	6209.44
441.94	6244.55
442.12	6174.33
442.31	6296.04
442.50	6415.41
442.68	6244.55
442.87	6359.24
443.05	6359.24
443.24	6436.47
443.43	6370.94
443.61	6380.30
443.80	6579.25
443.98	6331.15
444.17	6422.43
444.35	6340.51
444.54	6616.69
444.73	6366.26
444.91	6616.69
445.10	6169.65
445.28	6359.24
445.47	6169.65
445.65	6462.22
445.84	6509.03
446.02	6457.54
446.21	6511.37
446.39	6473.92
446.58	6633.08
446.77	6663.51
446.95	6527.75
447.14	6668.19
447.32	6771.17
447.51	6527.75
447.69	6537.12
447.88	6654.14
448.06	6628.40
448.25	6604.99
448.43	6764.15
448.62	6698.61
448.80	6485.62
448.99	6806.28
449.17	6981.82
449.36	6780.53
449.54	6771.17
449.73	6944.37
449.91	6935.01
450.10	7082.46
450.28	7309.49
450.46	7204.17
450.65	7208.85
450.83	7162.04
451.02	7019.27
451.20	7302.47
451.39	7075.44
451.57	7180.76
451.76	7112.89
451.94	7265.02
452.13	7339.92
452.31	7169.06
452.49	7229.91
452.68	7407.80
452.86	7096.50
453.05	7297.79
453.23	7393.75
453.42	7248.64
453.60	7323.54
453.78	7515.46
453.97	7410.14
454.15	7328.22
454.34	7332.90
454.52	7646.53
454.70	7321.20
454.89	7407.80
455.07	7489.71
455.26	7478.01
455.44	7618.44
455.62	7630.15
455.81	7784.62
455.99	7808.03
456.17	7777.60
456.36	7761.22
456.54	7962.50
456.73	8091.23
456.91	7882.92
457.09	8159.11
457.28	8259.75
457.46	8264.43
457.64	8070.17
457.83	8205.92
458.01	7885.26
458.19	8177.83
458.38	8191.88
458.56	8149.75
458.74	8187.19
458.93	8262.09
459.11	8217.62
459.29	8201.24
459.48	8236.35
459.66	8145.06
459.84	8290.18
460.03	8531.25
460.21	8344.01
460.39	8664.66
460.57	8423.59
460.76	8390.82
460.94	8554.66
461.12	8706.79
461.31	8610.83
461.49	8578.06
461.67	8751.26
461.85	8891.70
462.04	8627.21
462.22	8915.10
462.40	8987.66
462.59	8882.33
462.77	8751.26
462.95	8814.46
463.13	8872.97
463.32	8875.31
463.50	8894.04
463.68	8936.17
463.86	8959.57
464.05	8769.99
464.23	8889.35
464.41	8978.30
464.59	8847.22
464.78	9011.06
464.96	9179.58
465.14	9092.98
465.32	9221.71
465.50	9217.03
465.69	9488.53
465.87	9083.62
466.05	9352.78
466.23	9312.99
466.41	9036.81
466.60	9439.38
466.78	9088.30
466.96	9170.22
467.14	9221.71
467.32	9359.80
467.51	9399.59
467.69	9114.05
467.87	9341.08
468.05	9437.04
468.23	9263.84
468.41	9231.07
468.60	9490.87
468.78	9645.35
468.96	9549.39
469.14	9593.86
469.32	9799.82
469.50	9418.32
469.69	9741.31
469.87	9530.66
470.05	9888.76
470.23	9858.34
470.41	9659.39
470.59	9951.96
470.77	9785.78
470.95	9984.73
471.14	10239.84
471.32	9877.06
471.50	10281.97
471.68	10188.35
471.86	10141.54
472.04	10101.75
472.22	10483.26
472.40	10068.98
472.58	10347.51
472.77	10408.36
472.95	10614.33
473.13	10724.33
473.31	10483.26
473.49	10520.71
473.67	10520.71
473.85	10693.91
474.03	10881.15
474.21	10960.73
474.39	10970.09
474.57	11229.89
474.75	11047.33
474.93	10960.73
475.12	11103.50
475.30	11309.47
475.48	11070.73
475.66	11140.95
475.84	11396.07
476.02	11274.36
476.20	11332.87
476.38	11461.60
476.56	11630.12
476.74	11803.32
476.92	11637.14
477.10	11695.66
477.28	11999.93
477.46	12002.27
477.64	12203.55
477.82	12259.73
478.00	12418.88
478.18	12320.58
478.36	12561.66
478.54	12872.95
478.72	12894.01
478.90	12709.11
479.08	12725.49
479.26	13011.04
479.44	12840.18
479.62	13081.25
479.80	13186.58
479.98	13188.92
480.16	13460.42
480.34	13490.85
480.52	13970.66
480.70	13764.69
480.88	13392.55
481.06	13708.52
481.24	14005.77
481.41	14169.60
481.59	14317.06
481.77	14286.63
481.95	14274.93
482.13	14530.05
482.31	14406.00
482.49	14642.39
482.67	14862.40
482.85	14925.60
483.03	15192.42
483.21	15346.89
483.39	15576.27
483.57	15049.64
483.74	15208.80
483.92	15716.70
484.10	15337.53
484.28	15754.15
484.46	15939.05
484.64	16245.66
484.82	15620.74
485.00	16074.80
485.18	16173.10
485.35	16430.56
485.53	16201.19
485.71	16053.73
485.89	16205.87
486.07	16238.64
486.25	16739.51
486.43	16786.32
486.61	16889.31
486.78	16791.00
486.96	17415.93
487.14	17724.88
487.32	17769.35
487.50	17661.68
487.68	17862.97
487.85	18380.23
488.03	18703.22
488.21	18415.34
488.39	18317.03
488.57	18633.00
488.75	18597.90
488.92	18888.12
489.10	19218.14
489.28	19360.91
489.46	19590.28
489.64	19573.90
489.81	19908.60
489.99	20236.27
490.17	20180.10
490.35	20453.94
490.53	20311.17
490.70	20472.67
490.88	20451.60
491.06	20636.50
491.24	20512.46
491.41	20648.21
491.59	20905.66
491.77	20318.19
491.95	21048.44
492.13	21184.19
492.30	21516.54
492.48	21591.44
492.66	21479.10
492.84	21738.90
493.01	21781.03
493.19	21968.27
493.37	22120.40
493.54	22263.18
493.72	22403.61
493.90	22618.94
494.08	22906.82
494.25	23119.81
494.43	23049.60
494.61	22869.37
494.79	23166.62
494.96	23585.58
495.14	23335.14
495.32	23372.59
495.49	23810.27
495.67	23548.13
495.85	23992.83
496.02	23836.02
496.20	23983.47
496.38	24053.69
496.55	24409.45
496.73	25235.66
496.91	24659.88
497.09	24833.08
497.26	24926.71
497.44	24865.85
497.62	25156.08
497.79	25310.55
497.97	24727.76
498.14	25380.77
498.32	25413.54
498.50	25715.47
498.67	26232.72
498.85	25898.03
499.03	26216.34
499.20	26113.36
499.38	26331.03
499.56	25977.61
499.73	26312.30
499.91	26185.91
500.08	26782.75
500.26	26260.81
500.44	26536.99
500.61	26764.03
500.79	26586.15
500.97	26630.62
501.14	26948.93
501.32	26993.40
501.49	27035.53
501.67	26932.54
501.84	27559.81
502.02	27192.34
502.20	27365.54
502.37	27807.90
502.55	27775.14
502.72	27522.36
502.90	27934.29
503.07	27854.72
503.25	27868.76
503.43	27693.22
503.60	28023.23
503.78	28041.96
503.95	27969.40
504.13	28353.25
504.30	28203.46
504.48	28304.10
504.65	28835.40
504.83	29039.03
505.01	28950.09
505.18	29048.39
505.36	29172.44
505.53	29284.78
505.71	29659.27
505.88	29752.89
506.06	29085.84
506.23	29575.01
506.41	29446.28
506.58	29668.63
506.76	29446.28
506.93	30024.39
507.11	29682.67
507.28	29703.74
507.46	29474.37
507.63	30106.31
507.81	30270.15
507.98	29890.98
508.16	30146.10
508.33	30031.41
508.50	30211.64
508.68	30639.95
508.85	30600.16
509.03	30869.33
509.20	31129.12
509.38	30874.01
509.55	31405.31
509.73	30944.22
509.90	31344.45
510.08	30953.58
510.25	31175.94
510.42	31679.15
510.60	31791.50
510.77	31424.03
510.95	31630.00
511.12	31613.62
511.30	31873.42
511.47	32219.81
511.64	32240.88
511.82	32374.29
511.99	32098.11
512.17	32549.83
512.34	31976.40
512.51	32556.85
512.69	32753.46
512.86	32341.52
513.04	32807.29
513.21	32205.77
513.38	32491.32
513.56	32641.11
513.73	32802.61
513.90	32727.71
514.08	32917.29
514.25	32968.79
514.43	33415.83
514.60	32957.08
514.77	33268.37
514.95	33408.81
515.12	33291.78
515.29	33518.81
515.47	34073.52
515.64	34000.96
515.81	33872.23
515.99	33783.29
516.16	33958.83
516.33	33715.42
516.51	33680.31
516.68	33703.71
516.85	33284.76
517.03	33518.81
517.20	33420.51
517.37	34110.97
517.54	34033.73
517.72	34338.00
517.89	33717.76
518.06	33624.14
518.24	34015.01
518.41	34115.65
518.58	34328.64
518.75	34249.06
518.93	34771.00
519.10	34820.15
519.27	34960.58
519.45	35108.04
519.62	34803.77
519.79	34927.81
519.96	35213.36
520.14	35262.51
520.31	35271.87
520.48	35372.52
520.65	35124.42
520.83	35627.63
521.00	35480.18
521.17	35426.35
521.34	35990.42
521.52	36161.28
521.69	35899.14
521.86	35922.54
522.03	36102.76
522.20	36091.06
522.38	36168.30
522.55	36397.67
522.72	36196.38
522.89	35999.78
523.07	36467.89
523.24	36453.84
523.41	36552.15
523.58	36821.31
523.75	37394.74
523.92	37092.81
524.10	37308.14
524.27	37329.20
524.44	37181.75
524.61	37041.32
524.78	37600.71
524.96	37116.22
525.13	37500.06
525.30	37617.09
525.47	37804.33
525.64	37366.65
525.81	37376.01
525.98	37600.71
526.16	37724.75
526.33	37003.87
526.50	37415.80
526.67	36926.63
526.84	37383.04
527.01	37284.73
527.18	37429.85
527.36	38047.75
527.53	38452.66
527.70	37993.92
527.87	38232.65
528.04	37928.38
528.21	38546.28
528.38	38281.80
528.55	38616.50
528.72	38792.04
528.89	38609.48
529.07	39002.69
529.24	38607.14
529.41	38974.60
529.58	38373.08
529.75	38644.59
529.92	39037.80
530.09	38862.26
530.26	38934.81
530.43	39047.16
530.60	38799.06
530.77	39154.82
530.94	39763.36
531.11	39152.48
531.28	39475.48
531.46	39798.47
531.63	39400.58
531.80	39405.26
531.97	39281.21
532.14	39393.56
532.31	39012.05
532.48	39393.56
532.65	39550.37
532.82	39054.18
532.99	39299.94
533.16	39447.39
533.33	39344.41
533.50	40114.44
533.67	40121.46
533.84	40065.29
534.01	39945.92
534.18	39995.07
534.35	40311.05
534.52	40037.20
534.69	40432.75
534.86	40612.98
535.03	40205.72
535.20	40896.18
535.37	40711.28
535.54	40748.73
535.71	40582.55
535.88	40952.35
536.05	40306.37
536.22	40545.10
536.38	40381.26
536.55	40636.38
536.72	40339.13
536.89	41144.28
537.06	40250.19
537.23	40879.80
537.40	40823.62
537.57	40889.16
537.74	41050.66
537.91	41333.86
538.08	41165.34
538.25	40746.39
538.42	41247.26
538.59	41060.02
538.75	40926.61
538.92	41057.68
539.09	41537.49
539.26	41425.14
539.43	41581.96
539.60	41408.76
539.77	40774.47
539.94	41467.27
540.11	41230.88
540.28	41394.71
540.44	41106.83
540.61	41455.57
540.78	41375.99
540.95	41862.82
541.12	41429.82
541.29	41226.20
541.46	41947.08
541.62	41656.85
541.79	41984.53
541.96	41399.40
542.13	41720.05
542.30	41596.00
542.47	42129.64
542.63	42066.45
542.80	41757.50
542.97	42459.66
543.14	42511.15
543.31	42471.36
543.48	42295.82
543.64	42651.58
543.81	42733.50
543.98	42618.81
544.15	42265.39
544.32	42887.98
544.48	43098.62
544.65	43028.41
544.82	43005.00
544.99	42679.67
545.16	43192.25
545.32	42103.90
545.49	43269.48
545.66	43337.36
545.83	42649.24
546.00	43349.06
546.16	43353.74
546.33	42607.11
546.50	43082.24
546.67	43196.93
546.83	43058.84
547.00	43194.59
547.17	43239.06
547.34	42913.72
547.50	43185.22
547.67	43538.65
547.84	43253.10
548.00	43430.98
548.17	43522.26
548.34	43538.65
548.51	43695.46
548.67	43789.08
548.84	43082.24
549.01	43779.72
549.18	43379.49
549.34	43438.00
549.51	43969.30
549.68	43826.53
549.84	43817.17
550.01	44086.33
550.18	43601.84
550.34	43849.94
550.51	43746.95
550.68	43941.22
550.84	43196.93
551.01	43782.06
551.18	43840.57
551.34	43660.35
551.51	44219.74
551.68	44552.10
551.84	44168.25
552.01	44074.63
552.18	44257.19
552.34	43892.07
552.51	43856.96
552.68	44236.12
552.84	44023.14
553.01	44282.94
553.18	44589.55
553.34	44095.69
553.51	44140.16
553.67	44257.19
553.84	44896.16
554.01	44858.71
554.17	44903.18
554.34	44439.75
554.51	44704.23
554.67	44570.82
554.84	45125.53
555.00	44793.17
555.17	44196.34
555.33	44769.77
555.50	44912.54
555.67	44477.20
555.83	44762.75
556.00	44957.01
556.16	45230.85
556.33	44865.73
556.50	44774.45
556.66	44739.34
556.83	44304.00
556.99	44919.56
557.16	44734.66
557.32	44949.99
557.49	44870.41
557.65	44699.55
557.82	44849.35
557.98	45296.39
558.15	45146.59
558.32	44556.78
558.48	44762.75
558.65	45038.93
558.81	45043.61
558.98	44868.07
559.14	45017.86
559.31	45064.67
559.47	44942.97
559.64	45006.16
559.80	45242.56
559.97	45492.99
560.13	44802.53
560.30	44992.12
560.46	45123.19
560.63	45284.68
560.79	45563.21
560.96	45272.98
561.12	45315.11
561.29	45153.62
561.45	45631.08
561.61	45081.06
561.78	45247.24
561.94	45057.65
562.11	45137.23
562.27	45170.00
562.44	45125.53
562.60	45628.74
562.77	45525.76
562.93	45762.15
563.10	45574.91
563.26	45001.48
563.42	45727.05
563.59	45380.65
563.75	45727.05
563.92	45640.45
564.08	45263.62
564.24	45888.54
564.41	45684.92
564.57	45485.97
564.74	45771.52
564.90	45441.50
565.07	45207.45
565.23	45481.29
565.39	45717.68
565.56	45448.52
565.72	45254.26
565.88	45523.42
566.05	45574.91
566.21	45806.62
566.38	45401.71
566.54	45830.03
566.70	45823.01
566.87	46216.22
567.03	45865.14
567.19	46089.83
567.36	45642.79
567.52	45736.41
567.68	45813.65
567.85	45610.02
568.01	45771.52
568.17	46068.76
568.34	45755.13
568.50	45897.91
568.66	45661.51
568.83	45535.12
568.99	45352.56
569.15	45806.62
569.32	45476.61
569.48	45490.65
569.64	45769.18
569.81	45961.10
569.97	45579.59
570.13	45687.26
570.30	45207.45
570.46	45588.95
570.62	45525.76
570.78	45291.71
570.95	45399.37
571.11	46031.32
571.27	45457.88
571.43	45280.00
571.60	45738.75
571.76	46064.08
571.92	45937.69
572.09	45930.67
572.25	45799.60
572.41	45525.76
572.57	46103.87
572.74	46389.42
572.90	46148.34
573.06	45902.59
573.22	45748.11
573.38	45883.86
573.55	45598.32
573.71	46174.09
573.87	46059.40
574.03	45801.94
574.20	45752.79
574.36	45764.49
574.52	45628.74
574.68	45991.53
574.84	45886.20
575.01	45792.58
575.17	46080.47
575.33	45338.52
575.49	45975.14
575.65	46265.37
575.82	46181.11
575.98	45563.21
576.14	46209.20
576.30	46239.62
576.46	45947.06
576.62	45687.26
576.79	45626.40
576.95	45731.73
577.11	45947.06
577.27	46031.32
577.43	45567.89
577.59	45624.06
577.75	45588.95
577.92	45572.57
578.08	45434.48
578.24	45436.82
578.40	45364.26
578.56	45925.99
578.72	46337.93
578.88	46351.97
579.04	46206.86
579.21	45736.41
579.37	45502.35
579.53	45593.64
579.69	45804.28
579.85	45940.04
580.01	46071.10
580.17	45879.18
580.33	45663.85
580.49	46639.86
580.65	46096.85
580.82	46141.32
580.98	45979.82
581.14	45626.40
581.30	46108.55
581.46	46335.59
581.62	45998.55
581.78	46120.26
581.94	46515.81
582.10	46284.09
582.26	46267.71
582.42	45902.59
582.58	46351.97
582.74	46113.23
582.90	46178.77
583.06	46454.95
583.22	46330.90
583.38	46237.28
583.54	46216.22
583.70	46178.77
583.86	45689.60
584.02	45780.88
584.18	46124.94
584.34	46080.47
584.50	45605.34
584.66	45804.28
584.82	45825.35
584.98	46120.26
585.14	46216.22
585.30	45666.19
585.46	46190.47
585.62	46103.87
585.78	46000.89
585.94	45626.40
586.10	45593.64
586.26	46054.72
586.42	45996.21
586.58	46256.01
586.74	46085.15
586.90	45607.68
587.06	45818.33
587.22	45925.99
587.38	46206.86
587.54	46218.56
587.70	46206.86
587.86	46241.96
588.02	45954.08
588.18	46382.40
588.34	45907.27
588.49	45483.63
588.65	45511.72
588.81	45813.65
588.97	45954.08
589.13	45317.45
589.29	46021.95
589.45	46220.90
589.61	46337.93
589.77	45832.37
589.93	46096.85
590.08	46398.78
