SpectraSuite Data File
++++++++++++++++++++++++++++++++++++
Date: Fri Oct 25 11:26:01 EDT 2013
User: price-jones
Dark Spectrum Present: No
Reference Spectrum Present: No
Number of Sampled Component Spectra: 1
Spectrometers: USB2+H05261
Integration Time (usec): 100000 (USB2+H05261)
Spectra Averaged: 1 (USB2+H05261)
Boxcar Smoothing: 0 (USB2+H05261)
Correct for Electrical Dark: No (USB2+H05261)
Strobe/Lamp Enabled: No (USB2+H05261)
Correct for Detector Non-linearity: No (USB2+H05261)
Correct for Stray Light: No (USB2+H05261)
Number of Pixels in Processed Spectrum: 2048
>>>>>Begin Processed Spectral Data<<<<<
365.73	257.46
365.92	257.46
366.12	257.46
366.32	170.86
366.52	98.30
366.72	220.01
366.91	177.88
367.11	149.79
367.31	147.45
367.51	187.24
367.70	140.43
367.90	241.08
368.10	163.84
368.30	147.45
368.49	112.35
368.69	170.86
368.89	168.52
369.09	203.63
369.28	234.05
369.48	168.52
369.68	161.50
369.87	184.90
370.07	184.90
370.27	250.44
370.47	372.15
370.66	594.50
370.86	622.58
371.06	624.92
371.25	669.39
371.45	627.26
371.65	699.82
371.84	676.41
372.04	746.63
372.24	709.18
372.44	734.93
372.63	730.25
372.83	725.57
373.03	795.78
373.22	760.67
373.42	699.82
373.62	767.70
373.81	823.87
374.01	870.68
374.21	781.74
374.40	798.12
374.60	788.76
374.79	812.17
374.99	828.55
375.19	840.25
375.38	837.91
375.58	826.21
375.78	854.30
375.97	877.70
376.17	966.64
376.37	844.93
376.56	842.59
376.76	964.30
376.95	915.15
377.15	926.85
377.35	880.04
377.54	875.36
377.74	842.59
377.93	898.77
378.13	833.23
378.33	966.64
378.52	929.19
378.72	891.74
378.91	929.19
379.11	940.90
379.31	940.90
379.50	950.26
379.70	1001.75
379.89	961.96
380.09	926.85
380.28	957.28
380.48	954.94
380.68	917.49
380.87	971.32
381.07	1100.05
381.26	1025.15
381.46	999.41
381.65	1001.75
381.85	1001.75
382.04	985.37
382.24	1071.97
382.43	1013.45
382.63	1036.86
382.83	1081.33
383.02	1043.88
383.22	1160.91
383.41	1048.56
383.61	1064.94
383.80	1118.78
384.00	1064.94
384.19	1123.46
384.39	1158.57
384.58	1130.48
384.78	1167.93
384.97	1160.91
385.17	1128.14
385.36	1247.51
385.56	1160.91
385.75	1142.18
385.95	1299.00
386.14	1261.55
386.34	1228.78
386.53	1184.31
386.72	1245.16
386.92	1256.87
387.11	1203.04
387.31	1193.67
387.50	1226.44
387.70	1273.25
387.89	1235.80
388.09	1245.16
388.28	1247.51
388.48	1266.23
388.67	1284.95
388.86	1247.51
389.06	1256.87
389.25	1294.32
389.45	1259.21
389.64	1287.29
389.84	1322.40
390.03	1249.85
390.22	1345.81
390.42	1394.96
390.61	1425.39
390.81	1352.83
391.00	1324.74
391.19	1434.75
391.39	1362.19
391.58	1378.58
391.78	1420.71
391.97	1577.52
392.16	1504.96
392.36	1497.94
392.55	1490.92
392.75	1537.73
392.94	1584.54
393.13	1563.48
393.33	1444.11
393.52	1481.56
393.71	1535.39
393.91	1605.61
394.10	1511.99
394.29	1678.16
394.49	1603.27
394.68	1666.46
394.88	1544.75
395.07	1755.40
395.26	1720.29
395.46	1720.29
395.65	1734.34
395.84	1685.19
396.04	1762.42
396.23	1769.44
396.42	1818.60
396.62	1746.04
396.81	1729.66
397.00	1746.04
397.19	1811.57
397.39	1806.89
397.58	1825.62
397.77	1839.66
397.97	1846.68
398.16	1865.41
398.35	1863.07
398.55	1905.20
398.74	1905.20
398.93	1935.62
399.12	1982.43
399.32	1966.05
399.51	1893.49
399.70	2057.33
399.90	1952.01
400.09	2012.86
400.28	2085.42
400.47	2174.36
400.67	1977.75
400.86	2062.01
401.05	2045.63
401.24	2101.80
401.44	2045.63
401.63	2319.47
401.82	2169.68
402.01	2132.23
402.21	2162.66
402.40	2258.62
402.59	2139.25
402.78	2200.10
402.97	2265.64
403.17	2361.60
403.36	2317.13
403.55	2270.32
403.74	2349.90
403.93	2275.00
404.13	2436.50
404.32	2389.69
404.51	2340.54
404.70	2399.05
404.89	2368.62
405.09	2335.85
405.28	2415.43
405.47	2385.01
405.66	2476.29
405.85	2445.86
406.05	2520.76
406.24	2579.27
406.43	2487.99
406.62	2581.61
406.81	2733.75
407.00	2516.08
407.20	2670.55
407.39	2572.25
407.58	2731.41
407.77	2825.03
407.96	2825.03
408.15	2761.83
408.34	2686.94
408.54	2888.22
408.73	2909.29
408.92	2899.92
409.11	2883.54
409.30	2928.01
409.49	2864.82
409.68	3056.74
409.87	2925.67
410.07	3059.08
410.26	3000.57
410.45	2993.55
410.64	3126.96
410.83	3171.43
411.02	3033.33
411.21	3227.60
411.40	3019.29
411.59	3239.30
411.78	3260.37
411.98	3220.58
412.17	3215.90
412.36	3307.18
412.55	3293.13
412.74	3339.94
412.93	3353.99
413.12	3377.39
413.31	3569.32
413.50	3499.10
413.69	3557.61
413.88	3627.83
414.07	3574.00
414.26	3438.25
414.45	3679.32
414.64	3627.83
414.83	3779.97
415.02	3688.68
415.22	3801.03
415.41	3913.38
415.60	3758.90
415.79	3831.46
415.98	4004.66
416.17	3992.95
416.36	3908.69
416.55	4004.66
416.74	4023.38
416.93	4016.36
417.12	4177.86
417.31	4067.85
417.50	4058.49
417.69	4266.80
417.88	4159.13
418.07	4257.43
418.26	4329.99
418.45	4386.16
418.64	4496.17
418.83	4421.27
419.02	4318.29
419.21	4517.23
419.39	4444.68
419.58	4538.30
419.77	4465.74
419.96	4573.41
420.15	4737.24
420.34	4671.71
420.53	4535.96
420.72	4748.95
420.91	4711.50
421.10	4578.09
421.29	4695.11
421.48	4657.67
421.67	4667.03
421.86	4772.35
422.05	4910.44
422.24	4737.24
422.43	4873.00
422.61	4994.70
422.80	4957.25
422.99	4959.60
423.18	4954.91
423.37	4983.00
423.56	4931.51
423.75	4884.70
423.94	4823.84
424.13	4592.13
424.32	4795.76
424.50	5041.51
424.69	5217.05
424.88	5109.39
425.07	4992.36
425.26	5128.11
425.45	5121.09
425.64	4983.00
425.83	4954.91
426.01	5025.13
426.20	5062.58
426.39	5067.26
426.58	5083.64
426.77	5186.63
426.96	5125.77
427.15	5240.46
427.33	5128.11
427.52	5172.58
427.71	5139.82
427.90	5289.61
428.09	5275.57
428.28	5153.86
428.46	5275.57
428.65	5416.00
428.84	5460.47
429.03	5481.53
429.22	5493.24
429.40	5521.32
429.59	5366.85
429.78	5270.89
429.97	5338.76
430.16	5504.94
430.34	5703.89
430.53	5533.03
430.72	5554.09
430.91	5769.42
431.10	5540.05
431.28	5657.07
431.47	5818.57
431.66	5912.19
431.85	5734.31
432.03	5851.34
432.22	6174.33
432.41	5893.47
432.60	6033.90
432.79	5994.11
432.97	6003.47
433.16	5984.75
433.35	5994.11
433.54	6043.26
433.72	6092.41
433.91	6125.18
434.10	6141.57
434.28	6153.27
434.47	6132.20
434.66	6200.08
434.85	6282.00
435.03	6310.08
435.22	6237.53
435.41	6487.96
435.59	6333.49
435.78	6506.69
435.97	6455.20
436.16	6448.18
436.34	6506.69
436.53	6668.19
436.72	6782.87
436.90	6459.88
437.09	6576.91
437.28	6345.19
437.46	6689.25
437.65	6691.59
437.84	6614.35
438.02	6780.53
438.21	6995.86
438.40	6757.13
438.58	6913.94
438.77	6991.18
438.96	7014.59
439.14	7068.42
439.33	7070.76
439.52	7148.00
439.70	7262.68
439.89	7428.86
440.08	7368.01
440.26	7269.70
440.45	7218.21
440.63	7463.97
440.82	7585.68
441.01	7597.38
441.19	7583.34
441.38	7864.20
441.57	7534.18
441.75	7868.88
441.94	8006.97
442.12	7878.24
442.31	7873.56
442.50	7955.48
442.68	7990.59
442.87	8079.53
443.05	8077.19
443.24	8159.11
443.43	8032.72
443.61	8346.35
443.80	8360.39
443.98	7950.80
444.17	7920.37
444.35	8161.45
444.54	8365.07
444.73	8198.90
444.91	8161.45
445.10	8311.24
445.28	8184.85
445.47	8154.43
445.65	8381.46
445.84	8430.61
446.02	8351.03
446.21	8381.46
446.39	8498.49
446.58	8423.59
446.77	8308.90
446.95	8105.28
447.14	8348.69
447.32	8477.42
447.51	8456.36
447.69	8526.57
447.88	8439.97
448.06	8411.89
448.25	8444.65
448.43	8671.68
448.62	8620.19
448.80	8589.77
448.99	8816.80
449.17	8751.26
449.36	8505.51
449.54	8856.59
449.73	8695.09
449.91	9238.09
450.10	8924.46
450.28	8901.06
450.46	9219.37
450.65	9013.40
450.83	9111.71
451.02	8968.93
451.20	9097.66
451.39	9043.83
451.57	9069.58
451.76	8842.54
451.94	9057.87
452.13	9177.24
452.31	9301.29
452.49	9207.67
452.68	9261.50
452.86	9329.38
453.05	9331.72
453.23	9710.88
453.42	9418.32
453.60	9238.09
453.78	9469.81
453.97	9322.35
454.15	9467.47
454.34	9423.00
454.52	9898.13
454.70	9607.90
454.89	9860.68
455.07	9823.23
455.26	9748.33
455.44	9942.60
455.62	9898.13
455.81	9792.80
455.99	9863.02
456.17	10057.28
456.36	10008.13
456.54	10087.71
456.73	10148.56
456.91	10504.32
457.09	10143.88
457.28	10420.06
457.46	10181.33
457.64	10546.45
457.83	10525.39
458.01	10207.08
458.19	10644.76
458.38	10455.17
458.56	10586.24
458.74	10743.06
458.93	10609.65
459.11	10707.95
459.29	10600.29
459.48	10691.57
459.66	10794.55
459.84	10918.60
460.03	11194.78
460.21	10960.73
460.39	10984.13
460.57	11124.57
460.76	11061.37
460.94	10974.77
461.12	11145.63
461.31	10958.39
461.49	11126.91
461.67	11162.01
461.85	11501.39
462.04	11405.43
462.22	11861.84
462.40	11866.52
462.59	11447.56
462.77	11283.72
462.95	11564.59
463.13	11548.20
463.32	11375.00
463.50	11440.54
463.68	11716.72
463.86	11747.15
464.05	11524.80
464.23	11674.59
464.41	12095.89
464.59	11665.23
464.78	12262.07
464.96	12161.42
465.14	11934.39
465.32	11901.62
465.50	12133.34
465.69	12112.27
465.87	11885.24
466.05	12020.99
466.23	12116.95
466.41	12189.51
466.60	12299.52
466.78	12105.25
466.96	12180.15
467.14	12358.03
467.32	12315.90
467.51	12432.93
467.69	12002.27
467.87	12329.94
468.05	12922.10
468.23	12622.51
468.41	12456.33
468.60	12819.11
468.78	12659.96
468.96	12627.19
469.14	13071.89
469.32	12975.93
469.50	12699.75
469.69	13018.06
469.87	13151.47
470.05	13238.07
470.23	12973.59
470.41	13249.77
470.59	13284.88
470.77	13083.59
470.95	13191.26
471.14	13411.27
471.32	13064.87
471.50	13523.62
471.68	13680.43
471.86	13650.00
472.04	13593.83
472.22	14094.71
472.40	13331.69
472.58	13745.97
472.77	13942.57
472.95	13958.96
473.13	14499.62
473.31	13961.30
473.49	14078.32
473.67	14122.79
473.85	14326.42
474.03	14661.12
474.21	14693.88
474.39	14534.73
474.57	14501.96
474.75	14604.94
474.93	14867.08
475.12	14988.79
475.30	15073.05
475.48	15040.28
475.66	15070.71
475.84	14972.41
476.02	15211.14
476.20	15185.40
476.38	15625.42
476.56	15946.07
476.74	15779.89
476.92	15648.82
477.10	15660.52
477.28	15999.90
477.46	16077.14
477.64	16189.49
477.82	16542.91
478.00	16924.41
478.18	16657.59
478.36	16816.75
478.54	16849.52
478.72	17167.83
478.90	17408.90
479.08	17556.36
479.26	17792.75
479.44	17460.40
479.62	17898.08
479.80	17914.46
479.98	18221.07
480.16	18150.85
480.34	18090.00
480.52	18462.15
480.70	18815.57
480.88	18518.32
481.06	18747.69
481.24	18743.01
481.41	18845.99
481.59	19161.97
481.77	19604.33
481.95	19529.43
482.13	19868.81
482.31	19873.49
482.49	20264.36
482.67	20170.74
482.85	20341.60
483.03	20472.67
483.21	20994.61
483.39	20922.05
483.57	20847.15
483.74	20929.07
483.92	21125.68
484.10	21003.97
484.28	21397.18
484.46	21942.52
484.64	22246.79
484.82	22033.80
485.00	22431.69
485.18	22785.12
485.35	22831.93
485.53	22506.59
485.71	23009.81
485.89	23396.00
486.07	23473.23
486.25	23091.73
486.43	23227.48
486.61	23672.18
486.78	24168.37
486.96	24144.97
487.14	24657.54
487.32	24212.84
487.50	24980.54
487.68	24748.82
487.85	25060.12
488.03	25598.44
488.21	25893.35
488.39	25652.27
488.57	26031.44
488.75	26394.22
488.92	26415.29
489.10	26560.40
489.28	26789.77
489.46	26836.58
489.64	26820.20
489.81	27370.22
489.99	27473.21
490.17	27824.29
490.35	28095.79
490.53	27733.01
490.70	28299.42
490.88	28261.97
491.06	28498.36
491.24	28725.39
491.41	29095.20
491.59	29198.18
491.77	29193.50
491.95	29692.04
492.13	29617.14
492.30	29443.94
492.48	29741.19
492.66	30192.91
492.84	30225.68
493.01	30185.89
493.19	30787.41
493.37	30862.30
493.54	31012.10
493.72	31587.87
493.90	31178.28
494.08	31913.20
494.25	31435.74
494.43	32037.25
494.61	31908.52
494.79	32624.73
494.96	32292.37
495.14	32823.67
495.32	32833.04
495.49	33057.73
495.67	33017.94
495.85	33275.40
496.02	33645.20
496.20	34113.31
496.38	34117.99
496.55	33902.66
496.73	34988.67
496.91	34440.98
497.09	34754.61
497.26	34291.19
497.44	34471.41
497.62	35239.11
497.79	35917.86
497.97	35566.78
498.14	35924.88
498.32	36109.78
498.50	36037.23
498.67	36634.06
498.85	36479.59
499.03	36725.35
499.20	36781.52
499.38	36659.81
499.56	36804.92
499.73	37024.93
499.91	37340.91
500.08	37443.89
500.26	37455.59
500.44	37977.53
500.61	37895.61
500.79	37666.24
500.97	38171.80
501.14	38838.85
501.32	38345.00
501.49	38410.53
501.67	38815.44
501.84	38707.78
502.02	38885.66
502.20	38890.34
502.37	39154.82
502.55	39082.27
502.72	39611.23
502.90	39395.90
503.07	39683.78
503.25	39838.26
503.43	39590.16
503.60	40062.95
503.78	39791.45
503.95	40053.59
504.13	40285.30
504.30	40573.19
504.48	40308.71
504.65	40531.06
504.83	40907.88
505.01	40804.90
505.18	40917.25
505.36	41448.55
505.53	41055.34
505.71	41778.56
505.88	41680.26
506.06	41649.83
506.23	42017.30
506.41	41715.37
506.58	42106.24
506.76	42216.24
506.93	42548.60
507.11	42036.02
507.28	42258.37
507.46	42649.24
507.63	42852.87
507.81	42890.32
507.98	42761.59
508.16	43058.84
508.33	42941.81
508.50	43686.10
508.68	43459.07
508.85	43489.49
509.03	43613.54
509.20	43873.34
509.38	44636.36
509.55	44210.38
509.73	43920.15
509.90	44296.98
510.08	44547.42
510.25	44451.45
510.42	45263.62
510.60	44828.28
510.77	44825.94
510.95	45315.11
511.12	45125.53
511.30	44725.30
511.47	45106.80
511.64	45333.84
511.82	45656.83
511.99	45778.54
512.17	45911.95
512.34	46012.59
512.51	46244.30
512.69	46286.43
512.86	45947.06
513.04	46656.24
513.21	46389.42
513.38	46665.60
513.56	46698.37
513.73	46141.32
513.90	46834.12
514.08	46595.38
514.25	47208.61
514.43	47363.08
514.60	47407.55
514.77	47220.31
514.95	47344.36
515.12	47679.05
515.29	47351.38
515.47	47688.42
515.64	47744.59
515.81	47587.77
515.99	48261.85
516.16	47894.38
516.33	48011.41
516.51	48051.20
516.68	48484.20
516.85	48388.24
517.03	48961.67
517.20	48954.64
517.37	48711.23
517.54	48521.65
517.72	48828.26
517.89	48610.59
518.06	49085.72
518.24	49233.17
518.41	49172.31
518.58	49617.02
518.75	49155.93
518.93	49345.51
519.10	49415.73
519.27	49822.98
519.45	49649.78
519.62	49680.21
519.79	49932.99
519.96	49617.02
520.14	49567.87
520.31	49902.56
520.48	50174.06
520.65	50195.13
520.83	50328.54
521.00	50557.91
521.17	50415.14
521.34	50759.20
521.52	50768.56
521.69	50621.11
521.86	50824.73
522.03	51040.06
522.20	51178.15
522.38	51196.88
522.55	51143.05
522.72	51217.94
522.89	51019.00
523.07	51496.47
523.24	51604.13
523.41	51522.21
523.58	51152.41
523.75	51826.48
523.92	52027.77
524.10	51877.97
524.27	51920.10
524.44	52016.07
524.61	52236.08
524.78	52072.24
524.96	52254.80
525.13	52142.45
525.30	52004.36
525.47	52360.12
525.64	52383.53
525.81	52706.52
525.98	52617.58
526.16	52343.74
526.33	52512.26
526.50	52994.41
526.67	52662.05
526.84	53081.01
527.01	52743.97
527.18	53022.50
527.36	52767.38
527.53	52839.93
527.70	53432.09
527.87	53176.97
528.04	52912.49
528.21	53118.46
528.38	53146.54
528.55	53521.03
528.72	53387.62
528.89	53312.72
529.07	53396.98
529.24	53572.52
529.41	53619.33
529.58	53586.57
529.75	53633.38
529.92	53876.79
530.09	53673.16
530.26	54054.67
530.43	53773.81
530.60	53551.46
530.77	53820.62
530.94	53890.83
531.11	53947.01
531.28	53954.03
531.46	54099.14
531.63	54178.72
531.80	54213.83
531.97	54078.08
532.14	54087.44
532.31	54461.93
532.48	54574.27
532.65	54387.03
532.82	54344.90
532.99	54773.22
533.16	54230.21
533.33	54681.94
533.50	54768.54
533.67	54752.15
533.84	54501.71
534.01	54717.04
534.18	54784.92
534.35	55192.17
534.52	54930.03
534.69	55075.15
534.86	55203.88
535.03	55164.09
535.20	55236.64
535.37	55512.83
535.54	55098.55
535.71	55229.62
535.88	55515.17
536.05	55395.80
536.22	55629.85
536.38	55367.71
536.55	55304.52
536.72	55311.54
536.89	55447.29
537.06	55526.87
537.23	55632.19
537.40	55620.49
537.57	55756.24
537.74	55648.58
537.91	55950.51
538.08	55891.99
538.25	55547.93
538.42	55648.58
538.59	56093.28
538.75	55704.75
538.92	56002.00
539.09	56151.79
539.26	55938.80
539.43	56069.87
539.60	55980.93
539.77	56069.87
539.94	56507.55
540.11	56280.52
540.28	56552.02
540.44	56374.14
540.61	56231.37
540.78	56266.48
540.95	56261.80
541.12	56334.35
541.29	56339.04
541.46	56390.53
541.62	56655.01
541.79	56732.25
541.96	56402.23
542.13	56594.15
542.30	56479.47
542.47	56713.52
542.63	56542.66
542.80	56893.74
542.97	56970.98
543.14	57155.88
543.31	57172.27
543.48	57186.31
543.64	57305.68
543.81	57216.74
543.98	57158.22
544.15	57277.59
544.32	57441.43
544.48	57623.99
544.65	57263.55
544.82	57429.72
544.99	57263.55
545.16	57544.41
545.32	57214.40
545.49	57483.56
545.66	57909.53
545.83	57640.37
546.00	57862.72
546.16	57530.37
546.33	57453.13
546.50	57441.43
546.67	57675.48
546.83	57296.31
547.00	57558.45
547.17	57780.81
547.34	57836.98
547.50	57886.13
547.67	57867.40
547.84	58075.71
548.00	58094.44
548.17	57986.77
548.34	58052.31
548.51	58300.40
548.67	58258.27
548.84	58251.25
549.01	58096.78
549.18	58150.61
549.34	58120.18
549.51	58183.38
549.68	58347.21
549.84	58096.78
550.01	58426.79
550.18	58284.02
550.34	58450.20
550.51	58489.99
550.68	58377.64
550.84	58152.95
551.01	58305.09
551.18	58487.65
551.34	58401.05
551.51	58436.16
551.68	58429.13
551.84	58599.99
552.01	58382.32
552.18	58681.91
552.34	58667.87
552.51	58789.58
552.68	58466.58
552.84	58707.66
553.01	58637.44
553.18	58782.55
553.34	58649.14
553.51	58548.50
553.67	58534.46
553.84	58878.52
554.01	59004.91
554.17	58838.73
554.34	59178.10
554.51	58705.32
554.67	58843.41
554.84	58995.54
555.00	58986.18
555.17	58981.50
555.33	58904.26
555.50	58953.41
555.67	58773.19
555.83	58876.18
556.00	59051.72
556.16	59585.36
556.33	59250.66
556.50	59133.63
556.66	59222.58
556.83	59032.99
556.99	59412.16
557.16	59377.05
557.32	59430.88
557.49	59585.36
557.65	59236.62
557.82	59257.68
557.98	59262.36
558.15	59435.56
558.32	59304.49
558.48	59208.53
558.65	59334.92
558.81	59482.37
558.98	59442.59
559.14	59662.60
559.31	59636.85
559.47	59767.92
559.64	59700.04
559.80	59716.43
559.97	59716.43
560.13	59381.73
560.30	59414.50
560.46	59615.79
560.63	59744.51
560.79	59831.11
560.96	59739.83
561.12	59786.64
561.29	59718.77
561.45	59875.58
561.61	59723.45
561.78	59662.60
561.94	59793.67
562.11	59760.90
562.27	59884.95
562.44	59861.54
562.60	59903.67
562.77	59976.23
562.93	59840.48
563.10	60093.25
563.26	59924.74
563.42	60102.62
563.59	59999.63
563.75	59863.88
563.92	60079.21
564.08	59835.80
564.24	59873.24
564.41	60198.58
564.57	59936.44
564.74	59985.59
564.90	60158.79
565.07	60198.58
565.23	60130.70
565.39	60020.70
565.56	60250.07
565.72	60107.30
565.88	60198.58
566.05	60273.48
566.21	60041.76
566.38	60121.34
566.54	60055.81
566.70	60289.86
566.87	60247.73
567.03	60083.89
567.19	60303.90
567.36	60324.97
567.52	60245.39
567.68	60488.80
567.85	60346.03
568.01	60247.73
568.17	60289.86
568.34	60289.86
568.50	60463.06
568.66	60425.61
568.83	60343.69
568.99	60226.66
569.15	60313.26
569.32	60331.99
569.48	60149.43
569.64	60495.83
569.81	60229.01
569.97	60261.77
570.13	60346.03
570.30	60425.61
570.46	60275.82
570.62	60509.87
570.78	60308.58
570.95	60252.41
571.11	60495.83
571.27	60509.87
571.43	60505.19
571.60	60523.91
571.76	60582.43
571.92	60764.99
572.09	60537.96
572.25	60523.91
572.41	60484.12
572.57	60430.29
572.74	60706.47
572.90	60449.02
573.06	60479.44
573.22	60437.31
573.38	60495.83
573.55	60589.45
573.71	60645.62
573.87	60622.22
574.03	60416.25
574.20	60673.71
574.36	60608.17
574.52	60725.20
574.68	60762.65
574.84	60781.37
575.01	60575.40
575.17	60533.28
575.33	60676.05
575.49	60406.89
575.65	60743.92
575.82	60945.21
575.98	60603.49
576.14	60874.99
576.30	60762.65
576.46	60832.86
576.62	60786.05
576.79	60591.79
576.95	60439.65
577.11	60678.39
577.27	60708.82
577.43	60767.33
577.59	60570.72
577.75	60645.62
577.92	60657.32
578.08	60732.22
578.24	60851.59
578.40	60903.08
578.56	60992.02
578.72	60856.27
578.88	60860.95
579.04	61062.24
579.21	60924.14
579.37	60793.07
579.53	60856.27
579.69	60640.94
579.85	60692.43
580.01	60706.47
580.17	60692.43
580.33	60977.98
580.49	60891.38
580.65	61001.38
580.82	60708.82
580.98	60743.92
581.14	60762.65
581.30	61003.72
581.46	60711.16
581.62	60804.78
581.78	60783.71
581.94	60699.45
582.10	60956.91
582.26	60800.10
582.42	60856.27
582.58	60800.10
582.74	60772.01
582.90	60746.26
583.06	60842.23
583.22	60498.17
583.38	60743.92
583.54	60816.48
583.70	60982.66
583.86	60886.70
584.02	60736.90
584.18	60985.00
584.34	60952.23
584.50	60788.39
584.66	60882.02
584.82	60619.88
584.98	61080.96
585.14	61090.32
585.30	60818.82
585.46	61029.47
585.62	61130.11
585.78	61230.75
585.94	60818.82
586.10	60863.29
586.26	61120.75
586.42	61076.28
586.58	61193.31
586.74	60879.67
586.90	60903.08
587.06	60940.53
587.22	60973.30
587.38	61013.08
587.54	60982.66
587.70	61167.56
587.86	61045.85
588.02	61029.47
588.18	61125.43
588.34	61095.00
588.49	61038.83
