SpectraSuite Data File
++++++++++++++++++++++++++++++++++++
Date: Fri Oct 25 10:47:35 EDT 2013
User: price-jones
Dark Spectrum Present: No
Reference Spectrum Present: No
Number of Sampled Component Spectra: 1
Spectrometers: USB2+H05261
Integration Time (usec): 100000 (USB2+H05261)
Spectra Averaged: 1 (USB2+H05261)
Boxcar Smoothing: 0 (USB2+H05261)
Correct for Electrical Dark: No (USB2+H05261)
Strobe/Lamp Enabled: No (USB2+H05261)
Correct for Detector Non-linearity: No (USB2+H05261)
Correct for Stray Light: No (USB2+H05261)
Number of Pixels in Processed Spectrum: 2048
>>>>>Begin Processed Spectral Data<<<<<
365.73	191.92
365.92	191.92
366.12	191.92
366.32	49.15
366.52	110.01
366.72	58.51
366.91	74.90
367.11	28.09
367.31	37.45
367.51	37.45
367.70	4.68
367.90	28.09
368.10	39.79
368.30	77.24
368.49	44.47
368.69	51.49
368.89	25.75
369.09	23.41
369.28	84.26
369.48	49.15
369.68	65.54
369.87	88.94
370.07	35.11
370.27	112.35
370.47	182.56
370.66	421.30
370.86	367.46
371.06	447.04
371.25	498.53
371.45	376.83
371.65	454.06
371.84	395.55
372.04	463.43
372.24	470.45
372.44	507.90
372.63	550.03
372.83	540.66
373.03	538.32
373.22	425.98
373.42	521.94
373.62	521.94
373.81	568.75
374.01	533.64
374.21	505.56
374.40	559.39
374.60	482.15
374.79	592.16
374.99	596.84
375.19	538.32
375.38	533.64
375.58	580.45
375.78	613.22
375.97	608.54
376.17	660.03
376.37	631.94
376.56	521.94
376.76	620.24
376.95	622.58
377.15	685.78
377.35	578.11
377.54	772.38
377.74	582.79
377.93	615.56
378.13	620.24
378.33	587.47
378.52	578.11
378.72	671.73
378.91	669.39
379.11	624.92
379.31	564.07
379.50	582.79
379.70	650.67
379.89	594.50
380.09	624.92
380.28	669.39
380.48	636.63
380.68	671.73
380.87	613.22
381.07	758.33
381.26	744.29
381.46	660.03
381.65	645.99
381.85	718.54
382.04	608.54
382.24	734.93
382.43	760.67
382.63	657.69
382.83	699.82
383.02	683.44
383.22	688.12
383.41	667.05
383.61	741.95
383.80	805.14
384.00	748.97
384.19	732.59
384.39	669.39
384.58	725.57
384.78	739.61
384.97	741.95
385.17	746.63
385.36	763.01
385.56	772.38
385.75	699.82
385.95	826.21
386.14	779.40
386.34	781.74
386.53	709.18
386.72	781.74
386.92	858.98
387.11	777.06
387.31	807.48
387.50	816.85
387.70	826.21
387.89	816.85
388.09	945.58
388.28	882.38
388.48	814.51
388.67	889.40
388.86	915.15
389.06	854.30
389.25	847.27
389.45	929.19
389.64	945.58
389.84	987.71
390.03	990.05
390.22	943.24
390.42	901.11
390.61	898.77
390.81	894.08
391.00	987.71
391.19	954.94
391.39	919.83
391.58	901.11
391.78	964.30
391.97	950.26
392.16	919.83
392.36	959.62
392.55	1048.56
392.75	1011.11
392.94	917.49
393.13	994.73
393.33	929.19
393.52	929.19
393.71	1011.11
393.91	1029.84
394.10	1025.15
394.29	1123.46
394.49	1078.99
394.68	1104.73
394.88	1118.78
395.07	1062.60
395.26	1184.31
395.46	1128.14
395.65	1114.10
395.84	1069.62
396.04	1186.65
396.23	1160.91
396.42	1093.03
396.62	1029.84
396.81	1142.18
397.00	1172.61
397.19	1167.93
397.39	1151.54
397.58	1205.38
397.77	1331.76
397.97	1275.59
398.16	1268.57
398.35	1291.98
398.55	1263.89
398.74	1294.32
398.93	1303.68
399.12	1306.02
399.32	1341.13
399.51	1404.32
399.70	1413.68
399.90	1427.73
400.09	1460.49
400.28	1434.75
400.47	1409.00
400.67	1434.75
400.86	1397.30
401.05	1439.43
401.24	1516.67
401.44	1486.24
401.63	1556.46
401.82	1423.05
402.01	1530.71
402.21	1425.39
402.40	1500.28
402.59	1493.26
402.78	1486.24
402.97	1605.61
403.17	1544.75
403.36	1572.84
403.55	1631.35
403.74	1685.19
403.93	1619.65
404.13	1582.20
404.32	1678.16
404.51	1603.27
404.70	1678.16
404.89	1600.93
405.09	1741.36
405.28	1631.35
405.47	1839.66
405.66	1727.32
405.85	1870.09
406.05	1713.27
406.24	1813.92
406.43	1802.21
406.62	1860.73
406.81	1919.24
407.00	1813.92
407.20	1741.36
407.39	1865.41
407.58	1886.47
407.77	1940.30
407.96	1816.26
408.15	2106.48
408.34	2008.18
408.54	2033.93
408.73	2076.06
408.92	2026.90
409.11	1959.03
409.30	1987.11
409.49	2076.06
409.68	1902.86
409.87	1982.43
410.07	2015.20
410.26	2101.80
410.45	2155.63
410.64	2097.12
410.83	2221.17
411.02	2251.60
411.21	2197.76
411.40	2207.13
411.59	2284.36
411.78	2356.92
411.98	2239.89
412.17	2408.41
412.36	2347.56
412.55	2387.35
412.74	2443.52
412.93	2429.48
413.12	2375.64
413.31	2630.76
413.50	2518.42
413.69	2579.27
413.88	2520.76
414.07	2630.76
414.26	2663.53
414.45	2698.64
414.64	2635.44
414.83	2668.21
415.02	2719.70
415.22	2726.72
415.41	2661.19
415.60	2682.25
415.79	2789.92
415.98	2829.71
416.17	2885.88
416.36	2855.45
416.55	2874.18
416.74	2974.82
416.93	2963.12
417.12	2965.46
417.31	2967.80
417.50	2946.73
417.69	3091.85
417.88	3054.40
418.07	2942.05
418.26	3101.21
418.45	3040.36
418.64	3131.64
418.83	3204.19
419.02	3152.70
419.21	3171.43
419.39	3241.64
419.58	3262.71
419.77	3136.32
419.96	3232.28
420.15	3283.77
420.34	3293.13
420.53	3290.79
420.72	3377.39
420.91	3379.73
421.10	3410.16
421.29	3414.84
421.48	3421.86
421.67	3473.36
421.86	3473.36
422.05	3412.50
422.24	3258.03
422.43	3323.56
422.61	3442.93
422.80	3520.17
422.99	3492.08
423.18	3784.65
423.37	3632.51
423.56	3466.33
423.75	3609.11
423.94	3445.27
424.13	3281.43
424.32	3428.88
424.50	3452.29
424.69	3431.23
424.88	3585.70
425.07	3604.42
425.26	3602.08
425.45	3559.95
425.64	3433.57
425.83	3407.82
426.01	3740.18
426.20	3599.74
426.39	3616.13
426.58	3592.72
426.77	3627.83
426.96	3627.83
427.15	3471.01
427.33	3838.48
427.52	3564.64
427.71	3735.50
427.90	3733.15
428.09	3796.35
428.28	3789.33
428.46	3709.75
428.65	3950.82
428.84	3894.65
429.03	3866.56
429.22	3815.07
429.40	3789.33
429.59	3831.46
429.78	3742.52
429.97	3599.74
430.16	3716.77
430.34	3866.56
430.53	3845.50
430.72	3978.91
430.91	3978.91
431.10	3896.99
431.28	4030.40
431.47	4180.20
431.66	4266.80
431.85	4147.43
432.03	4241.05
432.22	4152.11
432.41	4161.47
432.60	4217.65
432.79	4166.15
432.97	4390.84
433.16	4229.35
433.35	4126.36
433.54	4341.69
433.72	4306.59
433.91	4287.86
434.10	4227.01
434.28	4409.57
434.47	4376.80
434.66	4517.23
434.85	4454.04
435.03	4468.08
435.22	4414.25
435.41	4550.00
435.59	4589.79
435.78	4564.04
435.97	4451.70
436.16	4557.02
436.34	4601.49
436.53	4643.62
436.72	4697.46
436.90	4557.02
437.09	4709.16
437.28	4547.66
437.46	4554.68
437.65	4716.18
437.84	4627.24
438.02	4711.50
438.21	4645.96
438.40	4753.63
438.58	4826.18
438.77	4905.76
438.96	4765.33
439.14	5055.56
439.33	5088.32
439.52	5013.43
439.70	5081.30
439.89	5074.28
440.08	5043.85
440.26	5125.77
440.45	5121.09
440.63	5259.18
440.82	5362.17
441.01	5329.40
441.19	5378.55
441.38	5399.62
441.57	5305.99
441.75	5537.71
441.94	5680.48
442.12	5703.89
442.31	5767.08
442.50	5652.39
442.68	5675.80
442.87	5645.37
443.05	5762.40
443.24	5685.16
443.43	5879.43
443.61	5717.93
443.80	6106.46
443.98	5783.46
444.17	5469.83
444.35	5916.87
444.54	6066.67
444.73	5914.53
444.91	5865.38
445.10	5799.85
445.28	5797.51
445.47	5933.26
445.65	5699.20
445.84	5994.11
446.02	5928.58
446.21	5961.34
446.39	5940.28
446.58	5879.43
446.77	5949.64
446.95	5893.47
447.14	6010.50
447.32	6111.14
447.51	5884.11
447.69	5874.74
447.88	6010.50
448.06	5818.57
448.25	6139.23
448.43	5973.05
448.62	5966.03
448.80	5933.26
448.99	6328.81
449.17	6277.32
449.36	6092.41
449.54	6211.78
449.73	6223.48
449.91	6366.26
450.10	6466.90
450.28	6590.95
450.46	6424.77
450.65	6637.76
450.83	6464.56
451.02	6394.34
451.20	6389.66
451.39	6438.81
451.57	6466.90
451.76	6359.24
451.94	6424.77
452.13	6574.56
452.31	6392.00
452.49	6490.31
452.68	6544.14
452.86	6576.91
453.05	6445.84
453.23	6597.97
453.42	6464.56
453.60	6551.16
453.78	6752.45
453.97	6682.23
454.15	6675.21
454.34	6576.91
454.52	6834.36
454.70	6726.70
454.89	6874.15
455.07	6892.88
455.26	6832.02
455.44	6951.39
455.62	7016.93
455.81	6918.62
455.99	7047.35
456.17	7178.42
456.36	7066.08
456.54	7049.69
456.73	7199.49
456.91	7222.89
457.09	7225.23
457.28	7386.73
457.46	7197.15
457.64	7269.70
457.83	7389.07
458.01	6991.18
458.19	7335.24
458.38	7386.73
458.56	7482.69
458.74	7496.74
458.93	7360.98
459.11	7559.93
459.29	7501.42
459.48	7417.16
459.66	7382.05
459.84	7461.63
460.03	7765.90
460.21	7538.87
460.39	7510.78
460.57	7838.45
460.76	7873.56
460.94	7634.83
461.12	7651.21
461.31	7763.56
461.49	7719.09
461.67	7852.50
461.85	8037.40
462.04	7749.51
462.22	8322.94
462.40	8257.41
462.59	8039.74
462.77	7861.86
462.95	7953.14
463.13	7964.84
463.32	8016.33
463.50	7999.95
463.68	8084.21
463.86	8021.02
464.05	7723.77
464.23	8053.78
464.41	8201.24
464.59	8100.59
464.78	8320.60
464.96	8184.85
465.14	8224.64
465.32	8425.93
465.50	8400.18
465.69	8430.61
465.87	8301.88
466.05	8496.14
466.23	8180.17
466.41	8425.93
466.60	8695.09
466.78	8259.75
466.96	8418.91
467.14	8533.59
467.32	8435.29
467.51	8517.21
467.69	8299.54
467.87	8524.23
468.05	8664.66
468.23	8465.72
468.41	8498.49
468.60	8528.91
468.78	8777.01
468.96	8510.19
469.14	8800.41
469.32	8901.06
469.50	8695.09
469.69	8896.38
469.87	8929.14
470.05	8814.46
470.23	8879.99
470.41	8938.51
470.59	9109.36
470.77	8985.32
470.95	9006.38
471.14	9069.58
471.32	9104.68
471.50	9348.10
471.68	9025.11
471.86	9437.04
472.04	9296.61
472.22	9647.69
472.40	9336.40
472.58	9364.48
472.77	9378.53
472.95	9472.15
473.13	9980.04
473.31	9619.60
473.49	9460.45
473.67	9476.83
473.85	9706.20
474.03	9774.08
474.21	9940.26
474.39	10083.03
474.57	10134.52
474.75	10104.09
474.93	10083.03
475.12	10108.77
475.30	10200.05
475.48	10122.82
475.66	10253.89
475.84	10176.65
476.02	10403.68
476.20	10401.34
476.38	10712.63
476.56	10700.93
476.74	10759.44
476.92	10855.40
477.10	10827.32
477.28	10897.53
477.46	11002.86
477.64	11119.89
477.82	11204.14
478.00	11386.71
478.18	11372.66
478.36	11314.15
478.54	11400.75
478.72	11569.27
478.90	11634.80
479.08	11946.09
479.26	11934.39
479.44	11665.23
479.62	11777.58
479.80	12056.10
479.98	11978.86
480.16	12601.44
480.34	12315.90
480.52	12594.42
480.70	12723.15
480.88	12566.34
481.06	12631.87
481.24	12620.17
481.41	12776.98
481.59	13135.09
481.77	13095.30
481.95	13163.17
482.13	13352.76
482.31	13291.90
482.49	13572.77
482.67	13645.32
482.85	13696.82
483.03	13727.24
483.21	13767.03
483.39	14078.32
483.57	13956.61
483.74	14242.16
483.92	14373.23
484.10	14443.45
484.28	14471.53
484.46	14846.02
484.64	14934.96
484.82	14555.79
485.00	14703.25
485.18	15122.20
485.35	15311.78
485.53	15103.48
485.71	14693.88
485.89	15592.65
486.07	15185.40
486.25	15321.15
486.43	15655.84
486.61	15784.57
486.78	15946.07
486.96	15889.90
487.14	16271.40
487.32	16360.34
487.50	16404.81
487.68	16681.00
487.85	16697.38
488.03	16931.44
488.21	16973.56
488.39	17022.72
488.57	17298.90
488.75	17610.19
488.92	17617.21
489.10	17792.75
489.28	17476.78
489.46	17928.50
489.64	18057.23
489.81	18541.72
489.99	18394.27
490.17	18342.78
490.35	18686.84
490.53	18530.02
490.70	18728.97
490.88	18960.68
491.06	19164.31
491.24	19307.08
491.41	19229.84
491.59	19309.42
491.77	19124.52
491.95	19433.47
492.13	19297.72
492.30	19859.45
492.48	19630.07
492.66	20016.26
492.84	20081.80
493.01	20395.43
493.19	20627.14
493.37	20554.58
493.54	20489.05
493.72	20837.79
493.90	20795.66
494.08	20760.55
494.25	21188.87
494.43	21413.56
494.61	21481.44
494.79	21280.15
494.96	21441.65
495.14	21752.94
495.32	21759.96
495.49	21874.65
495.67	21469.73
495.85	22104.02
496.02	22293.60
496.20	22356.80
496.38	22181.26
496.55	22537.02
496.73	23056.62
496.91	22621.28
497.09	22918.53
497.26	23246.20
497.44	23129.17
497.62	23271.95
497.79	23381.95
497.97	23166.62
498.14	23501.32
498.32	23821.97
498.50	23920.28
498.67	24217.52
498.85	24041.98
499.03	24247.95
499.20	24144.97
499.38	24453.92
499.56	24170.71
499.73	24592.01
499.91	24503.07
500.08	24465.62
500.26	24526.47
500.44	24620.10
500.61	24767.55
500.79	24482.00
500.97	25081.18
501.14	25193.53
501.32	25338.64
501.49	25092.88
501.67	25731.85
501.84	25603.12
502.02	25652.27
502.20	26017.40
502.37	25841.85
502.55	25862.92
502.72	25902.71
502.90	26092.29
503.07	26005.69
503.25	25923.77
503.43	26061.87
503.60	26298.26
503.78	26040.80
503.95	26223.36
504.13	26307.62
504.30	26464.44
504.48	26611.89
504.65	26642.32
504.83	26984.04
505.01	27283.62
505.18	26902.12
505.36	27295.33
505.53	26977.01
505.71	27550.45
505.88	27527.04
506.06	27108.08
506.23	27208.73
506.41	27330.44
506.58	28191.75
506.76	27927.27
506.93	27824.29
507.11	27857.06
507.28	27915.57
507.46	27917.91
507.63	27880.46
507.81	28313.46
507.98	27929.61
508.16	28271.33
508.33	28313.46
508.50	28545.17
508.68	28507.72
508.85	28891.57
509.03	28793.27
509.20	29039.03
509.38	29163.08
509.55	29296.49
509.73	29102.22
509.90	29301.17
510.08	29146.69
510.25	29390.11
510.42	29415.85
510.60	29593.73
510.77	29448.62
510.95	29682.67
511.12	29462.66
511.30	29921.41
511.47	29935.45
511.64	30286.53
511.82	30272.49
511.99	29792.68
512.17	30370.79
512.34	29869.92
512.51	30616.55
512.69	30157.80
512.86	30167.16
513.04	30864.64
513.21	30834.22
513.38	31094.02
513.56	30527.61
513.73	30228.02
513.90	31058.91
514.08	31049.55
514.25	30991.03
514.43	30834.22
514.60	30986.35
514.77	31269.56
514.95	31374.88
515.12	31253.17
515.29	31517.65
515.47	31557.44
515.64	31871.07
515.81	31079.97
515.99	31419.35
516.16	31740.00
516.33	31367.86
516.51	31662.77
516.68	31700.22
516.85	31370.20
517.03	32093.43
517.20	31971.72
517.37	32067.68
517.54	32109.81
517.72	32128.53
517.89	32189.39
518.06	32161.30
518.24	32336.84
518.41	32393.01
518.58	32458.55
518.75	32121.51
518.93	32641.11
519.10	32446.85
519.27	33205.18
519.45	32921.98
519.62	33308.16
519.79	33134.96
519.96	33008.58
520.14	33024.96
520.31	33160.71
520.48	33340.93
520.65	33539.88
520.83	33298.80
521.00	33869.89
521.17	33750.52
521.34	33970.54
521.52	33895.64
521.69	33809.04
521.86	34092.24
522.03	34127.35
522.20	33963.51
522.38	34256.08
522.55	34508.86
522.72	34518.22
522.89	34384.81
523.07	34740.57
523.24	34249.06
523.41	34321.62
523.58	34120.33
523.75	34660.99
523.92	34892.71
524.10	34735.89
524.27	35173.57
524.44	34953.56
524.61	35122.08
524.78	35000.37
524.96	35508.27
525.13	35337.41
525.30	35644.02
525.47	35414.65
525.64	35569.12
525.81	35302.30
525.98	35122.08
526.16	35133.78
526.33	35566.78
526.50	35686.15
526.67	35140.80
526.84	35257.83
527.01	35615.93
527.18	35629.98
527.36	35892.12
527.53	35828.92
527.70	36556.83
527.87	36180.00
528.04	36126.17
528.21	36378.95
528.38	36091.06
528.55	36371.92
528.72	36212.77
528.89	36706.62
529.07	36435.12
529.24	36004.46
529.41	36891.52
529.58	36458.52
529.75	36311.07
529.92	36680.88
530.09	36795.56
530.26	36868.12
530.43	37099.83
530.60	36893.86
530.77	37090.47
530.94	37734.12
531.11	37165.37
531.28	37277.71
531.46	37359.63
531.63	37516.45
531.80	37118.56
531.97	36980.46
532.14	37668.58
532.31	37067.06
532.48	37525.81
532.65	37947.11
532.82	37797.31
532.99	37804.33
533.16	37425.17
533.33	37479.00
533.50	38096.90
533.67	37628.79
533.84	37933.06
534.01	38155.41
534.18	38022.00
534.35	38295.85
534.52	37816.04
534.69	38101.58
534.86	38455.00
535.03	38059.45
535.20	38560.33
535.37	38529.90
535.54	38478.41
535.71	38951.20
535.88	38628.20
536.05	38253.72
536.22	38878.64
536.38	38354.36
536.55	38623.52
536.72	38616.50
536.89	38457.34
537.06	38508.83
537.23	38897.36
537.40	38646.93
537.57	38958.22
537.74	38749.91
537.91	39302.28
538.08	38909.07
538.25	38976.94
538.42	39262.49
538.59	39468.45
538.75	39152.48
538.92	39253.12
539.09	39643.99
539.26	39566.76
539.43	39477.82
539.60	39510.58
539.77	39175.89
539.94	39814.85
540.11	39978.69
540.28	39491.86
540.44	39454.41
540.61	39445.05
540.78	39599.52
540.95	39515.26
541.12	39470.79
541.29	39030.77
541.46	39707.19
541.62	39529.31
541.79	40318.07
541.96	39292.91
542.13	39929.54
542.30	40423.39
542.47	40273.60
542.63	40201.04
542.80	40418.71
542.97	40603.61
543.14	40676.17
543.31	40680.85
543.48	41006.19
543.64	40961.72
543.81	40788.52
543.98	40758.09
544.15	40552.12
544.32	40524.04
544.48	41317.48
544.65	40793.20
544.82	40877.46
544.99	40488.93
545.16	40662.13
545.32	40950.01
545.49	41034.27
545.66	41614.72
545.83	41024.91
546.00	41375.99
546.16	41457.91
546.33	41001.50
546.50	40549.78
546.67	41319.82
546.83	41041.29
547.00	41207.47
547.17	41165.34
547.34	41132.57
547.50	41233.22
547.67	41710.69
547.84	41357.27
548.00	42019.64
548.17	41748.14
548.34	41904.95
548.51	41996.23
548.67	42115.60
548.84	41921.34
549.01	41808.99
549.18	41677.92
549.34	42078.15
549.51	41968.15
549.68	41914.31
549.84	42038.36
550.01	42160.07
550.18	41827.71
550.34	42101.56
550.51	41996.23
550.68	41759.84
550.84	41546.85
551.01	42129.64
551.18	42218.58
551.34	41895.59
551.51	42157.73
551.68	42103.90
551.84	42712.44
552.01	42141.35
552.18	41947.08
552.34	42391.78
552.51	42738.18
552.68	42073.47
552.84	42391.78
553.01	42850.53
553.18	42150.71
553.34	42639.88
553.51	42134.32
553.67	42483.06
553.84	42494.77
554.01	42993.30
554.17	42836.48
554.34	42962.87
554.51	42632.86
554.67	42939.47
554.84	42920.74
555.00	42866.91
555.17	42529.87
555.33	43058.84
555.50	42511.15
555.67	42726.48
555.83	43573.75
556.00	42707.76
556.16	43662.69
556.33	43103.31
556.50	42726.48
556.66	43171.18
556.83	42588.39
556.99	43356.08
557.16	43564.39
557.32	43126.71
557.49	43374.81
557.65	43100.97
557.82	42607.11
557.98	43072.88
558.15	43278.85
558.32	43599.50
558.48	43208.63
558.65	43503.54
558.81	43388.85
558.98	43037.77
559.14	43531.62
559.31	43597.16
559.47	43215.65
559.64	43648.65
559.80	43438.00
559.97	43456.73
560.13	43601.84
560.30	43407.58
560.46	43515.24
560.63	43611.20
560.79	43693.12
560.96	43557.37
561.12	43608.86
561.29	44116.76
561.45	43477.79
561.61	44123.78
561.78	43475.45
561.94	43629.93
562.11	43695.46
562.27	43632.27
562.44	43892.07
562.60	43810.15
562.77	43948.24
562.93	43711.84
563.10	44034.84
563.26	43571.41
563.42	44112.08
563.59	44156.55
563.75	43941.22
563.92	44088.67
564.08	44032.50
564.24	44109.74
564.41	44067.61
564.57	44011.43
564.74	44194.00
564.90	44505.29
565.07	44226.76
565.23	43826.53
565.39	43995.05
565.56	43999.73
565.72	44009.09
565.88	43927.17
566.05	43945.90
566.21	44252.51
566.38	43971.64
566.54	44100.37
566.70	43814.83
566.87	44081.65
567.03	43978.67
567.19	44444.43
567.36	44914.88
567.52	43945.90
567.68	44287.62
567.85	44032.50
568.01	44430.39
568.17	44210.38
568.34	44245.49
568.50	44098.03
568.66	44229.10
568.83	44098.03
568.99	44294.64
569.15	44388.26
569.32	44364.85
569.48	44069.95
569.64	44498.26
569.81	44081.65
569.97	43978.67
570.13	43988.03
570.30	43817.17
570.46	44498.26
570.62	44222.08
570.78	44465.50
570.95	44458.48
571.11	44505.29
571.27	44076.97
571.43	44692.53
571.60	44481.88
571.76	44385.92
571.92	44065.27
572.09	44524.01
572.25	44659.76
572.41	44100.37
572.57	44516.99
572.74	44971.05
572.90	44985.10
573.06	44449.11
573.22	44821.26
573.38	44734.66
573.55	44608.27
573.71	44346.13
573.87	44362.51
574.03	44233.78
574.20	44332.09
574.36	44484.22
574.52	44570.82
574.68	44914.88
574.84	44598.91
575.01	44622.31
575.17	45104.46
575.33	44385.92
575.49	44353.15
575.65	45310.43
575.82	44650.40
575.98	44655.08
576.14	44942.97
576.30	45059.99
576.46	44385.92
576.62	44463.16
576.79	44261.87
576.95	44432.73
577.11	44399.96
577.27	44889.13
577.43	44765.09
577.59	44683.17
577.75	44458.48
577.92	44329.75
578.08	44905.52
578.24	44210.38
578.40	44598.91
578.56	44589.55
578.72	44610.61
578.88	44692.53
579.04	44851.69
579.21	44706.57
579.37	44608.27
579.53	44423.37
579.69	44524.01
579.85	44868.07
580.01	44664.44
580.17	44346.13
580.33	45244.90
580.49	44903.18
580.65	44835.30
580.82	44844.66
580.98	44711.25
581.14	44865.73
581.30	45326.81
581.46	44687.85
581.62	44720.62
581.78	44542.74
581.94	45277.66
582.10	44844.66
582.26	44975.73
582.42	44458.48
582.58	44905.52
582.74	44439.75
582.90	44863.39
583.06	45312.77
583.22	45244.90
583.38	45099.78
583.54	45120.85
583.70	44727.64
583.86	44547.42
584.02	44100.37
584.18	44540.39
584.34	44818.92
584.50	44744.02
584.66	44247.83
584.82	44556.78
584.98	45071.70
585.14	45181.70
585.30	44701.89
585.46	44734.66
585.62	44481.88
585.78	44872.75
585.94	44556.78
586.10	44563.80
586.26	44467.84
586.42	44882.11
586.58	44879.77
586.74	44596.57
586.90	44498.26
587.06	44498.26
587.22	45104.46
587.38	44587.21
587.54	44863.39
587.70	45050.63
587.86	45022.54
588.02	45024.89
588.18	44926.58
588.34	44753.38
588.49	44465.50
588.65	44559.12
588.81	44479.54
588.97	44374.22
589.13	44472.52
589.29	44825.94
589.45	45249.58
589.61	45158.30
589.77	44889.13
589.93	44722.96
590.08	45280.00
590.24	45141.91
