SpectraSuite Data File
++++++++++++++++++++++++++++++++++++
Date: Fri Oct 25 10:43:25 EDT 2013
User: price-jones
Dark Spectrum Present: No
Reference Spectrum Present: No
Number of Sampled Component Spectra: 1
Spectrometers: USB2+H05261
Integration Time (usec): 100000 (USB2+H05261)
Spectra Averaged: 1 (USB2+H05261)
Boxcar Smoothing: 0 (USB2+H05261)
Correct for Electrical Dark: No (USB2+H05261)
Strobe/Lamp Enabled: No (USB2+H05261)
Correct for Detector Non-linearity: No (USB2+H05261)
Correct for Stray Light: No (USB2+H05261)
Number of Pixels in Processed Spectrum: 2048
>>>>>Begin Processed Spectral Data<<<<<
365.73	77.24
365.92	77.24
366.12	77.24
366.32	46.81
366.52	4.68
366.72	11.70
366.91	32.77
367.11	0.00
367.31	72.56
367.51	0.00
367.70	30.43
367.90	16.38
368.10	95.96
368.30	46.81
368.49	0.00
368.69	0.00
368.89	91.28
369.09	0.00
369.28	51.49
369.48	21.06
369.68	79.58
369.87	51.49
370.07	39.79
370.27	74.90
370.47	175.54
370.66	365.12
370.86	489.17
371.06	468.11
371.25	468.11
371.45	493.85
371.65	397.89
371.84	475.13
372.04	444.70
372.24	538.32
372.44	440.02
372.63	465.77
372.83	540.66
373.03	468.11
373.22	498.53
373.42	505.56
373.62	526.62
373.81	585.13
374.01	557.05
374.21	629.60
374.40	514.92
374.60	491.51
374.79	521.94
374.99	587.47
375.19	521.94
375.38	617.90
375.58	500.87
375.78	601.52
375.97	557.05
376.17	514.92
376.37	585.13
376.56	629.60
376.76	676.41
376.95	578.11
377.15	631.94
377.35	631.94
377.54	622.58
377.74	528.96
377.93	606.20
378.13	638.97
378.33	636.63
378.52	688.12
378.72	702.16
378.91	671.73
379.11	704.50
379.31	573.43
379.50	641.31
379.70	725.57
379.89	709.18
380.09	608.54
380.28	641.31
380.48	662.37
380.68	669.39
380.87	709.18
381.07	643.65
381.26	716.20
381.46	723.23
381.65	636.63
381.85	667.05
382.04	704.50
382.24	664.71
382.43	685.78
382.63	688.12
382.83	730.25
383.02	770.04
383.22	699.82
383.41	713.86
383.61	837.91
383.80	755.99
384.00	767.70
384.19	755.99
384.39	772.38
384.58	727.91
384.78	763.01
384.97	737.27
385.17	704.50
385.36	704.50
385.56	716.20
385.75	727.91
385.95	840.25
386.14	866.00
386.34	903.45
386.53	929.19
386.72	748.97
386.92	814.51
387.11	856.64
387.31	903.45
387.50	844.93
387.70	777.06
387.89	844.93
388.09	887.06
388.28	875.36
388.48	856.64
388.67	887.06
388.86	947.92
389.06	959.62
389.25	997.07
389.45	926.85
389.64	877.70
389.84	997.07
390.03	994.73
390.22	849.61
390.42	968.98
390.61	915.15
390.81	992.39
391.00	994.73
391.19	1036.86
391.39	1022.81
391.58	929.19
391.78	1008.77
391.97	1001.75
392.16	1048.56
392.36	1076.65
392.55	971.32
392.75	1029.84
392.94	997.07
393.13	957.28
393.33	987.71
393.52	1074.31
393.71	1076.65
393.91	1015.79
394.10	1064.94
394.29	1125.80
394.49	1170.27
394.68	1090.69
394.88	1219.42
395.07	1177.29
395.26	1212.40
395.46	1198.35
395.65	1247.51
395.84	1132.82
396.04	1217.08
396.23	1177.29
396.42	1179.63
396.62	1142.18
396.81	1252.19
397.00	1214.74
397.19	1170.27
397.39	1282.61
397.58	1284.95
397.77	1301.34
397.97	1366.87
398.16	1399.64
398.35	1411.34
398.55	1392.62
398.74	1364.53
398.93	1526.03
399.12	1406.66
399.32	1497.94
399.51	1394.96
399.70	1526.03
399.90	1549.43
400.09	1554.12
400.28	1563.48
400.47	1544.75
400.67	1558.80
400.86	1643.06
401.05	1633.69
401.24	1636.03
401.44	1647.74
401.63	1626.67
401.82	1610.29
402.01	1664.12
402.21	1661.78
402.40	1671.14
402.59	1713.27
402.78	1678.16
402.97	1823.28
403.17	1820.94
403.36	1757.74
403.55	1811.57
403.74	1792.85
403.93	1811.57
404.13	1937.96
404.32	1799.87
404.51	1839.66
404.70	1891.15
404.89	1839.66
405.09	1942.64
405.28	1872.43
405.47	1877.11
405.66	1947.33
405.85	1851.36
406.05	1944.99
406.24	1996.48
406.43	2043.29
406.62	2073.71
406.81	2080.74
407.00	2036.27
407.20	2040.95
407.39	1977.75
407.58	2069.03
407.77	2127.55
407.96	2181.38
408.15	2181.38
408.34	2087.76
408.54	2181.38
408.73	2328.83
408.92	2190.74
409.11	2279.68
409.30	2239.89
409.49	2260.96
409.68	2270.32
409.87	2134.57
410.07	2326.49
410.26	2347.56
410.45	2296.07
410.64	2303.09
410.83	2349.90
411.02	2333.51
411.21	2403.73
411.40	2473.95
411.59	2574.59
411.78	2682.25
411.98	2605.02
412.17	2546.50
412.36	2649.49
412.55	2731.41
412.74	2642.46
412.93	2712.68
413.12	2715.02
413.31	2750.13
413.50	2733.75
413.69	2808.64
413.88	2932.69
414.07	2881.20
414.26	2909.29
414.45	2799.28
414.64	2890.56
414.83	2984.18
415.02	2984.18
415.22	2937.37
415.41	3091.85
415.60	3276.75
415.79	3178.45
415.98	3229.94
416.17	3089.51
416.36	3185.47
416.55	3159.72
416.74	3377.39
416.93	3183.13
417.12	3187.81
417.31	3148.02
417.50	3307.18
417.69	3351.65
417.88	3445.27
418.07	3222.92
418.26	3295.47
418.45	3349.31
418.64	3522.51
418.83	3496.76
419.02	3468.67
419.21	3620.81
419.39	3595.06
419.58	3541.23
419.77	3485.06
419.96	3508.46
420.15	3667.62
420.34	3646.55
420.53	3613.79
420.72	3756.56
420.91	3705.07
421.10	3726.13
421.29	3791.67
421.48	3691.02
421.67	3765.92
421.86	3632.51
422.05	3803.37
422.24	3667.62
422.43	3613.79
422.61	3777.62
422.80	3782.31
422.99	3789.33
423.18	3971.89
423.37	3824.44
423.56	3719.11
423.75	3796.35
423.94	3854.86
424.13	3543.57
424.32	3684.00
424.50	3995.29
424.69	3885.29
424.88	3927.42
425.07	3908.69
425.26	3794.01
425.45	3768.26
425.64	3761.24
425.83	3819.75
426.01	3894.65
426.20	3829.12
426.39	3831.46
426.58	3962.53
426.77	3899.33
426.96	3864.22
427.15	3894.65
427.33	3955.51
427.52	3934.44
427.71	3882.95
427.90	3981.25
428.09	3936.78
428.28	4004.66
428.46	3960.19
428.65	3840.82
428.84	4046.79
429.03	4095.94
429.22	3990.61
429.40	4145.09
429.59	4219.99
429.78	3885.29
429.97	3702.73
430.16	3918.06
430.34	4014.02
430.53	4095.94
430.72	4161.47
430.91	4081.89
431.10	4238.71
431.28	4442.34
431.47	4477.44
431.66	4688.09
431.85	4479.79
432.03	4608.51
432.22	4414.25
432.41	4582.77
432.60	4484.47
432.79	4517.23
432.97	4606.17
433.16	4660.01
433.35	4507.87
433.54	4566.39
433.72	4535.96
433.91	4503.19
434.10	4564.04
434.28	4683.41
434.47	4484.47
434.66	4704.48
434.85	4854.27
435.03	4613.20
435.22	4734.90
435.41	4987.68
435.59	4964.28
435.78	4917.47
435.97	4954.91
436.16	5090.67
436.34	4938.53
436.53	5022.79
436.72	5118.75
436.90	4999.38
437.09	4929.17
437.28	4898.74
437.46	4945.55
437.65	4950.23
437.84	5055.56
438.02	4954.91
438.21	5146.84
438.40	5018.11
438.58	5160.88
438.77	5329.40
438.96	5296.63
439.14	5423.02
439.33	5467.49
439.52	5516.64
439.70	5350.46
439.89	5638.35
440.08	5575.16
440.26	5633.67
440.45	5453.45
440.63	5806.87
440.82	5872.40
441.01	5816.23
441.19	5760.06
441.38	5949.64
441.57	5937.94
441.75	6076.03
441.94	6097.10
442.12	6099.44
442.31	6305.40
442.50	6225.82
442.68	6092.41
442.87	6108.80
443.05	6289.02
443.24	6193.06
443.43	6298.38
443.61	6202.42
443.80	6513.71
443.98	6267.95
444.17	6069.01
444.35	6319.45
444.54	6434.13
444.73	6480.94
444.91	6270.30
445.10	6258.59
445.28	6141.57
445.47	6143.91
445.65	6359.24
445.84	6399.02
446.02	6450.52
446.21	6483.28
446.39	6408.39
446.58	6420.09
446.77	6387.32
446.95	6277.32
447.14	6471.58
447.32	6642.44
447.51	6609.67
447.69	6471.58
447.88	6431.79
448.06	6441.15
448.25	6497.33
448.43	6569.88
448.62	6375.62
448.80	6572.22
448.99	6509.03
449.17	6651.80
449.36	6817.98
449.54	6768.83
449.73	6862.45
449.91	6902.24
450.10	6981.82
450.28	6930.33
450.46	7047.35
450.65	6913.94
450.83	7084.80
451.02	7059.06
451.20	7033.31
451.39	7049.69
451.57	6913.94
451.76	7169.06
451.94	7073.10
452.13	6953.73
452.31	7075.44
452.49	6867.13
452.68	6902.24
452.86	7040.33
453.05	7112.89
453.23	7215.87
453.42	7283.75
453.60	7133.95
453.78	7290.77
453.97	7082.46
454.15	7260.34
454.34	7265.02
454.52	7412.48
454.70	7396.09
454.89	7461.63
455.07	7370.35
455.26	7442.90
455.44	7389.07
455.62	7506.10
455.81	7370.35
455.99	7559.93
456.17	7681.64
456.36	7438.22
456.54	7653.55
456.73	7840.79
456.91	8004.63
457.09	7929.74
457.28	7985.91
457.46	7784.62
457.64	7941.44
457.83	7808.03
458.01	7688.66
458.19	7889.95
458.38	7906.33
458.56	7967.18
458.74	7953.14
458.93	7927.39
459.11	8105.28
459.29	8210.60
459.48	8161.45
459.66	7988.25
459.84	8346.35
460.03	8325.29
460.21	8369.76
460.39	8341.67
460.57	8339.33
460.76	8332.31
460.94	8477.42
461.12	8505.51
461.31	8465.72
461.49	8524.23
461.67	8500.83
461.85	8667.00
462.04	8472.74
462.22	9004.04
462.40	8608.49
462.59	8622.53
462.77	8695.09
462.95	8716.16
463.13	8594.45
463.32	8711.47
463.50	8676.37
463.68	8828.50
463.86	8809.78
464.05	8655.30
464.23	8720.84
464.41	8854.25
464.59	8741.90
464.78	8964.25
464.96	8877.65
465.14	8842.54
465.32	9004.04
465.50	9027.45
465.69	9111.71
465.87	9102.34
466.05	9069.58
466.23	8861.27
466.41	8994.68
466.60	9102.34
466.78	8791.05
466.96	8877.65
467.14	9036.81
467.32	9132.77
467.51	9233.41
467.69	9048.51
467.87	9289.59
468.05	9376.19
468.23	9233.41
468.41	9212.35
468.60	9303.63
468.78	9547.05
468.96	9465.13
469.14	9341.08
469.32	9537.68
469.50	9193.62
469.69	9444.06
469.87	9542.36
470.05	9652.37
470.23	9643.01
470.41	9731.95
470.59	9678.12
470.77	9671.09
470.95	9685.14
471.14	9848.97
471.32	9558.75
471.50	10134.52
471.68	10059.62
471.86	10209.42
472.04	10160.27
472.22	10244.52
472.40	9668.75
472.58	10087.71
472.77	10281.97
472.95	10445.81
473.13	10644.76
473.31	10181.33
473.49	10071.33
473.67	10265.59
473.85	10457.51
474.03	10799.23
474.21	10897.53
474.39	10841.36
474.57	10850.72
474.75	10984.13
474.93	10939.66
475.12	10817.96
475.30	11094.14
475.48	10934.98
475.66	11094.14
475.84	10984.13
476.02	11290.74
476.20	11143.29
476.38	11576.29
476.56	11599.70
476.74	11609.06
476.92	11606.72
477.10	11646.51
477.28	11819.71
477.46	12002.27
477.64	11943.75
477.82	11831.41
478.00	12379.09
478.18	12292.49
478.36	12226.96
478.54	12278.45
478.72	12430.59
478.90	12477.40
479.08	12645.91
479.26	12788.69
479.44	12840.18
479.62	12751.24
479.80	12936.14
479.98	13212.32
480.16	13312.97
480.34	13186.58
480.52	13610.22
480.70	13418.29
480.88	13497.87
481.06	13694.47
481.24	13518.93
481.41	14010.45
481.59	13998.74
481.77	13916.83
481.95	13998.74
482.13	14377.91
482.31	14443.45
482.49	14457.49
482.67	14258.54
482.85	14841.34
483.03	14923.26
483.21	14923.26
483.39	15129.22
483.57	14792.19
483.74	15122.20
483.92	15295.40
484.10	15056.67
484.28	15211.14
484.46	15466.26
484.64	15929.69
484.82	15585.63
485.00	15789.25
485.18	15913.30
485.35	16119.27
485.53	15669.89
485.71	15611.37
485.89	16297.15
486.07	16130.97
486.25	16362.69
486.43	16603.76
486.61	16664.61
486.78	16903.35
486.96	16943.14
487.14	17216.98
487.32	17350.39
487.50	17493.16
487.68	17532.95
487.85	17795.09
488.03	17830.20
488.21	18122.77
488.39	18340.44
488.57	18057.23
488.75	18223.41
488.92	18717.26
489.10	19194.73
489.28	18909.19
489.46	18920.89
489.64	19101.11
489.81	19796.25
489.99	19814.98
490.17	19861.79
490.35	19557.52
490.53	20053.71
490.70	20189.46
490.88	19939.02
491.06	20313.51
491.24	20418.83
491.41	20348.62
491.59	20355.64
491.77	20449.26
491.95	20559.27
492.13	20601.40
492.30	20989.92
492.48	21057.80
492.66	21209.93
492.84	21205.25
493.01	21350.37
493.19	21532.93
493.37	21874.65
493.54	21933.16
493.72	22155.51
493.90	21727.19
494.08	22487.87
494.25	22511.27
494.43	22230.41
494.61	22883.42
494.79	23136.20
494.96	22775.75
495.14	23236.84
495.32	23281.31
495.49	23084.70
495.67	23250.88
495.85	23594.94
496.02	23606.64
496.20	23768.14
496.38	24009.22
496.55	23964.75
496.73	24425.83
496.91	24252.63
497.09	24123.90
497.26	24547.54
497.44	24702.01
497.62	24608.39
497.79	24779.25
497.97	24421.15
498.14	25034.37
498.32	24746.48
498.50	25013.31
498.67	25659.29
498.85	25617.16
499.03	25556.31
499.20	25383.11
499.38	25851.22
499.56	25638.23
499.73	26225.70
499.91	26160.17
500.08	26162.51
500.26	25799.73
500.44	25626.53
500.61	26118.04
500.79	26389.54
500.97	26295.92
501.14	26749.98
501.32	26375.50
501.49	26396.56
501.67	26679.77
501.84	26787.43
502.02	26817.86
502.20	27185.32
502.37	27330.44
502.55	27234.47
502.72	27328.10
502.90	27370.22
503.07	27337.46
503.25	27498.95
503.43	27405.33
503.60	27435.76
503.78	27655.77
503.95	27522.36
504.13	28002.17
504.30	27866.42
504.48	27878.12
504.65	28505.38
504.83	28603.69
505.01	28535.81
505.18	28638.80
505.36	28891.57
505.53	28603.69
505.71	28847.10
505.88	29095.20
506.06	28748.80
506.23	29179.46
506.41	28912.64
506.58	29036.69
506.76	28978.17
506.93	29415.85
507.11	28875.19
507.28	29280.10
507.46	29633.52
507.63	28898.59
507.81	29795.02
507.98	29598.41
508.16	29930.77
508.33	30174.19
508.50	30031.41
508.68	30199.93
508.85	30586.12
509.03	30185.89
509.20	30345.05
509.38	30415.26
509.55	30600.16
509.73	30862.30
509.90	30668.04
510.08	30836.56
510.25	30895.07
510.42	30981.67
510.60	30951.24
510.77	31255.51
510.95	31463.82
511.12	31409.99
511.30	31154.87
511.47	31412.33
511.64	31854.69
511.82	31779.79
511.99	31356.16
512.17	31658.09
512.34	31227.43
512.51	31950.65
512.69	32119.17
512.86	31941.29
513.04	32163.64
513.21	31908.52
513.38	32294.71
513.56	32608.34
513.73	32107.47
513.90	32060.66
514.08	32364.93
514.25	32369.61
514.43	32432.80
514.60	32975.81
514.77	32369.61
514.95	32680.90
515.12	32842.40
515.29	33064.75
515.47	33326.89
515.64	33277.74
515.81	32856.44
515.99	33184.12
516.16	33413.49
516.33	32910.27
516.51	33144.33
516.68	32725.37
516.85	32542.81
517.03	33036.66
517.20	33516.47
517.37	33663.93
517.54	33809.04
517.72	33565.62
517.89	33439.23
518.06	33619.46
518.24	33612.43
518.41	34073.52
518.58	34043.09
518.75	34029.05
518.93	33907.34
519.10	34333.32
519.27	34438.64
519.45	34747.59
519.62	34588.44
519.79	34679.72
519.96	34600.14
520.14	34721.85
520.31	34459.71
520.48	35037.82
520.65	34946.54
520.83	35145.48
521.00	35248.47
521.17	35040.16
521.34	35065.91
521.52	35435.71
521.69	35477.84
521.86	35543.38
522.03	35414.65
522.20	35660.40
522.38	35700.19
522.55	35438.05
522.72	36233.83
522.89	35990.42
523.07	36261.92
523.24	35779.77
523.41	36060.63
523.58	36315.75
523.75	36257.24
523.92	36528.74
524.10	36444.48
524.27	36336.82
524.44	36713.64
524.61	36575.55
524.78	36737.05
524.96	36723.01
525.13	36945.36
525.30	37254.31
525.47	37158.34
525.64	36673.85
525.81	36488.95
525.98	37024.93
526.16	36889.18
526.33	36505.34
526.50	37024.93
526.67	36456.18
526.84	36842.37
527.01	36861.10
527.18	37230.90
527.36	37394.74
527.53	37345.59
527.70	37591.34
527.87	37598.37
528.04	37427.51
528.21	37724.75
528.38	37720.07
528.55	38602.46
528.72	38136.69
528.89	38225.63
529.07	38171.80
529.24	37958.81
529.41	37855.82
529.58	38122.65
529.75	38242.01
529.92	37876.89
530.09	38253.72
530.26	38469.04
530.43	38583.73
530.60	38536.92
530.77	38621.18
530.94	38974.60
531.11	38829.49
531.28	38415.21
531.46	38565.01
531.63	39136.10
531.80	38155.41
531.97	38925.45
532.14	38852.89
532.31	38064.13
532.48	38778.00
532.65	38834.17
532.82	38895.02
532.99	39143.12
533.16	38735.87
533.33	39402.92
533.50	39676.76
533.67	39281.21
533.84	39510.58
534.01	39344.41
534.18	38951.20
534.35	39945.92
534.52	39159.50
534.69	39468.45
534.86	39856.98
535.03	39992.73
535.20	40212.74
535.37	40048.91
535.54	40378.92
535.71	39995.07
535.88	40294.66
536.05	40154.23
536.22	39920.18
536.38	39913.16
536.55	40147.21
536.72	39924.86
536.89	39786.77
537.06	39735.27
537.23	40680.85
537.40	40240.83
537.57	40261.90
537.74	40294.66
537.91	40648.08
538.08	40493.61
538.25	40369.56
538.42	40914.90
538.59	40809.58
538.75	40179.98
538.92	40870.43
539.09	40737.02
539.26	40762.77
539.43	40673.83
539.60	40914.90
539.77	40648.08
539.94	40570.85
540.11	40610.64
540.28	40610.64
540.44	40865.75
540.61	40636.38
540.78	40804.90
540.95	40971.08
541.12	40989.80
541.29	40610.64
541.46	41251.94
541.62	41139.60
541.79	41598.34
541.96	40942.99
542.13	41228.54
542.30	41577.28
542.47	41478.97
542.63	41502.38
542.80	41652.17
542.97	41909.63
543.14	41926.02
543.31	41773.88
543.48	42014.96
543.64	42122.62
543.81	42354.33
543.98	42124.96
544.15	41776.22
544.32	42160.07
544.48	42632.86
544.65	41977.51
544.82	42136.66
544.99	41872.18
545.16	42415.19
545.32	42087.51
545.49	42766.27
545.66	42422.21
545.83	42265.39
546.00	42307.52
546.16	42368.38
546.33	42494.77
546.50	42499.45
546.67	42948.83
546.83	42021.98
547.00	42384.76
547.17	42843.51
547.34	42078.15
547.50	42918.40
547.67	43070.54
547.84	43012.02
548.00	42801.38
548.17	43283.53
548.34	43058.84
548.51	43243.74
548.67	43262.46
548.84	43267.14
549.01	42712.44
549.18	42574.34
549.34	43337.36
549.51	43316.29
549.68	42614.13
549.84	43278.85
550.01	43679.08
550.18	43175.86
550.34	43428.64
550.51	43091.60
550.68	43225.01
550.84	43096.28
551.01	43049.47
551.18	43412.26
551.34	43407.58
551.51	43328.00
551.68	44062.93
551.84	43311.61
552.01	43269.48
552.18	43311.61
552.34	43386.51
552.51	43679.08
552.68	43688.44
552.84	43639.29
553.01	43746.95
553.18	43442.68
553.34	43555.03
553.51	43672.06
553.67	44006.75
553.84	44189.31
554.01	44264.21
554.17	44107.40
554.34	43753.97
554.51	43660.35
554.67	44182.29
554.84	44088.67
555.00	43763.34
555.17	44275.91
555.33	44615.29
555.50	44034.84
555.67	44072.29
555.83	44348.47
556.00	44201.02
556.16	44296.98
556.33	44062.93
556.50	44172.93
556.66	44231.44
556.83	43784.40
556.99	44062.93
557.16	44315.70
557.32	43709.50
557.49	44481.88
557.65	43978.67
557.82	44236.12
557.98	44222.08
558.15	44514.65
558.32	44612.95
558.48	44240.81
558.65	44116.76
558.81	44596.57
558.98	44545.08
559.14	44570.82
559.31	44498.26
559.47	44687.85
559.64	44617.63
559.80	44851.69
559.97	44741.68
560.13	44219.74
560.30	44301.66
560.46	44315.70
560.63	45008.50
560.79	45106.80
560.96	44926.58
561.12	44432.73
561.29	44662.10
561.45	44708.91
561.61	44570.82
561.78	44545.08
561.94	44463.16
562.11	44442.09
562.27	44758.06
562.44	44800.19
562.60	44809.56
562.77	44947.65
562.93	45052.97
563.10	45221.49
563.26	44563.80
563.42	45380.65
563.59	45214.47
563.75	44907.86
563.92	45057.65
564.08	44722.96
564.24	45202.77
564.41	45338.52
564.57	44952.33
564.74	44980.42
564.90	44896.16
565.07	44556.78
565.23	45172.34
565.39	44802.53
565.56	44861.05
565.72	44570.82
565.88	44886.79
566.05	44690.19
566.21	44896.16
566.38	45057.65
566.54	45099.78
566.70	45502.35
566.87	45612.36
567.03	44996.80
567.19	45542.14
567.36	45104.46
567.52	45141.91
567.68	45244.90
567.85	44528.69
568.01	45364.26
568.17	45322.13
568.34	45647.47
568.50	44898.50
568.66	45102.12
568.83	45048.29
568.99	45207.45
569.15	45146.59
569.32	45109.14
569.48	45020.20
569.64	45162.98
569.81	45148.93
569.97	45116.17
570.13	45319.79
570.30	45017.86
570.46	44942.97
570.62	45031.91
570.78	44746.36
570.95	44844.66
571.11	45308.09
571.27	45097.44
571.43	45099.78
571.60	45205.11
571.76	45443.84
571.92	45357.24
572.09	45382.99
572.25	45296.39
572.41	45366.60
572.57	45038.93
572.74	45841.73
572.90	45432.14
573.06	45619.38
573.22	45509.38
573.38	45375.97
573.55	45144.25
573.71	45949.40
573.87	45713.00
574.03	45155.96
574.20	45123.19
574.36	45237.87
574.52	45986.85
574.68	45628.74
574.84	45619.38
575.01	45514.06
575.17	45476.61
575.33	45240.21
575.49	45282.34
575.65	45436.82
575.82	45378.31
575.98	45319.79
576.14	45691.94
576.30	45193.40
576.46	45230.85
576.62	45207.45
576.79	45118.51
576.95	45010.84
577.11	45710.66
577.27	44889.13
577.43	45539.80
577.59	45188.72
577.75	45209.79
577.92	44807.22
578.08	45088.08
578.24	45244.90
578.40	45390.01
578.56	45284.68
578.72	45350.22
578.88	45455.54
579.04	45429.80
579.21	45153.62
579.37	45603.00
579.53	45294.05
579.69	45298.73
579.85	45429.80
580.01	45497.67
580.17	45165.32
580.33	45427.46
580.49	45322.13
580.65	45387.67
580.82	45752.79
580.98	44999.14
581.14	45186.38
581.30	45490.65
581.46	45333.84
581.62	45617.04
581.78	45343.20
581.94	45867.48
582.10	45607.68
582.26	45509.38
582.42	45446.18
582.58	45584.27
582.74	45095.10
582.90	45406.39
583.06	45823.01
583.22	45689.60
583.38	45729.39
583.54	45961.10
583.70	45399.37
583.86	46017.27
584.02	45682.58
584.18	45492.99
584.34	45958.76
584.50	45530.44
584.66	45673.21
584.82	45387.67
584.98	46169.41
585.14	45081.06
585.30	45453.20
585.46	45490.65
585.62	45289.37
585.78	45408.73
585.94	45291.71
586.10	45198.09
586.26	45523.42
586.42	45586.61
586.58	45724.71
586.74	45628.74
586.90	45787.90
587.06	45532.78
587.22	45631.08
587.38	45013.18
587.54	45801.94
587.70	45900.25
587.86	45680.24
588.02	45804.28
588.18	45771.52
588.34	45469.59
588.49	44910.20
588.65	45160.64
588.81	45184.04
588.97	44985.10
589.13	44952.33
589.29	45385.33
589.45	45345.54
589.61	45652.15
589.77	45975.14
589.93	45649.81
590.08	45502.35
