SpectraSuite Data File
++++++++++++++++++++++++++++++++++++
Date: Fri Oct 25 11:25:10 EDT 2013
User: price-jones
Dark Spectrum Present: No
Reference Spectrum Present: No
Number of Sampled Component Spectra: 1
Spectrometers: USB2+H05261
Integration Time (usec): 100000 (USB2+H05261)
Spectra Averaged: 1 (USB2+H05261)
Boxcar Smoothing: 0 (USB2+H05261)
Correct for Electrical Dark: No (USB2+H05261)
Strobe/Lamp Enabled: No (USB2+H05261)
Correct for Detector Non-linearity: No (USB2+H05261)
Correct for Stray Light: No (USB2+H05261)
Number of Pixels in Processed Spectrum: 2048
>>>>>Begin Processed Spectral Data<<<<<
365.73	294.91
365.92	294.91
366.12	294.91
366.32	131.07
366.52	156.82
366.72	182.56
366.91	159.16
367.11	124.05
367.31	138.09
367.51	35.11
367.70	84.26
367.90	152.13
368.10	194.26
368.30	121.71
368.49	177.88
368.69	196.60
368.89	191.92
369.09	140.43
369.28	184.90
369.48	149.79
369.68	184.90
369.87	248.10
370.07	170.86
370.27	238.73
370.47	299.59
370.66	615.56
370.86	601.52
371.06	664.71
371.25	627.26
371.45	653.01
371.65	667.05
371.84	634.29
372.04	629.60
372.24	624.92
372.44	732.59
372.63	664.71
372.83	739.61
373.03	692.80
373.22	795.78
373.42	812.17
373.62	779.40
373.81	770.04
374.01	774.72
374.21	800.46
374.40	823.87
374.60	833.23
374.79	819.19
374.99	788.76
375.19	795.78
375.38	830.89
375.58	1011.11
375.78	889.40
375.97	889.40
376.17	847.27
376.37	898.77
376.56	863.66
376.76	919.83
376.95	973.66
377.15	835.57
377.35	936.21
377.54	901.11
377.74	896.43
377.93	821.53
378.13	924.51
378.33	959.62
378.52	931.53
378.72	1032.18
378.91	898.77
379.11	931.53
379.31	987.71
379.50	922.17
379.70	1027.50
379.89	980.68
380.09	983.02
380.28	940.90
380.48	905.79
380.68	1039.20
380.87	971.32
381.07	983.02
381.26	1029.84
381.46	938.55
381.65	1041.54
381.85	1088.35
382.04	1006.43
382.24	1025.15
382.43	1057.92
382.63	1060.26
382.83	1107.07
383.02	1086.01
383.22	1039.20
383.41	1067.28
383.61	1109.41
383.80	1093.03
384.00	1121.12
384.19	1104.73
384.39	1179.63
384.58	1139.84
384.78	1093.03
384.97	1167.93
385.17	1132.82
385.36	1217.08
385.56	1123.46
385.75	1088.35
385.95	1196.01
386.14	1193.67
386.34	1231.12
386.53	1212.40
386.72	1219.42
386.92	1219.42
387.11	1273.25
387.31	1210.06
387.50	1205.38
387.70	1214.74
387.89	1327.08
388.09	1263.89
388.28	1280.27
388.48	1282.61
388.67	1296.66
388.86	1369.21
389.06	1317.72
389.25	1322.40
389.45	1369.21
389.64	1348.15
389.84	1341.13
390.03	1273.25
390.22	1348.15
390.42	1348.15
390.61	1355.17
390.81	1315.38
391.00	1462.83
391.19	1467.52
391.39	1348.15
391.58	1394.96
391.78	1458.15
391.97	1448.79
392.16	1519.01
392.36	1596.25
392.55	1413.68
392.75	1462.83
392.94	1523.69
393.13	1418.36
393.33	1533.05
393.52	1528.37
393.71	1638.38
393.91	1617.31
394.10	1607.95
394.29	1530.71
394.49	1584.54
394.68	1659.44
394.88	1572.84
395.07	1699.23
395.26	1638.38
395.46	1577.52
395.65	1732.00
395.84	1795.19
396.04	1680.50
396.23	1647.74
396.42	1717.95
396.62	1830.30
396.81	1732.00
397.00	1767.10
397.19	1720.29
397.39	1795.19
397.58	1799.87
397.77	1827.96
397.97	1839.66
398.16	1954.35
398.35	1893.49
398.55	1881.79
398.74	1802.21
398.93	1867.75
399.12	1949.67
399.32	1942.64
399.51	1818.60
399.70	2005.84
399.90	1947.33
400.09	2050.31
400.28	2024.56
400.47	2040.95
400.67	2064.35
400.86	2001.16
401.05	2038.61
401.24	1933.28
401.44	2031.58
401.63	2073.71
401.82	2134.57
402.01	2111.16
402.21	2195.42
402.40	2139.25
402.59	2090.10
402.78	2228.19
402.97	2169.68
403.17	2197.76
403.36	2092.44
403.55	2253.94
403.74	2211.81
403.93	2342.88
404.13	2305.43
404.32	2361.60
404.51	2434.16
404.70	2366.28
404.89	2368.62
405.09	2459.90
405.28	2429.48
405.47	2396.71
405.66	2455.22
405.85	2392.03
406.05	2424.80
406.24	2495.01
406.43	2548.84
406.62	2665.87
406.81	2602.68
407.00	2602.68
407.20	2487.99
407.39	2628.42
407.58	2651.83
407.77	2750.13
407.96	2803.96
408.15	2768.85
408.34	2724.38
408.54	2780.56
408.73	2686.94
408.92	2839.07
409.11	2827.37
409.30	2911.63
409.49	2867.16
409.68	2885.88
409.87	2789.92
410.07	3063.76
410.26	2958.44
410.45	3030.99
410.64	2963.12
410.83	2897.58
411.02	2937.37
411.21	3155.04
411.40	3098.87
411.59	3199.51
411.78	3108.23
411.98	3173.77
412.17	3248.66
412.36	3248.66
412.55	3178.45
412.74	3375.05
412.93	3414.84
413.12	3353.99
413.31	3543.57
413.50	3428.88
413.69	3445.27
413.88	3632.51
414.07	3506.12
414.26	3468.67
414.45	3590.38
414.64	3574.00
414.83	3627.83
415.02	3637.19
415.22	3777.62
415.41	3709.75
415.60	3854.86
415.79	3791.67
415.98	3992.95
416.17	3976.57
416.36	3969.55
416.55	3915.72
416.74	4023.38
416.93	4004.66
417.12	4245.73
417.31	4109.98
417.50	4152.11
417.69	4257.43
417.88	4224.67
418.07	4299.56
418.26	4187.22
418.45	4194.24
418.64	4458.72
418.83	4278.50
419.02	4491.49
419.21	4432.97
419.39	4491.49
419.58	4341.69
419.77	4449.36
419.96	4540.64
420.15	4578.09
420.34	4601.49
420.53	4540.64
420.72	4727.88
420.91	4697.46
421.10	4645.96
421.29	4734.90
421.48	4760.65
421.67	4795.76
421.86	4622.56
422.05	4741.93
422.24	4718.52
422.43	4891.72
422.61	4936.19
422.80	4849.59
422.99	4865.97
423.18	4863.63
423.37	5020.45
423.56	5043.85
423.75	4882.36
423.94	4828.53
424.13	4620.22
424.32	4837.89
424.50	4833.21
424.69	5151.52
424.88	5025.13
425.07	5015.77
425.26	4807.46
425.45	4891.72
425.64	4884.70
425.83	4755.97
426.01	4961.94
426.20	4922.15
426.39	5001.72
426.58	5137.48
426.77	5015.77
426.96	5149.18
427.15	5146.84
427.33	5184.29
427.52	5071.94
427.71	5254.50
427.90	5128.11
428.09	5233.44
428.28	5313.02
428.46	5231.10
428.65	5380.89
428.84	5334.08
429.03	5378.55
429.22	5207.69
429.40	5432.38
429.59	5432.38
429.78	5322.38
429.97	5121.09
430.16	5511.96
430.34	5528.35
430.53	5715.59
430.72	5731.97
430.91	5638.35
431.10	5638.35
431.28	5731.97
431.47	5769.42
431.66	5853.68
431.85	5713.25
432.03	5830.27
432.22	5909.85
432.41	5923.90
432.60	5872.40
432.79	5977.73
432.97	6092.41
433.16	5991.77
433.35	5767.08
433.54	6017.52
433.72	6047.94
433.91	5947.30
434.10	6125.18
434.28	5888.79
434.47	6204.76
434.66	6373.28
434.85	6167.31
435.03	6120.50
435.22	6279.66
435.41	6307.74
435.59	6480.94
435.78	6565.20
435.97	6436.47
436.16	6265.61
436.34	6317.11
436.53	6328.81
436.72	6738.40
436.90	6296.04
437.09	6654.14
437.28	6509.03
437.46	6590.95
437.65	6616.69
437.84	6693.93
438.02	6724.36
438.21	6834.36
438.40	6448.18
438.58	6995.86
438.77	7007.56
438.96	6995.86
439.14	7070.76
439.33	7164.38
439.52	7119.91
439.70	7236.94
439.89	7269.70
440.08	7265.02
440.26	7346.94
440.45	7496.74
440.63	7293.11
440.82	7646.53
441.01	7421.84
441.19	7531.84
441.38	7538.87
441.57	7550.57
441.75	7772.92
441.94	7866.54
442.12	7957.82
442.31	7941.44
442.50	8070.17
442.68	7936.76
442.87	8044.42
443.05	8109.96
443.24	8219.96
443.43	8035.06
443.61	8145.06
443.80	8224.64
443.98	7847.82
444.17	7786.96
444.35	8173.15
444.54	8498.49
444.73	8264.43
444.91	8299.54
445.10	8294.86
445.28	8245.71
445.47	8175.49
445.65	8308.90
445.84	8301.88
446.02	8407.20
446.21	8421.25
446.39	8229.32
446.58	8360.39
446.77	8589.77
446.95	8383.80
447.14	8369.76
447.32	8575.72
447.51	8292.52
447.69	8301.88
447.88	8318.26
448.06	8329.97
448.25	8336.99
448.43	8521.89
448.62	8507.85
448.80	8575.72
448.99	8652.96
449.17	8755.94
449.36	8475.08
449.54	8891.70
449.73	8889.35
449.91	8938.51
450.10	8716.16
450.28	8868.29
450.46	9100.00
450.65	8793.39
450.83	9046.17
451.02	8959.57
451.20	9095.32
451.39	9163.20
451.57	8947.87
451.76	9013.40
451.94	9142.13
452.13	9172.56
452.31	9315.33
452.49	9095.32
452.68	9270.86
452.86	9289.59
453.05	9373.85
453.23	9376.19
453.42	9184.26
453.60	9095.32
453.78	9537.68
453.97	9427.68
454.15	9303.63
454.34	9366.82
454.52	9575.13
454.70	9635.99
454.89	9607.90
455.07	9661.73
455.26	9633.64
455.44	9760.03
455.62	9762.37
455.81	9778.76
455.99	9879.40
456.17	9884.08
456.36	9991.75
456.54	10057.28
456.73	10113.45
456.91	10520.71
457.09	10230.48
457.28	10256.23
457.46	10281.97
457.64	10644.76
457.83	10326.44
458.01	10202.40
458.19	10616.67
458.38	10317.08
458.56	10700.93
458.74	10438.79
458.93	10616.67
459.11	10562.84
459.29	10516.03
459.48	10574.54
459.66	10913.92
459.84	10839.02
460.03	10906.90
460.21	10874.13
460.39	10904.56
460.57	10918.60
460.76	11094.14
460.94	11028.60
461.12	11307.13
461.31	10913.92
461.49	10895.19
461.67	10942.00
461.85	11520.12
462.04	11183.08
462.22	11744.81
462.40	11548.20
462.59	11351.60
462.77	11265.00
462.95	11595.01
463.13	11515.44
463.32	11358.62
463.50	11573.95
463.68	11602.04
463.86	11873.54
464.05	11382.03
464.23	11784.60
464.41	11772.89
464.59	11332.87
464.78	11955.46
464.96	11875.88
465.14	11779.92
465.32	11714.38
465.50	11903.96
465.69	12315.90
465.87	12166.10
466.05	12020.99
466.23	12070.14
466.41	12100.57
466.60	12290.15
466.78	12102.91
466.96	12163.76
467.14	12241.00
467.32	12201.21
467.51	12533.57
467.69	11934.39
467.87	12285.47
468.05	12596.76
468.23	12561.66
468.41	12360.37
468.60	12479.74
468.78	12769.96
468.96	12444.63
469.14	12552.29
469.32	12877.63
469.50	12358.03
469.69	12746.56
469.87	12781.67
470.05	13036.78
470.23	12894.01
470.41	12753.58
470.59	13174.88
470.77	12978.27
470.95	13165.51
471.14	13312.97
471.32	13212.32
471.50	13509.57
471.68	13535.32
471.86	13509.57
472.04	13591.49
472.22	13764.69
472.40	13444.04
472.58	13654.69
472.77	13790.44
472.95	13968.32
473.13	14586.22
473.31	13949.59
473.49	13813.84
473.67	13970.66
473.85	14040.87
474.03	14462.17
474.21	14216.41
474.39	14815.59
474.57	14520.68
474.75	14864.74
474.93	14656.43
475.12	14822.61
475.30	14979.43
475.48	14925.60
475.66	15019.22
475.84	15035.60
476.02	15590.31
476.20	15267.31
476.38	15555.20
476.56	15688.61
476.74	15957.77
476.92	15768.19
477.10	15637.12
477.28	15864.15
477.46	15779.89
477.64	15988.20
477.82	16472.69
478.00	16615.46
478.18	16432.90
478.36	16858.88
478.54	16786.32
478.72	17057.82
478.90	17219.32
479.08	17413.59
479.26	17425.29
479.44	17479.12
479.62	17528.27
479.80	18113.41
479.98	18092.34
480.16	18511.30
480.34	18272.56
480.52	18651.73
480.70	18661.09
480.88	18405.97
481.06	18569.81
481.24	18359.16
481.41	19096.43
481.59	19197.07
481.77	19318.78
481.95	19527.09
482.13	19585.60
482.31	19545.81
482.49	20142.65
482.67	19894.55
482.85	20217.55
483.03	20566.29
483.21	20493.73
483.39	21022.69
483.57	20706.72
483.74	20933.75
483.92	21287.17
484.10	20999.29
484.28	21429.94
484.46	21776.34
484.64	22127.42
484.82	22029.12
485.00	22389.56
485.18	22541.70
485.35	22829.59
485.53	22609.58
485.71	22963.00
485.89	23222.80
486.07	22918.53
486.25	23374.93
486.43	23459.19
486.61	23623.03
486.78	24067.73
486.96	23964.75
487.14	24446.90
487.32	24706.70
487.50	24891.60
487.68	24613.07
487.85	24999.26
488.03	25649.93
488.21	25701.42
488.39	25568.01
488.57	25694.40
488.75	26031.44
488.92	26122.72
489.10	26576.78
489.28	26602.53
489.46	26836.58
489.64	26705.51
489.81	27304.69
489.99	27470.87
490.17	27360.86
490.35	27814.93
490.53	27805.56
490.70	28243.24
490.88	27936.63
491.06	28664.54
491.24	28835.40
491.41	28641.14
491.59	28929.02
491.77	28987.53
491.95	29151.37
492.13	29504.79
492.30	29813.74
492.48	29570.33
492.66	29813.74
492.84	29996.31
493.01	30780.39
493.19	30593.14
493.37	30946.56
493.54	30906.77
493.72	31110.40
493.90	31213.38
494.08	31480.21
494.25	31995.12
494.43	31669.79
494.61	31964.70
494.79	32058.32
494.96	32348.54
495.14	32383.65
495.32	32765.16
495.49	33095.18
495.67	33181.77
495.85	33497.75
496.02	33551.58
496.20	33717.76
496.38	33666.27
496.55	33720.10
496.73	34429.28
496.91	34361.40
497.09	34338.00
497.26	34572.05
497.44	34497.16
497.62	34740.57
497.79	35948.29
497.97	35271.87
498.14	35627.63
498.32	35728.28
498.50	35777.43
498.67	36046.59
498.85	36252.56
499.03	36423.42
499.20	36622.36
499.38	36271.28
499.56	36542.78
499.73	36968.76
499.91	37282.39
500.08	37153.66
500.26	37282.39
500.44	37244.94
500.61	37390.06
500.79	37649.86
500.97	37633.47
501.14	38637.56
501.32	37993.92
501.49	38092.22
501.67	38295.85
501.84	38555.64
502.02	38249.03
502.20	38773.31
502.37	39349.09
502.55	39168.87
502.72	39133.76
502.90	39409.94
503.07	38895.02
503.25	39306.96
503.43	39431.01
503.60	39304.62
503.78	40107.42
503.95	40013.80
504.13	40531.06
504.30	40673.83
504.48	40341.47
504.65	40533.40
504.83	40463.18
505.01	40954.69
505.18	41207.47
505.36	41109.17
505.53	40889.16
505.71	41413.44
505.88	41588.98
506.06	41064.70
506.23	41537.49
506.41	41593.66
506.58	41579.62
506.76	41942.40
506.93	41930.70
507.11	42059.43
507.28	42038.36
507.46	42447.96
507.63	42515.83
507.81	43086.92
507.98	42506.47
508.16	42965.21
508.33	42976.92
508.50	43323.32
508.68	43288.21
508.85	43161.82
509.03	43316.29
509.20	43484.81
509.38	43922.49
509.55	44004.41
509.73	44416.35
509.90	43927.17
510.08	44205.70
510.25	44470.18
510.42	44399.96
510.60	44573.16
510.77	45041.27
510.95	45052.97
511.12	44776.79
511.30	44903.18
511.47	45350.22
511.64	44954.67
511.82	45359.58
511.99	45366.60
512.17	45734.07
512.34	45422.78
512.51	46239.62
512.69	46052.38
512.86	46080.47
513.04	46614.11
513.21	46146.00
513.38	46625.81
513.56	46590.70
513.73	46192.81
513.90	46684.33
514.08	46445.59
514.25	47004.98
514.43	47145.41
514.60	47248.39
514.77	47271.80
514.95	47604.16
515.12	47487.13
515.29	47360.74
515.47	47770.33
515.64	47632.24
515.81	48034.81
515.99	47613.52
516.16	48025.45
516.33	48058.22
516.51	48549.73
516.68	48046.52
516.85	48392.92
517.03	48442.07
517.20	48559.09
517.37	48580.16
517.54	48339.08
517.72	48453.77
517.89	48802.51
518.06	48989.75
518.24	48816.55
518.41	48999.12
518.58	48933.58
518.75	49041.24
518.93	49120.82
519.10	48741.66
519.27	49380.62
519.45	49130.19
519.62	49441.48
519.79	49727.02
519.96	49476.58
520.14	50192.79
520.31	49972.78
520.48	50298.11
520.65	50267.69
520.83	50389.39
521.00	50176.40
521.17	49965.76
521.34	50401.10
521.52	50625.79
521.69	50478.33
521.86	50815.37
522.03	51014.32
522.20	51002.61
522.38	51206.24
522.55	51248.37
522.72	50712.39
522.89	50782.60
523.07	51533.92
523.24	51278.80
523.41	51611.15
523.58	51058.79
523.75	51576.04
523.92	51973.94
524.10	51831.16
524.27	51973.94
524.44	52060.54
524.61	51643.92
524.78	51840.53
524.96	51880.31
525.13	52186.92
525.30	52046.49
525.47	52030.11
525.64	52226.71
525.81	52165.86
525.98	52519.28
526.16	52301.61
526.33	52362.46
526.50	52472.47
526.67	52680.78
526.84	52886.74
527.01	52451.41
527.18	52547.37
527.36	52584.82
527.53	52879.72
527.70	52985.05
527.87	53148.88
528.04	52765.04
528.21	52935.90
528.38	53045.90
528.55	53340.81
528.72	53006.11
528.89	53434.43
529.07	53443.79
529.24	53214.42
529.41	53462.52
529.58	53570.18
529.75	53340.81
529.92	53687.21
530.09	53343.15
530.26	53553.80
530.43	53776.15
530.60	53633.38
530.77	53762.11
530.94	53851.05
531.11	53420.39
531.28	53900.20
531.46	54117.87
531.63	54047.65
531.80	54124.89
531.97	54262.98
532.14	54010.20
532.31	54312.13
532.48	54305.11
532.65	54342.56
532.82	54206.81
532.99	54134.25
533.16	54330.86
533.33	54595.34
533.50	54761.51
533.67	54466.61
533.84	54314.47
534.01	54562.57
534.18	54695.98
534.35	55152.38
534.52	55044.72
534.69	55063.44
534.86	54988.55
535.03	54901.95
535.20	54997.91
535.37	55126.64
535.54	55086.85
535.71	55061.10
535.88	55077.49
536.05	55229.62
536.22	55316.22
536.38	55625.17
536.55	55508.14
536.72	55374.73
536.89	55248.35
537.06	55215.58
537.23	55482.40
537.40	55285.79
537.57	55217.92
537.74	55608.79
537.91	55711.77
538.08	55774.97
538.25	55348.99
538.42	55573.68
538.59	55810.07
538.75	55774.97
538.92	55611.13
539.09	55826.46
539.26	55681.34
539.43	55924.76
539.60	55777.31
539.77	55966.89
539.94	56313.29
540.11	56245.41
540.28	56442.02
540.44	56182.22
540.61	56341.38
540.78	56072.21
540.95	56392.87
541.12	56156.47
541.29	56327.33
541.46	56376.48
541.62	56493.51
541.79	56371.80
541.96	56266.48
542.13	56282.86
542.30	56491.17
542.47	56486.49
542.63	56610.54
542.80	56868.00
542.97	56872.68
543.14	57052.90
543.31	57102.05
543.48	57240.14
543.64	57272.91
543.81	57153.54
543.98	57132.48
544.15	57010.77
544.32	57361.85
544.48	57455.47
544.65	57179.29
544.82	57324.40
544.99	57048.22
545.16	57221.42
545.32	57183.97
545.49	57518.67
545.66	57642.71
545.83	57525.69
546.00	57586.54
546.16	57553.77
546.33	57406.32
546.50	57237.80
546.67	57551.43
546.83	57261.21
547.00	57481.22
547.17	57226.10
547.34	57542.07
547.50	57839.32
547.67	58017.20
547.84	57935.28
548.00	58003.16
548.17	57998.48
548.34	58056.99
548.51	58122.52
548.67	58056.99
548.84	58080.39
549.01	57783.15
549.18	57977.41
549.34	57958.69
549.51	57918.90
549.68	58148.27
549.84	58237.21
550.01	58052.31
550.18	58169.33
550.34	58138.91
550.51	58272.32
550.68	58384.66
550.84	58075.71
551.01	58506.37
551.18	58293.38
551.34	58368.28
551.51	58309.77
551.68	58372.96
551.84	58482.97
552.01	58450.20
552.18	58436.16
552.34	58237.21
552.51	58529.78
552.68	58375.30
552.84	58328.49
553.01	58702.98
553.18	58515.73
553.34	58784.90
553.51	58595.31
553.67	58684.25
553.84	58822.34
554.01	58630.42
554.17	58702.98
554.34	58946.39
554.51	58885.54
554.67	58908.94
554.84	58845.75
555.00	58831.71
555.17	58717.02
555.33	58822.34
555.50	58817.66
555.67	58848.09
555.83	59091.51
556.00	58878.52
556.16	59185.13
556.33	59161.72
556.50	59025.97
556.66	59213.21
556.83	58983.84
556.99	59121.93
557.16	59393.43
557.32	59339.60
557.49	59554.93
557.65	59255.34
557.82	59147.68
557.98	59260.02
558.15	59292.79
558.32	59405.14
558.48	59171.08
558.65	59545.57
558.81	59363.01
558.98	59386.41
559.14	59325.56
559.31	59524.50
559.47	59489.40
559.64	59465.99
559.80	59456.63
559.97	59400.46
560.13	59358.33
560.30	59489.40
560.46	59470.67
560.63	59604.08
560.79	59618.13
560.96	59798.35
561.12	59529.19
561.29	59512.80
561.45	59711.75
561.61	59599.40
561.78	59437.90
561.94	59648.55
562.11	59512.80
562.27	59803.03
562.44	59803.03
562.60	59800.69
562.77	59971.55
562.93	59613.44
563.10	59924.74
563.26	59723.45
563.42	60121.34
563.59	59774.94
563.75	59828.77
563.92	59959.84
564.08	59798.35
564.24	59962.18
564.41	60051.12
564.57	59824.09
564.74	59962.18
564.90	59955.16
565.07	59819.41
565.23	59985.59
565.39	59908.35
565.56	59910.69
565.72	60009.00
565.88	59955.16
566.05	60027.72
566.21	60214.96
566.38	60034.74
566.54	60018.36
566.70	60074.53
566.87	60130.70
567.03	59978.57
567.19	60268.79
567.36	60179.85
567.52	60219.64
567.68	60381.14
567.85	60331.99
568.01	60226.66
568.17	60142.41
568.34	60158.79
568.50	60158.79
568.66	60158.79
568.83	60329.65
568.99	60182.19
569.15	60074.53
569.32	60350.71
569.48	60229.01
569.64	60331.99
569.81	60210.28
569.97	60100.28
570.13	60542.64
570.30	60329.65
570.46	60566.04
570.62	60172.83
570.78	60411.57
570.95	60320.29
571.11	60580.09
571.27	60336.67
571.43	60385.82
571.60	60371.78
571.76	60509.87
571.92	60411.57
572.09	60355.39
572.25	60470.08
572.41	60212.62
572.57	60310.92
572.74	60477.10
572.90	60371.78
573.06	60395.18
573.22	60390.50
573.38	60449.02
573.55	60381.14
573.71	60537.96
573.87	60729.88
574.03	60268.79
574.20	60612.85
574.36	60292.20
574.52	60472.42
574.68	60575.40
574.84	60622.22
575.01	60552.00
575.17	60580.09
575.33	60385.82
575.49	60420.93
575.65	60706.47
575.82	60603.49
575.98	60622.22
576.14	60638.60
576.30	60870.31
576.46	60439.65
576.62	60760.31
576.79	60643.28
576.95	60411.57
577.11	60678.39
577.27	60931.17
577.43	60643.28
577.59	60418.59
577.75	60624.56
577.92	60594.13
578.08	60530.93
578.24	60832.86
578.40	60853.93
578.56	60746.26
578.72	60645.62
578.88	60760.31
579.04	60718.18
579.21	60669.03
579.37	60676.05
579.53	60729.88
579.69	60486.46
579.85	60643.28
580.01	60746.26
580.17	60591.79
580.33	60809.46
580.49	60896.06
580.65	60816.48
580.82	60818.82
580.98	60411.57
581.14	60706.47
581.30	61022.45
581.46	60774.35
581.62	60638.60
581.78	60687.75
581.94	60849.25
582.10	60694.77
582.26	60582.43
582.42	60381.14
582.58	60552.00
582.74	60842.23
582.90	60762.65
583.06	60739.24
583.22	60697.11
583.38	60734.56
583.54	60757.97
583.70	60779.03
583.86	60860.95
584.02	60886.70
584.18	60907.76
584.34	60748.60
584.50	60858.61
584.66	60643.28
584.82	60772.01
584.98	61015.43
585.14	60891.38
585.30	60704.13
585.46	60842.23
585.62	61102.03
585.78	60940.53
585.94	60580.09
586.10	60725.20
586.26	60912.44
586.42	60898.40
586.58	60956.91
586.74	61034.15
586.90	60788.39
587.06	60591.79
587.22	60903.08
587.38	60769.67
587.54	60994.36
587.70	61017.77
587.86	60844.57
588.02	60814.14
588.18	60823.50
588.34	61111.39
588.49	60853.93
