SpectraSuite Data File
++++++++++++++++++++++++++++++++++++
Date: Fri Oct 25 10:48:06 EDT 2013
User: price-jones
Dark Spectrum Present: No
Reference Spectrum Present: No
Number of Sampled Component Spectra: 1
Spectrometers: USB2+H05261
Integration Time (usec): 100000 (USB2+H05261)
Spectra Averaged: 1 (USB2+H05261)
Boxcar Smoothing: 0 (USB2+H05261)
Correct for Electrical Dark: No (USB2+H05261)
Strobe/Lamp Enabled: No (USB2+H05261)
Correct for Detector Non-linearity: No (USB2+H05261)
Correct for Stray Light: No (USB2+H05261)
Number of Pixels in Processed Spectrum: 2048
>>>>>Begin Processed Spectral Data<<<<<
365.73	91.28
365.92	91.28
366.12	91.28
366.32	58.51
366.52	100.64
366.72	173.20
366.91	4.68
367.11	86.60
367.31	81.92
367.51	0.00
367.70	72.56
367.90	105.32
368.10	84.26
368.30	35.11
368.49	0.00
368.69	25.75
368.89	81.92
369.09	35.11
369.28	46.81
369.48	67.88
369.68	81.92
369.87	107.66
370.07	84.26
370.27	191.92
370.47	220.01
370.66	369.80
370.86	435.34
371.06	449.38
371.25	468.11
371.45	369.80
371.65	463.43
371.84	360.44
372.04	435.34
372.24	496.19
372.44	510.24
372.63	498.53
372.83	582.79
373.03	507.90
373.22	573.43
373.42	538.32
373.62	472.79
373.81	533.64
374.01	596.84
374.21	557.05
374.40	510.24
374.60	554.71
374.79	528.96
374.99	662.37
375.19	503.22
375.38	610.88
375.58	561.73
375.78	617.90
375.97	606.20
376.17	596.84
376.37	512.58
376.56	601.52
376.76	641.31
376.95	528.96
377.15	535.98
377.35	547.69
377.54	610.88
377.74	564.07
377.93	571.09
378.13	585.13
378.33	592.16
378.52	643.65
378.72	669.39
378.91	631.94
379.11	622.58
379.31	643.65
379.50	580.45
379.70	667.05
379.89	648.33
380.09	650.67
380.28	669.39
380.48	678.76
380.68	676.41
380.87	629.60
381.07	641.31
381.26	734.93
381.46	568.75
381.65	716.20
381.85	702.16
382.04	688.12
382.24	690.46
382.43	711.52
382.63	638.97
382.83	669.39
383.02	683.44
383.22	725.57
383.41	667.05
383.61	739.61
383.80	814.51
384.00	690.46
384.19	739.61
384.39	772.38
384.58	737.27
384.78	755.99
384.97	765.36
385.17	760.67
385.36	767.70
385.56	826.21
385.75	786.42
385.95	716.20
386.14	807.48
386.34	812.17
386.53	685.78
386.72	774.72
386.92	739.61
387.11	720.88
387.31	842.59
387.50	706.84
387.70	779.40
387.89	767.70
388.09	898.77
388.28	767.70
388.48	856.64
388.67	866.00
388.86	835.57
389.06	908.13
389.25	947.92
389.45	880.04
389.64	882.38
389.84	917.49
390.03	903.45
390.22	931.53
390.42	880.04
390.61	898.77
390.81	910.47
391.00	910.47
391.19	950.26
391.39	779.40
391.58	903.45
391.78	882.38
391.97	952.60
392.16	880.04
392.36	997.07
392.55	978.34
392.75	940.90
392.94	898.77
393.13	990.05
393.33	915.15
393.52	1001.75
393.71	922.17
393.91	943.24
394.10	1015.79
394.29	961.96
394.49	1086.01
394.68	1034.52
394.88	1069.62
395.07	1050.90
395.26	1104.73
395.46	1064.94
395.65	997.07
395.84	1142.18
396.04	1139.84
396.23	1149.20
396.42	1062.60
396.62	1083.67
396.81	1097.71
397.00	1135.16
397.19	1114.10
397.39	1158.57
397.58	1245.16
397.77	1317.72
397.97	1172.61
398.16	1245.16
398.35	1291.98
398.55	1186.65
398.74	1348.15
398.93	1299.00
399.12	1198.35
399.32	1308.36
399.51	1301.34
399.70	1385.60
399.90	1254.53
400.09	1378.58
400.28	1404.32
400.47	1394.96
400.67	1359.85
400.86	1341.13
401.05	1437.09
401.24	1394.96
401.44	1465.18
401.63	1444.11
401.82	1430.07
402.01	1439.43
402.21	1413.68
402.40	1519.01
402.59	1537.73
402.78	1526.03
402.97	1547.09
403.17	1521.35
403.36	1423.05
403.55	1657.10
403.74	1713.27
403.93	1673.48
404.13	1528.37
404.32	1603.27
404.51	1626.67
404.70	1603.27
404.89	1654.76
405.09	1673.48
405.28	1755.40
405.47	1675.82
405.66	1853.70
405.85	1788.17
406.05	1689.87
406.24	1750.72
406.43	1778.81
406.62	1853.70
406.81	1842.00
407.00	1727.32
407.20	1832.64
407.39	1788.17
407.58	1856.04
407.77	1912.22
407.96	1942.64
408.15	1933.28
408.34	1968.39
408.54	1888.81
408.73	1858.39
408.92	1900.52
409.11	2033.93
409.30	1956.69
409.49	1949.67
409.68	2115.84
409.87	1980.09
410.07	2125.21
410.26	2218.83
410.45	2045.63
410.64	2054.99
410.83	2111.16
411.02	2179.04
411.21	2179.04
411.40	2174.36
411.59	2361.60
411.78	2314.79
411.98	2153.29
412.17	2307.77
412.36	2298.41
412.55	2389.69
412.74	2377.98
412.93	2289.04
413.12	2331.17
413.31	2431.82
413.50	2356.92
413.69	2469.27
413.88	2520.76
414.07	2480.97
414.26	2537.14
414.45	2602.68
414.64	2558.21
414.83	2548.84
415.02	2590.97
415.22	2679.91
415.41	2778.22
415.60	2785.24
415.79	2640.12
415.98	2871.84
416.17	2764.17
416.36	2771.19
416.55	2803.96
416.74	2780.56
416.93	2752.47
417.12	2986.52
417.31	2874.18
417.50	2778.22
417.69	3073.12
417.88	3033.33
418.07	2928.01
418.26	2946.73
418.45	3180.79
418.64	3159.72
418.83	3164.40
419.02	3089.51
419.21	3105.89
419.39	3145.68
419.58	3115.25
419.77	3194.83
419.96	3171.43
420.15	3136.32
420.34	3281.43
420.53	3267.39
420.72	3361.01
420.91	3279.09
421.10	3321.22
421.29	3421.86
421.48	3108.23
421.67	3449.95
421.86	3197.17
422.05	3281.43
422.24	3358.67
422.43	3356.33
422.61	3459.31
422.80	3412.50
422.99	3452.29
423.18	3466.33
423.37	3496.76
423.56	3466.33
423.75	3468.67
423.94	3365.69
424.13	3185.47
424.32	3316.54
424.50	3524.85
424.69	3562.30
424.88	3557.61
425.07	3405.48
425.26	3431.23
425.45	3438.25
425.64	3620.81
425.83	3456.97
426.01	3419.52
426.20	3576.34
426.39	3714.43
426.58	3541.23
426.77	3440.59
426.96	3531.87
427.15	3599.74
427.33	3576.34
427.52	3508.46
427.71	3651.24
427.90	3728.47
428.09	3698.05
428.28	3604.42
428.46	3639.53
428.65	3723.79
428.84	3721.45
429.03	3801.03
429.22	3719.11
429.40	3669.96
429.59	3712.09
429.78	3679.32
429.97	3583.36
430.16	3707.41
430.34	3728.47
430.53	3758.90
430.72	3740.18
430.91	3939.12
431.10	3779.97
431.28	3901.67
431.47	4009.34
431.66	4079.55
431.85	3955.51
432.03	4035.08
432.22	4238.71
432.41	4112.32
432.60	4135.73
432.79	4163.81
432.97	4311.27
433.16	4180.20
433.35	4152.11
433.54	4170.83
433.72	4224.67
433.91	4189.56
434.10	4271.48
434.28	4107.64
434.47	4252.75
434.66	4287.86
434.85	4327.65
435.03	4404.89
435.22	4329.99
435.41	4407.23
435.59	4395.53
435.78	4435.32
435.97	4472.76
436.16	4465.74
436.34	4507.87
436.53	4482.13
436.72	4580.43
436.90	4528.94
437.09	4624.90
437.28	4564.04
437.46	4482.13
437.65	4552.34
437.84	4631.92
438.02	4514.89
438.21	4554.68
438.40	4629.58
438.58	4779.37
438.77	4784.06
438.96	4823.84
439.14	4873.00
439.33	5116.41
439.52	4901.08
439.70	4861.29
439.89	5064.92
440.08	5060.24
440.26	5107.05
440.45	4924.49
440.63	5078.96
440.82	5135.14
441.01	5231.10
441.19	5245.14
441.38	5355.15
441.57	5256.84
441.75	5535.37
441.94	5530.69
442.12	5514.30
442.31	5540.05
442.50	5495.58
442.68	5528.35
442.87	5387.91
443.05	5600.90
443.24	5809.21
443.43	5657.07
443.61	5647.71
443.80	5841.98
443.98	5509.62
444.17	5575.16
444.35	5605.58
444.54	5912.19
444.73	5792.83
444.91	5762.40
445.10	5727.29
445.28	5668.78
445.47	5547.07
445.65	5809.21
445.84	5654.73
446.02	5856.02
446.21	5879.43
446.39	5853.68
446.58	5900.49
446.77	5816.23
446.95	5582.18
447.14	5741.33
447.32	5851.34
447.51	6080.71
447.69	5823.25
447.88	5877.09
448.06	5937.94
448.25	5764.74
448.43	5996.45
448.62	5825.59
448.80	5804.53
448.99	6066.67
449.17	6022.20
449.36	5928.58
449.54	6073.69
449.73	6258.59
449.91	6237.53
450.10	6282.00
450.28	6317.11
450.46	6209.44
450.65	6403.71
450.83	6263.27
451.02	6307.74
451.20	6384.98
451.39	6434.13
451.57	6244.55
451.76	6300.72
451.94	6244.55
452.13	6413.07
452.31	6312.42
452.49	6193.06
452.68	6338.17
452.86	6319.45
453.05	6445.84
453.23	6530.09
453.42	6326.47
453.60	6457.54
453.78	6595.63
453.97	6356.90
454.15	6546.48
454.34	6532.44
454.52	6539.46
454.70	6572.22
454.89	6633.08
455.07	6623.72
455.26	6773.51
455.44	6799.26
455.62	6698.61
455.81	6848.41
455.99	6715.00
456.17	6717.34
456.36	6855.43
456.54	6944.37
456.73	6979.48
456.91	7002.88
457.09	7105.87
457.28	7157.36
457.46	6979.48
457.64	7063.74
457.83	7068.42
458.01	7040.33
458.19	7391.41
458.38	7379.71
458.56	7241.62
458.74	7288.43
458.93	7417.16
459.11	7250.98
459.29	7300.13
459.48	7442.90
459.66	7276.73
459.84	7339.92
460.03	7550.57
460.21	7424.18
460.39	7424.18
460.57	7595.04
460.76	7475.67
460.94	7578.65
461.12	7688.66
461.31	7599.72
461.49	7791.64
461.67	7707.38
461.85	7901.65
462.04	7709.72
462.22	8124.00
462.40	7880.58
462.59	7810.37
462.77	7920.37
462.95	7934.42
463.13	7665.25
463.32	8006.97
463.50	7936.76
463.68	7833.77
463.86	7803.35
464.05	7817.39
464.23	8065.49
464.41	8013.99
464.59	7833.77
464.78	8201.24
464.96	8100.59
465.14	8205.92
465.32	8156.77
465.50	8285.50
465.69	8308.90
465.87	8222.30
466.05	8156.77
466.23	8180.17
466.41	8355.71
466.60	8325.29
466.78	8145.06
466.96	8283.16
467.14	8257.41
467.32	8269.11
467.51	8512.53
467.69	8011.65
467.87	8400.18
468.05	8468.06
468.23	8397.84
468.41	8262.09
468.60	8194.22
468.78	8652.96
468.96	8285.50
469.14	8573.38
469.32	8879.99
469.50	8557.00
469.69	8716.16
469.87	8758.28
470.05	8734.88
470.23	8837.86
470.41	8748.92
470.59	8856.59
470.77	8805.10
470.95	8842.54
471.14	9022.77
471.32	8863.61
471.50	8910.42
471.68	9195.96
471.86	9198.31
472.04	9305.97
472.22	9507.26
472.40	9308.31
472.58	9282.56
472.77	9132.77
472.95	9479.17
473.13	9467.47
473.31	9350.44
473.49	9479.17
473.67	9643.01
473.85	9577.47
474.03	9729.61
474.21	9853.66
474.39	9898.13
474.57	9928.55
474.75	9823.23
474.93	10115.80
475.12	9921.53
475.30	10099.41
475.48	9973.02
475.66	10113.45
475.84	10083.03
476.02	10183.67
476.20	10289.00
476.38	10406.02
476.56	10644.76
476.74	10434.11
476.92	10602.63
477.10	10581.56
477.28	10696.25
477.46	10665.82
477.64	10796.89
477.82	10991.16
478.00	10878.81
478.18	11105.84
478.36	11260.32
478.54	11438.20
478.72	11468.62
478.90	11442.88
479.08	11683.95
479.26	11737.79
479.44	11716.72
479.62	11808.00
479.80	11772.89
479.98	12035.03
480.16	12032.69
480.34	12250.36
480.52	12367.39
480.70	12383.77
480.88	12299.52
481.06	12470.37
481.24	12566.34
481.41	12767.62
481.59	12784.01
481.77	12943.16
481.95	12861.24
482.13	13057.85
482.31	12861.24
482.49	13039.12
482.67	13355.10
482.85	13453.40
483.03	13671.07
483.21	13638.30
483.39	13586.81
483.57	13645.32
483.74	13872.36
483.92	13965.98
484.10	14094.71
484.28	14216.41
484.46	14647.07
484.64	14541.75
484.82	14560.47
485.00	14628.35
485.18	14717.29
485.35	14787.50
485.53	14539.41
485.71	14806.23
485.89	15077.73
486.07	14878.79
486.25	15185.40
486.43	15377.32
486.61	15304.76
486.78	15639.46
486.96	15688.61
487.14	15955.43
487.32	16002.24
487.50	16222.25
487.68	16358.00
487.85	16603.76
488.03	16608.44
488.21	16823.77
488.39	16678.66
488.57	16795.68
488.75	17013.35
488.92	17205.28
489.10	17514.23
489.28	17455.72
489.46	17561.04
489.64	17816.16
489.81	17879.35
489.99	18031.49
490.17	18207.03
490.35	18324.05
490.53	18204.69
490.70	18476.19
490.88	18637.69
491.06	18799.18
491.24	19084.73
491.41	18853.02
491.59	19117.50
491.77	18717.26
491.95	19129.20
492.13	19117.50
492.30	19653.48
492.48	19625.39
492.66	19676.88
492.84	19356.23
493.01	19974.13
493.19	19807.95
493.37	20407.13
493.54	20142.65
493.72	20292.44
493.90	20636.50
494.08	20786.30
494.25	20805.02
494.43	20936.09
494.61	21231.00
494.79	20882.26
494.96	21200.57
495.14	21097.59
495.32	21439.31
495.49	21947.20
495.67	21790.39
495.85	21696.77
496.02	21884.01
496.20	22272.54
496.38	22228.07
496.55	22286.58
496.73	22714.90
496.91	22089.98
497.09	22738.30
497.26	22656.39
497.44	22558.08
497.62	22752.35
497.79	23002.78
497.97	23143.22
498.14	23080.02
498.32	23585.58
498.50	23573.88
498.67	23421.74
498.85	23543.45
499.03	23915.59
499.20	23964.75
499.38	23777.50
499.56	23843.04
499.73	24074.75
499.91	23887.51
500.08	24278.38
500.26	23988.15
500.44	24334.55
500.61	24285.40
500.79	24449.24
500.97	24259.65
501.14	25010.96
501.32	24748.82
501.49	24833.08
501.67	24793.29
501.84	25116.29
502.02	24996.92
502.20	25640.57
502.37	25263.74
502.55	25305.87
502.72	25345.66
502.90	25399.49
503.07	25577.37
503.25	25549.29
503.43	25816.11
503.60	25895.69
503.78	25666.31
503.95	25977.61
504.13	26038.46
504.30	26270.17
504.48	25855.90
504.65	26209.32
504.83	26544.02
505.01	26534.65
505.18	26501.89
505.36	27194.68
505.53	26448.05
505.71	27129.15
505.88	26955.95
506.06	26639.98
506.23	27201.71
506.41	26944.25
506.58	27335.12
506.76	27356.18
506.93	27814.93
507.11	27400.65
507.28	27342.14
507.46	27421.72
507.63	27733.01
507.81	27681.52
507.98	27730.67
508.16	27665.13
508.33	27775.14
508.50	27594.92
508.68	28070.04
508.85	28744.12
509.03	28091.11
509.20	28379.00
509.38	28290.06
509.55	28570.92
509.73	28486.66
509.90	28580.28
510.08	28489.00
510.25	28821.36
510.42	29142.01
510.60	29092.86
510.77	29041.37
510.95	29757.57
511.12	29312.87
511.30	29319.89
511.47	29694.38
511.64	29427.56
511.82	29830.13
511.99	29493.09
512.17	29738.85
512.34	29811.40
512.51	29986.94
512.69	30511.22
512.86	30101.63
513.04	30466.75
513.21	30499.52
513.38	30263.13
513.56	30394.20
513.73	29930.77
513.90	30850.60
514.08	30471.43
514.25	30581.44
514.43	30979.33
514.60	30740.60
514.77	30780.39
514.95	30979.33
515.12	30937.20
515.29	30848.26
515.47	31110.40
515.64	31358.50
515.81	31262.54
515.99	31412.33
516.16	31197.00
516.33	31398.29
516.51	31592.55
516.68	31208.70
516.85	31311.69
517.03	30998.06
517.20	31639.36
517.37	31887.46
517.54	31569.15
517.72	31964.70
517.89	31967.04
518.06	31761.07
518.24	31669.79
518.41	31728.30
518.58	32149.60
518.75	31985.76
518.93	32512.38
519.10	32563.87
519.27	32514.72
519.45	32673.88
519.62	32814.31
519.79	32711.33
519.96	32861.12
520.14	32678.56
520.31	33046.02
520.48	33048.36
520.65	33127.94
520.83	33149.01
521.00	33324.55
521.17	33013.26
521.34	33570.30
521.52	33694.35
521.69	33703.71
521.86	34029.05
522.03	33511.79
522.20	33820.74
522.38	33916.70
522.55	33736.48
522.72	33759.89
522.89	34249.06
523.07	34150.76
523.24	33914.36
523.41	34125.01
523.58	33951.81
523.75	33909.68
523.92	34520.56
524.10	34747.59
524.27	34438.64
524.44	34026.71
524.61	34452.69
524.78	34717.17
524.96	34478.43
525.13	34983.99
525.30	35065.91
525.47	35000.37
525.64	35007.39
525.81	35189.95
525.98	34941.86
526.16	35091.65
526.33	35248.47
526.50	35606.57
526.67	34951.22
526.84	34972.28
527.01	35115.06
527.18	35409.96
527.36	35372.52
527.53	35442.73
527.70	35768.07
527.87	35824.24
528.04	35964.67
528.21	35644.02
528.38	35431.03
528.55	36151.91
528.72	36121.49
528.89	36091.06
529.07	36306.39
529.24	36095.74
529.41	36308.73
529.58	36350.86
529.75	35866.37
529.92	36217.45
530.09	36404.69
530.26	36535.76
530.43	36701.94
530.60	36371.92
530.77	36666.83
530.94	36737.05
531.11	36624.70
531.28	37479.00
531.46	37148.98
531.63	37165.37
531.80	36694.92
531.97	36961.74
532.14	36790.88
532.31	37020.25
532.48	37062.38
532.65	37268.35
532.82	37003.87
532.99	37581.98
533.16	36818.97
533.33	37303.46
533.50	37406.44
533.67	37717.73
533.84	37120.90
534.01	37558.58
534.18	37310.48
534.35	37387.72
534.52	37818.38
534.69	37563.26
534.86	37951.79
535.03	37577.30
535.20	37811.35
535.37	37984.55
535.54	38520.54
535.71	37663.90
535.88	38031.36
536.05	38443.30
536.22	38120.31
536.38	38160.09
536.55	38260.74
536.72	38146.05
536.89	38022.00
537.06	38178.82
537.23	38548.62
537.40	38628.20
537.57	38576.71
537.74	38761.61
537.91	39192.27
538.08	38462.02
538.25	38604.80
538.42	38810.76
538.59	39033.11
538.75	38405.85
538.92	38782.68
539.09	38707.78
539.26	38780.34
539.43	38951.20
539.60	39466.11
539.77	38728.84
539.94	39019.07
540.11	39220.36
540.28	38838.85
540.44	38969.92
540.61	39283.55
540.78	39225.04
540.95	39182.91
541.12	39136.10
541.29	38799.06
541.46	39363.13
541.62	39321.00
541.79	39622.93
541.96	39222.70
542.13	39423.98
542.30	39796.13
542.47	39590.16
542.63	39807.83
542.80	40081.67
542.97	40133.17
543.14	40011.46
543.31	40392.97
543.48	40030.18
543.64	40531.06
543.81	40369.56
543.98	40364.88
544.15	39765.70
544.32	40224.45
544.48	40825.96
544.65	40573.19
544.82	40184.66
544.99	40315.73
545.16	40542.76
545.32	40112.10
545.49	40921.93
545.66	40659.79
545.83	40715.96
546.00	41216.83
546.16	40987.46
546.33	40652.76
546.50	40755.75
546.67	41127.89
546.83	40477.22
547.00	40498.29
547.17	41048.32
547.34	41106.83
547.50	41450.89
547.67	41287.05
547.84	41008.53
548.00	41148.96
548.17	41385.35
548.34	41008.53
548.51	41399.40
548.67	41434.50
548.84	41516.42
549.01	41338.54
549.18	41235.56
549.34	41310.46
549.51	41584.30
549.68	41486.00
549.84	41507.06
550.01	41963.46
550.18	41298.75
550.34	41392.37
550.51	41464.93
550.68	41251.94
550.84	41273.01
551.01	41212.15
551.18	41628.77
551.34	41624.09
551.51	41502.38
551.68	42005.59
551.84	41993.89
552.01	41422.80
552.18	41495.36
552.34	41965.81
552.51	41996.23
552.68	41827.71
552.84	42050.06
553.01	42616.47
553.18	42031.34
553.34	42103.90
553.51	41673.24
553.67	42520.51
553.84	42515.83
554.01	42735.84
554.17	42525.19
554.34	42672.65
554.51	42679.67
554.67	42576.69
554.84	42604.77
555.00	42349.65
555.17	42572.00
555.33	42417.53
555.50	42689.03
555.67	42712.44
555.83	42574.34
556.00	42529.87
556.16	42918.40
556.33	42642.22
556.50	42625.84
556.66	42277.10
556.83	42518.17
556.99	42852.87
557.16	43187.56
557.32	42993.30
557.49	42740.52
557.65	42600.09
557.82	42527.53
557.98	42532.22
558.15	42508.81
558.32	43274.16
558.48	43239.06
558.65	43292.89
558.81	43257.78
558.98	42808.40
559.14	43220.33
559.31	42909.04
559.47	42686.69
559.64	43358.42
559.80	43353.74
559.97	43552.69
560.13	43042.45
560.30	43000.32
560.46	43323.32
560.63	42859.89
560.79	43423.96
560.96	43248.42
561.12	43096.28
561.29	43739.93
561.45	43154.80
561.61	43014.37
561.78	43374.81
561.94	42981.60
562.11	43201.61
562.27	43510.56
562.44	43276.51
562.60	43435.66
562.77	43772.70
562.93	43337.36
563.10	43592.48
563.26	43358.42
563.42	43440.34
563.59	43501.20
563.75	43810.15
563.92	43430.98
564.08	43601.84
564.24	43889.73
564.41	43997.39
564.57	43363.11
564.74	43901.43
564.90	43798.44
565.07	44002.07
565.23	43145.44
565.39	43573.75
565.56	43522.26
565.72	43793.76
565.88	43524.60
566.05	43393.53
566.21	43620.56
566.38	43646.31
566.54	43555.03
566.70	44196.34
566.87	44065.27
567.03	43636.95
567.19	44374.22
567.36	43899.09
567.52	43559.71
567.68	44032.50
567.85	43814.83
568.01	43908.45
568.17	43796.10
568.34	44013.77
568.50	44191.65
568.66	43990.37
568.83	44243.15
568.99	43330.34
569.15	43849.94
569.32	43924.83
569.48	43681.42
569.64	43992.71
569.81	44100.37
569.97	43658.01
570.13	43931.86
570.30	44058.24
570.46	44130.80
570.62	43871.00
570.78	43578.43
570.95	44112.08
571.11	44392.94
571.27	43690.78
571.43	44219.74
571.60	44219.74
571.76	44144.84
571.92	44062.93
572.09	43688.44
572.25	44212.72
572.41	43634.61
572.57	44072.29
572.74	44715.93
572.90	44247.83
573.06	44313.36
573.22	44535.71
573.38	44385.92
573.55	44034.84
573.71	44311.02
573.87	43777.38
574.03	43793.76
574.20	44116.76
574.36	44226.76
574.52	44172.93
574.68	44411.67
574.84	44659.76
575.01	44217.40
575.17	44046.54
575.33	43756.32
575.49	44098.03
575.65	44397.62
575.82	44423.37
575.98	44708.91
576.14	44446.77
576.30	44004.41
576.46	44182.29
576.62	43978.67
576.79	44336.77
576.95	43917.81
577.11	44231.44
577.27	44027.82
577.43	44392.94
577.59	44170.59
577.75	44275.91
577.92	43798.44
578.08	44128.46
578.24	44245.49
578.40	43917.81
578.56	44023.14
578.72	44275.91
578.88	44535.71
579.04	44243.15
579.21	44194.00
579.37	44018.46
579.53	44528.69
579.69	44250.17
579.85	44449.11
580.01	44765.09
580.17	44535.71
580.33	44402.30
580.49	44463.16
580.65	44144.84
580.82	44294.64
580.98	44559.12
581.14	44261.87
581.30	44783.81
581.46	44163.57
581.62	44561.46
581.78	44292.30
581.94	44816.58
582.10	44292.30
582.26	44156.55
582.42	44697.21
582.58	44598.91
582.74	44474.86
582.90	44818.92
583.06	44495.92
583.22	44287.62
583.38	44631.68
583.54	44477.20
583.70	44673.81
583.86	44343.79
584.02	44158.89
584.18	44610.61
584.34	44402.30
584.50	44215.06
584.66	44425.71
584.82	43782.06
584.98	44697.21
585.14	44973.39
585.30	44414.01
585.46	44516.99
585.62	43950.58
585.78	44378.90
585.94	44037.18
586.10	44278.25
586.26	44278.25
586.42	44250.17
586.58	44699.55
586.74	44465.50
586.90	44271.23
587.06	44624.65
587.22	44652.74
587.38	44009.09
587.54	45001.48
587.70	45008.50
587.86	44659.76
588.02	44556.78
588.18	44196.34
588.34	44566.14
588.49	44257.19
588.65	44229.10
588.81	43929.51
588.97	44467.84
589.13	44502.95
589.29	44327.41
589.45	44322.72
589.61	44985.10
589.77	44821.26
589.93	44800.19
590.08	44816.58
590.24	44802.53
590.40	44631.68
