SpectraSuite Data File
++++++++++++++++++++++++++++++++++++
Date: Fri Oct 25 11:34:49 EDT 2013
User: price-jones
Dark Spectrum Present: No
Reference Spectrum Present: No
Number of Sampled Component Spectra: 1
Spectrometers: USB2+H05261
Integration Time (usec): 100000 (USB2+H05261)
Spectra Averaged: 1 (USB2+H05261)
Boxcar Smoothing: 0 (USB2+H05261)
Correct for Electrical Dark: No (USB2+H05261)
Strobe/Lamp Enabled: No (USB2+H05261)
Correct for Detector Non-linearity: No (USB2+H05261)
Correct for Stray Light: No (USB2+H05261)
Number of Pixels in Processed Spectrum: 2048
>>>>>Begin Processed Spectral Data<<<<<
365.73	344.06
365.92	344.06
366.12	344.06
366.32	255.12
366.52	161.50
366.72	175.54
366.91	189.58
367.11	243.42
367.31	224.69
367.51	191.92
367.70	102.98
367.90	212.99
368.10	154.48
368.30	222.35
368.49	210.65
368.69	205.97
368.89	231.71
369.09	220.01
369.28	147.45
369.48	212.99
369.68	262.14
369.87	271.50
370.07	215.33
370.27	231.71
370.47	320.65
370.66	472.79
370.86	521.94
371.06	482.15
371.25	433.00
371.45	526.62
371.65	566.41
371.84	566.41
372.04	451.72
372.24	540.66
372.44	636.63
372.63	580.45
372.83	559.39
373.03	596.84
373.22	629.60
373.42	624.92
373.62	629.60
373.81	540.66
374.01	608.54
374.21	669.39
374.40	573.43
374.60	671.73
374.79	653.01
374.99	613.22
375.19	648.33
375.38	631.94
375.58	596.84
375.78	641.31
375.97	645.99
376.17	720.88
376.37	669.39
376.56	603.86
376.76	681.10
376.95	622.58
377.15	669.39
377.35	770.04
377.54	676.41
377.74	683.44
377.93	664.71
378.13	636.63
378.33	695.14
378.52	594.50
378.72	653.01
378.91	739.61
379.11	739.61
379.31	667.05
379.50	681.10
379.70	770.04
379.89	730.25
380.09	739.61
380.28	716.20
380.48	688.12
380.68	760.67
380.87	638.97
381.07	690.46
381.26	791.10
381.46	800.46
381.65	755.99
381.85	711.52
382.04	704.50
382.24	755.99
382.43	727.91
382.63	739.61
382.83	823.87
383.02	746.63
383.22	800.46
383.41	793.44
383.61	755.99
383.80	814.51
384.00	755.99
384.19	805.14
384.39	840.25
384.58	786.42
384.78	812.17
384.97	793.44
385.17	723.23
385.36	837.91
385.56	826.21
385.75	863.66
385.95	781.74
386.14	805.14
386.34	814.51
386.53	858.98
386.72	833.23
386.92	863.66
387.11	851.96
387.31	889.40
387.50	809.83
387.70	861.32
387.89	863.66
388.09	877.70
388.28	882.38
388.48	884.72
388.67	777.06
388.86	917.49
389.06	873.02
389.25	882.38
389.45	973.66
389.64	917.49
389.84	919.83
390.03	947.92
390.22	896.43
390.42	903.45
390.61	903.45
390.81	919.83
391.00	999.41
391.19	999.41
391.39	929.19
391.58	997.07
391.78	959.62
391.97	1046.22
392.16	924.51
392.36	1064.94
392.55	1032.18
392.75	1074.31
392.94	1062.60
393.13	1006.43
393.33	971.32
393.52	987.71
393.71	1039.20
393.91	994.73
394.10	1090.69
394.29	1081.33
394.49	1067.28
394.68	1057.92
394.88	1036.86
395.07	1135.16
395.26	1088.35
395.46	1060.26
395.65	1107.07
395.84	1144.52
396.04	1107.07
396.23	1153.88
396.42	1165.59
396.62	1188.99
396.81	1266.23
397.00	1158.57
397.19	1104.73
397.39	1116.44
397.58	1210.06
397.77	1186.65
397.97	1196.01
398.16	1294.32
398.35	1233.46
398.55	1135.16
398.74	1226.44
398.93	1247.51
399.12	1310.70
399.32	1280.27
399.51	1338.79
399.70	1228.78
399.90	1320.06
400.09	1240.48
400.28	1228.78
400.47	1313.04
400.67	1226.44
400.86	1308.36
401.05	1301.34
401.24	1336.45
401.44	1416.02
401.63	1404.32
401.82	1362.19
402.01	1329.42
402.21	1401.98
402.40	1500.28
402.59	1397.30
402.78	1378.58
402.97	1399.64
403.17	1528.37
403.36	1439.43
403.55	1423.05
403.74	1645.40
403.93	1509.65
404.13	1544.75
404.32	1535.39
404.51	1582.20
404.70	1582.20
404.89	1568.16
405.09	1558.80
405.28	1600.93
405.47	1631.35
405.66	1629.01
405.85	1659.44
406.05	1699.23
406.24	1645.40
406.43	1762.42
406.62	1696.89
406.81	1827.96
407.00	1703.91
407.20	1689.87
407.39	1729.66
407.58	1762.42
407.77	1823.28
407.96	1802.21
408.15	1743.70
408.34	1839.66
408.54	1820.94
408.73	1675.82
408.92	1865.41
409.11	1907.54
409.30	1888.81
409.49	1825.62
409.68	1954.35
409.87	1874.77
410.07	1956.69
410.26	2026.90
410.45	1954.35
410.64	1888.81
410.83	2080.74
411.02	2092.44
411.21	2085.42
411.40	2017.54
411.59	2127.55
411.78	2125.21
411.98	2045.63
412.17	2129.89
412.36	2097.12
412.55	2263.30
412.74	2239.89
412.93	2132.23
413.12	2235.21
413.31	2260.96
413.50	2326.49
413.69	2249.25
413.88	2328.83
414.07	2338.20
414.26	2420.11
414.45	2324.15
414.64	2413.09
414.83	2520.76
415.02	2495.01
415.22	2544.16
415.41	2527.78
415.60	2485.65
415.79	2523.10
415.98	2480.97
416.17	2565.23
416.36	2562.89
416.55	2609.70
416.74	2717.36
416.93	2539.48
417.12	2693.96
417.31	2757.15
417.50	2759.49
417.69	2764.17
417.88	2799.28
418.07	2818.00
418.26	2855.45
418.45	2827.37
418.64	2935.03
418.83	2740.77
419.02	2803.96
419.21	2864.82
419.39	2960.78
419.58	3014.61
419.77	2902.26
419.96	2998.23
420.15	3028.65
420.34	2930.35
420.53	3082.49
420.72	3063.76
420.91	3026.31
421.10	3150.36
421.29	3014.61
421.48	3019.29
421.67	3129.30
421.86	3166.74
422.05	3115.25
422.24	3122.27
422.43	3180.79
422.61	3269.73
422.80	3201.85
422.99	3162.06
423.18	3279.09
423.37	3386.76
423.56	3215.90
423.75	3297.81
423.94	3185.47
424.13	3030.99
424.32	3112.91
424.50	3321.22
424.69	3407.82
424.88	3335.26
425.07	3344.63
425.26	3194.83
425.45	3220.58
425.64	3332.92
425.83	3267.39
426.01	3337.60
426.20	3293.13
426.39	3286.11
426.58	3243.98
426.77	3314.20
426.96	3342.28
427.15	3342.28
427.33	3391.44
427.52	3417.18
427.71	3435.91
427.90	3309.52
428.09	3463.99
428.28	3466.33
428.46	3492.08
428.65	3396.12
428.84	3564.64
429.03	3529.53
429.22	3438.25
429.40	3555.27
429.59	3625.49
429.78	3487.40
429.97	3538.89
430.16	3784.65
430.34	3684.00
430.53	3698.05
430.72	3655.92
430.91	3749.54
431.10	3763.58
431.28	3709.75
431.47	3770.60
431.66	3684.00
431.85	3756.56
432.03	3831.46
432.22	3861.88
432.41	3794.01
432.60	3913.38
432.79	3906.35
432.97	3885.29
433.16	3885.29
433.35	3962.53
433.54	4067.85
433.72	4093.60
433.91	4009.34
434.10	3999.98
434.28	3927.42
434.47	4023.38
434.66	4126.36
434.85	4114.66
435.03	4046.79
435.22	4011.68
435.41	4344.03
435.59	4088.92
435.78	4210.62
435.97	4231.69
436.16	4189.56
436.34	4121.68
436.53	4191.90
436.72	4215.30
436.90	4119.34
437.09	4241.05
437.28	4236.37
437.46	4222.33
437.65	4372.12
437.84	4386.16
438.02	4381.48
438.21	4252.75
438.40	4351.06
438.58	4461.06
438.77	4528.94
438.96	4564.04
439.14	4510.21
439.33	4865.97
439.52	4720.86
439.70	4582.77
439.89	4767.67
440.08	4713.84
440.26	4711.50
440.45	4774.69
440.63	4699.80
440.82	4887.04
441.01	4770.01
441.19	4936.19
441.38	4835.55
441.57	4924.49
441.75	4985.34
441.94	5191.31
442.12	4985.34
442.31	5039.17
442.50	5071.94
442.68	5057.90
442.87	5123.43
443.05	5095.35
443.24	5305.99
443.43	5298.97
443.61	5322.38
443.80	5266.21
443.98	5128.11
444.17	4980.66
444.35	5240.46
444.54	5408.98
444.73	5296.63
444.91	5291.95
445.10	5228.76
445.28	5408.98
445.47	5132.79
445.65	5420.68
445.84	5401.96
446.02	5437.06
446.21	5352.81
446.39	5315.36
446.58	5537.71
446.77	5460.47
446.95	5277.91
447.14	5282.59
447.32	5479.19
447.51	5284.93
447.69	5294.29
447.88	5411.32
448.06	5479.19
448.25	5547.07
448.43	5472.17
448.62	5514.30
448.80	5619.63
448.99	5551.75
449.17	5544.73
449.36	5467.49
449.54	5666.44
449.73	5743.67
449.91	5727.29
450.10	5692.18
450.28	5874.74
450.46	5834.96
450.65	5741.33
450.83	5804.53
451.02	5743.67
451.20	5795.17
451.39	5970.71
451.57	5788.14
451.76	5844.32
451.94	5832.62
452.13	5923.90
452.31	5872.40
452.49	5823.25
452.68	5944.96
452.86	5867.72
453.05	6019.86
453.23	6153.27
453.42	5916.87
453.60	6066.67
453.78	6092.41
453.97	5865.38
454.15	5928.58
454.34	5973.05
454.52	6221.14
454.70	6204.76
454.89	6080.71
455.07	6249.23
455.26	6260.93
455.44	6651.80
455.62	6317.11
455.81	6340.51
455.99	6300.72
456.17	6410.73
456.36	6221.14
456.54	6417.75
456.73	6459.88
456.91	6506.69
457.09	6623.72
457.28	6733.72
457.46	6520.73
457.64	6649.46
457.83	6633.08
458.01	6485.62
458.19	6808.62
458.38	6724.36
458.56	6942.03
458.74	6822.66
458.93	6803.94
459.11	6689.25
459.29	6731.38
459.48	6827.34
459.66	6764.15
459.84	6803.94
460.03	6981.82
460.21	6927.99
460.39	7042.67
460.57	6970.12
460.76	7073.10
460.94	7213.53
461.12	6972.46
461.31	7215.87
461.49	6881.18
461.67	6984.16
461.85	7211.19
462.04	7236.94
462.22	7283.75
462.40	7384.39
462.59	7276.73
462.77	7330.56
462.95	7438.22
463.13	7218.21
463.32	7375.03
463.50	7368.01
463.68	7639.51
463.86	7405.46
464.05	7330.56
464.23	7534.18
464.41	7557.59
464.59	7375.03
464.78	7770.58
464.96	7597.38
465.14	7581.00
465.32	7541.21
465.50	7744.83
465.69	7691.00
465.87	7555.25
466.05	7616.10
466.23	7733.13
466.41	7698.02
466.60	7861.86
466.78	7674.62
466.96	7915.69
467.14	7796.32
467.32	7840.79
467.51	8051.44
467.69	7616.10
467.87	7730.79
468.05	7761.22
468.23	8060.80
468.41	7913.35
468.60	7880.58
468.78	7824.41
468.96	8018.68
469.14	8168.47
469.32	8100.59
469.50	7969.52
469.69	8306.56
469.87	8163.79
470.05	8285.50
470.23	8533.59
470.41	8255.07
470.59	8278.47
470.77	8318.26
470.95	8313.58
471.14	8613.17
471.32	8358.05
471.50	8533.59
471.68	8432.95
471.86	8571.04
472.04	8765.31
472.22	8821.48
472.40	8718.50
472.58	8702.11
472.77	8645.94
472.95	8793.39
473.13	9015.74
473.31	8891.70
473.49	9057.87
473.67	9043.83
473.85	9036.81
474.03	9200.65
474.21	9226.39
474.39	9228.73
474.57	9439.38
474.75	9331.72
474.93	9376.19
475.12	9502.58
475.30	9451.08
475.48	9453.42
475.66	9577.47
475.84	9533.00
476.02	9341.08
476.20	9734.29
476.38	9991.75
476.56	10104.09
476.74	9921.53
476.92	9760.03
477.10	9900.47
477.28	10193.03
477.46	10071.33
477.64	9928.55
477.82	10497.30
478.00	10490.28
478.18	10300.70
478.36	10406.02
478.54	10771.15
478.72	10897.53
478.90	10827.32
479.08	10890.51
479.26	11023.92
479.44	10913.92
479.62	11070.73
479.80	11346.92
479.98	11199.46
480.16	11403.09
480.34	11360.96
480.52	11468.62
480.70	11485.01
480.88	11719.06
481.06	11424.15
481.24	11831.41
481.41	11789.28
481.59	12020.99
481.77	12018.65
481.95	11939.07
482.13	12233.98
482.31	12222.28
482.49	12587.40
482.67	12484.42
482.85	12578.04
483.03	12898.69
483.21	12753.58
483.39	12947.84
483.57	12802.73
483.74	13167.85
483.92	13259.13
484.10	13465.10
484.28	13434.68
484.46	13657.03
484.64	13767.03
484.82	13458.08
485.00	13895.76
485.18	14303.01
485.35	14141.52
485.53	14162.58
485.71	14459.83
485.89	14611.96
486.07	14441.11
486.25	14434.08
486.43	14693.88
486.61	14658.78
486.78	14792.19
486.96	14813.25
487.14	15330.51
487.32	14932.62
487.50	15449.88
487.68	15569.24
487.85	15723.72
488.03	15864.15
488.21	15920.32
488.39	15765.85
488.57	16137.99
488.75	16421.20
488.92	16531.20
489.10	16332.26
489.28	16594.40
489.46	16776.96
489.64	16659.93
489.81	17205.28
489.99	17076.55
490.17	17135.06
490.35	17315.28
490.53	17343.37
490.70	17734.24
490.88	17369.12
491.06	17633.60
491.24	17638.28
491.41	17991.70
491.59	18216.39
491.77	18015.10
491.95	17998.72
492.13	18389.59
492.30	18485.55
492.48	18436.40
492.66	18291.29
492.84	18420.02
493.01	18878.76
493.19	18813.23
493.37	19143.24
493.54	19288.35
493.72	19187.71
493.90	19501.34
494.08	19349.21
494.25	19716.67
494.43	19690.93
494.61	19686.25
494.79	20039.67
494.96	19976.47
495.14	20224.57
495.32	20372.02
495.49	20313.51
495.67	20779.28
495.85	20423.51
496.02	20645.87
496.20	20709.06
496.38	20863.54
496.55	20985.24
496.73	21298.88
496.91	21245.04
497.09	21336.32
497.26	21535.27
497.44	21619.53
497.62	21862.94
497.79	21783.37
497.97	21671.02
498.14	21923.80
498.32	22211.68
498.50	22185.94
498.67	22321.69
498.85	22253.81
499.03	22588.51
499.20	22464.46
499.38	22675.11
499.56	22775.75
499.73	22778.09
499.91	22946.61
500.08	23199.39
500.26	22927.89
500.44	23393.65
500.61	23241.52
500.79	23269.61
500.97	23255.56
501.14	23852.40
501.32	23997.51
501.49	23515.36
501.67	23817.29
501.84	23917.93
502.02	23828.99
502.20	24278.38
502.37	24329.87
502.55	24025.60
502.72	24233.91
502.90	24444.56
503.07	24334.55
503.25	24496.05
503.43	24746.48
503.60	24503.07
503.78	25048.41
503.95	24720.74
504.13	24987.56
504.30	25085.86
504.48	25212.25
504.65	25048.41
504.83	25214.59
505.01	25359.70
505.18	25603.12
505.36	25694.40
505.53	25371.41
505.71	25448.64
505.88	25942.50
506.06	25722.49
506.23	26080.59
506.41	25963.56
506.58	26380.18
506.76	26059.52
506.93	26106.34
507.11	26581.46
507.28	26267.83
507.46	26609.55
507.63	26431.67
507.81	26462.10
507.98	26757.00
508.16	26569.76
508.33	26747.64
508.50	26822.54
508.68	26993.40
508.85	27260.22
509.03	27108.08
509.20	27342.14
509.38	27548.11
509.55	27274.26
509.73	27716.62
509.90	27524.70
510.08	27910.89
510.25	27744.71
510.42	27803.22
510.60	28123.88
510.77	28093.45
510.95	28472.62
511.12	28283.03
511.30	28109.83
511.47	28114.52
511.64	27976.42
511.82	28865.83
511.99	28053.66
512.17	28519.43
512.34	28556.88
512.51	29247.33
512.69	28985.19
512.86	28973.49
513.04	28966.47
513.21	28877.53
513.38	29085.84
513.56	29483.73
513.73	28994.56
513.90	29446.28
514.08	29291.80
514.25	29333.93
514.43	29151.37
514.60	29673.31
514.77	29570.33
514.95	30073.54
515.12	29682.67
515.29	30008.01
515.47	30043.12
515.64	30052.48
515.81	30057.16
515.99	30115.67
516.16	30628.25
516.33	30459.73
516.51	30162.48
516.68	30789.75
516.85	30471.43
517.03	30630.59
517.20	30536.97
517.37	30548.67
517.54	30773.36
517.72	31014.44
517.89	30862.30
518.06	30960.61
518.24	30892.73
518.41	31087.00
518.58	31056.57
518.75	30822.51
518.93	31267.22
519.10	30974.65
519.27	31358.50
519.45	31449.78
519.62	31239.13
519.79	31852.35
519.96	31646.38
520.14	31974.06
520.31	31587.87
520.48	31786.82
520.65	32233.86
520.83	32353.23
521.00	32254.92
521.17	32051.30
521.34	32526.42
521.52	32657.49
521.69	32004.49
521.86	32603.66
522.03	32706.65
522.20	33085.81
522.38	32807.29
522.55	32893.89
522.72	32966.45
522.89	32692.60
523.07	33160.71
523.24	32896.23
523.41	33008.58
523.58	33193.48
523.75	33303.48
523.92	32947.72
524.10	33600.73
524.27	33123.26
524.44	33476.68
524.61	33921.38
524.78	33876.91
524.96	33507.11
525.13	34015.01
525.30	33862.87
525.47	34188.21
525.64	33439.23
525.81	34223.31
525.98	34242.04
526.16	34178.84
526.33	33968.19
526.50	34522.90
526.67	34328.64
526.84	34291.19
527.01	34389.49
527.18	34543.97
527.36	34398.85
527.53	34698.44
527.70	35058.88
527.87	35026.12
528.04	34803.77
528.21	34717.17
528.38	34824.83
528.55	34607.16
528.72	34572.05
528.89	34834.19
529.07	34815.47
529.24	34572.05
529.41	35517.63
529.58	35192.30
529.75	35124.42
529.92	35431.03
530.09	35246.13
530.26	35379.54
530.43	35566.78
530.60	35344.43
530.77	35306.98
530.94	35391.24
531.11	35578.48
531.28	36004.46
531.46	35866.37
531.63	36081.70
531.80	36044.25
531.97	36037.23
532.14	36500.65
532.31	36041.91
532.48	36088.72
532.65	36650.45
532.82	36072.34
532.99	35950.63
533.16	36189.36
533.33	36294.69
533.50	36491.29
533.67	36177.66
533.84	36055.95
534.01	36533.42
534.18	36411.71
534.35	36893.86
534.52	36732.37
534.69	36971.10
534.86	36884.50
535.03	36840.03
535.20	36683.22
535.37	37027.28
535.54	37385.38
535.71	36928.97
535.88	36884.50
536.05	37380.70
536.22	37055.36
536.38	37205.16
536.55	37015.57
536.72	37022.59
536.89	37319.84
537.06	37481.34
537.23	37619.43
537.40	37315.16
537.57	37542.19
537.74	37294.10
537.91	37780.93
538.08	37411.12
538.25	37415.80
538.42	37581.98
538.59	37876.89
538.75	38101.58
538.92	37923.70
539.09	38422.23
539.26	37626.45
539.43	38164.78
539.60	38288.82
539.77	37645.18
539.94	38525.22
540.11	38265.42
540.28	38335.63
540.44	38010.30
540.61	38270.10
540.78	38188.18
540.95	38417.55
541.12	38490.11
541.29	38223.29
541.46	38635.22
541.62	38487.77
541.79	38672.67
541.96	38377.76
542.13	38164.78
542.30	38946.51
542.47	38974.60
542.63	38728.84
542.80	38909.07
542.97	39178.23
543.14	39325.68
543.31	39145.46
543.48	39564.42
543.64	39519.95
543.81	39545.69
543.98	39063.54
544.15	39157.16
544.32	39632.29
544.48	39765.70
544.65	39688.46
544.82	39880.39
544.99	39295.25
545.16	39484.84
545.32	39800.81
545.49	40198.70
545.66	39772.72
545.83	40184.66
546.00	39906.13
546.16	39894.43
546.33	39653.36
546.50	40219.77
546.67	40421.05
546.83	39672.08
547.00	40231.47
547.17	40076.99
547.34	40034.86
547.50	40353.18
547.67	40627.02
547.84	40528.72
548.00	40509.99
548.17	41088.10
548.34	40495.95
548.51	40818.94
548.67	40781.49
548.84	40484.25
549.01	40849.37
549.18	40818.94
549.34	40825.96
549.51	40816.60
549.68	40704.26
549.84	41064.70
550.01	40854.05
550.18	40428.07
550.34	40821.28
550.51	41041.29
550.68	41060.02
550.84	40818.94
551.01	41528.13
551.18	41165.34
551.34	41099.81
551.51	41184.07
551.68	41216.83
551.84	41296.41
552.01	40985.12
552.18	41219.17
552.34	41420.46
552.51	41446.21
552.68	41338.54
552.84	41736.43
553.01	41242.58
553.18	41507.06
553.34	41736.43
553.51	41930.70
553.67	41703.67
553.84	41675.58
554.01	41963.46
554.17	41598.34
554.34	41593.66
554.51	41926.02
554.67	41720.05
554.84	42227.95
555.00	41968.15
555.17	41560.89
555.33	41984.53
555.50	41832.39
555.67	42038.36
555.83	42024.32
556.00	41937.72
556.16	42707.76
556.33	41977.51
556.50	42323.91
556.66	42101.56
556.83	41918.99
556.99	42660.94
557.16	42543.92
557.32	42658.60
557.49	42717.12
557.65	42005.59
557.82	42625.84
557.98	42087.51
558.15	42389.44
558.32	42380.08
558.48	41968.15
558.65	42770.95
558.81	42590.73
558.98	42253.69
559.14	42426.89
559.31	42445.62
559.47	42518.17
559.64	43241.40
559.80	43051.81
559.97	43213.31
560.13	42792.01
560.30	42883.30
560.46	42913.72
560.63	42782.65
560.79	42658.60
560.96	42916.06
561.12	43129.05
561.29	43047.13
561.45	42808.40
561.61	42682.01
561.78	43072.88
561.94	42740.52
562.11	43049.47
562.27	42974.58
562.44	43166.50
562.60	43058.84
562.77	43306.93
562.93	43016.71
563.10	43302.25
563.26	42904.36
563.42	43779.72
563.59	43824.19
563.75	43161.82
563.92	43178.20
564.08	43150.12
564.24	43346.72
564.41	43480.13
564.57	43407.58
564.74	43920.15
564.90	43250.76
565.07	43330.34
565.23	43365.45
565.39	43269.48
565.56	43356.08
565.72	43449.70
565.88	43203.95
566.05	43681.42
566.21	42876.27
566.38	43627.59
566.54	43278.85
566.70	43650.99
566.87	43665.03
567.03	43215.65
567.19	43533.96
567.36	43594.82
567.52	43683.76
567.68	44142.50
567.85	44107.40
568.01	43803.13
568.17	43253.10
568.34	43763.34
568.50	43761.00
568.66	43398.21
568.83	43721.21
568.99	43353.74
569.15	43622.90
569.32	43564.39
569.48	43763.34
569.64	44072.29
569.81	43833.55
569.97	44069.95
570.13	44119.10
570.30	43824.19
570.46	43597.16
570.62	43789.08
570.78	43517.58
570.95	43920.15
571.11	44210.38
571.27	43838.23
571.43	43894.41
571.60	43828.87
571.76	44018.46
571.92	44126.12
572.09	44067.61
572.25	43746.95
572.41	44004.41
572.57	44329.75
572.74	44278.25
572.90	43962.28
573.06	44184.63
573.22	44121.44
573.38	44119.10
573.55	44285.28
573.71	44194.00
573.87	44189.31
574.03	43875.68
574.20	44704.23
574.36	44156.55
574.52	44130.80
574.68	44509.97
574.84	44144.84
575.01	44449.11
575.17	44626.99
575.33	44701.89
575.49	44638.70
575.65	44247.83
575.82	44512.31
575.98	44261.87
576.14	44900.84
576.30	44676.15
576.46	44491.24
576.62	44098.03
576.79	44711.25
576.95	43999.73
577.11	44498.26
577.27	43643.97
577.43	44168.25
577.59	43763.34
577.75	44582.52
577.92	43934.20
578.08	44414.01
578.24	44470.18
578.40	44486.56
578.56	44334.43
578.72	44140.16
578.88	44264.21
579.04	44425.71
579.21	44172.93
579.37	44477.20
579.53	44465.50
579.69	44622.31
579.85	44320.38
580.01	44493.58
580.17	44374.22
580.33	44442.09
580.49	44638.70
580.65	44439.75
580.82	44470.18
580.98	44250.17
581.14	44549.76
581.30	45095.10
581.46	44308.68
581.62	44435.07
581.78	44208.04
581.94	44397.62
582.10	44704.23
582.26	44872.75
582.42	44470.18
582.58	44252.51
582.74	44713.59
582.90	44250.17
583.06	44594.23
583.22	44165.91
583.38	44818.92
583.54	44739.34
583.70	44428.05
583.86	44786.15
584.02	44114.42
584.18	45158.30
584.34	44500.61
584.50	44989.78
584.66	45116.17
584.82	44879.77
584.98	44814.24
585.14	44945.31
585.30	44619.97
585.46	44608.27
585.62	44430.39
585.78	44584.86
585.94	44524.01
586.10	44601.25
586.26	44615.29
586.42	44301.66
586.58	44945.31
586.74	44406.98
586.90	44554.44
587.06	44769.77
587.22	44715.93
587.38	44402.30
587.54	44774.45
587.70	45446.18
587.86	45010.84
588.02	44636.36
588.18	44708.91
588.34	44341.45
588.49	44697.21
588.65	44868.07
588.81	44884.45
588.97	44769.77
589.13	45144.25
589.29	44612.95
589.45	45397.03
589.61	44610.61
589.77	44493.58
589.93	44671.46
590.08	44858.71
590.24	45139.57
