SpectraSuite Data File
++++++++++++++++++++++++++++++++++++
Date: Fri Oct 25 11:25:10 EDT 2013
User: price-jones
Dark Spectrum Present: No
Reference Spectrum Present: No
Number of Sampled Component Spectra: 1
Spectrometers: USB2+H05261
Integration Time (usec): 100000 (USB2+H05261)
Spectra Averaged: 1 (USB2+H05261)
Boxcar Smoothing: 0 (USB2+H05261)
Correct for Electrical Dark: No (USB2+H05261)
Strobe/Lamp Enabled: No (USB2+H05261)
Correct for Detector Non-linearity: No (USB2+H05261)
Correct for Stray Light: No (USB2+H05261)
Number of Pixels in Processed Spectrum: 2048
>>>>>Begin Processed Spectral Data<<<<<
365.73	163.84
365.92	163.84
366.12	163.84
366.32	154.48
366.52	168.52
366.72	142.77
366.91	168.52
367.11	105.32
367.31	194.26
367.51	140.43
367.70	147.45
367.90	135.75
368.10	170.86
368.30	173.20
368.49	135.75
368.69	217.67
368.89	173.20
369.09	147.45
369.28	105.32
369.48	154.48
369.68	168.52
369.87	245.76
370.07	231.71
370.27	238.73
370.47	250.44
370.66	617.90
370.86	648.33
371.06	624.92
371.25	723.23
371.45	699.82
371.65	734.93
371.84	772.38
372.04	751.31
372.24	692.80
372.44	671.73
372.63	753.65
372.83	720.88
373.03	779.40
373.22	748.97
373.42	763.01
373.62	821.53
373.81	784.08
374.01	770.04
374.21	739.61
374.40	758.33
374.60	877.70
374.79	786.42
374.99	842.59
375.19	851.96
375.38	812.17
375.58	835.57
375.78	868.34
375.97	842.59
376.17	990.05
376.37	858.98
376.56	861.32
376.76	866.00
376.95	896.43
377.15	851.96
377.35	992.39
377.54	894.08
377.74	854.30
377.93	929.19
378.13	947.92
378.33	842.59
378.52	866.00
378.72	954.94
378.91	950.26
379.11	905.79
379.31	945.58
379.50	957.28
379.70	959.62
379.89	1025.15
380.09	1001.75
380.28	971.32
380.48	952.60
380.68	1029.84
380.87	933.87
381.07	999.41
381.26	1111.75
381.46	1008.77
381.65	1046.22
381.85	1118.78
382.04	1104.73
382.24	1074.31
382.43	1067.28
382.63	1062.60
382.83	1095.37
383.02	1146.86
383.22	1078.99
383.41	1074.31
383.61	1107.07
383.80	1107.07
384.00	1088.35
384.19	1153.88
384.39	1083.67
384.58	1095.37
384.78	1167.93
384.97	1153.88
385.17	1181.97
385.36	1188.99
385.56	1160.91
385.75	1165.59
385.95	1179.63
386.14	1217.08
386.34	1210.06
386.53	1174.95
386.72	1219.42
386.92	1287.29
387.11	1313.04
387.31	1277.93
387.50	1128.14
387.70	1256.87
387.89	1369.21
388.09	1233.46
388.28	1170.27
388.48	1268.57
388.67	1376.24
388.86	1336.45
389.06	1338.79
389.25	1315.38
389.45	1313.04
389.64	1423.05
389.84	1277.93
390.03	1270.91
390.22	1352.83
390.42	1385.60
390.61	1406.66
390.81	1357.51
391.00	1448.79
391.19	1364.53
391.39	1423.05
391.58	1516.67
391.78	1397.30
391.97	1474.54
392.16	1425.39
392.36	1547.09
392.55	1490.92
392.75	1423.05
392.94	1483.90
393.13	1540.07
393.33	1521.35
393.52	1530.71
393.71	1631.35
393.91	1579.86
394.10	1502.62
394.29	1631.35
394.49	1675.82
394.68	1554.12
394.88	1598.59
395.07	1570.50
395.26	1652.42
395.46	1708.59
395.65	1743.70
395.84	1734.34
396.04	1668.80
396.23	1732.00
396.42	1614.97
396.62	1781.15
396.81	1760.08
397.00	1739.02
397.19	1823.28
397.39	1788.17
397.58	1830.30
397.77	1722.63
397.97	1722.63
398.16	1879.45
398.35	1928.60
398.55	1846.68
398.74	1895.83
398.93	1980.09
399.12	2031.58
399.32	1902.86
399.51	1926.26
399.70	2054.99
399.90	1916.90
400.09	1837.32
400.28	1989.46
400.47	2015.20
400.67	2153.29
400.86	2099.46
401.05	2071.37
401.24	2022.22
401.44	2094.78
401.63	2146.27
401.82	2080.74
402.01	1996.48
402.21	2239.89
402.40	2083.08
402.59	2207.13
402.78	2183.72
402.97	2134.57
403.17	2251.60
403.36	2347.56
403.55	2260.96
403.74	2520.76
403.93	2279.68
404.13	2312.45
404.32	2347.56
404.51	2392.03
404.70	2427.14
404.89	2188.40
405.09	2335.85
405.28	2434.16
405.47	2401.39
405.66	2502.03
405.85	2520.76
406.05	2499.69
406.24	2497.35
406.43	2473.95
406.62	2530.12
406.81	2724.38
407.00	2605.02
407.20	2537.14
407.39	2567.57
407.58	2719.70
407.77	2752.47
407.96	2794.60
408.15	2843.75
408.34	2745.45
408.54	2759.49
408.73	2775.88
408.92	2740.77
409.11	2810.98
409.30	2836.73
409.49	2925.67
409.68	2822.69
409.87	2953.76
410.07	3038.02
410.26	2946.73
410.45	2977.16
410.64	3087.17
410.83	3112.91
411.02	3133.98
411.21	3211.22
411.40	3164.40
411.59	3330.58
411.78	3035.67
411.98	3073.12
412.17	3241.64
412.36	3332.92
412.55	3251.00
412.74	3290.79
412.93	3559.95
413.12	3431.23
413.31	3574.00
413.50	3428.88
413.69	3592.72
413.88	3566.98
414.07	3566.98
414.26	3674.64
414.45	3740.18
414.64	3653.58
414.83	3756.56
415.02	3749.54
415.22	3829.12
415.41	3882.95
415.60	3805.71
415.79	3988.27
415.98	3946.14
416.17	3873.59
416.36	3904.01
416.55	3906.35
416.74	4079.55
416.93	4028.06
417.12	4124.02
417.31	4208.28
417.50	4114.66
417.69	4355.74
417.88	4140.41
418.07	4217.65
418.26	4248.07
418.45	4414.25
418.64	4367.44
418.83	4407.23
419.02	4629.58
419.21	4512.55
419.39	4479.79
419.58	4444.68
419.77	4423.61
419.96	4540.64
420.15	4428.29
420.34	4587.45
420.53	4573.41
420.72	4699.80
420.91	4636.60
421.10	4828.53
421.29	4716.18
421.48	4629.58
421.67	4798.10
421.86	4868.31
422.05	4777.03
422.24	4910.44
422.43	4858.95
422.61	4884.70
422.80	4826.18
422.99	4786.40
423.18	4922.15
423.37	4985.34
423.56	4851.93
423.75	4908.10
423.94	4802.78
424.13	4587.45
424.32	4821.50
424.50	5029.81
424.69	5011.09
424.88	5011.09
425.07	4760.65
425.26	5011.09
425.45	4975.98
425.64	4882.36
425.83	4800.44
426.01	5032.15
426.20	5011.09
426.39	5114.07
426.58	5064.92
426.77	5132.79
426.96	5093.01
427.15	5198.33
427.33	5151.52
427.52	4964.28
427.71	5146.84
427.90	5116.41
428.09	5205.35
428.28	5238.12
428.46	5352.81
428.65	5371.53
428.84	5397.28
429.03	5565.79
429.22	5369.19
429.40	5423.02
429.59	5418.34
429.78	5256.84
429.97	5116.41
430.16	5547.07
430.34	5699.20
430.53	5699.20
430.72	5596.22
430.91	5612.60
431.10	5743.67
431.28	5724.95
431.47	5675.80
431.66	5722.61
431.85	5708.57
432.03	5942.62
432.22	5811.55
432.41	5809.21
432.60	5837.30
432.79	5750.70
432.97	5877.09
433.16	6024.54
433.35	5802.19
433.54	6019.86
433.72	5940.28
433.91	6064.33
434.10	6092.41
434.28	6202.42
434.47	6162.63
434.66	6183.70
434.85	6265.61
435.03	6260.93
435.22	6176.67
435.41	6300.72
435.59	6326.47
435.78	6523.07
435.97	6317.11
436.16	6576.91
436.34	6342.85
436.53	6342.85
436.72	6640.10
436.90	6342.85
437.09	6745.42
437.28	6263.27
437.46	6600.31
437.65	6541.80
437.84	6785.21
438.02	6640.10
438.21	6862.45
438.40	6597.97
438.58	6920.96
438.77	6867.13
438.96	6885.86
439.14	7194.81
439.33	7000.54
439.52	7157.36
439.70	7201.83
439.89	7295.45
440.08	7227.57
440.26	7351.62
440.45	7400.77
440.63	7267.36
440.82	7407.80
441.01	7660.57
441.19	7623.12
441.38	7660.57
441.57	7576.31
441.75	7878.24
441.94	7775.26
442.12	7836.11
442.31	7990.59
442.50	7911.01
442.68	8025.70
442.87	8039.74
443.05	7969.52
443.24	8322.94
443.43	8032.72
443.61	8259.75
443.80	8196.56
443.98	7978.89
444.17	7810.37
444.35	8168.47
444.54	8212.94
444.73	8121.66
444.91	8208.26
445.10	8194.22
445.28	8114.64
445.47	8149.75
445.65	8119.32
445.84	8355.71
446.02	8236.35
446.21	8262.09
446.39	8341.67
446.58	8601.47
446.77	8353.37
446.95	8163.79
447.14	8414.23
447.32	8238.69
447.51	8348.69
447.69	8353.37
447.88	8479.76
448.06	8571.04
448.25	8376.78
448.43	8568.70
448.62	8587.43
448.80	8465.72
448.99	8512.53
449.17	8589.77
449.36	8472.74
449.54	8594.45
449.73	8884.67
449.91	9025.11
450.10	8875.31
450.28	9111.71
450.46	9004.04
450.65	9071.92
450.83	9114.05
451.02	8997.02
451.20	9125.75
451.39	9151.49
451.57	8917.44
451.76	9025.11
451.94	9170.22
452.13	9109.36
452.31	9280.22
452.49	9160.86
452.68	9235.75
452.86	9214.69
453.05	9408.95
453.23	9415.98
453.42	9273.20
453.60	9357.46
453.78	9362.14
453.97	9193.62
454.15	9100.00
454.34	9563.43
454.52	9617.26
454.70	9701.52
454.89	9589.17
455.07	9699.18
455.26	9652.37
455.44	9757.69
455.62	9841.95
455.81	9809.19
455.99	9785.78
456.17	9902.81
456.36	9884.08
456.54	10319.42
456.73	10223.46
456.91	10558.16
457.09	10298.36
457.28	10289.00
457.46	10310.06
457.64	10478.58
457.83	10310.06
458.01	10143.88
458.19	10523.05
458.38	10656.46
458.56	10523.05
458.74	10665.82
458.93	10583.90
459.11	10752.42
459.29	10757.10
459.48	10574.54
459.66	10649.44
459.84	10714.97
460.03	10843.70
460.21	11047.33
460.39	10824.98
460.57	10995.84
460.76	10979.45
460.94	10864.77
461.12	11159.67
461.31	10988.82
461.49	10906.90
461.67	10925.62
461.85	11339.90
462.04	11288.40
462.22	11681.61
462.40	11414.79
462.59	11386.71
462.77	11571.61
462.95	11630.12
463.13	11580.97
463.32	11499.05
463.50	11683.95
463.68	11782.26
463.86	11679.27
464.05	11496.71
464.23	11541.18
464.41	11880.56
464.59	11606.72
464.78	11985.88
464.96	11712.04
465.14	11726.08
465.32	11639.48
465.50	12119.29
465.69	11990.56
465.87	12252.70
466.05	12039.72
466.23	12102.91
466.41	12025.67
466.60	12322.92
466.78	11927.37
466.96	12191.85
467.14	12290.15
467.32	12184.83
467.51	12414.20
467.69	11873.54
467.87	12187.17
468.05	12379.09
468.23	12458.67
468.41	12262.07
468.60	12559.31
468.78	12734.85
468.96	12535.91
469.14	12533.57
469.32	12769.96
469.50	12325.26
469.69	12933.80
469.87	12917.42
470.05	13165.51
470.23	13053.17
470.41	12924.44
470.59	13165.51
470.77	13212.32
470.95	13123.38
471.14	13509.57
471.32	12959.55
471.50	13406.59
471.68	13584.47
471.86	13404.25
472.04	13540.00
472.22	13853.63
472.40	13469.78
472.58	13750.65
472.77	13542.34
472.95	13949.59
473.13	14483.24
473.31	13617.24
473.49	14113.43
473.67	14031.51
473.85	14193.01
474.03	14504.30
474.21	14642.39
474.39	14693.88
474.57	14527.71
474.75	14618.99
474.93	14623.67
475.12	14869.42
475.30	15047.30
475.48	14939.64
475.66	15264.97
475.84	14827.29
476.02	15513.07
476.20	15501.37
476.38	15274.34
476.56	15829.04
476.74	15772.87
476.92	15690.95
477.10	15559.88
477.28	16116.93
477.46	15953.09
477.64	16088.84
477.82	16142.67
478.00	16451.63
478.18	16650.57
478.36	16760.58
478.54	16903.35
478.72	17252.09
478.90	17109.32
479.08	17699.13
479.26	17451.03
479.44	17305.92
479.62	17694.45
479.80	17944.89
479.98	17884.03
480.16	18216.39
480.34	18064.25
480.52	18253.84
480.70	18546.40
480.88	18450.44
481.06	18565.13
481.24	18731.31
481.41	18565.13
481.59	19234.52
481.77	19435.81
481.95	19028.56
482.13	19538.79
482.31	19459.21
482.49	20121.59
482.67	20037.33
482.85	20306.49
483.03	20390.75
483.21	20568.63
483.39	20774.60
483.57	20381.38
483.74	20964.18
483.92	20875.24
484.10	20964.18
484.28	21406.54
484.46	22197.64
484.64	22171.89
484.82	22141.47
485.00	22600.21
485.18	22607.23
485.35	22684.47
485.53	22525.32
485.71	22970.02
485.89	23250.88
486.07	23337.48
486.25	23276.63
486.43	23131.51
486.61	23791.55
486.78	23927.30
486.96	23906.23
487.14	24290.08
487.32	24254.97
487.50	24685.63
487.68	25254.38
487.85	25123.31
488.03	25701.42
488.21	25507.16
488.39	25631.21
488.57	25886.32
488.75	25940.16
488.92	26448.05
489.10	26333.37
489.28	26326.35
489.46	26611.89
489.64	26948.93
489.81	27669.81
489.99	27372.57
490.17	27775.14
490.35	27889.82
490.53	28236.22
490.70	28180.05
490.88	28203.46
491.06	28718.37
491.24	28954.77
491.41	28453.89
491.59	29319.89
491.77	29223.93
491.95	29530.54
492.13	29266.06
492.30	29862.90
492.48	29937.79
492.66	29961.20
492.84	30024.39
493.01	30724.21
493.19	30221.00
493.37	30817.83
493.54	30906.77
493.72	31260.20
493.90	30810.81
494.08	31424.03
494.25	31805.54
494.43	31314.03
494.61	32182.37
494.79	32072.36
494.96	32238.54
495.14	32673.88
495.32	32926.66
495.49	33111.56
495.67	32809.63
495.85	33134.96
496.02	33659.24
496.20	33380.72
496.38	33502.43
496.55	33820.74
496.73	34733.55
496.91	34497.16
497.09	34462.05
497.26	34419.92
497.44	34761.64
497.62	34899.73
497.79	35819.56
497.97	35253.15
498.14	35388.90
498.32	35854.67
498.50	35821.90
498.67	36196.38
498.85	36329.80
499.03	36257.24
499.20	36552.15
499.38	36732.37
499.56	36783.86
499.73	36910.25
499.91	37422.83
500.08	37212.18
500.26	37069.40
500.44	37497.72
500.61	38045.41
500.79	37457.93
500.97	37610.07
501.14	38899.70
501.32	38178.82
501.49	37858.17
501.67	38579.05
501.84	38855.23
502.02	38583.73
502.20	39016.73
502.37	38960.56
502.55	39145.46
502.72	38913.75
502.90	39412.28
503.07	38960.56
503.25	39316.32
503.43	39538.67
503.60	40243.17
503.78	40222.11
503.95	40177.64
504.13	40158.91
504.30	40404.67
504.48	40219.77
504.65	40285.30
504.83	40741.71
505.01	41041.29
505.18	40823.62
505.36	41603.02
505.53	40781.49
505.71	41383.01
505.88	41467.27
506.06	41181.73
506.23	41563.23
506.41	41701.32
506.58	42005.59
506.76	41907.29
506.93	42251.35
507.11	42005.59
507.28	42394.12
507.46	42359.02
507.63	42370.72
507.81	42937.13
507.98	42897.34
508.16	42663.28
508.33	43393.53
508.50	43206.29
508.68	43313.95
508.85	43587.80
509.03	43323.32
509.20	43674.40
509.38	44030.16
509.55	44170.59
509.73	43777.38
509.90	44266.55
510.08	44552.10
510.25	44683.17
510.42	44737.00
510.60	44580.18
510.77	44945.31
510.95	44914.88
511.12	44528.69
511.30	44769.77
511.47	44809.56
511.64	45284.68
511.82	45413.41
511.99	45221.49
512.17	45996.21
512.34	45624.06
512.51	46115.58
512.69	46185.79
512.86	46059.40
513.04	46366.01
513.21	46218.56
513.38	46351.97
513.56	46824.76
513.73	46256.01
513.90	46607.09
514.08	46450.27
514.25	46740.50
514.43	46887.95
514.60	46876.25
514.77	47150.09
514.95	47576.07
515.12	47327.97
515.29	47203.92
515.47	47641.60
515.64	47679.05
515.81	47533.94
515.99	47793.74
516.16	48421.00
516.33	48193.97
516.51	48704.21
516.68	48231.42
516.85	48212.70
517.03	48561.44
517.20	48722.93
517.37	48701.87
517.54	48390.58
517.72	48514.62
517.89	48598.88
518.06	48889.11
518.24	48842.30
518.41	48706.55
518.58	49130.19
518.75	48608.25
518.93	49439.14
519.10	49130.19
519.27	49261.26
519.45	49705.96
519.62	49635.74
519.79	49612.34
519.96	49340.83
520.14	50185.77
520.31	49907.24
520.48	50288.75
520.65	49830.01
520.83	50361.31
521.00	50405.78
521.17	50279.39
521.34	50670.26
521.52	50405.78
521.69	50543.87
521.86	50745.15
522.03	50939.42
522.20	51302.20
522.38	51026.02
522.55	51290.50
522.72	51011.98
522.89	51093.89
523.07	51213.26
523.24	51388.80
523.41	51428.59
523.58	51341.99
523.75	51440.29
523.92	51587.75
524.10	51707.12
524.27	51767.97
524.44	51679.03
524.61	51739.88
524.78	51842.87
524.96	51976.28
525.13	51716.48
525.30	52011.38
525.47	52081.60
525.64	51959.89
525.81	52374.17
525.98	52439.70
526.16	52226.71
526.33	52538.01
526.50	52631.63
526.67	52299.27
526.84	52500.56
527.01	52973.34
527.18	52467.79
527.36	52559.07
527.53	52652.69
527.70	53097.39
527.87	52732.27
528.04	53088.03
528.21	53188.67
528.38	52928.87
528.55	53418.05
528.72	53317.40
528.89	53158.25
529.07	53202.72
529.24	52992.07
529.41	53406.34
529.58	53443.79
529.75	53235.48
529.92	53399.32
530.09	53418.05
530.26	53694.23
530.43	53631.04
530.60	53769.13
530.77	53581.88
530.94	53902.54
531.11	53553.80
531.28	53670.82
531.46	54361.28
531.63	53939.99
531.80	53900.20
531.97	54237.23
532.14	54160.00
532.31	54286.39
532.48	54553.21
532.65	54227.87
532.82	54197.44
532.99	54581.29
533.16	54323.83
533.33	54719.38
533.50	54773.22
533.67	54653.85
533.84	54295.75
534.01	54728.75
534.18	54525.12
534.35	54930.03
534.52	55023.65
534.69	54990.89
534.86	54953.44
535.03	55037.70
535.20	55061.10
535.37	55260.05
535.54	55084.51
535.71	54969.82
535.88	55215.58
536.05	55224.94
536.22	55414.52
536.38	55250.69
536.55	55398.14
536.72	55533.89
536.89	55395.80
537.06	55531.55
537.23	55318.56
537.40	55260.05
537.57	55299.84
537.74	55650.92
537.91	55777.31
538.08	55798.37
538.25	55545.59
538.42	55662.62
538.59	55887.31
538.75	55739.86
538.92	55854.54
539.09	55969.23
539.26	55983.27
539.43	55709.43
539.60	56095.62
539.77	55936.46
539.94	56186.90
540.11	55971.57
540.28	56102.64
540.44	56229.03
540.61	56102.64
540.78	56198.60
540.95	55873.27
541.12	56245.41
541.29	56037.11
541.46	56357.76
541.62	56647.99
541.79	56523.94
541.96	56079.24
542.13	56353.08
542.30	56589.47
542.47	56643.30
542.63	56640.96
542.80	56535.64
542.97	56659.69
543.14	57080.98
543.31	57111.41
543.48	57031.83
543.64	57237.80
543.81	57132.48
543.98	57097.37
544.15	57048.22
544.32	57338.44
544.48	57347.81
544.65	57322.06
544.82	57064.60
544.99	57069.28
545.16	57394.62
545.32	57380.57
545.49	57513.98
545.66	57567.82
545.83	57434.41
546.00	57478.88
546.16	57553.77
546.33	57392.28
546.50	57345.47
546.67	57670.80
546.83	57169.93
547.00	57563.14
547.17	57567.82
547.34	57523.35
547.50	57762.08
547.67	57836.98
547.84	57771.44
548.00	57832.30
548.17	57839.32
548.34	57986.77
548.51	57867.40
548.67	57895.49
548.84	58010.18
549.01	57841.66
549.18	57991.45
549.34	57907.19
549.51	58026.56
549.68	57930.60
549.84	58258.27
550.01	58356.58
550.18	58021.88
550.34	58333.17
550.51	58277.00
550.68	58372.96
550.84	58202.10
551.01	58422.11
551.18	58337.85
551.34	58262.96
551.51	58415.09
551.68	58452.54
551.84	58225.51
552.01	58279.34
552.18	58567.23
552.34	58419.77
552.51	58267.64
552.68	58279.34
552.84	58562.54
553.01	58574.25
553.18	58761.49
553.34	58506.37
553.51	58494.67
553.67	58602.33
553.84	58815.32
554.01	58932.35
554.17	58939.37
554.34	59011.93
554.51	58749.79
554.67	58918.31
554.84	58890.22
555.00	58632.76
555.17	58990.86
555.33	58803.62
555.50	58782.55
555.67	58859.79
555.83	58623.40
556.00	58859.79
556.16	59171.08
556.33	59068.10
556.50	59100.87
556.66	59234.28
556.83	58702.98
556.99	59173.42
557.16	59274.07
557.32	59437.90
557.49	59526.84
557.65	59250.66
557.82	59089.16
557.98	59367.69
558.15	59353.65
558.32	59098.53
558.48	59096.19
558.65	59353.65
558.81	59147.68
558.98	59128.95
559.14	59318.54
559.31	59442.59
559.47	59494.08
559.64	59295.13
559.80	59772.60
559.97	59650.89
560.13	59145.34
560.30	59494.08
560.46	59473.01
560.63	59634.51
560.79	59573.66
560.96	59681.32
561.12	59538.55
561.29	59594.72
561.45	59753.88
561.61	59540.89
561.78	59643.87
561.94	59503.44
562.11	59524.50
562.27	59746.86
562.44	59700.04
562.60	59873.24
562.77	59718.77
562.93	59625.15
563.10	59910.69
563.26	59690.68
563.42	59948.14
563.59	59681.32
563.75	59791.33
563.92	59845.16
564.08	59756.22
564.24	59976.23
564.41	59959.84
564.57	60037.08
564.74	59966.87
564.90	59938.78
565.07	60039.42
565.23	59992.61
565.39	60011.34
565.56	59976.23
565.72	59908.35
565.88	59913.03
566.05	59770.26
566.21	59959.84
566.38	59973.89
566.54	60126.02
566.70	60191.56
566.87	60282.84
567.03	59980.91
567.19	60100.28
567.36	60154.11
567.52	60128.36
567.68	60346.03
567.85	60289.86
568.01	60294.54
568.17	60140.07
568.34	60259.43
568.50	60175.17
568.66	60348.37
568.83	60065.17
568.99	60144.75
569.15	60254.75
569.32	60329.65
569.48	60334.33
569.64	60423.27
569.81	60257.09
569.97	60236.03
570.13	60245.39
570.30	60175.17
570.46	60322.63
570.62	60343.69
570.78	60275.82
570.95	60383.48
571.11	60559.02
571.27	60425.61
571.43	60308.58
571.60	60402.21
571.76	60329.65
571.92	60418.59
572.09	60423.27
572.25	60348.37
572.41	60360.08
572.57	60214.96
572.74	60537.96
572.90	60390.50
573.06	60463.06
573.22	60640.94
573.38	60434.97
573.55	60388.16
573.71	60654.98
573.87	60612.85
574.03	60472.42
574.20	60720.52
574.36	60257.09
574.52	60434.97
574.68	60725.20
574.84	60683.07
575.01	60587.11
575.17	60554.34
575.33	60556.68
575.49	60175.17
575.65	60561.36
575.82	60488.80
575.98	60669.03
576.14	60781.37
576.30	60793.07
576.46	60650.30
576.62	60643.28
576.79	60470.08
576.95	60537.96
577.11	60638.60
577.27	60809.46
577.43	60633.92
577.59	60626.90
577.75	60659.66
577.92	60598.81
578.08	60589.45
578.24	60481.78
578.40	60865.63
578.56	60715.84
578.72	60858.61
578.88	60828.18
579.04	60956.91
579.21	60882.02
579.37	60781.37
579.53	60853.93
579.69	60493.49
579.85	60537.96
580.01	60800.10
580.17	60687.75
580.33	60779.03
580.49	60662.00
580.65	60694.77
580.82	60757.97
580.98	60568.38
581.14	60594.13
581.30	60814.14
581.46	60694.77
581.62	60683.07
581.78	60603.49
581.94	60774.35
582.10	60694.77
582.26	60851.59
582.42	60757.97
582.58	60844.57
582.74	60673.71
582.90	60640.94
583.06	60720.52
583.22	60535.62
583.38	60669.03
583.54	60734.56
583.70	60804.78
583.86	60816.48
584.02	60839.89
584.18	60898.40
584.34	60772.01
584.50	60835.20
584.66	60647.96
584.82	60369.44
584.98	60865.63
585.14	60963.93
585.30	60942.87
585.46	60858.61
585.62	60867.97
585.78	60891.38
585.94	60746.26
586.10	60851.59
586.26	60804.78
586.42	60977.98
586.58	60839.89
586.74	60874.99
586.90	60823.50
587.06	60762.65
587.22	60917.12
587.38	60772.01
587.54	60933.51
587.70	61059.90
587.86	60891.38
588.02	60954.57
588.18	61045.85
588.34	61022.45
588.49	60891.38
