SpectraSuite Data File
++++++++++++++++++++++++++++++++++++
Date: Fri Oct 25 11:25:19 EDT 2013
User: price-jones
Dark Spectrum Present: No
Reference Spectrum Present: No
Number of Sampled Component Spectra: 1
Spectrometers: USB2+H05261
Integration Time (usec): 100000 (USB2+H05261)
Spectra Averaged: 1 (USB2+H05261)
Boxcar Smoothing: 0 (USB2+H05261)
Correct for Electrical Dark: No (USB2+H05261)
Strobe/Lamp Enabled: No (USB2+H05261)
Correct for Detector Non-linearity: No (USB2+H05261)
Correct for Stray Light: No (USB2+H05261)
Number of Pixels in Processed Spectrum: 2048
>>>>>Begin Processed Spectral Data<<<<<
365.73	220.01
365.92	220.01
366.12	220.01
366.32	187.24
366.52	154.48
366.72	180.22
366.91	121.71
367.11	154.48
367.31	107.66
367.51	163.84
367.70	156.82
367.90	142.77
368.10	74.90
368.30	166.18
368.49	100.64
368.69	189.58
368.89	142.77
369.09	175.54
369.28	220.01
369.48	121.71
369.68	264.48
369.87	227.03
370.07	250.44
370.27	248.10
370.47	315.97
370.66	573.43
370.86	615.56
371.06	641.31
371.25	760.67
371.45	662.37
371.65	650.67
371.84	760.67
372.04	699.82
372.24	650.67
372.44	718.54
372.63	704.50
372.83	828.55
373.03	732.59
373.22	795.78
373.42	725.57
373.62	798.12
373.81	727.91
374.01	833.23
374.21	793.44
374.40	884.72
374.60	758.33
374.79	858.98
374.99	875.36
375.19	854.30
375.38	840.25
375.58	809.83
375.78	854.30
375.97	887.06
376.17	898.77
376.37	854.30
376.56	849.61
376.76	884.72
376.95	807.48
377.15	936.21
377.35	915.15
377.54	915.15
377.74	889.40
377.93	870.68
378.13	926.85
378.33	828.55
378.52	973.66
378.72	1008.77
378.91	880.04
379.11	866.00
379.31	898.77
379.50	978.34
379.70	926.85
379.89	1032.18
380.09	945.58
380.28	931.53
380.48	1053.24
380.68	1048.56
380.87	1048.56
381.07	950.26
381.26	854.30
381.46	1004.09
381.65	1064.94
381.85	1067.28
382.04	1083.67
382.24	990.05
382.43	1022.81
382.63	1116.44
382.83	1137.50
383.02	1095.37
383.22	1076.65
383.41	1240.48
383.61	1046.22
383.80	1036.86
384.00	1130.48
384.19	1158.57
384.39	1144.52
384.58	1095.37
384.78	1158.57
384.97	1151.54
385.17	1128.14
385.36	1198.35
385.56	1144.52
385.75	1186.65
385.95	1165.59
386.14	1341.13
386.34	1163.25
386.53	1261.55
386.72	1231.12
386.92	1280.27
387.11	1256.87
387.31	1205.38
387.50	1205.38
387.70	1266.23
387.89	1240.48
388.09	1231.12
388.28	1153.88
388.48	1270.91
388.67	1320.06
388.86	1196.01
389.06	1247.51
389.25	1254.53
389.45	1364.53
389.64	1359.85
389.84	1399.64
390.03	1336.45
390.22	1345.81
390.42	1357.51
390.61	1476.88
390.81	1277.93
391.00	1497.94
391.19	1467.52
391.39	1385.60
391.58	1413.68
391.78	1401.98
391.97	1598.59
392.16	1416.02
392.36	1418.36
392.55	1490.92
392.75	1547.09
392.94	1519.01
393.13	1509.65
393.33	1439.43
393.52	1603.27
393.71	1692.21
393.91	1575.18
394.10	1600.93
394.29	1593.90
394.49	1617.31
394.68	1654.76
394.88	1596.25
395.07	1682.85
395.26	1699.23
395.46	1593.90
395.65	1708.59
395.84	1701.57
396.04	1879.45
396.23	1778.81
396.42	1748.38
396.62	1748.38
396.81	1739.02
397.00	1689.87
397.19	1762.42
397.39	1743.70
397.58	1799.87
397.77	1837.32
397.97	1909.88
398.16	1823.28
398.35	1907.54
398.55	1856.04
398.74	1872.43
398.93	1982.43
399.12	1902.86
399.32	1877.11
399.51	1926.26
399.70	1942.64
399.90	1935.62
400.09	1944.99
400.28	2033.93
400.47	1959.03
400.67	2094.78
400.86	2076.06
401.05	2057.33
401.24	2026.90
401.44	1998.82
401.63	2139.25
401.82	2153.29
402.01	2090.10
402.21	2101.80
402.40	2176.70
402.59	2221.17
402.78	2214.15
402.97	2132.23
403.17	2275.00
403.36	2200.10
403.55	2326.49
403.74	2284.36
403.93	2214.15
404.13	2487.99
404.32	2452.88
404.51	2293.72
404.70	2338.20
404.89	2420.11
405.09	2572.25
405.28	2445.86
405.47	2459.90
405.66	2567.57
405.85	2518.42
406.05	2525.44
406.24	2518.42
406.43	2644.81
406.62	2600.34
406.81	2682.25
407.00	2700.98
407.20	2553.52
407.39	2607.36
407.58	2635.44
407.77	2813.32
407.96	2710.34
408.15	2766.51
408.34	2841.41
408.54	2691.62
408.73	2801.62
408.92	2745.45
409.11	2850.77
409.30	2949.08
409.49	2944.39
409.68	2974.82
409.87	2832.05
410.07	2977.16
410.26	2953.76
410.45	2991.20
410.64	3049.72
410.83	2981.84
411.02	3049.72
411.21	3070.78
411.40	3117.59
411.59	3274.41
411.78	3276.75
411.98	3213.56
412.17	3105.89
412.36	3342.28
412.55	3288.45
412.74	3414.84
412.93	3325.90
413.12	3304.84
413.31	3506.12
413.50	3433.57
413.69	3515.48
413.88	3662.94
414.07	3375.05
414.26	3597.40
414.45	3637.19
414.64	3536.55
414.83	3742.52
415.02	3609.11
415.22	3852.52
415.41	3934.44
415.60	3892.31
415.79	3784.65
415.98	3777.62
416.17	3885.29
416.36	3920.40
416.55	3971.89
416.74	4009.34
416.93	4105.30
417.12	4077.21
417.31	4187.22
417.50	4219.99
417.69	4271.48
417.88	4124.02
418.07	4337.01
418.26	4212.96
418.45	4339.35
418.64	4409.57
418.83	4320.63
419.02	4369.78
419.21	4428.29
419.39	4486.81
419.58	4503.19
419.77	4353.40
419.96	4552.34
420.15	4610.86
420.34	4634.26
420.53	4498.51
420.72	4725.54
420.91	4599.15
421.10	4753.63
421.29	4828.53
421.48	4568.73
421.67	4662.35
421.86	4622.56
422.05	4702.14
422.24	4856.61
422.43	4760.65
422.61	4882.36
422.80	4863.63
422.99	4858.95
423.18	4924.49
423.37	4983.00
423.56	4947.89
423.75	4887.04
423.94	4788.74
424.13	4648.30
424.32	4709.16
424.50	4912.78
424.69	5085.98
424.88	4957.25
425.07	4828.53
425.26	5008.75
425.45	4858.95
425.64	4954.91
425.83	4865.97
426.01	4840.23
426.20	4896.40
426.39	5165.56
426.58	4978.32
426.77	4924.49
426.96	5074.28
427.15	5067.26
427.33	5233.44
427.52	5226.42
427.71	5210.03
427.90	5322.38
428.09	5191.31
428.28	5280.25
428.46	5373.87
428.65	5221.74
428.84	5280.25
429.03	5467.49
429.22	5327.06
429.40	5458.13
429.59	5547.07
429.78	5275.57
429.97	5165.56
430.16	5322.38
430.34	5399.62
430.53	5610.26
430.72	5526.00
430.91	5460.47
431.10	5668.78
431.28	5774.10
431.47	5654.73
431.66	5837.30
431.85	5727.29
432.03	5919.21
432.22	5834.96
432.41	5741.33
432.60	5827.93
432.79	5846.66
432.97	5933.26
433.16	5935.60
433.35	5966.03
433.54	5968.37
433.72	6005.81
433.91	6038.58
434.10	6085.39
434.28	5949.64
434.47	6244.55
434.66	6277.32
434.85	6368.60
435.03	6186.04
435.22	6167.31
435.41	6305.40
435.59	6338.17
435.78	6396.68
435.97	6525.41
436.16	6270.30
436.34	6279.66
436.53	6434.13
436.72	6572.22
436.90	6544.14
437.09	6455.20
437.28	6389.66
437.46	6478.60
437.65	6782.87
437.84	6684.57
438.02	6689.25
438.21	6719.68
438.40	6614.35
438.58	6799.26
438.77	7045.01
438.96	6909.26
439.14	7227.57
439.33	7047.35
439.52	7138.63
439.70	7185.44
439.89	7363.33
440.08	7262.68
440.26	7241.62
440.45	7328.22
440.63	7447.58
440.82	7389.07
441.01	7344.60
441.19	7456.95
441.38	7803.35
441.57	7522.48
441.75	7618.44
441.94	7873.56
442.12	7740.15
442.31	8023.36
442.50	8021.02
442.68	8030.38
442.87	7999.95
443.05	7981.23
443.24	8219.96
443.43	8028.04
443.61	8135.70
443.80	8395.50
443.98	8035.06
444.17	7716.75
444.35	8191.88
444.54	8341.67
444.73	8472.74
444.91	8175.49
445.10	8344.01
445.28	8430.61
445.47	8056.12
445.65	8276.13
445.84	8290.18
446.02	8449.33
446.21	8404.86
446.39	8219.96
446.58	8189.53
446.77	8451.67
446.95	8217.62
447.14	8461.04
447.32	8264.43
447.51	8573.38
447.69	8257.41
447.88	8327.63
448.06	8557.00
448.25	8608.49
448.43	8545.30
448.62	8491.46
448.80	8390.82
448.99	8554.66
449.17	8702.11
449.36	8585.08
449.54	8664.66
449.73	8849.57
449.91	8863.61
450.10	9083.62
450.28	8947.87
450.46	9011.06
450.65	9142.13
450.83	8997.02
451.02	8952.55
451.20	9308.31
451.39	9273.20
451.57	9015.74
451.76	8924.46
451.94	9275.54
452.13	9359.80
452.31	9404.27
452.49	9092.98
452.68	9362.14
452.86	9210.01
453.05	9252.14
453.23	9680.46
453.42	9348.10
453.60	9268.52
453.78	9437.04
453.97	9305.97
454.15	9308.31
454.34	9570.45
454.52	9671.09
454.70	9350.44
454.89	9476.83
455.07	9633.64
455.26	9731.95
455.44	9776.42
455.62	9556.41
455.81	9731.95
455.99	9837.27
456.17	9870.04
456.36	9771.74
456.54	10340.49
456.73	10207.08
456.91	10148.56
457.09	10284.31
457.28	10576.88
457.46	10106.43
457.64	10424.75
457.83	10307.72
458.01	10455.17
458.19	10499.64
458.38	10480.92
458.56	10714.97
458.74	10651.78
458.93	10466.88
459.11	10490.28
459.29	10661.14
459.48	10869.45
459.66	10780.51
459.84	10782.85
460.03	10979.45
460.21	10843.70
460.39	11002.86
460.57	11082.44
460.76	10988.82
460.94	11112.86
461.12	10965.41
461.31	11288.40
461.49	11075.42
461.67	11075.42
461.85	11468.62
462.04	11311.81
462.22	11651.19
462.40	11599.70
462.59	11234.57
462.77	11330.53
462.95	11477.99
463.13	11487.35
463.32	11396.07
463.50	11754.17
463.68	11468.62
463.86	11475.65
464.05	11616.08
464.23	11564.59
464.41	11763.53
464.59	11517.78
464.78	12067.80
464.96	12133.34
465.14	11606.72
465.32	11889.92
465.50	12042.06
465.69	12236.32
465.87	12102.91
466.05	12116.95
466.23	12018.65
466.41	12147.38
466.60	12297.17
466.78	11969.50
466.96	12105.25
467.14	12156.74
467.32	12353.35
467.51	12442.29
467.69	12086.53
467.87	12248.02
468.05	12414.20
468.23	12299.52
468.41	12294.83
468.60	12690.38
468.78	12688.04
468.96	12575.70
469.14	12713.79
469.32	12762.94
469.50	12695.07
469.69	12917.42
469.87	12959.55
470.05	12978.27
470.23	13198.28
470.41	13034.44
470.59	13104.66
470.77	12966.57
470.95	12992.31
471.14	13298.92
471.32	13064.87
471.50	13500.21
471.68	13511.91
471.86	13497.87
472.04	13738.94
472.22	14136.84
472.40	13678.09
472.58	13809.16
472.77	14129.81
472.95	13975.34
473.13	14256.20
473.31	14127.47
473.49	14216.41
473.67	14258.54
473.85	14193.01
474.03	14527.71
474.21	14490.26
474.39	14586.22
474.57	14850.70
474.75	14731.33
474.93	14944.32
475.12	14885.81
475.30	14766.44
475.48	14663.46
475.66	14979.43
475.84	15014.54
476.02	15248.59
476.20	15150.29
476.38	15658.18
476.56	15946.07
476.74	15702.65
476.92	15716.70
477.10	15796.28
477.28	16077.14
477.46	16168.42
477.64	16332.26
477.82	16388.43
478.00	16762.92
478.18	16573.33
478.36	16725.47
478.54	17256.77
478.72	16879.94
478.90	17219.32
479.08	17284.86
479.26	17483.80
479.44	17624.23
479.62	17678.07
479.80	17898.08
479.98	18057.23
480.16	18160.22
480.34	17965.95
480.52	18434.06
480.70	18398.95
480.88	18382.57
481.06	18391.93
481.24	18527.68
481.41	19089.41
481.59	18843.65
481.77	19644.12
481.95	19447.51
482.13	19459.21
482.31	19480.28
482.49	20196.48
482.67	20184.78
482.85	20362.66
483.03	20451.60
483.21	20608.42
483.39	20723.10
483.57	20713.74
483.74	21120.99
483.92	21256.75
484.10	21294.19
484.28	21441.65
484.46	22061.89
484.64	22228.07
484.82	21792.73
485.00	22237.43
485.18	22616.60
485.35	22684.47
485.53	22621.28
485.71	22834.27
485.89	23332.80
486.07	22874.06
486.25	23398.34
486.43	23559.83
486.61	23484.94
486.78	24196.46
486.96	23950.70
487.14	24341.57
487.32	24423.49
487.50	24622.44
487.68	24542.86
487.85	25088.20
488.03	25355.02
488.21	25975.27
488.39	25633.55
488.57	25872.28
488.75	26265.49
488.92	26316.98
489.10	26698.49
489.28	26469.12
489.46	27075.32
489.64	26677.43
489.81	27651.09
489.99	27356.18
490.17	27555.13
490.35	27828.97
490.53	27988.13
490.70	28336.87
490.88	28299.42
491.06	29017.96
491.24	28580.28
491.41	29113.92
491.59	29102.22
491.77	29252.02
491.95	29434.58
492.13	29392.45
492.30	29741.19
492.48	29806.72
492.66	29907.37
492.84	30120.35
493.01	30534.63
493.19	30539.31
493.37	30731.23
493.54	30611.87
493.72	31185.30
493.90	31126.78
494.08	31534.04
494.25	31686.17
494.43	31632.34
494.61	32161.30
494.79	31990.44
494.96	32247.90
495.14	32283.01
495.32	32746.44
495.49	32741.75
495.67	33013.26
495.85	33769.25
496.02	33369.02
496.20	33617.11
496.38	34033.73
496.55	33792.65
496.73	34834.19
496.91	34539.29
497.09	34593.12
497.26	34689.08
497.44	34621.20
497.62	35304.64
497.79	35290.60
497.97	35129.10
498.14	35866.37
498.32	36060.63
498.50	35910.84
498.67	36268.94
498.85	36311.07
499.03	36341.50
499.20	36306.39
499.38	36421.08
499.56	37099.83
499.73	36847.05
499.91	37539.85
500.08	37177.07
500.26	37193.45
500.44	37296.44
500.61	37333.89
500.79	37434.53
500.97	38096.90
501.14	38497.13
501.32	37984.55
501.49	38682.03
501.67	38377.76
501.84	38499.47
502.02	38455.00
502.20	38511.17
502.37	38841.19
502.55	39112.69
502.72	39634.63
502.90	39501.22
503.07	38946.51
503.25	39185.25
503.43	39019.07
503.60	39999.76
503.78	40046.57
503.95	39988.05
504.13	39966.99
504.30	40205.72
504.48	40421.05
504.65	40376.58
504.83	40605.95
505.01	41045.97
505.18	40914.90
505.36	41242.58
505.53	40992.14
505.71	41294.07
505.88	41429.82
506.06	41371.31
506.23	41942.40
506.41	41642.81
506.58	41904.95
506.76	42019.64
506.93	41989.21
507.11	42150.71
507.28	42246.67
507.46	42904.36
507.63	42773.29
507.81	42721.80
507.98	42309.86
508.16	42710.10
508.33	43014.37
508.50	43402.89
508.68	43253.10
508.85	44158.89
509.03	43494.18
509.20	43566.73
509.38	44217.40
509.55	44140.16
509.73	44243.15
509.90	44402.30
510.08	44016.11
510.25	44399.96
510.42	44847.00
510.60	45088.08
510.77	44992.12
510.95	45251.92
511.12	44870.41
511.30	44924.24
511.47	45406.39
511.64	45287.03
511.82	45893.22
511.99	45165.32
512.17	45474.27
512.34	45806.62
512.51	46031.32
512.69	46581.34
512.86	46148.34
513.04	46291.12
513.21	46375.37
513.38	46274.73
513.56	46649.22
513.73	46277.07
513.90	46501.76
514.08	46866.89
514.25	46651.56
514.43	46932.42
514.60	47386.49
514.77	46876.25
514.95	47285.84
515.12	47290.52
515.29	47334.99
515.47	47618.20
515.64	47779.70
515.81	47920.13
515.99	48041.84
516.16	48112.05
516.33	48062.90
516.51	48383.55
516.68	48004.39
516.85	48268.87
517.03	48484.20
517.20	48531.01
517.37	48615.27
517.54	48442.07
517.72	48626.97
517.89	48463.13
518.06	48870.39
518.24	48900.81
518.41	48645.69
518.58	49226.15
518.75	48736.98
518.93	49209.76
519.10	49350.20
519.27	49635.74
519.45	49209.76
519.62	49961.08
519.79	49792.56
519.96	49614.68
520.14	49675.53
520.31	49900.22
520.48	50052.36
520.65	50003.20
520.83	50529.83
521.00	50293.43
521.17	50263.00
521.34	50550.89
521.52	50499.40
521.69	50543.87
521.86	50674.94
522.03	50789.62
522.20	50981.55
522.38	51187.52
522.55	50777.92
522.72	50981.55
522.89	51044.74
523.07	51229.65
523.24	51231.99
523.41	51316.25
523.58	51065.81
523.75	51667.33
523.92	51274.12
524.10	51751.59
524.27	51803.08
524.44	51922.44
524.61	52018.41
524.78	52109.69
524.96	51765.63
525.13	51877.97
525.30	52032.45
525.47	52402.25
525.64	52285.23
525.81	52425.66
525.98	52587.16
526.16	52526.30
526.33	52683.12
526.50	52706.52
526.67	52519.28
526.84	52432.68
527.01	52673.76
527.18	52879.72
527.36	52467.79
527.53	52697.16
527.70	52994.41
527.87	53057.60
528.04	52849.30
528.21	52938.24
528.38	53034.20
528.55	53350.17
528.72	53223.78
528.89	53310.38
529.07	53148.88
529.24	53212.08
529.41	53492.94
529.58	53432.09
529.75	53642.74
529.92	53509.33
530.09	53694.23
530.26	53556.14
530.43	53956.37
530.60	53476.56
530.77	53698.91
530.94	53916.58
531.11	53654.44
531.28	53799.55
531.46	53991.48
531.63	54019.56
531.80	54162.34
531.97	54265.32
532.14	54454.90
532.31	54323.83
532.48	54691.30
532.65	54124.89
532.82	54279.36
532.99	54532.14
533.16	54466.61
533.33	54581.29
533.50	54784.92
533.67	54562.57
533.84	54351.92
534.01	54602.36
534.18	54728.75
534.35	55241.32
534.52	54787.26
534.69	55021.31
534.86	55192.17
535.03	55000.25
535.20	55229.62
535.37	55068.12
535.54	55047.06
535.71	55161.75
535.88	55384.10
536.05	55084.51
536.22	55433.25
536.38	55522.19
536.55	55220.26
536.72	55320.90
536.89	55236.64
537.06	55494.10
537.23	55442.61
537.40	55248.35
537.57	55578.36
537.74	55451.97
537.91	55718.79
538.08	55414.52
538.25	55419.20
538.42	55964.55
538.59	55770.28
538.75	55683.69
538.92	55868.59
539.09	56217.33
539.26	55999.66
539.43	55835.82
539.60	55992.64
539.77	55882.63
539.94	56292.22
540.11	56135.41
540.28	56200.94
540.44	56177.54
540.61	56191.58
540.78	56177.54
540.95	56278.18
541.12	56102.64
541.29	56065.19
541.46	56371.80
541.62	56362.44
541.79	56446.70
541.96	56191.58
542.13	56348.40
542.30	56512.23
542.47	56797.78
542.63	56633.94
542.80	56933.53
542.97	56697.14
543.14	57055.24
543.31	56949.92
543.48	57036.51
543.64	57247.16
543.81	57216.74
543.98	57020.13
544.15	57153.54
544.32	57279.93
544.48	57373.55
544.65	57036.51
544.82	57183.97
544.99	57015.45
545.16	57221.42
545.32	57116.09
545.49	57551.43
545.66	57621.65
545.83	57392.28
546.00	57558.45
546.16	57354.83
546.33	57399.30
546.50	57474.20
546.67	57490.58
546.83	57359.51
547.00	57600.58
547.17	57539.73
547.34	57691.86
547.50	58021.88
547.67	57869.75
547.84	57836.98
548.00	57808.89
548.17	57932.94
548.34	57954.00
548.51	58141.25
548.67	58045.29
548.84	58031.24
549.01	57656.76
549.18	58103.80
549.34	58143.59
549.51	57916.56
549.68	58281.68
549.84	58056.99
550.01	58204.44
550.18	57869.75
550.34	58239.55
550.51	58529.78
550.68	58326.15
550.84	58185.72
551.01	58501.69
551.18	58419.77
551.34	58344.87
551.51	58424.45
551.68	58576.59
551.84	58422.11
552.01	58178.70
552.18	58482.97
552.34	58298.06
552.51	58501.69
552.68	58363.60
552.84	58230.19
553.01	58728.72
553.18	58520.41
553.34	58651.48
553.51	58494.67
553.67	58710.00
553.84	58588.29
554.01	58721.70
554.17	58951.07
554.34	58808.30
554.51	58735.74
554.67	58904.26
554.84	58686.59
555.00	58766.17
555.17	58763.83
555.33	58862.13
555.50	58618.72
555.67	58887.88
555.83	58937.03
556.00	59025.97
556.16	59068.10
556.33	58953.41
556.50	58958.09
556.66	59114.91
556.83	58979.16
556.99	59334.92
557.16	59473.01
557.32	59348.96
557.49	59690.68
557.65	59119.59
557.82	59166.40
557.98	59173.42
558.15	59243.64
558.32	59477.69
558.48	59133.63
558.65	59473.01
558.81	59325.56
558.98	59302.15
559.14	59363.01
559.31	59615.79
559.47	59566.63
559.64	59428.54
559.80	59526.84
559.97	59576.00
560.13	59475.35
560.30	59470.67
560.46	59601.74
560.63	59578.34
560.79	59639.19
560.96	59917.71
561.12	59440.24
561.29	59590.04
561.45	59580.68
561.61	59587.70
561.78	59863.88
561.94	59693.02
562.11	59503.44
562.27	59683.66
562.44	59786.64
562.60	59894.31
562.77	59969.21
562.93	59835.80
563.10	59906.01
563.26	59676.64
563.42	60081.55
563.59	59796.01
563.75	59812.39
563.92	59835.80
564.08	60067.51
564.24	59826.43
564.41	59948.14
564.57	59849.84
564.74	59964.52
564.90	59934.10
565.07	59854.52
565.23	60004.31
565.39	59917.71
565.56	60107.30
565.72	59859.20
565.88	59882.61
566.05	59913.03
566.21	60119.00
566.38	60123.68
566.54	60130.70
566.70	60205.60
566.87	60221.98
567.03	59999.63
567.19	60147.09
567.36	60184.54
567.52	60093.25
567.68	60346.03
567.85	60069.85
568.01	60107.30
568.17	60168.15
568.34	60149.43
568.50	60226.66
568.66	60093.25
568.83	60339.01
568.99	60175.17
569.15	60299.22
569.32	60233.69
569.48	60170.49
569.64	60341.35
569.81	60399.86
569.97	60072.19
570.13	60413.91
570.30	60051.12
570.46	60271.14
570.62	60355.39
570.78	60488.80
570.95	60320.29
571.11	60348.37
571.27	60308.58
571.43	60446.68
571.60	60402.21
571.76	60350.71
571.92	60437.31
572.09	60561.36
572.25	60250.07
572.41	60322.63
572.57	60229.01
572.74	60664.35
572.90	60481.78
573.06	60516.89
573.22	60439.65
573.38	60540.30
573.55	60451.36
573.71	60619.88
573.87	60456.04
574.03	60495.83
574.20	60484.12
574.36	60383.48
574.52	60587.11
574.68	60500.51
574.84	60830.52
575.01	60477.10
575.17	60755.63
575.33	60509.87
575.49	60381.14
575.65	60439.65
575.82	60743.92
575.98	60662.00
576.14	60743.92
576.30	60608.17
576.46	60659.66
576.62	60615.19
576.79	60594.13
576.95	60542.64
577.11	60594.13
577.27	60654.98
577.43	60645.62
577.59	60729.88
577.75	60638.60
577.92	60664.35
578.08	60598.81
578.24	60809.46
578.40	60776.69
578.56	60877.33
578.72	60704.13
578.88	60779.03
579.04	60877.33
579.21	60638.60
579.37	60673.71
579.53	60966.27
579.69	60540.30
579.85	60683.07
580.01	60739.24
580.17	60643.28
580.33	60802.44
580.49	60701.79
580.65	60788.39
580.82	60615.19
580.98	60706.47
581.14	60816.48
581.30	60767.33
581.46	60512.21
581.62	60802.44
581.78	60711.16
581.94	60753.29
582.10	60580.09
582.26	60973.30
582.42	60580.09
582.58	60858.61
582.74	60711.16
582.90	60631.58
583.06	60638.60
583.22	60633.92
583.38	60741.58
583.54	60800.10
583.70	60793.07
583.86	60832.86
584.02	60741.58
584.18	60933.51
584.34	60853.93
584.50	60729.88
584.66	60797.76
584.82	60818.82
584.98	61106.71
585.14	60846.91
585.30	60699.45
585.46	60942.87
585.62	61055.21
585.78	60912.44
585.94	60622.22
586.10	60704.13
586.26	60867.97
586.42	60886.70
586.58	60860.95
586.74	61024.79
586.90	60954.57
587.06	60687.75
587.22	61059.90
587.38	61052.87
587.54	60898.40
587.70	61146.50
587.86	60837.54
588.02	60891.38
588.18	61137.13
588.34	60858.61
588.49	60931.17
