SpectraSuite Data File
++++++++++++++++++++++++++++++++++++
Date: Fri Oct 25 11:33:54 EDT 2013
User: price-jones
Dark Spectrum Present: No
Reference Spectrum Present: No
Number of Sampled Component Spectra: 1
Spectrometers: USB2+H05261
Integration Time (usec): 100000 (USB2+H05261)
Spectra Averaged: 1 (USB2+H05261)
Boxcar Smoothing: 0 (USB2+H05261)
Correct for Electrical Dark: No (USB2+H05261)
Strobe/Lamp Enabled: No (USB2+H05261)
Correct for Detector Non-linearity: No (USB2+H05261)
Correct for Stray Light: No (USB2+H05261)
Number of Pixels in Processed Spectrum: 2048
>>>>>Begin Processed Spectral Data<<<<<
365.73	362.78
365.92	362.78
366.12	362.78
366.32	180.22
366.52	238.73
366.72	189.58
366.91	175.54
367.11	187.24
367.31	175.54
367.51	180.22
367.70	215.33
367.90	170.86
368.10	217.67
368.30	234.05
368.49	177.88
368.69	182.56
368.89	189.58
369.09	147.45
369.28	205.97
369.48	156.82
369.68	234.05
369.87	283.20
370.07	248.10
370.27	306.61
370.47	322.99
370.66	531.30
370.86	566.41
371.06	514.92
371.25	547.69
371.45	510.24
371.65	505.56
371.84	524.28
372.04	503.22
372.24	547.69
372.44	608.54
372.63	638.97
372.83	578.11
373.03	601.52
373.22	617.90
373.42	690.46
373.62	613.22
373.81	662.37
374.01	641.31
374.21	629.60
374.40	622.58
374.60	627.26
374.79	634.29
374.99	662.37
375.19	620.24
375.38	627.26
375.58	727.91
375.78	645.99
375.97	589.82
376.17	634.29
376.37	737.27
376.56	613.22
376.76	645.99
376.95	641.31
377.15	720.88
377.35	730.25
377.54	713.86
377.74	624.92
377.93	688.12
378.13	660.03
378.33	720.88
378.52	683.44
378.72	805.14
378.91	748.97
379.11	725.57
379.31	723.23
379.50	690.46
379.70	734.93
379.89	741.95
380.09	678.76
380.28	744.29
380.48	760.67
380.68	695.14
380.87	786.42
381.07	725.57
381.26	781.74
381.46	748.97
381.65	779.40
381.85	767.70
382.04	713.86
382.24	676.41
382.43	755.99
382.63	826.21
382.83	863.66
383.02	873.02
383.22	882.38
383.41	772.38
383.61	821.53
383.80	882.38
384.00	833.23
384.19	835.57
384.39	835.57
384.58	821.53
384.78	784.08
384.97	882.38
385.17	854.30
385.36	741.95
385.56	863.66
385.75	798.12
385.95	830.89
386.14	894.08
386.34	826.21
386.53	901.11
386.72	912.81
386.92	847.27
387.11	898.77
387.31	866.00
387.50	833.23
387.70	1001.75
387.89	950.26
388.09	828.55
388.28	868.34
388.48	858.98
388.67	966.64
388.86	873.02
389.06	922.17
389.25	992.39
389.45	912.81
389.64	891.74
389.84	903.45
390.03	1004.09
390.22	1018.13
390.42	957.28
390.61	938.55
390.81	880.04
391.00	947.92
391.19	1050.90
391.39	1055.58
391.58	968.98
391.78	1055.58
391.97	1121.12
392.16	1071.97
392.36	1064.94
392.55	1116.44
392.75	1090.69
392.94	1050.90
393.13	1062.60
393.33	1025.15
393.52	1139.84
393.71	1174.95
393.91	1036.86
394.10	1062.60
394.29	1071.97
394.49	1015.79
394.68	1109.41
394.88	1149.20
395.07	1200.69
395.26	1160.91
395.46	1181.97
395.65	1144.52
395.84	1167.93
396.04	1280.27
396.23	1233.46
396.42	1181.97
396.62	1289.64
396.81	1170.27
397.00	1203.04
397.19	1186.65
397.39	1149.20
397.58	1270.91
397.77	1214.74
397.97	1235.80
398.16	1336.45
398.35	1231.12
398.55	1287.29
398.74	1371.55
398.93	1313.04
399.12	1299.00
399.32	1306.02
399.51	1329.42
399.70	1462.83
399.90	1341.13
400.09	1416.02
400.28	1303.68
400.47	1406.66
400.67	1453.47
400.86	1404.32
401.05	1378.58
401.24	1397.30
401.44	1458.15
401.63	1474.54
401.82	1406.66
402.01	1385.60
402.21	1497.94
402.40	1455.81
402.59	1474.54
402.78	1462.83
402.97	1497.94
403.17	1549.43
403.36	1507.30
403.55	1640.72
403.74	1633.69
403.93	1610.29
404.13	1575.18
404.32	1619.65
404.51	1563.48
404.70	1638.38
404.89	1511.99
405.09	1717.95
405.28	1586.88
405.47	1717.95
405.66	1572.84
405.85	1732.00
406.05	1694.55
406.24	1638.38
406.43	1652.42
406.62	1736.68
406.81	1769.44
407.00	1776.47
407.20	1741.36
407.39	1680.50
407.58	1834.98
407.77	1757.74
407.96	1975.41
408.15	1849.02
408.34	1837.32
408.54	1919.24
408.73	1923.92
408.92	1905.20
409.11	1923.92
409.30	1802.21
409.49	1919.24
409.68	2052.65
409.87	1956.69
410.07	1984.77
410.26	1966.05
410.45	2111.16
410.64	2097.12
410.83	2073.71
411.02	2094.78
411.21	2174.36
411.40	2050.31
411.59	2214.15
411.78	2134.57
411.98	2186.06
412.17	2267.98
412.36	2321.81
412.55	2340.54
412.74	2251.60
412.93	2342.88
413.12	2282.02
413.31	2361.60
413.50	2502.03
413.69	2436.50
413.88	2408.41
414.07	2455.22
414.26	2457.56
414.45	2487.99
414.64	2574.59
414.83	2558.21
415.02	2511.39
415.22	2663.53
415.41	2691.62
415.60	2572.25
415.79	2691.62
415.98	2675.23
416.17	2668.21
416.36	2684.59
416.55	2693.96
416.74	2726.72
416.93	2708.00
417.12	2850.77
417.31	2885.88
417.50	2874.18
417.69	2920.99
417.88	2864.82
418.07	3112.91
418.26	3035.67
418.45	2871.84
418.64	3138.66
418.83	3038.02
419.02	3012.27
419.21	3061.42
419.39	3066.10
419.58	3066.10
419.77	3045.04
419.96	3077.80
420.15	3143.34
420.34	3075.46
420.53	3110.57
420.72	3155.04
420.91	3281.43
421.10	3283.77
421.29	3316.54
421.48	3353.99
421.67	3234.62
421.86	3265.05
422.05	3229.94
422.24	3229.94
422.43	3225.26
422.61	3311.86
422.80	3499.10
422.99	3421.86
423.18	3325.90
423.37	3342.28
423.56	3459.31
423.75	3363.35
423.94	3389.10
424.13	3119.93
424.32	3337.60
424.50	3433.57
424.69	3382.07
424.88	3405.48
425.07	3496.76
425.26	3372.71
425.45	3318.88
425.64	3222.92
425.83	3407.82
426.01	3417.18
426.20	3417.18
426.39	3438.25
426.58	3379.73
426.77	3564.64
426.96	3508.46
427.15	3555.27
427.33	3662.94
427.52	3520.17
427.71	3574.00
427.90	3698.05
428.09	3616.13
428.28	3569.32
428.46	3742.52
428.65	3641.87
428.84	3765.92
429.03	3852.52
429.22	3641.87
429.40	3698.05
429.59	3740.18
429.78	3585.70
429.97	3527.19
430.16	3728.47
430.34	3763.58
430.53	3660.60
430.72	3941.46
430.91	3859.54
431.10	3744.86
431.28	3822.09
431.47	3875.93
431.66	3999.98
431.85	3850.18
432.03	4053.81
432.22	4100.62
432.41	4021.04
432.60	4004.66
432.79	3934.44
432.97	4217.65
433.16	4177.86
433.35	4093.60
433.54	4145.09
433.72	4138.07
433.91	4079.55
434.10	4145.09
434.28	4248.07
434.47	4386.16
434.66	4299.56
434.85	4257.43
435.03	4332.33
435.22	4264.46
435.41	4428.29
435.59	4440.00
435.78	4430.63
435.97	4276.16
436.16	4390.84
436.34	4346.37
436.53	4329.99
436.72	4512.55
436.90	4538.30
437.09	4456.38
437.28	4386.16
437.46	4535.96
437.65	4409.57
437.84	4765.33
438.02	4594.47
438.21	4557.02
438.40	4465.74
438.58	4725.54
438.77	4805.12
438.96	4620.22
439.14	4718.52
439.33	4840.23
439.52	5034.49
439.70	4980.66
439.89	5006.41
440.08	5036.83
440.26	5013.43
440.45	4978.32
440.63	5191.31
440.82	5205.35
441.01	5116.41
441.19	4959.60
441.38	4990.02
441.57	5266.21
441.75	5221.74
441.94	5385.57
442.12	5465.15
442.31	5479.19
442.50	5334.08
442.68	5420.68
442.87	5453.45
443.05	5413.66
443.24	5465.15
443.43	5444.09
443.61	5399.62
443.80	5760.06
443.98	5451.11
444.17	5359.83
444.35	5495.58
444.54	5647.71
444.73	5671.12
444.91	5483.88
445.10	5561.11
445.28	5675.80
445.47	5879.43
445.65	5577.50
445.84	5682.82
446.02	5872.40
446.21	5568.13
446.39	5820.91
446.58	5804.53
446.77	5687.50
446.95	5586.86
447.14	5802.19
447.32	5834.96
447.51	5706.23
447.69	5671.12
447.88	5738.99
448.06	5724.95
448.25	5933.26
448.43	5736.65
448.62	5830.27
448.80	5731.97
448.99	5947.30
449.17	5867.72
449.36	5877.09
449.54	5804.53
449.73	6003.47
449.91	6003.47
450.10	6045.60
450.28	6092.41
450.46	6106.46
450.65	6012.84
450.83	6146.25
451.02	6069.01
451.20	6204.76
451.39	6193.06
451.57	6054.97
451.76	6066.67
451.94	6272.64
452.13	6108.80
452.31	6181.35
452.49	6176.67
452.68	6207.10
452.86	6139.23
453.05	6434.13
453.23	6274.98
453.42	6312.42
453.60	6235.19
453.78	6300.72
453.97	6429.45
454.15	6377.96
454.34	6370.94
454.52	6296.04
454.70	6455.20
454.89	6539.46
455.07	6284.34
455.26	6530.09
455.44	6656.48
455.62	6663.51
455.81	6572.22
455.99	6773.51
456.17	6839.05
456.36	6698.61
456.54	6939.69
456.73	6949.05
456.91	6888.20
457.09	6846.07
457.28	7119.91
457.46	7030.97
457.64	6977.14
457.83	6932.67
458.01	6876.49
458.19	7108.21
458.38	6993.52
458.56	7129.27
458.74	7110.55
458.93	7239.28
459.11	7258.00
459.29	7239.28
459.48	7267.36
459.66	7307.15
459.84	7360.98
460.03	7239.28
460.21	7243.96
460.39	7463.97
460.57	7410.14
460.76	7360.98
460.94	7407.80
461.12	7487.37
461.31	7503.76
461.49	7665.25
461.67	7396.09
461.85	7609.08
462.04	7435.88
462.22	8051.44
462.40	7768.24
462.59	7356.30
462.77	7751.85
462.95	7557.59
463.13	7695.68
463.32	7803.35
463.50	7789.30
463.68	8072.51
463.86	7955.48
464.05	7728.45
464.23	7808.03
464.41	7894.63
464.59	7756.54
464.78	7974.21
464.96	7864.20
465.14	7882.92
465.32	7932.08
465.50	7859.52
465.69	8065.49
465.87	8241.03
466.05	8058.46
466.23	8032.72
466.41	8124.00
466.60	8140.38
466.78	7995.27
466.96	8124.00
467.14	8107.62
467.32	8098.25
467.51	8163.79
467.69	8116.98
467.87	8215.28
468.05	8421.25
468.23	8393.16
468.41	8313.58
468.60	8524.23
468.78	8336.99
468.96	8318.26
469.14	8592.11
469.32	8589.77
469.50	8329.97
469.69	8641.26
469.87	8475.08
470.05	8730.20
470.23	8634.24
470.41	8655.30
470.59	8858.93
470.77	8732.54
470.95	8865.95
471.14	9050.85
471.32	8807.44
471.50	8929.14
471.68	9022.77
471.86	9088.30
472.04	8980.64
472.22	9336.40
472.40	8791.05
472.58	9078.94
472.77	9348.10
472.95	9263.84
473.13	9678.12
473.31	9128.09
473.49	9488.53
473.67	9324.69
473.85	9635.99
474.03	9699.18
474.21	9762.37
474.39	9671.09
474.57	9675.77
474.75	9937.91
474.93	9760.03
475.12	10026.86
475.30	10071.33
475.48	9977.70
475.66	10057.28
475.84	10061.96
476.02	10148.56
476.20	9980.04
476.38	10317.08
476.56	10469.22
476.74	10340.49
476.92	10429.43
477.10	10427.09
477.28	10399.00
477.46	10621.35
477.64	10717.31
477.82	10808.59
478.00	11295.43
478.18	10874.13
478.36	11040.31
478.54	11220.53
478.72	11220.53
478.90	11485.01
479.08	11616.08
479.26	11426.50
479.44	11784.60
479.62	11906.31
479.80	11808.00
479.98	11824.39
480.16	12196.53
480.34	11845.45
480.52	12131.00
480.70	12315.90
480.88	11962.48
481.06	12332.28
481.24	12341.64
481.41	12671.66
481.59	12760.60
481.77	12954.87
481.95	12776.98
482.13	12812.09
482.31	13081.25
482.49	13062.53
482.67	13312.97
482.85	13376.16
483.03	13432.33
483.21	13792.78
483.39	13619.58
483.57	13703.84
483.74	14050.24
483.92	14005.77
484.10	13692.13
484.28	14232.80
484.46	14513.66
484.64	14597.92
484.82	14303.01
485.00	14576.86
485.18	14672.82
485.35	15112.84
485.53	14930.28
485.71	15009.86
485.89	15157.31
486.07	15382.00
486.25	15374.98
486.43	15246.25
486.61	15749.46
486.78	15651.16
486.96	15644.14
487.14	15915.64
487.32	15843.09
487.50	16189.49
487.68	16397.79
487.85	16507.80
488.03	16470.35
488.21	16875.26
488.39	16879.94
488.57	17050.80
488.75	17174.85
488.92	17006.33
489.10	17418.27
489.28	17518.91
489.46	17921.48
489.64	17734.24
489.81	17998.72
489.99	18101.70
490.17	18218.73
490.35	18132.13
490.53	18417.68
490.70	18764.07
490.88	18370.86
491.06	18803.86
491.24	18492.57
491.41	18752.37
491.59	19381.98
491.77	19047.28
491.95	19234.52
492.13	19674.54
492.30	19218.14
492.48	19318.78
492.66	19810.29
492.84	19896.89
493.01	19953.07
493.19	20357.98
493.37	20147.33
493.54	20573.31
493.72	20746.51
493.90	20350.96
494.08	20669.27
494.25	20765.23
494.43	20917.37
494.61	20973.54
494.79	21256.75
494.96	21184.19
495.14	21376.11
495.32	21223.98
495.49	21633.57
495.67	21504.84
495.85	21919.12
496.02	22195.30
496.20	22267.86
496.38	22188.28
496.55	22183.60
496.73	22773.41
496.91	22588.51
497.09	22677.45
497.26	23002.78
497.44	22597.87
497.62	23033.21
497.79	23096.41
497.97	23089.38
498.14	23056.62
498.32	23639.41
498.50	23651.11
498.67	23711.97
498.85	23728.35
499.03	24236.25
499.20	23679.20
499.38	23953.04
499.56	24294.76
499.73	24212.84
499.91	24264.33
500.08	24582.65
500.26	24393.06
500.44	24287.74
500.61	24720.74
500.79	24484.34
500.97	24842.45
501.14	24980.54
501.32	25046.07
501.49	25013.31
501.67	24971.18
501.84	25462.69
502.02	25362.04
502.20	25322.26
502.37	25359.70
502.55	25771.64
502.72	25762.28
502.90	25848.88
503.07	25565.67
503.25	26218.68
503.43	25773.98
503.60	26059.52
503.78	26265.49
503.95	26001.01
504.13	26225.70
504.30	26504.23
504.48	26579.12
504.65	26824.88
504.83	26871.69
505.01	27152.55
505.18	27000.42
505.36	27084.68
505.53	27246.18
505.71	27180.64
505.88	27342.14
506.06	27065.96
506.23	27388.95
506.41	27047.23
506.58	27372.57
506.76	27821.95
506.93	27651.09
507.11	27814.93
507.28	28112.17
507.46	28203.46
507.63	28292.40
507.81	28240.90
507.98	28357.93
508.16	28278.35
508.33	28343.89
508.50	28535.81
508.68	28493.68
508.85	28833.06
509.03	28610.71
509.20	29008.60
509.38	29376.06
509.55	28917.32
509.73	28903.28
509.90	29479.05
510.08	29046.05
510.25	29064.77
510.42	29450.96
510.60	29425.22
510.77	29626.50
510.95	30113.33
511.12	29757.57
511.30	29797.36
511.47	30092.27
511.64	29984.60
511.82	30118.01
511.99	30075.88
512.17	29759.91
512.34	30103.97
512.51	30604.84
512.69	30469.09
512.86	30363.77
513.04	30689.10
513.21	31033.16
513.38	30890.39
513.56	30946.56
513.73	30766.34
513.90	31028.48
514.08	30848.26
514.25	31213.38
514.43	31639.36
514.60	31559.78
514.77	31807.88
514.95	31681.49
515.12	31477.86
515.29	31695.53
515.47	31779.79
515.64	31828.95
515.81	31555.10
515.99	31833.63
516.16	32294.71
516.33	32112.15
516.51	32346.20
516.68	32044.27
516.85	32266.63
517.03	32694.94
517.20	32470.25
517.37	32224.50
517.54	32395.35
517.72	32566.21
517.89	32996.87
518.06	33057.73
518.24	32662.18
518.41	32943.04
518.58	32575.58
518.75	32861.12
518.93	33120.92
519.10	32968.79
519.27	33259.01
519.45	33244.97
519.62	33509.45
519.79	33223.90
519.96	33474.34
520.14	33418.17
520.31	33495.41
520.48	33404.13
520.65	33799.68
520.83	34457.37
521.00	34192.89
521.17	34033.73
521.34	34146.08
521.52	34455.03
521.69	34401.19
521.86	35105.70
522.03	34464.39
522.20	34401.19
522.38	35037.82
522.55	34476.09
522.72	34918.45
522.89	35040.16
523.07	35166.55
523.24	35037.82
523.41	35281.24
523.58	34719.51
523.75	35201.66
523.92	34986.33
524.10	35115.06
524.27	35323.36
524.44	35150.17
524.61	35831.26
524.78	35253.15
524.96	35716.58
525.13	36226.81
525.30	35866.37
525.47	36053.61
525.64	35681.47
525.81	36376.61
525.98	36081.70
526.16	35810.20
526.33	36156.60
526.50	36245.54
526.67	36514.70
526.84	36388.31
527.01	36261.92
527.18	35964.67
527.36	36437.46
527.53	36732.37
527.70	36608.32
527.87	37081.11
528.04	36596.62
528.21	36760.45
528.38	36762.79
528.55	37116.22
528.72	36786.20
528.89	37275.37
529.07	36938.33
529.24	36701.94
529.41	37148.98
529.58	37268.35
529.75	37258.99
529.92	37261.33
530.09	37551.56
530.26	37497.72
530.43	37703.69
530.60	37425.17
530.77	37710.71
530.94	37631.13
531.11	37675.60
531.28	38040.73
531.46	37701.35
531.63	38005.62
531.80	37907.32
531.97	37710.71
532.14	38124.99
532.31	38234.99
532.48	38370.74
532.65	38192.86
532.82	38223.29
532.99	38485.43
533.16	38433.94
533.33	38600.12
533.50	38614.16
533.67	38721.82
533.84	38204.56
534.01	38616.50
534.18	38789.70
534.35	39110.35
534.52	38925.45
534.69	39267.17
534.86	39091.63
535.03	38979.28
535.20	39304.62
535.37	39225.04
535.54	39262.49
535.71	39185.25
535.88	39454.41
536.05	39168.87
536.22	39433.35
536.38	39566.76
536.55	39559.73
536.72	39494.20
536.89	39227.38
537.06	39459.09
537.23	39840.60
537.40	39222.70
537.57	39229.72
537.74	39108.01
537.91	39754.00
538.08	39971.67
538.25	39995.07
538.42	39608.89
538.59	40109.76
538.75	39824.22
538.92	40212.74
539.09	40802.56
539.26	40350.84
539.43	40334.45
539.60	40238.49
539.77	40399.99
539.94	40755.75
540.11	40622.34
540.28	40634.04
540.44	40634.04
540.61	40655.11
540.78	40236.15
540.95	40451.48
541.12	40662.13
541.29	40332.11
541.46	40622.34
541.62	40701.92
541.79	40942.99
541.96	40456.16
542.13	41020.23
542.30	41060.02
542.47	41050.66
542.63	41361.95
542.80	41345.56
542.97	41291.73
543.14	41806.65
543.31	41361.95
543.48	41235.56
543.64	41879.21
543.81	41647.49
543.98	41933.04
544.15	41509.40
544.32	41720.05
544.48	42033.68
544.65	42108.58
544.82	42075.81
544.99	41914.31
545.16	42096.88
545.32	41963.46
545.49	42249.01
545.66	42651.58
545.83	41998.57
546.00	42094.53
546.16	42328.59
546.33	41970.49
546.50	42246.67
546.67	42841.17
546.83	41701.32
547.00	42181.13
547.17	42412.85
547.34	42436.25
547.50	42691.37
547.67	43023.73
547.84	42277.10
548.00	42941.81
548.17	42944.15
548.34	42824.78
548.51	42862.23
548.67	43035.43
548.84	43152.46
549.01	43009.68
549.18	42878.61
549.34	43229.69
549.51	43491.83
549.68	43531.62
549.84	43386.51
550.01	43285.87
550.18	42719.46
550.34	43079.90
550.51	43138.41
550.68	43992.71
550.84	42988.62
551.01	43199.27
551.18	43236.72
551.34	43342.04
551.51	43590.14
551.68	43711.84
551.84	43686.10
552.01	43585.46
552.18	43856.96
552.34	43360.76
552.51	43807.81
552.68	43550.35
552.84	43952.92
553.01	44041.86
553.18	43381.83
553.34	43861.64
553.51	44020.80
553.67	44322.72
553.84	44046.54
554.01	44212.72
554.17	44194.00
554.34	44589.55
554.51	43948.24
554.67	44081.65
554.84	44566.14
555.00	44442.09
555.17	44144.84
555.33	44664.44
555.50	44098.03
555.67	44264.21
555.83	44664.44
556.00	44634.02
556.16	45137.23
556.33	44486.56
556.50	44575.50
556.66	44896.16
556.83	44666.78
556.99	44924.24
557.16	44947.65
557.32	45095.10
557.49	44928.92
557.65	44659.76
557.82	44818.92
557.98	44727.64
558.15	44474.86
558.32	44940.63
558.48	44451.45
558.65	45207.45
558.81	45205.11
558.98	45067.02
559.14	44659.76
559.31	44978.07
559.47	45059.99
559.64	45127.87
559.80	45031.91
559.97	45553.85
560.13	44921.90
560.30	45064.67
560.46	45394.69
560.63	45635.77
560.79	45502.35
560.96	45399.37
561.12	45139.57
561.29	45556.19
561.45	45347.88
561.61	45366.60
561.78	45216.81
561.94	45713.00
562.11	45373.63
562.27	45116.17
562.44	45188.72
562.60	45649.81
562.77	45219.15
562.93	45148.93
563.10	45729.39
563.26	45551.51
563.42	45769.18
563.59	45780.88
563.75	45652.15
563.92	45654.49
564.08	45902.59
564.24	45811.31
564.41	45539.80
564.57	45626.40
564.74	45848.75
564.90	45720.02
565.07	45769.18
565.23	45921.31
565.39	46167.07
565.56	45947.06
565.72	45689.60
565.88	45998.55
566.05	45872.16
566.21	45691.94
566.38	46110.89
566.54	46225.58
566.70	45970.46
566.87	46012.59
567.03	45453.20
567.19	46525.17
567.36	46241.96
567.52	46361.33
567.68	46546.23
567.85	46426.87
568.01	46122.60
568.17	45928.33
568.34	46218.56
568.50	46129.62
568.66	46146.00
568.83	46120.26
568.99	45909.61
569.15	46110.89
569.32	45993.87
569.48	45911.95
569.64	46499.42
569.81	46356.65
569.97	46101.53
570.13	46319.20
570.30	46394.10
570.46	46660.92
570.62	46548.57
570.78	46457.29
570.95	46557.94
571.11	46508.79
571.27	46160.05
571.43	46248.99
571.60	46679.64
571.76	46700.71
571.92	46192.81
572.09	46225.58
572.25	45801.94
572.41	46057.06
572.57	46576.66
572.74	46719.43
572.90	46487.72
573.06	46703.05
573.22	46560.28
573.38	46492.40
573.55	46534.53
573.71	46674.96
573.87	46670.28
574.03	46412.82
574.20	47061.15
574.36	46485.38
574.52	46686.67
574.68	46443.25
574.84	46436.23
575.01	46766.24
575.17	46768.58
575.33	46457.29
575.49	46546.23
575.65	46951.15
575.82	46508.79
575.98	46686.67
576.14	46712.41
576.30	47215.63
576.46	46670.28
576.62	46672.62
576.79	46899.65
576.95	46501.76
577.11	46571.98
577.27	46632.83
577.43	46583.68
577.59	46836.46
577.75	46948.81
577.92	46480.70
578.08	46703.05
578.24	46822.42
578.40	47210.95
578.56	47019.02
578.72	46777.95
578.88	46997.96
579.04	46920.72
579.21	46866.89
579.37	46824.76
579.53	46843.48
579.69	46859.87
579.85	46366.01
580.01	46892.63
580.17	46639.86
580.33	46937.10
580.49	47430.96
580.65	47033.07
580.82	47065.83
580.98	46962.85
581.14	46340.27
581.30	47089.24
581.46	46279.41
581.62	47143.07
581.78	46810.71
581.94	47075.19
582.10	46803.69
582.26	46967.53
582.42	46948.81
582.58	47012.00
582.74	46951.15
582.90	47061.15
583.06	47082.22
583.22	47063.49
583.38	46986.25
583.54	47477.77
583.70	47395.85
583.86	47049.45
584.02	46829.44
584.18	47365.42
584.34	47145.41
584.50	47318.61
584.66	47140.73
584.82	46960.51
584.98	47246.05
585.14	47344.36
585.30	46539.21
585.46	46820.08
585.62	47000.30
585.78	46590.70
585.94	46768.58
586.10	46527.51
586.26	47004.98
586.42	47182.86
586.58	46993.28
586.74	47173.50
586.90	46672.62
587.06	46960.51
587.22	47264.78
587.38	46876.25
587.54	46941.78
587.70	47737.57
587.86	47194.56
588.02	47196.90
588.18	47466.06
588.34	46726.46
588.49	47145.41
588.65	47491.81
588.81	46972.21
588.97	47657.99
589.13	47164.14
589.29	46955.83
589.45	47419.25
589.61	47711.82
589.77	47498.83
589.93	47044.77
