SpectraSuite Data File
++++++++++++++++++++++++++++++++++++
Date: Fri Oct 25 11:23:43 EDT 2013
User: price-jones
Dark Spectrum Present: No
Reference Spectrum Present: No
Number of Sampled Component Spectra: 1
Spectrometers: USB2+H05261
Integration Time (usec): 100000 (USB2+H05261)
Spectra Averaged: 1 (USB2+H05261)
Boxcar Smoothing: 0 (USB2+H05261)
Correct for Electrical Dark: No (USB2+H05261)
Strobe/Lamp Enabled: No (USB2+H05261)
Correct for Detector Non-linearity: No (USB2+H05261)
Correct for Stray Light: No (USB2+H05261)
Number of Pixels in Processed Spectrum: 2048
>>>>>Begin Processed Spectral Data<<<<<
365.73	217.67
365.92	217.67
366.12	217.67
366.32	98.30
366.52	159.16
366.72	175.54
366.91	35.11
367.11	49.15
367.31	161.50
367.51	149.79
367.70	105.32
367.90	100.64
368.10	133.41
368.30	212.99
368.49	119.37
368.69	184.90
368.89	238.73
369.09	138.09
369.28	182.56
369.48	142.77
369.68	210.65
369.87	196.60
370.07	152.13
370.27	234.05
370.47	360.44
370.66	648.33
370.86	613.22
371.06	688.12
371.25	704.50
371.45	641.31
371.65	713.86
371.84	671.73
372.04	674.07
372.24	662.37
372.44	645.99
372.63	638.97
372.83	669.39
373.03	650.67
373.22	788.76
373.42	704.50
373.62	786.42
373.81	772.38
374.01	793.44
374.21	807.48
374.40	784.08
374.60	814.51
374.79	866.00
374.99	833.23
375.19	812.17
375.38	868.34
375.58	856.64
375.78	868.34
375.97	894.08
376.17	835.57
376.37	877.70
376.56	905.79
376.76	880.04
376.95	802.80
377.15	821.53
377.35	910.47
377.54	805.14
377.74	875.36
377.93	938.55
378.13	795.78
378.33	943.24
378.52	997.07
378.72	926.85
378.91	887.06
379.11	940.90
379.31	957.28
379.50	912.81
379.70	990.05
379.89	945.58
380.09	931.53
380.28	954.94
380.48	926.85
380.68	1055.58
380.87	950.26
381.07	959.62
381.26	1048.56
381.46	1039.20
381.65	1027.50
381.85	961.96
382.04	1153.88
382.24	1022.81
382.43	1078.99
382.63	1027.50
382.83	1088.35
383.02	1074.31
383.22	1146.86
383.41	1053.24
383.61	1149.20
383.80	1123.46
384.00	1139.84
384.19	1179.63
384.39	1057.92
384.58	1095.37
384.78	1118.78
384.97	1142.18
385.17	1090.69
385.36	1146.86
385.56	1123.46
385.75	1186.65
385.95	1191.33
386.14	1196.01
386.34	1268.57
386.53	1121.12
386.72	1214.74
386.92	1240.48
387.11	1280.27
387.31	1238.14
387.50	1270.91
387.70	1233.46
387.89	1259.21
388.09	1299.00
388.28	1186.65
388.48	1268.57
388.67	1268.57
388.86	1331.76
389.06	1287.29
389.25	1357.51
389.45	1392.62
389.64	1399.64
389.84	1380.92
390.03	1345.81
390.22	1444.11
390.42	1364.53
390.61	1369.21
390.81	1380.92
391.00	1427.73
391.19	1434.75
391.39	1474.54
391.58	1432.41
391.78	1441.77
391.97	1502.62
392.16	1460.49
392.36	1547.09
392.55	1526.03
392.75	1514.33
392.94	1535.39
393.13	1605.61
393.33	1533.05
393.52	1504.96
393.71	1495.60
393.91	1614.97
394.10	1472.20
394.29	1671.14
394.49	1530.71
394.68	1659.44
394.88	1612.63
395.07	1739.02
395.26	1631.35
395.46	1638.38
395.65	1694.55
395.84	1732.00
396.04	1781.15
396.23	1661.78
396.42	1774.13
396.62	1762.42
396.81	1762.42
397.00	1865.41
397.19	1736.68
397.39	1806.89
397.58	1851.36
397.77	1755.40
397.97	1844.34
398.16	1827.96
398.35	1947.33
398.55	1797.53
398.74	1909.88
398.93	1961.37
399.12	1923.92
399.32	1982.43
399.51	1891.15
399.70	1959.03
399.90	2104.14
400.09	1982.43
400.28	2057.33
400.47	2062.01
400.67	2069.03
400.86	2097.12
401.05	2160.31
401.24	2146.27
401.44	2153.29
401.63	2139.25
401.82	2066.69
402.01	2078.40
402.21	2150.95
402.40	2162.66
402.59	2216.49
402.78	2162.66
402.97	2190.74
403.17	2310.11
403.36	2230.53
403.55	2324.15
403.74	2331.17
403.93	2260.96
404.13	2466.92
404.32	2387.35
404.51	2382.67
404.70	2413.09
404.89	2347.56
405.09	2462.24
405.28	2455.22
405.47	2504.37
405.66	2511.39
405.85	2509.05
406.05	2483.31
406.24	2616.72
406.43	2644.81
406.62	2698.64
406.81	2665.87
407.00	2562.89
407.20	2621.40
407.39	2600.34
407.58	2640.12
407.77	2640.12
407.96	2754.81
408.15	2759.49
408.34	2871.84
408.54	2794.60
408.73	2829.71
408.92	2836.73
409.11	2834.39
409.30	2820.35
409.49	2869.50
409.68	2787.58
409.87	2960.78
410.07	3110.57
410.26	3047.38
410.45	3049.72
410.64	3103.55
410.83	3066.10
411.02	3150.36
411.21	3227.60
411.40	3211.22
411.59	3272.07
411.78	3218.24
411.98	3185.47
412.17	3281.43
412.36	3274.41
412.55	3325.90
412.74	3403.14
412.93	3379.73
413.12	3487.40
413.31	3606.77
413.50	3548.25
413.69	3445.27
413.88	3679.32
414.07	3557.61
414.26	3478.04
414.45	3660.60
414.64	3627.83
414.83	3688.68
415.02	3791.67
415.22	3946.14
415.41	3864.22
415.60	3857.20
415.79	3885.29
415.98	4002.32
416.17	4042.11
416.36	4037.42
416.55	4039.76
416.74	4131.05
416.93	4016.36
417.12	4039.76
417.31	4201.26
417.50	4156.79
417.69	4325.31
417.88	4290.20
418.07	4306.59
418.26	4285.52
418.45	4238.71
418.64	4545.32
418.83	4358.08
419.02	4524.26
419.21	4416.59
419.39	4566.39
419.58	4493.83
419.77	4449.36
419.96	4596.81
420.15	4547.66
420.34	4521.92
420.53	4676.39
420.72	4601.49
420.91	4753.63
421.10	4613.20
421.29	4798.10
421.48	4718.52
421.67	4786.40
421.86	4760.65
422.05	4798.10
422.24	4891.72
422.43	4781.71
422.61	4931.51
422.80	5020.45
422.99	4964.28
423.18	4929.17
423.37	4837.89
423.56	5036.83
423.75	4884.70
423.94	4952.57
424.13	4795.76
424.32	4610.86
424.50	4898.74
424.69	5135.14
424.88	5055.56
425.07	4971.30
425.26	4952.57
425.45	4992.36
425.64	4954.91
425.83	4938.53
426.01	5151.52
426.20	4898.74
426.39	5041.51
426.58	4954.91
426.77	5205.35
426.96	5149.18
427.15	5172.58
427.33	5102.37
427.52	5081.30
427.71	5242.80
427.90	5359.83
428.09	5146.84
428.28	5296.63
428.46	5455.79
428.65	5327.06
428.84	5521.32
429.03	5636.01
429.22	5434.72
429.40	5591.54
429.59	5640.69
429.78	5357.49
429.97	5163.22
430.16	5617.29
430.34	5544.73
430.53	5636.01
430.72	5743.67
430.91	5701.54
431.10	5767.08
431.28	5788.14
431.47	5769.42
431.66	5785.80
431.85	5671.12
432.03	5764.74
432.22	5980.07
432.41	5926.24
432.60	5879.43
432.79	6017.52
432.97	5930.92
433.16	6150.93
433.35	5937.94
433.54	6073.69
433.72	6136.88
433.91	6132.20
434.10	6160.29
434.28	6132.20
434.47	6342.85
434.66	6370.94
434.85	6328.81
435.03	6230.51
435.22	6331.15
435.41	6455.20
435.59	6506.69
435.78	6520.73
435.97	6644.78
436.16	6434.13
436.34	6303.06
436.53	6602.65
436.72	6661.16
436.90	6445.84
437.09	6656.48
437.28	6525.41
437.46	6665.85
437.65	6576.91
437.84	6867.13
438.02	6696.27
438.21	6827.34
438.40	6710.32
438.58	7159.70
438.77	7148.00
438.96	6890.54
439.14	6956.07
439.33	7145.66
439.52	7316.51
439.70	7225.23
439.89	7321.20
440.08	7325.88
440.26	7482.69
440.45	7386.73
440.63	7389.07
440.82	7672.28
441.01	7494.40
441.19	7454.61
441.38	7639.51
441.57	7861.86
441.75	7906.33
441.94	7903.99
442.12	7997.61
442.31	7815.05
442.50	8112.30
442.68	7896.97
442.87	8037.40
443.05	8006.97
443.24	8128.68
443.43	8161.45
443.61	8203.58
443.80	8557.00
443.98	8063.15
444.17	7861.86
444.35	8311.24
444.54	8430.61
444.73	8379.12
444.91	8322.94
445.10	8308.90
445.28	8400.18
445.47	8299.54
445.65	8376.78
445.84	8449.33
446.02	8542.96
446.21	8421.25
446.39	8301.88
446.58	8456.36
446.77	8758.28
446.95	8423.59
447.14	8554.66
447.32	8748.92
447.51	8545.30
447.69	8683.39
447.88	8397.84
448.06	8407.20
448.25	8428.27
448.43	8468.06
448.62	8318.26
448.80	8793.39
448.99	8521.89
449.17	8706.79
449.36	8599.13
449.54	8758.28
449.73	8933.82
449.91	8877.65
450.10	8781.69
450.28	9025.11
450.46	9041.49
450.65	8957.23
450.83	8980.64
451.02	9118.73
451.20	9259.16
451.39	9179.58
451.57	9275.54
451.76	9015.74
451.94	9121.07
452.13	9521.30
452.31	9394.91
452.49	9064.89
452.68	9315.33
452.86	9221.71
453.05	9406.61
453.23	9643.01
453.42	9144.47
453.60	9425.34
453.78	9586.83
453.97	9563.43
454.15	9654.71
454.34	9322.35
454.52	9701.52
454.70	9734.29
454.89	9888.76
455.07	9703.86
455.26	9753.01
455.44	9982.38
455.62	9944.94
455.81	9851.31
455.99	10211.76
456.17	10033.88
456.36	10155.58
456.54	10115.80
456.73	10246.87
456.91	10565.18
457.09	10312.40
457.28	10555.82
457.46	10490.28
457.64	10724.33
457.83	10389.64
458.01	10452.83
458.19	10789.87
458.38	10354.53
458.56	10832.00
458.74	10736.04
458.93	10689.23
459.11	10850.72
459.29	10778.17
459.48	10773.49
459.66	10719.65
459.84	10902.22
460.03	11014.56
460.21	11164.36
460.39	11059.03
460.57	11042.65
460.76	11279.04
460.94	11150.31
461.12	11255.64
461.31	11412.45
461.49	11272.02
461.67	11332.87
461.85	11398.41
462.04	11279.04
462.22	11580.97
462.40	11655.87
462.59	11269.68
462.77	11520.12
462.95	11726.08
463.13	11623.10
463.32	11555.22
463.50	11772.89
463.68	11868.86
463.86	11885.24
464.05	11658.21
464.23	11580.97
464.41	11857.15
464.59	11702.68
464.78	12070.14
464.96	12100.57
465.14	12053.76
465.32	11786.94
465.50	12208.23
465.69	12400.16
465.87	12006.95
466.05	12409.52
466.23	12119.29
466.41	12280.79
466.60	12549.95
466.78	12248.02
466.96	12166.10
467.14	12145.04
467.32	12608.47
467.51	12643.57
467.69	12180.15
467.87	12386.12
468.05	12704.43
468.23	12477.40
468.41	12594.42
468.60	12692.73
468.78	12652.94
468.96	12542.93
469.14	13064.87
469.32	12812.09
469.50	12617.83
469.69	13081.25
469.87	12959.55
470.05	13235.73
470.23	13305.95
470.41	13172.54
470.59	13296.58
470.77	13217.01
470.95	13205.30
471.14	13528.30
471.32	13280.20
471.50	13745.97
471.68	13731.92
471.86	13652.34
472.04	13521.27
472.22	14094.71
472.40	13891.08
472.58	13933.21
472.77	13872.36
472.95	14090.02
473.13	14773.46
473.31	14190.67
473.49	14434.08
473.67	14279.61
473.85	14303.01
474.03	14637.71
474.21	15005.17
474.39	14965.39
474.57	14839.00
474.75	15143.27
474.93	14899.85
475.12	15044.96
475.30	15227.53
475.48	15293.06
475.66	15080.07
475.84	15187.74
476.02	15552.86
476.20	15325.83
476.38	15843.09
476.56	16009.26
476.74	16091.18
476.92	15995.22
477.10	16074.80
477.28	16212.89
477.46	16229.27
477.64	16505.46
477.82	16655.25
478.00	16585.04
478.18	16706.74
478.36	16938.46
478.54	17411.25
478.72	17212.30
478.90	17408.90
479.08	17614.87
479.26	17879.35
479.44	18026.81
479.62	17862.97
479.80	18043.19
479.98	18174.26
480.16	18991.11
480.34	18520.66
480.52	18553.43
480.70	18462.15
480.88	18356.82
481.06	18904.51
481.24	18698.54
481.41	19344.53
481.59	19344.53
481.77	19477.94
481.95	19487.30
482.13	19737.74
482.31	19506.02
482.49	20484.37
482.67	20222.23
482.85	20573.31
483.03	20905.66
483.21	20840.13
483.39	20760.55
483.57	20936.09
483.74	21448.67
483.92	21081.21
484.10	21294.19
484.28	21675.70
484.46	22008.06
484.64	22595.53
484.82	22012.74
485.00	22497.23
485.18	22686.81
485.35	22754.69
485.53	23147.90
485.71	23314.08
485.89	23400.68
486.07	23484.94
486.25	23604.30
486.43	23501.32
486.61	24086.45
486.78	24332.21
486.96	24341.57
487.14	24552.22
487.32	24554.56
487.50	25242.68
487.68	25247.36
487.85	25373.75
488.03	25783.34
488.21	26045.48
488.39	26040.80
488.57	26160.17
488.75	26288.90
488.92	26597.85
489.10	26735.94
489.28	26735.94
489.46	27283.62
489.64	27381.93
489.81	27637.05
489.99	27630.02
490.17	27946.00
490.35	28144.94
490.53	28308.78
490.70	28472.62
490.88	28388.36
491.06	28833.06
491.24	28734.76
491.41	29340.96
491.59	29633.52
491.77	29759.91
491.95	29652.25
492.13	29830.13
492.30	30136.74
492.48	29940.13
492.66	30377.81
492.84	30572.08
493.01	30462.07
493.19	30686.76
493.37	31417.01
493.54	31194.66
493.72	31356.16
493.90	31688.51
494.08	32074.70
494.25	32327.48
494.43	32072.36
494.61	32645.79
494.79	32699.62
494.96	32474.93
495.14	32797.93
495.32	33280.08
495.49	33347.95
495.67	33331.57
495.85	33867.55
496.02	33921.38
496.20	33970.54
496.38	34417.58
496.55	34075.86
496.73	34899.73
496.91	34597.80
497.09	34719.51
497.26	35424.01
497.44	35433.37
497.62	35475.50
497.79	35768.07
497.97	35428.69
498.14	35864.03
498.32	36041.91
498.50	36308.73
498.67	36437.46
498.85	36641.09
499.03	36720.66
499.20	36608.32
499.38	36802.58
499.56	36914.93
499.73	37691.99
499.91	37926.04
500.08	38012.64
500.26	37350.27
500.44	38031.36
500.61	37811.35
500.79	37457.93
500.97	38148.39
501.14	38892.68
501.32	38721.82
501.49	38452.66
501.67	38990.98
501.84	39152.48
502.02	38960.56
502.20	38906.73
502.37	39431.01
502.55	39531.65
502.72	39599.52
502.90	39576.12
503.07	39445.05
503.25	40041.88
503.43	40449.14
503.60	40023.16
503.78	40465.52
503.95	40194.02
504.13	40685.53
504.30	40701.92
504.48	40980.44
504.65	40900.86
504.83	41209.81
505.01	41511.74
505.18	41483.66
505.36	41956.44
505.53	41373.65
505.71	41813.67
505.88	42148.37
506.06	41352.58
506.23	42412.85
506.41	42059.43
506.58	42429.23
506.76	42321.57
506.93	42581.37
507.11	42799.04
507.28	43150.12
507.46	42763.93
507.63	43157.14
507.81	43615.88
507.98	43379.49
508.16	43335.02
508.33	43482.47
508.50	43449.70
508.68	43854.62
508.85	43999.73
509.03	43959.94
509.20	43889.73
509.38	44584.86
509.55	44704.23
509.73	44701.89
509.90	45113.83
510.08	44732.32
510.25	44535.71
510.42	44680.83
510.60	45186.38
510.77	45118.51
510.95	45647.47
511.12	45500.01
511.30	45755.13
511.47	45354.90
511.64	45595.98
511.82	46073.45
511.99	45703.64
512.17	46026.63
512.34	46089.83
512.51	46543.89
512.69	46398.78
512.86	46623.47
513.04	46873.91
513.21	47014.34
513.38	47051.79
513.56	47124.35
513.73	46728.80
513.90	47061.15
514.08	46717.09
514.25	47707.14
514.43	47779.70
514.60	47480.11
514.77	47763.31
514.95	48053.54
515.12	47814.80
515.29	47950.56
515.47	48051.20
515.64	48385.89
515.81	47941.19
515.99	48266.53
516.16	48772.08
516.33	48140.14
516.51	48758.04
516.68	48687.82
516.85	48928.90
517.03	48989.75
517.20	49095.08
517.37	48652.72
517.54	49382.96
517.72	49432.11
517.89	49013.16
518.06	49375.94
518.24	49099.76
518.41	49612.34
518.58	49815.96
518.75	49443.82
518.93	49661.49
519.10	49703.62
519.27	50031.29
519.45	49764.47
519.62	50312.16
519.79	50309.82
519.96	50225.56
520.14	50073.42
520.31	50286.41
520.48	50766.22
520.65	50391.73
520.83	50927.72
521.00	50850.48
521.17	51023.68
521.34	50768.56
521.52	51147.73
521.69	50904.31
521.86	51360.72
522.03	51636.90
522.20	51613.49
522.38	51320.93
522.55	51594.77
522.72	51437.95
522.89	51370.08
523.07	51730.52
523.24	51452.00
523.41	51936.49
523.58	51564.34
523.75	52130.75
523.92	51978.62
524.10	52123.73
524.27	52135.43
524.44	52371.83
524.61	52172.88
524.78	52325.02
524.96	52151.82
525.13	52348.42
525.30	52659.71
525.47	52687.80
525.64	52463.11
525.81	53099.73
525.98	52795.46
526.16	52706.52
526.33	52828.23
526.50	53069.31
526.67	52739.29
526.84	53193.36
527.01	52942.92
527.18	52961.64
527.36	53160.59
527.53	53034.20
527.70	53528.05
527.87	53415.71
528.04	53162.93
528.21	53539.75
528.38	53553.80
528.55	53499.97
528.72	53609.97
528.89	53570.18
529.07	53404.00
529.24	53549.12
529.41	54033.61
529.58	53633.38
529.75	53792.53
529.92	53839.34
530.09	53989.14
530.26	54035.95
530.43	54117.87
530.60	53724.66
530.77	54040.63
530.94	54422.14
531.11	54253.62
531.28	54433.84
531.46	54115.53
531.63	54635.13
531.80	54248.94
531.97	54850.45
532.14	54543.84
532.31	54590.66
532.48	54646.83
532.65	54946.42
532.82	54878.54
532.99	54995.57
533.16	54506.40
533.33	55023.65
533.50	55274.09
533.67	54869.18
533.84	54958.12
534.01	54894.92
534.18	55154.72
534.35	55351.33
534.52	55346.65
534.69	55374.73
534.86	55210.90
535.03	55164.09
535.20	55449.63
535.37	55470.70
535.54	55674.32
535.71	55444.95
535.88	55529.21
536.05	55667.30
536.22	55824.12
536.38	55686.03
536.55	55592.40
536.72	55540.91
536.89	55618.15
537.06	55978.59
537.23	56002.00
537.40	55791.35
537.57	55800.71
537.74	55796.03
537.91	56048.81
538.08	56236.05
538.25	55969.23
538.42	55880.29
538.59	56238.39
538.75	55999.66
538.92	56086.26
539.09	56411.59
539.26	56404.57
539.43	56013.70
539.60	56081.58
539.77	56423.29
539.94	56748.63
540.11	56491.17
540.28	56598.83
540.44	56568.41
540.61	56699.48
540.78	56502.87
540.95	56371.80
541.12	56509.89
541.29	56615.22
541.46	56413.93
541.62	56683.09
541.79	56643.30
541.96	56523.94
542.13	56718.20
542.30	56912.47
542.47	56942.89
542.63	57172.27
542.80	57071.62
542.97	57219.08
543.14	57340.78
543.31	57443.77
543.48	57382.91
543.64	57312.70
543.81	57464.83
543.98	57600.58
544.15	57429.72
544.32	57549.09
544.48	57883.79
544.65	57563.14
544.82	57497.60
544.99	57584.20
545.16	57750.38
545.32	57448.45
545.49	57797.19
545.66	57890.81
545.83	57862.72
546.00	57836.98
546.16	57876.77
546.33	57705.91
546.50	57591.22
546.67	57939.96
546.83	57649.74
547.00	57794.85
547.17	57705.91
547.34	57946.98
547.50	57937.62
547.67	58171.67
547.84	58321.47
548.00	58197.42
548.17	58319.13
548.34	58082.73
548.51	58443.18
548.67	58202.10
548.84	58375.30
549.01	58241.89
549.18	58262.96
549.34	58412.75
549.51	58293.38
549.68	58494.67
549.84	58459.56
550.01	58461.90
550.18	58174.02
550.34	58651.48
550.51	58639.78
550.68	58679.57
550.84	58370.62
551.01	58607.01
551.18	58805.96
551.34	58592.97
551.51	58611.70
551.68	58562.54
551.84	58782.55
552.01	58625.74
552.18	58651.48
552.34	58602.33
552.51	58721.70
552.68	58747.45
552.84	58747.45
553.01	59032.99
553.18	59054.06
553.34	58890.22
553.51	58958.09
553.67	58932.35
553.84	59014.27
554.01	58997.88
554.17	59075.12
554.34	59112.57
554.51	58976.82
554.67	59278.75
554.84	59161.72
555.00	59220.23
555.17	59248.32
555.33	59138.32
555.50	58930.01
555.67	59098.53
555.83	59058.74
556.00	59313.86
556.16	59573.66
556.33	59306.83
556.50	59531.53
556.66	59442.59
556.83	59201.51
556.99	59533.87
557.16	59622.81
557.32	59554.93
557.49	59737.49
557.65	59241.30
557.82	59671.96
557.98	59402.80
558.15	59550.25
558.32	59767.92
558.48	59463.65
558.65	59386.41
558.81	59632.17
558.98	59540.89
559.14	59796.01
559.31	59716.43
559.47	59807.71
559.64	59894.31
559.80	59824.09
559.97	59976.23
560.13	59767.92
560.30	59634.51
560.46	59688.34
560.63	59994.95
560.79	59859.20
560.96	59800.69
561.12	60109.64
561.29	59957.50
561.45	59976.23
561.61	59882.61
561.78	59962.18
561.94	59671.96
562.11	59894.31
562.27	60046.44
562.44	60158.79
562.60	60088.57
562.77	60128.36
562.93	59821.75
563.10	60156.45
563.26	60018.36
563.42	60329.65
563.59	60170.49
563.75	60163.47
563.92	60069.85
564.08	60296.88
564.24	60212.62
564.41	60179.85
564.57	60161.13
564.74	60207.94
564.90	60280.50
565.07	60339.01
565.23	60296.88
565.39	60360.08
565.56	60114.32
565.72	60034.74
565.88	60420.93
566.05	60196.24
566.21	60121.34
566.38	60310.92
566.54	60282.84
566.70	60636.26
566.87	60584.77
567.03	60392.84
567.19	60430.29
567.36	60364.76
567.52	60458.38
567.68	60701.79
567.85	60367.10
568.01	60460.72
568.17	60343.69
568.34	60589.45
568.50	60409.23
568.66	60467.74
568.83	60533.28
568.99	60704.13
569.15	60619.88
569.32	60371.78
569.48	60432.63
569.64	60856.27
569.81	60617.53
569.97	60444.33
570.13	60406.89
570.30	60385.82
570.46	60849.25
570.62	60596.47
570.78	60690.09
570.95	60640.94
571.11	60743.92
571.27	60584.77
571.43	60666.69
571.60	60781.37
571.76	60694.77
571.92	60743.92
572.09	60783.71
572.25	60603.49
572.41	60547.32
572.57	60622.22
572.74	60980.32
572.90	60505.19
573.06	60818.82
573.22	60776.69
573.38	60657.32
573.55	60720.52
573.71	60830.52
573.87	60804.78
574.03	60790.73
574.20	60851.59
574.36	60608.17
574.52	60877.33
574.68	60755.63
574.84	60797.76
575.01	60886.70
575.17	60865.63
575.33	60889.04
575.49	60750.94
575.65	60800.10
575.82	60830.52
575.98	60938.19
576.14	60882.02
576.30	60942.87
576.46	60879.67
576.62	60832.86
576.79	60945.21
576.95	60814.14
577.11	60797.76
577.27	60849.25
577.43	60825.84
577.59	60940.53
577.75	60800.10
577.92	60828.18
578.08	60779.03
578.24	60844.57
578.40	61092.66
578.56	61219.05
578.72	60893.72
578.88	61146.50
579.04	61329.06
579.21	60947.55
579.37	61132.45
579.53	61076.28
579.69	60772.01
579.85	61027.13
580.01	60872.65
580.17	60835.20
580.33	61083.30
580.49	61200.33
580.65	60870.31
580.82	60949.89
580.98	60795.42
581.14	60725.20
581.30	61123.09
581.46	61017.77
581.62	61078.62
581.78	61048.19
581.94	61160.54
582.10	60940.53
582.26	61085.64
582.42	60889.04
582.58	61003.72
582.74	61024.79
582.90	60987.34
583.06	61109.05
583.22	60853.93
583.38	61038.83
583.54	60807.12
583.70	60945.21
583.86	61268.20
584.02	61062.24
584.18	61116.07
584.34	61113.73
584.50	61118.41
584.66	60933.51
584.82	60711.16
584.98	61169.90
585.14	61226.07
585.30	60835.20
585.46	61179.26
585.62	61141.81
585.78	61291.61
585.94	60970.96
586.10	60999.04
586.26	60982.66
586.42	61041.17
586.58	61181.60
586.74	61113.73
586.90	61087.98
587.06	61057.56
587.22	61338.42
587.38	61132.45
587.54	61261.18
587.70	61513.96
587.86	61237.78
588.02	60994.36
588.18	61322.04
588.34	61024.79
588.49	61202.67
