SpectraSuite Data File
++++++++++++++++++++++++++++++++++++
Date: Fri Oct 25 10:47:22 EDT 2013
User: price-jones
Dark Spectrum Present: No
Reference Spectrum Present: No
Number of Sampled Component Spectra: 1
Spectrometers: USB2+H05261
Integration Time (usec): 100000 (USB2+H05261)
Spectra Averaged: 1 (USB2+H05261)
Boxcar Smoothing: 0 (USB2+H05261)
Correct for Electrical Dark: No (USB2+H05261)
Strobe/Lamp Enabled: No (USB2+H05261)
Correct for Detector Non-linearity: No (USB2+H05261)
Correct for Stray Light: No (USB2+H05261)
Number of Pixels in Processed Spectrum: 2048
>>>>>Begin Processed Spectral Data<<<<<
365.73	121.71
365.92	121.71
366.12	121.71
366.32	107.66
366.52	84.26
366.72	58.51
366.91	0.00
367.11	23.41
367.31	0.00
367.51	21.06
367.70	18.72
367.90	42.13
368.10	39.79
368.30	32.77
368.49	25.75
368.69	9.36
368.89	44.47
369.09	37.45
369.28	16.38
369.48	32.77
369.68	81.92
369.87	84.26
370.07	114.69
370.27	191.92
370.47	177.88
370.66	346.40
370.86	365.12
371.06	428.32
371.25	489.17
371.45	416.62
371.65	395.55
371.84	421.30
372.04	418.96
372.24	437.68
372.44	477.47
372.63	531.30
372.83	491.51
373.03	531.30
373.22	550.03
373.42	543.00
373.62	486.83
373.81	444.70
374.01	601.52
374.21	482.15
374.40	547.69
374.60	603.86
374.79	547.69
374.99	528.96
375.19	596.84
375.38	552.37
375.58	554.71
375.78	566.41
375.97	559.39
376.17	615.56
376.37	510.24
376.56	573.43
376.76	566.41
376.95	599.18
377.15	643.65
377.35	653.01
377.54	674.07
377.74	585.13
377.93	629.60
378.13	585.13
378.33	690.46
378.52	589.82
378.72	692.80
378.91	596.84
379.11	547.69
379.31	629.60
379.50	578.11
379.70	641.31
379.89	720.88
380.09	713.86
380.28	622.58
380.48	718.54
380.68	681.10
380.87	655.35
381.07	692.80
381.26	739.61
381.46	643.65
381.65	706.84
381.85	561.73
382.04	695.14
382.24	676.41
382.43	688.12
382.63	702.16
382.83	667.05
383.02	704.50
383.22	706.84
383.41	709.18
383.61	697.48
383.80	770.04
384.00	760.67
384.19	765.36
384.39	720.88
384.58	770.04
384.78	746.63
384.97	725.57
385.17	746.63
385.36	795.78
385.56	741.95
385.75	791.10
385.95	744.29
386.14	770.04
386.34	734.93
386.53	805.14
386.72	758.33
386.92	760.67
387.11	840.25
387.31	737.27
387.50	751.31
387.70	748.97
387.89	748.97
388.09	884.72
388.28	814.51
388.48	851.96
388.67	847.27
388.86	880.04
389.06	814.51
389.25	889.40
389.45	945.58
389.64	873.02
389.84	866.00
390.03	884.72
390.22	987.71
390.42	943.24
390.61	894.08
390.81	889.40
391.00	980.68
391.19	940.90
391.39	964.30
391.58	954.94
391.78	959.62
391.97	971.32
392.16	936.21
392.36	943.24
392.55	997.07
392.75	1011.11
392.94	1088.35
393.13	1055.58
393.33	1013.45
393.52	990.05
393.71	1006.43
393.91	1083.67
394.10	1036.86
394.29	1104.73
394.49	1100.05
394.68	1027.50
394.88	1039.20
395.07	1130.48
395.26	1142.18
395.46	1142.18
395.65	1018.13
395.84	1036.86
396.04	1200.69
396.23	1076.65
396.42	1086.01
396.62	1160.91
396.81	1167.93
397.00	1132.82
397.19	1156.22
397.39	1104.73
397.58	1221.76
397.77	1240.48
397.97	1282.61
398.16	1324.74
398.35	1259.21
398.55	1261.55
398.74	1247.51
398.93	1390.28
399.12	1362.19
399.32	1345.81
399.51	1376.24
399.70	1474.54
399.90	1341.13
400.09	1383.26
400.28	1476.88
400.47	1423.05
400.67	1406.66
400.86	1446.45
401.05	1530.71
401.24	1439.43
401.44	1432.41
401.63	1558.80
401.82	1540.07
402.01	1530.71
402.21	1556.46
402.40	1561.14
402.59	1497.94
402.78	1446.45
402.97	1589.22
403.17	1600.93
403.36	1591.56
403.55	1565.82
403.74	1636.03
403.93	1629.01
404.13	1680.50
404.32	1589.22
404.51	1626.67
404.70	1717.95
404.89	1739.02
405.09	1802.21
405.28	1762.42
405.47	1703.91
405.66	1657.10
405.85	1755.40
406.05	1778.81
406.24	1823.28
406.43	1823.28
406.62	1823.28
406.81	1856.04
407.00	1806.89
407.20	1884.13
407.39	1893.49
407.58	1980.09
407.77	1923.92
407.96	1874.77
408.15	2005.84
408.34	1914.56
408.54	1912.22
408.73	1998.82
408.92	2092.44
409.11	1996.48
409.30	2022.22
409.49	1926.26
409.68	2083.08
409.87	2019.88
410.07	2141.59
410.26	2179.04
410.45	2146.27
410.64	2085.42
410.83	2176.70
411.02	2148.61
411.21	2267.98
411.40	2256.28
411.59	2260.96
411.78	2289.04
411.98	2221.17
412.17	2368.62
412.36	2293.72
412.55	2399.05
412.74	2403.73
412.93	2553.52
413.12	2375.64
413.31	2534.80
413.50	2480.97
413.69	2668.21
413.88	2633.10
414.07	2558.21
414.26	2534.80
414.45	2602.68
414.64	2623.74
414.83	2640.12
415.02	2663.53
415.22	2738.43
415.41	2733.75
415.60	2785.24
415.79	2888.22
415.98	2799.28
416.17	2848.43
416.36	2869.50
416.55	2895.24
416.74	3026.31
416.93	2780.56
417.12	2799.28
417.31	3080.14
417.50	3087.17
417.69	3019.29
417.88	3080.14
418.07	3070.78
418.26	3129.30
418.45	3080.14
418.64	3288.45
418.83	3049.72
419.02	3180.79
419.21	3145.68
419.39	3262.71
419.58	3162.06
419.77	3023.97
419.96	3267.39
420.15	3318.88
420.34	3304.84
420.53	3346.97
420.72	3398.46
420.91	3335.26
421.10	3421.86
421.29	3478.04
421.48	3386.76
421.67	3358.67
421.86	3384.41
422.05	3463.99
422.24	3410.16
422.43	3339.94
422.61	3501.44
422.80	3424.20
422.99	3574.00
423.18	3501.44
423.37	3529.53
423.56	3421.86
423.75	3496.76
423.94	3463.99
424.13	3272.07
424.32	3417.18
424.50	3747.20
424.69	3543.57
424.88	3541.23
425.07	3438.25
425.26	3555.27
425.45	3552.93
425.64	3623.15
425.83	3503.78
426.01	3728.47
426.20	3623.15
426.39	3574.00
426.58	3630.17
426.77	3552.93
426.96	3597.40
427.15	3735.50
427.33	3693.37
427.52	3637.19
427.71	3592.72
427.90	3705.07
428.09	3545.91
428.28	3768.26
428.46	3796.35
428.65	3735.50
428.84	3751.88
429.03	3943.80
429.22	3719.11
429.40	3824.44
429.59	3850.18
429.78	3569.32
429.97	3625.49
430.16	3681.66
430.34	3754.22
430.53	3880.61
430.72	3803.37
430.91	3990.61
431.10	3840.82
431.28	4175.52
431.47	4070.19
431.66	4327.65
431.85	4072.53
432.03	4236.37
432.22	4287.86
432.41	4283.18
432.60	4161.47
432.79	4285.52
432.97	4191.90
433.16	4332.33
433.35	4339.35
433.54	4152.11
433.72	4138.07
433.91	4325.31
434.10	4255.09
434.28	4409.57
434.47	4414.25
434.66	4461.06
434.85	4430.63
435.03	4610.86
435.22	4376.80
435.41	4652.98
435.59	4545.32
435.78	4751.29
435.97	4615.54
436.16	4587.45
436.34	4493.83
436.53	4489.15
436.72	4774.69
436.90	4557.02
437.09	4706.82
437.28	4601.49
437.46	4636.60
437.65	4629.58
437.84	4636.60
438.02	4692.77
438.21	4737.24
438.40	4662.35
438.58	4849.59
438.77	4891.72
438.96	4915.12
439.14	4945.55
439.33	4980.66
439.52	5053.22
439.70	5050.88
439.89	5142.16
440.08	5273.23
440.26	4999.38
440.45	4990.02
440.63	5277.91
440.82	5331.74
441.01	5228.76
441.19	5455.79
441.38	5526.00
441.57	5551.75
441.75	5483.88
441.94	5748.36
442.12	5504.94
442.31	5746.02
442.50	5671.12
442.68	5633.67
442.87	5736.65
443.05	5717.93
443.24	5657.07
443.43	5621.97
443.61	5809.21
443.80	5909.85
443.98	5750.70
444.17	5554.09
444.35	5687.50
444.54	6008.16
444.73	5741.33
444.91	5909.85
445.10	5781.12
445.28	5823.25
445.47	5823.25
445.65	5895.81
445.84	5884.11
446.02	5921.56
446.21	5966.03
446.39	5767.08
446.58	6052.63
446.77	6015.18
446.95	5954.32
447.14	6078.37
447.32	6129.86
447.51	5895.81
447.69	6029.22
447.88	5944.96
448.06	6001.13
448.25	6092.41
448.43	6195.40
448.62	5989.43
448.80	6071.35
448.99	6076.03
449.17	6183.70
449.36	6202.42
449.54	6118.16
449.73	6356.90
449.91	6382.64
450.10	6452.86
450.28	6342.85
450.46	6497.33
450.65	6532.44
450.83	6473.92
451.02	6459.88
451.20	6312.42
451.39	6427.11
451.57	6462.22
451.76	6370.94
451.94	6494.99
452.13	6476.26
452.31	6370.94
452.49	6438.81
452.68	6588.61
452.86	6441.15
453.05	6485.62
453.23	6581.59
453.42	6647.12
453.60	6590.95
453.78	6752.45
453.97	6682.23
454.15	6663.51
454.34	6726.70
454.52	6738.40
454.70	6677.55
454.89	6780.53
455.07	6878.83
455.26	6736.06
455.44	6974.80
455.62	6918.62
455.81	6967.77
455.99	6897.56
456.17	7222.89
456.36	6993.52
456.54	7225.23
456.73	7176.08
456.91	7248.64
457.09	7269.70
457.28	7564.61
457.46	7171.40
457.64	7396.09
457.83	7342.26
458.01	7094.16
458.19	7456.95
458.38	7346.94
458.56	7461.63
458.74	7346.94
458.93	7307.15
459.11	7391.41
459.29	7428.86
459.48	7449.93
459.66	7538.87
459.84	7625.47
460.03	7791.64
460.21	7569.29
460.39	7634.83
460.57	7489.71
460.76	7686.32
460.94	7611.42
461.12	7875.90
461.31	7700.36
461.49	7730.79
461.67	7875.90
461.85	8051.44
462.04	7955.48
462.22	8360.39
462.40	8128.68
462.59	8009.31
462.77	7967.18
462.95	8025.70
463.13	7882.92
463.32	8311.24
463.50	7943.78
463.68	8056.12
463.86	8224.64
464.05	8100.59
464.23	8023.36
464.41	8191.88
464.59	8245.71
464.78	8381.46
464.96	8180.17
465.14	8278.47
465.32	8222.30
465.50	8468.06
465.69	8421.25
465.87	8423.59
466.05	8318.26
466.23	8341.67
466.41	8271.45
466.60	8540.61
466.78	8271.45
466.96	8327.63
467.14	8449.33
467.32	8578.06
467.51	8720.84
467.69	8367.42
467.87	8676.37
468.05	8610.83
468.23	8507.85
468.41	8524.23
468.60	8760.63
468.78	8610.83
468.96	8674.03
469.14	8650.62
469.32	8833.18
469.50	8648.28
469.69	8870.63
469.87	9034.47
470.05	8917.44
470.23	9018.08
470.41	8978.30
470.59	9207.67
470.77	8884.67
470.95	8985.32
471.14	9242.78
471.32	8940.85
471.50	9259.16
471.68	9378.53
471.86	9280.22
472.04	9434.70
472.22	9699.18
472.40	9373.85
472.58	9612.58
472.77	9495.55
472.95	9722.59
473.13	9827.91
473.31	9715.56
473.49	9617.26
473.67	9446.40
473.85	9769.40
474.03	9895.78
474.21	10057.28
474.39	9870.04
474.57	9923.87
474.75	10186.01
474.93	10036.22
475.12	10218.78
475.30	10246.87
475.48	10244.52
475.66	10246.87
475.84	10314.74
476.02	10345.17
476.20	10312.40
476.38	10520.71
476.56	10796.89
476.74	10836.68
476.92	10827.32
477.10	10595.61
477.28	10918.60
477.46	11094.14
477.64	10967.75
477.82	11379.68
478.00	11440.54
478.18	11346.92
478.36	11562.25
478.54	11550.54
478.72	11655.87
478.90	11641.82
479.08	11908.65
479.26	12006.95
479.44	12035.03
479.62	12226.96
479.80	12149.72
479.98	12470.37
480.16	12353.35
480.34	12372.07
480.52	12519.53
480.70	12526.55
480.88	12519.53
481.06	12741.88
481.24	12795.71
481.41	12833.16
481.59	13153.81
481.77	13202.96
481.95	13296.58
482.13	13221.69
482.31	13233.39
482.49	13640.64
482.67	13415.95
482.85	13675.75
483.03	13797.46
483.21	14132.15
483.39	14122.79
483.57	14092.37
483.74	14317.06
483.92	14342.80
484.10	14202.37
484.28	14581.54
484.46	14916.23
484.64	14860.06
484.82	14661.12
485.00	15075.39
485.18	15040.28
485.35	15218.16
485.53	15197.10
485.71	15133.90
485.89	15564.56
486.07	15477.96
486.25	15487.32
486.43	15639.46
486.61	15864.15
486.78	16170.76
486.96	16126.29
487.14	16086.50
487.32	16285.45
487.50	16388.43
487.68	16418.86
487.85	16802.71
488.03	17029.74
488.21	17083.57
488.39	17060.16
488.57	17186.55
488.75	17411.25
488.92	17483.80
489.10	17731.90
489.28	17832.54
489.46	18277.24
489.64	18045.53
489.81	18394.27
489.99	18480.87
490.17	18597.90
490.35	18590.88
490.53	18462.15
490.70	18801.52
490.88	19206.44
491.06	19358.57
491.24	18890.46
491.41	19129.20
491.59	19199.41
491.77	19262.61
491.95	19435.81
492.13	19662.84
492.30	19786.89
492.48	19927.32
492.66	20102.86
492.84	19969.45
493.01	20175.42
493.19	20547.56
493.37	20657.57
493.54	20379.04
493.72	20931.41
493.90	20968.86
494.08	21003.97
494.25	21151.42
494.43	21369.09
494.61	21584.42
494.79	21572.72
494.96	21500.16
495.14	21692.08
495.32	21816.13
495.49	21928.48
495.67	21886.35
495.85	22195.30
496.02	22450.42
496.20	22511.27
496.38	22532.34
496.55	22403.61
496.73	23332.80
496.91	22965.34
497.09	22951.29
497.26	23234.50
497.44	22986.40
497.62	23187.69
497.79	23906.23
497.97	23374.93
498.14	23583.24
498.32	23349.18
498.50	24037.30
498.67	24147.31
498.85	23819.63
499.03	24657.54
499.20	23981.13
499.38	24315.83
499.56	24547.54
499.73	24680.95
499.91	24666.91
500.08	24737.12
500.26	24793.29
500.44	24629.46
500.61	24912.66
500.79	24217.52
500.97	24851.81
501.14	25507.16
501.32	25193.53
501.49	25289.49
501.67	25275.45
501.84	25305.87
502.02	25497.80
502.20	25467.37
502.37	25883.98
502.55	25919.09
502.72	26078.25
502.90	25935.48
503.07	25834.83
503.25	26473.80
503.43	26202.30
503.60	26328.69
503.78	26508.91
503.95	26333.37
504.13	26267.83
504.30	26852.97
504.48	26572.10
504.65	26588.49
504.83	26616.57
505.01	27178.30
505.18	26785.09
505.36	27372.57
505.53	27295.33
505.71	27370.22
505.88	27749.39
506.06	27096.38
506.23	27225.11
506.41	27402.99
506.58	28137.92
506.76	27789.18
506.93	27573.85
507.11	28034.94
507.28	28144.94
507.46	27800.88
507.63	28470.28
507.81	27910.89
507.98	28432.83
508.16	28266.65
508.33	28374.31
508.50	28734.76
508.68	28809.65
508.85	28893.91
509.03	29022.64
509.20	28783.91
509.38	28950.09
509.55	28994.56
509.73	29308.19
509.90	29450.96
510.08	29041.37
510.25	29268.40
510.42	29549.26
510.60	29736.51
510.77	29172.44
510.95	29610.12
511.12	29605.44
511.30	30075.88
511.47	30307.60
511.64	30628.25
511.82	30192.91
511.99	29771.61
512.17	30590.80
512.34	30150.78
512.51	30419.94
512.69	30665.70
512.86	30721.87
513.04	30834.22
513.21	30593.14
513.38	30740.60
513.56	30780.39
513.73	30808.47
513.90	30960.61
514.08	31524.68
514.25	31119.76
514.43	31215.72
514.60	31164.23
514.77	31335.09
514.95	31637.02
515.12	31749.37
515.29	31737.66
515.47	31475.52
515.64	31887.46
515.81	31936.61
515.99	31777.45
516.16	31770.43
516.33	31697.88
516.51	31800.86
516.68	31524.68
516.85	31784.48
517.03	31880.44
517.20	31831.29
517.37	31817.24
517.54	32596.64
517.72	32191.73
517.89	32575.58
518.06	32163.64
518.24	31899.16
518.41	32086.40
518.58	32596.64
518.75	32608.34
518.93	32809.63
519.10	32940.70
519.27	33092.83
519.45	32884.53
519.62	33315.19
519.79	33682.65
519.96	33179.43
520.14	33350.29
520.31	33354.97
520.48	33834.78
520.65	33787.97
520.83	33706.05
521.00	33858.19
521.17	34148.42
521.34	33792.65
521.52	33862.87
521.69	33771.59
521.86	34139.05
522.03	34181.18
522.20	34347.36
522.38	34181.18
522.55	34038.41
522.72	34333.32
522.89	34078.20
523.07	34747.59
523.24	34249.06
523.41	34712.49
523.58	34693.76
523.75	34756.96
523.92	35033.14
524.10	35166.55
524.27	34918.45
524.44	35262.51
524.61	35124.42
524.78	35545.72
524.96	35484.86
525.13	35622.95
525.30	35772.75
525.47	35728.28
525.64	35419.33
525.81	35138.46
525.98	35548.06
526.16	35608.91
526.33	35517.63
526.50	35512.95
526.67	35810.20
526.84	35679.13
527.01	35419.33
527.18	35604.23
527.36	36416.40
527.53	36371.92
527.70	36208.09
527.87	36191.70
528.04	36079.36
528.21	36395.33
528.38	36643.43
528.55	36807.26
528.72	36559.17
528.89	36687.90
529.07	36959.40
529.24	36472.57
529.41	36596.62
529.58	36582.57
529.75	36748.75
529.92	36720.66
530.09	36748.75
530.26	37031.96
530.43	37134.94
530.60	36816.63
530.77	37200.47
530.94	37354.95
531.11	37263.67
531.28	37340.91
531.46	37280.05
531.63	37483.68
531.80	37394.74
531.97	37462.61
532.14	37530.49
532.31	37511.77
532.48	37729.44
532.65	37523.47
532.82	37619.43
532.99	37535.17
533.16	37432.19
533.33	37940.08
533.50	38005.62
533.67	38373.08
533.84	38047.75
534.01	38183.50
534.18	38099.24
534.35	37998.60
534.52	38092.22
534.69	38265.42
534.86	38150.73
535.03	38497.13
535.20	38710.12
535.37	38719.48
535.54	38796.72
535.71	38710.12
535.88	38625.86
536.05	38586.07
536.22	38792.04
536.38	38852.89
536.55	38607.14
536.72	38843.53
536.89	38384.79
537.06	38834.17
537.23	38824.81
537.40	39147.80
537.57	39524.63
537.74	38691.40
537.91	39421.64
538.08	39480.16
538.25	38909.07
538.42	39498.88
538.59	39012.05
538.75	39267.17
538.92	38838.85
539.09	39597.18
539.26	39215.68
539.43	39688.46
539.60	39744.64
539.77	39353.77
539.94	39445.05
540.11	39526.97
540.28	39592.50
540.44	39381.85
540.61	39672.08
540.78	39304.62
540.95	39440.37
541.12	39438.03
541.29	39590.16
541.46	39906.13
541.62	39716.55
541.79	40142.53
541.96	39885.07
542.13	39636.97
542.30	39835.92
542.47	39761.02
542.63	40098.06
542.80	40421.05
542.97	40760.43
543.14	40423.39
543.31	40439.78
543.48	40589.57
543.64	41160.66
543.81	40673.83
543.98	40762.77
544.15	40580.21
544.32	40837.67
544.48	41015.55
544.65	40514.67
544.82	40575.53
544.99	40596.59
545.16	40542.76
545.32	40861.07
545.49	41535.15
545.66	41778.56
545.83	41053.00
546.00	41378.33
546.16	41439.18
546.33	41024.91
546.50	40931.29
546.67	40863.41
546.83	40938.31
547.00	41258.96
547.17	41471.95
547.34	41041.29
547.50	41677.92
547.67	41792.61
547.84	41614.72
548.00	41860.48
548.17	41823.03
548.34	41724.73
548.51	42075.81
548.67	41949.42
548.84	42316.89
549.01	41839.42
549.18	41855.80
549.34	41656.85
549.51	41741.11
549.68	42169.43
549.84	41680.26
550.01	42183.48
550.18	42174.11
550.34	41968.15
550.51	42146.03
550.68	42073.47
550.84	41738.77
551.01	41942.40
551.18	42506.47
551.34	42302.84
551.51	42616.47
551.68	42169.43
551.84	42452.64
552.01	42562.64
552.18	42677.33
552.34	42693.71
552.51	42621.16
552.68	42504.13
552.84	43079.90
553.01	42911.38
553.18	42728.82
553.34	42738.18
553.51	42328.59
553.67	42843.51
553.84	43281.19
554.01	42927.77
554.17	42684.35
554.34	42567.32
554.51	42590.73
554.67	43253.10
554.84	43009.68
555.00	42979.26
555.17	42279.44
555.33	43070.54
555.50	43346.72
555.67	42997.98
555.83	42745.20
556.00	43241.40
556.16	43239.06
556.33	43393.53
556.50	43225.01
556.66	43552.69
556.83	43255.44
556.99	43365.45
557.16	43454.39
557.32	43716.53
557.49	43508.22
557.65	43157.14
557.82	43449.70
557.98	43365.45
558.15	43292.89
558.32	43328.00
558.48	43702.48
558.65	43505.88
558.81	43246.08
558.98	43473.11
559.14	43667.37
559.31	43725.89
559.47	43566.73
559.64	43945.90
559.80	43674.40
559.97	43622.90
560.13	43096.28
560.30	43587.80
560.46	43515.24
560.63	43899.09
560.79	43690.78
560.96	44105.06
561.12	43688.44
561.29	44011.43
561.45	43629.93
561.61	43875.68
561.78	43608.86
561.94	43557.37
562.11	43730.57
562.27	43587.80
562.44	43887.39
562.60	44119.10
562.77	44114.42
562.93	43849.94
563.10	43978.67
563.26	43868.66
563.42	43999.73
563.59	43667.37
563.75	44055.90
563.92	44182.29
564.08	44296.98
564.24	44257.19
564.41	44119.10
564.57	43915.47
564.74	44172.93
564.90	44182.29
565.07	44622.31
565.23	43796.10
565.39	44409.32
565.56	44275.91
565.72	44069.95
565.88	43817.17
566.05	44205.70
566.21	44332.09
566.38	43915.47
566.54	44802.53
566.70	44273.57
566.87	44643.38
567.03	44491.24
567.19	44191.65
567.36	44268.89
567.52	44069.95
567.68	44285.28
567.85	44521.67
568.01	44395.28
568.17	44219.74
568.34	44261.87
568.50	44238.47
568.66	44477.20
568.83	44692.53
568.99	44238.47
569.15	44381.24
569.32	44168.25
569.48	44147.18
569.64	44825.94
569.81	44432.73
569.97	44186.97
570.13	44830.62
570.30	44463.16
570.46	44243.15
570.62	44158.89
570.78	44083.99
570.95	44222.08
571.11	44928.92
571.27	44570.82
571.43	43856.96
571.60	44392.94
571.76	44294.64
571.92	44367.20
572.09	44411.67
572.25	44912.54
572.41	44552.10
572.57	44390.60
572.74	45078.72
572.90	44652.74
573.06	44704.23
573.22	44552.10
573.38	44788.49
573.55	44390.60
573.71	44418.69
573.87	44535.71
574.03	44624.65
574.20	44746.36
574.36	44905.52
574.52	44666.78
574.68	45069.36
574.84	44549.76
575.01	44964.03
575.17	44814.24
575.33	44439.75
575.49	44706.57
575.65	45085.74
575.82	44498.26
575.98	44863.39
576.14	44870.41
576.30	44994.46
576.46	44463.16
576.62	44629.34
576.79	44744.02
576.95	44261.87
577.11	44355.49
577.27	44912.54
577.43	45043.61
577.59	44659.76
577.75	44741.68
577.92	44392.94
578.08	44411.67
578.24	44399.96
578.40	44982.76
578.56	44343.79
578.72	44683.17
578.88	44945.31
579.04	44807.22
579.21	44793.17
579.37	44772.11
579.53	44992.12
579.69	44252.51
579.85	44842.32
580.01	44968.71
580.17	44409.32
580.33	44931.26
580.49	45141.91
580.65	45048.29
580.82	44830.62
580.98	45174.68
581.14	44746.36
581.30	45219.15
581.46	44769.77
581.62	44772.11
581.78	44678.49
581.94	44865.73
582.10	44715.93
582.26	45006.16
582.42	44896.16
582.58	45132.55
582.74	45020.20
582.90	44414.01
583.06	44744.02
583.22	44893.82
583.38	45071.70
583.54	44587.21
583.70	44456.14
583.86	44692.53
584.02	44734.66
584.18	45170.00
584.34	44744.02
584.50	45146.59
584.66	44839.98
584.82	44746.36
584.98	45195.74
585.14	44919.56
585.30	44919.56
585.46	45074.04
585.62	44711.25
585.78	44814.24
585.94	44521.67
586.10	44701.89
586.26	44659.76
586.42	44697.21
586.58	45205.11
586.74	45099.78
586.90	44842.32
587.06	44727.64
587.22	45448.52
587.38	44617.63
587.54	45111.49
587.70	45097.44
587.86	44917.22
588.02	44858.71
588.18	44807.22
588.34	44957.01
588.49	44940.63
588.65	44610.61
588.81	44725.30
588.97	44650.40
589.13	44884.45
589.29	44842.32
589.45	45343.20
589.61	44877.43
589.77	45055.31
589.93	45270.64
590.08	45399.37
590.24	45195.74
