SpectraSuite Data File
++++++++++++++++++++++++++++++++++++
Date: Fri Oct 25 10:44:03 EDT 2013
User: price-jones
Dark Spectrum Present: No
Reference Spectrum Present: No
Number of Sampled Component Spectra: 1
Spectrometers: USB2+H05261
Integration Time (usec): 100000 (USB2+H05261)
Spectra Averaged: 1 (USB2+H05261)
Boxcar Smoothing: 0 (USB2+H05261)
Correct for Electrical Dark: No (USB2+H05261)
Strobe/Lamp Enabled: No (USB2+H05261)
Correct for Detector Non-linearity: No (USB2+H05261)
Correct for Stray Light: No (USB2+H05261)
Number of Pixels in Processed Spectrum: 2048
>>>>>Begin Processed Spectral Data<<<<<
365.73	182.56
365.92	182.56
366.12	182.56
366.32	18.72
366.52	23.41
366.72	0.00
366.91	0.00
367.11	0.00
367.31	25.75
367.51	0.00
367.70	53.83
367.90	11.70
368.10	51.49
368.30	49.15
368.49	117.03
368.69	2.34
368.89	60.85
369.09	100.64
369.28	81.92
369.48	0.00
369.68	14.04
369.87	117.03
370.07	81.92
370.27	140.43
370.47	147.45
370.66	353.42
370.86	416.62
371.06	486.83
371.25	447.04
371.45	407.25
371.65	500.87
371.84	433.00
372.04	470.45
372.24	489.17
372.44	535.98
372.63	505.56
372.83	491.51
373.03	512.58
373.22	566.41
373.42	514.92
373.62	503.22
373.81	596.84
374.01	622.58
374.21	608.54
374.40	610.88
374.60	510.24
374.79	608.54
374.99	634.29
375.19	627.26
375.38	634.29
375.58	624.92
375.78	699.82
375.97	610.88
376.17	664.71
376.37	535.98
376.56	657.69
376.76	608.54
376.95	638.97
377.15	678.76
377.35	699.82
377.54	678.76
377.74	610.88
377.93	650.67
378.13	720.88
378.33	676.41
378.52	676.41
378.72	692.80
378.91	660.03
379.11	650.67
379.31	620.24
379.50	671.73
379.70	634.29
379.89	744.29
380.09	690.46
380.28	737.27
380.48	716.20
380.68	739.61
380.87	730.25
381.07	711.52
381.26	702.16
381.46	781.74
381.65	648.33
381.85	716.20
382.04	809.83
382.24	734.93
382.43	723.23
382.63	699.82
382.83	741.95
383.02	730.25
383.22	772.38
383.41	711.52
383.61	685.78
383.80	833.23
384.00	856.64
384.19	826.21
384.39	851.96
384.58	784.08
384.78	842.59
384.97	894.08
385.17	828.55
385.36	816.85
385.56	816.85
385.75	802.80
385.95	866.00
386.14	807.48
386.34	809.83
386.53	873.02
386.72	805.14
386.92	905.79
387.11	910.47
387.31	933.87
387.50	901.11
387.70	903.45
387.89	905.79
388.09	882.38
388.28	922.17
388.48	912.81
388.67	905.79
388.86	976.00
389.06	924.51
389.25	1018.13
389.45	1055.58
389.64	1004.09
389.84	1043.88
390.03	1034.52
390.22	1114.10
390.42	1071.97
390.61	1097.71
390.81	994.73
391.00	1071.97
391.19	994.73
391.39	1029.84
391.58	1090.69
391.78	1078.99
391.97	1095.37
392.16	1076.65
392.36	1153.88
392.55	1071.97
392.75	1050.90
392.94	968.98
393.13	1062.60
393.33	999.41
393.52	1071.97
393.71	1107.07
393.91	1184.31
394.10	1128.14
394.29	1217.08
394.49	1247.51
394.68	1214.74
394.88	1317.72
395.07	1413.68
395.26	1362.19
395.46	1275.59
395.65	1273.25
395.84	1287.29
396.04	1291.98
396.23	1125.80
396.42	1200.69
396.62	1200.69
396.81	1153.88
397.00	1233.46
397.19	1296.66
397.39	1432.41
397.58	1451.13
397.77	1378.58
397.97	1490.92
398.16	1476.88
398.35	1448.79
398.55	1582.20
398.74	1509.65
398.93	1626.67
399.12	1561.14
399.32	1495.60
399.51	1603.27
399.70	1689.87
399.90	1619.65
400.09	1645.40
400.28	1753.06
400.47	1797.53
400.67	1802.21
400.86	1713.27
401.05	1701.57
401.24	1710.93
401.44	1860.73
401.63	1909.88
401.82	1710.93
402.01	1778.81
402.21	1811.57
402.40	1877.11
402.59	1783.49
402.78	1797.53
402.97	1778.81
403.17	1783.49
403.36	1970.73
403.55	1933.28
403.74	1919.24
403.93	1888.81
404.13	1956.69
404.32	1886.47
404.51	1926.26
404.70	1963.71
404.89	1959.03
405.09	1991.80
405.28	2057.33
405.47	2031.58
405.66	2031.58
405.85	1996.48
406.05	2141.59
406.24	2111.16
406.43	2150.95
406.62	2129.89
406.81	2209.47
407.00	2176.70
407.20	2186.06
407.39	2246.91
407.58	2249.25
407.77	2183.72
407.96	2267.98
408.15	2333.51
408.34	2284.36
408.54	2370.96
408.73	2279.68
408.92	2286.70
409.11	2443.52
409.30	2392.03
409.49	2457.56
409.68	2438.84
409.87	2410.75
410.07	2523.10
410.26	2382.67
410.45	2513.74
410.64	2656.51
410.83	2693.96
411.02	2567.57
411.21	2771.19
411.40	2696.30
411.59	2792.26
411.78	2747.79
411.98	2778.22
412.17	2874.18
412.36	2834.39
412.55	2963.12
412.74	2860.13
412.93	3000.57
413.12	2899.92
413.31	2979.50
413.50	2895.24
413.69	2970.14
413.88	3007.59
414.07	3089.51
414.26	2967.80
414.45	3066.10
414.64	3026.31
414.83	3248.66
415.02	3236.96
415.22	3297.81
415.41	3279.09
415.60	3190.15
415.79	3370.37
415.98	3377.39
416.17	3468.67
416.36	3349.31
416.55	3377.39
416.74	3503.78
416.93	3421.86
417.12	3389.10
417.31	3471.01
417.50	3536.55
417.69	3571.66
417.88	3531.87
418.07	3606.77
418.26	3634.85
418.45	3641.87
418.64	3754.22
418.83	3747.20
419.02	3667.62
419.21	3744.86
419.39	3637.19
419.58	3684.00
419.77	3662.94
419.96	3871.25
420.15	3796.35
420.34	3833.80
420.53	3978.91
420.72	4107.64
420.91	4018.70
421.10	3990.61
421.29	4011.68
421.48	4084.23
421.67	4084.23
421.86	3929.76
422.05	3908.69
422.24	3964.87
422.43	4032.74
422.61	4063.17
422.80	4182.54
422.99	4063.17
423.18	4114.66
423.37	4170.83
423.56	4138.07
423.75	4205.94
423.94	3948.48
424.13	3817.41
424.32	3967.21
424.50	4170.83
424.69	4280.84
424.88	4241.05
425.07	4177.86
425.26	4035.08
425.45	4114.66
425.64	4215.30
425.83	4152.11
426.01	4259.78
426.20	4109.98
426.39	4264.46
426.58	4222.33
426.77	4109.98
426.96	4128.70
427.15	4191.90
427.33	4205.94
427.52	4112.32
427.71	4318.29
427.90	4341.69
428.09	4231.69
428.28	4465.74
428.46	4337.01
428.65	4163.81
428.84	4458.72
429.03	4486.81
429.22	4231.69
429.40	4351.06
429.59	4292.54
429.78	4159.13
429.97	4184.88
430.16	4210.62
430.34	4348.72
430.53	4358.08
430.72	4203.60
430.91	4425.95
431.10	4503.19
431.28	4781.71
431.47	4842.57
431.66	4713.84
431.85	4807.46
432.03	4896.40
432.22	4929.17
432.41	4788.74
432.60	4947.89
432.79	4917.47
432.97	4891.72
433.16	5069.60
433.35	4919.81
433.54	4816.82
433.72	4924.49
433.91	4947.89
434.10	4844.91
434.28	4940.87
434.47	5076.62
434.66	5107.05
434.85	5233.44
435.03	5172.58
435.22	4912.78
435.41	5413.66
435.59	5249.82
435.78	5289.61
435.97	5294.29
436.16	5385.57
436.34	5301.31
436.53	5364.51
436.72	5235.78
436.90	5348.12
437.09	5301.31
437.28	5315.36
437.46	5544.73
437.65	5350.46
437.84	5399.62
438.02	5329.40
438.21	5460.47
438.40	5336.42
438.58	5657.07
438.77	5675.80
438.96	5598.56
439.14	5839.64
439.33	5668.78
439.52	5834.96
439.70	5729.63
439.89	5900.49
440.08	5989.43
440.26	5968.37
440.45	6005.81
440.63	6129.86
440.82	6284.34
441.01	6057.31
441.19	6328.81
441.38	6225.82
441.57	6539.46
441.75	6593.29
441.94	6448.18
442.12	6579.25
442.31	6527.75
442.50	6572.22
442.68	6537.12
442.87	6548.82
443.05	6546.48
443.24	6911.60
443.43	6761.81
443.61	6707.98
443.80	6848.41
443.98	6604.99
444.17	6406.05
444.35	6766.49
444.54	6937.35
444.73	6789.89
444.91	6654.14
445.10	6810.96
445.28	6829.68
445.47	6609.67
445.65	6663.51
445.84	6637.76
446.02	6918.62
446.21	6864.79
446.39	6825.00
446.58	6803.94
446.77	7077.78
446.95	6916.28
447.14	7155.02
447.32	7124.59
447.51	7012.24
447.69	6789.89
447.88	7002.88
448.06	7253.32
448.25	6881.18
448.43	7007.56
448.62	7229.91
448.80	6932.67
448.99	7145.66
449.17	7236.94
449.36	6988.84
449.54	7133.95
449.73	7573.97
449.91	7302.47
450.10	7503.76
450.28	7555.25
450.46	7360.98
450.65	7515.46
450.83	7438.22
451.02	7466.31
451.20	7515.46
451.39	7590.36
451.57	7410.14
451.76	7449.93
451.94	7648.87
452.13	7700.36
452.31	7463.97
452.49	7417.16
452.68	7447.58
452.86	7335.24
453.05	7517.80
453.23	7805.69
453.42	7597.38
453.60	7674.62
453.78	7758.88
453.97	7768.24
454.15	7625.47
454.34	7712.07
454.52	7803.35
454.70	7808.03
454.89	8039.74
455.07	7899.31
455.26	7922.71
455.44	8205.92
455.62	7974.21
455.81	8084.21
455.99	8138.04
456.17	8152.09
456.36	8107.62
456.54	8234.00
456.73	8360.39
456.91	8545.30
457.09	8690.41
457.28	8746.58
457.46	8367.42
457.64	8627.21
457.83	8414.23
458.01	8353.37
458.19	8617.85
458.38	8376.78
458.56	8739.56
458.74	8617.85
458.93	8648.28
459.11	8594.45
459.29	8472.74
459.48	8872.97
459.66	8692.75
459.84	8702.11
460.03	8884.67
460.21	8779.35
460.39	8856.59
460.57	8875.31
460.76	8964.25
460.94	8943.19
461.12	8805.10
461.31	8837.86
461.49	8990.00
461.67	8936.17
461.85	9191.28
462.04	9067.24
462.22	9671.09
462.40	9423.00
462.59	9212.35
462.77	9481.51
462.95	9210.01
463.13	9247.46
463.32	9329.38
463.50	9687.48
463.68	9294.27
463.86	9530.66
464.05	9289.59
464.23	9399.59
464.41	9792.80
464.59	9177.24
464.78	9542.36
464.96	9586.83
465.14	9280.22
465.32	9640.67
465.50	9591.52
465.69	9523.64
465.87	9785.78
466.05	9614.92
466.23	9303.63
466.41	9561.09
466.60	9650.03
466.78	9411.29
466.96	9579.81
467.14	9549.39
467.32	9741.31
467.51	9921.53
467.69	9591.52
467.87	9823.23
468.05	9970.68
468.23	9774.08
468.41	9811.53
468.60	9874.72
468.78	10015.15
468.96	9877.06
469.14	9933.23
469.32	10300.70
469.50	9802.16
469.69	10080.69
469.87	10265.59
470.05	10253.89
470.23	10289.00
470.41	10319.42
470.59	10347.51
470.77	10305.38
470.95	10328.78
471.14	10525.39
471.32	10434.11
471.50	10874.13
471.68	10548.79
471.86	10633.05
472.04	10738.38
472.22	10885.83
472.40	10934.98
472.58	10920.94
472.77	10888.17
472.95	10988.82
473.13	11122.23
473.31	10960.73
473.49	11030.94
473.67	11035.63
473.85	11169.04
474.03	11529.48
474.21	11353.94
474.39	11508.41
474.57	11424.15
474.75	11707.36
474.93	11723.74
475.12	11508.41
475.30	11866.52
475.48	11679.27
475.66	11903.96
475.84	11557.57
476.02	11815.02
476.20	11754.17
476.38	11913.33
476.56	12395.48
476.74	12238.66
476.92	12294.83
477.10	12306.54
477.28	12482.08
477.46	12554.63
477.64	12727.83
477.82	12940.82
478.00	12973.59
478.18	13022.74
478.36	13067.21
478.54	12908.05
478.72	13266.16
478.90	13296.58
479.08	13481.49
479.26	13696.82
479.44	13710.86
479.62	13982.36
479.80	13916.83
479.98	14202.37
480.16	14303.01
480.34	14066.62
480.52	14237.48
480.70	14291.31
480.88	14361.53
481.06	14546.43
481.24	14691.54
481.41	14679.84
481.59	14799.21
481.77	15091.77
481.95	14885.81
482.13	15374.98
482.31	14995.81
482.49	15716.70
482.67	15513.07
482.85	15873.51
483.03	15630.10
483.21	15723.72
483.39	15807.98
483.57	16039.69
483.74	16428.22
483.92	16538.23
484.10	16112.25
484.28	16423.54
484.46	16650.57
484.64	16896.33
484.82	16952.50
485.00	16762.92
485.18	17022.72
485.35	17085.91
485.53	16741.85
485.71	16791.00
485.89	16898.67
486.07	16908.03
486.25	17092.93
486.43	17331.67
486.61	17879.35
486.78	17682.75
486.96	18008.08
487.14	18099.36
487.32	18555.77
487.50	18616.62
487.68	18925.57
487.85	19042.60
488.03	18850.67
488.21	19541.13
488.39	19389.00
488.57	19360.91
488.75	19569.22
488.92	19524.75
489.10	20187.12
489.28	20229.25
489.46	20725.44
489.64	20222.23
489.81	20905.66
489.99	21076.52
490.17	20795.66
490.35	21135.04
490.53	21010.99
490.70	21380.79
490.88	21231.00
491.06	21699.11
491.24	21568.04
491.41	21706.13
491.59	21579.74
491.77	21638.25
491.95	21802.09
492.13	22080.61
492.30	22312.33
492.48	22850.65
492.66	22377.86
492.84	22698.52
493.01	23058.96
493.19	22843.63
493.37	23014.49
493.54	23173.64
493.72	23117.47
493.90	23578.56
494.08	24060.71
494.25	24137.94
494.43	24119.22
494.61	24388.38
494.79	24376.68
494.96	24592.01
495.14	24395.40
495.32	24486.68
495.49	24835.42
495.67	24566.26
495.85	24943.09
496.02	24840.11
496.20	25184.16
496.38	25270.76
496.55	25343.32
496.73	25755.26
496.91	25298.85
497.09	25996.33
497.26	25883.98
497.44	25926.11
497.62	26113.36
497.79	26436.35
497.97	26214.00
498.14	26003.35
498.32	26569.76
498.50	26593.17
498.67	27012.12
498.85	26668.06
499.03	27330.44
499.20	27407.67
499.38	27363.20
499.56	27218.09
499.73	27613.64
499.91	27456.82
500.08	27524.70
500.26	27524.70
500.44	27623.00
500.61	27456.82
500.79	27651.09
500.97	27564.49
501.14	27683.86
501.32	28187.07
501.49	28170.69
501.67	28343.89
501.84	28325.16
502.02	28409.42
502.20	28570.92
502.37	28772.21
502.55	28634.11
502.72	29230.95
502.90	29336.27
503.07	28966.47
503.25	29158.39
503.43	28914.98
503.60	29214.57
503.78	29282.44
503.95	28952.43
504.13	29317.55
504.30	29422.87
504.48	29214.57
504.65	30015.03
504.83	30242.06
505.01	29944.81
505.18	30190.57
505.36	30258.45
505.53	30976.99
505.71	30441.01
505.88	30635.27
506.06	30529.95
506.23	30740.60
506.41	30466.75
506.58	30864.64
506.76	31124.44
506.93	30698.47
507.11	31054.23
507.28	31110.40
507.46	30859.96
507.63	30930.18
507.81	31154.87
507.98	31192.32
508.16	31222.75
508.33	31681.49
508.50	31978.74
508.68	32210.45
508.85	32182.37
509.03	31931.93
509.20	31812.56
509.38	32348.54
509.55	32121.51
509.73	32428.12
509.90	32196.41
510.08	32308.76
510.25	32348.54
510.42	32503.02
510.60	32762.82
510.77	32919.63
510.95	33418.17
511.12	33097.52
511.30	33273.06
511.47	33455.62
511.64	33340.93
511.82	33701.37
511.99	33244.97
512.17	33567.96
512.34	33214.54
512.51	33722.44
512.69	33472.00
512.86	34092.24
513.04	34005.64
513.21	33818.40
513.38	33912.02
513.56	33790.31
513.73	33750.52
513.90	34068.84
514.08	33986.92
514.25	34038.41
514.43	34050.11
514.60	34555.67
514.77	34382.47
514.95	34335.66
515.12	34513.54
515.29	34955.90
515.47	34888.03
515.64	35068.25
515.81	35056.54
515.99	35103.35
516.16	34820.15
516.33	34593.12
516.51	34869.30
516.68	34417.58
516.85	33937.77
517.03	34450.35
517.20	35211.02
517.37	35299.96
517.54	35550.40
517.72	35770.41
517.89	35124.42
518.06	35222.72
518.24	35136.12
518.41	35227.40
518.58	35491.88
518.75	35620.61
518.93	35524.65
519.10	35742.32
519.27	36128.51
519.45	36400.01
519.62	36086.38
519.79	36425.76
519.96	36624.70
520.14	36320.43
520.31	36032.55
520.48	36519.38
520.65	36622.36
520.83	36802.58
521.00	36882.16
521.17	37198.13
521.34	37226.22
521.52	37345.59
521.69	37457.93
521.86	37322.18
522.03	37385.38
522.20	37385.38
522.38	37455.59
522.55	37589.00
522.72	37411.12
522.89	37041.32
523.07	37872.21
523.24	37846.46
523.41	38113.28
523.58	37614.75
523.75	38857.57
523.92	38761.61
524.10	38630.54
524.27	38806.08
524.44	38611.82
524.61	38637.56
524.78	38457.34
524.96	38466.70
525.13	38117.96
525.30	38911.41
525.47	39353.77
525.64	39068.22
525.81	38628.20
525.98	38618.84
526.16	38494.79
526.33	38628.20
526.50	38663.31
526.67	38267.76
526.84	38555.64
527.01	38717.14
527.18	38623.52
527.36	39194.61
527.53	39466.11
527.70	39613.57
527.87	39328.02
528.04	39218.02
528.21	39702.51
528.38	40107.42
528.55	40156.57
528.72	40215.08
528.89	40505.31
529.07	40336.79
529.24	39613.57
529.41	39934.22
529.58	39929.54
529.75	40004.44
529.92	40306.37
530.09	40257.21
530.26	40350.84
530.43	40357.86
530.60	40402.33
530.77	40299.34
530.94	40580.21
531.11	40559.14
531.28	40762.77
531.46	40694.89
531.63	41017.89
531.80	40554.46
531.97	40343.81
532.14	40449.14
532.31	40222.11
532.48	40589.57
532.65	40900.86
532.82	40292.32
532.99	40603.61
533.16	40868.09
533.33	41146.62
533.50	41317.48
533.67	41598.34
533.84	41067.04
534.01	41015.55
534.18	41062.36
534.35	41448.55
534.52	41212.15
534.69	41691.96
534.86	41518.76
535.03	41457.91
535.20	42148.37
535.37	42192.84
535.54	42241.99
535.71	41846.44
535.88	42089.85
536.05	41783.24
536.22	41715.37
536.38	42078.15
536.55	41907.29
536.72	41942.40
536.89	41963.46
537.06	42169.43
537.23	42073.47
537.40	42464.34
537.57	42050.06
537.74	42050.06
537.91	42838.83
538.08	42300.50
538.25	42092.19
538.42	42082.83
538.59	42174.11
538.75	42199.86
538.92	42401.14
539.09	42347.31
539.26	42714.78
539.43	42712.44
539.60	42593.07
539.77	42438.59
539.94	42724.14
540.11	42536.90
540.28	42366.04
540.44	43086.92
540.61	42609.45
540.78	42532.22
540.95	42469.02
541.12	42387.10
541.29	42824.78
541.46	43147.78
541.62	42944.15
541.79	43269.48
541.96	42724.14
542.13	43037.77
542.30	42806.06
542.47	42934.79
542.63	42651.58
542.80	43206.29
542.97	43519.92
543.14	43683.76
543.31	43583.12
543.48	43587.80
543.64	44355.49
543.81	44385.92
543.98	44360.17
544.15	44250.17
544.32	43999.73
544.48	44210.38
544.65	43625.25
544.82	44278.25
544.99	43690.78
545.16	44360.17
545.32	43360.76
545.49	44683.17
545.66	44622.31
545.83	44388.26
546.00	43955.26
546.16	44472.52
546.33	44322.72
546.50	43835.89
546.67	44442.09
546.83	44121.44
547.00	44182.29
547.17	44519.33
547.34	44423.37
547.50	44652.74
547.67	44575.50
547.84	44374.22
548.00	45015.52
548.17	45074.04
548.34	44978.07
548.51	44582.52
548.67	44748.70
548.84	44521.67
549.01	44957.01
549.18	44828.28
549.34	44776.79
549.51	44912.54
549.68	45041.27
549.84	44889.13
550.01	44722.96
550.18	44729.98
550.34	44662.10
550.51	44910.20
550.68	45099.78
550.84	44985.10
551.01	45385.33
551.18	45092.76
551.34	45050.63
551.51	45457.88
551.68	45691.94
551.84	45659.17
552.01	45635.77
552.18	45069.36
552.34	44949.99
552.51	45162.98
552.68	45523.42
552.84	45579.59
553.01	45677.90
553.18	45811.31
553.34	45626.40
553.51	44847.00
553.67	45345.54
553.84	45750.45
554.01	45528.10
554.17	46260.69
554.34	45748.11
554.51	45677.90
554.67	45741.09
554.84	45830.03
555.00	45574.91
555.17	45539.80
555.33	45785.56
555.50	45848.75
555.67	45954.08
555.83	45450.86
556.00	45808.96
556.16	46160.05
556.33	46136.64
556.50	46031.32
556.66	45553.85
556.83	45865.14
556.99	45923.65
557.16	46375.37
557.32	46164.73
557.49	46167.07
557.65	45837.05
557.82	45947.06
557.98	46302.82
558.15	46043.02
558.32	46335.59
558.48	45947.06
558.65	46057.06
558.81	45902.59
558.98	46115.58
559.14	46192.81
559.31	45947.06
559.47	46204.52
559.64	46082.81
559.80	45916.63
559.97	45918.97
560.13	45436.82
560.30	46288.77
560.46	46550.91
560.63	46887.95
560.79	46731.14
560.96	46307.50
561.12	46192.81
561.29	46099.19
561.45	46227.92
561.61	46548.57
561.78	46146.00
561.94	46555.60
562.11	45979.82
562.27	46614.11
562.44	46672.62
562.60	46630.49
562.77	46576.66
562.93	46834.12
563.10	46906.68
563.26	46024.29
563.42	46878.59
563.59	46560.28
563.75	46773.27
563.92	46763.90
564.08	47030.72
564.24	46649.22
564.41	46288.77
564.57	46593.04
564.74	46607.09
564.90	46328.56
565.07	46773.27
565.23	46265.37
565.39	46426.87
565.56	46707.73
565.72	46714.75
565.88	46431.55
566.05	46124.94
566.21	46438.57
566.38	46188.13
566.54	46452.61
566.70	47203.92
566.87	47103.28
567.03	46852.84
567.19	47325.63
567.36	46920.72
567.52	46660.92
567.68	47047.11
567.85	46611.77
568.01	46799.01
568.17	46623.47
568.34	46738.16
568.50	47253.08
568.66	46761.56
568.83	46672.62
568.99	46382.40
569.15	46780.29
569.32	46623.47
569.48	46714.75
569.64	46810.71
569.81	46649.22
569.97	46775.61
570.13	46710.07
570.30	46466.66
570.46	46344.95
570.62	46419.84
570.78	46674.96
570.95	46543.89
571.11	47000.30
571.27	46848.16
571.43	47178.18
571.60	46894.97
571.76	46918.38
571.92	46803.69
572.09	46815.40
572.25	47028.38
572.41	46885.61
572.57	46993.28
572.74	47580.75
572.90	47243.71
573.06	47086.90
573.22	46866.89
573.38	46939.44
573.55	46815.40
573.71	47576.07
573.87	47002.64
574.03	47208.61
574.20	46719.43
574.36	46656.24
574.52	47084.56
574.68	47051.79
574.84	46658.58
575.01	47290.52
575.17	47096.26
575.33	46649.22
575.49	46993.28
575.65	46670.28
575.82	47051.79
575.98	46904.34
576.14	47309.25
576.30	47384.15
576.46	46590.70
576.62	47152.43
576.79	46976.89
576.95	46459.63
577.11	47091.58
577.27	46871.57
577.43	46871.57
577.59	46796.67
577.75	46965.19
577.92	46646.88
578.08	46827.10
578.24	46738.16
578.40	46873.91
578.56	46897.31
578.72	46890.29
578.88	47033.07
579.04	47201.58
579.21	47035.41
579.37	47185.20
579.53	47302.23
579.69	46670.28
579.85	46810.71
580.01	46993.28
580.17	46841.14
580.33	47068.17
580.49	47257.76
580.65	47187.54
580.82	47407.55
580.98	46988.60
581.14	47159.45
581.30	47028.38
581.46	47166.48
581.62	47358.40
581.78	47299.89
581.94	47517.56
582.10	46885.61
582.26	47569.05
582.42	47119.66
582.58	47346.70
582.74	47187.54
582.90	47409.89
583.06	47323.29
583.22	47068.17
583.38	47147.75
583.54	47367.76
583.70	47452.02
583.86	47224.99
584.02	47304.57
584.18	46960.51
584.34	46782.63
584.50	47276.48
584.66	47327.97
584.82	46789.65
584.98	47122.01
585.14	47194.56
585.30	46873.91
585.46	47105.62
585.62	46515.81
585.78	47210.95
585.94	46628.15
586.10	47030.72
586.26	47445.00
586.42	47070.51
586.58	47222.65
586.74	47351.38
586.90	47009.66
587.06	47096.26
587.22	47047.11
587.38	46948.81
587.54	47480.11
587.70	46920.72
587.86	47384.15
588.02	46752.20
588.18	47309.25
588.34	46894.97
588.49	46899.65
588.65	46225.58
588.81	46267.71
588.97	46653.90
589.13	46391.76
589.29	46705.39
589.45	46902.00
589.61	46941.78
589.77	47248.39
