SpectraSuite Data File
++++++++++++++++++++++++++++++++++++
Date: Fri Oct 25 11:25:09 EDT 2013
User: price-jones
Dark Spectrum Present: No
Reference Spectrum Present: No
Number of Sampled Component Spectra: 1
Spectrometers: USB2+H05261
Integration Time (usec): 100000 (USB2+H05261)
Spectra Averaged: 1 (USB2+H05261)
Boxcar Smoothing: 0 (USB2+H05261)
Correct for Electrical Dark: No (USB2+H05261)
Strobe/Lamp Enabled: No (USB2+H05261)
Correct for Detector Non-linearity: No (USB2+H05261)
Correct for Stray Light: No (USB2+H05261)
Number of Pixels in Processed Spectrum: 2048
>>>>>Begin Processed Spectral Data<<<<<
365.73	234.05
365.92	234.05
366.12	234.05
366.32	133.41
366.52	142.77
366.72	168.52
366.91	72.56
367.11	124.05
367.31	110.01
367.51	191.92
367.70	149.79
367.90	131.07
368.10	227.03
368.30	191.92
368.49	177.88
368.69	173.20
368.89	140.43
369.09	102.98
369.28	152.13
369.48	196.60
369.68	203.63
369.87	273.84
370.07	205.97
370.27	191.92
370.47	325.33
370.66	634.29
370.86	631.94
371.06	657.69
371.25	748.97
371.45	645.99
371.65	674.07
371.84	688.12
372.04	690.46
372.24	664.71
372.44	669.39
372.63	674.07
372.83	739.61
373.03	777.06
373.22	763.01
373.42	770.04
373.62	837.91
373.81	851.96
374.01	856.64
374.21	777.06
374.40	751.31
374.60	807.48
374.79	791.10
374.99	786.42
375.19	880.04
375.38	847.27
375.58	835.57
375.78	809.83
375.97	823.87
376.17	889.40
376.37	898.77
376.56	880.04
376.76	833.23
376.95	819.19
377.15	870.68
377.35	889.40
377.54	887.06
377.74	964.30
377.93	933.87
378.13	901.11
378.33	978.34
378.52	950.26
378.72	959.62
378.91	950.26
379.11	896.43
379.31	936.21
379.50	938.55
379.70	992.39
379.89	912.81
380.09	917.49
380.28	985.37
380.48	898.77
380.68	971.32
380.87	976.00
381.07	1015.79
381.26	1015.79
381.46	1104.73
381.65	1064.94
381.85	985.37
382.04	1076.65
382.24	1050.90
382.43	1076.65
382.63	997.07
382.83	1053.24
383.02	1156.22
383.22	1067.28
383.41	1036.86
383.61	1139.84
383.80	1186.65
384.00	1181.97
384.19	1125.80
384.39	1203.04
384.58	1116.44
384.78	1174.95
384.97	1210.06
385.17	1125.80
385.36	1109.41
385.56	1160.91
385.75	1158.57
385.95	1212.40
386.14	1203.04
386.34	1172.61
386.53	1160.91
386.72	1144.52
386.92	1198.35
387.11	1240.48
387.31	1331.76
387.50	1273.25
387.70	1245.16
387.89	1172.61
388.09	1256.87
388.28	1263.89
388.48	1315.38
388.67	1336.45
388.86	1231.12
389.06	1329.42
389.25	1385.60
389.45	1380.92
389.64	1263.89
389.84	1451.13
390.03	1399.64
390.22	1416.02
390.42	1359.85
390.61	1355.17
390.81	1425.39
391.00	1394.96
391.19	1425.39
391.39	1460.49
391.58	1519.01
391.78	1502.62
391.97	1481.56
392.16	1404.32
392.36	1600.93
392.55	1500.28
392.75	1542.41
392.94	1483.90
393.13	1488.58
393.33	1497.94
393.52	1521.35
393.71	1568.16
393.91	1593.90
394.10	1568.16
394.29	1661.78
394.49	1617.31
394.68	1605.61
394.88	1500.28
395.07	1732.00
395.26	1678.16
395.46	1708.59
395.65	1720.29
395.84	1724.97
396.04	1755.40
396.23	1769.44
396.42	1732.00
396.62	1764.76
396.81	1748.38
397.00	1755.40
397.19	1710.93
397.39	1893.49
397.58	1823.28
397.77	1746.04
397.97	1776.47
398.16	1760.08
398.35	1834.98
398.55	1902.86
398.74	1804.55
398.93	1966.05
399.12	1970.73
399.32	1879.45
399.51	1884.13
399.70	2022.22
399.90	1839.66
400.09	1886.47
400.28	1996.48
400.47	2019.88
400.67	2012.86
400.86	2003.50
401.05	2059.67
401.24	2047.97
401.44	2157.97
401.63	2083.08
401.82	2141.59
402.01	2069.03
402.21	2165.00
402.40	2275.00
402.59	2214.15
402.78	2165.00
402.97	2176.70
403.17	2214.15
403.36	2146.27
403.55	2293.72
403.74	2326.49
403.93	2342.88
404.13	2289.04
404.32	2314.79
404.51	2352.24
404.70	2487.99
404.89	2272.66
405.09	2485.65
405.28	2370.96
405.47	2340.54
405.66	2427.14
405.85	2431.82
406.05	2476.29
406.24	2406.07
406.43	2532.46
406.62	2651.83
406.81	2569.91
407.00	2523.10
407.20	2612.04
407.39	2525.44
407.58	2644.81
407.77	2612.04
407.96	2738.43
408.15	2750.13
408.34	2736.09
408.54	2724.38
408.73	2874.18
408.92	2864.82
409.11	2855.45
409.30	2789.92
409.49	2928.01
409.68	2932.69
409.87	2918.65
410.07	3028.65
410.26	3063.76
410.45	2960.78
410.64	3014.61
410.83	3155.04
411.02	3047.38
411.21	3164.40
411.40	2930.35
411.59	3150.36
411.78	3138.66
411.98	3089.51
412.17	3178.45
412.36	3248.66
412.55	3279.09
412.74	3384.41
412.93	3375.05
413.12	3375.05
413.31	3524.85
413.50	3485.06
413.69	3574.00
413.88	3700.39
414.07	3564.64
414.26	3625.49
414.45	3517.83
414.64	3684.00
414.83	3723.79
415.02	3679.32
415.22	3838.48
415.41	3932.10
415.60	3829.12
415.79	3857.20
415.98	3967.21
416.17	3899.33
416.36	3999.98
416.55	4077.21
416.74	4030.40
416.93	4170.83
417.12	4091.26
417.31	4140.41
417.50	4152.11
417.69	4301.90
417.88	4203.60
418.07	4234.03
418.26	4173.18
418.45	4180.20
418.64	4437.66
418.83	4353.40
419.02	4421.27
419.21	4297.22
419.39	4535.96
419.58	4449.36
419.77	4526.60
419.96	4477.44
420.15	4585.11
420.34	4535.96
420.53	4723.20
420.72	4620.22
420.91	4627.24
421.10	4713.84
421.29	4823.84
421.48	4629.58
421.67	4777.03
421.86	4770.01
422.05	4898.74
422.24	4842.57
422.43	4858.95
422.61	4772.35
422.80	4887.04
422.99	4905.76
423.18	4994.70
423.37	5001.72
423.56	4774.69
423.75	4882.36
423.94	4809.80
424.13	4496.17
424.32	4650.64
424.50	4908.10
424.69	4983.00
424.88	5212.37
425.07	4762.99
425.26	4716.18
425.45	4891.72
425.64	4999.38
425.83	4812.14
426.01	5001.72
426.20	5018.11
426.39	5039.17
426.58	5001.72
426.77	4865.97
426.96	5217.05
427.15	4983.00
427.33	5259.18
427.52	5114.07
427.71	5172.58
427.90	5069.60
428.09	5238.12
428.28	5486.22
428.46	5408.98
428.65	5261.52
428.84	5301.31
429.03	5408.98
429.22	5320.04
429.40	5336.42
429.59	5315.36
429.78	5224.08
429.97	5181.95
430.16	5324.72
430.34	5584.52
430.53	5554.09
430.72	5561.11
430.91	5596.22
431.10	5561.11
431.28	5755.38
431.47	5722.61
431.66	5809.21
431.85	5867.72
432.03	5816.23
432.22	5867.72
432.41	5823.25
432.60	5989.43
432.79	5781.12
432.97	6008.16
433.16	5895.81
433.35	5774.10
433.54	5994.11
433.72	6033.90
433.91	5954.32
434.10	6066.67
434.28	5930.92
434.47	6087.73
434.66	6106.46
434.85	6188.38
435.03	6232.85
435.22	6211.78
435.41	6459.88
435.59	6422.43
435.78	6445.84
435.97	6422.43
436.16	6354.55
436.34	6289.02
436.53	6417.75
436.72	6469.24
436.90	6431.79
437.09	6541.80
437.28	6590.95
437.46	6438.81
437.65	6649.46
437.84	6850.75
438.02	6712.66
438.21	6810.96
438.40	6715.00
438.58	6937.35
438.77	6864.79
438.96	6782.87
439.14	7080.12
439.33	7035.65
439.52	7192.47
439.70	7028.63
439.89	7243.96
440.08	7314.17
440.26	7185.44
440.45	7382.05
440.63	7517.80
440.82	7597.38
441.01	7445.24
441.19	7531.84
441.38	7686.32
441.57	7606.74
441.75	7665.25
441.94	7854.84
442.12	7953.14
442.31	8088.89
442.50	7852.50
442.68	7922.71
442.87	7929.74
443.05	8023.36
443.24	8257.41
443.43	7955.48
443.61	8086.55
443.80	8358.05
443.98	8018.68
444.17	7822.07
444.35	8037.40
444.54	8248.05
444.73	8173.15
444.91	8226.98
445.10	8325.29
445.28	8238.69
445.47	8030.38
445.65	8224.64
445.84	8313.58
446.02	8498.49
446.21	8245.71
446.39	8327.63
446.58	8329.97
446.77	8353.37
446.95	8105.28
447.14	8327.63
447.32	8416.57
447.51	8271.45
447.69	8285.50
447.88	8255.07
448.06	8718.50
448.25	8301.88
448.43	8493.80
448.62	8336.99
448.80	8334.65
448.99	8484.44
449.17	8760.63
449.36	8655.30
449.54	8819.14
449.73	8821.48
449.91	8847.22
450.10	8725.52
450.28	8971.27
450.46	8959.57
450.65	9076.60
450.83	8868.29
451.02	8933.82
451.20	9324.69
451.39	8973.61
451.57	9174.90
451.76	8982.98
451.94	8961.91
452.13	9132.77
452.31	9348.10
452.49	9071.92
452.68	9287.25
452.86	9327.03
453.05	9252.14
453.23	9495.55
453.42	9249.80
453.60	9254.48
453.78	9432.36
453.97	9275.54
454.15	9366.82
454.34	9284.91
454.52	9694.50
454.70	9497.89
454.89	9533.00
455.07	9844.29
455.26	9708.54
455.44	9804.50
455.62	9778.76
455.81	9631.30
455.99	10054.94
456.17	9825.57
456.36	10031.54
456.54	10186.01
456.73	10120.48
456.91	10216.44
457.09	10186.01
457.28	10487.94
457.46	10286.65
457.64	10352.19
457.83	10464.54
458.01	10459.85
458.19	10712.63
458.38	10293.68
458.56	10609.65
458.74	10642.42
458.93	10626.03
459.11	10696.25
459.29	10586.24
459.48	10616.67
459.66	10581.56
459.84	10925.62
460.03	11000.52
460.21	10761.78
460.39	10963.07
460.57	10960.73
460.76	10986.47
460.94	11197.12
461.12	11309.47
461.31	11173.72
461.49	11169.04
461.67	11157.33
461.85	11363.30
462.04	11470.97
462.22	11721.40
462.40	11489.69
462.59	11590.33
462.77	11384.37
462.95	11562.25
463.13	11557.57
463.32	11735.45
463.50	11595.01
463.68	11679.27
463.86	11705.02
464.05	11379.68
464.23	11599.70
464.41	11723.74
464.59	11646.51
464.78	12028.01
464.96	11847.79
465.14	11829.07
465.32	11871.20
465.50	11929.71
465.69	12135.68
465.87	12067.80
466.05	11981.20
466.23	12212.92
466.41	12065.46
466.60	12343.99
466.78	12046.74
466.96	12182.49
467.14	12170.79
467.32	12463.35
467.51	12444.63
467.69	11852.47
467.87	12395.48
468.05	12278.45
468.23	12390.80
468.41	12542.93
468.60	12472.71
468.78	12802.73
468.96	12526.55
469.14	12643.57
469.32	12711.45
469.50	12596.76
469.69	12739.54
469.87	13139.77
470.05	12851.88
470.23	13235.73
470.41	12884.65
470.59	12957.21
470.77	13036.78
470.95	13291.90
471.14	13348.08
471.32	13064.87
471.50	13680.43
471.68	13572.77
471.86	13577.45
472.04	13479.15
472.22	13912.14
472.40	13383.18
472.58	13668.73
472.77	14022.15
472.95	14083.00
473.13	14303.01
473.31	14127.47
473.49	14136.84
473.67	13909.80
473.85	14162.58
474.03	14553.45
474.21	14256.20
474.39	14345.14
474.57	14698.56
474.75	14836.66
474.93	14930.28
475.12	14780.48
475.30	15059.01
475.48	14956.02
475.66	15059.01
475.84	15056.67
476.02	15405.41
476.20	15110.50
476.38	15541.16
476.56	15845.43
476.74	15934.37
476.92	15709.68
477.10	15564.56
477.28	16020.97
477.46	15878.19
477.64	16269.06
477.82	16582.70
478.00	16812.07
478.18	16652.91
478.36	16936.12
478.54	17296.56
478.72	17144.42
478.90	17174.85
479.08	17479.12
479.26	17549.34
479.44	17572.74
479.62	17607.85
479.80	18012.76
479.98	17862.97
480.16	18424.70
480.34	18183.62
480.52	18469.17
480.70	18478.53
480.88	18333.42
481.06	18485.55
481.24	18752.37
481.41	18724.29
481.59	19241.54
481.77	19304.74
481.95	19283.67
482.13	19482.62
482.31	19613.69
482.49	19829.02
482.67	19831.36
482.85	20299.47
483.03	20306.49
483.21	20723.10
483.39	20741.83
483.57	20669.27
483.74	21242.70
483.92	21319.94
484.10	21010.99
484.28	21642.93
484.46	21724.85
484.64	22281.90
484.82	21979.97
485.00	21891.03
485.18	22611.92
485.35	22672.77
485.53	22551.06
485.71	22813.20
485.89	23332.80
486.07	22876.40
486.25	23496.64
486.43	23381.95
486.61	23452.17
486.78	23910.91
486.96	24039.64
487.14	24486.68
487.32	24269.01
487.50	24915.00
487.68	24833.08
487.85	24922.02
488.03	25549.29
488.21	25371.41
488.39	25703.76
488.57	25837.17
488.75	25909.73
488.92	26256.13
489.10	26218.68
489.28	26628.27
489.46	26771.05
489.64	26684.45
489.81	27545.76
489.99	27482.57
490.17	27449.80
490.35	27637.05
490.53	28243.24
490.70	28067.70
490.88	28081.75
491.06	28720.71
491.24	28563.90
491.41	28547.51
491.59	29418.19
491.77	29113.92
491.95	29151.37
492.13	29907.37
492.30	29415.85
492.48	29670.97
492.66	30019.71
492.84	29776.30
493.01	30265.47
493.19	30190.57
493.37	30387.18
493.54	30618.89
493.72	31087.00
493.90	31070.61
494.08	31779.79
494.25	31601.91
494.43	31653.40
494.61	31910.86
494.79	32142.58
494.96	32020.87
495.14	32828.35
495.32	32807.29
495.49	32840.06
495.67	33111.56
495.85	33394.76
496.02	33560.94
496.20	33701.37
496.38	33645.20
496.55	34204.59
496.73	34686.74
496.91	33975.22
497.09	34349.70
497.26	34312.25
497.44	34705.46
497.62	34679.72
497.79	35260.17
497.97	35342.09
498.14	35529.33
498.32	35934.24
498.50	35665.08
498.67	36219.79
498.85	36449.16
499.03	36259.58
499.20	36282.98
499.38	36711.30
499.56	36706.62
499.73	36938.33
499.91	37095.15
500.08	37689.65
500.26	36882.16
500.44	37275.37
500.61	37556.24
500.79	37481.34
500.97	37722.41
501.14	38312.23
501.32	38038.39
501.49	38211.59
501.67	38490.11
501.84	38843.53
502.02	38469.04
502.20	38719.48
502.37	38710.12
502.55	38639.90
502.72	39372.49
502.90	39093.97
503.07	39105.67
503.25	39335.04
503.43	39459.09
503.60	39922.52
503.78	39526.97
503.95	39543.35
504.13	40374.24
504.30	40172.96
504.48	40105.08
504.65	40512.33
504.83	40825.96
505.01	40933.63
505.18	40832.99
505.36	41294.07
505.53	40942.99
505.71	41296.41
505.88	41411.10
506.06	40835.33
506.23	41399.40
506.41	41588.98
506.58	41902.61
506.76	41965.81
506.93	42497.11
507.11	42054.75
507.28	42213.90
507.46	42642.22
507.63	42653.92
507.81	42759.25
507.98	42646.90
508.16	42719.46
508.33	43346.72
508.50	43133.73
508.68	43636.95
508.85	43669.72
509.03	43580.78
509.20	43597.16
509.38	44058.24
509.55	43749.29
509.73	43550.35
509.90	44034.84
510.08	43887.39
510.25	44374.22
510.42	44481.88
510.60	44971.05
510.77	44781.47
510.95	45111.49
511.12	45275.32
511.30	45280.00
511.47	44624.65
511.64	45640.45
511.82	45385.33
511.99	45041.27
512.17	45308.09
512.34	45626.40
512.51	45991.53
512.69	46120.26
512.86	46129.62
513.04	46213.88
513.21	46494.74
513.38	46396.44
513.56	46583.68
513.73	46394.10
513.90	46593.04
514.08	46319.20
514.25	47049.45
514.43	47327.97
514.60	47049.45
514.77	46747.52
514.95	47339.68
515.12	47456.70
515.29	46974.55
515.47	47660.33
515.64	47622.88
515.81	47372.44
515.99	47915.45
516.16	47971.62
516.33	48423.34
516.51	48488.88
516.68	48236.10
516.85	47924.81
517.03	48512.28
517.20	48687.82
517.37	48416.32
517.54	48811.87
517.72	48624.63
517.89	48760.38
518.06	48842.30
518.24	48378.87
518.41	48999.12
518.58	49052.95
518.75	49275.30
518.93	49158.27
519.10	49193.38
519.27	49663.83
519.45	49495.31
519.62	49734.04
519.79	49635.74
519.96	49741.06
520.14	50218.53
520.31	49757.45
520.48	49825.32
520.65	50045.33
520.83	50335.56
521.00	50373.01
521.17	49940.01
521.34	50548.55
521.52	50260.66
521.69	50511.10
521.86	50614.08
522.03	50857.50
522.20	51077.51
522.38	51341.99
522.55	51047.08
522.72	51100.92
522.89	51011.98
523.07	51327.95
523.24	51253.05
523.41	51505.83
523.58	51264.75
523.75	51601.79
523.92	51363.06
524.10	51709.46
524.27	51744.56
524.44	52097.98
524.61	52009.04
524.78	52018.41
524.96	52053.51
525.13	51866.27
525.30	51976.28
525.47	52348.42
525.64	51976.28
525.81	52514.60
525.98	52589.50
526.16	52383.53
526.33	52465.45
526.50	52755.68
526.67	52488.85
526.84	52823.55
527.01	52526.30
527.18	52453.75
527.36	52790.78
527.53	52861.00
527.70	53041.22
527.87	53396.98
528.04	53104.41
528.21	52989.73
528.38	53099.73
528.55	53457.84
528.72	52987.39
528.89	53132.50
529.07	53202.72
529.24	53158.25
529.41	53394.64
529.58	53155.91
529.75	53357.19
529.92	53542.10
530.09	53497.62
530.26	53773.81
530.43	53804.24
530.60	53577.20
530.77	53738.70
530.94	53815.94
531.11	53939.99
531.28	53631.04
531.46	53991.48
531.63	53904.88
531.80	54127.23
531.97	54300.43
532.14	54328.52
532.31	54143.61
532.48	54251.28
532.65	54541.50
532.82	54178.72
532.99	54508.74
533.16	54274.68
533.33	54513.42
533.50	54600.02
533.67	54754.49
533.84	54443.20
534.01	54848.11
534.18	54705.34
534.35	54934.71
534.52	54986.21
534.69	54789.60
534.86	55068.12
535.03	55058.76
535.20	54843.43
535.37	55154.72
535.54	55168.77
535.71	54958.12
535.88	55182.81
536.05	55229.62
536.22	55363.03
536.38	55238.98
536.55	55246.00
536.72	55451.97
536.89	55131.32
537.06	55433.25
537.23	55458.99
537.40	55447.29
537.57	55529.21
537.74	55667.30
537.91	55821.78
538.08	55576.02
538.25	55391.12
538.42	55604.11
538.59	55896.67
538.75	55786.67
538.92	55786.67
539.09	55997.32
539.26	56090.94
539.43	55742.20
539.60	55852.20
539.77	56088.60
539.94	56133.07
540.11	56310.95
540.28	56254.78
540.44	56074.55
540.61	56121.37
540.78	56198.60
540.95	56009.02
541.12	56034.77
541.29	56193.92
541.46	56301.59
541.62	56481.81
541.79	56292.22
541.96	56231.37
542.13	56371.80
542.30	56397.55
542.47	56587.13
542.63	56392.87
542.80	56584.79
542.97	56786.08
543.14	56886.72
543.31	57073.96
543.48	57254.18
543.64	57010.77
543.81	57336.10
543.98	57148.86
544.15	57010.77
544.32	57073.96
544.48	57279.93
544.65	57069.28
544.82	57221.42
544.99	56868.00
545.16	57057.58
545.32	57048.22
545.49	57408.66
545.66	57565.48
545.83	57488.24
546.00	57460.15
546.16	57567.82
546.33	57378.23
546.50	57052.90
546.67	57371.21
546.83	57322.06
547.00	57471.85
547.17	57614.63
547.34	57558.45
547.50	57942.30
547.67	57904.85
547.84	57696.55
548.00	57715.27
548.17	58117.84
548.34	57923.58
548.51	58073.37
548.67	58143.59
548.84	58117.84
549.01	57942.30
549.18	57935.28
549.34	58092.10
549.51	58272.32
549.68	58291.04
549.84	58085.07
550.01	58216.14
550.18	57977.41
550.34	58288.70
550.51	58370.62
550.68	58251.25
550.84	58134.23
551.01	58330.83
551.18	58248.91
551.34	58520.41
551.51	58206.78
551.68	58384.66
551.84	58550.84
552.01	58513.39
552.18	58569.57
552.34	58181.04
552.51	58656.17
552.68	58515.73
552.84	58372.96
553.01	58639.78
553.18	58480.63
553.34	58518.07
553.51	58810.64
553.67	58707.66
553.84	58679.57
554.01	58663.19
554.17	59009.59
554.34	58677.23
554.51	58829.37
554.67	58705.32
554.84	58871.49
555.00	58981.50
555.17	58887.88
555.33	58965.12
555.50	58827.02
555.67	58766.17
555.83	58759.15
556.00	58904.26
556.16	59180.45
556.33	59348.96
556.50	59250.66
556.66	59281.09
556.83	58934.69
556.99	59192.15
557.16	59377.05
557.32	59147.68
557.49	59480.03
557.65	59243.64
557.82	59222.58
557.98	58944.05
558.15	59159.38
558.32	59082.14
558.48	59157.04
558.65	59290.45
558.81	59377.05
558.98	59222.58
559.14	59318.54
559.31	59306.83
559.47	59461.31
559.64	59625.15
559.80	59664.94
559.97	59568.97
560.13	59217.89
560.30	59526.84
560.46	59803.03
560.63	59531.53
560.79	59395.77
560.96	59774.94
561.12	59618.13
561.29	59917.71
561.45	59721.11
561.61	59620.47
561.78	59606.42
561.94	59491.74
562.11	59629.83
562.27	59599.40
562.44	59709.41
562.60	59906.01
562.77	59917.71
562.93	59650.89
563.10	59966.87
563.26	59566.63
563.42	60069.85
563.59	59730.47
563.75	59807.71
563.92	59751.54
564.08	59882.61
564.24	59992.61
564.41	59821.75
564.57	59973.89
564.74	60079.21
564.90	59819.41
565.07	59882.61
565.23	59990.27
565.39	59896.65
565.56	60020.70
565.72	59756.22
565.88	60083.89
566.05	59927.08
566.21	60037.08
566.38	60144.75
566.54	60144.75
566.70	60184.54
566.87	60324.97
567.03	60119.00
567.19	60336.67
567.36	60065.17
567.52	60048.78
567.68	60275.82
567.85	60257.09
568.01	60259.43
568.17	60135.38
568.34	60271.14
568.50	60226.66
568.66	60133.04
568.83	60074.53
568.99	60079.21
569.15	60210.28
569.32	60322.63
569.48	60154.11
569.64	60191.56
569.81	60196.24
569.97	60140.07
570.13	60257.09
570.30	60177.51
570.46	60339.01
570.62	60395.18
570.78	60353.05
570.95	60189.22
571.11	60662.00
571.27	60233.69
571.43	60264.11
571.60	60392.84
571.76	60385.82
571.92	60388.16
572.09	60549.66
572.25	60533.28
572.41	60250.07
572.57	60278.16
572.74	60610.51
572.90	60214.96
573.06	60505.19
573.22	60479.44
573.38	60439.65
573.55	60563.70
573.71	60537.96
573.87	60549.66
574.03	60479.44
574.20	60495.83
574.36	60559.02
574.52	60577.75
574.68	60512.21
574.84	60561.36
575.01	60474.76
575.17	60568.38
575.33	60509.87
575.49	60416.25
575.65	60722.86
575.82	60523.91
575.98	60610.51
576.14	60755.63
576.30	60493.49
576.46	60507.53
576.62	60650.30
576.79	60608.17
576.95	60395.18
577.11	60589.45
577.27	60685.41
577.43	60706.47
577.59	60507.53
577.75	60594.13
577.92	60582.43
578.08	60608.17
578.24	60575.40
578.40	60781.37
578.56	60907.76
578.72	60697.11
578.88	60938.19
579.04	60910.10
579.21	60708.82
579.37	60924.14
579.53	60706.47
579.69	60619.88
579.85	60636.26
580.01	60786.05
580.17	60528.59
580.33	60736.90
580.49	60945.21
580.65	60804.78
580.82	60743.92
580.98	60715.84
581.14	60561.36
581.30	60889.04
581.46	60736.90
581.62	60772.01
581.78	60715.84
581.94	60690.09
582.10	60669.03
582.26	60594.13
582.42	60720.52
582.58	60858.61
582.74	60652.64
582.90	60746.26
583.06	60680.73
583.22	60694.77
583.38	60598.81
583.54	60582.43
583.70	61050.53
583.86	60774.35
584.02	60636.26
584.18	60739.24
584.34	60863.29
584.50	60849.25
584.66	60671.37
584.82	60659.66
584.98	61027.13
585.14	60912.44
585.30	60753.29
585.46	60814.14
585.62	60935.85
585.78	60891.38
585.94	60657.32
586.10	60879.67
586.26	60959.25
586.42	60968.61
586.58	60982.66
586.74	61034.15
586.90	60683.07
587.06	60685.41
587.22	60931.17
587.38	60725.20
587.54	60830.52
587.70	60931.17
587.86	60933.51
588.02	60882.02
588.18	60945.21
588.34	60992.02
588.49	61036.49
