SpectraSuite Data File
++++++++++++++++++++++++++++++++++++
Date: Fri Oct 25 10:44:22 EDT 2013
User: price-jones
Dark Spectrum Present: No
Reference Spectrum Present: No
Number of Sampled Component Spectra: 1
Spectrometers: USB2+H05261
Integration Time (usec): 100000 (USB2+H05261)
Spectra Averaged: 1 (USB2+H05261)
Boxcar Smoothing: 0 (USB2+H05261)
Correct for Electrical Dark: No (USB2+H05261)
Strobe/Lamp Enabled: No (USB2+H05261)
Correct for Detector Non-linearity: No (USB2+H05261)
Correct for Stray Light: No (USB2+H05261)
Number of Pixels in Processed Spectrum: 2048
>>>>>Begin Processed Spectral Data<<<<<
365.73	149.79
365.92	149.79
366.12	149.79
366.32	63.19
366.52	0.00
366.72	102.98
366.91	0.00
367.11	4.68
367.31	21.06
367.51	49.15
367.70	81.92
367.90	23.41
368.10	21.06
368.30	32.77
368.49	0.00
368.69	0.00
368.89	14.04
369.09	51.49
369.28	77.24
369.48	51.49
369.68	60.85
369.87	56.17
370.07	102.98
370.27	156.82
370.47	201.29
370.66	395.55
370.86	381.51
371.06	472.79
371.25	547.69
371.45	451.72
371.65	526.62
371.84	454.06
372.04	440.02
372.24	528.96
372.44	540.66
372.63	552.37
372.83	521.94
373.03	514.92
373.22	552.37
373.42	564.07
373.62	594.50
373.81	500.87
374.01	559.39
374.21	564.07
374.40	545.34
374.60	622.58
374.79	545.34
374.99	662.37
375.19	622.58
375.38	662.37
375.58	550.03
375.78	554.71
375.97	664.71
376.17	657.69
376.37	629.60
376.56	634.29
376.76	578.11
376.95	599.18
377.15	657.69
377.35	732.59
377.54	650.67
377.74	627.26
377.93	739.61
378.13	711.52
378.33	681.10
378.52	667.05
378.72	674.07
378.91	688.12
379.11	713.86
379.31	774.72
379.50	629.60
379.70	765.36
379.89	725.57
380.09	664.71
380.28	763.01
380.48	741.95
380.68	734.93
380.87	720.88
381.07	725.57
381.26	723.23
381.46	751.31
381.65	641.31
381.85	807.48
382.04	685.78
382.24	765.36
382.43	641.31
382.63	716.20
382.83	725.57
383.02	690.46
383.22	699.82
383.41	697.48
383.61	786.42
383.80	683.44
384.00	802.80
384.19	777.06
384.39	856.64
384.58	741.95
384.78	795.78
384.97	884.72
385.17	823.87
385.36	819.19
385.56	844.93
385.75	798.12
385.95	847.27
386.14	851.96
386.34	849.61
386.53	821.53
386.72	877.70
386.92	880.04
387.11	875.36
387.31	926.85
387.50	826.21
387.70	833.23
387.89	880.04
388.09	903.45
388.28	880.04
388.48	901.11
388.67	919.83
388.86	987.71
389.06	889.40
389.25	1071.97
389.45	1036.86
389.64	1008.77
389.84	1029.84
390.03	1036.86
390.22	1093.03
390.42	1097.71
390.61	985.37
390.81	1107.07
391.00	1053.24
391.19	1095.37
391.39	1039.20
391.58	1057.92
391.78	1008.77
391.97	1074.31
392.16	987.71
392.36	1086.01
392.55	1039.20
392.75	1048.56
392.94	936.21
393.13	1013.45
393.33	990.05
393.52	1027.50
393.71	1156.22
393.91	1067.28
394.10	1167.93
394.29	1121.12
394.49	1212.40
394.68	1273.25
394.88	1214.74
395.07	1259.21
395.26	1200.69
395.46	1219.42
395.65	1432.41
395.84	1249.85
396.04	1310.70
396.23	1299.00
396.42	1207.72
396.62	1287.29
396.81	1228.78
397.00	1172.61
397.19	1348.15
397.39	1371.55
397.58	1394.96
397.77	1497.94
397.97	1404.32
398.16	1458.15
398.35	1490.92
398.55	1504.96
398.74	1537.73
398.93	1535.39
399.12	1621.99
399.32	1598.59
399.51	1441.77
399.70	1544.75
399.90	1551.78
400.09	1626.67
400.28	1636.03
400.47	1724.97
400.67	1802.21
400.86	1788.17
401.05	1673.48
401.24	1769.44
401.44	1643.06
401.63	1710.93
401.82	1849.02
402.01	1792.85
402.21	1732.00
402.40	1837.32
402.59	1823.28
402.78	1795.19
402.97	1811.57
403.17	1778.81
403.36	1989.46
403.55	1980.09
403.74	1912.22
403.93	1877.11
404.13	1942.64
404.32	1980.09
404.51	1902.86
404.70	1956.69
404.89	1905.20
405.09	2026.90
405.28	1944.99
405.47	1893.49
405.66	2038.61
405.85	2150.95
406.05	2043.29
406.24	2085.42
406.43	2059.67
406.62	2197.76
406.81	2148.61
407.00	2202.44
407.20	2214.15
407.39	2108.82
407.58	2080.74
407.77	2148.61
407.96	2270.32
408.15	2291.38
408.34	2377.98
408.54	2275.00
408.73	2338.20
408.92	2300.75
409.11	2335.85
409.30	2356.92
409.49	2305.43
409.68	2331.17
409.87	2333.51
410.07	2394.37
410.26	2471.61
410.45	2392.03
410.64	2396.71
410.83	2506.71
411.02	2509.05
411.21	2729.06
411.40	2703.32
411.59	2705.66
411.78	2740.77
411.98	2691.62
412.17	2764.17
412.36	2785.24
412.55	2799.28
412.74	2906.95
412.93	2801.62
413.12	2801.62
413.31	3049.72
413.50	3026.31
413.69	2918.65
413.88	3042.70
414.07	3124.62
414.26	3054.40
414.45	3075.46
414.64	3023.97
414.83	3098.87
415.02	3307.18
415.22	3204.19
415.41	3169.09
415.60	3279.09
415.79	3316.54
415.98	3463.99
416.17	3265.05
416.36	3286.11
416.55	3269.73
416.74	3377.39
416.93	3363.35
417.12	3566.98
417.31	3382.07
417.50	3398.46
417.69	3538.89
417.88	3562.30
418.07	3548.25
418.26	3681.66
418.45	3632.51
418.64	3819.75
418.83	3733.15
419.02	3667.62
419.21	3829.12
419.39	3632.51
419.58	3597.40
419.77	3761.24
419.96	3871.25
420.15	3798.69
420.34	3775.28
420.53	3817.41
420.72	3985.93
420.91	3950.82
421.10	3978.91
421.29	3978.91
421.48	3941.46
421.67	4074.87
421.86	4070.19
422.05	3934.44
422.24	3808.05
422.43	3950.82
422.61	3911.04
422.80	3985.93
422.99	4117.00
423.18	4086.58
423.37	4067.85
423.56	4093.60
423.75	3913.38
423.94	4018.70
424.13	3754.22
424.32	4058.49
424.50	3995.29
424.69	4149.77
424.88	4131.05
425.07	4056.15
425.26	4114.66
425.45	4184.88
425.64	4060.83
425.83	4088.92
426.01	4217.65
426.20	4212.96
426.39	4154.45
426.58	4107.64
426.77	4044.45
426.96	4016.36
427.15	3894.65
427.33	4124.02
427.52	4210.62
427.71	4175.52
427.90	4234.03
428.09	4248.07
428.28	4173.18
428.46	4292.54
428.65	4290.20
428.84	4301.90
429.03	4381.48
429.22	4212.96
429.40	4100.62
429.59	4325.31
429.78	4138.07
429.97	3971.89
430.16	4177.86
430.34	4294.88
430.53	4245.73
430.72	4273.82
430.91	4468.08
431.10	4547.66
431.28	4627.24
431.47	4781.71
431.66	4657.67
431.85	4699.80
432.03	4889.38
432.22	4821.50
432.41	4706.82
432.60	4765.33
432.79	4873.00
432.97	4973.64
433.16	4873.00
433.35	4751.29
433.54	4877.68
433.72	4938.53
433.91	4849.59
434.10	5001.72
434.28	4863.63
434.47	5118.75
434.66	5095.35
434.85	5055.56
435.03	5151.52
435.22	5048.54
435.41	5139.82
435.59	5093.01
435.78	5130.45
435.97	5179.61
436.16	5242.80
436.34	5158.54
436.53	5504.94
436.72	5540.05
436.90	5259.18
437.09	5364.51
437.28	5329.40
437.46	5401.96
437.65	5394.93
437.84	5437.06
438.02	5142.16
438.21	5406.64
438.40	5214.71
438.58	5408.98
438.77	5612.60
438.96	5390.25
439.14	5703.89
439.33	5851.34
439.52	5928.58
439.70	5795.17
439.89	5907.51
440.08	5898.15
440.26	5811.55
440.45	5827.93
440.63	6047.94
440.82	6073.69
441.01	6080.71
441.19	6225.82
441.38	6183.70
441.57	6139.23
441.75	6256.25
441.94	6427.11
442.12	6511.37
442.31	6478.60
442.50	6560.52
442.68	6745.42
442.87	6562.86
443.05	6548.82
443.24	6822.66
443.43	6670.53
443.61	6736.06
443.80	6927.99
443.98	6387.32
444.17	6335.83
444.35	6825.00
444.54	6834.36
444.73	6815.64
444.91	6686.91
445.10	6595.63
445.28	6736.06
445.47	6445.84
445.65	6604.99
445.84	6778.19
446.02	6722.02
446.21	6644.78
446.39	6773.51
446.58	6848.41
446.77	7075.44
446.95	6768.83
447.14	6813.30
447.32	7021.61
447.51	6977.14
447.69	6920.96
447.88	6960.75
448.06	6832.02
448.25	6810.96
448.43	6932.67
448.62	6927.99
448.80	7066.08
448.99	6984.16
449.17	7110.55
449.36	6956.07
449.54	7307.15
449.73	7375.03
449.91	7431.20
450.10	7466.31
450.28	7492.05
450.46	7475.67
450.65	7482.69
450.83	7644.19
451.02	7435.88
451.20	7524.82
451.39	7510.78
451.57	7482.69
451.76	7405.46
451.94	7414.82
452.13	7536.52
452.31	7403.11
452.49	7300.13
452.68	7419.50
452.86	7452.27
453.05	7496.74
453.23	7576.31
453.42	7485.03
453.60	7590.36
453.78	7964.84
453.97	7730.79
454.15	7524.82
454.34	7669.94
454.52	7751.85
454.70	7735.47
454.89	7754.19
455.07	7770.58
455.26	7782.28
455.44	8035.06
455.62	8021.02
455.81	7929.74
455.99	8016.33
456.17	8147.40
456.36	7957.82
456.54	8224.64
456.73	8180.17
456.91	8365.07
457.09	8290.18
457.28	8517.21
457.46	8329.97
457.64	8381.46
457.83	8547.64
458.01	8236.35
458.19	8461.04
458.38	8365.07
458.56	8498.49
458.74	8573.38
458.93	8428.27
459.11	8416.57
459.29	8531.25
459.48	8514.87
459.66	8594.45
459.84	8730.20
460.03	8762.97
460.21	8856.59
460.39	8758.28
460.57	8828.50
460.76	8765.31
460.94	8856.59
461.12	8910.42
461.31	8968.93
461.49	8973.61
461.67	8872.97
461.85	9100.00
462.04	9165.54
462.22	9228.73
462.40	9240.44
462.59	9011.06
462.77	9104.68
462.95	9195.96
463.13	9289.59
463.32	9341.08
463.50	9217.03
463.68	9518.96
463.86	9212.35
464.05	9207.67
464.23	9195.96
464.41	9343.42
464.59	9118.73
464.78	9577.47
464.96	9366.82
465.14	9301.29
465.32	9408.95
465.50	9523.64
465.69	9678.12
465.87	9338.74
466.05	9582.15
466.23	9469.81
466.41	9514.28
466.60	9715.56
466.78	9469.81
466.96	9535.34
467.14	9507.26
467.32	9469.81
467.51	9797.48
467.69	9408.95
467.87	9490.87
468.05	9877.06
468.23	9675.77
468.41	9659.39
468.60	9958.98
468.78	9980.04
468.96	9816.21
469.14	10038.56
469.32	10073.67
469.50	9825.57
469.69	9977.70
469.87	9998.77
470.05	10188.35
470.23	10214.10
470.41	10092.39
470.59	10171.97
470.77	10251.55
470.95	10422.41
471.14	10583.90
471.32	10263.25
471.50	10480.92
471.68	10733.70
471.86	10654.12
472.04	10679.86
472.22	11007.54
472.40	10429.43
472.58	10588.58
472.77	10733.70
472.95	10923.28
473.13	11250.96
473.31	10944.34
473.49	10934.98
473.67	10792.21
473.85	11028.60
474.03	11351.60
474.21	11140.95
474.39	11351.60
474.57	11290.74
474.75	11513.10
474.93	11702.68
475.12	11379.68
475.30	11250.96
475.48	11634.80
475.66	11494.37
475.84	11630.12
476.02	11583.31
476.20	11562.25
476.38	12011.63
476.56	12292.49
476.74	12280.79
476.92	12079.50
477.10	12435.27
477.28	12386.12
477.46	12507.82
477.64	12521.87
477.82	12713.79
478.00	13064.87
478.18	12840.18
478.36	13013.38
478.54	12802.73
478.72	12957.21
478.90	13383.18
479.08	13371.48
479.26	13696.82
479.44	13717.88
479.62	13542.34
479.80	13692.13
479.98	14097.05
480.16	13923.85
480.34	13785.76
480.52	14317.06
480.70	14384.93
480.88	14185.99
481.06	14506.64
481.24	14452.81
481.41	14831.97
481.59	15012.20
481.77	14604.94
481.95	14934.96
482.13	14824.95
482.31	14906.87
482.49	15318.81
482.67	15098.80
482.85	15360.94
483.03	15733.08
483.21	15609.03
483.39	15889.90
483.57	15700.31
483.74	15920.32
483.92	16264.38
484.10	15950.75
484.28	16496.10
484.46	16624.83
484.64	16746.53
484.82	16556.95
485.00	16493.76
485.18	16814.41
485.35	17282.52
485.53	16704.40
485.71	16716.11
485.89	16802.71
486.07	16957.18
486.25	17245.07
486.43	17291.88
486.61	17638.28
486.78	17813.82
486.96	17558.70
487.14	17987.02
487.32	18040.85
487.50	18703.22
487.68	18595.56
487.85	18991.11
488.03	18911.53
488.21	19424.11
488.39	19187.71
488.57	19396.02
488.75	19192.39
488.92	19833.70
489.10	19866.47
489.28	19838.38
489.46	20196.48
489.64	20147.33
489.81	20608.42
489.99	20680.97
490.17	20613.10
490.35	20730.12
490.53	20936.09
490.70	20919.71
490.88	20898.64
491.06	21085.89
491.24	21401.86
491.41	21701.45
491.59	21336.32
491.77	21266.11
491.95	21799.75
492.13	21839.54
492.30	22057.21
492.48	22394.25
492.66	22242.11
492.84	22480.85
493.01	22728.94
493.19	22904.48
493.37	22780.43
493.54	22836.61
493.72	23091.73
493.90	23115.13
494.08	23592.60
494.25	23758.78
494.43	23903.89
494.61	24313.48
494.79	23882.83
494.96	24215.18
495.14	24081.77
495.32	24503.07
495.49	24287.74
495.67	24276.04
495.85	24870.53
496.02	24879.89
496.20	25245.02
496.38	24816.70
496.55	25261.40
496.73	25741.21
496.91	25338.64
497.09	25701.42
497.26	26199.96
497.44	26134.42
497.62	25895.69
497.79	26162.51
497.97	25631.21
498.14	26209.32
498.32	26256.13
498.50	26380.18
498.67	26326.35
498.85	26845.94
499.03	26953.61
499.20	27171.28
499.38	27030.85
499.56	27040.21
499.73	27402.99
499.91	27278.94
500.08	27454.48
500.26	26838.92
500.44	27346.82
500.61	27489.59
500.79	27379.59
500.97	27503.64
501.14	28074.73
501.32	27695.56
501.49	28074.73
501.67	27463.85
501.84	28088.77
502.02	28070.04
502.20	28432.83
502.37	28725.39
502.55	28205.80
502.72	28907.96
502.90	28807.31
503.07	28465.60
503.25	28797.95
503.43	28973.49
503.60	28741.78
503.78	28753.48
503.95	28952.43
504.13	29544.58
504.30	29640.54
504.48	29137.33
504.65	29773.95
504.83	29736.51
505.01	29699.06
505.18	29830.13
505.36	30347.39
505.53	30382.49
505.71	30658.68
505.88	30272.49
506.06	30176.53
506.23	30326.32
506.41	30040.78
506.58	30316.96
506.76	30497.18
506.93	30941.88
507.11	30885.71
507.28	31082.31
507.46	30429.30
507.63	30342.70
507.81	31061.25
507.98	30801.45
508.16	31477.86
508.33	31250.83
508.50	31704.90
508.68	32034.91
508.85	32034.91
509.03	31943.63
509.20	31885.12
509.38	31761.07
509.55	32158.96
509.73	31866.39
509.90	32273.65
510.08	32479.61
510.25	32264.28
510.42	32428.12
510.60	32587.28
510.77	32627.07
510.95	32971.13
511.12	32816.65
511.30	33251.99
511.47	33532.86
511.64	33483.70
511.82	33535.20
511.99	33172.41
512.17	32959.42
512.34	32982.83
512.51	33029.64
512.69	33654.56
512.86	33633.50
513.04	33659.24
513.21	33876.91
513.38	33577.33
513.56	33680.31
513.73	33177.09
513.90	33750.52
514.08	33858.19
514.25	34501.84
514.43	33790.31
514.60	33984.58
514.77	34066.50
514.95	34909.09
515.12	34178.84
515.29	34586.10
515.47	35005.05
515.64	34822.49
515.81	34607.16
515.99	34377.79
516.16	34660.99
516.33	34700.78
516.51	34525.24
516.68	34160.12
516.85	34155.44
517.03	34288.85
517.20	34665.67
517.37	34930.16
517.54	35550.40
517.72	35288.26
517.89	34698.44
518.06	34773.34
518.24	35047.18
518.41	35068.25
518.58	35185.27
518.75	35597.21
518.93	35599.55
519.10	35798.49
519.27	35681.47
519.45	36044.25
519.62	35985.74
519.79	36500.65
519.96	36472.57
520.14	36336.82
520.31	36039.57
520.48	36325.11
520.65	36350.86
520.83	36952.38
521.00	36732.37
521.17	36865.78
521.34	36886.84
521.52	37083.45
521.69	37301.12
521.86	37001.53
522.03	37127.92
522.20	37221.54
522.38	37284.73
522.55	36961.74
522.72	37029.62
522.89	37376.01
523.07	37809.01
523.24	37418.14
523.41	37853.48
523.58	37734.12
523.75	38246.69
523.92	38061.79
524.10	38230.31
524.27	38396.49
524.44	38511.17
524.61	38139.03
524.78	38438.62
524.96	38490.11
525.13	38515.86
525.30	38667.99
525.47	38679.69
525.64	38747.57
525.81	38508.83
525.98	38511.17
526.16	37907.32
526.33	37919.02
526.50	38553.30
526.67	38000.94
526.84	38103.92
527.01	38359.04
527.18	38665.65
527.36	39271.85
527.53	38864.60
527.70	39583.14
527.87	39889.75
528.04	38897.36
528.21	39594.84
528.38	38939.49
528.55	39976.35
528.72	39861.66
528.89	40009.12
529.07	39562.08
529.24	39157.16
529.41	39550.37
529.58	39772.72
529.75	39667.40
529.92	39945.92
530.09	39849.96
530.26	39875.71
530.43	40091.04
530.60	40163.59
530.77	39866.34
530.94	40018.48
531.11	40381.26
531.28	40704.26
531.46	40605.95
531.63	40872.78
531.80	40517.01
531.97	40421.05
532.14	40369.56
532.31	40013.80
532.48	40374.24
532.65	40388.28
532.82	40615.32
532.99	40488.93
533.16	40755.75
533.33	40914.90
533.50	41291.73
533.67	40964.06
533.84	40800.22
534.01	40861.07
534.18	41177.04
534.35	41429.82
534.52	41319.82
534.69	40959.38
534.86	41354.93
535.03	41565.57
535.20	41982.19
535.37	41757.50
535.54	42197.52
535.71	41916.65
535.88	41893.25
536.05	41668.56
536.22	42337.95
536.38	41680.26
536.55	41436.84
536.72	41649.83
536.89	41312.80
537.06	41771.54
537.23	42045.38
537.40	42141.35
537.57	41998.57
537.74	42136.66
537.91	42312.20
538.08	42363.70
538.25	42260.71
538.42	42021.98
538.59	42513.49
538.75	41846.44
538.92	41764.52
539.09	41776.22
539.26	42019.64
539.43	42541.58
539.60	41933.04
539.77	42265.39
539.94	42241.99
540.11	42120.28
540.28	42157.73
540.44	42433.91
540.61	42260.71
540.78	42270.08
540.95	42497.11
541.12	42625.84
541.29	42099.22
541.46	42735.84
541.62	42918.40
541.79	42766.27
541.96	42614.13
542.13	42841.17
542.30	42763.93
542.47	43526.94
542.63	42567.32
542.80	43166.50
542.97	43512.90
543.14	43807.81
543.31	43241.40
543.48	43573.75
543.64	44313.36
543.81	43981.01
543.98	44086.33
544.15	43501.20
544.32	44006.75
544.48	44226.76
544.65	43943.56
544.82	43941.22
544.99	43789.08
545.16	43662.69
545.32	43903.77
545.49	44032.50
545.66	44292.30
545.83	44271.23
546.00	44163.57
546.16	44203.36
546.33	43852.28
546.50	43828.87
546.67	44395.28
546.83	44023.14
547.00	44573.16
547.17	43833.55
547.34	44406.98
547.50	44215.06
547.67	44383.58
547.84	44013.77
548.00	44275.91
548.17	44957.01
548.34	44561.46
548.51	44968.71
548.67	44949.99
548.84	44507.63
549.01	44411.67
549.18	44589.55
549.34	44493.58
549.51	44935.95
549.68	44315.70
549.84	45158.30
550.01	45177.02
550.18	44676.15
550.34	45013.18
550.51	45090.42
550.68	44748.70
550.84	44664.44
551.01	45230.85
551.18	44690.19
551.34	45120.85
551.51	45308.09
551.68	45202.77
551.84	44975.73
552.01	44985.10
552.18	45315.11
552.34	45226.17
552.51	45195.74
552.68	45464.91
552.84	45471.93
553.01	45507.04
553.18	45380.65
553.34	45268.30
553.51	45624.06
553.67	45666.19
553.84	45567.89
554.01	45979.82
554.17	45420.44
554.34	45867.48
554.51	45942.38
554.67	45530.44
554.84	45502.35
555.00	45902.59
555.17	45317.45
555.33	45504.70
555.50	45242.56
555.67	45387.67
555.83	45633.42
556.00	45546.82
556.16	46298.14
556.33	45675.55
556.50	45668.53
556.66	45689.60
556.83	45567.89
556.99	46408.14
557.16	45914.29
557.32	45942.38
557.49	45647.47
557.65	45600.66
557.82	45951.74
557.98	46040.68
558.15	45977.48
558.32	45890.88
558.48	45834.71
558.65	45755.13
558.81	45909.61
558.98	45909.61
559.14	46099.19
559.31	45837.05
559.47	46199.83
559.64	46398.78
559.80	46237.28
559.97	46417.50
560.13	46031.32
560.30	46366.01
560.46	46071.10
560.63	46464.32
560.79	46204.52
560.96	46389.42
561.12	46724.11
561.29	46450.27
561.45	46258.35
561.61	46146.00
561.78	46419.84
561.94	46155.36
562.11	46059.40
562.27	46270.05
562.44	46298.14
562.60	46328.56
562.77	46766.24
562.93	46646.88
563.10	46490.06
563.26	46380.06
563.42	46490.06
563.59	46471.34
563.75	46408.14
563.92	46328.56
564.08	46160.05
564.24	46429.21
564.41	46630.49
564.57	46838.80
564.74	46677.30
564.90	46295.80
565.07	46602.41
565.23	46658.58
565.39	46696.03
565.56	46586.02
565.72	46457.29
565.88	46157.70
566.05	46206.86
566.21	46368.35
566.38	46590.70
566.54	46431.55
566.70	46869.23
566.87	47234.35
567.03	46398.78
567.19	47510.53
567.36	46930.08
567.52	46389.42
567.68	47054.13
567.85	46815.40
568.01	46864.55
568.17	47028.38
568.34	46712.41
568.50	46646.88
568.66	46478.36
568.83	46845.82
568.99	46258.35
569.15	46307.50
569.32	46298.14
569.48	46660.92
569.64	46799.01
569.81	46621.13
569.97	46412.82
570.13	46777.95
570.30	46571.98
570.46	46323.88
570.62	46630.49
570.78	46373.03
570.95	45951.74
571.11	46555.60
571.27	46642.20
571.43	46181.11
571.60	46614.11
571.76	46464.32
571.92	47035.41
572.09	46909.02
572.25	46665.60
572.41	46810.71
572.57	47587.77
572.74	47103.28
572.90	47110.30
573.06	47063.49
573.22	47171.16
573.38	46887.95
573.55	46733.48
573.71	47203.92
573.87	47077.54
574.03	46679.64
574.20	46485.38
574.36	46918.38
574.52	46628.15
574.68	47271.80
574.84	47000.30
575.01	46859.87
575.17	46534.53
575.33	46349.63
575.49	46454.95
575.65	47065.83
575.82	46745.18
575.98	47040.09
576.14	47068.17
576.30	47311.59
576.46	47007.32
576.62	46546.23
576.79	47058.81
576.95	46817.74
577.11	46630.49
577.27	46890.29
577.43	47262.44
577.59	46548.57
577.75	46813.05
577.92	46733.48
578.08	46705.39
578.24	46267.71
578.40	46784.97
578.56	47054.13
578.72	46850.50
578.88	47625.22
579.04	47241.37
579.21	46813.05
579.37	46827.10
579.53	46810.71
579.69	47030.72
579.85	46843.48
580.01	46967.53
580.17	46768.58
580.33	47220.31
580.49	46932.42
580.65	47349.04
580.82	47089.24
580.98	46703.05
581.14	46473.68
581.30	46932.42
581.46	47154.77
581.62	47112.64
581.78	46916.04
581.94	47103.28
582.10	47112.64
582.26	46600.07
582.42	47157.11
582.58	46892.63
582.74	47112.64
582.90	47136.05
583.06	47037.75
583.22	46693.69
583.38	46990.94
583.54	47292.86
583.70	47105.62
583.86	47409.89
584.02	46827.10
584.18	47136.05
584.34	47138.39
584.50	46969.87
584.66	46738.16
584.82	46810.71
584.98	47047.11
585.14	47414.57
585.30	47065.83
585.46	46850.50
585.62	46522.83
585.78	46974.55
585.94	46784.97
586.10	47217.97
586.26	46897.31
586.42	47166.48
586.58	47189.88
586.74	46890.29
586.90	46625.81
587.06	47103.28
587.22	47320.95
587.38	46518.15
587.54	46983.91
587.70	47147.75
587.86	47037.75
588.02	47037.75
588.18	47100.94
588.34	46637.51
588.49	46494.74
588.65	46403.46
588.81	46609.43
588.97	46677.30
589.13	46452.61
589.29	46506.44
589.45	46518.15
589.61	46593.04
589.77	47372.44
589.93	46815.40
