SpectraSuite Data File
++++++++++++++++++++++++++++++++++++
Date: Fri Oct 25 11:25:26 EDT 2013
User: price-jones
Dark Spectrum Present: No
Reference Spectrum Present: No
Number of Sampled Component Spectra: 1
Spectrometers: USB2+H05261
Integration Time (usec): 100000 (USB2+H05261)
Spectra Averaged: 1 (USB2+H05261)
Boxcar Smoothing: 0 (USB2+H05261)
Correct for Electrical Dark: No (USB2+H05261)
Strobe/Lamp Enabled: No (USB2+H05261)
Correct for Detector Non-linearity: No (USB2+H05261)
Correct for Stray Light: No (USB2+H05261)
Number of Pixels in Processed Spectrum: 2048
>>>>>Begin Processed Spectral Data<<<<<
365.73	208.31
365.92	208.31
366.12	208.31
366.32	142.77
366.52	112.35
366.72	154.48
366.91	110.01
367.11	121.71
367.31	79.58
367.51	105.32
367.70	182.56
367.90	175.54
368.10	170.86
368.30	159.16
368.49	93.62
368.69	135.75
368.89	154.48
369.09	203.63
369.28	203.63
369.48	196.60
369.68	212.99
369.87	243.42
370.07	212.99
370.27	243.42
370.47	294.91
370.66	547.69
370.86	599.18
371.06	641.31
371.25	657.69
371.45	681.10
371.65	704.50
371.84	676.41
372.04	734.93
372.24	816.85
372.44	678.76
372.63	777.06
372.83	777.06
373.03	730.25
373.22	730.25
373.42	685.78
373.62	777.06
373.81	791.10
374.01	884.72
374.21	791.10
374.40	816.85
374.60	842.59
374.79	816.85
374.99	770.04
375.19	830.89
375.38	823.87
375.58	837.91
375.78	877.70
375.97	877.70
376.17	889.40
376.37	851.96
376.56	833.23
376.76	870.68
376.95	856.64
377.15	814.51
377.35	964.30
377.54	800.46
377.74	849.61
377.93	863.66
378.13	983.02
378.33	929.19
378.52	858.98
378.72	901.11
378.91	933.87
379.11	887.06
379.31	929.19
379.50	908.13
379.70	1008.77
379.89	966.64
380.09	947.92
380.28	952.60
380.48	999.41
380.68	964.30
380.87	983.02
381.07	954.94
381.26	1006.43
381.46	1041.54
381.65	1048.56
381.85	1043.88
382.04	1069.62
382.24	999.41
382.43	987.71
382.63	1048.56
382.83	968.98
383.02	1125.80
383.22	1095.37
383.41	1046.22
383.61	1123.46
383.80	1151.54
384.00	1048.56
384.19	1196.01
384.39	1132.82
384.58	1036.86
384.78	1055.58
384.97	1203.04
385.17	1186.65
385.36	1205.38
385.56	1167.93
385.75	1041.54
385.95	1188.99
386.14	1104.73
386.34	1128.14
386.53	1137.50
386.72	1249.85
386.92	1238.14
387.11	1308.36
387.31	1172.61
387.50	1221.76
387.70	1196.01
387.89	1266.23
388.09	1238.14
388.28	1294.32
388.48	1336.45
388.67	1193.67
388.86	1270.91
389.06	1387.94
389.25	1277.93
389.45	1315.38
389.64	1357.51
389.84	1378.58
390.03	1387.94
390.22	1373.89
390.42	1469.86
390.61	1357.51
390.81	1390.28
391.00	1423.05
391.19	1385.60
391.39	1315.38
391.58	1430.07
391.78	1446.45
391.97	1427.73
392.16	1458.15
392.36	1493.26
392.55	1483.90
392.75	1488.58
392.94	1458.15
393.13	1497.94
393.33	1584.54
393.52	1537.73
393.71	1610.29
393.91	1629.01
394.10	1570.50
394.29	1603.27
394.49	1626.67
394.68	1680.50
394.88	1554.12
395.07	1633.69
395.26	1706.25
395.46	1743.70
395.65	1661.78
395.84	1554.12
396.04	1776.47
396.23	1729.66
396.42	1788.17
396.62	1729.66
396.81	1743.70
397.00	1689.87
397.19	1792.85
397.39	1816.26
397.58	1844.34
397.77	1853.70
397.97	1851.36
398.16	1902.86
398.35	2012.86
398.55	2010.52
398.74	1909.88
398.93	1884.13
399.12	1823.28
399.32	1898.17
399.51	1942.64
399.70	1956.69
399.90	2001.16
400.09	1975.41
400.28	1970.73
400.47	1895.83
400.67	2106.48
400.86	2174.36
401.05	2043.29
401.24	2036.27
401.44	1954.35
401.63	2092.44
401.82	2118.18
402.01	2033.93
402.21	2162.66
402.40	2181.38
402.59	2150.95
402.78	2174.36
402.97	2083.08
403.17	2305.43
403.36	2165.00
403.55	2275.00
403.74	2340.54
403.93	2246.91
404.13	2354.58
404.32	2368.62
404.51	2305.43
404.70	2340.54
404.89	2387.35
405.09	2448.20
405.28	2408.41
405.47	2448.20
405.66	2506.71
405.85	2485.65
406.05	2487.99
406.24	2441.18
406.43	2541.82
406.62	2621.40
406.81	2616.72
407.00	2628.42
407.20	2546.50
407.39	2518.42
407.58	2656.51
407.77	2768.85
407.96	2759.49
408.15	2654.17
408.34	2590.97
408.54	2813.32
408.73	2871.84
408.92	2813.32
409.11	2888.22
409.30	2775.88
409.49	2843.75
409.68	2888.22
409.87	2988.86
410.07	2967.80
410.26	2986.52
410.45	2855.45
410.64	3103.55
410.83	3122.27
411.02	3042.70
411.21	3056.74
411.40	3115.25
411.59	3239.30
411.78	3119.93
411.98	3124.62
412.17	3222.92
412.36	3201.85
412.55	3304.84
412.74	3419.52
412.93	3309.52
413.12	3379.73
413.31	3492.08
413.50	3412.50
413.69	3335.26
413.88	3513.14
414.07	3564.64
414.26	3552.93
414.45	3646.55
414.64	3543.57
414.83	3588.04
415.02	3824.44
415.22	3812.73
415.41	3861.88
415.60	3843.16
415.79	3775.28
415.98	3953.16
416.17	4044.45
416.36	3892.31
416.55	4093.60
416.74	3962.53
416.93	3939.12
417.12	4070.19
417.31	4105.30
417.50	4119.34
417.69	4271.48
417.88	4264.46
418.07	4219.99
418.26	4138.07
418.45	4318.29
418.64	4447.02
418.83	4411.91
419.02	4308.93
419.21	4580.43
419.39	4526.60
419.58	4404.89
419.77	4325.31
419.96	4535.96
420.15	4514.89
420.34	4491.49
420.53	4585.11
420.72	4744.27
420.91	4636.60
421.10	4610.86
421.29	4744.27
421.48	4660.01
421.67	4613.20
421.86	4770.01
422.05	4746.61
422.24	4650.64
422.43	4844.91
422.61	4924.49
422.80	4908.10
422.99	4840.23
423.18	4905.76
423.37	4903.42
423.56	4880.02
423.75	4784.06
423.94	4772.35
424.13	4486.81
424.32	4851.93
424.50	4826.18
424.69	5046.20
424.88	4901.08
425.07	4999.38
425.26	4929.17
425.45	4865.97
425.64	4793.42
425.83	4997.04
426.01	5060.24
426.20	5111.73
426.39	4959.60
426.58	5088.32
426.77	4919.81
426.96	5160.88
427.15	5083.64
427.33	5247.48
427.52	5167.90
427.71	5430.04
427.90	5350.46
428.09	5207.69
428.28	5399.62
428.46	5280.25
428.65	5224.08
428.84	5397.28
429.03	5467.49
429.22	5261.52
429.40	5387.91
429.59	5432.38
429.78	5331.74
429.97	5256.84
430.16	5404.30
430.34	5511.96
430.53	5425.36
430.72	5465.15
430.91	5619.63
431.10	5579.84
431.28	5540.05
431.47	5621.97
431.66	5914.53
431.85	5633.67
432.03	5947.30
432.22	5884.11
432.41	6003.47
432.60	5830.27
432.79	5912.19
432.97	6015.18
433.16	5898.15
433.35	5893.47
433.54	5970.71
433.72	6298.38
433.91	5937.94
434.10	6136.88
434.28	5987.09
434.47	6181.35
434.66	6190.72
434.85	6153.27
435.03	6303.06
435.22	6232.85
435.41	6443.49
435.59	6150.93
435.78	6408.39
435.97	6527.75
436.16	6232.85
436.34	6415.41
436.53	6363.92
436.72	6668.19
436.90	6574.56
437.09	6471.58
437.28	6317.11
437.46	6579.25
437.65	6654.14
437.84	6623.72
438.02	6675.21
438.21	6782.87
438.40	6616.69
438.58	7162.04
438.77	6991.18
438.96	6942.03
439.14	7129.27
439.33	7061.40
439.52	7009.90
439.70	7098.84
439.89	7370.35
440.08	7360.98
440.26	7208.85
440.45	7138.63
440.63	7365.67
440.82	7314.17
441.01	7405.46
441.19	7588.02
441.38	7679.30
441.57	7595.04
441.75	7742.49
441.94	7868.88
442.12	7742.49
442.31	7988.25
442.50	8114.64
442.68	7992.93
442.87	7920.37
443.05	7957.82
443.24	8116.98
443.43	8152.09
443.61	8093.57
443.80	8388.48
443.98	7974.21
444.17	7922.71
444.35	8201.24
444.54	8037.40
444.73	8250.39
444.91	8142.72
445.10	8154.43
445.28	8205.92
445.47	8163.79
445.65	8210.60
445.84	8320.60
446.02	8285.50
446.21	8313.58
446.39	8245.71
446.58	8400.18
446.77	8388.48
446.95	8301.88
447.14	8346.35
447.32	8603.81
447.51	8353.37
447.69	8458.70
447.88	8472.74
448.06	8545.30
448.25	8322.94
448.43	8631.90
448.62	8505.51
448.80	8449.33
448.99	8444.65
449.17	8425.93
449.36	8482.10
449.54	8872.97
449.73	8861.27
449.91	8898.72
450.10	8980.64
450.28	8826.16
450.46	9081.28
450.65	8917.44
450.83	8990.00
451.02	8917.44
451.20	8978.30
451.39	9118.73
451.57	9088.30
451.76	9158.52
451.94	8826.16
452.13	9327.03
452.31	9067.24
452.49	8809.78
452.68	9317.67
452.86	9207.67
453.05	9418.32
453.23	9397.25
453.42	9214.69
453.60	9221.71
453.78	9692.16
453.97	9392.57
454.15	9413.63
454.34	9350.44
454.52	9743.65
454.70	9617.26
454.89	9467.47
455.07	9860.68
455.26	9778.76
455.44	9696.84
455.62	9624.28
455.81	9762.37
455.99	9778.76
456.17	9963.66
456.36	9881.74
456.54	10200.05
456.73	10015.15
456.91	10356.87
457.09	10279.63
457.28	10410.70
457.46	9982.38
457.64	10516.03
457.83	10572.20
458.01	10232.82
458.19	10672.84
458.38	10375.59
458.56	10541.77
458.74	10752.42
458.93	10581.56
459.11	10850.72
459.29	10656.46
459.48	10808.59
459.66	10801.57
459.84	10874.13
460.03	10789.87
460.21	11016.90
460.39	10820.30
460.57	10984.13
460.76	11274.36
460.94	11131.59
461.12	10787.53
461.31	11028.60
461.49	10916.26
461.67	11068.39
461.85	11314.15
462.04	11248.61
462.22	11967.16
462.40	11337.56
462.59	11332.87
462.77	11311.81
462.95	11473.31
463.13	11421.81
463.32	11389.05
463.50	11480.33
463.68	11927.37
463.86	11747.15
464.05	11548.20
464.23	11527.14
464.41	12006.95
464.59	11630.12
464.78	11910.99
464.96	11602.04
465.14	11733.11
465.32	11997.59
465.50	12002.27
465.69	12109.93
465.87	12191.85
466.05	11939.07
466.23	12081.85
466.41	11995.25
466.60	12355.69
466.78	12280.79
466.96	12208.23
467.14	12175.47
467.32	12343.99
467.51	12383.77
467.69	12339.30
467.87	12266.75
468.05	12226.96
468.23	12372.07
468.41	12456.33
468.60	12411.86
468.78	12718.47
468.96	12690.38
469.14	12650.60
469.32	12851.88
469.50	12400.16
469.69	12957.21
469.87	13181.90
470.05	13186.58
470.23	13135.09
470.41	13165.51
470.59	13142.11
470.77	13137.43
470.95	13224.03
471.14	13554.04
471.32	13004.02
471.50	13380.84
471.68	13518.93
471.86	13764.69
472.04	13528.30
472.22	13893.42
472.40	13357.44
472.58	13895.76
472.77	13872.36
472.95	14061.94
473.13	14586.22
473.31	14022.15
473.49	13891.08
473.67	14333.44
473.85	14129.81
474.03	14464.51
474.21	14548.77
474.39	14471.53
474.57	14497.28
474.75	14651.75
474.93	14869.42
475.12	14831.97
475.30	14927.94
475.48	14757.08
475.66	15161.99
475.84	15178.37
476.02	15293.06
476.20	15145.61
476.38	15576.27
476.56	15810.32
476.74	15765.85
476.92	15414.77
477.10	15786.91
477.28	15627.76
477.46	16070.12
477.64	16114.59
477.82	16336.94
478.00	16545.25
478.18	16507.80
478.36	16788.66
478.54	16950.16
478.72	17050.80
478.90	17242.73
479.08	17055.48
479.26	17385.50
479.44	17923.82
479.62	17748.28
479.80	17862.97
479.98	17830.20
480.16	18487.89
480.34	18291.29
480.52	18368.52
480.70	18597.90
480.88	17715.51
481.06	18513.64
481.24	18721.95
481.41	18888.12
481.59	19089.41
481.77	19379.64
481.95	19325.80
482.13	19456.87
482.31	19211.12
482.49	20081.80
482.67	20088.82
482.85	19840.72
483.03	20601.40
483.21	20863.54
483.39	20561.61
483.57	20662.25
483.74	20879.92
483.92	20980.56
484.10	20919.71
484.28	21598.46
484.46	21926.14
484.64	22391.91
484.82	21837.20
485.00	22199.98
485.18	22307.65
485.35	22700.86
485.53	22663.41
485.71	23005.13
485.89	23274.29
486.07	23140.88
486.25	23119.81
486.43	23271.95
486.61	23854.74
486.78	23974.11
486.96	23990.49
487.14	24222.20
487.32	24477.32
487.50	24772.23
487.68	24730.10
487.85	25151.40
488.03	25223.95
488.21	25577.37
488.39	25619.50
488.57	25891.01
488.75	25963.56
488.92	26560.40
489.10	26242.09
489.28	26380.18
489.46	26787.43
489.64	26529.97
489.81	27468.53
489.99	27194.68
490.17	27637.05
490.35	27995.15
490.53	27871.10
490.70	28472.62
490.88	27955.36
491.06	28411.76
491.24	28444.53
491.41	28718.37
491.59	29144.35
491.77	29013.28
491.95	29582.03
492.13	29345.64
492.30	29734.17
492.48	29722.46
492.66	29472.03
492.84	29933.11
493.01	30228.02
493.19	30164.82
493.37	30728.89
493.54	30890.39
493.72	31063.59
493.90	31267.22
494.08	31246.15
494.25	31936.61
494.43	32091.09
494.61	32357.91
494.79	32299.39
494.96	32119.17
495.14	32261.94
495.32	32542.81
495.49	33071.77
495.67	32910.27
495.85	33226.24
496.02	33415.83
496.20	33680.31
496.38	33589.03
496.55	33895.64
496.73	34298.21
496.91	33769.25
497.09	34625.89
497.26	34864.62
497.44	35091.65
497.62	34902.07
497.79	35452.09
497.97	35508.27
498.14	35831.26
498.32	35805.52
498.50	35789.13
498.67	36282.98
498.85	36196.38
499.03	36245.54
499.20	35929.56
499.38	36678.54
499.56	36570.87
499.73	37205.16
499.91	36725.35
500.08	37357.29
500.26	36730.03
500.44	37179.41
500.61	37570.28
500.79	37455.59
500.97	37872.21
501.14	38265.42
501.32	38134.35
501.49	38087.54
501.67	38220.95
501.84	38600.12
502.02	38747.57
502.20	38916.09
502.37	39318.66
502.55	39049.50
502.72	39164.18
502.90	39243.76
503.07	39030.77
503.25	39562.08
503.43	39342.06
503.60	39899.11
503.78	39728.25
503.95	39730.59
504.13	39852.30
504.30	40610.64
504.48	39803.15
504.65	40502.97
504.83	41083.42
505.01	41123.21
505.18	41015.55
505.36	40701.92
505.53	40849.37
505.71	41167.68
505.88	41532.81
506.06	41064.70
506.23	41741.11
506.41	41287.05
506.58	41345.56
506.76	42080.49
506.93	42630.52
507.11	41500.04
507.28	42567.32
507.46	42403.49
507.63	41904.95
507.81	42721.80
507.98	42265.39
508.16	42946.49
508.33	42974.58
508.50	43068.20
508.68	43295.23
508.85	43592.48
509.03	43466.09
509.20	44076.97
509.38	43632.27
509.55	44076.97
509.73	44278.25
509.90	43990.37
510.08	44065.27
510.25	44083.99
510.42	44357.83
510.60	44692.53
510.77	44617.63
510.95	44701.89
511.12	44704.23
511.30	45067.02
511.47	45191.06
511.64	45139.57
511.82	45485.97
511.99	45469.59
512.17	45731.73
512.34	45621.72
512.51	45928.33
512.69	45904.93
512.86	45811.31
513.04	46094.51
513.21	46351.97
513.38	46417.50
513.56	46813.05
513.73	46504.10
513.90	46492.40
514.08	46667.94
514.25	46955.83
514.43	47117.32
514.60	46754.54
514.77	47435.64
514.95	47489.47
515.12	47152.43
515.29	47084.56
515.47	47693.10
515.64	47948.21
515.81	47531.60
515.99	47716.50
516.16	48002.05
516.33	47962.26
516.51	48184.61
516.68	47938.85
516.85	48472.49
517.03	48362.49
517.20	48790.81
517.37	48535.69
517.54	48477.18
517.72	48772.08
517.89	49031.88
518.06	49230.83
518.24	49031.88
518.41	49099.76
518.58	49010.82
518.75	49081.03
518.93	49212.10
519.10	48793.15
519.27	49064.65
519.45	49078.69
519.62	49352.54
519.79	49598.29
519.96	49801.92
520.14	49633.40
520.31	49701.28
520.48	50206.83
520.65	49879.16
520.83	50373.01
521.00	50494.72
521.17	50263.00
521.34	50014.91
521.52	50513.44
521.69	50541.53
521.86	50719.41
522.03	50665.58
522.20	50887.93
522.38	51206.24
522.55	51000.27
522.72	50995.59
522.89	51051.76
523.07	51374.76
523.24	51004.95
523.41	51423.91
523.58	51119.64
523.75	51725.84
523.92	51367.74
524.10	51508.17
524.27	51475.40
524.44	51793.71
524.61	51789.03
524.78	51987.98
524.96	51854.57
525.13	51913.08
525.30	51714.14
525.47	52313.31
525.64	52285.23
525.81	52350.76
525.98	52362.46
526.16	52636.31
526.33	52360.12
526.50	52615.24
526.67	52484.17
526.84	52535.66
527.01	52217.35
527.18	52577.79
527.36	52762.70
527.53	52823.55
527.70	53113.78
527.87	53066.97
528.04	52982.71
528.21	53043.56
528.38	53073.99
528.55	53118.46
528.72	53123.14
528.89	53191.01
529.07	53123.14
529.24	52959.30
529.41	53572.52
529.58	53476.56
529.75	53357.19
529.92	53687.21
530.09	53558.48
530.26	53907.22
530.43	54005.52
530.60	53502.31
530.77	53928.28
530.94	53776.15
531.11	53900.20
531.28	54007.86
531.46	53935.30
531.63	54099.14
531.80	53904.88
531.97	53881.47
532.14	54148.29
532.31	54195.10
532.48	54419.80
532.65	54403.41
532.82	54260.64
532.99	54190.42
533.16	54457.24
533.33	54628.10
533.50	54749.81
533.67	54555.55
533.84	54380.01
534.01	54672.57
534.18	54525.12
534.35	54925.35
534.52	54901.95
534.69	54962.80
534.86	55079.83
535.03	54789.60
535.20	54883.22
535.37	54960.46
535.54	55220.26
535.71	54822.37
535.88	55334.95
536.05	55246.00
536.22	55377.08
536.38	55295.16
536.55	55133.66
536.72	55353.67
536.89	55283.45
537.06	55386.44
537.23	55360.69
537.40	55449.63
537.57	55267.07
537.74	55519.85
537.91	55737.52
538.08	55449.63
538.25	55466.02
538.42	55650.92
538.59	55877.95
538.75	55681.34
538.92	55938.80
539.09	55859.23
539.26	56048.81
539.43	55781.99
539.60	55985.61
539.77	55992.64
539.94	56420.95
540.11	55983.27
540.28	56306.27
540.44	56292.22
540.61	56009.02
540.78	56130.73
540.95	56121.37
541.12	56233.71
541.29	56264.14
541.46	56107.32
541.62	56200.94
541.79	56516.92
541.96	56137.75
542.13	56388.19
542.30	56198.60
542.47	56601.18
542.63	56559.05
542.80	56432.66
542.97	56722.88
543.14	56996.73
543.31	57010.77
543.48	57205.03
543.64	57132.48
543.81	57090.35
543.98	57151.20
544.15	57422.70
544.32	57001.41
544.48	57415.68
544.65	57017.79
544.82	57343.12
544.99	57209.71
545.16	57226.10
545.32	57080.98
545.49	57450.79
545.66	57661.44
545.83	57434.41
546.00	57359.51
546.16	57230.78
546.33	57190.99
546.50	57176.95
546.67	57642.71
546.83	57504.62
547.00	57546.75
547.17	57635.69
547.34	57682.50
547.50	57605.26
547.67	57890.81
547.84	57911.88
548.00	57848.68
548.17	58094.44
548.34	57890.81
548.51	57907.19
548.67	58082.73
548.84	58136.57
549.01	57729.31
549.18	58049.97
549.34	57961.03
549.51	58124.86
549.68	58143.59
549.84	58328.49
550.01	58340.19
550.18	58152.95
550.34	58197.42
550.51	58195.08
550.68	58190.40
550.84	58127.20
551.01	58328.49
551.18	58171.67
551.34	58307.43
551.51	58326.15
551.68	58450.20
551.84	58387.00
552.01	58190.40
552.18	58480.63
552.34	58438.50
552.51	58527.44
552.68	58211.46
552.84	58288.70
553.01	58726.38
553.18	58548.50
553.34	58511.05
553.51	58358.92
553.67	58642.12
553.84	58759.15
554.01	58932.35
554.17	58756.81
554.34	58922.99
554.51	58796.60
554.67	58955.75
554.84	58824.68
555.00	58688.93
555.17	58721.70
555.33	58642.12
555.50	58796.60
555.67	58822.34
555.83	58775.53
556.00	58843.41
556.16	59082.14
556.33	58990.86
556.50	58913.62
556.66	59047.04
556.83	58983.84
556.99	59358.33
557.16	59583.02
557.32	59203.85
557.49	59473.01
557.65	58932.35
557.82	59171.08
557.98	59161.72
558.15	59255.34
558.32	59320.88
558.48	59348.96
558.65	59056.40
558.81	59353.65
558.98	59196.83
559.14	59400.46
559.31	59377.05
559.47	59550.25
559.64	59388.75
559.80	59625.15
559.97	59585.36
560.13	59428.54
560.30	59517.48
560.46	59597.06
560.63	59629.83
560.79	59660.26
560.96	59526.84
561.12	59475.35
561.29	59770.26
561.45	59688.34
561.61	59627.49
561.78	59515.14
561.94	59470.67
562.11	59732.81
562.27	59746.86
562.44	59646.21
562.60	60027.72
562.77	59788.98
562.93	59831.11
563.10	59959.84
563.26	59728.13
563.42	59964.52
563.59	59784.30
563.75	59819.41
563.92	59779.62
564.08	59800.69
564.24	60168.15
564.41	59728.13
564.57	60044.10
564.74	59987.93
564.90	59833.46
565.07	59969.21
565.23	59894.31
565.39	59990.27
565.56	59917.71
565.72	59913.03
565.88	59891.97
566.05	60013.68
566.21	60116.66
566.38	60203.26
566.54	60107.30
566.70	60200.92
566.87	60294.54
567.03	59849.84
567.19	60339.01
567.36	60032.40
567.52	60067.51
567.68	60416.25
567.85	60051.12
568.01	60135.38
568.17	60233.69
568.34	60264.11
568.50	60158.79
568.66	60025.38
568.83	59901.33
568.99	60030.06
569.15	60186.88
569.32	60334.33
569.48	60313.26
569.64	60254.75
569.81	60243.05
569.97	60184.54
570.13	60161.13
570.30	60245.39
570.46	60306.24
570.62	60364.76
570.78	60273.48
570.95	60364.76
571.11	60430.29
571.27	60254.75
571.43	60243.05
571.60	60348.37
571.76	60390.50
571.92	60413.91
572.09	60381.14
572.25	60449.02
572.41	60273.48
572.57	60357.74
572.74	60591.79
572.90	60488.80
573.06	60589.45
573.22	60512.21
573.38	60406.89
573.55	60282.84
573.71	60556.68
573.87	60456.04
574.03	60559.02
574.20	60509.87
574.36	60327.31
574.52	60498.17
574.68	60512.21
574.84	60561.36
575.01	60587.11
575.17	60395.18
575.33	60280.50
575.49	60437.31
575.65	60418.59
575.82	60552.00
575.98	60580.09
576.14	60914.78
576.30	60823.50
576.46	60547.32
576.62	60577.75
576.79	60603.49
576.95	60399.86
577.11	60776.69
577.27	60729.88
577.43	60781.37
577.59	60542.64
577.75	60734.56
577.92	60523.91
578.08	60575.40
578.24	60755.63
578.40	60619.88
578.56	60715.84
578.72	60523.91
578.88	60860.95
579.04	60842.23
579.21	60598.81
579.37	60720.52
579.53	60619.88
579.69	60566.04
579.85	60636.26
580.01	60540.30
580.17	60481.78
580.33	60779.03
580.49	60811.80
580.65	60746.26
580.82	60563.70
580.98	60666.69
581.14	60659.66
581.30	60809.46
581.46	60783.71
581.62	60591.79
581.78	60430.29
581.94	60638.60
582.10	60842.23
582.26	60725.20
582.42	60711.16
582.58	60629.24
582.74	60598.81
582.90	60701.79
583.06	60743.92
583.22	60844.57
583.38	60484.12
583.54	60699.45
583.70	60835.20
583.86	60776.69
584.02	60673.71
584.18	60835.20
584.34	60729.88
584.50	60683.07
584.66	60638.60
584.82	60559.02
584.98	60865.63
585.14	60818.82
585.30	60818.82
585.46	60912.44
585.62	60467.74
585.78	60896.06
585.94	60374.12
586.10	60654.98
586.26	60760.31
586.42	60783.71
586.58	60879.67
586.74	60963.93
586.90	60750.94
587.06	60669.03
587.22	60877.33
587.38	60774.35
587.54	60853.93
587.70	61085.64
587.86	60921.80
588.02	60591.79
588.18	60989.68
588.34	60802.44
588.49	60870.31
