SpectraSuite Data File
++++++++++++++++++++++++++++++++++++
Date: Fri Oct 25 10:44:53 EDT 2013
User: price-jones
Dark Spectrum Present: No
Reference Spectrum Present: No
Number of Sampled Component Spectra: 1
Spectrometers: USB2+H05261
Integration Time (usec): 100000 (USB2+H05261)
Spectra Averaged: 1 (USB2+H05261)
Boxcar Smoothing: 0 (USB2+H05261)
Correct for Electrical Dark: No (USB2+H05261)
Strobe/Lamp Enabled: No (USB2+H05261)
Correct for Detector Non-linearity: No (USB2+H05261)
Correct for Stray Light: No (USB2+H05261)
Number of Pixels in Processed Spectrum: 2048
>>>>>Begin Processed Spectral Data<<<<<
365.73	152.13
365.92	152.13
366.12	152.13
366.32	0.00
366.52	32.77
366.72	53.83
366.91	0.00
367.11	46.81
367.31	39.79
367.51	51.49
367.70	42.13
367.90	77.24
368.10	23.41
368.30	44.47
368.49	35.11
368.69	25.75
368.89	117.03
369.09	56.17
369.28	30.43
369.48	86.60
369.68	49.15
369.87	95.96
370.07	56.17
370.27	74.90
370.47	159.16
370.66	259.80
370.86	416.62
371.06	428.32
371.25	486.83
371.45	418.96
371.65	531.30
371.84	461.09
372.04	498.53
372.24	486.83
372.44	557.05
372.63	435.34
372.83	538.32
373.03	505.56
373.22	528.96
373.42	566.41
373.62	486.83
373.81	559.39
374.01	587.47
374.21	486.83
374.40	540.66
374.60	540.66
374.79	519.60
374.99	454.06
375.19	573.43
375.38	540.66
375.58	543.00
375.78	550.03
375.97	603.86
376.17	580.45
376.37	624.92
376.56	547.69
376.76	477.47
376.95	636.63
377.15	543.00
377.35	648.33
377.54	585.13
377.74	540.66
377.93	608.54
378.13	627.26
378.33	699.82
378.52	540.66
378.72	648.33
378.91	643.65
379.11	629.60
379.31	550.03
379.50	634.29
379.70	671.73
379.89	695.14
380.09	498.53
380.28	636.63
380.48	683.44
380.68	678.76
380.87	657.69
381.07	713.86
381.26	690.46
381.46	793.44
381.65	758.33
381.85	615.56
382.04	624.92
382.24	753.65
382.43	650.67
382.63	681.10
382.83	676.41
383.02	690.46
383.22	704.50
383.41	638.97
383.61	692.80
383.80	725.57
384.00	709.18
384.19	774.72
384.39	706.84
384.58	739.61
384.78	669.39
384.97	683.44
385.17	704.50
385.36	786.42
385.56	748.97
385.75	716.20
385.95	697.48
386.14	842.59
386.34	720.88
386.53	777.06
386.72	781.74
386.92	800.46
387.11	863.66
387.31	884.72
387.50	828.55
387.70	744.29
387.89	826.21
388.09	777.06
388.28	786.42
388.48	837.91
388.67	830.89
388.86	786.42
389.06	858.98
389.25	812.17
389.45	854.30
389.64	873.02
389.84	887.06
390.03	997.07
390.22	943.24
390.42	882.38
390.61	877.70
390.81	901.11
391.00	898.77
391.19	931.53
391.39	936.21
391.58	940.90
391.78	978.34
391.97	936.21
392.16	947.92
392.36	1048.56
392.55	1008.77
392.75	985.37
392.94	922.17
393.13	966.64
393.33	896.43
393.52	1029.84
393.71	959.62
393.91	1055.58
394.10	1048.56
394.29	1020.47
394.49	1102.39
394.68	1174.95
394.88	1123.46
395.07	1088.35
395.26	1151.54
395.46	1128.14
395.65	1188.99
395.84	1270.91
396.04	1060.26
396.23	1076.65
396.42	1125.80
396.62	1043.88
396.81	1170.27
397.00	1109.41
397.19	1174.95
397.39	1165.59
397.58	1207.72
397.77	1313.04
397.97	1327.08
398.16	1224.10
398.35	1249.85
398.55	1233.46
398.74	1231.12
398.93	1268.57
399.12	1359.85
399.32	1270.91
399.51	1291.98
399.70	1413.68
399.90	1369.21
400.09	1502.62
400.28	1420.71
400.47	1350.49
400.67	1434.75
400.86	1441.77
401.05	1404.32
401.24	1446.45
401.44	1542.41
401.63	1530.71
401.82	1535.39
402.01	1497.94
402.21	1631.35
402.40	1516.67
402.59	1544.75
402.78	1460.49
402.97	1561.14
403.17	1472.20
403.36	1692.21
403.55	1603.27
403.74	1610.29
403.93	1624.33
404.13	1671.14
404.32	1591.56
404.51	1685.19
404.70	1748.38
404.89	1638.38
405.09	1724.97
405.28	1739.02
405.47	1715.61
405.66	1652.42
405.85	1736.68
406.05	1788.17
406.24	1727.32
406.43	1727.32
406.62	1860.73
406.81	1830.30
407.00	1877.11
407.20	1844.34
407.39	1844.34
407.58	1849.02
407.77	1942.64
407.96	1919.24
408.15	2026.90
408.34	1942.64
408.54	2001.16
408.73	2078.40
408.92	1991.80
409.11	2101.80
409.30	2001.16
409.49	2078.40
409.68	2047.97
409.87	1959.03
410.07	2024.56
410.26	2207.13
410.45	2176.70
410.64	2143.93
410.83	2204.78
411.02	2263.30
411.21	2239.89
411.40	2183.72
411.59	2211.81
411.78	2176.70
411.98	2291.38
412.17	2249.25
412.36	2361.60
412.55	2422.45
412.74	2237.55
412.93	2373.30
413.12	2464.58
413.31	2537.14
413.50	2406.07
413.69	2403.73
413.88	2626.08
414.07	2434.16
414.26	2612.04
414.45	2649.49
414.64	2712.68
414.83	2736.09
415.02	2689.28
415.22	2663.53
415.41	2888.22
415.60	2794.60
415.79	2796.94
415.98	2911.63
416.17	2799.28
416.36	2834.39
416.55	2911.63
416.74	2906.95
416.93	2813.32
417.12	2939.71
417.31	2916.31
417.50	3117.59
417.69	3066.10
417.88	3016.95
418.07	3035.67
418.26	3201.85
418.45	3218.24
418.64	3194.83
418.83	3131.64
419.02	3190.15
419.21	3288.45
419.39	3339.94
419.58	3208.87
419.77	3150.36
419.96	3267.39
420.15	3293.13
420.34	3183.13
420.53	3295.47
420.72	3293.13
420.91	3424.20
421.10	3552.93
421.29	3520.17
421.48	3414.84
421.67	3452.29
421.86	3330.58
422.05	3489.74
422.24	3375.05
422.43	3529.53
422.61	3569.32
422.80	3588.04
422.99	3534.21
423.18	3501.44
423.37	3550.59
423.56	3541.23
423.75	3583.36
423.94	3318.88
424.13	3318.88
424.32	3384.41
424.50	3592.72
424.69	3531.87
424.88	3461.65
425.07	3447.61
425.26	3515.48
425.45	3576.34
425.64	3574.00
425.83	3730.81
426.01	3698.05
426.20	3672.30
426.39	3756.56
426.58	3653.58
426.77	3480.38
426.96	3576.34
427.15	3566.98
427.33	3669.96
427.52	3625.49
427.71	3693.37
427.90	3810.39
428.09	3676.98
428.28	3943.80
428.46	3808.05
428.65	3840.82
428.84	3875.93
429.03	3976.57
429.22	3691.02
429.40	3878.27
429.59	3749.54
429.78	3574.00
429.97	3742.52
430.16	3653.58
430.34	3726.13
430.53	3770.60
430.72	4077.21
430.91	3943.80
431.10	3971.89
431.28	4177.86
431.47	4154.45
431.66	4152.11
431.85	4109.98
432.03	4168.49
432.22	4285.52
432.41	4173.18
432.60	4245.73
432.79	4287.86
432.97	4292.54
433.16	4201.26
433.35	4215.30
433.54	4442.34
433.72	4177.86
433.91	4276.16
434.10	4416.59
434.28	4325.31
434.47	4402.55
434.66	4477.44
434.85	4561.70
435.03	4500.85
435.22	4512.55
435.41	4582.77
435.59	4638.94
435.78	4524.26
435.97	4547.66
436.16	4444.68
436.34	4519.57
436.53	4645.96
436.72	4772.35
436.90	4493.83
437.09	4812.14
437.28	4559.36
437.46	4730.22
437.65	4617.88
437.84	4578.09
438.02	4709.16
438.21	4819.16
438.40	4704.48
438.58	4873.00
438.77	4926.83
438.96	4875.34
439.14	5006.41
439.33	5078.96
439.52	5179.61
439.70	5032.15
439.89	5062.58
440.08	5095.35
440.26	5074.28
440.45	5074.28
440.63	5303.65
440.82	5219.39
441.01	5530.69
441.19	5481.53
441.38	5483.88
441.57	5493.24
441.75	5626.65
441.94	5734.31
442.12	5645.37
442.31	5654.73
442.50	5666.44
442.68	5575.16
442.87	5678.14
443.05	5647.71
443.24	5645.37
443.43	5914.53
443.61	5811.55
443.80	5942.62
443.98	5849.00
444.17	5612.60
444.35	5872.40
444.54	5746.02
444.73	5837.30
444.91	5762.40
445.10	5888.79
445.28	5928.58
445.47	5884.11
445.65	5802.19
445.84	5970.71
446.02	5774.10
446.21	6012.84
446.39	5916.87
446.58	6104.12
446.77	5874.74
446.95	5884.11
447.14	6012.84
447.32	6228.17
447.51	5893.47
447.69	6057.31
447.88	6026.88
448.06	6026.88
448.25	5984.75
448.43	6085.39
448.62	5973.05
448.80	5933.26
448.99	6258.59
449.17	6193.06
449.36	6115.82
449.54	6319.45
449.73	6361.58
449.91	6375.62
450.10	6377.96
450.28	6513.71
450.46	6293.70
450.65	6445.84
450.83	6642.44
451.02	6380.30
451.20	6565.20
451.39	6345.19
451.57	6497.33
451.76	6459.88
451.94	6466.90
452.13	6539.46
452.31	6483.28
452.49	6392.00
452.68	6565.20
452.86	6506.69
453.05	6551.16
453.23	6705.63
453.42	6607.33
453.60	6766.49
453.78	6677.55
453.97	6682.23
454.15	6675.21
454.34	6586.27
454.52	6822.66
454.70	6895.22
454.89	6794.58
455.07	6899.90
455.26	6740.74
455.44	6998.20
455.62	6932.67
455.81	6958.41
455.99	6827.34
456.17	7108.21
456.36	7066.08
456.54	7026.29
456.73	7042.67
456.91	7295.45
457.09	7349.28
457.28	7494.40
457.46	7208.85
457.64	7342.26
457.83	7573.97
458.01	7342.26
458.19	7583.34
458.38	7417.16
458.56	7461.63
458.74	7613.76
458.93	7499.08
459.11	7382.05
459.29	7426.52
459.48	7531.84
459.66	7417.16
459.84	7590.36
460.03	7548.23
460.21	7777.60
460.39	7927.39
460.57	7786.96
460.76	7871.22
460.94	7960.16
461.12	7772.92
461.31	7763.56
461.49	7761.22
461.67	7779.94
461.85	7929.74
462.04	7817.39
462.22	8091.23
462.40	8006.97
462.59	7971.86
462.77	8032.72
462.95	8126.34
463.13	8028.04
463.32	7808.03
463.50	8182.51
463.68	8241.03
463.86	8196.56
464.05	8072.51
464.23	8065.49
464.41	8329.97
464.59	8002.29
464.78	8266.77
464.96	8180.17
465.14	8252.73
465.32	8446.99
465.50	8308.90
465.69	8257.41
465.87	8322.94
466.05	8252.73
466.23	8407.20
466.41	8397.84
466.60	8645.94
466.78	8306.56
466.96	8409.54
467.14	8549.98
467.32	8437.63
467.51	8697.43
467.69	8341.67
467.87	8601.47
468.05	8702.11
468.23	8498.49
468.41	8596.79
468.60	8545.30
468.78	8578.06
468.96	8723.18
469.14	8767.65
469.32	8847.22
469.50	8627.21
469.69	8755.94
469.87	9060.21
470.05	9142.13
470.23	9092.98
470.41	8748.92
470.59	9001.70
470.77	8842.54
470.95	9078.94
471.14	9221.71
471.32	9121.07
471.50	9254.48
471.68	9427.68
471.86	9263.84
472.04	9181.92
472.22	9572.79
472.40	9427.68
472.58	9341.08
472.77	9394.91
472.95	9617.26
473.13	9722.59
473.31	9621.94
473.49	9790.46
473.67	9535.34
473.85	9891.10
474.03	9839.61
474.21	9926.21
474.39	10052.60
474.57	10270.27
474.75	10181.33
474.93	10176.65
475.12	10312.40
475.30	10289.00
475.48	10090.05
475.66	10565.18
475.84	10284.31
476.02	10380.28
476.20	10445.81
476.38	10703.27
476.56	10949.03
476.74	10848.38
476.92	10827.32
477.10	10937.32
477.28	11154.99
477.46	11115.20
477.64	11162.01
477.82	11218.19
478.00	11353.94
478.18	11454.58
478.36	11363.30
478.54	11623.10
478.72	11751.83
478.90	11805.66
479.08	11941.41
479.26	12086.53
479.44	11981.20
479.62	11960.14
479.80	12030.35
479.98	12030.35
480.16	12402.50
480.34	12390.80
480.52	12479.74
480.70	12599.10
480.88	12325.26
481.06	12889.33
481.24	12821.45
481.41	12957.21
481.59	12978.27
481.77	13224.03
481.95	12945.50
482.13	13202.96
482.31	13303.60
482.49	13490.85
482.67	13439.36
482.85	13769.37
483.03	13902.78
483.21	13760.01
483.39	13841.93
483.57	13987.04
483.74	14207.05
483.92	14478.55
484.10	14324.08
484.28	14654.09
484.46	14628.35
484.64	14923.26
484.82	14518.34
485.00	15159.65
485.18	14944.32
485.35	15227.53
485.53	14949.00
485.71	15218.16
485.89	15482.64
486.07	15073.05
486.25	15424.13
486.43	15634.78
486.61	15915.64
486.78	16056.08
486.96	16042.03
487.14	16233.96
487.32	16683.34
487.50	16554.61
487.68	16418.86
487.85	16994.63
488.03	17092.93
488.21	16975.91
488.39	17275.49
488.57	17008.67
488.75	16954.84
488.92	17317.62
489.10	17668.70
489.28	17778.71
489.46	18005.74
489.64	17841.90
489.81	18260.86
489.99	18530.02
490.17	18569.81
490.35	19009.83
490.53	18480.87
490.70	18918.55
490.88	18897.49
491.06	19281.33
491.24	19257.93
491.41	18867.06
491.59	19407.72
491.77	19349.21
491.95	19669.86
492.13	19653.48
492.30	20009.24
492.48	19878.17
492.66	20058.39
492.84	19950.73
493.01	20212.87
493.19	20521.82
493.37	20362.66
493.54	20517.14
493.72	20905.66
493.90	20959.50
494.08	21151.42
494.25	21333.98
494.43	21254.40
494.61	21535.27
494.79	21865.28
494.96	21329.30
495.14	21371.43
495.32	22071.25
495.49	21947.20
495.67	22317.01
495.85	22333.39
496.02	22363.82
496.20	22600.21
496.38	22202.32
496.55	22576.81
496.73	22993.42
496.91	22796.82
497.09	23140.88
497.26	23133.86
497.44	23290.67
497.62	23208.75
497.79	23487.28
497.97	23611.32
498.14	23559.83
498.32	23517.70
498.50	23681.54
498.67	24098.16
498.85	24041.98
499.03	24184.76
499.20	24404.77
499.38	24341.57
499.56	24451.58
499.73	24247.95
499.91	24442.21
500.08	24816.70
500.26	24449.24
500.44	24781.59
500.61	24905.64
500.79	25057.78
500.97	24746.48
501.14	25179.48
501.32	25385.45
501.49	25032.03
501.67	25195.87
501.84	25804.41
502.02	25596.10
502.20	25710.78
502.37	25776.32
502.55	25720.15
502.72	25956.54
502.90	26244.43
503.07	25823.13
503.25	26527.63
503.43	25956.54
503.60	26462.10
503.78	26249.11
503.95	26450.39
504.13	26436.35
504.30	26796.79
504.48	26541.68
504.65	26834.24
504.83	26625.93
505.01	26913.82
505.18	27094.04
505.36	27014.46
505.53	27440.44
505.71	27524.70
505.88	27711.94
506.06	27398.31
506.23	27639.39
506.41	27180.64
506.58	27522.36
506.76	27618.32
506.93	27793.86
507.11	27796.20
507.28	28400.06
507.46	27667.47
507.63	27938.97
507.81	28161.33
507.98	28184.73
508.16	28077.07
508.33	28531.13
508.50	28404.74
508.68	28437.51
508.85	29036.69
509.03	28879.87
509.20	29125.63
509.38	28919.66
509.55	29352.66
509.73	29310.53
509.90	29425.22
510.08	29263.72
510.25	29486.07
510.42	29273.08
510.60	29481.39
510.77	29802.04
510.95	29692.04
511.12	29706.08
511.30	29909.71
511.47	29956.52
511.64	30457.39
511.82	30022.05
511.99	29858.21
512.17	30452.71
512.34	29993.97
512.51	30555.69
512.69	30464.41
512.86	30466.75
513.04	30869.33
513.21	30871.67
513.38	30684.42
513.56	30883.37
513.73	30490.16
513.90	30508.88
514.08	30766.34
514.25	31281.26
514.43	31021.46
514.60	30991.03
514.77	31365.52
514.95	31285.94
515.12	31299.98
515.29	31182.96
515.47	31608.93
515.64	32149.60
515.81	31571.49
515.99	31402.97
516.16	31974.06
516.33	31381.90
516.51	31842.99
516.68	31447.44
516.85	31840.65
517.03	31945.97
517.20	31962.36
517.37	32173.00
517.54	32140.24
517.72	32194.07
517.89	32231.52
518.06	32203.43
518.24	31971.72
518.41	32180.03
518.58	32423.44
518.75	32545.15
518.93	32718.35
519.10	32924.32
519.27	32828.35
519.45	32931.34
519.62	33209.86
519.79	33326.89
519.96	33046.02
520.14	33523.49
520.31	33165.39
520.48	33345.61
520.65	33394.76
520.83	34068.84
521.00	34057.14
521.17	33607.75
521.34	33977.56
521.52	33771.59
521.69	33933.09
521.86	34141.39
522.03	34026.71
522.20	34160.12
522.38	34092.24
522.55	34220.97
522.72	34195.23
522.89	33909.68
523.07	34731.21
523.24	34211.61
523.41	35082.29
523.58	34560.35
523.75	35021.44
523.92	34852.92
524.10	35082.29
524.27	35126.76
524.44	35115.06
524.61	35407.62
524.78	35494.22
524.96	35377.20
525.13	35351.45
525.30	35735.30
525.47	35826.58
525.64	35335.07
525.81	35538.69
525.98	35807.86
526.16	35311.66
526.33	35402.94
526.50	35693.17
526.67	35505.93
526.84	35309.32
527.01	35269.53
527.18	35721.26
527.36	36460.87
527.53	35590.19
527.70	36615.34
527.87	36268.94
528.04	36252.56
528.21	36264.26
528.38	35995.10
528.55	36460.87
528.72	36472.57
528.89	37109.19
529.07	36392.99
529.24	36416.40
529.41	36620.02
529.58	36524.06
529.75	36666.83
529.92	37062.38
530.09	36751.09
530.26	37261.33
530.43	37200.47
530.60	37235.58
530.77	36982.80
530.94	37305.80
531.11	36744.07
531.28	37364.31
531.46	37228.56
531.63	37219.20
531.80	37184.09
531.97	37198.13
532.14	37418.14
532.31	36783.86
532.48	37186.43
532.65	37659.22
532.82	37467.30
532.99	37748.16
533.16	37816.04
533.33	37827.74
533.50	37956.47
533.67	37958.81
533.84	37914.34
534.01	38066.47
534.18	37813.70
534.35	37951.79
534.52	37954.13
534.69	38333.29
534.86	37989.24
535.03	37989.24
535.20	38314.57
535.37	38962.90
535.54	38543.94
535.71	38368.40
535.88	38565.01
536.05	38394.15
536.22	38391.81
536.38	38677.35
536.55	38625.86
536.72	38749.91
536.89	38550.96
537.06	38679.69
537.23	38672.67
537.40	38960.56
537.57	39173.55
537.74	39009.71
537.91	39636.97
538.08	38911.41
538.25	38820.13
538.42	38883.32
538.59	39517.60
538.75	38628.20
538.92	39241.42
539.09	39009.71
539.26	39313.98
539.43	39304.62
539.60	39407.60
539.77	38897.36
539.94	39391.22
540.11	39349.09
540.28	39051.84
540.44	39529.31
540.61	39697.83
540.78	39239.08
540.95	39402.92
541.12	39491.86
541.29	39290.57
541.46	39597.18
541.62	39627.61
541.79	40123.80
541.96	39749.32
542.13	39894.43
542.30	39852.30
542.47	39943.58
542.63	39999.76
542.80	40252.53
542.97	40116.78
543.14	40905.54
543.31	40425.73
543.48	40369.56
543.64	40683.19
543.81	40971.08
543.98	40680.85
544.15	40687.87
544.32	41008.53
544.48	41174.70
544.65	41317.48
544.82	41350.24
544.99	40725.32
545.16	40945.33
545.32	40680.85
545.49	41280.03
545.66	41127.89
545.83	41163.00
546.00	41104.49
546.16	41191.09
546.33	40718.30
546.50	40905.54
546.67	41277.69
546.83	40598.93
547.00	41408.76
547.17	41165.34
547.34	41041.29
547.50	41640.47
547.67	41603.02
547.84	41102.15
548.00	41380.67
548.17	41734.09
548.34	41310.46
548.51	41535.15
548.67	41759.84
548.84	41844.10
549.01	41462.59
549.18	41642.81
549.34	41832.39
549.51	42085.17
549.68	42384.76
549.84	42059.43
550.01	41813.67
550.18	41921.34
550.34	41787.92
550.51	41691.96
550.68	42284.12
550.84	41621.75
551.01	42363.70
551.18	42021.98
551.34	41972.83
551.51	42157.73
551.68	42630.52
551.84	42351.99
552.01	42134.32
552.18	42845.85
552.34	42029.00
552.51	42293.48
552.68	42188.16
552.84	42628.18
553.01	42906.70
553.18	42476.04
553.34	42777.97
553.51	41958.78
553.67	42733.50
553.84	43047.13
554.01	42562.64
554.17	42667.97
554.34	43093.94
554.51	42948.83
554.67	42951.17
554.84	43098.62
555.00	42848.19
555.17	42784.99
555.33	42976.92
555.50	42714.78
555.67	42518.17
555.83	42885.64
556.00	42993.30
556.16	42988.62
556.33	43065.86
556.50	43021.39
556.66	43063.52
556.83	42913.72
556.99	43269.48
557.16	43538.65
557.32	43217.99
557.49	43189.91
557.65	42852.87
557.82	43311.61
557.98	43044.79
558.15	43318.64
558.32	43522.26
558.48	43318.64
558.65	43049.47
558.81	43555.03
558.98	43456.73
559.14	43393.53
559.31	43215.65
559.47	43030.75
559.64	43861.64
559.80	43782.06
559.97	43494.18
560.13	43262.46
560.30	43215.65
560.46	43351.40
560.63	43391.19
560.79	43473.11
560.96	44018.46
561.12	44098.03
561.29	43157.14
561.45	43468.43
561.61	43480.13
561.78	43929.51
561.94	43316.29
562.11	43819.51
562.27	43856.96
562.44	43714.19
562.60	43901.43
562.77	44130.80
562.93	44037.18
563.10	43746.95
563.26	43510.56
563.42	44121.44
563.59	43761.00
563.75	43400.55
563.92	44142.50
564.08	44011.43
564.24	44177.61
564.41	43952.92
564.57	43543.33
564.74	43805.47
564.90	44112.08
565.07	43835.89
565.23	43770.36
565.39	43761.00
565.56	43892.07
565.72	43793.76
565.88	43793.76
566.05	44318.04
566.21	43775.04
566.38	44184.63
566.54	44069.95
566.70	44088.67
566.87	44786.15
567.03	43938.88
567.19	44638.70
567.36	44273.57
567.52	43690.78
567.68	44170.59
567.85	43920.15
568.01	44278.25
568.17	44472.52
568.34	44561.46
568.50	44130.80
568.66	44343.79
568.83	44392.94
568.99	43840.57
569.15	43791.42
569.32	44088.67
569.48	44233.78
569.64	44809.56
569.81	44018.46
569.97	44046.54
570.13	44123.78
570.30	43772.70
570.46	44325.07
570.62	43887.39
570.78	44306.34
570.95	44350.81
571.11	44437.41
571.27	43859.30
571.43	44144.84
571.60	44030.16
571.76	44069.95
571.92	44203.36
572.09	43964.62
572.25	44128.46
572.41	44105.06
572.57	44573.16
572.74	44414.01
572.90	44367.20
573.06	44678.49
573.22	44233.78
573.38	44449.11
573.55	44304.00
573.71	44304.00
573.87	44566.14
574.03	44540.39
574.20	43779.72
574.36	44306.34
574.52	44205.70
574.68	44542.74
574.84	44247.83
575.01	44395.28
575.17	44479.54
575.33	44626.99
575.49	44126.12
575.65	44610.61
575.82	44357.83
575.98	44341.45
576.14	44903.18
576.30	44470.18
576.46	44301.66
576.62	44177.61
576.79	44194.00
576.95	44004.41
577.11	44376.56
577.27	44362.51
577.43	44638.70
577.59	44849.35
577.75	44231.44
577.92	43683.76
578.08	43913.13
578.24	44514.65
578.40	44636.36
578.56	44519.33
578.72	44690.19
578.88	44650.40
579.04	44217.40
579.21	44811.90
579.37	44509.97
579.53	44566.14
579.69	44397.62
579.85	44444.43
580.01	44524.01
580.17	44626.99
580.33	44980.42
580.49	44638.70
580.65	44982.76
580.82	44926.58
580.98	44502.95
581.14	44369.54
581.30	44900.84
581.46	44507.63
581.62	44868.07
581.78	44339.11
581.94	44996.80
582.10	44357.83
582.26	44793.17
582.42	44289.96
582.58	44573.16
582.74	44776.79
582.90	44729.98
583.06	44397.62
583.22	44825.94
583.38	45048.29
583.54	44856.37
583.70	44797.85
583.86	44371.88
584.02	44533.37
584.18	44772.11
584.34	44451.45
584.50	44399.96
584.66	44449.11
584.82	44547.42
584.98	44849.35
585.14	45090.42
585.30	45034.25
585.46	44390.60
585.62	44912.54
585.78	44589.55
585.94	44360.17
586.10	44720.62
586.26	44755.72
586.42	44575.50
586.58	44905.52
586.74	44704.23
586.90	44334.43
587.06	44151.87
587.22	44493.58
587.38	44673.81
587.54	44928.92
587.70	44807.22
587.86	44587.21
588.02	44832.96
588.18	45158.30
588.34	44360.17
588.49	44170.59
588.65	43737.59
588.81	44182.29
588.97	44767.43
589.13	44252.51
589.29	44318.04
589.45	45048.29
589.61	44392.94
589.77	44671.46
589.93	44697.21
590.08	44706.57
590.24	45263.62
