SpectraSuite Data File
++++++++++++++++++++++++++++++++++++
Date: Fri Oct 25 10:44:47 EDT 2013
User: price-jones
Dark Spectrum Present: No
Reference Spectrum Present: No
Number of Sampled Component Spectra: 1
Spectrometers: USB2+H05261
Integration Time (usec): 100000 (USB2+H05261)
Spectra Averaged: 1 (USB2+H05261)
Boxcar Smoothing: 0 (USB2+H05261)
Correct for Electrical Dark: No (USB2+H05261)
Strobe/Lamp Enabled: No (USB2+H05261)
Correct for Detector Non-linearity: No (USB2+H05261)
Correct for Stray Light: No (USB2+H05261)
Number of Pixels in Processed Spectrum: 2048
>>>>>Begin Processed Spectral Data<<<<<
365.73	135.75
365.92	135.75
366.12	135.75
366.32	56.17
366.52	0.00
366.72	95.96
366.91	23.41
367.11	37.45
367.31	0.00
367.51	25.75
367.70	18.72
367.90	44.47
368.10	56.17
368.30	79.58
368.49	42.13
368.69	32.77
368.89	58.51
369.09	16.38
369.28	72.56
369.48	18.72
369.68	112.35
369.87	138.09
370.07	95.96
370.27	102.98
370.47	215.33
370.66	341.72
370.86	367.46
371.06	379.17
371.25	418.96
371.45	407.25
371.65	477.47
371.84	430.66
372.04	421.30
372.24	416.62
372.44	543.00
372.63	519.60
372.83	587.47
373.03	566.41
373.22	425.98
373.42	456.40
373.62	498.53
373.81	561.73
374.01	543.00
374.21	540.66
374.40	454.06
374.60	552.37
374.79	526.62
374.99	561.73
375.19	587.47
375.38	526.62
375.58	528.96
375.78	538.32
375.97	491.51
376.17	582.79
376.37	571.09
376.56	613.22
376.76	585.13
376.95	568.75
377.15	580.45
377.35	545.34
377.54	575.77
377.74	554.71
377.93	557.05
378.13	608.54
378.33	685.78
378.52	592.16
378.72	664.71
378.91	704.50
379.11	580.45
379.31	531.30
379.50	582.79
379.70	671.73
379.89	599.18
380.09	690.46
380.28	594.50
380.48	641.31
380.68	636.63
380.87	655.35
381.07	671.73
381.26	697.48
381.46	678.76
381.65	627.26
381.85	653.01
382.04	653.01
382.24	608.54
382.43	634.29
382.63	669.39
382.83	657.69
383.02	711.52
383.22	674.07
383.41	643.65
383.61	772.38
383.80	748.97
384.00	767.70
384.19	664.71
384.39	807.48
384.58	739.61
384.78	758.33
384.97	648.33
385.17	690.46
385.36	727.91
385.56	814.51
385.75	695.14
385.95	692.80
386.14	819.19
386.34	774.72
386.53	858.98
386.72	744.29
386.92	814.51
387.11	840.25
387.31	844.93
387.50	765.36
387.70	826.21
387.89	835.57
388.09	835.57
388.28	798.12
388.48	835.57
388.67	868.34
388.86	833.23
389.06	877.70
389.25	863.66
389.45	849.61
389.64	933.87
389.84	882.38
390.03	961.96
390.22	938.55
390.42	858.98
390.61	929.19
390.81	910.47
391.00	957.28
391.19	992.39
391.39	884.72
391.58	1006.43
391.78	912.81
391.97	994.73
392.16	1060.26
392.36	985.37
392.55	1004.09
392.75	971.32
392.94	954.94
393.13	957.28
393.33	849.61
393.52	929.19
393.71	954.94
393.91	1083.67
394.10	968.98
394.29	1151.54
394.49	1090.69
394.68	1074.31
394.88	1142.18
395.07	1067.28
395.26	1032.18
395.46	1130.48
395.65	1217.08
395.84	1013.45
396.04	1118.78
396.23	1093.03
396.42	1135.16
396.62	1146.86
396.81	1210.06
397.00	1151.54
397.19	1121.12
397.39	1231.12
397.58	1228.78
397.77	1188.99
397.97	1245.16
398.16	1306.02
398.35	1254.53
398.55	1301.34
398.74	1254.53
398.93	1380.92
399.12	1282.61
399.32	1364.53
399.51	1371.55
399.70	1406.66
399.90	1357.51
400.09	1380.92
400.28	1392.62
400.47	1568.16
400.67	1427.73
400.86	1500.28
401.05	1476.88
401.24	1413.68
401.44	1437.09
401.63	1523.69
401.82	1495.60
402.01	1544.75
402.21	1509.65
402.40	1558.80
402.59	1551.78
402.78	1465.18
402.97	1572.84
403.17	1549.43
403.36	1575.18
403.55	1533.05
403.74	1561.14
403.93	1654.76
404.13	1708.59
404.32	1603.27
404.51	1610.29
404.70	1682.85
404.89	1771.79
405.09	1703.91
405.28	1713.27
405.47	1633.69
405.66	1713.27
405.85	1748.38
406.05	1713.27
406.24	1732.00
406.43	1858.39
406.62	1788.17
406.81	1870.09
407.00	1797.53
407.20	1811.57
407.39	1837.32
407.58	1907.54
407.77	2001.16
407.96	1954.35
408.15	1935.62
408.34	1966.05
408.54	1975.41
408.73	1952.01
408.92	1989.46
409.11	1989.46
409.30	1998.82
409.49	1982.43
409.68	2118.18
409.87	2024.56
410.07	2050.31
410.26	2052.65
410.45	2148.61
410.64	2083.08
410.83	2190.74
411.02	2183.72
411.21	2319.47
411.40	2263.30
411.59	2296.07
411.78	2310.11
411.98	2282.02
412.17	2303.09
412.36	2342.88
412.55	2476.29
412.74	2476.29
412.93	2490.33
413.12	2417.77
413.31	2527.78
413.50	2541.82
413.69	2392.03
413.88	2605.02
414.07	2525.44
414.26	2628.42
414.45	2555.86
414.64	2778.22
414.83	2782.90
415.02	2780.56
415.22	2768.85
415.41	2731.41
415.60	2843.75
415.79	2913.97
415.98	2995.89
416.17	2958.44
416.36	2810.98
416.55	2803.96
416.74	2935.03
416.93	2993.55
417.12	2942.05
417.31	3059.08
417.50	3098.87
417.69	3070.78
417.88	3110.57
418.07	3038.02
418.26	3068.44
418.45	3136.32
418.64	3148.02
418.83	3337.60
419.02	3089.51
419.21	3229.94
419.39	3258.03
419.58	3187.81
419.77	3145.68
419.96	3213.56
420.15	3356.33
420.34	3218.24
420.53	3342.28
420.72	3438.25
420.91	3295.47
421.10	3393.78
421.29	3424.20
421.48	3459.31
421.67	3515.48
421.86	3433.57
422.05	3398.46
422.24	3459.31
422.43	3440.59
422.61	3475.70
422.80	3569.32
422.99	3658.26
423.18	3574.00
423.37	3609.11
423.56	3449.95
423.75	3461.65
423.94	3421.86
424.13	3281.43
424.32	3335.26
424.50	3588.04
424.69	3611.45
424.88	3620.81
425.07	3744.86
425.26	3566.98
425.45	3524.85
425.64	3583.36
425.83	3494.42
426.01	3595.06
426.20	3576.34
426.39	3623.15
426.58	3604.42
426.77	3616.13
426.96	3695.71
427.15	3702.73
427.33	3691.02
427.52	3660.60
427.71	3702.73
427.90	3754.22
428.09	3688.68
428.28	3662.94
428.46	3735.50
428.65	3763.58
428.84	3812.73
429.03	3936.78
429.22	3637.19
429.40	3798.69
429.59	3896.99
429.78	3655.92
429.97	3681.66
430.16	3875.93
430.34	3803.37
430.53	3857.20
430.72	3901.67
430.91	3859.54
431.10	3974.23
431.28	3997.64
431.47	4161.47
431.66	4339.35
431.85	4051.47
432.03	4292.54
432.22	4245.73
432.41	4166.15
432.60	4283.18
432.79	4063.17
432.97	4365.10
433.16	4311.27
433.35	4229.35
433.54	4198.92
433.72	4201.26
433.91	4126.36
434.10	4367.44
434.28	4222.33
434.47	4376.80
434.66	4334.67
434.85	4411.91
435.03	4397.87
435.22	4369.78
435.41	4660.01
435.59	4557.02
435.78	4554.68
435.97	4620.22
436.16	4678.73
436.34	4620.22
436.53	4489.15
436.72	4678.73
436.90	4627.24
437.09	4660.01
437.28	4603.83
437.46	4545.32
437.65	4739.58
437.84	4744.27
438.02	4697.46
438.21	4706.82
438.40	4716.18
438.58	4793.42
438.77	4990.02
438.96	4929.17
439.14	5097.69
439.33	5074.28
439.52	5048.54
439.70	5090.67
439.89	5093.01
440.08	5125.77
440.26	5165.56
440.45	5088.32
440.63	5252.16
440.82	5373.87
441.01	5249.82
441.19	5266.21
441.38	5334.08
441.57	5685.16
441.75	5451.11
441.94	5584.52
442.12	5582.18
442.31	5631.33
442.50	5820.91
442.68	5654.73
442.87	5584.52
443.05	5654.73
443.24	5631.33
443.43	5727.29
443.61	5603.24
443.80	5818.57
443.98	5614.95
444.17	5682.82
444.35	5907.51
444.54	6024.54
444.73	5949.64
444.91	5834.96
445.10	5900.49
445.28	5942.62
445.47	5823.25
445.65	5916.87
445.84	5816.23
446.02	6181.35
446.21	5802.19
446.39	6052.63
446.58	6010.50
446.77	5954.32
446.95	6022.20
447.14	6087.73
447.32	6040.92
447.51	5856.02
447.69	6076.03
447.88	6066.67
448.06	5996.45
448.25	5996.45
448.43	6195.40
448.62	6120.50
448.80	6090.07
448.99	6045.60
449.17	6221.14
449.36	5996.45
449.54	6244.55
449.73	6237.53
449.91	6307.74
450.10	6413.07
450.28	6483.28
450.46	6576.91
450.65	6403.71
450.83	6289.02
451.02	6520.73
451.20	6696.27
451.39	6450.52
451.57	6218.80
451.76	6527.75
451.94	6445.84
452.13	6478.60
452.31	6640.10
452.49	6504.35
452.68	6651.80
452.86	6462.22
453.05	6604.99
453.23	6565.20
453.42	6532.44
453.60	6679.89
453.78	6810.96
453.97	6612.01
454.15	6518.39
454.34	6665.85
454.52	6855.43
454.70	6930.33
454.89	6710.32
455.07	6747.76
455.26	6972.46
455.44	7028.63
455.62	6832.02
455.81	6841.39
455.99	7152.68
456.17	7063.74
456.36	6979.48
456.54	7014.59
456.73	7169.06
456.91	7227.57
457.09	7281.41
457.28	7543.55
457.46	7208.85
457.64	7386.73
457.83	7208.85
458.01	7253.32
458.19	7274.38
458.38	7302.47
458.56	7368.01
458.74	7520.14
458.93	7517.80
459.11	7241.62
459.29	7501.42
459.48	7440.56
459.66	7578.65
459.84	7651.21
460.03	7660.57
460.21	7812.71
460.39	7630.15
460.57	7721.43
460.76	7644.19
460.94	7735.47
461.12	7878.24
461.31	7901.65
461.49	7840.79
461.67	7801.01
461.85	7812.71
462.04	7836.11
462.22	8086.55
462.40	8105.28
462.59	8070.17
462.77	7934.42
462.95	8088.89
463.13	8077.19
463.32	8016.33
463.50	8053.78
463.68	8234.00
463.86	7971.86
464.05	8388.48
464.23	8056.12
464.41	8348.69
464.59	8280.82
464.78	8402.52
464.96	8081.87
465.14	8189.53
465.32	8304.22
465.50	8507.85
465.69	8348.69
465.87	8493.80
466.05	8435.29
466.23	8418.91
466.41	8507.85
466.60	8468.06
466.78	8454.02
466.96	8313.58
467.14	8496.14
467.32	8559.34
467.51	8755.94
467.69	8243.37
467.87	8397.84
468.05	8664.66
468.23	8496.14
468.41	8547.64
468.60	8559.34
468.78	8762.97
468.96	8837.86
469.14	8870.63
469.32	8865.95
469.50	8622.53
469.69	8699.77
469.87	8910.42
470.05	8973.61
470.23	8919.78
470.41	9156.18
470.59	8950.21
470.77	8858.93
470.95	9362.14
471.14	9488.53
471.32	8997.02
471.50	9242.78
471.68	9369.16
471.86	9401.93
472.04	9315.33
472.22	9652.37
472.40	9434.70
472.58	9544.70
472.77	9448.74
472.95	9635.99
473.13	9769.40
473.31	9614.92
473.49	9563.43
473.67	9640.67
473.85	9722.59
474.03	9804.50
474.21	10108.77
474.39	10010.47
474.57	10115.80
474.75	10115.80
474.93	10113.45
475.12	10111.11
475.30	10193.03
475.48	10265.59
475.66	10101.75
475.84	10134.52
476.02	10307.72
476.20	10611.99
476.38	10611.99
476.56	10759.44
476.74	10740.72
476.92	10771.15
477.10	10745.40
477.28	10874.13
477.46	11059.03
477.64	11143.29
477.82	11073.07
478.00	11534.16
478.18	11520.12
478.36	11459.26
478.54	11389.05
478.72	11768.21
478.90	11740.13
479.08	11861.84
479.26	11653.53
479.44	12114.61
479.62	11976.52
479.80	12004.61
479.98	12121.63
480.16	12332.28
480.34	12353.35
480.52	12549.95
480.70	12549.95
480.88	12587.40
481.06	12823.80
481.24	12690.38
481.41	13062.53
481.59	13165.51
481.77	12968.91
481.95	13083.59
482.13	13240.41
482.31	13179.56
482.49	13687.45
482.67	13462.76
482.85	13745.97
483.03	14111.09
483.21	14050.24
483.39	14061.94
483.57	14003.43
483.74	14043.21
483.92	14305.35
484.10	14101.73
484.28	14408.34
484.46	14469.19
484.64	15002.83
484.82	14937.30
485.00	14794.53
485.18	14768.78
485.35	15199.44
485.53	15084.75
485.71	15009.86
485.89	15316.47
486.07	15386.68
486.25	15232.21
486.43	15527.11
486.61	15651.16
486.78	15880.53
486.96	16163.74
487.14	16084.16
487.32	16231.62
487.50	16491.41
487.68	16840.15
487.85	16936.12
488.03	16968.88
488.21	17071.87
488.39	17067.19
488.57	16856.54
488.75	17219.32
488.92	17446.35
489.10	17614.87
489.28	17888.71
489.46	17729.56
489.64	17956.59
489.81	18448.10
489.99	18338.10
490.17	18546.40
490.35	18911.53
490.53	18534.70
490.70	18857.70
490.88	19131.54
491.06	18848.33
491.24	19026.21
491.41	19131.54
491.59	19335.17
491.77	18995.79
491.95	19377.30
492.13	19623.05
492.30	19543.47
492.48	20077.12
492.66	20123.93
492.84	20262.02
493.01	20203.50
493.19	20189.46
493.37	20395.43
493.54	20573.31
493.72	20919.71
493.90	20933.75
494.08	21083.55
494.25	21090.57
494.43	21085.89
494.61	21378.45
494.79	21333.98
494.96	21202.91
495.14	21532.93
495.32	21759.96
495.49	21865.28
495.67	22183.60
495.85	22441.06
496.02	22087.64
496.20	22560.42
496.38	22415.31
496.55	22576.81
496.73	22970.02
496.91	22925.55
497.09	22944.27
497.26	22902.14
497.44	22796.82
497.62	23379.61
497.79	23702.61
497.97	23157.26
498.14	23503.66
498.32	23597.28
498.50	23798.57
498.67	23960.06
498.85	24056.03
499.03	24545.20
499.20	24095.82
499.38	24086.45
499.56	24081.77
499.73	24411.79
499.91	24638.82
500.08	24545.20
500.26	24400.08
500.44	24840.11
500.61	24638.82
500.79	24940.75
500.97	25092.88
501.14	25715.47
501.32	25254.38
501.49	25219.27
501.67	25200.55
501.84	25383.11
502.02	25593.76
502.20	25455.67
502.37	25631.21
502.55	25663.97
502.72	25942.50
502.90	25785.68
503.07	25986.97
503.25	26106.34
503.43	25860.58
503.60	25905.05
503.78	26246.77
503.95	26157.83
504.13	26567.42
504.30	26349.75
504.48	26497.20
504.65	27028.51
504.83	26852.97
505.01	27047.23
505.18	26778.07
505.36	27271.92
505.53	26946.59
505.71	27414.69
505.88	27503.64
506.06	27253.20
506.23	27529.38
506.41	27323.41
506.58	27592.58
506.76	27576.19
506.93	27903.87
507.11	27854.72
507.28	27892.16
507.46	27688.54
507.63	28166.01
507.81	28252.61
507.98	28025.57
508.16	28325.16
508.33	28301.76
508.50	28442.19
508.68	28554.54
508.85	28987.53
509.03	28641.14
509.20	28849.44
509.38	28720.71
509.55	29394.79
509.73	29032.00
509.90	29123.29
510.08	29298.83
510.25	28992.22
510.42	28924.34
510.60	29755.23
510.77	29429.90
510.95	29806.72
511.12	29493.09
511.30	29979.92
511.47	30213.98
511.64	29570.33
511.82	30356.75
511.99	30375.47
512.17	30082.91
512.34	30075.88
512.51	30291.21
512.69	30513.56
512.86	30574.42
513.04	30419.94
513.21	30885.71
513.38	30764.00
513.56	31084.65
513.73	30551.01
513.90	30885.71
514.08	30967.63
514.25	30995.71
514.43	31072.95
514.60	31054.23
514.77	31220.41
514.95	31845.33
515.12	31630.00
515.29	31323.39
515.47	31658.09
515.64	31723.62
515.81	31718.94
515.99	31494.25
516.16	32060.66
516.33	31756.39
516.51	31974.06
516.68	31969.38
516.85	31517.65
517.03	31426.37
517.20	32119.17
517.37	32294.71
517.54	32034.91
517.72	32126.19
517.89	31927.25
518.06	31941.29
518.24	32048.96
518.41	31974.06
518.58	32645.79
518.75	32833.04
518.93	32814.31
519.10	32875.16
519.27	32699.62
519.45	32673.88
519.62	33146.67
519.79	33291.78
519.96	33317.53
520.14	33504.77
520.31	33366.68
520.48	33137.30
520.65	33130.28
520.83	33539.88
521.00	33560.94
521.17	33813.72
521.34	33949.47
521.52	34185.86
521.69	33626.48
521.86	34078.20
522.03	33790.31
522.20	34307.57
522.38	34347.36
522.55	34169.48
522.72	34244.38
522.89	34307.57
523.07	34443.32
523.24	34206.93
523.41	34319.28
523.58	34345.02
523.75	34958.24
523.92	35028.46
524.10	34759.30
524.27	34785.04
524.44	34829.51
524.61	34953.56
524.78	35065.91
524.96	35625.29
525.13	35421.67
525.30	35468.48
525.47	35557.42
525.64	35206.34
525.81	35487.20
525.98	35627.63
526.16	35250.81
526.33	35304.64
526.50	35426.35
526.67	35239.11
526.84	35622.95
527.01	35475.50
527.18	35709.55
527.36	35831.26
527.53	36231.49
527.70	36062.97
527.87	36266.60
528.04	35995.10
528.21	35835.94
528.38	36147.23
528.55	36605.98
528.72	36154.26
528.89	36854.08
529.07	36233.83
529.24	36346.18
529.41	36622.36
529.58	36208.09
529.75	36540.44
529.92	36573.21
530.09	36402.35
530.26	36802.58
530.43	36823.65
530.60	36531.08
530.77	37076.43
530.94	37317.50
531.11	37429.85
531.28	37235.58
531.46	37202.82
531.63	37390.06
531.80	36889.18
531.97	37439.21
532.14	36877.48
532.31	36821.31
532.48	37460.27
532.65	37247.29
532.82	37584.32
532.99	37586.66
533.16	37523.47
533.33	38022.00
533.50	37893.27
533.67	37848.80
533.84	37883.91
534.01	37429.85
534.18	37897.95
534.35	37984.55
534.52	38146.05
534.69	38087.54
534.86	38155.41
535.03	38174.14
535.20	38424.57
535.37	38946.51
535.54	38408.19
535.71	38646.93
535.88	38541.60
536.05	38146.05
536.22	38766.29
536.38	38380.10
536.55	38595.43
536.72	38611.82
536.89	38476.07
537.06	38555.64
537.23	38770.97
537.40	38733.53
537.57	38340.32
537.74	39145.46
537.91	39332.70
538.08	38960.56
538.25	38785.02
538.42	39299.94
538.59	39126.74
538.75	38644.59
538.92	38747.57
539.09	39117.37
539.26	39442.71
539.43	39512.92
539.60	39215.68
539.77	39164.18
539.94	39440.37
540.11	39051.84
540.28	39594.84
540.44	39526.97
540.61	39679.10
540.78	39129.08
540.95	39316.32
541.12	39365.47
541.29	39557.39
541.46	39173.55
541.62	39608.89
541.79	40133.17
541.96	39751.66
542.13	39693.15
542.30	39601.86
542.47	39730.59
542.63	40116.78
542.80	40093.38
542.97	40086.36
543.14	40704.26
543.31	40158.91
543.48	40378.92
543.64	41010.87
543.81	40552.12
543.98	40383.60
544.15	40744.05
544.32	40753.41
544.48	40832.99
544.65	40772.13
544.82	40582.55
544.99	40835.33
545.16	40697.24
545.32	40746.39
545.49	41209.81
545.66	41244.92
545.83	41303.43
546.00	41319.82
546.16	40978.10
546.33	40816.60
546.50	40601.27
546.67	41354.93
546.83	40755.75
547.00	41202.79
547.17	41270.67
547.34	41172.36
547.50	41404.08
547.67	41638.13
547.84	41078.74
548.00	41474.29
548.17	41696.64
548.34	41839.42
548.51	41823.03
548.67	41816.01
548.84	41902.61
549.01	41502.38
549.18	41329.18
549.34	41673.24
549.51	41736.43
549.68	41251.94
549.84	41478.97
550.01	41965.81
550.18	41399.40
550.34	41514.08
550.51	41769.20
550.68	42026.66
550.84	41677.92
551.01	42129.64
551.18	41961.12
551.34	41867.50
551.51	42094.53
551.68	42127.30
551.84	42078.15
552.01	41757.50
552.18	42265.39
552.34	41710.69
552.51	42092.19
552.68	41975.17
552.84	42710.10
553.01	42890.32
553.18	42660.94
553.34	42169.43
553.51	42024.32
553.67	42234.97
553.84	42653.92
554.01	42646.90
554.17	42782.65
554.34	42436.25
554.51	42728.82
554.67	42920.74
554.84	42801.38
555.00	42220.92
555.17	42705.41
555.33	42831.80
555.50	42850.53
555.67	42469.02
555.83	42813.08
556.00	43152.46
556.16	43016.71
556.33	42782.65
556.50	42185.82
556.66	42862.23
556.83	42813.08
556.99	42895.00
557.16	43232.04
557.32	42944.15
557.49	43171.18
557.65	42646.90
557.82	43103.31
557.98	43299.91
558.15	43166.50
558.32	43182.88
558.48	43555.03
558.65	43187.56
558.81	43253.10
558.98	42986.28
559.14	42916.06
559.31	42628.18
559.47	43426.30
559.64	43662.69
559.80	43524.60
559.97	43489.49
560.13	43454.39
560.30	42918.40
560.46	43269.48
560.63	43335.02
560.79	43505.88
560.96	43491.83
561.12	43873.34
561.29	43505.88
561.45	43658.01
561.61	43524.60
561.78	43625.25
561.94	43409.92
562.11	43845.26
562.27	43723.55
562.44	43519.92
562.60	44140.16
562.77	43782.06
562.93	43782.06
563.10	43966.96
563.26	43122.03
563.42	43257.78
563.59	43882.70
563.75	43543.33
563.92	43641.63
564.08	43721.21
564.24	43718.87
564.41	43515.24
564.57	43697.80
564.74	43786.74
564.90	43650.99
565.07	43840.57
565.23	44140.16
565.39	43849.94
565.56	43669.72
565.72	43391.19
565.88	43777.38
566.05	43402.89
566.21	44004.41
566.38	44385.92
566.54	43662.69
566.70	43999.73
566.87	44343.79
567.03	43868.66
567.19	44229.10
567.36	44325.07
567.52	43878.02
567.68	44013.77
567.85	43908.45
568.01	44306.34
568.17	43735.25
568.34	44559.12
568.50	43983.35
568.66	43826.53
568.83	44289.96
568.99	43796.10
569.15	43447.36
569.32	44046.54
569.48	43800.79
569.64	44935.95
569.81	44217.40
569.97	43889.73
570.13	44336.77
570.30	43894.41
570.46	43473.11
570.62	43845.26
570.78	43564.39
570.95	43931.86
571.11	44095.69
571.27	43959.94
571.43	43985.69
571.60	44580.18
571.76	43971.64
571.92	43573.75
572.09	44587.21
572.25	44416.35
572.41	43917.81
572.57	44287.62
572.74	44474.86
572.90	44147.18
573.06	44184.63
573.22	43966.96
573.38	44374.22
573.55	44137.82
573.71	44458.48
573.87	44416.35
574.03	43711.84
574.20	44114.42
574.36	44617.63
574.52	44247.83
574.68	44336.77
574.84	43779.72
575.01	44334.43
575.17	44694.87
575.33	44481.88
575.49	44266.55
575.65	44130.80
575.82	44619.97
575.98	44287.62
576.14	44406.98
576.30	44250.17
576.46	44088.67
576.62	44521.67
576.79	44676.15
576.95	44140.16
577.11	44292.30
577.27	44304.00
577.43	44404.64
577.59	44149.53
577.75	43863.98
577.92	44563.80
578.08	43868.66
578.24	44378.90
578.40	44350.81
578.56	44311.02
578.72	44458.48
578.88	44725.30
579.04	44800.19
579.21	44194.00
579.37	44444.43
579.53	44397.62
579.69	44685.51
579.85	44055.90
580.01	44521.67
580.17	44500.61
580.33	44657.42
580.49	44561.46
580.65	44467.84
580.82	44657.42
580.98	44311.02
581.14	44278.25
581.30	44849.35
581.46	44524.01
581.62	44872.75
581.78	44264.21
581.94	44582.52
582.10	44495.92
582.26	44706.57
582.42	44425.71
582.58	44559.12
582.74	44481.88
582.90	44751.04
583.06	44435.07
583.22	44568.48
583.38	44659.76
583.54	44767.43
583.70	44545.08
583.86	44704.23
584.02	44676.15
584.18	44589.55
584.34	44259.53
584.50	44177.61
584.66	44814.24
584.82	44397.62
584.98	44514.65
585.14	44502.95
585.30	44435.07
585.46	44549.76
585.62	44460.82
585.78	44329.75
585.94	44179.95
586.10	44383.58
586.26	44451.45
586.42	44486.56
586.58	45003.82
586.74	44985.10
586.90	44634.02
587.06	44776.79
587.22	44257.19
587.38	44346.13
587.54	44414.01
587.70	45113.83
587.86	44648.06
588.02	45050.63
588.18	45017.86
588.34	44355.49
588.49	44275.91
588.65	44212.72
588.81	44287.62
588.97	43983.35
589.13	44175.27
589.29	44577.84
589.45	44697.21
589.61	44306.34
589.77	44374.22
589.93	44495.92
590.08	45059.99
590.24	44655.08
