SpectraSuite Data File
++++++++++++++++++++++++++++++++++++
Date: Fri Oct 25 11:34:49 EDT 2013
User: price-jones
Dark Spectrum Present: No
Reference Spectrum Present: No
Number of Sampled Component Spectra: 1
Spectrometers: USB2+H05261
Integration Time (usec): 100000 (USB2+H05261)
Spectra Averaged: 1 (USB2+H05261)
Boxcar Smoothing: 0 (USB2+H05261)
Correct for Electrical Dark: No (USB2+H05261)
Strobe/Lamp Enabled: No (USB2+H05261)
Correct for Detector Non-linearity: No (USB2+H05261)
Correct for Stray Light: No (USB2+H05261)
Number of Pixels in Processed Spectrum: 2048
>>>>>Begin Processed Spectral Data<<<<<
365.73	250.44
365.92	250.44
366.12	250.44
366.32	243.42
366.52	159.16
366.72	131.07
366.91	187.24
367.11	152.13
367.31	210.65
367.51	180.22
367.70	168.52
367.90	180.22
368.10	175.54
368.30	180.22
368.49	177.88
368.69	231.71
368.89	91.28
369.09	152.13
369.28	285.55
369.48	278.52
369.68	234.05
369.87	259.80
370.07	278.52
370.27	287.89
370.47	362.78
370.66	470.45
370.86	409.59
371.06	543.00
371.25	526.62
371.45	507.90
371.65	535.98
371.84	526.62
372.04	559.39
372.24	601.52
372.44	547.69
372.63	606.20
372.83	554.71
373.03	531.30
373.22	624.92
373.42	521.94
373.62	547.69
373.81	571.09
374.01	622.58
374.21	636.63
374.40	669.39
374.60	660.03
374.79	641.31
374.99	683.44
375.19	613.22
375.38	713.86
375.58	669.39
375.78	657.69
375.97	683.44
376.17	732.59
376.37	587.47
376.56	641.31
376.76	645.99
376.95	599.18
377.15	730.25
377.35	622.58
377.54	690.46
377.74	676.41
377.93	702.16
378.13	674.07
378.33	676.41
378.52	737.27
378.72	692.80
378.91	615.56
379.11	655.35
379.31	739.61
379.50	674.07
379.70	763.01
379.89	648.33
380.09	732.59
380.28	716.20
380.48	753.65
380.68	641.31
380.87	716.20
381.07	730.25
381.26	784.08
381.46	734.93
381.65	758.33
381.85	741.95
382.04	725.57
382.24	767.70
382.43	711.52
382.63	748.97
382.83	784.08
383.02	861.32
383.22	734.93
383.41	739.61
383.61	760.67
383.80	791.10
384.00	744.29
384.19	746.63
384.39	791.10
384.58	816.85
384.78	781.74
384.97	809.83
385.17	770.04
385.36	877.70
385.56	842.59
385.75	809.83
385.95	699.82
386.14	826.21
386.34	849.61
386.53	795.78
386.72	809.83
386.92	795.78
387.11	912.81
387.31	784.08
387.50	814.51
387.70	805.14
387.89	802.80
388.09	873.02
388.28	842.59
388.48	856.64
388.67	866.00
388.86	891.74
389.06	964.30
389.25	882.38
389.45	889.40
389.64	952.60
389.84	880.04
390.03	912.81
390.22	933.87
390.42	952.60
390.61	926.85
390.81	964.30
391.00	971.32
391.19	1004.09
391.39	1034.52
391.58	1022.81
391.78	1001.75
391.97	990.05
392.16	966.64
392.36	966.64
392.55	1022.81
392.75	1011.11
392.94	1053.24
393.13	1043.88
393.33	987.71
393.52	1027.50
393.71	1057.92
393.91	1022.81
394.10	1151.54
394.29	1167.93
394.49	1027.50
394.68	1191.33
394.88	1060.26
395.07	1153.88
395.26	1118.78
395.46	1095.37
395.65	1114.10
395.84	1146.86
396.04	1203.04
396.23	1188.99
396.42	1100.05
396.62	1277.93
396.81	1221.76
397.00	1177.29
397.19	1125.80
397.39	1294.32
397.58	1160.91
397.77	1158.57
397.97	1231.12
398.16	1207.72
398.35	1268.57
398.55	1228.78
398.74	1263.89
398.93	1294.32
399.12	1156.22
399.32	1207.72
399.51	1210.06
399.70	1306.02
399.90	1287.29
400.09	1301.34
400.28	1294.32
400.47	1191.33
400.67	1334.11
400.86	1345.81
401.05	1343.47
401.24	1390.28
401.44	1425.39
401.63	1420.71
401.82	1437.09
402.01	1439.43
402.21	1483.90
402.40	1425.39
402.59	1348.15
402.78	1430.07
402.97	1423.05
403.17	1507.30
403.36	1441.77
403.55	1322.40
403.74	1502.62
403.93	1556.46
404.13	1565.82
404.32	1509.65
404.51	1530.71
404.70	1629.01
404.89	1561.14
405.09	1586.88
405.28	1579.86
405.47	1554.12
405.66	1605.61
405.85	1537.73
406.05	1668.80
406.24	1696.89
406.43	1584.54
406.62	1666.46
406.81	1776.47
407.00	1621.99
407.20	1612.63
407.39	1736.68
407.58	1732.00
407.77	1790.51
407.96	1776.47
408.15	1858.39
408.34	1774.13
408.54	1771.79
408.73	1877.11
408.92	1863.07
409.11	1914.56
409.30	1762.42
409.49	1853.70
409.68	1820.94
409.87	1820.94
410.07	1912.22
410.26	1994.14
410.45	1987.11
410.64	1900.52
410.83	1987.11
411.02	2083.08
411.21	2083.08
411.40	2045.63
411.59	2062.01
411.78	2160.31
411.98	2090.10
412.17	2132.23
412.36	2134.57
412.55	2113.50
412.74	2200.10
412.93	2270.32
413.12	2181.38
413.31	2303.09
413.50	2232.87
413.69	2328.83
413.88	2410.75
414.07	2305.43
414.26	2377.98
414.45	2394.37
414.64	2415.43
414.83	2473.95
415.02	2457.56
415.22	2506.71
415.41	2551.18
415.60	2569.91
415.79	2499.69
415.98	2574.59
416.17	2565.23
416.36	2555.86
416.55	2649.49
416.74	2614.38
416.93	2672.89
417.12	2682.25
417.31	2738.43
417.50	2647.15
417.69	2815.66
417.88	2764.17
418.07	2792.26
418.26	2740.77
418.45	2881.20
418.64	2876.52
418.83	2986.52
419.02	2946.73
419.21	2993.55
419.39	3000.57
419.58	2958.44
419.77	2979.50
419.96	2949.08
420.15	3063.76
420.34	3049.72
420.53	3021.63
420.72	3056.74
420.91	3136.32
421.10	3201.85
421.29	3201.85
421.48	3115.25
421.67	3204.19
421.86	3129.30
422.05	3117.59
422.24	3215.90
422.43	3206.53
422.61	3204.19
422.80	3300.16
422.99	3101.21
423.18	3159.72
423.37	3332.92
423.56	3262.71
423.75	3145.68
423.94	3143.34
424.13	3089.51
424.32	3094.19
424.50	3225.26
424.69	3199.51
424.88	3325.90
425.07	3314.20
425.26	3119.93
425.45	3178.45
425.64	3279.09
425.83	3255.69
426.01	3400.80
426.20	3351.65
426.39	3293.13
426.58	3251.00
426.77	3410.16
426.96	3309.52
427.15	3318.88
427.33	3337.60
427.52	3328.24
427.71	3473.36
427.90	3389.10
428.09	3445.27
428.28	3433.57
428.46	3496.76
428.65	3499.10
428.84	3536.55
429.03	3510.80
429.22	3510.80
429.40	3503.78
429.59	3618.47
429.78	3478.04
429.97	3445.27
430.16	3632.51
430.34	3641.87
430.53	3672.30
430.72	3623.15
430.91	3763.58
431.10	3744.86
431.28	3684.00
431.47	3779.97
431.66	3777.62
431.85	3761.24
432.03	3810.39
432.22	4049.13
432.41	3765.92
432.60	3812.73
432.79	3812.73
432.97	3831.46
433.16	3885.29
433.35	3852.52
433.54	3904.01
433.72	3978.91
433.91	3960.19
434.10	4004.66
434.28	3976.57
434.47	3978.91
434.66	4117.00
434.85	4138.07
435.03	4138.07
435.22	4067.85
435.41	4191.90
435.59	4203.60
435.78	4119.34
435.97	4201.26
436.16	4077.21
436.34	4070.19
436.53	4140.41
436.72	4451.70
436.90	4236.37
437.09	4231.69
437.28	4229.35
437.46	4245.73
437.65	4386.16
437.84	4461.06
438.02	4372.12
438.21	4369.78
438.40	4238.71
438.58	4514.89
438.77	4664.69
438.96	4535.96
439.14	4528.94
439.33	4557.02
439.52	4645.96
439.70	4636.60
439.89	4725.54
440.08	4678.73
440.26	4784.06
440.45	4798.10
440.63	4816.82
440.82	4875.34
441.01	4952.57
441.19	5027.47
441.38	4912.78
441.57	4887.04
441.75	4901.08
441.94	5167.90
442.12	5170.24
442.31	5214.71
442.50	5041.51
442.68	5020.45
442.87	5097.69
443.05	5186.63
443.24	5212.37
443.43	5270.89
443.61	5298.97
443.80	5547.07
443.98	5252.16
444.17	5071.94
444.35	5039.17
444.54	5282.59
444.73	5336.42
444.91	5249.82
445.10	5291.95
445.28	5320.04
445.47	5296.63
445.65	5392.59
445.84	5439.40
446.02	5535.37
446.21	5416.00
446.39	5369.19
446.58	5420.68
446.77	5359.83
446.95	5427.70
447.14	5416.00
447.32	5591.54
447.51	5275.57
447.69	5502.60
447.88	5418.34
448.06	5544.73
448.25	5359.83
448.43	5416.00
448.62	5451.11
448.80	5451.11
448.99	5540.05
449.17	5736.65
449.36	5722.61
449.54	5781.12
449.73	5806.87
449.91	5811.55
450.10	5839.64
450.28	5797.51
450.46	5921.56
450.65	5703.89
450.83	5706.23
451.02	5851.34
451.20	5991.77
451.39	5886.45
451.57	5909.85
451.76	5762.40
451.94	5973.05
452.13	6012.84
452.31	5914.53
452.49	5790.49
452.68	5951.98
452.86	6026.88
453.05	6141.57
453.23	6108.80
453.42	5888.79
453.60	5961.34
453.78	6221.14
453.97	6012.84
454.15	6059.65
454.34	6019.86
454.52	6092.41
454.70	6162.63
454.89	6143.91
455.07	6146.25
455.26	6101.78
455.44	6265.61
455.62	6260.93
455.81	6181.35
455.99	6384.98
456.17	6347.53
456.36	6513.71
456.54	6487.96
456.73	6649.46
456.91	6707.98
457.09	6726.70
457.28	6647.12
457.46	6712.66
457.64	6691.59
457.83	6698.61
458.01	6576.91
458.19	6715.00
458.38	6899.90
458.56	6885.86
458.74	6825.00
458.93	6743.08
459.11	6904.58
459.29	6869.47
459.48	6775.85
459.66	6810.96
459.84	7012.24
460.03	7150.34
460.21	7122.25
460.39	6970.12
460.57	7110.55
460.76	7192.47
460.94	7098.84
461.12	7269.70
461.31	7286.09
461.49	6867.13
461.67	7056.72
461.85	7260.34
462.04	7187.79
462.22	7194.81
462.40	7194.81
462.59	7281.41
462.77	7330.56
462.95	7281.41
463.13	7459.29
463.32	7300.13
463.50	7419.50
463.68	7473.33
463.86	7405.46
464.05	7400.77
464.23	7421.84
464.41	7595.04
464.59	7489.71
464.78	7616.10
464.96	7590.36
465.14	7456.95
465.32	7611.42
465.50	7623.12
465.69	7665.25
465.87	7669.94
466.05	7648.87
466.23	7735.47
466.41	7728.45
466.60	7765.90
466.78	7688.66
466.96	7801.01
467.14	7613.76
467.32	7756.54
467.51	7927.39
467.69	7522.48
467.87	7810.37
468.05	8056.12
468.23	7826.75
468.41	7934.42
468.60	7880.58
468.78	8135.70
468.96	8021.02
469.14	8131.02
469.32	8116.98
469.50	8039.74
469.69	8224.64
469.87	8182.51
470.05	8053.78
470.23	8344.01
470.41	8166.13
470.59	8102.93
470.77	8430.61
470.95	8194.22
471.14	8564.02
471.32	8344.01
471.50	8620.19
471.68	8578.06
471.86	8762.97
472.04	8624.87
472.22	8781.69
472.40	8491.46
472.58	8561.68
472.77	8821.48
472.95	8877.65
473.13	9123.41
473.31	8865.95
473.49	8545.30
473.67	8875.31
473.85	9029.79
474.03	9107.02
474.21	8999.36
474.39	9212.35
474.57	9235.75
474.75	9495.55
474.93	9308.31
475.12	9287.25
475.30	9558.75
475.48	9430.02
475.66	9668.75
475.84	9591.52
476.02	9781.10
476.20	9645.35
476.38	9846.63
476.56	9909.83
476.74	9874.72
476.92	9968.34
477.10	9884.08
477.28	10022.17
477.46	10017.49
477.64	10225.80
477.82	10391.98
478.00	10574.54
478.18	10382.62
478.36	10298.36
478.54	10846.04
478.72	10651.78
478.90	10710.29
479.08	10785.19
479.26	11033.29
479.44	11091.80
479.62	11180.74
479.80	11145.63
479.98	11279.04
480.16	11414.79
480.34	11580.97
480.52	11485.01
480.70	11609.06
480.88	11358.62
481.06	11534.16
481.24	11557.57
481.41	12013.97
481.59	11775.24
481.77	12116.95
481.95	12264.41
482.13	12271.43
482.31	12035.03
482.49	12414.20
482.67	12505.48
482.85	12671.66
483.03	12734.85
483.21	12987.63
483.39	12996.99
483.57	13069.55
483.74	12940.82
483.92	13207.64
484.10	13202.96
484.28	13455.74
484.46	13874.70
484.64	13542.34
484.82	13720.22
485.00	13818.52
485.18	13989.38
485.35	14214.07
485.53	14043.21
485.71	14284.29
485.89	14497.28
486.07	14459.83
486.25	14492.60
486.43	14520.68
486.61	14719.63
486.78	14998.15
486.96	15044.96
487.14	15136.24
487.32	15248.59
487.50	15363.28
487.68	15407.75
487.85	15314.13
488.03	15737.76
488.21	15838.41
488.39	15859.47
488.57	16119.27
488.75	16035.01
488.92	16250.34
489.10	16407.16
489.28	16549.93
489.46	16599.08
489.64	16718.45
489.81	17032.08
489.99	17174.85
490.17	17282.52
490.35	17259.11
490.53	17605.51
490.70	17439.33
490.88	17518.91
491.06	17668.70
491.24	17659.34
491.41	18143.83
491.59	18001.06
491.77	17961.27
491.95	18221.07
492.13	18457.46
492.30	18342.78
492.48	18530.02
492.66	18661.09
492.84	18354.48
493.01	18944.30
493.19	18822.59
493.37	19367.93
493.54	19133.88
493.72	19417.08
493.90	19332.82
494.08	19484.96
494.25	19751.78
494.43	19875.83
494.61	19939.02
494.79	19908.60
494.96	20070.09
495.14	20418.83
495.32	20456.28
495.49	20327.55
495.67	20374.36
495.85	20540.54
496.02	20711.40
496.20	20814.38
496.38	21200.57
496.55	20973.54
496.73	21502.50
496.91	21511.86
497.09	21348.03
497.26	21689.74
497.44	21675.70
497.62	21755.28
497.79	22139.13
497.97	21617.19
498.14	22335.73
498.32	22092.32
498.50	22363.82
498.67	22761.71
498.85	22637.66
499.03	22628.30
499.20	22478.50
499.38	22621.28
499.56	23225.14
499.73	22740.64
499.91	23344.50
500.08	23065.98
500.26	23229.82
500.44	23384.29
500.61	23278.97
500.79	23145.56
500.97	23749.42
501.14	23924.96
501.32	23747.08
501.49	23892.19
501.67	23936.66
501.84	23896.87
502.02	24243.27
502.20	23688.56
502.37	24023.26
502.55	24044.32
502.72	24140.29
502.90	24568.60
503.07	24170.71
503.25	24584.99
503.43	24673.93
503.60	24917.34
503.78	24849.47
503.95	24694.99
504.13	24807.34
504.30	25312.89
504.48	24954.79
504.65	25069.48
504.83	25118.63
505.01	25785.68
505.18	25294.17
505.36	25626.53
505.53	25722.49
505.71	25486.09
505.88	25476.73
506.06	25680.36
506.23	25858.24
506.41	25961.22
506.58	25914.41
506.76	26040.80
506.93	26277.19
507.11	26441.03
507.28	26501.89
507.46	26682.11
507.63	26955.95
507.81	26785.09
507.98	26520.61
508.16	26735.94
508.33	27051.91
508.50	27124.47
508.68	26974.67
508.85	27213.41
509.03	26920.84
509.20	26794.45
509.38	27775.14
509.55	27538.74
509.73	27400.65
509.90	27466.19
510.08	27702.58
510.25	27847.69
510.42	27653.43
510.60	27723.65
510.77	28268.99
510.95	28421.13
511.12	28016.21
511.30	28128.56
511.47	28348.57
511.64	28268.99
511.82	28350.91
511.99	28219.84
512.17	28701.99
512.34	28222.18
512.51	28816.68
512.69	29153.71
512.86	28940.72
513.04	29453.30
513.21	28788.59
513.38	28914.98
513.56	29504.79
513.73	29048.39
513.90	29511.81
514.08	29329.25
514.25	29294.14
514.43	29919.07
514.60	29546.92
514.77	29701.40
514.95	29778.64
515.12	29661.61
515.29	30157.80
515.47	29764.59
515.64	29872.26
515.81	30022.05
515.99	30387.18
516.16	30649.32
516.33	30682.08
516.51	30321.64
516.68	29954.18
516.85	30293.55
517.03	30256.11
517.20	30639.95
517.37	30464.41
517.54	30689.10
517.72	30841.24
517.89	31449.78
518.06	30649.32
518.24	31117.42
518.41	30852.94
518.58	30941.88
518.75	30815.49
518.93	31480.21
519.10	31161.89
519.27	31791.50
519.45	31117.42
519.62	31515.31
519.79	31515.31
519.96	31505.95
520.14	31697.88
520.31	31892.14
520.48	31992.78
520.65	31967.04
520.83	32304.07
521.00	32407.06
521.17	32224.50
521.34	32641.11
521.52	32486.64
521.69	32421.10
521.86	32694.94
522.03	32802.61
522.20	32954.74
522.38	32872.82
522.55	33092.83
522.72	32678.56
522.89	32891.55
523.07	33235.61
523.24	32907.93
523.41	33120.92
523.58	32999.21
523.75	33764.57
523.92	33411.15
524.10	33624.14
524.27	33610.09
524.44	33706.05
524.61	33755.21
524.78	33802.02
524.96	33914.36
525.13	34003.30
525.30	34120.33
525.47	33944.79
525.64	33851.17
525.81	34015.01
525.98	34232.68
526.16	34370.77
526.33	33759.89
526.50	34506.52
526.67	34213.95
526.84	34452.69
527.01	34080.54
527.18	34190.55
527.36	34806.11
527.53	34742.91
527.70	35126.76
527.87	34735.89
528.04	34590.78
528.21	34871.64
528.38	34724.19
528.55	35171.23
528.72	35175.91
528.89	34969.94
529.07	35269.53
529.24	35119.74
529.41	35463.80
529.58	35089.31
529.75	35260.17
529.92	34988.67
530.09	35381.88
530.26	35433.37
530.43	35484.86
530.60	35323.36
530.77	35337.41
530.94	35585.50
531.11	35302.30
531.28	35908.50
531.46	35646.36
531.63	35676.79
531.80	35651.04
531.97	36025.53
532.14	36219.79
532.31	35885.09
532.48	36130.85
532.65	36245.54
532.82	36308.73
532.99	36140.21
533.16	36119.15
533.33	35978.72
533.50	36126.17
533.67	36137.87
533.84	36231.49
534.01	36650.45
534.18	36704.28
534.35	36734.71
534.52	37006.21
534.69	37474.32
534.86	36924.29
535.03	37069.40
535.20	37254.31
535.37	37308.14
535.54	36875.14
535.71	36919.61
535.88	37509.43
536.05	37092.81
536.22	37020.25
536.38	37635.81
536.55	37186.43
536.72	37214.52
536.89	37333.89
537.06	37345.59
537.23	37598.37
537.40	37237.92
537.57	37294.10
537.74	36872.80
537.91	37785.61
538.08	37497.72
538.25	37397.08
538.42	37827.74
538.59	38007.96
538.75	37879.23
538.92	38007.96
539.09	38040.73
539.26	38127.33
539.43	37811.35
539.60	38534.58
539.77	38349.68
539.94	37881.57
540.11	38085.20
540.28	38368.40
540.44	38302.87
540.61	38115.62
540.78	38417.55
540.95	38239.67
541.12	38532.24
541.29	38625.86
541.46	38667.99
541.62	38567.35
541.79	38663.31
541.96	38925.45
542.13	38569.69
542.30	38270.10
542.47	39037.80
542.63	38691.40
542.80	39152.48
542.97	39522.29
543.14	39157.16
543.31	38944.17
543.48	39002.69
543.64	39782.09
543.81	39498.88
543.98	39421.64
544.15	39325.68
544.32	39693.15
544.48	40062.95
544.65	39365.47
544.82	39882.73
544.99	39421.64
545.16	40105.08
545.32	39440.37
545.49	40109.76
545.66	40322.75
545.83	40203.38
546.00	40261.90
546.16	40264.24
546.33	39810.17
546.50	39536.33
546.67	40147.21
546.83	39882.73
547.00	39758.68
547.17	39922.52
547.34	39768.04
547.50	40194.02
547.67	40840.01
547.84	40329.77
548.00	40517.01
548.17	40769.79
548.34	40542.76
548.51	41347.90
548.67	40685.53
548.84	40914.90
549.01	40547.44
549.18	40701.92
549.34	40788.52
549.51	40882.14
549.68	41097.47
549.84	40774.47
550.01	40807.24
550.18	40882.14
550.34	40919.59
550.51	40865.75
550.68	41010.87
550.84	40898.52
551.01	41565.57
551.18	41216.83
551.34	40968.74
551.51	40891.50
551.68	40954.69
551.84	41228.54
552.01	41301.09
552.18	41745.80
552.34	40938.31
552.51	41427.48
552.68	41373.65
552.84	41167.68
553.01	41668.56
553.18	41319.82
553.34	41158.32
553.51	41429.82
553.67	41701.32
553.84	41762.18
554.01	41635.79
554.17	41883.89
554.34	42174.11
554.51	41670.90
554.67	42026.66
554.84	42314.55
555.00	41914.31
555.17	41670.90
555.33	42099.22
555.50	41771.54
555.67	41666.22
555.83	42623.50
556.00	42471.36
556.16	42146.03
556.33	41963.46
556.50	42087.51
556.66	42457.32
556.83	41963.46
556.99	42576.69
557.16	42511.15
557.32	42583.71
557.49	42738.18
557.65	41956.44
557.82	42918.40
557.98	42363.70
558.15	42642.22
558.32	42466.68
558.48	42300.50
558.65	42621.16
558.81	42361.36
558.98	42199.86
559.14	42616.47
559.31	42469.02
559.47	42656.26
559.64	43005.00
559.80	42635.20
559.97	43159.48
560.13	42735.84
560.30	42677.33
560.46	43122.03
560.63	43442.68
560.79	42841.17
560.96	42958.19
561.12	42895.00
561.29	42909.04
561.45	43154.80
561.61	43278.85
561.78	43278.85
561.94	42895.00
562.11	42590.73
562.27	42560.30
562.44	43377.15
562.60	43798.44
562.77	42829.46
562.93	43154.80
563.10	43597.16
563.26	43182.88
563.42	43746.95
563.59	43365.45
563.75	42946.49
563.92	43203.95
564.08	42883.30
564.24	43309.27
564.41	43210.97
564.57	42925.42
564.74	43615.88
564.90	43435.66
565.07	43428.64
565.23	43126.71
565.39	43306.93
565.56	43522.26
565.72	43222.67
565.88	43608.86
566.05	43618.22
566.21	43346.72
566.38	43819.51
566.54	43618.22
566.70	43569.07
566.87	43225.01
567.03	43578.43
567.19	44109.74
567.36	43576.09
567.52	43714.19
567.68	44332.09
567.85	44069.95
568.01	43629.93
568.17	43779.72
568.34	44009.09
568.50	43676.74
568.66	43505.88
568.83	43217.99
568.99	43716.53
569.15	43983.35
569.32	44128.46
569.48	43742.27
569.64	43915.47
569.81	43730.57
569.97	44161.23
570.13	44222.08
570.30	44002.07
570.46	43840.57
570.62	44250.17
570.78	43952.92
570.95	44053.56
571.11	43892.07
571.27	44013.77
571.43	43828.87
571.60	43702.48
571.76	44201.02
571.92	44025.48
572.09	43700.14
572.25	43852.28
572.41	44065.27
572.57	44154.21
572.74	44222.08
572.90	43955.26
573.06	44411.67
573.22	43978.67
573.38	44205.70
573.55	44313.36
573.71	44502.95
573.87	44151.87
574.03	44299.32
574.20	44381.24
574.36	44477.20
574.52	44149.53
574.68	44507.63
574.84	44397.62
575.01	44605.93
575.17	44168.25
575.33	44758.06
575.49	44236.12
575.65	44762.75
575.82	44088.67
575.98	44423.37
576.14	44615.29
576.30	44634.02
576.46	44257.19
576.62	44350.81
576.79	44289.96
576.95	44116.76
577.11	44121.44
577.27	44559.12
577.43	44423.37
577.59	44610.61
577.75	43803.13
577.92	44339.11
578.08	44498.26
578.24	44318.04
578.40	44608.27
578.56	44538.05
578.72	44650.40
578.88	44526.35
579.04	44563.80
579.21	44259.53
579.37	44516.99
579.53	44500.61
579.69	44041.86
579.85	44453.79
580.01	44182.29
580.17	44509.97
580.33	44744.02
580.49	44444.43
580.65	44832.96
580.82	44236.12
580.98	44528.69
581.14	44278.25
581.30	44376.56
581.46	44439.75
581.62	44425.71
581.78	44619.97
581.94	44116.76
582.10	44416.35
582.26	44781.47
582.42	44470.18
582.58	44521.67
582.74	44741.68
582.90	44598.91
583.06	44994.46
583.22	44158.89
583.38	44666.78
583.54	44495.92
583.70	44442.09
583.86	44802.53
584.02	44781.47
584.18	44781.47
584.34	44598.91
584.50	44722.96
584.66	44470.18
584.82	44989.78
584.98	45024.89
585.14	44463.16
585.30	44273.57
585.46	44779.13
585.62	44666.78
585.78	44755.72
585.94	44779.13
586.10	44463.16
586.26	44657.42
586.42	44629.34
586.58	44973.39
586.74	44802.53
586.90	44278.25
587.06	44371.88
587.22	44715.93
587.38	44549.76
587.54	44849.35
587.70	44849.35
587.86	45139.57
588.02	44783.81
588.18	44711.25
588.34	44392.94
588.49	45085.74
588.65	44758.06
588.81	45137.23
588.97	44781.47
589.13	44854.03
589.29	45029.57
589.45	45235.53
589.61	44978.07
589.77	45141.91
589.93	45003.82
590.08	45354.90
