SpectraSuite Data File
++++++++++++++++++++++++++++++++++++
Date: Fri Oct 25 11:33:10 EDT 2013
User: price-jones
Dark Spectrum Present: No
Reference Spectrum Present: No
Number of Sampled Component Spectra: 1
Spectrometers: USB2+H05261
Integration Time (usec): 100000 (USB2+H05261)
Spectra Averaged: 1 (USB2+H05261)
Boxcar Smoothing: 0 (USB2+H05261)
Correct for Electrical Dark: No (USB2+H05261)
Strobe/Lamp Enabled: No (USB2+H05261)
Correct for Detector Non-linearity: No (USB2+H05261)
Correct for Stray Light: No (USB2+H05261)
Number of Pixels in Processed Spectrum: 2048
>>>>>Begin Processed Spectral Data<<<<<
365.73	271.50
365.92	271.50
366.12	271.50
366.32	166.18
366.52	147.45
366.72	191.92
366.91	201.29
367.11	147.45
367.31	86.60
367.51	203.63
367.70	194.26
367.90	215.33
368.10	217.67
368.30	187.24
368.49	119.37
368.69	205.97
368.89	196.60
369.09	234.05
369.28	182.56
369.48	187.24
369.68	205.97
369.87	184.90
370.07	182.56
370.27	297.25
370.47	353.42
370.66	414.27
370.86	517.26
371.06	528.96
371.25	573.43
371.45	552.37
371.65	475.13
371.84	514.92
372.04	533.64
372.24	566.41
372.44	571.09
372.63	629.60
372.83	580.45
373.03	657.69
373.22	622.58
373.42	599.18
373.62	559.39
373.81	601.52
374.01	608.54
374.21	645.99
374.40	589.82
374.60	608.54
374.79	645.99
374.99	634.29
375.19	624.92
375.38	655.35
375.58	589.82
375.78	627.26
375.97	744.29
376.17	713.86
376.37	643.65
376.56	678.76
376.76	643.65
376.95	671.73
377.15	711.52
377.35	690.46
377.54	695.14
377.74	606.20
377.93	667.05
378.13	676.41
378.33	711.52
378.52	667.05
378.72	683.44
378.91	793.44
379.11	704.50
379.31	674.07
379.50	695.14
379.70	732.59
379.89	713.86
380.09	723.23
380.28	758.33
380.48	650.67
380.68	634.29
380.87	671.73
381.07	758.33
381.26	718.54
381.46	683.44
381.65	748.97
381.85	758.33
382.04	713.86
382.24	861.32
382.43	732.59
382.63	727.91
382.83	814.51
383.02	866.00
383.22	800.46
383.41	788.76
383.61	873.02
383.80	915.15
384.00	819.19
384.19	777.06
384.39	755.99
384.58	856.64
384.78	800.46
384.97	781.74
385.17	777.06
385.36	875.36
385.56	851.96
385.75	807.48
385.95	882.38
386.14	868.34
386.34	870.68
386.53	821.53
386.72	875.36
386.92	884.72
387.11	896.43
387.31	898.77
387.50	959.62
387.70	856.64
387.89	938.55
388.09	912.81
388.28	919.83
388.48	866.00
388.67	1015.79
388.86	938.55
389.06	985.37
389.25	938.55
389.45	926.85
389.64	994.73
389.84	1008.77
390.03	1046.22
390.22	966.64
390.42	1006.43
390.61	1036.86
390.81	950.26
391.00	964.30
391.19	999.41
391.39	978.34
391.58	1006.43
391.78	1029.84
391.97	1022.81
392.16	1034.52
392.36	957.28
392.55	1025.15
392.75	1090.69
392.94	1046.22
393.13	1095.37
393.33	1135.16
393.52	1076.65
393.71	1011.11
393.91	1088.35
394.10	1067.28
394.29	1081.33
394.49	1100.05
394.68	1123.46
394.88	1097.71
395.07	1163.25
395.26	1071.97
395.46	1228.78
395.65	1128.14
395.84	1198.35
396.04	1177.29
396.23	1165.59
396.42	1214.74
396.62	1205.38
396.81	1231.12
397.00	1235.80
397.19	1238.14
397.39	1268.57
397.58	1240.48
397.77	1226.44
397.97	1221.76
398.16	1275.59
398.35	1228.78
398.55	1406.66
398.74	1378.58
398.93	1399.64
399.12	1284.95
399.32	1306.02
399.51	1306.02
399.70	1299.00
399.90	1322.40
400.09	1343.47
400.28	1437.09
400.47	1348.15
400.67	1404.32
400.86	1476.88
401.05	1493.26
401.24	1387.94
401.44	1451.13
401.63	1516.67
401.82	1507.30
402.01	1418.36
402.21	1458.15
402.40	1589.22
402.59	1502.62
402.78	1465.18
402.97	1462.83
403.17	1474.54
403.36	1542.41
403.55	1596.25
403.74	1657.10
403.93	1516.67
404.13	1600.93
404.32	1657.10
404.51	1563.48
404.70	1722.63
404.89	1643.06
405.09	1701.57
405.28	1589.22
405.47	1661.78
405.66	1610.29
405.85	1734.34
406.05	1678.16
406.24	1682.85
406.43	1741.36
406.62	1790.51
406.81	1757.74
407.00	1842.00
407.20	1724.97
407.39	1825.62
407.58	1792.85
407.77	1935.62
407.96	1895.83
408.15	1856.04
408.34	1973.07
408.54	1977.75
408.73	1874.77
408.92	1898.17
409.11	1898.17
409.30	2024.56
409.49	2029.24
409.68	2092.44
409.87	1994.14
410.07	2026.90
410.26	2047.97
410.45	2036.27
410.64	2001.16
410.83	2136.91
411.02	2143.93
411.21	2207.13
411.40	2073.71
411.59	2148.61
411.78	2265.64
411.98	2136.91
412.17	2200.10
412.36	2246.91
412.55	2324.15
412.74	2223.51
412.93	2354.58
413.12	2251.60
413.31	2523.10
413.50	2436.50
413.69	2523.10
413.88	2424.80
414.07	2516.08
414.26	2476.29
414.45	2579.27
414.64	2506.71
414.83	2672.89
415.02	2579.27
415.22	2600.34
415.41	2684.59
415.60	2773.53
415.79	2736.09
415.98	2656.51
416.17	2764.17
416.36	2792.26
416.55	2850.77
416.74	2867.16
416.93	2808.64
417.12	3000.57
417.31	2906.95
417.50	2895.24
417.69	3061.42
417.88	2892.90
418.07	2892.90
418.26	2981.84
418.45	3038.02
418.64	2988.86
418.83	3033.33
419.02	3117.59
419.21	3143.34
419.39	3103.55
419.58	3138.66
419.77	3028.65
419.96	3105.89
420.15	3197.17
420.34	3157.38
420.53	3290.79
420.72	3246.32
420.91	3204.19
421.10	3171.43
421.29	3302.50
421.48	3208.87
421.67	3190.15
421.86	3236.96
422.05	3365.69
422.24	3318.88
422.43	3335.26
422.61	3393.78
422.80	3447.61
422.99	3337.60
423.18	3398.46
423.37	3435.91
423.56	3447.61
423.75	3353.99
423.94	3358.67
424.13	3283.77
424.32	3396.12
424.50	3435.91
424.69	3478.04
424.88	3496.76
425.07	3424.20
425.26	3421.86
425.45	3480.38
425.64	3461.65
425.83	3325.90
426.01	3604.42
426.20	3527.19
426.39	3473.36
426.58	3459.31
426.77	3569.32
426.96	3639.53
427.15	3545.91
427.33	3747.20
427.52	3632.51
427.71	3592.72
427.90	3576.34
428.09	3817.41
428.28	3672.30
428.46	3679.32
428.65	3794.01
428.84	3768.26
429.03	3955.51
429.22	3705.07
429.40	3772.94
429.59	3758.90
429.78	3665.28
429.97	3655.92
430.16	3763.58
430.34	3925.08
430.53	4025.72
430.72	3922.74
430.91	3791.67
431.10	3974.23
431.28	4028.06
431.47	3896.99
431.66	4149.77
431.85	3953.16
432.03	4009.34
432.22	4119.34
432.41	3934.44
432.60	4002.32
432.79	4280.84
432.97	4072.53
433.16	4177.86
433.35	4098.28
433.54	4290.20
433.72	4248.07
433.91	4187.22
434.10	4208.28
434.28	4021.04
434.47	4212.96
434.66	4362.76
434.85	4341.69
435.03	4278.50
435.22	4383.82
435.41	4222.33
435.59	4362.76
435.78	4437.66
435.97	4507.87
436.16	4444.68
436.34	4362.76
436.53	4552.34
436.72	4638.94
436.90	4456.38
437.09	4606.17
437.28	4514.89
437.46	4540.64
437.65	4437.66
437.84	4554.68
438.02	4706.82
438.21	4660.01
438.40	4432.97
438.58	4748.95
438.77	4777.03
438.96	4683.41
439.14	4887.04
439.33	4961.94
439.52	4894.06
439.70	4858.95
439.89	5053.22
440.08	4971.30
440.26	5048.54
440.45	4973.64
440.63	5181.95
440.82	5287.27
441.01	5139.82
441.19	5090.67
441.38	5343.44
441.57	5231.10
441.75	5317.70
441.94	5518.98
442.12	5425.36
442.31	5523.66
442.50	5394.93
442.68	5554.09
442.87	5493.24
443.05	5561.11
443.24	5638.35
443.43	5727.29
443.61	5748.36
443.80	5701.54
443.98	5614.95
444.17	5123.43
444.35	5694.52
444.54	5617.29
444.73	5650.05
444.91	5802.19
445.10	5839.64
445.28	5636.01
445.47	5509.62
445.65	5778.78
445.84	5741.33
446.02	5734.31
446.21	5633.67
446.39	5804.53
446.58	5771.76
446.77	5788.14
446.95	5551.75
447.14	5621.97
447.32	5865.38
447.51	5827.93
447.69	5736.65
447.88	5874.74
448.06	5811.55
448.25	5753.04
448.43	5771.76
448.62	5785.80
448.80	5783.46
448.99	5832.62
449.17	6043.26
449.36	5820.91
449.54	6022.20
449.73	6162.63
449.91	6127.52
450.10	6120.50
450.28	6319.45
450.46	6069.01
450.65	6342.85
450.83	6267.95
451.02	6078.37
451.20	6179.01
451.39	6277.32
451.57	6328.81
451.76	6134.54
451.94	6291.36
452.13	6359.24
452.31	6256.25
452.49	6300.72
452.68	6300.72
452.86	6249.23
453.05	6452.86
453.23	6413.07
453.42	6452.86
453.60	6415.41
453.78	6551.16
453.97	6359.24
454.15	6445.84
454.34	6513.71
454.52	6616.69
454.70	6513.71
454.89	6588.61
455.07	6705.63
455.26	6799.26
455.44	6778.19
455.62	6642.44
455.81	6712.66
455.99	6803.94
456.17	6691.59
456.36	6848.41
456.54	6888.20
456.73	6986.50
456.91	7007.56
457.09	7218.21
457.28	7000.54
457.46	6932.67
457.64	7138.63
457.83	7199.49
458.01	7042.67
458.19	7332.90
458.38	7108.21
458.56	7370.35
458.74	7215.87
458.93	7386.73
459.11	7431.20
459.29	7300.13
459.48	7328.22
459.66	7433.54
459.84	7290.77
460.03	7487.37
460.21	7344.60
460.39	7421.84
460.57	7265.02
460.76	7545.89
460.94	7662.91
461.12	7487.37
461.31	7595.04
461.49	7520.14
461.67	7637.17
461.85	7845.48
462.04	7805.69
462.22	8131.02
462.40	7826.75
462.59	7693.34
462.77	7901.65
462.95	7915.69
463.13	7772.92
463.32	7843.14
463.50	7936.76
463.68	7929.74
463.86	8060.80
464.05	7903.99
464.23	7864.20
464.41	7934.42
464.59	7934.42
464.78	8210.60
464.96	8060.80
465.14	8056.12
465.32	8056.12
465.50	8234.00
465.69	8285.50
465.87	8205.92
466.05	8301.88
466.23	8107.62
466.41	8311.24
466.60	8655.30
466.78	8341.67
466.96	8105.28
467.14	8175.49
467.32	8332.31
467.51	8437.63
467.69	8114.64
467.87	8376.78
468.05	8531.25
468.23	8311.24
468.41	8416.57
468.60	8531.25
468.78	8739.56
468.96	8517.21
469.14	8564.02
469.32	8713.81
469.50	8587.43
469.69	8744.24
469.87	8802.75
470.05	8676.37
470.23	8732.54
470.41	8938.51
470.59	8940.85
470.77	8877.65
470.95	9057.87
471.14	9027.45
471.32	8828.50
471.50	9144.47
471.68	9020.42
471.86	9188.94
472.04	9317.67
472.22	9568.11
472.40	9390.23
472.58	9277.88
472.77	9497.89
472.95	9392.57
473.13	9987.07
473.31	9355.12
473.49	9518.96
473.67	9432.36
473.85	9338.74
474.03	9722.59
474.21	9832.59
474.39	9851.31
474.57	9935.57
474.75	9902.81
474.93	10038.56
475.12	10106.43
475.30	10078.35
475.48	10183.67
475.66	10083.03
475.84	10164.95
476.02	10349.85
476.20	10216.44
476.38	10586.24
476.56	10700.93
476.74	10747.74
476.92	10733.70
477.10	10546.45
477.28	10843.70
477.46	10712.63
477.64	10813.28
477.82	10817.96
478.00	11304.79
478.18	11403.09
478.36	11335.21
478.54	11489.69
478.72	11541.18
478.90	11639.48
479.08	11726.08
479.26	11639.48
479.44	11873.54
479.62	11960.14
479.80	11950.78
479.98	12088.87
480.16	12336.96
480.34	12393.14
480.52	12290.15
480.70	12297.17
480.88	12163.76
481.06	12596.76
481.24	12540.59
481.41	12542.93
481.59	12950.18
481.77	13013.38
481.95	12964.23
482.13	13193.60
482.31	13029.76
482.49	13460.42
482.67	13565.74
482.85	13652.34
483.03	13596.17
483.21	13586.81
483.39	13858.31
483.57	13891.08
483.74	14094.71
483.92	14239.82
484.10	14492.60
484.28	14286.63
484.46	14750.06
484.64	14651.75
484.82	14513.66
485.00	14867.08
485.18	15131.56
485.35	15262.63
485.53	15250.93
485.71	15152.63
485.89	15463.92
486.07	15396.04
486.25	15447.54
486.43	15613.71
486.61	15819.68
486.78	16112.25
486.96	15974.16
487.14	16463.33
487.32	16409.50
487.50	16554.61
487.68	16559.29
487.85	16456.31
488.03	16945.48
488.21	17174.85
488.39	17121.02
488.57	17399.54
488.75	17219.32
488.92	17444.01
489.10	17767.01
489.28	17795.09
489.46	17724.88
489.64	17788.07
489.81	18602.58
489.99	18321.71
490.17	18579.17
490.35	18604.92
490.53	18663.43
490.70	19000.47
490.88	18944.30
491.06	18801.52
491.24	19262.61
491.41	19145.58
491.59	19620.71
491.77	19372.61
491.95	19749.44
492.13	20056.05
492.30	19623.05
492.48	19749.44
492.66	19894.55
492.84	19880.51
493.01	20439.90
493.19	20280.74
493.37	20594.37
493.54	20723.10
493.72	20737.15
493.90	20868.22
494.08	20947.79
494.25	21095.25
494.43	21163.12
494.61	21284.83
494.79	21544.63
494.96	21453.35
495.14	21839.54
495.32	21935.50
495.49	21816.13
495.67	21886.35
495.85	22043.17
496.02	22541.70
496.20	22473.82
496.38	22527.66
496.55	22412.97
496.73	23091.73
496.91	22941.93
497.09	22824.90
497.26	23201.73
497.44	23026.19
497.62	23190.03
497.79	23531.75
497.97	23662.82
498.14	24142.63
498.32	23814.95
498.50	23871.12
498.67	24114.54
498.85	24151.99
499.03	24173.05
499.20	24470.30
499.38	24301.78
499.56	24648.18
499.73	24936.07
499.91	24947.77
500.08	25029.69
500.26	24634.14
500.44	24849.47
500.61	25050.75
500.79	24950.11
500.97	25200.55
501.14	25558.65
501.32	25317.57
501.49	25530.56
501.67	25586.74
501.84	25804.41
502.02	25776.32
502.20	25776.32
502.37	26103.99
502.55	26087.61
502.72	25909.73
502.90	26214.00
503.07	25982.29
503.25	26162.51
503.43	26331.03
503.60	26867.01
503.78	26590.83
503.95	26504.23
504.13	26728.92
504.30	26829.56
504.48	26977.01
504.65	27063.61
504.83	27171.28
505.01	27630.02
505.18	27197.02
505.36	27873.44
505.53	27447.46
505.71	27454.48
505.88	27686.20
506.06	27761.09
506.23	27896.85
506.41	28034.94
506.58	28121.54
506.76	28517.09
506.93	28442.19
507.11	28163.67
507.28	28606.03
507.46	28638.80
507.63	28694.97
507.81	28797.95
507.98	28591.98
508.16	28779.23
508.33	29041.37
508.50	28847.10
508.68	28907.96
508.85	29151.37
509.03	29111.58
509.20	29090.52
509.38	29605.44
509.55	29223.93
509.73	29563.31
509.90	29788.00
510.08	29876.94
510.25	29785.66
510.42	29872.26
510.60	29792.68
510.77	30253.76
510.95	30735.92
511.12	30213.98
511.30	30462.07
511.47	30555.69
511.64	30492.50
511.82	30665.70
511.99	30600.16
512.17	30923.16
512.34	30855.28
512.51	31035.50
512.69	31056.57
512.86	31044.87
513.04	31395.95
513.21	31220.41
513.38	31140.83
513.56	31473.18
513.73	31505.95
513.90	31709.58
514.08	31199.34
514.25	31999.80
514.43	32004.49
514.60	32081.72
514.77	32114.49
514.95	32573.24
515.12	31791.50
515.29	31744.69
515.47	32107.47
515.64	32393.01
515.81	32072.36
515.99	32088.74
516.16	32704.31
516.33	32620.05
516.51	32858.78
516.68	32664.52
516.85	32910.27
517.03	33177.09
517.20	33022.62
517.37	32870.48
517.54	32921.98
517.72	32999.21
517.89	33198.16
518.06	33141.99
518.24	33153.69
518.41	33207.52
518.58	33439.23
518.75	33280.08
518.93	33869.89
519.10	33694.35
519.27	33846.49
519.45	33787.97
519.62	34330.98
519.79	34078.20
519.96	33715.42
520.14	34031.39
520.31	33923.72
520.48	34185.86
520.65	34579.07
520.83	34497.16
521.00	34560.35
521.17	34979.31
521.34	34370.77
521.52	34817.81
521.69	35157.19
521.86	35042.50
522.03	35255.49
522.20	35171.23
522.38	35367.84
522.55	35480.18
522.72	35093.99
522.89	34981.65
523.07	35952.97
523.24	35342.09
523.41	35997.44
523.58	35426.35
523.75	36275.96
523.92	35800.83
524.10	35585.50
524.27	35845.30
524.44	35878.07
524.61	36385.97
524.78	35826.58
524.96	36481.93
525.13	36587.25
525.30	36706.62
525.47	36397.67
525.64	36786.20
525.81	36355.54
525.98	36673.85
526.16	36591.94
526.33	36858.76
526.50	37055.36
526.67	36671.51
526.84	37174.73
527.01	36928.97
527.18	36844.71
527.36	36982.80
527.53	37366.65
527.70	37181.75
527.87	37724.75
528.04	37221.54
528.21	37563.26
528.38	37200.47
528.55	37268.35
528.72	37179.41
528.89	37717.73
529.07	37635.81
529.24	37256.65
529.41	37745.82
529.58	37565.60
529.75	37589.00
529.92	38188.18
530.09	38323.93
530.26	38057.11
530.43	38265.42
530.60	38258.40
530.77	37860.51
530.94	38199.88
531.11	37912.00
531.28	38691.40
531.46	38309.89
531.63	38227.97
531.80	38698.42
531.97	39267.17
532.14	39138.44
532.31	38471.39
532.48	38754.59
532.65	39400.58
532.82	38806.08
532.99	39253.12
533.16	38710.12
533.33	38794.38
533.50	39257.81
533.67	38714.80
533.84	38902.04
534.01	39597.18
534.18	39285.89
534.35	39709.53
534.52	39416.96
534.69	39791.45
534.86	39648.68
535.03	39613.57
535.20	39929.54
535.37	39658.04
535.54	39791.45
535.71	39936.56
535.88	39800.81
536.05	40130.83
536.22	40126.14
536.38	40156.57
536.55	40098.06
536.72	39896.77
536.89	40062.95
537.06	40561.48
537.23	40580.21
537.40	40053.59
537.57	40404.67
537.74	39992.73
537.91	40730.00
538.08	40641.06
538.25	40254.87
538.42	40891.50
538.59	41406.42
538.75	40720.64
538.92	40954.69
539.09	40959.38
539.26	40835.33
539.43	40479.57
539.60	41137.26
539.77	41347.90
539.94	41333.86
540.11	41420.46
540.28	40783.83
540.44	41256.62
540.61	40786.18
540.78	40973.42
540.95	41275.35
541.12	41177.04
541.29	41256.62
541.46	41464.93
541.62	41495.36
541.79	41876.86
541.96	41104.49
542.13	41401.74
542.30	41881.55
542.47	41965.81
542.63	42007.94
542.80	42230.29
542.97	42160.07
543.14	42443.27
543.31	42459.66
543.48	42050.06
543.64	42677.33
543.81	42586.05
543.98	42459.66
544.15	42466.68
544.32	42787.33
544.48	42672.65
544.65	42674.99
544.82	42822.44
544.99	42412.85
545.16	42923.08
545.32	42782.65
545.49	43154.80
545.66	42897.34
545.83	43267.14
546.00	43173.52
546.16	42876.27
546.33	43056.50
546.50	42686.69
546.67	43297.57
546.83	42398.80
547.00	42824.78
547.17	43358.42
547.34	42906.70
547.50	43105.65
547.67	43550.35
547.84	43007.34
548.00	43402.89
548.17	43423.96
548.34	43498.86
548.51	43484.81
548.67	43704.82
548.84	43445.02
549.01	43791.42
549.18	43622.90
549.34	43669.72
549.51	43550.35
549.68	43849.94
549.84	43856.96
550.01	44048.88
550.18	43856.96
550.34	43945.90
550.51	43976.33
550.68	44004.41
550.84	44053.56
551.01	44463.16
551.18	43915.47
551.34	44013.77
551.51	44493.58
551.68	44491.24
551.84	44198.68
552.01	44198.68
552.18	44250.17
552.34	44060.58
552.51	44549.76
552.68	43779.72
552.84	44566.14
553.01	44292.30
553.18	44994.46
553.34	45031.91
553.51	44383.58
553.67	44996.80
553.84	44610.61
554.01	44289.96
554.17	44708.91
554.34	45539.80
554.51	44966.37
554.67	44645.72
554.84	45045.95
555.00	45008.50
555.17	44940.63
555.33	45052.97
555.50	45050.63
555.67	45298.73
555.83	45029.57
556.00	45085.74
556.16	45752.79
556.33	45338.52
556.50	44971.05
556.66	45670.87
556.83	45205.11
556.99	45581.93
557.16	45375.97
557.32	45610.02
557.49	45298.73
557.65	45212.13
557.82	45572.57
557.98	45546.82
558.15	45345.54
558.32	45813.65
558.48	45261.28
558.65	45738.75
558.81	45729.39
558.98	45734.07
559.14	45921.31
559.31	45794.92
559.47	45610.02
559.64	45904.93
559.80	45949.40
559.97	45925.99
560.13	45708.32
560.30	45839.39
560.46	46246.65
560.63	46244.30
560.79	46213.88
560.96	46450.27
561.12	46040.68
561.29	45921.31
561.45	46171.75
561.61	45977.48
561.78	46375.37
561.94	46071.10
562.11	46096.85
562.27	46298.14
562.44	46223.24
562.60	46174.09
562.77	45963.44
562.93	46150.68
563.10	46494.74
563.26	46230.26
563.42	46993.28
563.59	46164.73
563.75	46192.81
563.92	46459.63
564.08	46358.99
564.24	46424.53
564.41	46197.49
564.57	46487.72
564.74	46579.00
564.90	46515.81
565.07	46251.33
565.23	46782.63
565.39	46506.44
565.56	46955.83
565.72	46384.74
565.88	46934.76
566.05	46773.27
566.21	46864.55
566.38	46543.89
566.54	46796.67
566.70	46855.18
566.87	46440.91
567.03	46394.10
567.19	46684.33
567.36	46869.23
567.52	46501.76
567.68	47255.42
567.85	47241.37
568.01	46967.53
568.17	46822.42
568.34	46850.50
568.50	47285.84
568.66	46745.18
568.83	46707.73
568.99	46658.58
569.15	46714.75
569.32	46714.75
569.48	46862.21
569.64	47047.11
569.81	47117.32
569.97	46852.84
570.13	47227.33
570.30	47150.09
570.46	46878.59
570.62	46948.81
570.78	46862.21
570.95	46857.52
571.11	47283.50
571.27	47023.70
571.43	46712.41
571.60	47012.00
571.76	47147.75
571.92	47611.18
572.09	47206.26
572.25	47342.02
572.41	46939.44
572.57	47253.08
572.74	47681.39
572.90	47334.99
573.06	47297.55
573.22	47356.06
573.38	47201.58
573.55	47704.80
573.71	47749.27
573.87	47606.50
574.03	47377.12
574.20	47742.25
574.36	47866.30
574.52	46941.78
574.68	47625.22
574.84	47515.22
575.01	47667.35
575.17	47196.90
575.33	47449.68
575.49	47433.30
575.65	47327.97
575.82	47363.08
575.98	47086.90
576.14	47342.02
576.30	47866.30
576.46	47842.89
576.62	47496.49
576.79	47505.85
576.95	47210.95
577.11	47224.99
577.27	47421.59
577.43	47714.16
577.59	47440.32
577.75	47264.78
577.92	47419.25
578.08	47667.35
578.24	47573.73
578.40	47604.16
578.56	47477.77
578.72	47374.78
578.88	47650.97
579.04	47342.02
579.21	47522.24
579.37	47147.75
579.53	47608.84
579.69	47662.67
579.85	47456.70
580.01	47454.36
580.17	47440.32
580.33	47819.49
580.49	47674.37
580.65	47765.65
580.82	47232.01
580.98	47618.20
581.14	47515.22
581.30	47571.39
581.46	47152.43
581.62	46967.53
581.78	47145.41
581.94	47908.43
582.10	47791.40
582.26	47765.65
582.42	47763.31
582.58	47786.72
582.74	47725.86
582.90	47936.51
583.06	47660.33
583.22	47622.88
583.38	47870.98
583.54	47489.47
583.70	48025.45
583.86	47695.44
584.02	47917.79
584.18	48044.18
584.34	48105.03
584.50	47931.83
584.66	47971.62
584.82	47686.07
584.98	47782.04
585.14	47756.29
585.30	48072.26
585.46	47590.11
585.62	47775.02
585.78	48030.13
585.94	47325.63
586.10	47344.36
586.26	47859.27
586.42	47601.82
586.58	48020.77
586.74	48079.28
586.90	47636.92
587.06	47800.76
587.22	48100.35
587.38	47618.20
587.54	47880.34
587.70	48079.28
587.86	47882.68
588.02	47964.60
588.18	47985.66
588.34	47615.86
588.49	47899.06
588.65	47812.46
588.81	48090.99
588.97	47777.36
589.13	48083.97
589.29	47964.60
589.45	47999.71
589.61	48191.63
589.77	48292.27
589.93	47927.15
