SpectraSuite Data File
++++++++++++++++++++++++++++++++++++
Date: Fri Oct 25 11:22:59 EDT 2013
User: price-jones
Dark Spectrum Present: No
Reference Spectrum Present: No
Number of Sampled Component Spectra: 1
Spectrometers: USB2+H05261
Integration Time (usec): 100000 (USB2+H05261)
Spectra Averaged: 1 (USB2+H05261)
Boxcar Smoothing: 0 (USB2+H05261)
Correct for Electrical Dark: No (USB2+H05261)
Strobe/Lamp Enabled: No (USB2+H05261)
Correct for Detector Non-linearity: No (USB2+H05261)
Correct for Stray Light: No (USB2+H05261)
Number of Pixels in Processed Spectrum: 2048
>>>>>Begin Processed Spectral Data<<<<<
365.73	205.97
365.92	205.97
366.12	205.97
366.32	86.60
366.52	210.65
366.72	142.77
366.91	112.35
367.11	203.63
367.31	110.01
367.51	180.22
367.70	166.18
367.90	126.39
368.10	124.05
368.30	119.37
368.49	145.11
368.69	152.13
368.89	131.07
369.09	154.48
369.28	191.92
369.48	163.84
369.68	114.69
369.87	177.88
370.07	238.73
370.27	194.26
370.47	337.04
370.66	564.07
370.86	636.63
371.06	688.12
371.25	676.41
371.45	629.60
371.65	774.72
371.84	697.48
372.04	730.25
372.24	699.82
372.44	709.18
372.63	678.76
372.83	713.86
373.03	706.84
373.22	711.52
373.42	716.20
373.62	734.93
373.81	788.76
374.01	868.34
374.21	744.29
374.40	837.91
374.60	800.46
374.79	823.87
374.99	774.72
375.19	837.91
375.38	699.82
375.58	870.68
375.78	870.68
375.97	830.89
376.17	875.36
376.37	826.21
376.56	812.17
376.76	786.42
376.95	868.34
377.15	966.64
377.35	856.64
377.54	926.85
377.74	851.96
377.93	908.13
378.13	830.89
378.33	922.17
378.52	870.68
378.72	882.38
378.91	1032.18
379.11	931.53
379.31	926.85
379.50	961.96
379.70	1053.24
379.89	870.68
380.09	910.47
380.28	999.41
380.48	1034.52
380.68	957.28
380.87	1013.45
381.07	1048.56
381.26	1046.22
381.46	992.39
381.65	1039.20
381.85	1041.54
382.04	971.32
382.24	1111.75
382.43	1018.13
382.63	1130.48
382.83	1062.60
383.02	1093.03
383.22	1029.84
383.41	985.37
383.61	1163.25
383.80	1135.16
384.00	1081.33
384.19	1104.73
384.39	1142.18
384.58	1228.78
384.78	1172.61
384.97	1114.10
385.17	1083.67
385.36	1104.73
385.56	1181.97
385.75	1186.65
385.95	1196.01
386.14	1191.33
386.34	1186.65
386.53	1233.46
386.72	1242.82
386.92	1268.57
387.11	1224.10
387.31	1193.67
387.50	1184.31
387.70	1203.04
387.89	1153.88
388.09	1266.23
388.28	1380.92
388.48	1186.65
388.67	1355.17
388.86	1299.00
389.06	1310.70
389.25	1446.45
389.45	1301.34
389.64	1406.66
389.84	1313.04
390.03	1413.68
390.22	1409.00
390.42	1366.87
390.61	1366.87
390.81	1392.62
391.00	1416.02
391.19	1413.68
391.39	1394.96
391.58	1495.60
391.78	1570.50
391.97	1507.30
392.16	1547.09
392.36	1561.14
392.55	1563.48
392.75	1467.52
392.94	1488.58
393.13	1551.78
393.33	1434.75
393.52	1577.52
393.71	1647.74
393.91	1593.90
394.10	1544.75
394.29	1605.61
394.49	1554.12
394.68	1692.21
394.88	1652.42
395.07	1713.27
395.26	1621.99
395.46	1664.12
395.65	1680.50
395.84	1652.42
396.04	1797.53
396.23	1809.23
396.42	1596.25
396.62	1839.66
396.81	1902.86
397.00	1776.47
397.19	1851.36
397.39	1881.79
397.58	1858.39
397.77	1802.21
397.97	1834.98
398.16	1729.66
398.35	1921.58
398.55	1970.73
398.74	1902.86
398.93	1926.26
399.12	1928.60
399.32	1898.17
399.51	2033.93
399.70	1942.64
399.90	1956.69
400.09	1984.77
400.28	2141.59
400.47	1984.77
400.67	2071.37
400.86	2064.35
401.05	2153.29
401.24	2132.23
401.44	2200.10
401.63	2115.84
401.82	2120.53
402.01	2150.95
402.21	2244.57
402.40	2265.64
402.59	2200.10
402.78	2218.83
402.97	2324.15
403.17	2300.75
403.36	2148.61
403.55	2284.36
403.74	2408.41
403.93	2401.39
404.13	2251.60
404.32	2291.38
404.51	2415.43
404.70	2410.75
404.89	2375.64
405.09	2513.74
405.28	2651.83
405.47	2511.39
405.66	2513.74
405.85	2523.10
406.05	2443.52
406.24	2605.02
406.43	2600.34
406.62	2623.74
406.81	2677.57
407.00	2710.34
407.20	2523.10
407.39	2668.21
407.58	2708.00
407.77	2796.94
407.96	2724.38
408.15	2757.15
408.34	2766.51
408.54	2785.24
408.73	2712.68
408.92	2876.52
409.11	2794.60
409.30	2876.52
409.49	2981.84
409.68	2839.07
409.87	2986.52
410.07	3038.02
410.26	2988.86
410.45	3124.62
410.64	3063.76
410.83	3108.23
411.02	3143.34
411.21	3248.66
411.40	3143.34
411.59	3164.40
411.78	3201.85
411.98	3206.53
412.17	3272.07
412.36	3328.24
412.55	3351.65
412.74	3363.35
412.93	3325.90
413.12	3391.44
413.31	3672.30
413.50	3447.61
413.69	3576.34
413.88	3604.42
414.07	3566.98
414.26	3632.51
414.45	3822.09
414.64	3611.45
414.83	3854.86
415.02	3864.22
415.22	3702.73
415.41	3857.20
415.60	3833.80
415.79	3960.19
415.98	3875.93
416.17	3999.98
416.36	4088.92
416.55	3936.78
416.74	4126.36
416.93	4117.00
417.12	4273.82
417.31	4301.90
417.50	4255.09
417.69	4269.14
417.88	4341.69
418.07	4273.82
418.26	4390.84
418.45	4376.80
418.64	4709.16
418.83	4538.30
419.02	4533.62
419.21	4538.30
419.39	4528.94
419.58	4524.26
419.77	4470.42
419.96	4585.11
420.15	4606.17
420.34	4681.07
420.53	4606.17
420.72	4716.18
420.91	4746.61
421.10	4660.01
421.29	4791.08
421.48	4617.88
421.67	4748.95
421.86	4734.90
422.05	4849.59
422.24	4940.87
422.43	4863.63
422.61	4814.48
422.80	4901.08
422.99	4936.19
423.18	4917.47
423.37	5034.49
423.56	5043.85
423.75	4938.53
423.94	4732.56
424.13	4697.46
424.32	4828.53
424.50	5123.43
424.69	5114.07
424.88	5104.71
425.07	4966.62
425.26	4898.74
425.45	5046.20
425.64	4917.47
425.83	5177.26
426.01	5062.58
426.20	5088.32
426.39	5217.05
426.58	5142.16
426.77	5146.84
426.96	5268.55
427.15	5191.31
427.33	5102.37
427.52	5184.29
427.71	5320.04
427.90	5032.15
428.09	5298.97
428.28	5273.23
428.46	5451.11
428.65	5387.91
428.84	5579.84
429.03	5654.73
429.22	5380.89
429.40	5404.30
429.59	5561.11
429.78	5355.15
429.97	5275.57
430.16	5614.95
430.34	5598.56
430.53	5802.19
430.72	5593.88
430.91	5572.82
431.10	5636.01
431.28	5886.45
431.47	6045.60
431.66	5966.03
431.85	5853.68
432.03	6188.38
432.22	6073.69
432.41	6071.35
432.60	6005.81
432.79	5937.94
432.97	6022.20
433.16	6017.52
433.35	6054.97
433.54	6171.99
433.72	6242.21
433.91	6197.74
434.10	6251.57
434.28	6193.06
434.47	6246.89
434.66	6314.77
434.85	6125.18
435.03	6296.04
435.22	6455.20
435.41	6492.65
435.59	6525.41
435.78	6384.98
435.97	6548.82
436.16	6471.58
436.34	6518.39
436.53	6733.72
436.72	6689.25
436.90	6583.93
437.09	6698.61
437.28	6523.07
437.46	6663.51
437.65	6595.63
437.84	6806.28
438.02	6810.96
438.21	6801.60
438.40	6743.08
438.58	7052.03
438.77	7204.17
438.96	6963.09
439.14	7176.08
439.33	7199.49
439.52	7239.28
439.70	7169.06
439.89	7307.15
440.08	7293.11
440.26	7449.93
440.45	7391.41
440.63	7707.38
440.82	7674.62
441.01	7419.50
441.19	7761.22
441.38	7765.90
441.57	7763.56
441.75	7847.82
441.94	7875.90
442.12	8042.08
442.31	8091.23
442.50	8135.70
442.68	7920.37
442.87	8056.12
443.05	8308.90
443.24	8147.40
443.43	8231.66
443.61	8264.43
443.80	8439.97
443.98	8266.77
444.17	8004.63
444.35	8184.85
444.54	8475.08
444.73	8397.84
444.91	8446.99
445.10	8344.01
445.28	8498.49
445.47	8376.78
445.65	8498.49
445.84	8383.80
446.02	8779.35
446.21	8505.51
446.39	8437.63
446.58	8456.36
446.77	8414.23
446.95	8285.50
447.14	8351.03
447.32	8678.71
447.51	8533.59
447.69	8496.14
447.88	8652.96
448.06	8578.06
448.25	8659.98
448.43	8746.58
448.62	8624.87
448.80	8477.42
448.99	8718.50
449.17	8667.00
449.36	8875.31
449.54	8840.20
449.73	8999.36
449.91	9006.38
450.10	8870.63
450.28	9259.16
450.46	9111.71
450.65	9090.64
450.83	9022.77
451.02	9149.15
451.20	9226.39
451.39	9163.20
451.57	9324.69
451.76	9455.76
451.94	9312.99
452.13	9394.91
452.31	9359.80
452.49	9095.32
452.68	9390.23
452.86	9413.63
453.05	9514.28
453.23	9689.82
453.42	9568.11
453.60	9614.92
453.78	9640.67
453.97	9605.56
454.15	9298.95
454.34	9500.23
454.52	9837.27
454.70	9687.48
454.89	9844.29
455.07	9792.80
455.26	9909.83
455.44	10134.52
455.62	9753.01
455.81	9891.10
455.99	10017.49
456.17	10057.28
456.36	10059.62
456.54	10153.24
456.73	10284.31
456.91	10602.63
457.09	10413.04
457.28	10588.58
457.46	10569.86
457.64	10511.35
457.83	10649.44
458.01	10607.31
458.19	10761.78
458.38	10480.92
458.56	10747.74
458.74	10635.39
458.93	10651.78
459.11	10822.64
459.29	10855.40
459.48	10743.06
459.66	10937.32
459.84	11049.67
460.03	11286.06
460.21	10986.47
460.39	11143.29
460.57	11115.20
460.76	11309.47
460.94	11075.42
461.12	11122.23
461.31	11323.51
461.49	11461.60
461.67	11328.19
461.85	11482.67
462.04	11314.15
462.22	11527.14
462.40	11644.17
462.59	11517.78
462.77	11632.46
462.95	11868.86
463.13	11583.31
463.32	11723.74
463.50	11885.24
463.68	11669.91
463.86	11946.09
464.05	11735.45
464.23	11976.52
464.41	12058.44
464.59	11658.21
464.78	12140.36
464.96	12004.61
465.14	11918.01
465.32	12123.98
465.50	12168.45
465.69	12320.58
465.87	12189.51
466.05	12025.67
466.23	12161.42
466.41	12308.88
466.60	12348.67
466.78	12180.15
466.96	12292.49
467.14	12409.52
467.32	12624.85
467.51	12589.74
467.69	12362.71
467.87	12629.53
468.05	12819.11
468.23	12594.42
468.41	12645.91
468.60	12507.82
468.78	12961.89
468.96	12891.67
469.14	12854.22
469.32	13011.04
469.50	13043.81
469.69	13034.44
469.87	13128.06
470.05	13188.92
470.23	13415.95
470.41	13509.57
470.59	13350.42
470.77	13352.76
470.95	13415.95
471.14	13731.92
471.32	13467.44
471.50	13617.24
471.68	13603.19
471.86	13907.46
472.04	13940.23
472.22	14029.17
472.40	14059.60
472.58	13930.87
472.77	14216.41
472.95	14066.62
473.13	14642.39
473.31	14333.44
473.49	14349.82
473.67	14352.16
473.85	14560.47
474.03	14560.47
474.21	14677.50
474.39	15161.99
474.57	14750.06
474.75	15157.31
474.93	14979.43
475.12	14817.93
475.30	15234.55
475.48	15063.69
475.66	15257.95
475.84	15311.78
476.02	15433.49
476.20	15585.63
476.38	15707.34
476.56	16013.95
476.74	15836.06
476.92	15602.01
477.10	15871.17
477.28	16290.13
477.46	16145.02
477.64	16493.76
477.82	16648.23
478.00	17322.30
478.18	17001.65
478.36	17221.66
478.54	17249.75
478.72	17439.33
478.90	17530.61
479.08	17563.38
479.26	17657.00
479.44	17977.65
479.62	18216.39
479.80	18422.36
479.98	18078.30
480.16	19009.83
480.34	18317.03
480.52	18747.69
480.70	19082.39
480.88	18642.37
481.06	19047.28
481.24	18967.70
481.41	19227.50
481.59	20058.39
481.77	19716.67
481.95	19742.42
482.13	19988.18
482.31	19866.47
482.49	20482.03
482.67	20187.12
482.85	20545.22
483.03	20821.41
483.21	21013.33
483.39	21376.11
483.57	21275.47
483.74	21181.85
483.92	21490.80
484.10	21528.25
484.28	21820.81
484.46	22181.26
484.64	22766.39
484.82	22080.61
485.00	22651.70
485.18	22806.18
485.35	23157.26
485.53	22937.25
485.71	23311.74
485.89	23274.29
486.07	23307.05
486.25	23625.37
486.43	23957.72
486.61	23824.31
486.78	24350.93
486.96	24411.79
487.14	24936.07
487.32	24706.70
487.50	25132.67
487.68	25378.43
487.85	25462.69
488.03	25865.26
488.21	26157.83
488.39	26029.10
488.57	26450.39
488.75	26328.69
488.92	26977.01
489.10	27080.00
489.28	26909.14
489.46	27454.48
489.64	27192.34
489.81	27615.98
489.99	28037.28
490.17	27775.14
490.35	28507.72
490.53	28329.84
490.70	28690.29
490.88	28718.37
491.06	29202.86
491.24	28922.00
491.41	29502.45
491.59	29153.71
491.77	29696.72
491.95	29677.99
492.13	30628.25
492.30	30192.91
492.48	30017.37
492.66	30448.03
492.84	30553.35
493.01	31028.48
493.19	31002.74
493.37	31262.54
493.54	31370.20
493.72	31644.04
493.90	31847.67
494.08	32037.25
494.25	32500.68
494.43	32467.91
494.61	32823.67
494.79	32821.33
494.96	32971.13
495.14	32844.74
495.32	33696.69
495.49	33151.35
495.67	33289.44
495.85	33677.97
496.02	34094.58
496.20	34300.55
496.38	34398.85
496.55	34464.39
496.73	35196.98
496.91	34721.85
497.09	35129.10
497.26	35215.70
497.44	35180.59
497.62	36032.55
497.79	36088.72
497.97	36224.47
498.14	36013.82
498.32	36259.58
498.50	36437.46
498.67	37008.55
498.85	36870.46
499.03	36858.76
499.20	36762.79
499.38	37312.82
499.56	37441.55
499.73	37598.37
499.91	37514.11
500.08	37619.43
500.26	37483.68
500.44	37762.20
500.61	38033.71
500.79	38234.99
500.97	38876.30
501.14	38841.19
501.32	39077.58
501.49	38546.28
501.67	39283.55
501.84	39000.35
502.02	39126.74
502.20	39791.45
502.37	39496.54
502.55	39611.23
502.72	39887.41
502.90	39906.13
503.07	39732.93
503.25	40254.87
503.43	40187.00
503.60	40467.86
503.78	40737.02
503.95	40315.73
504.13	41200.45
504.30	41130.23
504.48	40847.03
504.65	40844.69
504.83	41635.79
505.01	41729.41
505.18	41305.77
505.36	42045.38
505.53	41577.28
505.71	42436.25
505.88	42422.21
506.06	41694.30
506.23	42768.61
506.41	42560.30
506.58	42295.82
506.76	42487.74
506.93	42611.79
507.11	42911.38
507.28	43051.81
507.46	43283.53
507.63	43112.67
507.81	43735.25
507.98	43278.85
508.16	43463.75
508.33	43580.78
508.50	44133.14
508.68	43950.58
508.85	44226.76
509.03	44027.82
509.20	44484.22
509.38	44671.46
509.55	44687.85
509.73	44458.48
509.90	45172.34
510.08	44872.75
510.25	44896.16
510.42	45132.55
510.60	45158.30
510.77	45549.17
510.95	45617.04
511.12	45336.18
511.30	45385.33
511.47	45586.61
511.64	46026.63
511.82	46335.59
511.99	46176.43
512.17	45944.72
512.34	46028.98
512.51	46560.28
512.69	46712.41
512.86	46632.83
513.04	46958.17
513.21	46941.78
513.38	47175.84
513.56	47409.89
513.73	46885.61
513.90	47466.06
514.08	47210.95
514.25	47646.29
514.43	47856.93
514.60	47903.74
514.77	47672.03
514.95	47777.36
515.12	47634.58
515.29	47997.37
515.47	48488.88
515.64	48582.50
515.81	48311.00
515.99	48346.11
516.16	48549.73
516.33	48903.15
516.51	48879.75
516.68	48502.92
516.85	49055.29
517.03	49109.12
517.20	49537.44
517.37	48809.53
517.54	49394.67
517.72	49436.80
517.89	49127.84
518.06	49507.01
518.24	49701.28
518.41	49474.24
518.58	49738.72
518.75	49724.68
518.93	49827.66
519.10	50000.86
519.27	49930.65
519.45	50122.57
519.62	50312.16
519.79	50532.17
519.96	50356.63
520.14	50344.92
520.31	50267.69
520.48	50780.26
520.65	50623.45
520.83	50836.44
521.00	50892.61
521.17	51058.79
521.34	50630.47
521.52	51100.92
521.69	51100.92
521.86	51456.68
522.03	51519.87
522.20	51498.81
522.38	51812.44
522.55	51676.69
522.72	51782.01
522.89	51566.68
523.07	52126.07
523.24	51629.88
523.41	51814.78
523.58	51585.41
523.75	52596.52
523.92	51817.12
524.10	52114.37
524.27	52348.42
524.44	52374.17
524.61	52367.15
524.78	52795.46
524.96	52458.43
525.13	52861.00
525.30	52516.94
525.47	52842.27
525.64	53001.43
525.81	52949.94
525.98	52942.92
526.16	52907.81
526.33	52891.43
526.50	53380.60
526.67	53146.54
526.84	53095.05
527.01	53186.33
527.18	53488.26
527.36	53130.16
527.53	53375.92
527.70	53546.78
527.87	53434.43
528.04	53324.43
528.21	53785.51
528.38	53528.05
528.55	53855.73
528.72	53750.40
528.89	53684.87
529.07	53881.47
529.24	53357.19
529.41	54049.99
529.58	53925.94
529.75	53769.13
529.92	53925.94
530.09	54085.10
530.26	54042.97
530.43	54326.17
530.60	53954.03
530.77	53862.75
530.94	54323.83
531.11	54412.77
531.28	54344.90
531.46	54422.14
531.63	54433.84
531.80	54508.74
531.97	54789.60
532.14	54747.47
532.31	54497.03
532.48	54815.35
532.65	54932.37
532.82	54738.11
532.99	54848.11
533.16	54705.34
533.33	54946.42
533.50	55154.72
533.67	54925.35
533.84	54862.16
534.01	55178.13
534.18	55213.24
534.35	55451.97
534.52	55192.17
534.69	55657.94
534.86	55374.73
535.03	55381.76
535.20	55407.50
535.37	55559.64
535.54	55620.49
535.71	55447.29
535.88	55721.13
536.05	55517.51
536.22	55931.78
536.38	55800.71
536.55	55573.68
536.72	55894.33
536.89	55749.22
537.06	55810.07
537.23	55964.55
537.40	55763.26
537.57	55908.38
537.74	55959.87
537.91	56289.88
538.08	56207.97
538.25	56044.13
538.42	56184.56
538.59	56324.99
538.75	56165.84
538.92	56273.50
539.09	56388.19
539.26	56364.78
539.43	56486.49
539.60	56222.01
539.77	56568.41
539.94	56882.04
540.11	56498.19
540.28	56669.05
540.44	56659.69
540.61	56692.46
540.78	56535.64
540.95	56580.11
541.12	56750.97
541.29	56779.06
541.46	56795.44
541.62	57034.17
541.79	56769.69
541.96	56774.37
542.13	56816.50
542.30	56816.50
542.47	57172.27
542.63	57137.16
542.80	57064.60
542.97	57317.38
543.14	57420.36
543.31	57326.74
543.48	57471.85
543.64	57565.48
543.81	57572.50
543.98	57670.80
544.15	57528.03
544.32	57785.49
544.48	57705.91
544.65	57544.41
544.82	57602.92
544.99	57530.37
545.16	57682.50
545.32	57755.06
545.49	57808.89
545.66	58054.65
545.83	57881.45
546.00	57780.81
546.16	58113.16
546.33	57722.29
546.50	57794.85
546.67	58115.50
546.83	57708.25
547.00	58066.35
547.17	58157.63
547.34	57921.24
547.50	57954.00
547.67	58415.09
547.84	58185.72
548.00	58387.00
548.17	58365.94
548.34	58333.17
548.51	58585.95
548.67	58595.31
548.84	58307.43
549.01	58361.26
549.18	58286.36
549.34	58583.61
549.51	58576.59
549.68	58494.67
549.84	58548.50
550.01	58681.91
550.18	58756.81
550.34	58642.12
550.51	58738.08
550.68	58721.70
550.84	58529.78
551.01	58656.17
551.18	58719.36
551.34	58667.87
551.51	58869.15
551.68	58791.92
551.84	58791.92
552.01	58700.64
552.18	58801.28
552.34	58887.88
552.51	59035.33
552.68	58871.49
552.84	58899.58
553.01	59187.47
553.18	58939.37
553.34	59082.14
553.51	59042.35
553.67	59196.83
553.84	59131.29
554.01	59051.72
554.17	59297.47
554.34	59131.29
554.51	59135.98
554.67	59487.06
554.84	59398.12
555.00	59133.63
555.17	59000.22
555.33	59358.33
555.50	59206.19
555.67	59257.68
555.83	59243.64
556.00	59409.82
556.16	59653.23
556.33	59742.17
556.50	59456.63
556.66	59716.43
556.83	59344.28
556.99	59737.49
557.16	59714.09
557.32	59866.22
557.49	59826.43
557.65	59458.97
557.82	59657.91
557.98	59580.68
558.15	59697.70
558.32	59601.74
558.48	59620.47
558.65	59578.34
558.81	59678.98
558.98	59969.21
559.14	59674.30
559.31	59695.36
559.47	59913.03
559.64	60114.32
559.80	59831.11
559.97	60037.08
560.13	59840.48
560.30	59906.01
560.46	59906.01
560.63	59913.03
560.79	59889.63
560.96	59983.25
561.12	59910.69
561.29	60013.68
561.45	60048.78
561.61	60093.25
561.78	60009.00
561.94	59840.48
562.11	60048.78
562.27	60196.24
562.44	60296.88
562.60	60348.37
562.77	60114.32
562.93	59980.91
563.10	60189.22
563.26	60240.71
563.42	60437.31
563.59	60175.17
563.75	60229.01
563.92	60133.04
564.08	60413.91
564.24	60416.25
564.41	60350.71
564.57	60418.59
564.74	60472.42
564.90	60121.34
565.07	60437.31
565.23	60196.24
565.39	60411.57
565.56	60495.83
565.72	60360.08
565.88	60477.10
566.05	60243.05
566.21	60299.22
566.38	60619.88
566.54	60477.10
566.70	60622.22
566.87	60643.28
567.03	60423.27
567.19	60659.66
567.36	60523.91
567.52	60615.19
567.68	60713.50
567.85	60626.90
568.01	60598.81
568.17	60245.39
568.34	60746.26
568.50	60537.96
568.66	60463.06
568.83	60683.07
568.99	60636.26
569.15	60605.83
569.32	60757.97
569.48	60512.21
569.64	60612.85
569.81	60704.13
569.97	60587.11
570.13	60645.62
570.30	60509.87
570.46	60736.90
570.62	60781.37
570.78	60713.50
570.95	60846.91
571.11	60720.52
571.27	60762.65
571.43	60603.49
571.60	60764.99
571.76	60694.77
571.92	60900.74
572.09	60657.32
572.25	60900.74
572.41	60725.20
572.57	60706.47
572.74	60952.23
572.90	60846.91
573.06	60814.14
573.22	60687.75
573.38	60970.96
573.55	60832.86
573.71	61099.68
573.87	60898.40
574.03	60505.19
574.20	60746.26
574.36	60673.71
574.52	60755.63
574.68	60926.49
574.84	60970.96
575.01	60966.27
575.17	60907.76
575.33	60996.70
575.49	61010.74
575.65	61052.87
575.82	61045.85
575.98	61003.72
576.14	61212.03
576.30	61064.58
576.46	60931.17
576.62	60938.19
576.79	61038.83
576.95	60781.37
577.11	60921.80
577.27	61120.75
577.43	60872.65
577.59	61104.37
577.75	60863.29
577.92	60830.52
578.08	60931.17
578.24	61102.03
578.40	61179.26
578.56	61102.03
578.72	61207.35
578.88	61181.60
579.04	61200.33
579.21	61057.56
579.37	61312.67
579.53	61221.39
579.69	60973.30
579.85	61071.60
580.01	61256.50
580.17	60952.23
580.33	61134.79
580.49	61148.84
580.65	61214.37
580.82	61003.72
580.98	61057.56
581.14	60807.12
581.30	61240.12
581.46	61127.77
581.62	61034.15
581.78	60893.72
581.94	61240.12
582.10	61193.31
582.26	61087.98
582.42	61322.04
582.58	61036.49
582.74	61148.84
582.90	61109.05
583.06	61055.21
583.22	60945.21
583.38	61080.96
583.54	61132.45
583.70	61284.59
583.86	61055.21
584.02	60959.25
584.18	61013.08
584.34	61258.84
584.50	61347.78
584.66	60963.93
584.82	60860.95
584.98	61024.79
585.14	61132.45
585.30	61080.96
585.46	61165.22
585.62	61120.75
585.78	61284.59
585.94	60987.34
586.10	61209.69
586.26	61357.14
586.42	61399.27
586.58	61279.91
586.74	61340.76
586.90	61216.71
587.06	61125.43
587.22	61315.01
587.38	61179.26
587.54	61387.57
587.70	61270.54
587.86	61392.25
588.02	61272.88
588.18	61045.85
588.34	61212.03
588.49	61212.03
