SpectraSuite Data File
++++++++++++++++++++++++++++++++++++
Date: Fri Oct 25 11:34:07 EDT 2013
User: price-jones
Dark Spectrum Present: No
Reference Spectrum Present: No
Number of Sampled Component Spectra: 1
Spectrometers: USB2+H05261
Integration Time (usec): 100000 (USB2+H05261)
Spectra Averaged: 1 (USB2+H05261)
Boxcar Smoothing: 0 (USB2+H05261)
Correct for Electrical Dark: No (USB2+H05261)
Strobe/Lamp Enabled: No (USB2+H05261)
Correct for Detector Non-linearity: No (USB2+H05261)
Correct for Stray Light: No (USB2+H05261)
Number of Pixels in Processed Spectrum: 2048
>>>>>Begin Processed Spectral Data<<<<<
365.73	266.82
365.92	266.82
366.12	266.82
366.32	163.84
366.52	110.01
366.72	140.43
366.91	163.84
367.11	278.52
367.31	182.56
367.51	173.20
367.70	131.07
367.90	177.88
368.10	159.16
368.30	189.58
368.49	147.45
368.69	266.82
368.89	187.24
369.09	168.52
369.28	205.97
369.48	173.20
369.68	252.78
369.87	248.10
370.07	187.24
370.27	278.52
370.47	313.63
370.66	493.85
370.86	465.77
371.06	475.13
371.25	608.54
371.45	540.66
371.65	543.00
371.84	545.34
372.04	564.07
372.24	599.18
372.44	585.13
372.63	573.43
372.83	550.03
373.03	559.39
373.22	557.05
373.42	582.79
373.62	620.24
373.81	667.05
374.01	660.03
374.21	627.26
374.40	655.35
374.60	704.50
374.79	624.92
374.99	594.50
375.19	674.07
375.38	631.94
375.58	638.97
375.78	622.58
375.97	702.16
376.17	816.85
376.37	751.31
376.56	648.33
376.76	709.18
376.95	692.80
377.15	697.48
377.35	709.18
377.54	678.76
377.74	622.58
377.93	653.01
378.13	699.82
378.33	690.46
378.52	688.12
378.72	704.50
378.91	713.86
379.11	664.71
379.31	683.44
379.50	716.20
379.70	779.40
379.89	821.53
380.09	730.25
380.28	716.20
380.48	727.91
380.68	732.59
380.87	664.71
381.07	678.76
381.26	739.61
381.46	807.48
381.65	720.88
381.85	777.06
382.04	704.50
382.24	725.57
382.43	744.29
382.63	718.54
382.83	748.97
383.02	704.50
383.22	847.27
383.41	784.08
383.61	826.21
383.80	788.76
384.00	901.11
384.19	833.23
384.39	821.53
384.58	795.78
384.78	727.91
384.97	809.83
385.17	791.10
385.36	812.17
385.56	840.25
385.75	816.85
385.95	807.48
386.14	887.06
386.34	866.00
386.53	837.91
386.72	800.46
386.92	875.36
387.11	940.90
387.31	861.32
387.50	847.27
387.70	791.10
387.89	863.66
388.09	917.49
388.28	915.15
388.48	922.17
388.67	959.62
388.86	898.77
389.06	1013.45
389.25	926.85
389.45	896.43
389.64	856.64
389.84	957.28
390.03	866.00
390.22	1001.75
390.42	1029.84
390.61	964.30
390.81	983.02
391.00	992.39
391.19	1006.43
391.39	1004.09
391.58	985.37
391.78	1018.13
391.97	1053.24
392.16	1015.79
392.36	1100.05
392.55	1018.13
392.75	1027.50
392.94	1025.15
393.13	1036.86
393.33	1011.11
393.52	1097.71
393.71	1156.22
393.91	1078.99
394.10	1034.52
394.29	1078.99
394.49	1125.80
394.68	1118.78
394.88	1181.97
395.07	1074.31
395.26	1128.14
395.46	1123.46
395.65	1224.10
395.84	1128.14
396.04	1228.78
396.23	1240.48
396.42	1270.91
396.62	1151.54
396.81	1184.31
397.00	1224.10
397.19	1165.59
397.39	1090.69
397.58	1306.02
397.77	1289.64
397.97	1231.12
398.16	1196.01
398.35	1224.10
398.55	1254.53
398.74	1355.17
398.93	1277.93
399.12	1317.72
399.32	1315.38
399.51	1315.38
399.70	1359.85
399.90	1256.87
400.09	1306.02
400.28	1385.60
400.47	1317.72
400.67	1430.07
400.86	1430.07
401.05	1341.13
401.24	1439.43
401.44	1397.30
401.63	1465.18
401.82	1392.62
402.01	1357.51
402.21	1434.75
402.40	1519.01
402.59	1411.34
402.78	1413.68
402.97	1483.90
403.17	1455.81
403.36	1474.54
403.55	1544.75
403.74	1537.73
403.93	1528.37
404.13	1570.50
404.32	1661.78
404.51	1636.03
404.70	1685.19
404.89	1643.06
405.09	1701.57
405.28	1558.80
405.47	1584.54
405.66	1647.74
405.85	1694.55
406.05	1706.25
406.24	1645.40
406.43	1682.85
406.62	1785.83
406.81	1802.21
407.00	1813.92
407.20	1788.17
407.39	1762.42
407.58	1722.63
407.77	1827.96
407.96	1872.43
408.15	1853.70
408.34	1905.20
408.54	1877.11
408.73	1870.09
408.92	1919.24
409.11	1923.92
409.30	1963.71
409.49	1959.03
409.68	1907.54
409.87	1952.01
410.07	2019.88
410.26	1961.37
410.45	1959.03
410.64	2003.50
410.83	2045.63
411.02	1989.46
411.21	2204.78
411.40	2303.09
411.59	2090.10
411.78	2132.23
411.98	2174.36
412.17	2134.57
412.36	2197.76
412.55	2326.49
412.74	2253.94
412.93	2293.72
413.12	2340.54
413.31	2328.83
413.50	2275.00
413.69	2289.04
413.88	2396.71
414.07	2483.31
414.26	2525.44
414.45	2485.65
414.64	2406.07
414.83	2628.42
415.02	2668.21
415.22	2527.78
415.41	2520.76
415.60	2480.97
415.79	2621.40
415.98	2553.52
416.17	2602.68
416.36	2504.37
416.55	2686.94
416.74	2792.26
416.93	2682.25
417.12	2647.15
417.31	2785.24
417.50	2754.81
417.69	2876.52
417.88	2752.47
418.07	2841.41
418.26	2942.05
418.45	3061.42
418.64	2981.84
418.83	2932.69
419.02	2843.75
419.21	2953.76
419.39	3225.26
419.58	2970.14
419.77	2951.42
419.96	3101.21
420.15	3087.17
420.34	2984.18
420.53	3108.23
420.72	3166.74
420.91	3211.22
421.10	3190.15
421.29	3143.34
421.48	3145.68
421.67	3180.79
421.86	3187.81
422.05	3222.92
422.24	3248.66
422.43	3307.18
422.61	3246.32
422.80	3323.56
422.99	3194.83
423.18	3267.39
423.37	3236.96
423.56	3365.69
423.75	3442.93
423.94	3211.22
424.13	3075.46
424.32	3141.00
424.50	3342.28
424.69	3527.19
424.88	3398.46
425.07	3398.46
425.26	3300.16
425.45	3300.16
425.64	3283.77
425.83	3304.84
426.01	3461.65
426.20	3351.65
426.39	3328.24
426.58	3400.80
426.77	3405.48
426.96	3475.70
427.15	3372.71
427.33	3449.95
427.52	3494.42
427.71	3620.81
427.90	3588.04
428.09	3583.36
428.28	3627.83
428.46	3646.55
428.65	3698.05
428.84	3613.79
429.03	3599.74
429.22	3555.27
429.40	3698.05
429.59	3616.13
429.78	3625.49
429.97	3543.57
430.16	3667.62
430.34	3840.82
430.53	3798.69
430.72	3789.33
430.91	3662.94
431.10	3808.05
431.28	3878.27
431.47	3798.69
431.66	3932.10
431.85	3882.95
432.03	3817.41
432.22	4086.58
432.41	3981.25
432.60	3868.91
432.79	3974.23
432.97	4007.00
433.16	3948.48
433.35	4067.85
433.54	4135.73
433.72	4100.62
433.91	4072.53
434.10	4051.47
434.28	4056.15
434.47	4044.45
434.66	4145.09
434.85	4152.11
435.03	4126.36
435.22	4088.92
435.41	4224.67
435.59	4194.24
435.78	4222.33
435.97	4299.56
436.16	4301.90
436.34	4329.99
436.53	4358.08
436.72	4425.95
436.90	4332.33
437.09	4486.81
437.28	4341.69
437.46	4472.76
437.65	4447.02
437.84	4454.04
438.02	4521.92
438.21	4486.81
438.40	4519.57
438.58	4622.56
438.77	4660.01
438.96	4620.22
439.14	4662.35
439.33	4746.61
439.52	4844.91
439.70	4762.99
439.89	4767.67
440.08	5008.75
440.26	5013.43
440.45	4875.34
440.63	4957.25
440.82	5128.11
441.01	5032.15
441.19	5174.92
441.38	5184.29
441.57	5123.43
441.75	5212.37
441.94	5207.69
442.12	5310.68
442.31	5364.51
442.50	5284.93
442.68	5301.31
442.87	5231.10
443.05	5336.42
443.24	5406.64
443.43	5434.72
443.61	5380.89
443.80	5472.17
443.98	5408.98
444.17	5184.29
444.35	5460.47
444.54	5621.97
444.73	5474.51
444.91	5591.54
445.10	5425.36
445.28	5586.86
445.47	5591.54
445.65	5528.35
445.84	5540.05
446.02	5612.60
446.21	5687.50
446.39	5596.22
446.58	5523.66
446.77	5675.80
446.95	5493.24
447.14	5556.43
447.32	5774.10
447.51	5760.06
447.69	5589.20
447.88	5610.26
448.06	5762.40
448.25	5619.63
448.43	5490.90
448.62	5788.14
448.80	5734.31
448.99	5640.69
449.17	5820.91
449.36	5774.10
449.54	5774.10
449.73	5956.66
449.91	5966.03
450.10	5900.49
450.28	5947.30
450.46	6160.29
450.65	5966.03
450.83	5935.60
451.02	5923.90
451.20	6164.97
451.39	6043.26
451.57	6010.50
451.76	6076.03
451.94	6244.55
452.13	6174.33
452.31	6122.84
452.49	6134.54
452.68	6155.61
452.86	6216.46
453.05	6296.04
453.23	6253.91
453.42	6305.40
453.60	6129.86
453.78	6387.32
453.97	6303.06
454.15	6328.81
454.34	6216.46
454.52	6296.04
454.70	6586.27
454.89	6370.94
455.07	6502.01
455.26	6497.33
455.44	6583.93
455.62	6499.67
455.81	6483.28
455.99	6478.60
456.17	6729.04
456.36	6745.42
456.54	6722.02
456.73	6754.79
456.91	6806.28
457.09	6796.92
457.28	6799.26
457.46	6796.92
457.64	6883.52
457.83	6878.83
458.01	6782.87
458.19	6965.43
458.38	7042.67
458.56	7096.50
458.74	6995.86
458.93	7014.59
459.11	7178.42
459.29	7110.55
459.48	7136.29
459.66	7108.21
459.84	7323.54
460.03	7344.60
460.21	7288.43
460.39	7143.32
460.57	7148.00
460.76	7332.90
460.94	7435.88
461.12	7466.31
461.31	7337.58
461.49	7330.56
461.67	7220.55
461.85	7489.71
462.04	7314.17
462.22	8102.93
462.40	7662.91
462.59	7499.08
462.77	7527.16
462.95	7662.91
463.13	7674.62
463.32	7543.55
463.50	7712.07
463.68	7742.49
463.86	7740.15
464.05	7623.12
464.23	7719.09
464.41	7911.01
464.59	7536.52
464.78	8039.74
464.96	7845.48
465.14	7723.77
465.32	7964.84
465.50	8065.49
465.69	7882.92
465.87	7782.28
466.05	7941.44
466.23	8065.49
466.41	7903.99
466.60	8021.02
466.78	7939.10
466.96	7955.48
467.14	7964.84
467.32	8011.65
467.51	8018.68
467.69	8133.36
467.87	8243.37
468.05	8411.89
468.23	7983.57
468.41	8149.75
468.60	8273.79
468.78	8252.73
468.96	8079.53
469.14	8503.17
469.32	8442.31
469.50	8079.53
469.69	8493.80
469.87	8507.85
470.05	8472.74
470.23	8624.87
470.41	8475.08
470.59	8692.75
470.77	8606.15
470.95	8547.64
471.14	8898.72
471.32	8638.92
471.50	8861.27
471.68	8919.78
471.86	8802.75
472.04	8957.23
472.22	9097.66
472.40	9036.81
472.58	9151.49
472.77	9174.90
472.95	9284.91
473.13	9355.12
473.31	9174.90
473.49	9268.52
473.67	9256.82
473.85	9207.67
474.03	9530.66
474.21	9647.69
474.39	9612.58
474.57	9549.39
474.75	9678.12
474.93	9619.60
475.12	9703.86
475.30	9825.57
475.48	9926.21
475.66	9837.27
475.84	9589.17
476.02	10012.81
476.20	9973.02
476.38	10216.44
476.56	10464.54
476.74	10410.70
476.92	10223.46
477.10	10167.29
477.28	10595.61
477.46	10604.97
477.64	10427.09
477.82	10834.34
478.00	10729.02
478.18	10874.13
478.36	11052.01
478.54	11042.65
478.72	11342.24
478.90	11131.59
479.08	11300.11
479.26	11442.88
479.44	11199.46
479.62	11400.75
479.80	11396.07
479.98	11868.86
480.16	11550.54
480.34	11843.11
480.52	11932.05
480.70	12065.46
480.88	11803.32
481.06	12142.70
481.24	12236.32
481.41	12243.34
481.59	12589.74
481.77	12484.42
481.95	12659.96
482.13	12683.36
482.31	12568.68
482.49	12933.80
482.67	12931.46
482.85	13048.49
483.03	13284.88
483.21	13324.67
483.39	13528.30
483.57	13319.99
483.74	13696.82
483.92	13650.00
484.10	13713.20
484.28	13956.61
484.46	14420.04
484.64	14228.12
484.82	14026.83
485.00	14162.58
485.18	14459.83
485.35	14672.82
485.53	14700.90
485.71	14721.97
485.89	15014.54
486.07	14984.11
486.25	14939.64
486.43	15115.18
486.61	15351.57
486.78	15522.43
486.96	15599.67
487.14	15697.97
487.32	15669.89
487.50	16142.67
487.68	16226.93
487.85	16238.64
488.03	16414.18
488.21	16484.39
488.39	16381.41
488.57	16896.33
488.75	17003.99
488.92	17011.01
489.10	17378.48
489.28	17074.21
489.46	17259.11
489.64	17291.88
489.81	17612.53
489.99	17736.58
490.17	18019.78
490.35	18115.75
490.53	18059.57
490.70	18111.07
490.88	18457.46
491.06	18490.23
491.24	18778.12
491.41	18464.49
491.59	18771.10
491.77	18778.12
491.95	18948.98
492.13	18995.79
492.30	19180.69
492.48	19552.84
492.66	19061.32
492.84	19499.00
493.01	19723.69
493.19	19934.34
493.37	19852.42
493.54	20128.61
493.72	20025.62
493.90	20034.99
494.08	20383.73
494.25	20187.12
494.43	20673.95
494.61	21097.59
494.79	20926.73
494.96	21067.16
495.14	21010.99
495.32	20819.07
495.49	21069.50
495.67	21570.38
495.85	21336.32
496.02	21563.36
496.20	21884.01
496.38	22099.34
496.55	21631.23
496.73	22565.10
496.91	22157.85
497.09	22569.79
497.26	22347.44
497.44	22134.45
497.62	22452.76
497.79	23049.60
497.97	22445.74
498.14	22925.55
498.32	23183.01
498.50	23175.98
498.67	23449.83
498.85	23377.27
499.03	23555.15
499.20	23679.20
499.38	23716.65
499.56	23681.54
499.73	23798.57
499.91	23770.48
500.08	24341.57
500.26	24058.37
500.44	24243.27
500.61	24395.40
500.79	24376.68
500.97	24357.96
501.14	24582.65
501.32	24608.39
501.49	24870.53
501.67	25003.94
501.84	25132.67
502.02	24964.15
502.20	25142.03
502.37	25025.01
502.55	25015.65
502.72	25216.93
502.90	25401.83
503.07	25453.33
503.25	25530.56
503.43	25680.36
503.60	25963.56
503.78	25823.13
503.95	26008.03
504.13	26043.14
504.30	26125.06
504.48	26052.50
504.65	26012.71
504.83	26368.48
505.01	26822.54
505.18	26473.80
505.36	26838.92
505.53	26370.82
505.71	26932.54
505.88	27143.19
506.06	26904.46
506.23	27325.75
506.41	26749.98
506.58	27166.60
506.76	27346.82
506.93	27482.57
507.11	27358.52
507.28	27805.56
507.46	27194.68
507.63	27761.09
507.81	27864.08
507.98	27695.56
508.16	27721.30
508.33	27821.95
508.50	28102.81
508.68	28189.41
508.85	28114.52
509.03	28126.22
509.20	28283.03
509.38	28643.48
509.55	28341.55
509.73	28716.03
509.90	28877.53
510.08	28666.88
510.25	28662.20
510.42	28875.19
510.60	29237.97
510.77	29200.52
510.95	29275.42
511.12	29385.43
511.30	29223.93
511.47	29228.61
511.64	29633.52
511.82	29465.00
511.99	29483.73
512.17	29736.51
512.34	29893.32
512.51	29771.61
512.69	29961.20
512.86	29951.84
513.04	30202.27
513.21	30340.36
513.38	30279.51
513.56	30295.89
513.73	30256.11
513.90	30352.07
514.08	30279.51
514.25	30726.55
514.43	31129.12
514.60	30953.58
514.77	30677.40
514.95	30796.77
515.12	30904.43
515.29	31601.91
515.47	31103.38
515.64	31147.85
515.81	31126.78
515.99	31686.17
516.16	31421.69
516.33	31412.33
516.51	31812.56
516.68	31548.08
516.85	31833.63
517.03	31611.28
517.20	31793.84
517.37	32020.87
517.54	32023.21
517.72	32137.90
517.89	32299.39
518.06	32322.80
518.24	32470.25
518.41	32236.20
518.58	32334.50
518.75	31866.39
518.93	32629.41
519.10	32739.41
519.27	32311.10
519.45	32739.41
519.62	32804.95
519.79	32914.95
519.96	32835.38
520.14	33151.35
520.31	32929.00
520.48	33191.14
520.65	33134.96
520.83	33149.01
521.00	33387.74
521.17	33099.86
521.34	32964.10
521.52	33940.11
521.69	33888.62
521.86	33802.02
522.03	33942.45
522.20	34125.01
522.38	34244.38
522.55	33872.23
522.72	34363.75
522.89	34071.18
523.07	34558.01
523.24	34323.96
523.41	34312.25
523.58	34284.17
523.75	34810.79
523.92	34211.61
524.10	34848.24
524.27	34944.20
524.44	34991.01
524.61	34707.80
524.78	35007.39
524.96	35211.02
525.13	35304.64
525.30	35234.42
525.47	35108.04
525.64	35384.22
525.81	35639.34
525.98	35393.58
526.16	35538.69
526.33	35491.88
526.50	35765.73
526.67	35789.13
526.84	35700.19
527.01	35363.15
527.18	35917.86
527.36	35887.43
527.53	35758.70
527.70	36325.11
527.87	36123.83
528.04	35988.08
528.21	36180.00
528.38	36271.28
528.55	36264.26
528.72	36233.83
528.89	36395.33
529.07	36332.14
529.24	36266.60
529.41	37074.09
529.58	36549.81
529.75	36423.42
529.92	36697.26
530.09	36404.69
530.26	36917.27
530.43	37022.59
530.60	36664.49
530.77	36610.66
530.94	36950.04
531.11	37181.75
531.28	37352.61
531.46	37111.53
531.63	37479.00
531.80	36961.74
531.97	37565.60
532.14	37481.34
532.31	37591.34
532.48	37518.79
532.65	37596.03
532.82	37467.30
532.99	37350.27
533.16	37453.25
533.33	38012.64
533.50	37956.47
533.67	37954.13
533.84	37635.81
534.01	38132.01
534.18	37937.74
534.35	38185.84
534.52	38473.73
534.69	38731.18
534.86	38464.36
535.03	38106.26
535.20	38572.03
535.37	38686.71
535.54	38483.09
535.71	38574.37
535.88	38948.85
536.05	38572.03
536.22	39042.48
536.38	38829.49
536.55	38522.88
536.72	39117.37
536.89	38438.62
537.06	38663.31
537.23	39248.44
537.40	39035.45
537.57	38983.96
537.74	38780.34
537.91	39391.22
538.08	39428.66
538.25	39220.36
538.42	39119.71
538.59	39573.78
538.75	39196.95
538.92	39421.64
539.09	39723.57
539.26	39611.23
539.43	39707.19
539.60	39723.57
539.77	39452.07
539.94	39985.71
540.11	39707.19
540.28	39789.11
540.44	39704.85
540.61	39477.82
540.78	39569.10
540.95	39793.79
541.12	39938.90
541.29	39697.83
541.46	40076.99
541.62	40105.08
541.79	39969.33
541.96	39608.89
542.13	40009.12
542.30	40105.08
542.47	40051.25
542.63	39924.86
542.80	40713.62
542.97	40725.32
543.14	40526.38
543.31	40713.62
543.48	40659.79
543.64	41191.09
543.81	41235.56
543.98	40889.16
544.15	40980.44
544.32	41411.10
544.48	41614.72
544.65	41060.02
544.82	41280.03
544.99	41177.04
545.16	41649.83
545.32	41387.69
545.49	41469.61
545.66	41794.95
545.83	41755.16
546.00	41525.78
546.16	41689.62
546.33	41570.25
546.50	41984.53
546.67	42103.90
546.83	41551.53
547.00	41783.24
547.17	41153.64
547.34	41584.30
547.50	42143.69
547.67	42064.11
547.84	41818.35
548.00	42583.71
548.17	42284.12
548.34	42164.75
548.51	42518.17
548.67	42394.12
548.84	42323.91
549.01	42183.48
549.18	42120.28
549.34	42548.60
549.51	42316.89
549.68	42745.20
549.84	42328.59
550.01	42747.54
550.18	42246.67
550.34	42375.40
550.51	42827.12
550.68	42979.26
550.84	42185.82
551.01	43409.92
551.18	42787.33
551.34	42621.16
551.51	42885.64
551.68	42670.31
551.84	42913.72
552.01	42590.73
552.18	43063.52
552.34	42803.72
552.51	42969.90
552.68	43154.80
552.84	42972.24
553.01	43100.97
553.18	42955.85
553.34	43117.35
553.51	43269.48
553.67	43304.59
553.84	43562.05
554.01	43894.41
554.17	43423.96
554.34	43562.05
554.51	43466.09
554.67	43702.48
554.84	43435.66
555.00	43571.41
555.17	43107.99
555.33	43805.47
555.50	43791.42
555.67	43805.47
555.83	43559.71
556.00	43983.35
556.16	44278.25
556.33	44355.49
556.50	43988.03
556.66	43564.39
556.83	43508.22
556.99	44559.12
557.16	44002.07
557.32	44119.10
557.49	43927.17
557.65	43749.29
557.82	44013.77
557.98	44168.25
558.15	44399.96
558.32	44526.35
558.48	44053.56
558.65	44336.77
558.81	44306.34
558.98	44524.01
559.14	44172.93
559.31	44158.89
559.47	44516.99
559.64	44208.04
559.80	44622.31
559.97	44835.30
560.13	44315.70
560.30	44189.31
560.46	44795.51
560.63	44516.99
560.79	44540.39
560.96	44779.13
561.12	44884.45
561.29	44884.45
561.45	44744.02
561.61	44516.99
561.78	44711.25
561.94	44498.26
562.11	44608.27
562.27	44680.83
562.44	44636.36
562.60	44631.68
562.77	44626.99
562.93	45097.44
563.10	45038.93
563.26	44605.93
563.42	45682.58
563.59	45310.43
563.75	44456.14
563.92	45221.49
564.08	44947.65
564.24	45015.52
564.41	45406.39
564.57	45265.96
564.74	44982.76
564.90	44802.53
565.07	44985.10
565.23	45027.23
565.39	45050.63
565.56	45301.07
565.72	45034.25
565.88	45017.86
566.05	45067.02
566.21	45088.08
566.38	45041.27
566.54	44781.47
566.70	45268.30
566.87	45240.21
567.03	44926.58
567.19	45186.38
567.36	45244.90
567.52	44935.95
567.68	45745.77
567.85	45525.76
568.01	45544.48
568.17	45448.52
568.34	45588.95
568.50	45478.95
568.66	45228.51
568.83	45720.02
568.99	45347.88
569.15	45485.97
569.32	45216.81
569.48	45340.86
569.64	45837.05
569.81	45799.60
569.97	45815.99
570.13	45888.54
570.30	45638.11
570.46	45951.74
570.62	45787.90
570.78	45535.12
570.95	45528.10
571.11	45617.04
571.27	45638.11
571.43	45411.07
571.60	45893.22
571.76	45954.08
571.92	45745.77
572.09	45329.16
572.25	45092.76
572.41	45748.11
572.57	45858.12
572.74	45961.10
572.90	45804.28
573.06	45820.67
573.22	45846.41
573.38	45890.88
573.55	45911.95
573.71	46068.76
573.87	45984.51
574.03	45972.80
574.20	46316.86
574.36	46274.73
574.52	46263.03
574.68	45769.18
574.84	46108.55
575.01	45780.88
575.17	46337.93
575.33	46284.09
575.49	45958.76
575.65	46188.13
575.82	46281.75
575.98	45881.52
576.14	46328.56
576.30	46197.49
576.46	46309.84
576.62	46185.79
576.79	46330.90
576.95	45806.62
577.11	45944.72
577.27	46272.39
577.43	45876.84
577.59	45855.78
577.75	46014.93
577.92	45794.92
578.08	46302.82
578.24	45851.09
578.40	46536.87
578.56	46391.76
578.72	46459.63
578.88	46223.24
579.04	46089.83
579.21	46061.74
579.37	46562.62
579.53	46024.29
579.69	46012.59
579.85	46284.09
580.01	45982.16
580.17	46452.61
580.33	46174.09
580.49	46471.34
580.65	46204.52
580.82	46342.61
580.98	46209.20
581.14	45815.99
581.30	46012.59
581.46	45965.78
581.62	46085.15
581.78	46305.16
581.94	46267.71
582.10	46541.55
582.26	46270.05
582.42	46593.04
582.58	46447.93
582.74	46375.37
582.90	46190.47
583.06	46164.73
583.22	46665.60
583.38	46195.15
583.54	46349.63
583.70	46174.09
583.86	46408.14
584.02	46553.26
584.18	46782.63
584.34	46302.82
584.50	46291.12
584.66	46206.86
584.82	46534.53
584.98	46777.95
585.14	46576.66
585.30	46302.82
585.46	46459.63
585.62	46246.65
585.78	46298.14
585.94	46038.34
586.10	46300.48
586.26	46192.81
586.42	46192.81
586.58	46880.93
586.74	46377.72
586.90	46160.05
587.06	46054.72
587.22	46415.16
587.38	46527.51
587.54	46555.60
587.70	46674.96
587.86	46305.16
588.02	46169.41
588.18	46534.53
588.34	46443.25
588.49	46543.89
588.65	46436.23
588.81	46756.88
588.97	46696.03
589.13	46560.28
589.29	46408.14
589.45	46997.96
589.61	46597.73
589.77	46997.96
589.93	46740.50
590.08	47320.95
