SpectraSuite Data File
++++++++++++++++++++++++++++++++++++
Date: Fri Oct 25 11:25:54 EDT 2013
User: price-jones
Dark Spectrum Present: No
Reference Spectrum Present: No
Number of Sampled Component Spectra: 1
Spectrometers: USB2+H05261
Integration Time (usec): 100000 (USB2+H05261)
Spectra Averaged: 1 (USB2+H05261)
Boxcar Smoothing: 0 (USB2+H05261)
Correct for Electrical Dark: No (USB2+H05261)
Strobe/Lamp Enabled: No (USB2+H05261)
Correct for Detector Non-linearity: No (USB2+H05261)
Correct for Stray Light: No (USB2+H05261)
Number of Pixels in Processed Spectrum: 2048
>>>>>Begin Processed Spectral Data<<<<<
365.73	224.69
365.92	224.69
366.12	224.69
366.32	58.51
366.52	184.90
366.72	205.97
366.91	128.73
367.11	147.45
367.31	124.05
367.51	72.56
367.70	177.88
367.90	198.95
368.10	156.82
368.30	163.84
368.49	140.43
368.69	131.07
368.89	154.48
369.09	161.50
369.28	140.43
369.48	161.50
369.68	187.24
369.87	234.05
370.07	220.01
370.27	283.20
370.47	287.89
370.66	571.09
370.86	657.69
371.06	617.90
371.25	744.29
371.45	662.37
371.65	716.20
371.84	660.03
372.04	763.01
372.24	727.91
372.44	765.36
372.63	702.16
372.83	800.46
373.03	727.91
373.22	727.91
373.42	800.46
373.62	755.99
373.81	763.01
374.01	847.27
374.21	812.17
374.40	800.46
374.60	896.43
374.79	856.64
374.99	814.51
375.19	933.87
375.38	779.40
375.58	866.00
375.78	894.08
375.97	889.40
376.17	877.70
376.37	805.14
376.56	945.58
376.76	870.68
376.95	753.65
377.15	931.53
377.35	931.53
377.54	882.38
377.74	922.17
377.93	940.90
378.13	896.43
378.33	877.70
378.52	931.53
378.72	959.62
378.91	940.90
379.11	959.62
379.31	919.83
379.50	910.47
379.70	1011.11
379.89	983.02
380.09	992.39
380.28	1043.88
380.48	1011.11
380.68	1015.79
380.87	1048.56
381.07	978.34
381.26	1020.47
381.46	999.41
381.65	940.90
381.85	1015.79
382.04	1008.77
382.24	1041.54
382.43	1114.10
382.63	1078.99
382.83	1121.12
383.02	1078.99
383.22	1200.69
383.41	1245.16
383.61	1078.99
383.80	1111.75
384.00	1116.44
384.19	1151.54
384.39	1132.82
384.58	1212.40
384.78	1200.69
384.97	1203.04
385.17	1177.29
385.36	1130.48
385.56	1289.64
385.75	1203.04
385.95	1125.80
386.14	1242.82
386.34	1179.63
386.53	1282.61
386.72	1233.46
386.92	1284.95
387.11	1280.27
387.31	1252.19
387.50	1198.35
387.70	1268.57
387.89	1270.91
388.09	1273.25
388.28	1291.98
388.48	1233.46
388.67	1249.85
388.86	1303.68
389.06	1352.83
389.25	1411.34
389.45	1369.21
389.64	1350.49
389.84	1409.00
390.03	1425.39
390.22	1413.68
390.42	1392.62
390.61	1441.77
390.81	1465.18
391.00	1504.96
391.19	1504.96
391.39	1476.88
391.58	1462.83
391.78	1411.34
391.97	1439.43
392.16	1535.39
392.36	1547.09
392.55	1441.77
392.75	1488.58
392.94	1514.33
393.13	1603.27
393.33	1483.90
393.52	1465.18
393.71	1474.54
393.91	1650.08
394.10	1537.73
394.29	1633.69
394.49	1650.08
394.68	1568.16
394.88	1633.69
395.07	1652.42
395.26	1673.48
395.46	1647.74
395.65	1741.36
395.84	1727.32
396.04	1664.12
396.23	1788.17
396.42	1755.40
396.62	1706.25
396.81	1853.70
397.00	1694.55
397.19	1734.34
397.39	1802.21
397.58	1933.28
397.77	1837.32
397.97	1767.10
398.16	1844.34
398.35	1949.67
398.55	1839.66
398.74	1804.55
398.93	1827.96
399.12	1944.99
399.32	1952.01
399.51	1926.26
399.70	2054.99
399.90	1968.39
400.09	1970.73
400.28	2083.08
400.47	1996.48
400.67	1973.07
400.86	1888.81
401.05	2001.16
401.24	2167.34
401.44	2118.18
401.63	2076.06
401.82	2036.27
402.01	2111.16
402.21	2143.93
402.40	2176.70
402.59	2106.48
402.78	2165.00
402.97	2296.07
403.17	2258.62
403.36	2242.23
403.55	2223.51
403.74	2282.02
403.93	2392.03
404.13	2368.62
404.32	2307.77
404.51	2471.61
404.70	2457.56
404.89	2466.92
405.09	2466.92
405.28	2478.63
405.47	2487.99
405.66	2541.82
405.85	2569.91
406.05	2523.10
406.24	2607.36
406.43	2441.18
406.62	2614.38
406.81	2640.12
407.00	2572.25
407.20	2623.74
407.39	2626.08
407.58	2691.62
407.77	2656.51
407.96	2700.98
408.15	2780.56
408.34	2813.32
408.54	2722.04
408.73	2740.77
408.92	2864.82
409.11	2815.66
409.30	2857.79
409.49	2935.03
409.68	2967.80
409.87	3056.74
410.07	3089.51
410.26	3054.40
410.45	2995.89
410.64	3103.55
410.83	3056.74
411.02	3084.83
411.21	3098.87
411.40	3126.96
411.59	3155.04
411.78	3096.53
411.98	3098.87
412.17	3215.90
412.36	3176.11
412.55	3330.58
412.74	3375.05
412.93	3417.18
413.12	3377.39
413.31	3524.85
413.50	3391.44
413.69	3517.83
413.88	3569.32
414.07	3590.38
414.26	3592.72
414.45	3770.60
414.64	3620.81
414.83	3831.46
415.02	3812.73
415.22	3758.90
415.41	3829.12
415.60	3801.03
415.79	3911.04
415.98	3913.38
416.17	3969.55
416.36	3911.04
416.55	3992.95
416.74	4018.70
416.93	4028.06
417.12	4182.54
417.31	4163.81
417.50	4173.18
417.69	4365.10
417.88	4215.30
418.07	4231.69
418.26	4421.27
418.45	4301.90
418.64	4440.00
418.83	4507.87
419.02	4458.72
419.21	4645.96
419.39	4521.92
419.58	4425.95
419.77	4540.64
419.96	4606.17
420.15	4620.22
420.34	4601.49
420.53	4767.67
420.72	4842.57
420.91	4814.48
421.10	4812.14
421.29	4784.06
421.48	4662.35
421.67	4772.35
421.86	4685.75
422.05	4737.24
422.24	4873.00
422.43	4896.40
422.61	4868.31
422.80	4779.37
422.99	4842.57
423.18	4919.81
423.37	4947.89
423.56	4999.38
423.75	4922.15
423.94	4814.48
424.13	4662.35
424.32	4683.41
424.50	5004.07
424.69	4973.64
424.88	5043.85
425.07	4901.08
425.26	4837.89
425.45	4990.02
425.64	4968.96
425.83	4905.76
426.01	4968.96
426.20	4915.12
426.39	5114.07
426.58	5163.22
426.77	5034.49
426.96	5107.05
427.15	5142.16
427.33	5114.07
427.52	5130.45
427.71	5261.52
427.90	5153.86
428.09	5245.14
428.28	5413.66
428.46	5387.91
428.65	5320.04
428.84	5448.77
429.03	5401.96
429.22	5394.93
429.40	5467.49
429.59	5394.93
429.78	5118.75
429.97	5263.86
430.16	5430.04
430.34	5523.66
430.53	5743.67
430.72	5729.63
430.91	5666.44
431.10	5717.93
431.28	5750.70
431.47	5689.84
431.66	5841.98
431.85	5713.25
432.03	5863.04
432.22	5989.43
432.41	5905.17
432.60	5982.41
432.79	5863.04
432.97	6134.54
433.16	6073.69
433.35	5998.79
433.54	6033.90
433.72	6094.76
433.91	6164.97
434.10	6209.44
434.28	6122.84
434.47	6232.85
434.66	6267.95
434.85	6319.45
435.03	6228.17
435.22	6389.66
435.41	6410.73
435.59	6480.94
435.78	6340.51
435.97	6431.79
436.16	6352.21
436.34	6408.39
436.53	6438.81
436.72	6466.90
436.90	6319.45
437.09	6509.03
437.28	6628.40
437.46	6586.27
437.65	6665.85
437.84	6719.68
438.02	6855.43
438.21	6771.17
438.40	6656.48
438.58	7094.16
438.77	6981.82
438.96	6843.73
439.14	7073.10
439.33	7267.36
439.52	7185.44
439.70	7307.15
439.89	7295.45
440.08	7318.86
440.26	7368.01
440.45	7309.49
440.63	7337.58
440.82	7623.12
441.01	7403.11
441.19	7716.75
441.38	7812.71
441.57	7653.55
441.75	7826.75
441.94	7889.95
442.12	7925.05
442.31	7896.97
442.50	8025.70
442.68	7955.48
442.87	7852.50
443.05	8189.53
443.24	8205.92
443.43	8091.23
443.61	8140.38
443.80	8444.65
443.98	8177.83
444.17	7702.70
444.35	8273.79
444.54	8404.86
444.73	8360.39
444.91	8409.54
445.10	8259.75
445.28	8369.76
445.47	8212.94
445.65	8208.26
445.84	8395.50
446.02	8524.23
446.21	7974.21
446.39	8449.33
446.58	8723.18
446.77	8463.38
446.95	8283.16
447.14	8472.74
447.32	8669.34
447.51	8465.72
447.69	8414.23
447.88	8610.83
448.06	8528.91
448.25	8446.99
448.43	8674.03
448.62	8592.11
448.80	8627.21
448.99	8482.10
449.17	8791.05
449.36	8545.30
449.54	8732.54
449.73	8959.57
449.91	8987.66
450.10	8870.63
450.28	9153.84
450.46	9022.77
450.65	9008.72
450.83	8926.80
451.02	9011.06
451.20	9151.49
451.39	9064.89
451.57	9097.66
451.76	8938.51
451.94	9114.05
452.13	9345.76
452.31	9254.48
452.49	9102.34
452.68	9460.45
452.86	9413.63
453.05	9568.11
453.23	9514.28
453.42	9453.42
453.60	9369.16
453.78	9554.07
453.97	9455.76
454.15	9565.77
454.34	9301.29
454.52	9738.97
454.70	9722.59
454.89	9664.07
455.07	9696.84
455.26	10097.07
455.44	10153.24
455.62	9944.94
455.81	9872.38
455.99	10118.14
456.17	9935.57
456.36	10122.82
456.54	10181.33
456.73	10190.69
456.91	10520.71
457.09	10473.90
457.28	10621.35
457.46	10265.59
457.64	10609.65
457.83	10541.77
458.01	10450.49
458.19	10574.54
458.38	10607.31
458.56	10906.90
458.74	10705.61
458.93	10583.90
459.11	10628.37
459.29	10869.45
459.48	10911.58
459.66	10827.32
459.84	10979.45
460.03	11030.94
460.21	10822.64
460.39	10958.39
460.57	10972.43
460.76	11042.65
460.94	11021.58
461.12	11047.33
461.31	11201.80
461.49	11178.40
461.67	11281.38
461.85	11461.60
462.04	11445.22
462.22	11915.67
462.40	11630.12
462.59	11463.94
462.77	11506.07
462.95	11382.03
463.13	11398.41
463.32	11527.14
463.50	11751.83
463.68	11758.85
463.86	11768.21
464.05	11520.12
464.23	11644.17
464.41	11976.52
464.59	11833.75
464.78	12081.85
464.96	11906.31
465.14	11901.62
465.32	12203.55
465.50	11913.33
465.69	12233.98
465.87	12138.02
466.05	12198.87
466.23	12257.39
466.41	12109.93
466.60	12233.98
466.78	12255.04
466.96	12123.98
467.14	12311.22
467.32	12418.88
467.51	12559.31
467.69	12264.41
467.87	12355.69
468.05	12510.16
468.23	12283.13
468.41	12479.74
468.60	12636.55
468.78	12657.62
468.96	12414.20
469.14	12767.62
469.32	12854.22
469.50	12809.75
469.69	13057.85
469.87	13266.16
470.05	13259.13
470.23	13062.53
470.41	13149.13
470.59	13369.14
470.77	13397.23
470.95	13322.33
471.14	13392.55
471.32	13050.83
471.50	13617.24
471.68	13745.97
471.86	13701.50
472.04	13610.22
472.22	13776.39
472.40	13561.06
472.58	13912.14
472.77	13750.65
472.95	13963.64
473.13	14626.01
473.31	14090.02
473.49	14120.45
473.67	14146.20
473.85	14029.17
474.03	14448.13
474.21	14607.28
474.39	14616.65
474.57	14792.19
474.75	14752.40
474.93	14956.02
475.12	14902.19
475.30	14918.57
475.48	14892.83
475.66	15225.18
475.84	15187.74
476.02	15346.89
476.20	15253.27
476.38	15700.31
476.56	15969.48
476.74	15946.07
476.92	15637.12
477.10	15946.07
477.28	16285.45
477.46	15812.66
477.64	16322.90
477.82	16327.58
478.00	17001.65
478.18	16861.22
478.36	16872.92
478.54	17165.49
478.72	17191.23
478.90	17200.60
479.08	17216.98
479.26	17745.94
479.44	17738.92
479.62	17745.94
479.80	17949.57
479.98	18298.31
480.16	18537.04
480.34	18031.49
480.52	18824.93
480.70	18478.53
480.88	18298.31
481.06	18703.22
481.24	18719.60
481.41	19211.12
481.59	19403.04
481.77	19269.63
481.95	19599.65
482.13	19728.38
482.31	19576.24
482.49	20233.93
482.67	20407.13
482.85	20716.08
483.03	20723.10
483.21	20472.67
483.39	20922.05
483.57	20915.03
483.74	21116.31
483.92	21399.52
484.10	20879.92
484.28	21759.96
484.46	21853.58
484.64	22349.78
484.82	22057.21
485.00	22384.88
485.18	22939.59
485.35	23007.47
485.53	22785.12
485.71	23023.85
485.89	23702.61
486.07	23159.60
486.25	23281.31
486.43	23651.11
486.61	23960.06
486.78	24009.22
486.96	24247.95
487.14	24563.92
487.32	24348.59
487.50	24835.42
487.68	24872.87
487.85	25326.94
488.03	25359.70
488.21	25886.32
488.39	25965.90
488.57	25823.13
488.75	26150.81
488.92	26293.58
489.10	26588.49
489.28	26565.08
489.46	27112.77
489.64	26962.97
489.81	27730.67
489.99	27311.71
490.17	27693.22
490.35	28086.43
490.53	27871.10
490.70	28364.95
490.88	28215.16
491.06	28819.02
491.24	28833.06
491.41	29387.77
491.59	29149.03
491.77	29071.79
491.95	29193.50
492.13	29579.69
492.30	29909.71
492.48	29888.64
492.66	30363.77
492.84	30459.73
493.01	30675.06
493.19	30316.96
493.37	31094.02
493.54	30874.01
493.72	31339.77
493.90	31330.41
494.08	31658.09
494.25	32170.66
494.43	32077.04
494.61	31999.80
494.79	32624.73
494.96	32435.14
495.14	32629.41
495.32	33188.80
495.49	33015.60
495.67	33406.47
495.85	33275.40
496.02	33621.80
496.20	33766.91
496.38	33893.30
496.55	34223.31
496.73	34696.10
496.91	34382.47
497.09	34635.25
497.26	35377.20
497.44	34953.56
497.62	35236.77
497.79	35424.01
497.97	35622.95
498.14	36411.71
498.32	35662.74
498.50	36243.20
498.67	36615.34
498.85	36247.88
499.03	36561.51
499.20	36680.88
499.38	36617.68
499.56	36931.31
499.73	37266.01
499.91	36924.29
500.08	37514.11
500.26	37212.18
500.44	37867.53
500.61	37415.80
500.79	38136.69
500.97	37773.91
501.14	38223.29
501.32	38401.17
501.49	38162.43
501.67	38555.64
501.84	39260.15
502.02	38815.44
502.20	39143.12
502.37	39311.64
502.55	39262.49
502.72	39800.81
502.90	39842.94
503.07	39426.32
503.25	39620.59
503.43	39672.08
503.60	39966.99
503.78	40383.60
503.95	40165.93
504.13	40615.32
504.30	40690.21
504.48	40657.45
504.65	41081.08
504.83	41127.89
505.01	41537.49
505.18	41296.41
505.36	41476.63
505.53	41146.62
505.71	41586.64
505.88	41570.25
506.06	41511.74
506.23	41729.41
506.41	41736.43
506.58	41841.76
506.76	41989.21
506.93	42061.77
507.11	42092.19
507.28	42801.38
507.46	42555.62
507.63	42855.21
507.81	43185.22
507.98	42806.06
508.16	43049.47
508.33	43384.17
508.50	43473.11
508.68	43402.89
508.85	43658.01
509.03	44102.71
509.20	44116.76
509.38	44095.69
509.55	44109.74
509.73	44514.65
509.90	44542.74
510.08	44779.13
510.25	44772.11
510.42	44676.15
510.60	45071.70
510.77	45237.87
510.95	45752.79
511.12	45160.64
511.30	45483.63
511.47	45312.77
511.64	45170.00
511.82	45443.84
511.99	45844.07
512.17	45958.76
512.34	45633.42
512.51	46518.15
512.69	46405.80
512.86	46213.88
513.04	47002.64
513.21	45996.21
513.38	47030.72
513.56	47239.03
513.73	46770.93
513.90	47147.75
514.08	46894.97
514.25	47157.11
514.43	47168.82
514.60	47072.85
514.77	47463.72
514.95	47550.32
515.12	47416.91
515.29	47402.87
515.47	48002.05
515.64	48184.61
515.81	47821.83
515.99	47957.58
516.16	48336.74
516.33	48208.01
516.51	48231.42
516.68	48332.06
516.85	48215.04
517.03	48821.23
517.20	48973.37
517.37	48456.11
517.54	48603.56
517.72	49062.31
517.89	48985.07
518.06	49406.37
518.24	49106.78
518.41	48797.83
518.58	49413.39
518.75	49102.10
518.93	49729.36
519.10	49478.92
519.27	49818.30
519.45	49354.88
519.62	49958.73
519.79	49724.68
519.96	50246.62
520.14	49930.65
520.31	49872.14
520.48	50410.46
520.65	50281.73
520.83	50703.03
521.00	50562.59
521.17	50454.93
521.34	50806.01
521.52	50728.77
521.69	50796.65
521.86	50497.06
522.03	51065.81
522.20	51213.26
522.38	51269.43
522.55	51346.67
522.72	51112.62
522.89	51262.41
523.07	51536.26
523.24	51812.44
523.41	51728.18
523.58	51203.90
523.75	51997.34
523.92	51805.42
524.10	52058.20
524.27	52046.49
524.44	52119.05
524.61	52149.48
524.78	52446.72
524.96	52308.63
525.13	52257.14
525.30	52383.53
525.47	52507.58
525.64	52114.37
525.81	52772.06
525.98	52711.20
526.16	52428.00
526.33	52687.80
526.50	52968.66
526.67	52603.54
526.84	52882.06
527.01	52816.53
527.18	52673.76
527.36	53186.33
527.53	52975.69
527.70	53183.99
527.87	53301.02
528.04	53066.97
528.21	53352.51
528.38	53235.48
528.55	53743.38
528.72	53607.63
528.89	53268.25
529.07	53240.17
529.24	53593.59
529.41	53717.64
529.58	53825.30
529.75	53570.18
529.92	53764.45
530.09	53834.66
530.26	54017.22
530.43	54024.25
530.60	53867.43
530.77	53715.29
530.94	53918.92
531.11	54042.97
531.28	54466.61
531.46	54340.22
531.63	54265.32
531.80	54103.82
531.97	54349.58
532.14	54410.43
532.31	54403.41
532.48	54504.06
532.65	54719.38
532.82	54141.27
532.99	54958.12
533.16	54569.59
533.33	54602.36
533.50	54848.11
533.67	54815.35
533.84	54600.02
534.01	55004.93
534.18	55018.97
534.35	55313.88
534.52	54960.46
534.69	55035.36
534.86	55241.32
535.03	54784.92
535.20	55147.70
535.37	55334.95
535.54	55304.52
535.71	55227.28
535.88	55348.99
536.05	55199.19
536.22	55627.51
536.38	55238.98
536.55	55533.89
536.72	55632.19
536.89	55463.67
537.06	55515.17
537.23	55618.15
537.40	55533.89
537.57	55723.47
537.74	55374.73
537.91	56039.45
538.08	55906.04
538.25	55571.34
538.42	55751.56
538.59	56161.15
538.75	55643.90
538.92	56154.13
539.09	56144.77
539.26	55924.76
539.43	56023.06
539.60	56259.46
539.77	56142.43
539.94	56320.31
540.11	56198.60
540.28	56264.14
540.44	56500.53
540.61	56383.51
540.78	56409.25
540.95	56397.55
541.12	56163.50
541.29	56406.91
541.46	56332.01
541.62	56715.86
541.79	56594.15
541.96	56446.70
542.13	56687.78
542.30	56535.64
542.47	56722.88
542.63	56680.75
542.80	56746.29
542.97	56914.81
543.14	57092.69
543.31	57036.51
543.48	57034.17
543.64	57345.47
543.81	57347.81
543.98	57092.69
544.15	57139.50
544.32	57270.57
544.48	57521.01
544.65	57291.63
544.82	57275.25
544.99	57329.08
545.16	57446.11
545.32	57471.85
545.49	57652.08
545.66	57581.86
545.83	57532.71
546.00	57710.59
546.16	57291.63
546.33	57640.37
546.50	57450.79
546.67	57530.37
546.83	57364.19
547.00	57513.98
547.17	57645.05
547.34	57914.22
547.50	57989.11
547.67	57895.49
547.84	57935.28
548.00	58171.67
548.17	58087.42
548.34	57970.39
548.51	58075.71
548.67	58129.54
548.84	58024.22
549.01	57949.32
549.18	57954.00
549.34	58302.74
549.51	58166.99
549.68	58347.21
549.84	58206.78
550.01	58422.11
550.18	58499.35
550.34	58260.62
550.51	58351.90
550.68	58199.76
550.84	58178.70
551.01	58424.45
551.18	58417.43
551.34	58405.73
551.51	58665.53
551.68	58679.57
551.84	58356.58
552.01	58394.03
552.18	58738.08
552.34	58501.69
552.51	58710.00
552.68	58482.97
552.84	58578.93
553.01	58876.18
553.18	58836.39
553.34	58815.32
553.51	58590.63
553.67	58810.64
553.84	58843.41
554.01	58824.68
554.17	58930.01
554.34	58997.88
554.51	58960.44
554.67	58967.46
554.84	59040.01
555.00	58960.44
555.17	58988.52
555.33	58745.11
555.50	58988.52
555.67	58972.14
555.83	58885.54
556.00	59264.70
556.16	59451.95
556.33	59260.02
556.50	59192.15
556.66	59253.00
556.83	59238.96
556.99	59206.19
557.16	59456.63
557.32	59517.48
557.49	59601.74
557.65	59119.59
557.82	59292.79
557.98	59210.87
558.15	59320.88
558.32	59388.75
558.48	59274.07
558.65	59355.99
558.81	59456.63
558.98	59447.27
559.14	59458.97
559.31	59723.45
559.47	59662.60
559.64	59784.30
559.80	59583.02
559.97	59772.60
560.13	59597.06
560.30	59501.10
560.46	59774.94
560.63	59716.43
560.79	59810.05
560.96	60001.97
561.12	59854.52
561.29	59943.46
561.45	59718.77
561.61	59770.26
561.78	59758.56
561.94	59718.77
562.11	59662.60
562.27	59913.03
562.44	60032.40
562.60	59709.41
562.77	59936.44
562.93	59898.99
563.10	60144.75
563.26	59880.27
563.42	60053.47
563.59	59889.63
563.75	59934.10
563.92	59992.61
564.08	60074.53
564.24	60111.98
564.41	60231.35
564.57	60037.08
564.74	60182.19
564.90	60233.69
565.07	60046.44
565.23	59994.95
565.39	60060.49
565.56	60149.43
565.72	60184.54
565.88	60093.25
566.05	60245.39
566.21	60170.49
566.38	60308.58
566.54	60172.83
566.70	60322.63
566.87	60392.84
567.03	60135.38
567.19	60430.29
567.36	60233.69
567.52	60350.71
567.68	60449.02
567.85	60430.29
568.01	60229.01
568.17	60196.24
568.34	60158.79
568.50	60308.58
568.66	60336.67
568.83	60463.06
568.99	60603.49
569.15	60357.74
569.32	60313.26
569.48	60158.79
569.64	60589.45
569.81	60331.99
569.97	60252.41
570.13	60451.36
570.30	60285.18
570.46	60404.55
570.62	60416.25
570.78	60568.38
570.95	60271.14
571.11	60860.95
571.27	60432.63
571.43	60519.23
571.60	60636.26
571.76	60491.15
571.92	60467.74
572.09	60584.77
572.25	60451.36
572.41	60612.85
572.57	60577.75
572.74	60823.50
572.90	60458.38
573.06	60523.91
573.22	60559.02
573.38	60460.72
573.55	60552.00
573.71	60669.03
573.87	60645.62
574.03	60603.49
574.20	60844.57
574.36	60516.89
574.52	60629.24
574.68	60743.92
574.84	60732.22
575.01	60673.71
575.17	60781.37
575.33	60582.43
575.49	60580.09
575.65	60725.20
575.82	60910.10
575.98	60652.64
576.14	60788.39
576.30	60914.78
576.46	60694.77
576.62	60694.77
576.79	60589.45
576.95	60591.79
577.11	60697.11
577.27	60790.73
577.43	60821.16
577.59	60640.94
577.75	60561.36
577.92	60512.21
578.08	60736.90
578.24	60849.25
578.40	61022.45
578.56	60954.57
578.72	60764.99
578.88	60818.82
579.04	60996.70
579.21	60800.10
579.37	61104.37
579.53	61055.21
579.69	60584.77
579.85	60788.39
580.01	60465.40
580.17	60423.27
580.33	60903.08
580.49	61029.47
580.65	60734.56
580.82	60720.52
580.98	60694.77
581.14	60825.84
581.30	60970.96
581.46	60795.42
581.62	60891.38
581.78	60750.94
581.94	61113.73
582.10	60793.07
582.26	60921.80
582.42	60804.78
582.58	60963.93
582.74	60914.78
582.90	60741.58
583.06	60837.54
583.22	60605.83
583.38	60992.02
583.54	60748.60
583.70	60928.83
583.86	60952.23
584.02	60926.49
584.18	61071.60
584.34	61020.11
584.50	60842.23
584.66	60856.27
584.82	60769.67
584.98	61120.75
585.14	61113.73
585.30	60860.95
585.46	61118.41
585.62	60996.70
585.78	61116.07
585.94	60912.44
586.10	60933.51
586.26	61123.09
586.42	60977.98
586.58	61073.94
586.74	60907.76
586.90	61104.37
587.06	60959.25
587.22	60977.98
587.38	61043.51
587.54	61055.21
587.70	61237.78
587.86	61146.50
588.02	61080.96
588.18	61137.13
588.34	60996.70
588.49	60987.34
