SpectraSuite Data File
++++++++++++++++++++++++++++++++++++
Date: Fri Oct 25 10:47:47 EDT 2013
User: price-jones
Dark Spectrum Present: No
Reference Spectrum Present: No
Number of Sampled Component Spectra: 1
Spectrometers: USB2+H05261
Integration Time (usec): 100000 (USB2+H05261)
Spectra Averaged: 1 (USB2+H05261)
Boxcar Smoothing: 0 (USB2+H05261)
Correct for Electrical Dark: No (USB2+H05261)
Strobe/Lamp Enabled: No (USB2+H05261)
Correct for Detector Non-linearity: No (USB2+H05261)
Correct for Stray Light: No (USB2+H05261)
Number of Pixels in Processed Spectrum: 2048
>>>>>Begin Processed Spectral Data<<<<<
365.73	121.71
365.92	121.71
366.12	121.71
366.32	102.98
366.52	30.43
366.72	11.70
366.91	30.43
367.11	46.81
367.31	0.00
367.51	100.64
367.70	81.92
367.90	28.09
368.10	18.72
368.30	56.17
368.49	0.00
368.69	98.30
368.89	88.94
369.09	105.32
369.28	135.75
369.48	42.13
369.68	65.54
369.87	112.35
370.07	95.96
370.27	79.58
370.47	159.16
370.66	430.66
370.86	416.62
371.06	386.19
371.25	421.30
371.45	449.38
371.65	468.11
371.84	477.47
372.04	390.87
372.24	486.83
372.44	418.96
372.63	456.40
372.83	482.15
373.03	484.49
373.22	456.40
373.42	538.32
373.62	547.69
373.81	566.41
374.01	528.96
374.21	578.11
374.40	454.06
374.60	561.73
374.79	622.58
374.99	547.69
375.19	552.37
375.38	510.24
375.58	568.75
375.78	582.79
375.97	557.05
376.17	573.43
376.37	601.52
376.56	571.09
376.76	585.13
376.95	627.26
377.15	662.37
377.35	608.54
377.54	587.47
377.74	641.31
377.93	615.56
378.13	638.97
378.33	678.76
378.52	608.54
378.72	674.07
378.91	688.12
379.11	627.26
379.31	606.20
379.50	564.07
379.70	667.05
379.89	645.99
380.09	660.03
380.28	643.65
380.48	697.48
380.68	631.94
380.87	610.88
381.07	674.07
381.26	709.18
381.46	641.31
381.65	739.61
381.85	753.65
382.04	695.14
382.24	699.82
382.43	685.78
382.63	643.65
382.83	664.71
383.02	753.65
383.22	720.88
383.41	674.07
383.61	720.88
383.80	741.95
384.00	753.65
384.19	758.33
384.39	758.33
384.58	711.52
384.78	746.63
384.97	746.63
385.17	758.33
385.36	889.40
385.56	699.82
385.75	648.33
385.95	793.44
386.14	774.72
386.34	809.83
386.53	793.44
386.72	793.44
386.92	863.66
387.11	847.27
387.31	844.93
387.50	819.19
387.70	765.36
387.89	889.40
388.09	844.93
388.28	814.51
388.48	798.12
388.67	866.00
388.86	837.91
389.06	816.85
389.25	875.36
389.45	835.57
389.64	938.55
389.84	931.53
390.03	873.02
390.22	926.85
390.42	866.00
390.61	908.13
390.81	1029.84
391.00	1020.47
391.19	957.28
391.39	987.71
391.58	961.96
391.78	1046.22
391.97	1029.84
392.16	919.83
392.36	1036.86
392.55	959.62
392.75	947.92
392.94	936.21
393.13	1011.11
393.33	898.77
393.52	1041.54
393.71	938.55
393.91	1041.54
394.10	983.02
394.29	1041.54
394.49	1083.67
394.68	1090.69
394.88	1132.82
395.07	1109.41
395.26	1039.20
395.46	1191.33
395.65	1142.18
395.84	1078.99
396.04	1188.99
396.23	1139.84
396.42	1097.71
396.62	1144.52
396.81	1170.27
397.00	1160.91
397.19	1074.31
397.39	1233.46
397.58	1247.51
397.77	1231.12
397.97	1259.21
398.16	1301.34
398.35	1355.17
398.55	1313.04
398.74	1303.68
398.93	1430.07
399.12	1355.17
399.32	1345.81
399.51	1359.85
399.70	1383.26
399.90	1411.34
400.09	1409.00
400.28	1352.83
400.47	1502.62
400.67	1425.39
400.86	1352.83
401.05	1479.22
401.24	1481.56
401.44	1542.41
401.63	1458.15
401.82	1462.83
402.01	1511.99
402.21	1544.75
402.40	1502.62
402.59	1600.93
402.78	1528.37
402.97	1554.12
403.17	1598.59
403.36	1584.54
403.55	1598.59
403.74	1708.59
403.93	1664.12
404.13	1671.14
404.32	1629.01
404.51	1633.69
404.70	1650.08
404.89	1610.29
405.09	1827.96
405.28	1783.49
405.47	1736.68
405.66	1750.72
405.85	1717.95
406.05	1741.36
406.24	1870.09
406.43	1823.28
406.62	1842.00
406.81	1912.22
407.00	1717.95
407.20	1832.64
407.39	1851.36
407.58	1898.17
407.77	1984.77
407.96	1970.73
408.15	1949.67
408.34	2008.18
408.54	2005.84
408.73	2090.10
408.92	1942.64
409.11	2106.48
409.30	1996.48
409.49	1982.43
409.68	1980.09
409.87	2087.76
410.07	2094.78
410.26	2083.08
410.45	2127.55
410.64	2148.61
410.83	2223.51
411.02	2179.04
411.21	2242.23
411.40	2223.51
411.59	2366.28
411.78	2167.34
411.98	2289.04
412.17	2291.38
412.36	2270.32
412.55	2319.47
412.74	2293.72
412.93	2401.39
413.12	2469.27
413.31	2588.63
413.50	2504.37
413.69	2593.31
413.88	2602.68
414.07	2562.89
414.26	2647.15
414.45	2534.80
414.64	2642.46
414.83	2630.76
415.02	2717.36
415.22	2738.43
415.41	2738.43
415.60	2771.19
415.79	2803.96
415.98	2930.35
416.17	2878.86
416.36	2876.52
416.55	2825.03
416.74	2930.35
416.93	2871.84
417.12	2932.69
417.31	3173.77
417.50	2869.50
417.69	3087.17
417.88	2988.86
418.07	3042.70
418.26	3019.29
418.45	3016.95
418.64	3124.62
418.83	3122.27
419.02	3155.04
419.21	3176.11
419.39	3316.54
419.58	3222.92
419.77	3077.80
419.96	3220.58
420.15	3302.50
420.34	3229.94
420.53	3295.47
420.72	3442.93
420.91	3534.21
421.10	3300.16
421.29	3485.06
421.48	3365.69
421.67	3503.78
421.86	3452.29
422.05	3480.38
422.24	3431.23
422.43	3471.01
422.61	3609.11
422.80	3655.92
422.99	3510.80
423.18	3630.17
423.37	3527.19
423.56	3550.59
423.75	3630.17
423.94	3424.20
424.13	3339.94
424.32	3456.97
424.50	3585.70
424.69	3590.38
424.88	3620.81
425.07	3536.55
425.26	3447.61
425.45	3536.55
425.64	3480.38
425.83	3559.95
426.01	3698.05
426.20	3524.85
426.39	3541.23
426.58	3520.17
426.77	3595.06
426.96	3784.65
427.15	3609.11
427.33	3878.27
427.52	3611.45
427.71	3618.47
427.90	3754.22
428.09	3838.48
428.28	3768.26
428.46	3695.71
428.65	3691.02
428.84	3913.38
429.03	3824.44
429.22	3644.21
429.40	3845.50
429.59	3805.71
429.78	3684.00
429.97	3590.38
430.16	3646.55
430.34	3770.60
430.53	3854.86
430.72	3845.50
430.91	3957.85
431.10	3873.59
431.28	4053.81
431.47	4177.86
431.66	4107.64
431.85	4074.87
432.03	4046.79
432.22	4269.14
432.41	4086.58
432.60	4266.80
432.79	4344.03
432.97	4222.33
433.16	4205.94
433.35	4219.99
433.54	4404.89
433.72	4320.63
433.91	4346.37
434.10	4435.32
434.28	4379.14
434.47	4400.21
434.66	4479.79
434.85	4255.09
435.03	4578.09
435.22	4503.19
435.41	4741.93
435.59	4582.77
435.78	4681.07
435.97	4624.90
436.16	4538.30
436.34	4535.96
436.53	4807.46
436.72	4793.42
436.90	4477.44
437.09	4580.43
437.28	4526.60
437.46	4746.61
437.65	4669.37
437.84	4826.18
438.02	4833.21
438.21	4788.74
438.40	4744.27
438.58	4910.44
438.77	4861.29
438.96	4926.83
439.14	4973.64
439.33	4968.96
439.52	5149.18
439.70	5118.75
439.89	5177.26
440.08	5160.88
440.26	5186.63
440.45	5137.48
440.63	5226.42
440.82	5472.17
441.01	5343.44
441.19	5401.96
441.38	5408.98
441.57	5341.10
441.75	5479.19
441.94	5556.43
442.12	5568.13
442.31	5593.88
442.50	5785.80
442.68	5565.79
442.87	5628.99
443.05	5535.37
443.24	5767.08
443.43	5851.34
443.61	5722.61
443.80	5767.08
443.98	5823.25
444.17	5549.41
444.35	5757.72
444.54	5980.07
444.73	5799.85
444.91	5914.53
445.10	5867.72
445.28	5816.23
445.47	5795.17
445.65	5783.46
445.84	5816.23
446.02	5991.77
446.21	5888.79
446.39	5830.27
446.58	6029.22
446.77	5923.90
446.95	5755.38
447.14	5937.94
447.32	6061.99
447.51	6061.99
447.69	5912.19
447.88	5872.40
448.06	5933.26
448.25	6022.20
448.43	6022.20
448.62	6134.54
448.80	5989.43
448.99	6019.86
449.17	6071.35
449.36	6050.28
449.54	6181.35
449.73	6195.40
449.91	6303.06
450.10	6310.08
450.28	6539.46
450.46	6462.22
450.65	6452.86
450.83	6342.85
451.02	6406.05
451.20	6429.45
451.39	6476.26
451.57	6361.58
451.76	6314.77
451.94	6478.60
452.13	6583.93
452.31	6736.06
452.49	6443.49
452.68	6457.54
452.86	6572.22
453.05	6490.31
453.23	6670.53
453.42	6544.14
453.60	6518.39
453.78	6780.53
453.97	6520.73
454.15	6457.54
454.34	6731.38
454.52	6827.34
454.70	6808.62
454.89	6644.78
455.07	6909.26
455.26	6675.21
455.44	6878.83
455.62	6935.01
455.81	6965.43
455.99	6925.65
456.17	7288.43
456.36	7073.10
456.54	7190.13
456.73	7108.21
456.91	7208.85
457.09	7368.01
457.28	7466.31
457.46	7363.33
457.64	7412.48
457.83	7218.21
458.01	7241.62
458.19	7499.08
458.38	7492.05
458.56	7403.11
458.74	7414.82
458.93	7431.20
459.11	7485.03
459.29	7365.67
459.48	7604.40
459.66	7506.10
459.84	7641.85
460.03	7646.53
460.21	7662.91
460.39	7555.25
460.57	7543.55
460.76	7611.42
460.94	7705.04
461.12	7824.41
461.31	7922.71
461.49	7756.54
461.67	7864.20
461.85	8105.28
462.04	7906.33
462.22	8461.04
462.40	8028.04
462.59	8112.30
462.77	8088.89
462.95	8035.06
463.13	8035.06
463.32	8084.21
463.50	7990.59
463.68	7981.23
463.86	8222.30
464.05	7899.31
464.23	7962.50
464.41	8294.86
464.59	7967.18
464.78	8194.22
464.96	8238.69
465.14	8081.87
465.32	8362.73
465.50	8564.02
465.69	8458.70
465.87	8280.82
466.05	8423.59
466.23	8257.41
466.41	8484.44
466.60	8454.02
466.78	8226.98
466.96	8304.22
467.14	8463.38
467.32	8390.82
467.51	8744.24
467.69	8236.35
467.87	8519.55
468.05	8505.51
468.23	8559.34
468.41	8493.80
468.60	8603.81
468.78	8711.47
468.96	8451.67
469.14	8655.30
469.32	8882.33
469.50	8805.10
469.69	8716.16
469.87	8954.89
470.05	8908.08
470.23	8910.42
470.41	9008.72
470.59	9109.36
470.77	9109.36
470.95	8933.82
471.14	9289.59
471.32	8968.93
471.50	9259.16
471.68	9338.74
471.86	9273.20
472.04	9298.95
472.22	9790.46
472.40	9312.99
472.58	9348.10
472.77	9430.02
472.95	9586.83
473.13	9813.87
473.31	9598.54
473.49	9657.05
473.67	9558.75
473.85	9661.73
474.03	9994.09
474.21	9947.28
474.39	9989.41
474.57	9928.55
474.75	10146.22
474.93	10106.43
475.12	10223.46
475.30	10331.12
475.48	10310.06
475.66	10277.29
475.84	10197.71
476.02	10382.62
476.20	10324.10
476.38	10459.85
476.56	11007.54
476.74	10888.17
476.92	10747.74
477.10	10684.55
477.28	11126.91
477.46	11035.63
477.64	11171.38
477.82	11314.15
478.00	11311.81
478.18	11321.17
478.36	11419.47
478.54	11791.62
478.72	11775.24
478.90	11714.38
479.08	11667.57
479.26	12063.12
479.44	12205.89
479.62	12051.42
479.80	12154.40
479.98	12170.79
480.16	12439.95
480.34	12231.64
480.52	12449.31
480.70	12580.38
480.88	12334.62
481.06	12624.85
481.24	12748.90
481.41	12744.22
481.59	13090.62
481.77	13135.09
481.95	13146.79
482.13	13284.88
482.31	13238.07
482.49	13673.41
482.67	13408.93
482.85	13685.11
483.03	13820.86
483.21	13830.23
483.39	13961.30
483.57	14036.19
483.74	14485.58
483.92	14085.34
484.10	14232.80
484.28	14417.70
484.46	14984.11
484.64	15054.33
484.82	14555.79
485.00	14923.26
485.18	15288.38
485.35	15068.37
485.53	14778.14
485.71	14827.29
485.89	15040.28
486.07	15051.99
486.25	15335.19
486.43	15501.37
486.61	15529.45
486.78	15962.45
486.96	16339.28
487.14	16346.30
487.32	16444.60
487.50	16442.26
487.68	16816.75
487.85	16851.86
488.03	16751.21
488.21	17186.55
488.39	17165.49
488.57	16966.54
488.75	17195.92
488.92	17556.36
489.10	17633.60
489.28	17755.30
489.46	17865.31
489.64	17888.71
489.81	18520.66
489.99	18455.12
490.17	18445.76
490.35	18780.46
490.53	18965.36
490.70	19044.94
490.88	18953.66
491.06	19178.35
491.24	18853.02
491.41	19435.81
491.59	19295.38
491.77	19419.42
491.95	19681.56
492.13	19920.30
492.30	19580.92
492.48	19632.41
492.66	19616.03
492.84	20365.00
493.01	20280.74
493.19	20362.66
493.37	20456.28
493.54	20318.19
493.72	20879.92
493.90	20865.88
494.08	20971.20
494.25	21469.73
494.43	21434.63
494.61	21689.74
494.79	21481.44
494.96	21514.20
495.14	21584.42
495.32	21649.96
495.49	21617.19
495.67	22127.42
495.85	22029.12
496.02	22340.41
496.20	22513.61
496.38	22553.40
496.55	22700.86
496.73	22888.10
496.91	23063.64
497.09	22911.50
497.26	23005.13
497.44	22939.59
497.62	23173.64
497.79	23473.23
497.97	23304.71
498.14	23683.88
498.32	23690.90
498.50	23793.89
498.67	24025.60
498.85	23686.22
499.03	24474.98
499.20	24318.17
499.38	24308.80
499.56	24566.26
499.73	24032.62
499.91	24732.44
500.08	24809.68
500.26	24709.04
500.44	24650.52
500.61	24718.40
500.79	24856.49
500.97	24687.97
501.14	25263.74
501.32	25462.69
501.49	25212.25
501.67	25294.17
501.84	25699.08
502.02	25326.94
502.20	25652.27
502.37	25881.64
502.55	25376.09
502.72	25846.54
502.90	25996.33
503.07	26022.08
503.25	26174.21
503.43	26188.25
503.60	26197.62
503.78	26120.38
503.95	26178.89
504.13	26457.42
504.30	26534.65
504.48	26771.05
504.65	26607.21
504.83	27255.54
505.01	27047.23
505.18	26749.98
505.36	27133.83
505.53	27379.59
505.71	27515.34
505.88	27513.00
506.06	27356.18
506.23	27735.35
506.41	27477.89
506.58	27765.78
506.76	27723.65
506.93	27903.87
507.11	28177.71
507.28	27931.95
507.46	28030.26
507.63	27735.35
507.81	28004.51
507.98	27824.29
508.16	28271.33
508.33	28414.10
508.50	28467.94
508.68	28627.09
508.85	29109.24
509.03	28758.16
509.20	29195.84
509.38	29350.32
509.55	28978.17
509.73	29350.32
509.90	29275.42
510.08	29160.73
510.25	29223.93
510.42	29383.09
510.60	29343.30
510.77	29551.60
510.95	29958.86
511.12	29352.66
511.30	29823.11
511.47	30057.16
511.64	30244.40
511.82	30300.58
511.99	29933.11
512.17	30328.66
512.34	30038.44
512.51	30347.39
512.69	30305.26
512.86	30307.60
513.04	30850.60
513.21	30752.30
513.38	30497.18
513.56	31075.29
513.73	30534.63
513.90	30682.08
514.08	31218.07
514.25	31456.80
514.43	31253.17
514.60	31058.91
514.77	30948.90
514.95	31356.16
515.12	31592.55
515.29	31344.45
515.47	31646.38
515.64	31875.76
515.81	31482.55
515.99	32011.51
516.16	31761.07
516.33	31772.77
516.51	32112.15
516.68	31718.94
516.85	31796.18
517.03	31765.75
517.20	32163.64
517.37	32278.33
517.54	32252.58
517.72	32266.63
517.89	32210.45
518.06	31840.65
518.24	32126.19
518.41	32226.84
518.58	32519.40
518.75	32943.04
518.93	32858.78
519.10	32449.19
519.27	33158.37
519.45	33067.09
519.62	33345.61
519.79	33099.86
519.96	33062.41
520.14	33537.54
520.31	33303.48
520.48	33191.14
520.65	33544.56
520.83	33827.76
521.00	33392.42
521.17	33855.85
521.34	33787.97
521.52	34141.39
521.69	34323.96
521.86	34567.37
522.03	33703.71
522.20	33928.41
522.38	34567.37
522.55	34064.16
522.72	34347.36
522.89	34162.46
523.07	34621.20
523.24	34242.04
523.41	34565.03
523.58	34696.10
523.75	35082.29
523.92	34803.77
524.10	35173.57
524.27	34756.96
524.44	35152.51
524.61	35033.14
524.78	35419.33
524.96	35367.84
525.13	35136.12
525.30	35449.75
525.47	35463.80
525.64	35416.99
525.81	35487.20
525.98	35398.26
526.16	35709.55
526.33	35512.95
526.50	35831.26
526.67	35688.49
526.84	35686.15
527.01	35145.48
527.18	35580.82
527.36	35917.86
527.53	36009.14
527.70	36226.81
527.87	36201.07
528.04	35962.33
528.21	36025.53
528.38	35943.61
528.55	35950.63
528.72	36596.62
528.89	36570.87
529.07	36720.66
529.24	36320.43
529.41	36704.28
529.58	36472.57
529.75	36371.92
529.92	36718.32
530.09	36690.24
530.26	36863.44
530.43	37036.64
530.60	36519.38
530.77	36875.14
530.94	36797.90
531.11	36842.37
531.28	36947.70
531.46	37165.37
531.63	37497.72
531.80	37359.63
531.97	37069.40
532.14	37345.59
532.31	37191.11
532.48	37387.72
532.65	37839.44
532.82	37668.58
532.99	37762.20
533.16	37806.67
533.33	37619.43
533.50	37862.85
533.67	37511.77
533.84	37830.08
534.01	38176.48
534.18	37914.34
534.35	38160.09
534.52	37862.85
534.69	38066.47
534.86	38396.49
535.03	38246.69
535.20	38314.57
535.37	38440.96
535.54	38541.60
535.71	38160.09
535.88	38417.55
536.05	38485.43
536.22	38555.64
536.38	38724.16
536.55	38675.01
536.72	38312.23
536.89	38684.37
537.06	38838.85
537.23	38778.00
537.40	39138.44
537.57	38696.08
537.74	38693.74
537.91	39077.58
538.08	39019.07
538.25	38932.47
538.42	39278.87
538.59	39400.58
538.75	38981.62
538.92	39613.57
539.09	39299.94
539.26	39196.95
539.43	39402.92
539.60	39541.01
539.77	39391.22
539.94	39503.56
540.11	39608.89
540.28	39351.43
540.44	39302.28
540.61	39529.31
540.78	39358.45
540.95	39679.10
541.12	39756.34
541.29	39391.22
541.46	39613.57
541.62	39496.54
541.79	39976.35
541.96	39515.26
542.13	39976.35
542.30	39934.22
542.47	40027.84
542.63	40093.38
542.80	40109.76
542.97	40287.64
543.14	40854.05
543.31	40591.91
543.48	40329.77
543.64	41069.38
543.81	40781.49
543.98	40472.54
544.15	40926.61
544.32	41064.70
544.48	41186.41
544.65	40708.94
544.82	40671.49
544.99	40430.41
545.16	40528.72
545.32	40641.06
545.49	41179.39
545.66	40807.24
545.83	41081.08
546.00	41383.01
546.16	40933.63
546.33	41394.71
546.50	41144.28
546.67	40996.82
546.83	40926.61
547.00	40912.56
547.17	41226.20
547.34	41471.95
547.50	41097.47
547.67	41677.92
547.84	41698.98
548.00	41736.43
548.17	41366.63
548.34	41549.19
548.51	42014.96
548.67	41612.38
548.84	41680.26
549.01	41603.02
549.18	41588.98
549.34	42026.66
549.51	41834.74
549.68	41722.39
549.84	41748.14
550.01	41895.59
550.18	41724.73
550.34	41881.55
550.51	41844.10
550.68	41968.15
550.84	41982.19
551.01	42171.77
551.18	42082.83
551.34	42288.80
551.51	42684.35
551.68	42314.55
551.84	42087.51
552.01	42171.77
552.18	42553.28
552.34	42190.50
552.51	42387.10
552.68	42583.71
552.84	42745.20
553.01	42906.70
553.18	42539.24
553.34	42188.16
553.51	42190.50
553.67	42293.48
553.84	42457.32
554.01	43000.32
554.17	42962.87
554.34	42684.35
554.51	42726.48
554.67	42497.11
554.84	42689.03
555.00	42497.11
555.17	42703.07
555.33	43449.70
555.50	42574.34
555.67	43140.75
555.83	42838.83
556.00	42703.07
556.16	43454.39
556.33	43161.82
556.50	43173.52
556.66	43391.19
556.83	42698.39
556.99	43463.75
557.16	43283.53
557.32	43398.21
557.49	43232.04
557.65	42815.42
557.82	43236.72
557.98	43370.13
558.15	43367.79
558.32	43283.53
558.48	43236.72
558.65	43395.87
558.81	43421.62
558.98	42962.87
559.14	43133.73
559.31	43171.18
559.47	43416.94
559.64	43992.71
559.80	43765.68
559.97	43505.88
560.13	43353.74
560.30	43566.73
560.46	43234.38
560.63	43674.40
560.79	43988.03
560.96	43814.83
561.12	43676.74
561.29	43791.42
561.45	43548.01
561.61	43470.77
561.78	43452.05
561.94	43524.60
562.11	43866.32
562.27	43810.15
562.44	43854.62
562.60	43995.05
562.77	43871.00
562.93	43672.06
563.10	44128.46
563.26	43540.99
563.42	43665.03
563.59	44091.01
563.75	43803.13
563.92	43969.30
564.08	43761.00
564.24	44105.06
564.41	44376.56
564.57	43803.13
564.74	44069.95
564.90	43590.14
565.07	44065.27
565.23	44233.78
565.39	43686.10
565.56	44247.83
565.72	44039.52
565.88	44034.84
566.05	44325.07
566.21	43892.07
566.38	43819.51
566.54	44140.16
566.70	44498.26
566.87	44175.27
567.03	44327.41
567.19	44505.29
567.36	44289.96
567.52	44289.96
567.68	44304.00
567.85	44196.34
568.01	44350.81
568.17	44776.79
568.34	44526.35
568.50	44430.39
568.66	44027.82
568.83	44514.65
568.99	44226.76
569.15	44170.59
569.32	44261.87
569.48	43796.10
569.64	44315.70
569.81	44697.21
569.97	44229.10
570.13	44123.78
570.30	44100.37
570.46	44163.57
570.62	44217.40
570.78	44123.78
570.95	44699.55
571.11	44552.10
571.27	44470.18
571.43	44325.07
571.60	44573.16
571.76	44449.11
571.92	44266.55
572.09	44790.83
572.25	44509.97
572.41	44390.60
572.57	44486.56
572.74	45422.78
572.90	44879.77
573.06	44325.07
573.22	44507.63
573.38	44617.63
573.55	44191.65
573.71	44467.84
573.87	44315.70
574.03	44332.09
574.20	44910.20
574.36	44556.78
574.52	44877.43
574.68	44524.01
574.84	44397.62
575.01	44353.15
575.17	44814.24
575.33	44610.61
575.49	44467.84
575.65	45043.61
575.82	44907.86
575.98	44580.18
576.14	44776.79
576.30	44334.43
576.46	44439.75
576.62	44477.20
576.79	44697.21
576.95	44168.25
577.11	44147.18
577.27	44783.81
577.43	44397.62
577.59	44692.53
577.75	44332.09
577.92	44514.65
578.08	44364.85
578.24	44264.21
578.40	44566.14
578.56	44769.77
578.72	44570.82
578.88	44758.06
579.04	44388.26
579.21	44722.96
579.37	44009.09
579.53	44622.31
579.69	44397.62
579.85	44252.51
580.01	44694.87
580.17	44989.78
580.33	44891.48
580.49	44832.96
580.65	44538.05
580.82	44800.19
580.98	44624.65
581.14	44924.24
581.30	44687.85
581.46	44828.28
581.62	44493.58
581.78	44453.79
581.94	45038.93
582.10	44851.69
582.26	45251.92
582.42	44900.84
582.58	44680.83
582.74	44687.85
582.90	44875.09
583.06	44839.98
583.22	44903.18
583.38	45134.89
583.54	44954.67
583.70	44692.53
583.86	44521.67
584.02	44332.09
584.18	44495.92
584.34	44949.99
584.50	45151.27
584.66	44404.64
584.82	44804.88
584.98	44989.78
585.14	44783.81
585.30	44706.57
585.46	44589.55
585.62	44463.16
585.78	44992.12
585.94	44261.87
586.10	44835.30
586.26	44786.15
586.42	44765.09
586.58	45074.04
586.74	44807.22
586.90	44715.93
587.06	44821.26
587.22	44886.79
587.38	44505.29
587.54	44919.56
587.70	45785.56
587.86	45237.87
588.02	44891.48
588.18	45141.91
588.34	44847.00
588.49	44603.59
588.65	44514.65
588.81	44458.48
588.97	44811.90
589.13	44830.62
589.29	44727.64
589.45	45031.91
589.61	45036.59
589.77	44847.00
589.93	45034.25
590.08	45230.85
590.24	45111.49
