SpectraSuite Data File
++++++++++++++++++++++++++++++++++++
Date: Fri Oct 25 10:48:34 EDT 2013
User: price-jones
Dark Spectrum Present: No
Reference Spectrum Present: No
Number of Sampled Component Spectra: 1
Spectrometers: USB2+H05261
Integration Time (usec): 100000 (USB2+H05261)
Spectra Averaged: 1 (USB2+H05261)
Boxcar Smoothing: 0 (USB2+H05261)
Correct for Electrical Dark: No (USB2+H05261)
Strobe/Lamp Enabled: No (USB2+H05261)
Correct for Detector Non-linearity: No (USB2+H05261)
Correct for Stray Light: No (USB2+H05261)
Number of Pixels in Processed Spectrum: 2048
>>>>>Begin Processed Spectral Data<<<<<
365.73	135.75
365.92	135.75
366.12	135.75
366.32	46.81
366.52	58.51
366.72	37.45
366.91	0.00
367.11	30.43
367.31	30.43
367.51	81.92
367.70	42.13
367.90	72.56
368.10	35.11
368.30	65.54
368.49	98.30
368.69	39.79
368.89	72.56
369.09	98.30
369.28	110.01
369.48	117.03
369.68	60.85
369.87	166.18
370.07	32.77
370.27	133.41
370.47	224.69
370.66	425.98
370.86	465.77
371.06	517.26
371.25	578.11
371.45	505.56
371.65	517.26
371.84	470.45
372.04	468.11
372.24	571.09
372.44	587.47
372.63	631.94
372.83	550.03
373.03	547.69
373.22	535.98
373.42	592.16
373.62	543.00
373.81	650.67
374.01	660.03
374.21	622.58
374.40	594.50
374.60	645.99
374.79	603.86
374.99	596.84
375.19	507.90
375.38	589.82
375.58	650.67
375.78	674.07
375.97	638.97
376.17	629.60
376.37	667.05
376.56	662.37
376.76	667.05
376.95	620.24
377.15	650.67
377.35	620.24
377.54	678.76
377.74	699.82
377.93	704.50
378.13	746.63
378.33	737.27
378.52	732.59
378.72	765.36
378.91	755.99
379.11	622.58
379.31	692.80
379.50	655.35
379.70	784.08
379.89	770.04
380.09	755.99
380.28	711.52
380.48	767.70
380.68	809.83
380.87	730.25
381.07	730.25
381.26	770.04
381.46	828.55
381.65	779.40
381.85	833.23
382.04	713.86
382.24	734.93
382.43	821.53
382.63	819.19
382.83	753.65
383.02	788.76
383.22	830.89
383.41	681.10
383.61	847.27
383.80	901.11
384.00	826.21
384.19	858.98
384.39	814.51
384.58	809.83
384.78	826.21
384.97	858.98
385.17	887.06
385.36	819.19
385.56	858.98
385.75	786.42
385.95	873.02
386.14	891.74
386.34	854.30
386.53	816.85
386.72	919.83
386.92	905.79
387.11	891.74
387.31	1011.11
387.50	964.30
387.70	901.11
387.89	880.04
388.09	919.83
388.28	1006.43
388.48	959.62
388.67	938.55
388.86	1001.75
389.06	994.73
389.25	1020.47
389.45	1008.77
389.64	990.05
389.84	1048.56
390.03	1114.10
390.22	1121.12
390.42	1107.07
390.61	1062.60
390.81	1137.50
391.00	1004.09
391.19	1123.46
391.39	1078.99
391.58	1088.35
391.78	1156.22
391.97	1086.01
392.16	1043.88
392.36	1121.12
392.55	1081.33
392.75	1053.24
392.94	1111.75
393.13	1034.52
393.33	1025.15
393.52	1055.58
393.71	1172.61
393.91	1149.20
394.10	1146.86
394.29	1212.40
394.49	1212.40
394.68	1275.59
394.88	1291.98
395.07	1284.95
395.26	1277.93
395.46	1263.89
395.65	1303.68
395.84	1308.36
396.04	1212.40
396.23	1226.44
396.42	1242.82
396.62	1238.14
396.81	1308.36
397.00	1254.53
397.19	1413.68
397.39	1385.60
397.58	1432.41
397.77	1404.32
397.97	1448.79
398.16	1500.28
398.35	1516.67
398.55	1514.33
398.74	1469.86
398.93	1558.80
399.12	1558.80
399.32	1540.07
399.51	1666.46
399.70	1647.74
399.90	1568.16
400.09	1650.08
400.28	1631.35
400.47	1645.40
400.67	1631.35
400.86	1643.06
401.05	1842.00
401.24	1701.57
401.44	1849.02
401.63	1753.06
401.82	1811.57
402.01	1795.19
402.21	1914.56
402.40	1717.95
402.59	1858.39
402.78	1877.11
402.97	1879.45
403.17	1947.33
403.36	1778.81
403.55	1884.13
403.74	1973.07
403.93	1877.11
404.13	2026.90
404.32	1989.46
404.51	1989.46
404.70	2012.86
404.89	2052.65
405.09	2003.50
405.28	2036.27
405.47	2092.44
405.66	2083.08
405.85	2029.24
406.05	2008.18
406.24	2022.22
406.43	2040.95
406.62	2167.34
406.81	2232.87
407.00	2073.71
407.20	2104.14
407.39	2207.13
407.58	2221.17
407.77	2258.62
407.96	2321.81
408.15	2286.70
408.34	2275.00
408.54	2342.88
408.73	2333.51
408.92	2450.54
409.11	2394.37
409.30	2399.05
409.49	2380.32
409.68	2275.00
409.87	2347.56
410.07	2333.51
410.26	2478.63
410.45	2509.05
410.64	2511.39
410.83	2595.65
411.02	2771.19
411.21	2717.36
411.40	2693.96
411.59	2743.11
411.78	2825.03
411.98	2661.19
412.17	2682.25
412.36	2782.90
412.55	2745.45
412.74	2958.44
412.93	2916.31
413.12	2754.81
413.31	3016.95
413.50	2972.48
413.69	2972.48
413.88	3089.51
414.07	3042.70
414.26	2963.12
414.45	3049.72
414.64	3094.19
414.83	3239.30
415.02	3260.37
415.22	3103.55
415.41	3248.66
415.60	3274.41
415.79	3187.81
415.98	3534.21
416.17	3330.58
416.36	3328.24
416.55	3379.73
416.74	3356.33
416.93	3295.47
417.12	3267.39
417.31	3389.10
417.50	3407.82
417.69	3705.07
417.88	3571.66
418.07	3431.23
418.26	3646.55
418.45	3576.34
418.64	3681.66
418.83	3805.71
419.02	3688.68
419.21	3604.42
419.39	3632.51
419.58	3712.09
419.77	3772.94
419.96	3742.52
420.15	3904.01
420.34	3845.50
420.53	3864.22
420.72	4126.36
420.91	3943.80
421.10	4067.85
421.29	3995.29
421.48	4018.70
421.67	3978.91
421.86	4044.45
422.05	4035.08
422.24	3801.03
422.43	4049.13
422.61	4053.81
422.80	4063.17
422.99	4058.49
423.18	4142.75
423.37	4145.09
423.56	4117.00
423.75	4229.35
423.94	3920.40
424.13	3920.40
424.32	3857.20
424.50	4037.42
424.69	4180.20
424.88	4194.24
425.07	4065.51
425.26	4107.64
425.45	4152.11
425.64	4180.20
425.83	4147.43
426.01	4292.54
426.20	4280.84
426.39	4009.34
426.58	4063.17
426.77	4063.17
426.96	4173.18
427.15	4194.24
427.33	4381.48
427.52	4315.95
427.71	4238.71
427.90	4262.12
428.09	4252.75
428.28	4306.59
428.46	4318.29
428.65	4084.23
428.84	4482.13
429.03	4404.89
429.22	4329.99
429.40	4248.07
429.59	4198.92
429.78	4175.52
429.97	3964.87
430.16	4227.01
430.34	4280.84
430.53	4418.93
430.72	4229.35
430.91	4512.55
431.10	4395.53
431.28	4634.26
431.47	4894.06
431.66	4765.33
431.85	4737.24
432.03	4781.71
432.22	4901.08
432.41	4753.63
432.60	4844.91
432.79	4765.33
432.97	4915.12
433.16	4938.53
433.35	4858.95
433.54	4830.87
433.72	5004.07
433.91	4793.42
434.10	4863.63
434.28	5064.92
434.47	5057.90
434.66	5020.45
434.85	5193.65
435.03	5104.71
435.22	5184.29
435.41	5284.93
435.59	5160.88
435.78	5261.52
435.97	5200.67
436.16	5247.48
436.34	5411.32
436.53	5418.34
436.72	5394.93
436.90	5474.51
437.09	5380.89
437.28	5301.31
437.46	5366.85
437.65	5252.16
437.84	5408.98
438.02	5284.93
438.21	5385.57
438.40	5366.85
438.58	5636.01
438.77	5605.58
438.96	5603.24
439.14	5734.31
439.33	5799.85
439.52	5664.10
439.70	5776.44
439.89	5867.72
440.08	6045.60
440.26	5886.45
440.45	5860.70
440.63	6052.63
440.82	6228.17
441.01	6108.80
441.19	6270.30
441.38	6200.08
441.57	6455.20
441.75	6319.45
441.94	6532.44
442.12	6518.39
442.31	6595.63
442.50	6689.25
442.68	6597.97
442.87	6544.14
443.05	6602.65
443.24	6623.72
443.43	6726.70
443.61	6841.39
443.80	6939.69
443.98	6661.16
444.17	6370.94
444.35	6712.66
444.54	6722.02
444.73	6782.87
444.91	7016.93
445.10	6661.16
445.28	6768.83
445.47	6560.52
445.65	6558.18
445.84	6717.34
446.02	6731.38
446.21	6834.36
446.39	6862.45
446.58	6974.80
446.77	6841.39
446.95	6778.19
447.14	6829.68
447.32	6946.71
447.51	6965.43
447.69	6984.16
447.88	6927.99
448.06	7007.56
448.25	6991.18
448.43	6883.52
448.62	6988.84
448.80	7101.19
448.99	6951.39
449.17	7023.95
449.36	7140.97
449.54	7176.08
449.73	7307.15
449.91	7529.50
450.10	7370.35
450.28	7531.84
450.46	7522.48
450.65	7480.35
450.83	7716.75
451.02	7412.48
451.20	7534.18
451.39	7609.08
451.57	7428.86
451.76	7421.84
451.94	7494.40
452.13	7417.16
452.31	7517.80
452.49	7269.70
452.68	7442.90
452.86	7342.26
453.05	7494.40
453.23	7559.93
453.42	7440.56
453.60	7531.84
453.78	7815.05
453.97	7681.64
454.15	7559.93
454.34	7768.24
454.52	7845.48
454.70	7840.79
454.89	7932.08
455.07	7864.20
455.26	7836.11
455.44	8086.55
455.62	7826.75
455.81	8114.64
455.99	8056.12
456.17	8042.08
456.36	8285.50
456.54	8287.84
456.73	8177.83
456.91	8533.59
457.09	8346.35
457.28	8727.86
457.46	8374.44
457.64	8446.99
457.83	8409.54
458.01	8269.11
458.19	8435.29
458.38	8322.94
458.56	8580.40
458.74	8589.77
458.93	8601.47
459.11	8409.54
459.29	8344.01
459.48	8557.00
459.66	8659.98
459.84	8688.07
460.03	8847.22
460.21	8648.28
460.39	8814.46
460.57	8837.86
460.76	8702.11
460.94	8943.19
461.12	8933.82
461.31	9102.34
461.49	8940.85
461.67	8978.30
461.85	9036.81
462.04	8865.95
462.22	9479.17
462.40	9369.16
462.59	9221.71
462.77	9359.80
462.95	9509.60
463.13	9195.96
463.32	9123.41
463.50	9441.72
463.68	9631.30
463.86	9170.22
464.05	9121.07
464.23	9308.31
464.41	9320.01
464.59	9142.13
464.78	9650.03
464.96	9261.50
465.14	9582.15
465.32	9525.98
465.50	9530.66
465.69	9907.49
465.87	9673.43
466.05	9479.17
466.23	9617.26
466.41	9401.93
466.60	9834.93
466.78	9441.72
466.96	9675.77
467.14	9626.62
467.32	9675.77
467.51	9757.69
467.69	9572.79
467.87	9628.96
468.05	9736.63
468.23	9675.77
468.41	9694.50
468.60	9832.59
468.78	10045.58
468.96	10026.86
469.14	10106.43
469.32	10012.81
469.50	9657.05
469.69	9942.60
469.87	10225.80
470.05	10054.94
470.23	10003.45
470.41	10422.41
470.59	10321.76
470.77	10139.20
470.95	10188.35
471.14	10731.36
471.32	10258.57
471.50	10546.45
471.68	10523.05
471.86	10408.36
472.04	10813.28
472.22	11005.20
472.40	10665.82
472.58	10651.78
472.77	10782.85
472.95	10916.26
473.13	11115.20
473.31	10911.58
473.49	10806.25
473.67	11087.12
473.85	10785.19
474.03	11344.58
474.21	11328.19
474.39	11630.12
474.57	11353.94
474.75	11597.35
474.93	11531.82
475.12	11473.31
475.30	11538.84
475.48	11548.20
475.66	11885.24
475.84	11625.44
476.02	11719.06
476.20	11927.37
476.38	11815.02
476.56	12372.07
476.74	12264.41
476.92	11997.59
477.10	12243.34
477.28	12475.06
477.46	12418.88
477.64	12643.57
477.82	12772.30
478.00	12929.12
478.18	13078.91
478.36	12987.63
478.54	13195.94
478.72	13064.87
478.90	13275.52
479.08	13509.57
479.26	13465.10
479.44	13647.66
479.62	13483.83
479.80	13511.91
479.98	13778.73
480.16	14052.58
480.34	13987.04
480.52	14242.16
480.70	14544.09
480.88	14045.55
481.06	14436.42
481.24	14469.19
481.41	14707.93
481.59	14958.36
481.77	15138.58
481.95	14902.19
482.13	15154.97
482.31	15274.34
482.49	15438.17
482.67	15365.62
482.85	15449.88
483.03	15592.65
483.21	15882.88
483.39	15861.81
483.57	15887.56
483.74	15957.77
483.92	16130.97
484.10	16128.63
484.28	16662.27
484.46	16798.02
484.64	17036.76
484.82	16538.23
485.00	16837.81
485.18	16741.85
485.35	16973.56
485.53	16723.13
485.71	16901.01
485.89	17226.34
486.07	16905.69
486.25	17364.43
486.43	17626.57
486.61	17413.59
486.78	18036.17
486.96	17678.07
487.14	18232.77
487.32	18352.14
487.50	18572.15
487.68	18625.98
487.85	18810.89
488.03	19028.56
488.21	19211.12
488.39	19133.88
488.57	19358.57
488.75	19744.76
488.92	19711.99
489.10	20112.22
489.28	20156.69
489.46	20240.95
489.64	20252.66
489.81	20741.83
489.99	20620.12
490.17	20886.94
490.35	20748.85
490.53	21003.97
490.70	21242.70
490.88	21163.12
491.06	21359.73
491.24	21167.80
491.41	21341.00
491.59	21287.17
491.77	21507.18
491.95	21638.25
492.13	21905.07
492.30	22375.52
492.48	22408.29
492.66	22314.67
492.84	22363.82
493.01	22735.96
493.19	22742.99
493.37	23175.98
493.54	23271.95
493.72	23124.49
493.90	23557.49
494.08	23529.41
494.25	24177.73
494.43	24231.57
494.61	24290.08
494.79	24357.96
494.96	24170.71
495.14	24641.16
495.32	24374.34
495.49	24086.45
495.67	24861.17
495.85	24570.94
496.02	25001.60
496.20	25247.36
496.38	25209.91
496.55	25556.31
496.73	25710.78
496.91	25392.47
497.09	25663.97
497.26	26001.01
497.44	25781.00
497.62	26080.59
497.79	26459.76
497.97	25902.71
498.14	26338.05
498.32	26632.96
498.50	26576.78
498.67	27138.51
498.85	26867.01
499.03	27632.36
499.20	27307.03
499.38	27161.92
499.56	27108.08
499.73	27253.20
499.91	27080.00
500.08	27281.28
500.26	27117.45
500.44	27718.96
500.61	27843.01
500.79	27655.77
500.97	27974.08
501.14	28020.89
501.32	28004.51
501.49	27915.57
501.67	27690.88
501.84	28198.77
502.02	28250.27
502.20	28575.60
502.37	28582.62
502.55	28528.79
502.72	29160.73
502.90	29039.03
503.07	28889.23
503.25	29347.98
503.43	29371.38
503.60	28809.65
503.78	29221.59
503.95	29120.95
504.13	29282.44
504.30	29710.76
504.48	29757.57
504.65	29603.10
504.83	30169.51
505.01	30218.66
505.18	29736.51
505.36	30450.37
505.53	30527.61
505.71	30433.99
505.88	30871.67
506.06	30661.02
506.23	30471.43
506.41	30382.49
506.58	30520.59
506.76	30457.39
506.93	31255.51
507.11	30998.06
507.28	30909.11
507.46	31220.41
507.63	30665.70
507.81	31290.62
507.98	31299.98
508.16	31180.62
508.33	31360.84
508.50	31938.95
508.68	31615.96
508.85	31917.89
509.03	32072.36
509.20	32287.69
509.38	32357.91
509.55	32027.89
509.73	32025.55
509.90	32210.45
510.08	32533.45
510.25	32385.99
510.42	32341.52
510.60	32631.75
510.77	32999.21
510.95	32694.94
511.12	32755.80
511.30	32898.57
511.47	33181.77
511.64	33359.66
511.82	33776.27
511.99	33266.03
512.17	33614.77
512.34	33141.99
512.51	33596.05
512.69	33783.29
512.86	33741.16
513.04	33984.58
513.21	33883.94
513.38	33647.54
513.56	33652.22
513.73	33855.85
513.90	33991.60
514.08	33902.66
514.25	34059.48
514.43	34424.60
514.60	34279.49
514.77	34103.95
514.95	34682.06
515.12	34148.42
515.29	34642.27
515.47	35049.52
515.64	35454.44
515.81	35346.77
515.99	34742.91
516.16	34773.34
516.33	34132.03
516.51	34724.19
516.68	34047.77
516.85	34328.64
517.03	34279.49
517.20	34953.56
517.37	35084.63
517.54	35496.56
517.72	34941.86
517.89	35164.21
518.06	35084.63
518.24	34944.20
518.41	35583.16
518.58	35452.09
518.75	35363.15
518.93	35948.29
519.10	35665.08
519.27	36287.67
519.45	36208.09
519.62	36175.32
519.79	36348.52
519.96	36758.11
520.14	36825.99
520.31	36327.45
520.48	36655.13
520.65	36268.94
520.83	36926.63
521.00	36889.18
521.17	37141.96
521.34	37060.04
521.52	37060.04
521.69	37542.19
521.86	37593.68
522.03	37413.46
522.20	37429.85
522.38	37500.06
522.55	37776.25
522.72	37361.97
522.89	37273.03
523.07	37612.41
523.24	37951.79
523.41	37972.85
523.58	37888.59
523.75	38492.45
523.92	38197.54
524.10	38019.66
524.27	38869.28
524.44	38700.76
524.61	38639.90
524.78	38574.37
524.96	38890.34
525.13	38895.02
525.30	38785.02
525.47	38993.32
525.64	38824.81
525.81	38780.34
525.98	38143.71
526.16	38501.81
526.33	38487.77
526.50	39007.37
526.67	38506.49
526.84	38721.82
527.01	38625.86
527.18	38806.08
527.36	39070.56
527.53	39445.05
527.70	40168.27
527.87	39693.15
528.04	39627.61
528.21	39885.07
528.38	39686.12
528.55	40147.21
528.72	40027.84
528.89	40245.51
529.07	40065.29
529.24	39629.95
529.41	39854.64
529.58	39864.00
529.75	40144.87
529.92	40282.96
530.09	40067.63
530.26	40348.50
530.43	40383.60
530.60	40409.35
530.77	40587.23
530.94	40720.64
531.11	40994.48
531.28	40325.09
531.46	40905.54
531.63	40957.03
531.80	40507.65
531.97	40751.07
532.14	40772.13
532.31	40376.58
532.48	40615.32
532.65	40481.91
532.82	40603.61
532.99	40840.01
533.16	40989.80
533.33	41017.89
533.50	41413.44
533.67	40961.72
533.84	40879.80
534.01	41319.82
534.18	41158.32
534.35	41600.68
534.52	41614.72
534.69	41734.09
534.86	41284.71
535.03	41832.39
535.20	41387.69
535.37	41844.10
535.54	42094.53
535.71	41624.09
535.88	41734.09
536.05	41448.55
536.22	41895.59
536.38	41591.32
536.55	41769.20
536.72	42010.28
536.89	41605.36
537.06	42330.93
537.23	42356.67
537.40	42162.41
537.57	42487.74
537.74	42169.43
537.91	42724.14
538.08	42319.23
538.25	42122.62
538.42	42611.79
538.59	42438.59
538.75	41787.92
538.92	42527.53
539.09	42508.81
539.26	42674.99
539.43	42625.84
539.60	42719.46
539.77	42253.69
539.94	42487.74
540.11	42351.99
540.28	42569.66
540.44	42745.20
540.61	42651.58
540.78	42602.43
540.95	42560.30
541.12	42927.77
541.29	43047.13
541.46	43278.85
541.62	42850.53
541.79	43068.20
541.96	43194.59
542.13	43096.28
542.30	43023.73
542.47	42974.58
542.63	43103.31
542.80	43613.54
542.97	43842.92
543.14	44112.08
543.31	43819.51
543.48	43988.03
543.64	44301.66
543.81	44327.41
543.98	44016.11
544.15	44065.27
544.32	44371.88
544.48	44105.06
544.65	44292.30
544.82	44128.46
544.99	44093.35
545.16	44109.74
545.32	44088.67
545.49	44404.64
545.66	44690.19
545.83	44348.47
546.00	44847.00
546.16	44444.43
546.33	44493.58
546.50	43992.71
546.67	44423.37
546.83	44224.42
547.00	44339.11
547.17	44715.93
547.34	43866.32
547.50	44439.75
547.67	44847.00
547.84	44772.11
548.00	44603.59
548.17	45326.81
548.34	44641.04
548.51	45155.96
548.67	45408.73
548.84	45076.38
549.01	44758.06
549.18	44964.03
549.34	44896.16
549.51	45289.37
549.68	45155.96
549.84	45399.37
550.01	45413.41
550.18	44685.51
550.34	45401.71
550.51	45427.46
550.68	45022.54
550.84	44884.45
551.01	45357.24
551.18	45092.76
551.34	45303.41
551.51	45258.94
551.68	45738.75
551.84	45743.43
552.01	45272.98
552.18	45338.52
552.34	45329.16
552.51	45485.97
552.68	45504.70
552.84	45556.19
553.01	45949.40
553.18	45439.16
553.34	45656.83
553.51	45769.18
553.67	45542.14
553.84	45956.42
554.01	45638.11
554.17	46279.41
554.34	45904.93
554.51	45993.87
554.67	46419.84
554.84	45806.62
555.00	45956.42
555.17	45860.46
555.33	46342.61
555.50	46113.23
555.67	45717.68
555.83	45991.53
556.00	46026.63
556.16	46588.36
556.33	45893.22
556.50	45886.20
556.66	46017.27
556.83	45771.52
556.99	46513.47
557.16	46153.02
557.32	46450.27
557.49	46260.69
557.65	45860.46
557.82	45991.53
557.98	45996.21
558.15	46532.19
558.32	46068.76
558.48	46087.49
558.65	46281.75
558.81	46216.22
558.98	46412.82
559.14	46358.99
559.31	46012.59
559.47	46569.64
559.64	46611.77
559.80	46415.16
559.97	46658.58
560.13	46176.43
560.30	46288.77
560.46	46660.92
560.63	46433.89
560.79	46527.51
560.96	46866.89
561.12	46555.60
561.29	46906.68
561.45	46555.60
561.61	46689.01
561.78	46700.71
561.94	46721.77
562.11	46766.24
562.27	46548.57
562.44	46726.46
562.60	46789.65
562.77	47192.22
562.93	46806.03
563.10	46864.55
563.26	46569.64
563.42	46588.36
563.59	46375.37
563.75	47313.93
563.92	47000.30
564.08	46845.82
564.24	47035.41
564.41	46934.76
564.57	47000.30
564.74	46670.28
564.90	46656.24
565.07	46955.83
565.23	46890.29
565.39	46775.61
565.56	46632.83
565.72	47166.48
565.88	46871.57
566.05	47023.70
566.21	47021.36
566.38	46684.33
566.54	46897.31
566.70	47264.78
566.87	47299.89
567.03	46995.62
567.19	47044.77
567.36	46930.08
567.52	46990.94
567.68	47143.07
567.85	46803.69
568.01	47166.48
568.17	46471.34
568.34	46731.14
568.50	47227.33
568.66	47019.02
568.83	47168.82
568.99	47089.24
569.15	46871.57
569.32	46944.12
569.48	46625.81
569.64	47143.07
569.81	47770.33
569.97	47320.95
570.13	47182.86
570.30	46642.20
570.46	46857.52
570.62	46487.72
570.78	47019.02
570.95	46862.21
571.11	46806.03
571.27	47145.41
571.43	47379.46
571.60	47194.56
571.76	47131.37
571.92	47079.88
572.09	46944.12
572.25	47437.98
572.41	47199.24
572.57	47309.25
572.74	47576.07
572.90	47353.72
573.06	47557.35
573.22	47061.15
573.38	47187.54
573.55	47192.22
573.71	47360.74
573.87	47292.86
574.03	46974.55
574.20	47100.94
574.36	47295.21
574.52	47365.42
574.68	47257.76
574.84	47021.36
575.01	47208.61
575.17	47318.61
575.33	47075.19
575.49	46789.65
575.65	47564.37
575.82	47250.74
575.98	47384.15
576.14	47615.86
576.30	47585.43
576.46	47192.22
576.62	47316.27
576.79	46705.39
576.95	46834.12
577.11	47054.13
577.27	47473.09
577.43	47285.84
577.59	47334.99
577.75	47381.80
577.92	47126.69
578.08	46714.75
578.24	47037.75
578.40	46969.87
578.56	47058.81
578.72	47054.13
578.88	47278.82
579.04	47220.31
579.21	47351.38
579.37	47257.76
579.53	46909.02
579.69	46794.33
579.85	47154.77
580.01	47285.84
580.17	47576.07
580.33	47627.56
580.49	47084.56
580.65	47447.34
580.82	47494.15
580.98	47400.53
581.14	47339.68
581.30	47344.36
581.46	47250.74
581.62	47501.17
581.78	47377.12
581.94	47529.26
582.10	47068.17
582.26	47454.36
582.42	47526.92
582.58	47496.49
582.74	47332.65
582.90	47475.43
583.06	47695.44
583.22	47531.60
583.38	47442.66
583.54	47365.42
583.70	47068.17
583.86	47299.89
584.02	46937.10
584.18	47363.08
584.34	47456.70
584.50	47817.14
584.66	47173.50
584.82	46677.30
584.98	47519.90
585.14	47367.76
585.30	46794.33
585.46	47377.12
585.62	47061.15
585.78	47154.77
585.94	46967.53
586.10	47033.07
586.26	47133.71
586.42	47711.82
586.58	47318.61
586.74	47739.91
586.90	47388.83
587.06	47367.76
587.22	47407.55
587.38	47283.50
587.54	47573.73
587.70	47248.39
587.86	47344.36
588.02	47271.80
588.18	47473.09
588.34	47061.15
588.49	47054.13
588.65	47084.56
588.81	46871.57
588.97	46674.96
589.13	46731.14
589.29	46897.31
589.45	46902.00
589.61	47248.39
589.77	47021.36
