SpectraSuite Data File
++++++++++++++++++++++++++++++++++++
Date: Fri Oct 25 10:48:28 EDT 2013
User: price-jones
Dark Spectrum Present: No
Reference Spectrum Present: No
Number of Sampled Component Spectra: 1
Spectrometers: USB2+H05261
Integration Time (usec): 100000 (USB2+H05261)
Spectra Averaged: 1 (USB2+H05261)
Boxcar Smoothing: 0 (USB2+H05261)
Correct for Electrical Dark: No (USB2+H05261)
Strobe/Lamp Enabled: No (USB2+H05261)
Correct for Detector Non-linearity: No (USB2+H05261)
Correct for Stray Light: No (USB2+H05261)
Number of Pixels in Processed Spectrum: 2048
>>>>>Begin Processed Spectral Data<<<<<
365.73	112.35
365.92	112.35
366.12	112.35
366.32	25.75
366.52	14.04
366.72	95.96
366.91	39.79
367.11	16.38
367.31	14.04
367.51	11.70
367.70	70.22
367.90	67.88
368.10	28.09
368.30	0.00
368.49	39.79
368.69	105.32
368.89	112.35
369.09	28.09
369.28	93.62
369.48	0.00
369.68	112.35
369.87	140.43
370.07	121.71
370.27	98.30
370.47	189.58
370.66	449.38
370.86	433.00
371.06	461.09
371.25	550.03
371.45	416.62
371.65	561.73
371.84	510.24
372.04	472.79
372.24	498.53
372.44	547.69
372.63	554.71
372.83	573.43
373.03	489.17
373.22	526.62
373.42	521.94
373.62	543.00
373.81	564.07
374.01	601.52
374.21	624.92
374.40	564.07
374.60	641.31
374.79	585.13
374.99	613.22
375.19	627.26
375.38	631.94
375.58	615.56
375.78	653.01
375.97	746.63
376.17	690.46
376.37	554.71
376.56	615.56
376.76	653.01
376.95	624.92
377.15	667.05
377.35	681.10
377.54	702.16
377.74	727.91
377.93	645.99
378.13	718.54
378.33	690.46
378.52	702.16
378.72	667.05
378.91	711.52
379.11	748.97
379.31	676.41
379.50	695.14
379.70	730.25
379.89	755.99
380.09	711.52
380.28	737.27
380.48	667.05
380.68	753.65
380.87	720.88
381.07	688.12
381.26	716.20
381.46	685.78
381.65	777.06
381.85	688.12
382.04	748.97
382.24	774.72
382.43	690.46
382.63	653.01
382.83	774.72
383.02	861.32
383.22	744.29
383.41	709.18
383.61	772.38
383.80	795.78
384.00	849.61
384.19	851.96
384.39	812.17
384.58	772.38
384.78	816.85
384.97	840.25
385.17	877.70
385.36	800.46
385.56	748.97
385.75	837.91
385.95	786.42
386.14	830.89
386.34	875.36
386.53	863.66
386.72	861.32
386.92	849.61
387.11	812.17
387.31	891.74
387.50	823.87
387.70	844.93
387.89	880.04
388.09	837.91
388.28	910.47
388.48	945.58
388.67	919.83
388.86	957.28
389.06	964.30
389.25	1006.43
389.45	1032.18
389.64	1078.99
389.84	1015.79
390.03	992.39
390.22	1053.24
390.42	1008.77
390.61	961.96
390.81	1088.35
391.00	1100.05
391.19	1121.12
391.39	1153.88
391.58	947.92
391.78	1086.01
391.97	1095.37
392.16	1069.62
392.36	1123.46
392.55	1090.69
392.75	1020.47
392.94	1071.97
393.13	1004.09
393.33	985.37
393.52	994.73
393.71	1135.16
393.91	1118.78
394.10	1210.06
394.29	1151.54
394.49	1198.35
394.68	1214.74
394.88	1280.27
395.07	1261.55
395.26	1170.27
395.46	1226.44
395.65	1233.46
395.84	1163.25
396.04	1277.93
396.23	1214.74
396.42	1177.29
396.62	1177.29
396.81	1254.53
397.00	1275.59
397.19	1369.21
397.39	1313.04
397.58	1369.21
397.77	1476.88
397.97	1366.87
398.16	1465.18
398.35	1458.15
398.55	1556.46
398.74	1598.59
398.93	1556.46
399.12	1577.52
399.32	1451.13
399.51	1507.30
399.70	1521.35
399.90	1537.73
400.09	1437.09
400.28	1621.99
400.47	1568.16
400.67	1659.44
400.86	1629.01
401.05	1664.12
401.24	1685.19
401.44	1708.59
401.63	1694.55
401.82	1790.51
402.01	1853.70
402.21	1832.64
402.40	1741.36
402.59	1839.66
402.78	1792.85
402.97	1811.57
403.17	1799.87
403.36	1792.85
403.55	1785.83
403.74	1783.49
403.93	1799.87
404.13	1830.30
404.32	1816.26
404.51	1867.75
404.70	1926.26
404.89	1884.13
405.09	1970.73
405.28	1839.66
405.47	1949.67
405.66	2017.54
405.85	1966.05
406.05	2050.31
406.24	2111.16
406.43	2118.18
406.62	1973.07
406.81	2190.74
407.00	2059.67
407.20	2162.66
407.39	2066.69
407.58	2122.87
407.77	2132.23
407.96	2120.53
408.15	2267.98
408.34	2258.62
408.54	2148.61
408.73	2244.57
408.92	2303.09
409.11	2331.17
409.30	2284.36
409.49	2361.60
409.68	2307.77
409.87	2361.60
410.07	2307.77
410.26	2347.56
410.45	2452.88
410.64	2537.14
410.83	2495.01
411.02	2590.97
411.21	2637.78
411.40	2483.31
411.59	2689.28
411.78	2705.66
411.98	2623.74
412.17	2780.56
412.36	2579.27
412.55	2743.11
412.74	2724.38
412.93	2750.13
413.12	2736.09
413.31	3056.74
413.50	2918.65
413.69	2825.03
413.88	2939.71
414.07	2848.43
414.26	2949.08
414.45	2988.86
414.64	3045.04
414.83	3105.89
415.02	2963.12
415.22	3108.23
415.41	3323.56
415.60	3258.03
415.79	3033.33
415.98	3215.90
416.17	3318.88
416.36	3148.02
416.55	3054.40
416.74	3279.09
416.93	3220.58
417.12	3279.09
417.31	3550.59
417.50	3344.63
417.69	3466.33
417.88	3485.06
418.07	3389.10
418.26	3433.57
418.45	3651.24
418.64	3506.12
418.83	3571.66
419.02	3693.37
419.21	3538.89
419.39	3672.30
419.58	3557.61
419.77	3637.19
419.96	3691.02
420.15	3763.58
420.34	3712.09
420.53	3566.98
420.72	3801.03
420.91	3707.41
421.10	3648.90
421.29	3859.54
421.48	3763.58
421.67	3812.73
421.86	3756.56
422.05	3817.41
422.24	3763.58
422.43	3889.97
422.61	4002.32
422.80	3878.27
422.99	3744.86
423.18	3868.91
423.37	3875.93
423.56	3861.88
423.75	3948.48
423.94	4042.11
424.13	3693.37
424.32	3742.52
424.50	3978.91
424.69	4131.05
424.88	4074.87
425.07	3894.65
425.26	3967.21
425.45	3953.16
425.64	3885.29
425.83	4037.42
426.01	4081.89
426.20	4168.49
426.39	4070.19
426.58	3997.64
426.77	4002.32
426.96	4105.30
427.15	4131.05
427.33	4014.02
427.52	4119.34
427.71	4126.36
427.90	4014.02
428.09	4121.68
428.28	4308.93
428.46	4121.68
428.65	4105.30
428.84	4241.05
429.03	4407.23
429.22	4131.05
429.40	4175.52
429.59	4170.83
429.78	3964.87
429.97	3946.14
430.16	3880.61
430.34	4166.15
430.53	4212.96
430.72	4264.46
430.91	4365.10
431.10	4388.50
431.28	4454.04
431.47	4585.11
431.66	4531.28
431.85	4564.04
432.03	4531.28
432.22	4844.91
432.41	4547.66
432.60	4655.33
432.79	4615.54
432.97	4716.18
433.16	4779.37
433.35	4718.52
433.54	4730.22
433.72	4720.86
433.91	4748.95
434.10	4699.80
434.28	4781.71
434.47	4929.17
434.66	4858.95
434.85	4865.97
435.03	5083.64
435.22	5078.96
435.41	5060.24
435.59	5055.56
435.78	5132.79
435.97	5151.52
436.16	5097.69
436.34	5104.71
436.53	5268.55
436.72	5338.76
436.90	5085.98
437.09	5170.24
437.28	5111.73
437.46	5252.16
437.65	5205.35
437.84	5195.99
438.02	5200.67
438.21	5336.42
438.40	5020.45
438.58	5310.68
438.77	5350.46
438.96	5448.77
439.14	5657.07
439.33	5715.59
439.52	5628.99
439.70	5591.54
439.89	5738.99
440.08	5603.24
440.26	5757.72
440.45	5809.21
440.63	5947.30
440.82	6097.10
441.01	5926.24
441.19	6143.91
441.38	5982.41
441.57	6066.67
441.75	6125.18
441.94	6368.60
442.12	6326.47
442.31	6169.65
442.50	6300.72
442.68	6232.85
442.87	6389.66
443.05	6174.33
443.24	6380.30
443.43	6312.42
443.61	6485.62
443.80	6640.10
443.98	6293.70
444.17	6216.46
444.35	6436.47
444.54	6668.19
444.73	6705.63
444.91	6553.50
445.10	6420.09
445.28	6455.20
445.47	6373.28
445.65	6513.71
445.84	6509.03
446.02	6445.84
446.21	6633.08
446.39	6541.80
446.58	6619.04
446.77	6665.85
446.95	6471.58
447.14	6799.26
447.32	6850.75
447.51	6813.30
447.69	6766.49
447.88	6778.19
448.06	6834.36
448.25	6827.34
448.43	6817.98
448.62	6799.26
448.80	6754.79
448.99	6920.96
449.17	6946.71
449.36	6810.96
449.54	6974.80
449.73	7124.59
449.91	7047.35
450.10	7180.76
450.28	7157.36
450.46	7124.59
450.65	7180.76
450.83	7300.13
451.02	7155.02
451.20	7220.55
451.39	7213.53
451.57	7260.34
451.76	7190.13
451.94	7166.72
452.13	7281.41
452.31	7206.51
452.49	7155.02
452.68	7155.02
452.86	7267.36
453.05	7363.33
453.23	7517.80
453.42	7386.73
453.60	7241.62
453.78	7536.52
453.97	7513.12
454.15	7475.67
454.34	7339.92
454.52	7700.36
454.70	7571.63
454.89	7524.82
455.07	7585.68
455.26	7566.95
455.44	7786.96
455.62	7648.87
455.81	7646.53
455.99	7721.43
456.17	7831.43
456.36	7824.41
456.54	7927.39
456.73	7939.10
456.91	8212.94
457.09	8086.55
457.28	8166.13
457.46	7927.39
457.64	8315.92
457.83	8140.38
458.01	8154.43
458.19	8320.60
458.38	8231.66
458.56	8112.30
458.74	8285.50
458.93	8259.75
459.11	8255.07
459.29	8210.60
459.48	8348.69
459.66	8308.90
459.84	8299.54
460.03	8491.46
460.21	8547.64
460.39	8454.02
460.57	8713.81
460.76	8692.75
460.94	8737.22
461.12	8739.56
461.31	8620.19
461.49	8746.58
461.67	8727.86
461.85	8830.84
462.04	8791.05
462.22	9305.97
462.40	8830.84
462.59	9069.58
462.77	8992.34
462.95	9085.96
463.13	8821.48
463.32	8964.25
463.50	8973.61
463.68	9177.24
463.86	9188.94
464.05	9116.39
464.23	8835.52
464.41	9029.79
464.59	8798.07
464.78	9163.20
464.96	9137.45
465.14	9158.52
465.32	9341.08
465.50	9275.54
465.69	9352.78
465.87	9228.73
466.05	9160.86
466.23	9289.59
466.41	9043.83
466.60	9338.74
466.78	9446.40
466.96	9467.47
467.14	9163.20
467.32	9266.18
467.51	9380.87
467.69	9188.94
467.87	9418.32
468.05	9729.61
468.23	9432.36
468.41	9525.98
468.60	9544.70
468.78	9753.01
468.96	9479.17
469.14	9687.48
469.32	9874.72
469.50	9554.07
469.69	9933.23
469.87	9870.04
470.05	9853.66
470.23	9764.72
470.41	9872.38
470.59	9926.21
470.77	10146.22
470.95	9923.87
471.14	10003.45
471.32	9937.91
471.50	10195.37
471.68	10345.17
471.86	10328.78
472.04	10478.58
472.22	10647.10
472.40	10258.57
472.58	10335.81
472.77	10452.83
472.95	10284.31
473.13	10757.10
473.31	10417.72
473.49	10471.56
473.67	10853.06
473.85	10885.83
474.03	10888.17
474.21	11063.71
474.39	11166.70
474.57	11000.52
474.75	11143.29
474.93	11136.27
475.12	10972.43
475.30	11246.27
475.48	11218.19
475.66	11356.28
475.84	11442.88
476.02	11445.22
476.20	11529.48
476.38	11618.42
476.56	11775.24
476.74	11772.89
476.92	11922.69
477.10	11948.43
477.28	12058.44
477.46	11939.07
477.64	12381.43
477.82	12594.42
478.00	12479.74
478.18	12465.69
478.36	12538.25
478.54	12683.36
478.72	12617.83
478.90	13111.68
479.08	13193.60
479.26	13296.58
479.44	13380.84
479.62	13167.85
479.80	13525.96
479.98	13451.06
480.16	13652.34
480.34	13589.15
480.52	14094.71
480.70	13635.96
480.88	13577.45
481.06	14167.26
481.24	14045.55
481.41	14235.14
481.59	14354.51
481.77	14539.41
481.95	14581.54
482.13	14768.78
482.31	14607.28
482.49	15136.24
482.67	14827.29
482.85	15129.22
483.03	15440.51
483.21	15276.68
483.39	15576.27
483.57	15625.42
483.74	15793.94
483.92	15845.43
484.10	15592.65
484.28	15997.56
484.46	16161.40
484.64	16423.54
484.82	16294.81
485.00	16161.40
485.18	16491.41
485.35	16526.52
485.53	16027.99
485.71	16315.87
485.89	16664.61
486.07	16666.95
486.25	16919.73
486.43	16931.44
486.61	16954.84
486.78	17221.66
486.96	17245.07
487.14	18024.47
487.32	18001.06
487.50	18031.49
487.68	18029.15
487.85	18511.30
488.03	18478.53
488.21	18668.11
488.39	18551.09
488.57	18850.67
488.75	18810.89
488.92	19161.97
489.10	19578.58
489.28	19386.66
489.46	19873.49
489.64	20018.60
489.81	20280.74
489.99	20320.53
490.17	20582.67
490.35	20685.65
490.53	20212.87
490.70	20723.10
490.88	20404.79
491.06	21219.30
491.24	20798.00
491.41	20589.69
491.59	21170.15
491.77	20858.85
491.95	21266.11
492.13	21263.77
492.30	21640.59
492.48	21865.28
492.66	21965.93
492.84	22080.61
493.01	22354.46
493.19	22202.32
493.37	22361.48
493.54	22642.34
493.72	22747.67
493.90	23117.47
494.08	22590.85
494.25	23578.56
494.43	23302.37
494.61	23857.08
494.79	23927.30
494.96	23616.01
495.14	23623.03
495.32	23494.30
495.49	24212.84
495.67	24049.00
495.85	24004.53
496.02	24397.74
496.20	24512.43
496.38	24430.51
496.55	24620.10
496.73	25153.74
496.91	24886.92
497.09	25137.35
497.26	25289.49
497.44	25432.26
497.62	25221.61
497.79	25273.10
497.97	25350.34
498.14	25940.16
498.32	26003.35
498.50	25781.00
498.67	26405.92
498.85	26206.98
499.03	26366.13
499.20	26405.92
499.38	26558.06
499.56	26539.33
499.73	26614.23
499.91	26651.68
500.08	26761.69
500.26	26682.11
500.44	26984.04
500.61	26719.56
500.79	27145.53
500.97	27232.13
501.14	27346.82
501.32	27108.08
501.49	27192.34
501.67	27400.65
501.84	27885.14
502.02	27475.55
502.20	27955.36
502.37	27903.87
502.55	28041.96
502.72	27999.83
502.90	28194.09
503.07	27922.59
503.25	28531.13
503.43	28123.88
503.60	28383.68
503.78	28662.20
503.95	28559.22
504.13	28849.44
504.30	28950.09
504.48	28788.59
504.65	28898.59
504.83	29366.70
505.01	29308.19
505.18	29528.20
505.36	29876.94
505.53	29619.48
505.71	29867.58
505.88	30043.12
506.06	29542.24
506.23	29890.98
506.41	29598.41
506.58	29961.20
506.76	29834.81
506.93	30274.83
507.11	29886.30
507.28	30195.25
507.46	30045.46
507.63	30284.19
507.81	30874.01
507.98	30534.63
508.16	30508.88
508.33	30712.51
508.50	31089.34
508.68	31241.47
508.85	31381.90
509.03	31381.90
509.20	31412.33
509.38	31442.76
509.55	31367.86
509.73	31852.35
509.90	31885.12
510.08	31510.63
510.25	31672.13
510.42	31887.46
510.60	32430.46
510.77	32236.20
510.95	32322.80
511.12	32397.70
511.30	32212.79
511.47	32872.82
511.64	32273.65
511.82	32769.84
511.99	32463.23
512.17	32802.61
512.34	32589.62
512.51	32964.10
512.69	33256.67
512.86	32926.66
513.04	33354.97
513.21	33181.77
513.38	33132.62
513.56	33130.28
513.73	32933.68
513.90	33273.06
514.08	33551.58
514.25	33626.48
514.43	33191.14
514.60	33596.05
514.77	33469.66
514.95	34253.74
515.12	34155.44
515.29	33373.70
515.47	34286.51
515.64	34527.58
515.81	34005.64
515.99	34293.53
516.16	34157.78
516.33	33818.40
516.51	34132.03
516.68	33755.21
516.85	33600.73
517.03	33745.84
517.20	34330.98
517.37	34431.62
517.54	34888.03
517.72	34274.80
517.89	34745.25
518.06	34373.11
518.24	34256.08
518.41	34338.00
518.58	34773.34
518.75	34822.49
518.93	35299.96
519.10	35309.32
519.27	35337.41
519.45	35754.02
519.62	35697.85
519.79	35718.92
519.96	35959.99
520.14	36210.43
520.31	35683.81
520.48	35995.10
520.65	35683.81
520.83	36362.56
521.00	36353.20
521.17	36222.13
521.34	36161.28
521.52	36423.42
521.69	36554.49
521.86	36552.15
522.03	36781.52
522.20	36793.22
522.38	36608.32
522.55	36765.14
522.72	36865.78
522.89	36921.95
523.07	36931.31
523.24	36882.16
523.41	37460.27
523.58	36737.05
523.75	37469.64
523.92	37614.75
524.10	37680.28
524.27	37413.46
524.44	37895.61
524.61	37944.76
524.78	38183.50
524.96	37883.91
525.13	38253.72
525.30	38167.12
525.47	38623.52
525.64	37820.72
525.81	37839.44
525.98	37645.18
526.16	37684.97
526.33	37771.57
526.50	38246.69
526.67	38127.33
526.84	38068.81
527.01	37972.85
527.18	38064.13
527.36	38352.02
527.53	38562.67
527.70	38733.53
527.87	38934.81
528.04	38469.04
528.21	38960.56
528.38	38618.84
528.55	39049.50
528.72	38911.41
528.89	39250.78
529.07	39063.54
529.24	38831.83
529.41	39140.78
529.58	39463.77
529.75	39187.59
529.92	39388.88
530.09	39622.93
530.26	39754.00
530.43	39578.46
530.60	39201.63
530.77	39634.63
530.94	39861.66
531.11	39599.52
531.28	39374.83
531.46	40247.85
531.63	40123.80
531.80	40236.15
531.97	39679.10
532.14	39756.34
532.31	39653.36
532.48	39938.90
532.65	39910.82
532.82	40217.43
532.99	40311.05
533.16	40266.58
533.33	40432.75
533.50	40458.50
533.67	40109.76
533.84	40399.99
534.01	40172.96
534.18	40659.79
534.35	40898.52
534.52	40521.69
534.69	40917.25
534.86	40650.42
535.03	40847.03
535.20	41368.97
535.37	41003.85
535.54	41368.97
535.71	40694.89
535.88	40914.90
536.05	41422.80
536.22	41317.48
536.38	41352.58
536.55	41038.95
536.72	41560.89
536.89	41230.88
537.06	41165.34
537.23	41514.08
537.40	41354.93
537.57	41691.96
537.74	41565.57
537.91	42094.53
538.08	41918.99
538.25	41537.49
538.42	41610.04
538.59	41977.51
538.75	41984.53
538.92	41888.57
539.09	41944.74
539.26	41961.12
539.43	41631.11
539.60	42073.47
539.77	41656.85
539.94	42171.77
540.11	41743.45
540.28	41956.44
540.44	41734.09
540.61	41804.31
540.78	42061.77
540.95	42206.88
541.12	42293.48
541.29	42270.08
541.46	42225.60
541.62	42021.98
541.79	42078.15
541.96	42213.90
542.13	42307.52
542.30	42492.43
542.47	42953.51
542.63	42583.71
542.80	42698.39
542.97	43023.73
543.14	43091.60
543.31	42911.38
543.48	43180.54
543.64	43796.10
543.81	43461.41
543.98	43438.00
544.15	43370.13
544.32	43206.29
544.48	43709.50
544.65	43077.56
544.82	43349.06
544.99	43044.79
545.16	43365.45
545.32	43070.54
545.49	43665.03
545.66	43674.40
545.83	43866.32
546.00	43999.73
546.16	43901.43
546.33	43658.01
546.50	43360.76
546.67	43835.89
546.83	42986.28
547.00	43913.13
547.17	43875.68
547.34	43931.86
547.50	43756.32
547.67	43856.96
547.84	44095.69
548.00	43744.61
548.17	44114.42
548.34	43807.81
548.51	44208.04
548.67	44563.80
548.84	44575.50
549.01	44273.57
549.18	44058.24
549.34	44353.15
549.51	44406.98
549.68	44416.35
549.84	44402.30
550.01	44500.61
550.18	44203.36
550.34	44369.54
550.51	44580.18
550.68	44308.68
550.84	44177.61
551.01	44350.81
551.18	44648.06
551.34	44561.46
551.51	44481.88
551.68	44587.21
551.84	44804.88
552.01	44704.23
552.18	44900.84
552.34	44655.08
552.51	44781.47
552.68	45003.82
552.84	45071.70
553.01	45347.88
553.18	45277.66
553.34	44680.83
553.51	44861.05
553.67	44884.45
553.84	45017.86
554.01	45165.32
554.17	45214.47
554.34	45687.26
554.51	45357.24
554.67	45310.43
554.84	45432.14
555.00	45392.35
555.17	45287.03
555.33	45488.31
555.50	45390.01
555.67	45689.60
555.83	45209.79
556.00	45649.81
556.16	46211.54
556.33	45415.76
556.50	45705.98
556.66	45832.37
556.83	45464.91
556.99	45759.81
557.16	45652.15
557.32	45752.79
557.49	45612.36
557.65	45523.42
557.82	45450.86
557.98	46115.58
558.15	45544.48
558.32	45537.46
558.48	45902.59
558.65	45331.50
558.81	45528.10
558.98	45834.71
559.14	45928.33
559.31	45933.01
559.47	45642.79
559.64	45834.71
559.80	46075.79
559.97	46225.58
560.13	45893.22
560.30	45521.08
560.46	45911.95
560.63	45895.56
560.79	45858.12
560.96	46574.32
561.12	46295.80
561.29	45963.44
561.45	45834.71
561.61	45823.01
561.78	45933.01
561.94	45862.80
562.11	46068.76
562.27	46026.63
562.44	46150.68
562.60	46218.56
562.77	46637.51
562.93	46059.40
563.10	46576.66
563.26	45968.12
563.42	46354.31
563.59	45801.94
563.75	46366.01
563.92	46396.44
564.08	46270.05
564.24	46560.28
564.41	46293.46
564.57	46321.54
564.74	46220.90
564.90	46429.21
565.07	46096.85
565.23	46220.90
565.39	46447.93
565.56	46307.50
565.72	46241.96
565.88	46043.02
566.05	46574.32
566.21	46040.68
566.38	46358.99
566.54	46440.91
566.70	46684.33
566.87	46595.38
567.03	46909.02
567.19	46794.33
567.36	46642.20
567.52	46527.51
567.68	46464.32
567.85	46082.81
568.01	46543.89
568.17	46391.76
568.34	46464.32
568.50	46436.23
568.66	46443.25
568.83	46258.35
568.99	46377.72
569.15	46333.24
569.32	46534.53
569.48	46703.05
569.64	46791.99
569.81	46642.20
569.97	46426.87
570.13	46431.55
570.30	46099.19
570.46	46087.49
570.62	46305.16
570.78	46223.24
570.95	46490.06
571.11	46913.70
571.27	46387.08
571.43	46665.60
571.60	46461.97
571.76	46424.53
571.92	46511.13
572.09	46700.71
572.25	46731.14
572.41	46550.91
572.57	46630.49
572.74	47093.92
572.90	46719.43
573.06	46555.60
573.22	46997.96
573.38	46422.19
573.55	46394.10
573.71	46466.66
573.87	46838.80
574.03	46368.35
574.20	46986.25
574.36	46571.98
574.52	46419.84
574.68	46817.74
574.84	46674.96
575.01	46609.43
575.17	46827.10
575.33	46473.68
575.49	46569.64
575.65	46824.76
575.82	46969.87
575.98	46368.35
576.14	46965.19
576.30	46742.84
576.46	46461.97
576.62	46436.23
576.79	46429.21
576.95	46232.60
577.11	47164.14
577.27	46586.02
577.43	46894.97
577.59	46534.53
577.75	46576.66
577.92	46272.39
578.08	46223.24
578.24	46387.08
578.40	46831.78
578.56	47093.92
578.72	46916.04
578.88	47028.38
579.04	46735.82
579.21	46476.02
579.37	47012.00
579.53	46799.01
579.69	46054.72
579.85	46700.71
580.01	46831.78
580.17	46614.11
580.33	46829.44
580.49	46761.56
580.65	46806.03
580.82	46784.97
580.98	46635.17
581.14	46621.13
581.30	47161.79
581.46	46597.73
581.62	46691.35
581.78	46904.34
581.94	47536.28
582.10	47110.30
582.26	47239.03
582.42	46813.05
582.58	46602.41
582.74	47023.70
582.90	47147.75
583.06	46909.02
583.22	47180.52
583.38	46909.02
583.54	46955.83
583.70	46803.69
583.86	46862.21
584.02	46461.97
584.18	46670.28
584.34	46653.90
584.50	46841.14
584.66	46623.47
584.82	46646.88
584.98	47143.07
585.14	47114.98
585.30	46525.17
585.46	46440.91
585.62	46466.66
585.78	47150.09
585.94	46319.20
586.10	46897.31
586.26	46569.64
586.42	46789.65
586.58	46604.75
586.74	47009.66
586.90	47065.83
587.06	46829.44
587.22	46941.78
587.38	46976.89
587.54	47119.66
587.70	47220.31
587.86	47047.11
588.02	46801.35
588.18	46822.42
588.34	46864.55
588.49	46845.82
588.65	46248.99
588.81	46497.08
588.97	46384.74
589.13	46464.32
589.29	46602.41
589.45	46883.27
589.61	46880.93
589.77	46986.25
589.93	47276.48
