SpectraSuite Data File
++++++++++++++++++++++++++++++++++++
Date: Fri Oct 25 11:23:28 EDT 2013
User: price-jones
Dark Spectrum Present: No
Reference Spectrum Present: No
Number of Sampled Component Spectra: 1
Spectrometers: USB2+H05261
Integration Time (usec): 100000 (USB2+H05261)
Spectra Averaged: 1 (USB2+H05261)
Boxcar Smoothing: 0 (USB2+H05261)
Correct for Electrical Dark: No (USB2+H05261)
Strobe/Lamp Enabled: No (USB2+H05261)
Correct for Detector Non-linearity: No (USB2+H05261)
Correct for Stray Light: No (USB2+H05261)
Number of Pixels in Processed Spectrum: 2048
>>>>>Begin Processed Spectral Data<<<<<
365.73	145.11
365.92	145.11
366.12	145.11
366.32	112.35
366.52	32.77
366.72	163.84
366.91	128.73
367.11	131.07
367.31	131.07
367.51	105.32
367.70	95.96
367.90	135.75
368.10	140.43
368.30	100.64
368.49	93.62
368.69	156.82
368.89	91.28
369.09	140.43
369.28	142.77
369.48	168.52
369.68	133.41
369.87	168.52
370.07	177.88
370.27	210.65
370.47	278.52
370.66	603.86
370.86	613.22
371.06	671.73
371.25	688.12
371.45	667.05
371.65	760.67
371.84	688.12
372.04	634.29
372.24	692.80
372.44	636.63
372.63	699.82
372.83	746.63
373.03	800.46
373.22	753.65
373.42	765.36
373.62	802.80
373.81	765.36
374.01	767.70
374.21	737.27
374.40	763.01
374.60	858.98
374.79	751.31
374.99	805.14
375.19	821.53
375.38	779.40
375.58	823.87
375.78	887.06
375.97	840.25
376.17	861.32
376.37	844.93
376.56	819.19
376.76	861.32
376.95	819.19
377.15	826.21
377.35	945.58
377.54	887.06
377.74	884.72
377.93	861.32
378.13	901.11
378.33	856.64
378.52	1025.15
378.72	894.08
378.91	915.15
379.11	896.43
379.31	898.77
379.50	924.51
379.70	997.07
379.89	1006.43
380.09	973.66
380.28	959.62
380.48	936.21
380.68	980.68
380.87	976.00
381.07	1032.18
381.26	999.41
381.46	922.17
381.65	985.37
381.85	1055.58
382.04	1144.52
382.24	1032.18
382.43	1034.52
382.63	1076.65
382.83	1081.33
383.02	1039.20
383.22	1135.16
383.41	1078.99
383.61	1039.20
383.80	1067.28
384.00	1177.29
384.19	1116.44
384.39	1254.53
384.58	1217.08
384.78	1123.46
384.97	1139.84
385.17	1188.99
385.36	1128.14
385.56	1167.93
385.75	1179.63
385.95	1102.39
386.14	1158.57
386.34	1200.69
386.53	1266.23
386.72	1235.80
386.92	1284.95
387.11	1261.55
387.31	1207.72
387.50	1174.95
387.70	1196.01
387.89	1259.21
388.09	1235.80
388.28	1153.88
388.48	1149.20
388.67	1336.45
388.86	1362.19
389.06	1256.87
389.25	1287.29
389.45	1329.42
389.64	1366.87
389.84	1406.66
390.03	1465.18
390.22	1409.00
390.42	1434.75
390.61	1357.51
390.81	1315.38
391.00	1387.94
391.19	1416.02
391.39	1401.98
391.58	1453.47
391.78	1401.98
391.97	1465.18
392.16	1481.56
392.36	1582.20
392.55	1432.41
392.75	1530.71
392.94	1495.60
393.13	1451.13
393.33	1500.28
393.52	1577.52
393.71	1668.80
393.91	1572.84
394.10	1547.09
394.29	1614.97
394.49	1589.22
394.68	1675.82
394.88	1603.27
395.07	1734.34
395.26	1638.38
395.46	1717.95
395.65	1666.46
395.84	1827.96
396.04	1750.72
396.23	1764.76
396.42	1724.97
396.62	1771.79
396.81	1870.09
397.00	1743.70
397.19	1818.60
397.39	1844.34
397.58	1837.32
397.77	1858.39
397.97	1923.92
398.16	1846.68
398.35	2003.50
398.55	1949.67
398.74	1872.43
398.93	2019.88
399.12	1994.14
399.32	1902.86
399.51	1977.75
399.70	1975.41
399.90	1966.05
400.09	2040.95
400.28	2083.08
400.47	2022.22
400.67	2043.29
400.86	2069.03
401.05	2031.58
401.24	2132.23
401.44	2101.80
401.63	2111.16
401.82	2162.66
402.01	2270.32
402.21	2078.40
402.40	2197.76
402.59	2122.87
402.78	2136.91
402.97	2361.60
403.17	2258.62
403.36	2279.68
403.55	2188.40
403.74	2300.75
403.93	2373.30
404.13	2422.45
404.32	2394.37
404.51	2380.32
404.70	2387.35
404.89	2427.14
405.09	2413.09
405.28	2317.13
405.47	2417.77
405.66	2504.37
405.85	2471.61
406.05	2530.12
406.24	2527.78
406.43	2569.91
406.62	2569.91
406.81	2619.06
407.00	2551.18
407.20	2497.35
407.39	2537.14
407.58	2672.89
407.77	2724.38
407.96	2771.19
408.15	2752.47
408.34	2808.64
408.54	2796.94
408.73	2834.39
408.92	2890.56
409.11	2771.19
409.30	2895.24
409.49	2829.71
409.68	2864.82
409.87	2960.78
410.07	3047.38
410.26	2848.43
410.45	3136.32
410.64	3157.38
410.83	3105.89
411.02	3084.83
411.21	3143.34
411.40	3150.36
411.59	3325.90
411.78	3171.43
411.98	3150.36
412.17	3201.85
412.36	3286.11
412.55	3384.41
412.74	3375.05
412.93	3398.46
413.12	3234.62
413.31	3623.15
413.50	3393.78
413.69	3679.32
413.88	3529.53
414.07	3487.40
414.26	3559.95
414.45	3662.94
414.64	3651.24
414.83	3679.32
415.02	3672.30
415.22	3927.42
415.41	3866.56
415.60	3946.14
415.79	3939.12
415.98	3992.95
416.17	3964.87
416.36	4131.05
416.55	4032.74
416.74	4119.34
416.93	4194.24
417.12	4035.08
417.31	4133.39
417.50	4236.37
417.69	4208.28
417.88	4418.93
418.07	4311.27
418.26	4315.95
418.45	4297.22
418.64	4531.28
418.83	4414.25
419.02	4404.89
419.21	4552.34
419.39	4430.63
419.58	4599.15
419.77	4393.19
419.96	4535.96
420.15	4461.06
420.34	4692.77
420.53	4634.26
420.72	4643.62
420.91	4746.61
421.10	4730.22
421.29	4777.03
421.48	4645.96
421.67	4636.60
421.86	4887.04
422.05	4830.87
422.24	4961.94
422.43	4940.87
422.61	4973.64
422.80	4875.34
422.99	4894.06
423.18	5039.17
423.37	4966.62
423.56	4950.23
423.75	4901.08
423.94	4966.62
424.13	4725.54
424.32	4734.90
424.50	5055.56
424.69	5167.90
424.88	5015.77
425.07	4877.68
425.26	5137.48
425.45	5076.62
425.64	5034.49
425.83	5039.17
426.01	5011.09
426.20	5078.96
426.39	5027.47
426.58	5085.98
426.77	5001.72
426.96	4889.38
427.15	5032.15
427.33	5146.84
427.52	5142.16
427.71	5446.43
427.90	5231.10
428.09	5355.15
428.28	5399.62
428.46	5369.19
428.65	5352.81
428.84	5502.60
429.03	5357.49
429.22	5378.55
429.40	5565.79
429.59	5446.43
429.78	5343.44
429.97	5329.40
430.16	5549.41
430.34	5542.39
430.53	5540.05
430.72	5736.65
430.91	5694.52
431.10	5598.56
431.28	5703.89
431.47	5825.59
431.66	5856.02
431.85	5563.45
432.03	5792.83
432.22	5959.00
432.41	5760.06
432.60	5926.24
432.79	6047.94
432.97	5991.77
433.16	6106.46
433.35	5949.64
433.54	6141.57
433.72	6099.44
433.91	6047.94
434.10	6146.25
434.28	6029.22
434.47	6188.38
434.66	6211.78
434.85	6396.68
435.03	6228.17
435.22	6291.36
435.41	6511.37
435.59	6427.11
435.78	6366.26
435.97	6452.86
436.16	6434.13
436.34	6387.32
436.53	6670.53
436.72	6733.72
436.90	6506.69
437.09	6658.82
437.28	6635.42
437.46	6600.31
437.65	6574.56
437.84	6817.98
438.02	6700.95
438.21	6857.77
438.40	6775.85
438.58	7070.76
438.77	7089.48
438.96	7089.48
439.14	7002.88
439.33	7187.79
439.52	7241.62
439.70	7033.31
439.89	7421.84
440.08	7363.33
440.26	7466.31
440.45	7283.75
440.63	7351.62
440.82	7707.38
441.01	7564.61
441.19	7728.45
441.38	7756.54
441.57	7583.34
441.75	7953.14
441.94	7960.16
442.12	7950.80
442.31	7957.82
442.50	8124.00
442.68	8102.93
442.87	8248.05
443.05	8191.88
443.24	8365.07
443.43	8121.66
443.61	8217.62
443.80	8454.02
443.98	8049.10
444.17	7765.90
444.35	8344.01
444.54	8470.40
444.73	8105.28
444.91	8362.73
445.10	8311.24
445.28	8400.18
445.47	8388.48
445.65	8322.94
445.84	8416.57
446.02	8430.61
446.21	8329.97
446.39	8554.66
446.58	8610.83
446.77	8425.93
446.95	8124.00
447.14	8549.98
447.32	8765.31
447.51	8390.82
447.69	8549.98
447.88	8538.27
448.06	8650.62
448.25	8594.45
448.43	8512.53
448.62	8482.10
448.80	8571.04
448.99	8716.16
449.17	8681.05
449.36	8615.51
449.54	8887.01
449.73	8990.00
449.91	9130.43
450.10	9109.36
450.28	9252.14
450.46	8861.27
450.65	9214.69
450.83	9048.51
451.02	9195.96
451.20	9282.56
451.39	9345.76
451.57	9055.53
451.76	8985.32
451.94	8966.59
452.13	9301.29
452.31	9174.90
452.49	9142.13
452.68	9334.06
452.86	9247.46
453.05	9418.32
453.23	9654.71
453.42	9502.58
453.60	9476.83
453.78	9614.92
453.97	9504.92
454.15	9596.20
454.34	9614.92
454.52	9741.31
454.70	9682.80
454.89	9743.65
455.07	9877.06
455.26	9734.29
455.44	10003.45
455.62	9657.05
455.81	9949.62
455.99	10155.58
456.17	10122.82
456.36	10146.22
456.54	10328.78
456.73	10146.22
456.91	10340.49
457.09	10307.72
457.28	10635.39
457.46	10286.65
457.64	10427.09
457.83	10621.35
458.01	10679.86
458.19	10686.89
458.38	10494.96
458.56	10764.12
458.74	10588.58
458.93	10682.20
459.11	10586.24
459.29	10696.25
459.48	11000.52
459.66	11033.29
459.84	11122.23
460.03	11089.46
460.21	11173.72
460.39	10967.75
460.57	11000.52
460.76	10991.16
460.94	11243.93
461.12	11208.83
461.31	10892.85
461.49	11136.27
461.67	11213.51
461.85	11463.94
462.04	11325.85
462.22	11920.35
462.40	11487.35
462.59	11555.22
462.77	11499.05
462.95	11733.11
463.13	11646.51
463.32	11723.74
463.50	11686.29
463.68	11845.45
463.86	11915.67
464.05	11861.84
464.23	11562.25
464.41	11896.94
464.59	11499.05
464.78	12023.33
464.96	12056.10
465.14	11791.62
465.32	11999.93
465.50	11894.60
465.69	12315.90
465.87	12189.51
466.05	12142.70
466.23	12217.60
466.41	12397.82
466.60	12664.64
466.78	12245.68
466.96	12269.09
467.14	12463.35
467.32	12650.60
467.51	12622.51
467.69	12196.53
467.87	12683.36
468.05	12753.58
468.23	12414.20
468.41	12585.06
468.60	12847.20
468.78	12599.10
468.96	12744.22
469.14	12936.14
469.32	13046.15
469.50	12608.47
469.69	13296.58
469.87	13177.22
470.05	13228.71
470.23	13362.12
470.41	12973.59
470.59	13315.31
470.77	13071.89
470.95	13385.52
471.14	13434.68
471.32	13329.35
471.50	13755.33
471.68	13495.53
471.86	13666.39
472.04	13738.94
472.22	14045.55
472.40	13741.29
472.58	13731.92
472.77	13848.95
472.95	14211.73
473.13	14691.54
473.31	14099.39
473.49	14267.91
473.67	14209.39
473.85	14445.79
474.03	14361.53
474.21	14728.99
474.39	14801.55
474.57	14597.92
474.75	14808.57
474.93	15131.56
475.12	14839.00
475.30	15264.97
475.48	15250.93
475.66	15147.95
475.84	15239.23
476.02	15571.58
476.20	15527.11
476.38	15609.03
476.56	15807.98
476.74	15859.47
476.92	15927.35
477.10	15899.26
477.28	16121.61
477.46	16376.73
477.64	16425.88
477.82	16692.70
478.00	17256.77
478.18	17006.33
478.36	16901.01
478.54	16996.97
478.72	17378.48
478.90	17394.86
479.08	17628.92
479.26	17771.69
479.44	17949.57
479.62	18036.17
479.80	18216.39
479.98	18223.41
480.16	18700.88
480.34	18567.47
480.52	18572.15
480.70	18520.66
480.88	18422.36
481.06	18560.45
481.24	18834.29
481.41	19019.19
481.59	19412.40
481.77	19974.13
481.95	19690.93
482.13	19438.15
482.31	19885.19
482.49	20299.47
482.67	20327.55
482.85	20393.09
483.03	20636.50
483.21	21149.08
483.39	21200.57
483.57	20798.00
483.74	21191.21
483.92	21326.96
484.10	21451.01
484.28	21453.35
484.46	22141.47
484.64	22471.48
484.82	22146.15
485.00	22555.74
485.18	22845.97
485.35	23150.24
485.53	22960.66
485.71	23229.82
485.89	23491.96
486.07	23901.55
486.25	23388.97
486.43	23751.76
486.61	23857.08
486.78	24105.18
486.96	24123.90
487.14	25120.97
487.32	24374.34
487.50	24774.57
487.68	25006.28
487.85	25364.39
488.03	25741.21
488.21	25905.05
488.39	25844.20
488.57	25872.28
488.75	26171.87
488.92	26721.90
489.10	26871.69
489.28	26621.25
489.46	27337.46
489.64	27143.19
489.81	28009.19
489.99	27777.48
490.17	27763.43
490.35	28098.13
490.53	28004.51
490.70	28496.02
490.88	27960.04
491.06	28446.87
491.24	28851.78
491.41	29280.10
491.59	29240.31
491.77	29174.78
491.95	29432.24
492.13	29832.47
492.30	30176.53
492.48	29923.75
492.66	30335.68
492.84	30614.21
493.01	30735.92
493.19	30520.59
493.37	30911.46
493.54	31150.19
493.72	31793.84
493.90	31491.91
494.08	31892.14
494.25	32091.09
494.43	32173.00
494.61	32130.87
494.79	32765.16
494.96	32676.22
495.14	33092.83
495.32	33312.84
495.49	33270.72
495.67	33397.10
495.85	33357.32
496.02	33879.25
496.20	34029.05
496.38	34504.18
496.55	34227.99
496.73	35171.23
496.91	34766.32
497.09	35196.98
497.26	35035.48
497.44	34937.18
497.62	35412.31
497.79	35667.42
497.97	35599.55
498.14	36098.08
498.32	36339.16
498.50	36318.09
498.67	36666.83
498.85	36383.63
499.03	37027.28
499.20	37165.37
499.38	36943.02
499.56	37104.51
499.73	37596.03
499.91	37326.86
500.08	37752.84
500.26	37544.53
500.44	37687.31
500.61	38375.42
500.79	38122.65
500.97	38068.81
501.14	38990.98
501.32	38731.18
501.49	38904.38
501.67	38684.37
501.84	39047.16
502.02	38639.90
502.20	39606.55
502.37	39449.73
502.55	39948.26
502.72	39768.04
502.90	39784.43
503.07	39913.16
503.25	40112.10
503.43	39852.30
503.60	40339.13
503.78	40467.86
503.95	40076.99
504.13	40563.82
504.30	40718.30
504.48	40416.37
504.65	41006.19
504.83	41038.95
505.01	41385.35
505.18	40884.48
505.36	41572.60
505.53	41404.08
505.71	42110.92
505.88	41706.01
506.06	41471.95
506.23	42375.40
506.41	41535.15
506.58	42759.25
506.76	42712.44
506.93	42836.48
507.11	42326.25
507.28	42529.87
507.46	43100.97
507.63	43159.48
507.81	43578.43
507.98	42958.19
508.16	43363.11
508.33	43260.12
508.50	43517.58
508.68	43627.59
508.85	44105.06
509.03	43714.19
509.20	44570.82
509.38	44369.54
509.55	44664.44
509.73	44170.59
509.90	44631.68
510.08	44121.44
510.25	44697.21
510.42	44514.65
510.60	45170.00
510.77	45364.26
510.95	45406.39
511.12	45392.35
511.30	45572.57
511.47	45771.52
511.64	45574.91
511.82	46146.00
511.99	46246.65
512.17	46066.42
512.34	45745.77
512.51	46326.22
512.69	46635.17
512.86	46436.23
513.04	46672.62
513.21	46834.12
513.38	46850.50
513.56	46955.83
513.73	47318.61
513.90	47100.94
514.08	47213.29
514.25	47409.89
514.43	47440.32
514.60	47370.10
514.77	47615.86
514.95	47910.77
515.12	47395.85
515.29	47524.58
515.47	48081.63
515.64	47899.06
515.81	48102.69
515.99	48088.65
516.16	48421.00
516.33	48601.22
516.51	48828.26
516.68	48779.10
516.85	48512.28
517.03	49031.88
517.20	49081.03
517.37	49207.42
517.54	49066.99
517.72	49090.40
517.89	49230.83
518.06	49331.47
518.24	49462.54
518.41	49663.83
518.58	49450.84
518.75	49923.63
518.93	50230.24
519.10	49755.11
519.27	49710.64
519.45	49942.35
519.62	50260.66
519.79	50286.41
519.96	50232.58
520.14	50321.52
520.31	50464.29
520.48	50499.40
520.65	50735.79
520.83	50576.64
521.00	50871.54
521.17	50857.50
521.34	50857.50
521.52	50944.10
521.69	50742.81
521.86	51374.76
522.03	51454.34
522.20	51554.98
522.38	51772.65
522.55	51667.33
522.72	51669.67
522.89	51526.89
523.07	51746.90
523.24	51887.34
523.41	51625.20
523.58	51501.15
523.75	52112.03
523.92	51978.62
524.10	52088.62
524.27	52121.39
524.44	51903.72
524.61	52161.18
524.78	52484.17
524.96	52280.55
525.13	52137.77
525.30	52701.84
525.47	52526.30
525.64	52631.63
525.81	52772.06
525.98	52882.06
526.16	52734.61
526.33	52952.28
526.50	53160.59
526.67	53001.43
526.84	53043.56
527.01	52889.09
527.18	53090.37
527.36	53251.87
527.53	53247.19
527.70	53411.02
527.87	53560.82
528.04	53214.42
528.21	53230.80
528.38	53448.47
528.55	53719.98
528.72	53495.28
528.89	53502.31
529.07	53364.21
529.24	53460.18
529.41	54017.22
529.58	53820.62
529.75	54057.01
529.92	53939.99
530.09	53904.88
530.26	53680.19
530.43	54052.33
530.60	53991.48
530.77	53900.20
530.94	54152.97
531.11	54024.25
531.28	54162.34
531.46	54436.18
531.63	54499.37
531.80	54323.83
531.97	54387.03
532.14	54672.57
532.31	54478.31
532.48	54501.71
532.65	54838.75
532.82	54482.99
532.99	54920.67
533.16	54436.18
533.33	54983.86
533.50	55011.95
533.67	55082.17
533.84	54731.09
534.01	55014.29
534.18	55070.46
534.35	55564.32
534.52	55187.49
534.69	55283.45
534.86	55309.20
535.03	55208.56
535.20	55358.35
535.37	55608.79
535.54	55674.32
535.71	55257.71
535.88	55618.15
536.05	55622.83
536.22	55714.11
536.38	55753.90
536.55	55613.47
536.72	55421.55
536.89	55503.46
537.06	55700.07
537.23	56126.05
537.40	55849.86
537.57	55489.42
537.74	55994.98
537.91	56219.67
538.08	55931.78
538.25	55952.85
538.42	56046.47
538.59	56198.60
538.75	55896.67
538.92	56163.50
539.09	56240.73
539.26	56327.33
539.43	56062.85
539.60	56170.52
539.77	56509.89
539.94	56612.88
540.11	56341.38
540.28	56388.19
540.44	56547.34
540.61	56341.38
540.78	56296.91
540.95	56765.01
541.12	56683.09
541.29	56500.53
541.46	56615.22
541.62	56619.90
541.79	56755.65
541.96	56638.62
542.13	56610.54
542.30	56718.20
542.47	56872.68
542.63	56809.48
542.80	56849.27
542.97	57209.71
543.14	57181.63
543.31	57439.09
543.48	57301.00
543.64	57413.34
543.81	57506.96
543.98	57385.25
544.15	57230.78
544.32	57656.76
544.48	57670.80
544.65	57696.55
544.82	57602.92
544.99	57293.97
545.16	57546.75
545.32	57467.17
545.49	57715.27
545.66	57759.74
545.83	57691.86
546.00	57935.28
546.16	57748.04
546.33	57602.92
546.50	57726.97
546.67	57872.09
546.83	57373.55
547.00	57757.40
547.17	57895.49
547.34	57869.75
547.50	58075.71
547.67	58174.02
547.84	58005.50
548.00	58288.70
548.17	58417.43
548.34	58176.36
548.51	58157.63
548.67	58365.94
548.84	58328.49
549.01	57975.07
549.18	58199.76
549.34	58394.03
549.51	58288.70
549.68	58567.23
549.84	58466.58
550.01	58412.75
550.18	58497.01
550.34	58513.39
550.51	58658.51
550.68	58546.16
550.84	58157.63
551.01	58546.16
551.18	58630.42
551.34	58515.73
551.51	58740.42
551.68	58478.28
551.84	58656.17
552.01	58623.40
552.18	58632.76
552.34	58653.82
552.51	58789.58
552.68	58677.23
552.84	58665.53
553.01	59100.87
553.18	58848.09
553.34	58930.01
553.51	58838.73
553.67	58850.43
553.84	59100.87
554.01	58986.18
554.17	59011.93
554.34	59138.32
554.51	59145.34
554.67	59110.23
554.84	58869.15
555.00	59124.27
555.17	59089.16
555.33	59222.58
555.50	59018.95
555.67	59063.42
555.83	59182.79
556.00	59290.45
556.16	59639.19
556.33	59529.19
556.50	59267.05
556.66	59400.46
556.83	59248.32
556.99	59330.24
557.16	59629.83
557.32	59473.01
557.49	59599.40
557.65	59388.75
557.82	59444.93
557.98	59449.61
558.15	59398.12
558.32	59515.14
558.48	59346.62
558.65	59496.42
558.81	59545.57
558.98	59664.94
559.14	59737.49
559.31	59796.01
559.47	59688.34
559.64	59845.16
559.80	59765.58
559.97	59821.75
560.13	59735.15
560.30	59749.20
560.46	59758.56
560.63	59877.93
560.79	59898.99
560.96	59873.24
561.12	59861.54
561.29	60086.23
561.45	59889.63
561.61	59805.37
561.78	59917.71
561.94	59924.74
562.11	59943.46
562.27	59714.09
562.44	60025.38
562.60	60130.70
562.77	60154.11
562.93	59803.03
563.10	60135.38
563.26	60046.44
563.42	60175.17
563.59	59959.84
563.75	60189.22
563.92	60163.47
564.08	60020.70
564.24	60275.82
564.41	60154.11
564.57	60294.54
564.74	60172.83
564.90	60147.09
565.07	60116.66
565.23	60266.45
565.39	60334.33
565.56	60156.45
565.72	60189.22
565.88	60247.73
566.05	60266.45
566.21	60257.09
566.38	60240.71
566.54	60498.17
566.70	60383.48
566.87	60502.85
567.03	60247.73
567.19	60708.82
567.36	60341.35
567.52	60275.82
567.68	60617.53
567.85	60601.15
568.01	60509.87
568.17	60507.53
568.34	60535.62
568.50	60210.28
568.66	60350.71
568.83	60505.19
568.99	60444.33
569.15	60582.43
569.32	60666.69
569.48	60519.23
569.64	60706.47
569.81	60601.15
569.97	60381.14
570.13	60491.15
570.30	60542.64
570.46	60465.40
570.62	60437.31
570.78	60690.09
570.95	60584.77
571.11	60533.28
571.27	60596.47
571.43	60633.92
571.60	60844.57
571.76	60690.09
571.92	60523.91
572.09	60652.64
572.25	60568.38
572.41	60678.39
572.57	60563.70
572.74	61022.45
572.90	60736.90
573.06	60811.80
573.22	60680.73
573.38	60654.98
573.55	60746.26
573.71	60945.21
573.87	60907.76
574.03	60711.16
574.20	60977.98
574.36	60790.73
574.52	60788.39
574.68	60945.21
574.84	60917.12
575.01	60952.23
575.17	60769.67
575.33	61013.08
575.49	60743.92
575.65	60886.70
575.82	60973.30
575.98	60774.35
576.14	60940.53
576.30	61038.83
576.46	60891.38
576.62	60977.98
576.79	60919.46
576.95	60669.03
577.11	60832.86
577.27	61038.83
577.43	60931.17
577.59	60830.52
577.75	60842.23
577.92	60795.42
578.08	60889.04
578.24	61144.16
578.40	60996.70
578.56	60963.93
578.72	60912.44
578.88	61109.05
579.04	61207.35
579.21	60956.91
579.37	61205.01
579.53	61066.92
579.69	60683.07
579.85	60924.14
580.01	60963.93
580.17	60755.63
580.33	61102.03
580.49	61153.52
580.65	61169.90
580.82	60802.44
580.98	60912.44
581.14	60767.33
581.30	61249.48
581.46	61006.06
581.62	60811.80
581.78	60987.34
581.94	61087.98
582.10	61233.10
582.26	60987.34
582.42	60980.32
582.58	61064.58
582.74	60977.98
582.90	61066.92
583.06	61017.77
583.22	60919.46
583.38	61001.38
583.54	60889.04
583.70	61041.17
583.86	61223.73
584.02	60917.12
584.18	61057.56
584.34	61059.90
584.50	61036.49
584.66	61027.13
584.82	60949.89
584.98	61499.92
585.14	61233.10
585.30	61137.13
585.46	60910.10
585.62	61052.87
585.78	61228.41
585.94	61080.96
586.10	61151.18
586.26	61202.67
586.42	61310.33
586.58	61158.20
586.74	61195.65
586.90	61223.73
587.06	61031.81
587.22	61125.43
587.38	61130.11
587.54	61158.20
587.70	61247.14
587.86	61181.60
588.02	61254.16
588.18	61244.80
588.34	61038.83
588.49	61167.56
