SpectraSuite Data File
++++++++++++++++++++++++++++++++++++
Date: Fri Oct 25 11:23:22 EDT 2013
User: price-jones
Dark Spectrum Present: No
Reference Spectrum Present: No
Number of Sampled Component Spectra: 1
Spectrometers: USB2+H05261
Integration Time (usec): 100000 (USB2+H05261)
Spectra Averaged: 1 (USB2+H05261)
Boxcar Smoothing: 0 (USB2+H05261)
Correct for Electrical Dark: No (USB2+H05261)
Strobe/Lamp Enabled: No (USB2+H05261)
Correct for Detector Non-linearity: No (USB2+H05261)
Correct for Stray Light: No (USB2+H05261)
Number of Pixels in Processed Spectrum: 2048
>>>>>Begin Processed Spectral Data<<<<<
365.73	189.58
365.92	189.58
366.12	189.58
366.32	161.50
366.52	203.63
366.72	205.97
366.91	105.32
367.11	93.62
367.31	198.95
367.51	124.05
367.70	147.45
367.90	142.77
368.10	147.45
368.30	95.96
368.49	124.05
368.69	117.03
368.89	138.09
369.09	124.05
369.28	154.48
369.48	222.35
369.68	180.22
369.87	227.03
370.07	166.18
370.27	245.76
370.47	264.48
370.66	638.97
370.86	554.71
371.06	746.63
371.25	667.05
371.45	571.09
371.65	662.37
371.84	685.78
372.04	720.88
372.24	791.10
372.44	730.25
372.63	741.95
372.83	734.93
373.03	718.54
373.22	706.84
373.42	791.10
373.62	802.80
373.81	795.78
374.01	758.33
374.21	835.57
374.40	807.48
374.60	884.72
374.79	774.72
374.99	767.70
375.19	802.80
375.38	866.00
375.58	835.57
375.78	903.45
375.97	905.79
376.17	938.55
376.37	774.72
376.56	875.36
376.76	807.48
376.95	917.49
377.15	880.04
377.35	833.23
377.54	926.85
377.74	870.68
377.93	943.24
378.13	929.19
378.33	936.21
378.52	985.37
378.72	891.74
378.91	844.93
379.11	912.81
379.31	966.64
379.50	966.64
379.70	1011.11
379.89	1011.11
380.09	994.73
380.28	1025.15
380.48	1015.79
380.68	1001.75
380.87	978.34
381.07	1034.52
381.26	1074.31
381.46	1006.43
381.65	980.68
381.85	1043.88
382.04	1053.24
382.24	1064.94
382.43	1116.44
382.63	1067.28
382.83	1032.18
383.02	1025.15
383.22	1090.69
383.41	1004.09
383.61	1015.79
383.80	1165.59
384.00	1149.20
384.19	1128.14
384.39	1219.42
384.58	1083.67
384.78	1170.27
384.97	1174.95
385.17	1123.46
385.36	1100.05
385.56	1163.25
385.75	1191.33
385.95	1210.06
386.14	1188.99
386.34	1160.91
386.53	1217.08
386.72	1203.04
386.92	1221.76
387.11	1233.46
387.31	1284.95
387.50	1277.93
387.70	1313.04
387.89	1235.80
388.09	1158.57
388.28	1289.64
388.48	1331.76
388.67	1359.85
388.86	1266.23
389.06	1238.14
389.25	1357.51
389.45	1315.38
389.64	1338.79
389.84	1364.53
390.03	1528.37
390.22	1336.45
390.42	1430.07
390.61	1373.89
390.81	1338.79
391.00	1348.15
391.19	1483.90
391.39	1437.09
391.58	1425.39
391.78	1469.86
391.97	1437.09
392.16	1394.96
392.36	1526.03
392.55	1511.99
392.75	1451.13
392.94	1500.28
393.13	1563.48
393.33	1528.37
393.52	1629.01
393.71	1563.48
393.91	1540.07
394.10	1572.84
394.29	1542.41
394.49	1533.05
394.68	1696.89
394.88	1636.03
395.07	1809.23
395.26	1680.50
395.46	1696.89
395.65	1654.76
395.84	1736.68
396.04	1783.49
396.23	1760.08
396.42	1881.79
396.62	1722.63
396.81	1837.32
397.00	1764.76
397.19	1797.53
397.39	1776.47
397.58	1827.96
397.77	1767.10
397.97	1851.36
398.16	1912.22
398.35	1823.28
398.55	1760.08
398.74	1886.47
398.93	1975.41
399.12	1959.03
399.32	1900.52
399.51	1994.14
399.70	2057.33
399.90	1952.01
400.09	2064.35
400.28	2146.27
400.47	2050.31
400.67	2104.14
400.86	2064.35
401.05	2129.89
401.24	2066.69
401.44	2214.15
401.63	2172.02
401.82	2214.15
402.01	2134.57
402.21	2132.23
402.40	2221.17
402.59	2157.97
402.78	2230.53
402.97	2216.49
403.17	2296.07
403.36	2277.34
403.55	2452.88
403.74	2267.98
403.93	2279.68
404.13	2312.45
404.32	2349.90
404.51	2345.22
404.70	2342.88
404.89	2457.56
405.09	2516.08
405.28	2473.95
405.47	2422.45
405.66	2504.37
405.85	2534.80
406.05	2459.90
406.24	2574.59
406.43	2635.44
406.62	2607.36
406.81	2672.89
407.00	2640.12
407.20	2626.08
407.39	2672.89
407.58	2546.50
407.77	2621.40
407.96	2761.83
408.15	2693.96
408.34	2771.19
408.54	2796.94
408.73	2862.48
408.92	2754.81
409.11	2841.41
409.30	2885.88
409.49	2939.71
409.68	2988.86
409.87	2862.48
410.07	2991.20
410.26	3002.91
410.45	3026.31
410.64	3162.06
410.83	3143.34
411.02	3110.57
411.21	3119.93
411.40	3183.13
411.59	3185.47
411.78	3173.77
411.98	3171.43
412.17	3253.34
412.36	3309.52
412.55	3288.45
412.74	3356.33
412.93	3445.27
413.12	3368.03
413.31	3709.75
413.50	3466.33
413.69	3492.08
413.88	3543.57
414.07	3503.78
414.26	3686.34
414.45	3655.92
414.64	3634.85
414.83	3758.90
415.02	3843.16
415.22	3868.91
415.41	3971.89
415.60	3908.69
415.79	3936.78
415.98	3847.84
416.17	3957.85
416.36	3974.23
416.55	4011.68
416.74	4074.87
416.93	3992.95
417.12	4105.30
417.31	4121.68
417.50	4170.83
417.69	4430.63
417.88	4203.60
418.07	4210.62
418.26	4250.41
418.45	4320.63
418.64	4491.49
418.83	4472.76
419.02	4362.76
419.21	4486.81
419.39	4580.43
419.58	4491.49
419.77	4486.81
419.96	4557.02
420.15	4683.41
420.34	4681.07
420.53	4730.22
420.72	4685.75
420.91	4699.80
421.10	4774.69
421.29	4767.67
421.48	4655.33
421.67	4840.23
421.86	4779.37
422.05	4770.01
422.24	4851.93
422.43	5015.77
422.61	4760.65
422.80	4905.76
422.99	4999.38
423.18	4950.23
423.37	5095.35
423.56	4964.28
423.75	4929.17
423.94	4884.70
424.13	4674.05
424.32	4791.08
424.50	4842.57
424.69	5118.75
424.88	5156.20
425.07	5100.03
425.26	5043.85
425.45	4992.36
425.64	4973.64
425.83	5008.75
426.01	5118.75
426.20	5020.45
426.39	5146.84
426.58	5179.61
426.77	4992.36
426.96	5205.35
427.15	5233.44
427.33	5280.25
427.52	5305.99
427.71	5313.02
427.90	5270.89
428.09	5235.78
428.28	5383.23
428.46	5502.60
428.65	5413.66
428.84	5549.41
429.03	5603.24
429.22	5256.84
429.40	5504.94
429.59	5518.98
429.78	5378.55
429.97	5149.18
430.16	5533.03
430.34	5596.22
430.53	5767.08
430.72	5397.28
430.91	5706.23
431.10	5717.93
431.28	5846.66
431.47	5675.80
431.66	5860.70
431.85	5816.23
432.03	5893.47
432.22	6087.73
432.41	5856.02
432.60	5954.32
432.79	5970.71
432.97	6171.99
433.16	6031.56
433.35	5940.28
433.54	6092.41
433.72	6164.97
433.91	6174.33
434.10	6232.85
434.28	6225.82
434.47	6200.08
434.66	6207.10
434.85	6183.70
435.03	6384.98
435.22	6150.93
435.41	6370.94
435.59	6431.79
435.78	6401.37
435.97	6497.33
436.16	6321.79
436.34	6562.86
436.53	6633.08
436.72	6717.34
436.90	6490.31
437.09	6565.20
437.28	6612.01
437.46	6764.15
437.65	6679.89
437.84	6787.55
438.02	6881.18
438.21	6925.65
438.40	6705.63
438.58	6892.88
438.77	7103.53
438.96	7073.10
439.14	7166.72
439.33	7318.86
439.52	7274.38
439.70	7248.64
439.89	7279.07
440.08	7536.52
440.26	7438.22
440.45	7389.07
440.63	7576.31
440.82	7686.32
441.01	7520.14
441.19	7599.72
441.38	7831.43
441.57	7595.04
441.75	7761.22
441.94	7943.78
442.12	7779.94
442.31	8021.02
442.50	8109.96
442.68	8067.83
442.87	8037.40
443.05	8140.38
443.24	8194.22
443.43	8421.25
443.61	8257.41
443.80	8545.30
443.98	8018.68
444.17	7882.92
444.35	8236.35
444.54	8393.16
444.73	8367.42
444.91	8222.30
445.10	8475.08
445.28	8304.22
445.47	8571.04
445.65	8346.35
445.84	8514.87
446.02	8524.23
446.21	8449.33
446.39	8336.99
446.58	8678.71
446.77	8676.37
446.95	8505.51
447.14	8737.22
447.32	8812.12
447.51	8528.91
447.69	8610.83
447.88	8706.79
448.06	8683.39
448.25	8477.42
448.43	8533.59
448.62	8662.32
448.80	8629.56
448.99	8681.05
449.17	8669.34
449.36	8622.53
449.54	8833.18
449.73	9041.49
449.91	8990.00
450.10	8999.36
450.28	9104.68
450.46	9139.79
450.65	9109.36
450.83	9041.49
451.02	9132.77
451.20	9369.16
451.39	9107.02
451.57	9174.90
451.76	9174.90
451.94	9111.71
452.13	9291.93
452.31	9329.38
452.49	9373.85
452.68	9357.46
452.86	9294.27
453.05	9490.87
453.23	9598.54
453.42	9479.17
453.60	9418.32
453.78	9750.67
453.97	9591.52
454.15	9621.94
454.34	9586.83
454.52	9767.06
454.70	9720.24
454.89	9635.99
455.07	9914.51
455.26	9895.78
455.44	9987.07
455.62	9837.27
455.81	9802.16
455.99	9991.75
456.17	10141.54
456.36	9928.55
456.54	10186.01
456.73	10129.84
456.91	10595.61
457.09	10485.60
457.28	10499.64
457.46	10534.75
457.64	10712.63
457.83	10562.84
458.01	10490.28
458.19	10820.30
458.38	10672.84
458.56	10892.85
458.74	10836.68
458.93	10717.31
459.11	10862.43
459.29	10738.38
459.48	11084.78
459.66	10892.85
459.84	11049.67
460.03	11187.76
460.21	11257.98
460.39	10970.09
460.57	11176.06
460.76	11131.59
460.94	11335.21
461.12	11133.93
461.31	11115.20
461.49	11215.85
461.67	11286.06
461.85	11606.72
462.04	11468.62
462.22	11494.37
462.40	11690.98
462.59	11559.91
462.77	11662.89
462.95	11922.69
463.13	11627.78
463.32	11665.23
463.50	11857.15
463.68	11765.87
463.86	11910.99
464.05	11808.00
464.23	11627.78
464.41	11894.60
464.59	11978.86
464.78	12154.40
464.96	12173.13
465.14	11929.71
465.32	12142.70
465.50	12334.62
465.69	12236.32
465.87	12203.55
466.05	12208.23
466.23	12217.60
466.41	12056.10
466.60	12615.49
466.78	12294.83
466.96	12308.88
467.14	12273.77
467.32	12355.69
467.51	12510.16
467.69	12318.24
467.87	12739.54
468.05	12662.30
468.23	12507.82
468.41	12613.15
468.60	12517.18
468.78	12784.01
468.96	12505.48
469.14	12929.12
469.32	12837.84
469.50	12802.73
469.69	13081.25
469.87	13177.22
470.05	13191.26
470.23	13415.95
470.41	13193.60
470.59	13558.72
470.77	13455.74
470.95	13209.98
471.14	13586.81
471.32	13322.33
471.50	13841.93
471.68	13792.78
471.86	13703.84
472.04	13816.18
472.22	14141.52
472.40	13752.99
472.58	14036.19
472.77	13954.27
472.95	14232.80
473.13	14642.39
473.31	14115.77
473.49	14356.85
473.67	14251.52
473.85	14391.95
474.03	14822.61
474.21	14878.79
474.39	14778.14
474.57	14960.70
474.75	14871.76
474.93	14864.74
475.12	15054.33
475.30	15302.42
475.48	15101.14
475.66	15187.74
475.84	15379.66
476.02	15515.41
476.20	15332.85
476.38	15807.98
476.56	15927.35
476.74	16114.59
476.92	15777.55
477.10	15756.49
477.28	16130.97
477.46	16166.08
477.64	16233.96
477.82	16507.80
478.00	16893.99
478.18	16985.27
478.36	17224.00
478.54	17214.64
478.72	17427.63
478.90	17383.16
479.08	17731.90
479.26	17657.00
479.44	17816.16
479.62	18427.04
479.80	17989.36
479.98	18363.84
480.16	18782.80
480.34	18555.77
480.52	18878.76
480.70	18892.80
480.88	18693.86
481.06	18860.04
481.24	18897.49
481.41	19173.67
481.59	19227.50
481.77	19477.94
481.95	19538.79
482.13	19976.47
482.31	19726.04
482.49	20767.57
482.67	20339.26
482.85	20423.51
483.03	20819.07
483.21	20884.60
483.39	20767.57
483.57	21092.91
483.74	21399.52
483.92	21678.04
484.10	21406.54
484.28	21914.44
484.46	22150.83
484.64	22455.10
484.82	22031.46
485.00	22527.66
485.18	22703.20
485.35	22984.06
485.53	23257.90
485.71	23515.36
485.89	23850.06
486.07	23459.19
486.25	23733.03
486.43	23889.85
486.61	24086.45
486.78	24081.77
486.96	24285.40
487.14	24870.53
487.32	24762.87
487.50	24800.32
487.68	25090.54
487.85	25200.55
488.03	25450.99
488.21	25916.75
488.39	25912.07
488.57	26349.75
488.75	26096.97
488.92	26806.16
489.10	26937.23
489.28	26757.00
489.46	27264.90
489.64	27211.07
489.81	27517.68
489.99	28063.02
490.17	27889.82
490.35	27962.38
490.53	28201.11
490.70	28453.89
490.88	28140.26
491.06	29095.20
491.24	28863.49
491.41	28973.49
491.59	29619.48
491.77	29392.45
491.95	29446.28
492.13	29797.36
492.30	30096.95
492.48	30085.25
492.66	30064.18
492.84	30775.70
493.01	30831.88
493.19	30345.05
493.37	30976.99
493.54	31318.71
493.72	31800.86
493.90	31934.27
494.08	31936.61
494.25	32112.15
494.43	32320.46
494.61	32608.34
494.79	32613.02
494.96	32477.27
495.14	32833.04
495.32	33446.26
495.49	33083.47
495.67	33633.50
495.85	33472.00
496.02	34057.14
496.20	33968.19
496.38	34045.43
496.55	34490.13
496.73	34801.43
496.91	34881.00
497.09	35196.98
497.26	35147.82
497.44	35021.44
497.62	35391.24
497.79	36102.76
497.97	35915.52
498.14	36165.96
498.32	36196.38
498.50	36275.96
498.67	36414.05
498.85	36708.96
499.03	37235.58
499.20	36886.84
499.38	36861.10
499.56	37139.62
499.73	37338.57
499.91	37593.68
500.08	38108.60
500.26	37649.86
500.44	37745.82
500.61	37846.46
500.79	37675.60
500.97	38052.43
501.14	38747.57
501.32	39026.09
501.49	38703.10
501.67	38988.64
501.84	39143.12
502.02	39016.73
502.20	39311.64
502.37	39484.84
502.55	39576.12
502.72	39978.69
502.90	39826.56
503.07	39529.31
503.25	40058.27
503.43	39665.06
503.60	40360.20
503.78	40212.74
503.95	40582.55
504.13	40835.33
504.30	40992.14
504.48	40832.99
504.65	41280.03
504.83	41319.82
505.01	41237.90
505.18	41216.83
505.36	41610.04
505.53	41287.05
505.71	41741.11
505.88	42209.22
506.06	41539.83
506.23	42071.13
506.41	42389.44
506.58	41996.23
506.76	42625.84
506.93	42300.50
507.11	42684.35
507.28	42459.66
507.46	43449.70
507.63	43421.62
507.81	43627.59
507.98	42927.77
508.16	43510.56
508.33	43564.39
508.50	43681.42
508.68	43796.10
508.85	44198.68
509.03	44069.95
509.20	44215.06
509.38	44378.90
509.55	44847.00
509.73	44786.15
509.90	44676.15
510.08	44891.48
510.25	44938.29
510.42	44999.14
510.60	45481.29
510.77	45165.32
510.95	45680.24
511.12	45301.07
511.30	45762.15
511.47	45422.78
511.64	45720.02
511.82	46199.83
511.99	46202.18
512.17	46195.15
512.34	46295.80
512.51	46562.62
512.69	46869.23
512.86	46522.83
513.04	46864.55
513.21	46698.37
513.38	46766.24
513.56	47374.78
513.73	46894.97
513.90	47189.88
514.08	47306.91
514.25	47494.15
514.43	47540.96
514.60	47716.50
514.77	47798.42
514.95	47955.24
515.12	47374.78
515.29	48109.71
515.47	48203.33
515.64	48240.78
515.81	47669.69
515.99	48629.31
516.16	48629.31
516.33	48704.21
516.51	48772.08
516.68	48800.17
516.85	48587.18
517.03	49284.66
517.20	49001.46
517.37	49212.10
517.54	49193.38
517.72	49230.83
517.89	49188.70
518.06	49762.13
518.24	49638.08
518.41	49385.30
518.58	49851.07
518.75	49549.14
518.93	49794.90
519.10	49614.68
519.27	49687.23
519.45	49867.45
519.62	50057.04
519.79	50461.95
519.96	50028.95
520.14	50632.81
520.31	50354.29
520.48	50529.83
520.65	50485.36
520.83	51180.49
521.00	51047.08
521.17	50766.22
521.34	50663.24
521.52	51016.66
521.69	51098.58
521.86	51297.52
522.03	51292.84
522.20	51578.39
522.38	51908.40
522.55	51608.81
522.72	51470.72
522.89	51517.53
523.07	51674.35
523.24	51810.10
523.41	52083.94
523.58	51941.17
523.75	52254.80
523.92	52009.04
524.10	51861.59
524.27	52006.70
524.44	52161.18
524.61	52317.99
524.78	52549.71
524.96	52402.25
525.13	52374.17
525.30	52821.21
525.47	52828.23
525.64	52912.49
525.81	52725.25
525.98	52837.59
526.16	52617.58
526.33	52732.27
526.50	53301.02
526.67	53010.79
526.84	53015.47
527.01	53286.98
527.18	53083.35
527.36	52954.62
527.53	53509.33
527.70	53542.10
527.87	53455.50
528.04	53312.72
528.21	53584.22
528.38	53497.62
528.55	53647.42
528.72	53420.39
528.89	53640.40
529.07	53404.00
529.24	53710.61
529.41	53778.49
529.58	53602.95
529.75	53553.80
529.92	53818.28
530.09	53979.78
530.26	54080.42
530.43	54024.25
530.60	54148.29
530.77	53701.25
530.94	54595.34
531.11	54120.21
531.28	54246.60
531.46	54405.75
531.63	54527.46
531.80	54485.33
531.97	54578.95
532.14	54656.19
532.31	54461.93
532.48	54656.19
532.65	54712.36
532.82	54630.44
532.99	54923.01
533.16	54770.88
533.33	55086.85
533.50	55121.96
533.67	54745.13
533.84	54714.70
534.01	55065.78
534.18	54981.52
534.35	55400.48
534.52	55136.00
534.69	55224.94
534.86	55451.97
535.03	55391.12
535.20	55341.97
535.37	55496.44
535.54	55728.16
535.71	55470.70
535.88	55908.38
536.05	55662.62
536.22	55671.98
536.38	55758.58
536.55	55707.09
536.72	55847.52
536.89	55519.85
537.06	55770.28
537.23	56067.53
537.40	55908.38
537.57	55899.01
537.74	55686.03
537.91	56051.15
538.08	55950.51
538.25	55877.95
538.42	55798.37
538.59	56294.56
538.75	56046.47
538.92	56179.88
539.09	56268.82
539.26	56367.12
539.43	56350.74
539.60	56484.15
539.77	56472.45
539.94	56692.46
540.11	56622.24
540.28	56690.12
540.44	56694.80
540.61	56406.91
540.78	56442.02
540.95	56669.05
541.12	56633.94
541.29	56816.50
541.46	56844.59
541.62	56622.24
541.79	56718.20
541.96	56594.15
542.13	57010.77
542.30	56802.46
542.47	57097.37
542.63	56973.32
542.80	57050.56
542.97	57130.14
543.14	57132.48
543.31	57401.64
543.48	57382.91
543.64	57528.03
543.81	57492.92
543.98	57488.24
544.15	57347.81
544.32	57602.92
544.48	57626.33
544.65	57502.28
544.82	57820.59
544.99	57521.01
545.16	57626.33
545.32	57455.47
545.49	57806.55
545.66	57881.45
545.83	57982.09
546.00	57881.45
546.16	57916.56
546.33	57794.85
546.50	57694.21
546.67	57982.09
546.83	57670.80
547.00	57893.15
547.17	57780.81
547.34	57825.28
547.50	58220.83
547.67	58056.99
547.84	58136.57
548.00	58354.24
548.17	58295.72
548.34	58426.79
548.51	58389.34
548.67	58398.71
548.84	58232.53
549.01	58143.59
549.18	58277.00
549.34	58375.30
549.51	58585.95
549.68	58588.29
549.84	58475.94
550.01	58721.70
550.18	58344.87
550.34	58464.24
550.51	58604.67
550.68	58302.74
550.84	58403.39
551.01	58660.85
551.18	58656.17
551.34	58560.20
551.51	58761.49
551.68	58848.09
551.84	58717.02
552.01	58623.40
552.18	58639.78
552.34	58843.41
552.51	58960.44
552.68	58710.00
552.84	58983.84
553.01	59096.19
553.18	58873.84
553.34	59208.53
553.51	58822.34
553.67	59119.59
553.84	58997.88
554.01	59070.44
554.17	59086.82
554.34	59231.94
554.51	58920.65
554.67	59243.64
554.84	59093.85
555.00	59025.97
555.17	59138.32
555.33	59250.66
555.50	58883.20
555.67	59065.76
555.83	59135.98
556.00	59363.01
556.16	59536.21
556.33	59379.39
556.50	59409.82
556.66	59601.74
556.83	59231.94
556.99	59414.50
557.16	59615.79
557.32	59772.60
557.49	59716.43
557.65	59512.80
557.82	59365.35
557.98	59587.70
558.15	59620.47
558.32	59641.53
558.48	59470.67
558.65	59690.68
558.81	59604.08
558.98	59756.22
559.14	59739.83
559.31	59854.52
559.47	59824.09
559.64	59835.80
559.80	59966.87
559.97	59969.21
560.13	59770.26
560.30	59877.93
560.46	59882.61
560.63	59819.41
560.79	59938.78
560.96	60053.47
561.12	60034.74
561.29	59994.95
561.45	60184.54
561.61	59852.18
561.78	59852.18
561.94	59898.99
562.11	59840.48
562.27	59992.61
562.44	60126.02
562.60	60079.21
562.77	60030.06
562.93	59934.10
563.10	60217.30
563.26	60053.47
563.42	60264.11
563.59	60149.43
563.75	60128.36
563.92	60278.16
564.08	60236.03
564.24	60196.24
564.41	60282.84
564.57	60292.20
564.74	60339.01
564.90	60247.73
565.07	60240.71
565.23	60149.43
565.39	60161.13
565.56	60367.10
565.72	60217.30
565.88	60446.68
566.05	60217.30
566.21	60446.68
566.38	60516.89
566.54	60240.71
566.70	60472.42
566.87	60451.36
567.03	60383.48
567.19	60582.43
567.36	60498.17
567.52	60224.32
567.68	60851.59
567.85	60533.28
568.01	60619.88
568.17	60594.13
568.34	60287.52
568.50	60540.30
568.66	60409.23
568.83	60432.63
568.99	60404.55
569.15	60650.30
569.32	60636.26
569.48	60484.12
569.64	60535.62
569.81	60463.06
569.97	60584.77
570.13	60664.35
570.30	60636.26
570.46	60608.17
570.62	60928.83
570.78	60816.48
570.95	60711.16
571.11	60793.07
571.27	60605.83
571.43	60683.07
571.60	60898.40
571.76	60622.22
571.92	60711.16
572.09	60650.30
572.25	60697.11
572.41	60678.39
572.57	60601.15
572.74	61029.47
572.90	60828.18
573.06	60863.29
573.22	60690.09
573.38	60942.87
573.55	60692.43
573.71	61050.53
573.87	60699.45
574.03	60704.13
574.20	60968.61
574.36	60919.46
574.52	60896.06
574.68	60748.60
574.84	60959.25
575.01	60956.91
575.17	60825.84
575.33	60664.35
575.49	60718.18
575.65	60982.66
575.82	60858.61
575.98	60874.99
576.14	61062.24
576.30	60994.36
576.46	60764.99
576.62	61020.11
576.79	60992.02
576.95	60907.76
577.11	61050.53
577.27	60977.98
577.43	61010.74
577.59	60685.41
577.75	60793.07
577.92	60816.48
578.08	60879.67
578.24	61013.08
578.40	61134.79
578.56	61188.63
578.72	61027.13
578.88	61109.05
579.04	61015.43
579.21	61066.92
579.37	61254.16
579.53	61017.77
579.69	60959.25
579.85	60921.80
580.01	61179.26
580.17	60889.04
580.33	61104.37
580.49	61183.94
580.65	60776.69
580.82	60865.63
580.98	60921.80
581.14	60926.49
581.30	61296.29
581.46	61010.74
581.62	60999.04
581.78	61158.20
581.94	61050.53
582.10	61130.11
582.26	61116.07
582.42	61020.11
582.58	61092.66
582.74	61062.24
582.90	61031.81
583.06	61057.56
583.22	60891.38
583.38	61162.88
583.54	61085.64
583.70	61209.69
583.86	61083.30
584.02	60874.99
584.18	61219.05
584.34	61064.58
584.50	61146.50
584.66	60903.08
584.82	60933.51
584.98	61354.80
585.14	61057.56
585.30	61125.43
585.46	61146.50
585.62	61134.79
585.78	61153.52
585.94	61022.45
586.10	61099.68
586.26	61102.03
586.42	61113.73
586.58	61286.93
586.74	61158.20
586.90	61195.65
587.06	61048.19
587.22	61357.14
587.38	61090.32
587.54	61153.52
587.70	61300.97
587.86	61085.64
588.02	61275.22
588.18	61350.12
588.34	61134.79
588.49	61305.65
