SpectraSuite Data File
++++++++++++++++++++++++++++++++++++
Date: Fri Oct 25 10:44:18 EDT 2013
User: price-jones
Dark Spectrum Present: No
Reference Spectrum Present: No
Number of Sampled Component Spectra: 1
Spectrometers: USB2+H05261
Integration Time (usec): 100000 (USB2+H05261)
Spectra Averaged: 1 (USB2+H05261)
Boxcar Smoothing: 0 (USB2+H05261)
Correct for Electrical Dark: No (USB2+H05261)
Strobe/Lamp Enabled: No (USB2+H05261)
Correct for Detector Non-linearity: No (USB2+H05261)
Correct for Stray Light: No (USB2+H05261)
Number of Pixels in Processed Spectrum: 2048
>>>>>Begin Processed Spectral Data<<<<<
365.73	173.20
365.92	173.20
366.12	173.20
366.32	70.22
366.52	25.75
366.72	63.19
366.91	0.00
367.11	21.06
367.31	46.81
367.51	37.45
367.70	25.75
367.90	46.81
368.10	46.81
368.30	35.11
368.49	65.54
368.69	11.70
368.89	60.85
369.09	79.58
369.28	16.38
369.48	110.01
369.68	91.28
369.87	81.92
370.07	72.56
370.27	187.24
370.47	175.54
370.66	374.49
370.86	407.25
371.06	428.32
371.25	414.27
371.45	400.23
371.65	486.83
371.84	454.06
372.04	433.00
372.24	458.74
372.44	484.49
372.63	533.64
372.83	535.98
373.03	545.34
373.22	517.26
373.42	517.26
373.62	629.60
373.81	573.43
374.01	533.64
374.21	538.32
374.40	547.69
374.60	580.45
374.79	587.47
374.99	526.62
375.19	524.28
375.38	638.97
375.58	641.31
375.78	589.82
375.97	571.09
376.17	660.03
376.37	655.35
376.56	512.58
376.76	643.65
376.95	645.99
377.15	720.88
377.35	643.65
377.54	716.20
377.74	657.69
377.93	559.39
378.13	688.12
378.33	648.33
378.52	681.10
378.72	603.86
378.91	624.92
379.11	573.43
379.31	589.82
379.50	636.63
379.70	634.29
379.89	685.78
380.09	720.88
380.28	660.03
380.48	720.88
380.68	713.86
380.87	739.61
381.07	636.63
381.26	690.46
381.46	781.74
381.65	716.20
381.85	657.69
382.04	765.36
382.24	732.59
382.43	660.03
382.63	655.35
382.83	730.25
383.02	709.18
383.22	779.40
383.41	688.12
383.61	751.31
383.80	716.20
384.00	723.23
384.19	819.19
384.39	866.00
384.58	763.01
384.78	800.46
384.97	833.23
385.17	903.45
385.36	765.36
385.56	844.93
385.75	716.20
385.95	823.87
386.14	786.42
386.34	833.23
386.53	840.25
386.72	866.00
386.92	851.96
387.11	896.43
387.31	889.40
387.50	826.21
387.70	786.42
387.89	823.87
388.09	950.26
388.28	812.17
388.48	877.70
388.67	887.06
388.86	957.28
389.06	929.19
389.25	978.34
389.45	924.51
389.64	964.30
389.84	912.81
390.03	929.19
390.22	992.39
390.42	1011.11
390.61	1025.15
390.81	1013.45
391.00	968.98
391.19	1086.01
391.39	1067.28
391.58	1060.26
391.78	983.02
391.97	1064.94
392.16	1074.31
392.36	999.41
392.55	1034.52
392.75	1121.12
392.94	1027.50
393.13	1013.45
393.33	1078.99
393.52	1022.81
393.71	1062.60
393.91	1078.99
394.10	1114.10
394.29	1135.16
394.49	1137.50
394.68	1263.89
394.88	1179.63
395.07	1235.80
395.26	1282.61
395.46	1193.67
395.65	1210.06
395.84	1221.76
396.04	1207.72
396.23	1130.48
396.42	1123.46
396.62	1156.22
396.81	1172.61
397.00	1177.29
397.19	1266.23
397.39	1350.49
397.58	1397.30
397.77	1380.92
397.97	1362.19
398.16	1432.41
398.35	1404.32
398.55	1409.00
398.74	1514.33
398.93	1540.07
399.12	1561.14
399.32	1528.37
399.51	1509.65
399.70	1544.75
399.90	1598.59
400.09	1526.03
400.28	1678.16
400.47	1689.87
400.67	1647.74
400.86	1673.48
401.05	1652.42
401.24	1720.29
401.44	1790.51
401.63	1736.68
401.82	1748.38
402.01	1678.16
402.21	1760.08
402.40	1713.27
402.59	1778.81
402.78	1790.51
402.97	1797.53
403.17	1820.94
403.36	1792.85
403.55	1870.09
403.74	1830.30
403.93	1905.20
404.13	1767.10
404.32	1827.96
404.51	1916.90
404.70	1933.28
404.89	1867.75
405.09	2052.65
405.28	1966.05
405.47	2059.67
405.66	1935.62
405.85	2005.84
406.05	2064.35
406.24	1968.39
406.43	2054.99
406.62	2052.65
406.81	2094.78
407.00	2115.84
407.20	2122.87
407.39	2150.95
407.58	2059.67
407.77	2090.10
407.96	2179.04
408.15	2265.64
408.34	2279.68
408.54	2223.51
408.73	2333.51
408.92	2352.24
409.11	2387.35
409.30	2230.53
409.49	2307.77
409.68	2317.13
409.87	2310.11
410.07	2338.20
410.26	2361.60
410.45	2443.52
410.64	2487.99
410.83	2537.14
411.02	2462.24
411.21	2682.25
411.40	2633.10
411.59	2729.06
411.78	2633.10
411.98	2665.87
412.17	2715.02
412.36	2743.11
412.55	2665.87
412.74	2656.51
412.93	2738.43
413.12	2757.15
413.31	2897.58
413.50	2881.20
413.69	2818.00
413.88	2778.22
414.07	2832.05
414.26	2998.23
414.45	2970.14
414.64	2944.39
414.83	2970.14
415.02	3026.31
415.22	3094.19
415.41	3066.10
415.60	3215.90
415.79	3131.64
415.98	3293.13
416.17	3251.00
416.36	3213.56
416.55	3258.03
416.74	3307.18
416.93	3316.54
417.12	3274.41
417.31	3258.03
417.50	3403.14
417.69	3517.83
417.88	3456.97
418.07	3468.67
418.26	3449.95
418.45	3407.82
418.64	3620.81
418.83	3630.17
419.02	3590.38
419.21	3625.49
419.39	3506.12
419.58	3471.01
419.77	3538.89
419.96	3653.58
420.15	3815.07
420.34	3782.31
420.53	3700.39
420.72	3838.48
420.91	3798.69
421.10	3836.14
421.29	3840.82
421.48	3786.99
421.67	3751.88
421.86	3960.19
422.05	3896.99
422.24	3810.39
422.43	3829.12
422.61	3819.75
422.80	3801.03
422.99	3836.14
423.18	3964.87
423.37	3864.22
423.56	4002.32
423.75	3801.03
423.94	3784.65
424.13	3669.96
424.32	3789.33
424.50	4018.70
424.69	4037.42
424.88	4025.72
425.07	3936.78
425.26	3840.82
425.45	3815.07
425.64	3988.27
425.83	3864.22
426.01	4011.68
426.20	3988.27
426.39	4053.81
426.58	3988.27
426.77	3964.87
426.96	4021.04
427.15	3810.39
427.33	4051.47
427.52	4126.36
427.71	4227.01
427.90	4014.02
428.09	4100.62
428.28	4168.49
428.46	4105.30
428.65	4039.76
428.84	4241.05
429.03	4187.22
429.22	4140.41
429.40	4030.40
429.59	4112.32
429.78	3948.48
429.97	3857.20
430.16	4053.81
430.34	4161.47
430.53	4098.28
430.72	4252.75
430.91	4320.63
431.10	4308.93
431.28	4643.62
431.47	4685.75
431.66	4678.73
431.85	4547.66
432.03	4617.88
432.22	4720.86
432.41	4631.92
432.60	4631.92
432.79	4720.86
432.97	4772.35
433.16	4744.27
433.35	4657.67
433.54	4610.86
433.72	4739.58
433.91	4730.22
434.10	4793.42
434.28	4793.42
434.47	4957.25
434.66	4980.66
434.85	5064.92
435.03	4978.32
435.22	4924.49
435.41	5064.92
435.59	5111.73
435.78	4997.04
435.97	5235.78
436.16	5256.84
436.34	5205.35
436.53	5097.69
436.72	5266.21
436.90	5064.92
437.09	5259.18
437.28	5198.33
437.46	5195.99
437.65	5144.50
437.84	5212.37
438.02	5172.58
438.21	5200.67
438.40	5320.04
438.58	5420.68
438.77	5437.06
438.96	5350.46
439.14	5572.82
439.33	5675.80
439.52	5736.65
439.70	5586.86
439.89	5774.10
440.08	5544.73
440.26	5600.90
440.45	5680.48
440.63	5825.59
440.82	5930.92
441.01	5907.51
441.19	6188.38
441.38	6090.07
441.57	6148.59
441.75	6026.88
441.94	6289.02
442.12	6246.89
442.31	6410.73
442.50	6277.32
442.68	6258.59
442.87	6373.28
443.05	6356.90
443.24	6431.79
443.43	6530.09
443.61	6609.67
443.80	6717.34
443.98	6438.81
444.17	6282.00
444.35	6480.94
444.54	6640.10
444.73	6576.91
444.91	6586.27
445.10	6457.54
445.28	6415.41
445.47	6296.04
445.65	6324.13
445.84	6534.78
446.02	6539.46
446.21	6523.07
446.39	6607.33
446.58	6942.03
446.77	6733.72
446.95	6483.28
447.14	6612.01
447.32	6635.42
447.51	6829.68
447.69	6586.27
447.88	6857.77
448.06	6766.49
448.25	6895.22
448.43	6808.62
448.62	6736.06
448.80	6539.46
448.99	6883.52
449.17	6986.50
449.36	6895.22
449.54	6895.22
449.73	7274.38
449.91	7204.17
450.10	7248.64
450.28	7243.96
450.46	7173.74
450.65	7281.41
450.83	7192.47
451.02	7215.87
451.20	7262.68
451.39	7368.01
451.57	7272.04
451.76	7096.50
451.94	7194.81
452.13	7351.62
452.31	7075.44
452.49	7148.00
452.68	7297.79
452.86	7290.77
453.05	7304.81
453.23	7070.76
453.42	7211.19
453.60	7492.05
453.78	7536.52
453.97	7470.99
454.15	7265.02
454.34	7286.09
454.52	7520.14
454.70	7473.33
454.89	7726.11
455.07	7611.42
455.26	7651.21
455.44	7817.39
455.62	7653.55
455.81	7676.96
455.99	7737.81
456.17	7857.18
456.36	7786.96
456.54	8011.65
456.73	8004.63
456.91	8173.15
457.09	8163.79
457.28	8201.24
457.46	7988.25
457.64	8226.98
457.83	8194.22
458.01	7995.27
458.19	8365.07
458.38	8231.66
458.56	8102.93
458.74	8152.09
458.93	8266.77
459.11	8201.24
459.29	8205.92
459.48	8072.51
459.66	8177.83
459.84	8587.43
460.03	8461.04
460.21	8533.59
460.39	8622.53
460.57	8493.80
460.76	8617.85
460.94	8610.83
461.12	8650.62
461.31	8629.56
461.49	8695.09
461.67	8744.24
461.85	8861.27
462.04	8692.75
462.22	9107.02
462.40	8973.61
462.59	8966.59
462.77	9067.24
462.95	9118.73
463.13	8901.06
463.32	8992.34
463.50	9039.15
463.68	9217.03
463.86	9193.62
464.05	8980.64
464.23	8709.13
464.41	9090.64
464.59	8854.25
464.78	9170.22
464.96	9132.77
465.14	9100.00
465.32	9322.35
465.50	9408.95
465.69	9418.32
465.87	9001.70
466.05	9217.03
466.23	9301.29
466.41	9240.44
466.60	9479.17
466.78	9240.44
466.96	9238.09
467.14	9263.84
467.32	9153.84
467.51	9657.05
467.69	9125.75
467.87	9481.51
468.05	9530.66
468.23	9556.41
468.41	9472.15
468.60	9582.15
468.78	9675.77
468.96	9561.09
469.14	9621.94
469.32	9792.80
469.50	9561.09
469.69	9593.86
469.87	9867.70
470.05	9930.89
470.23	9790.46
470.41	9853.66
470.59	10012.81
470.77	9729.61
470.95	10120.48
471.14	10162.61
471.32	9902.81
471.50	10417.72
471.68	10480.92
471.86	10319.42
472.04	10429.43
472.22	10967.75
472.40	10443.47
472.58	10436.45
472.77	10314.74
472.95	10345.17
473.13	10787.53
473.31	10499.64
473.49	10635.39
473.67	10581.56
473.85	10705.61
474.03	10775.83
474.21	10883.49
474.39	11094.14
474.57	11178.40
474.75	11136.27
474.93	11087.12
475.12	11094.14
475.30	11321.17
475.48	11222.87
475.66	11295.43
475.84	11442.88
476.02	11269.68
476.20	11506.07
476.38	11566.93
476.56	11873.54
476.74	11796.30
476.92	11943.75
477.10	11903.96
477.28	12138.02
477.46	11880.56
477.64	12306.54
477.82	12472.71
478.00	12437.61
478.18	12559.31
478.36	12585.06
478.54	12704.43
478.72	12744.22
478.90	13060.19
479.08	13107.00
479.26	13207.64
479.44	13078.91
479.62	13324.67
479.80	13387.86
479.98	13378.50
480.16	13778.73
480.34	13710.86
480.52	13659.37
480.70	13907.46
480.88	13790.44
481.06	13989.38
481.24	13820.86
481.41	14171.94
481.59	14534.73
481.77	14520.68
481.95	14457.49
482.13	14258.54
482.31	14541.75
482.49	14869.42
482.67	15037.94
482.85	15335.19
483.03	14909.21
483.21	15283.70
483.39	15431.15
483.57	15246.25
483.74	15749.46
483.92	15690.95
484.10	15609.03
484.28	15786.91
484.46	16060.76
484.64	16505.46
484.82	15946.07
485.00	16037.35
485.18	16339.28
485.35	16608.44
485.53	16453.97
485.71	16056.08
485.89	16673.98
486.07	16755.90
486.25	16807.39
486.43	16861.22
486.61	16744.19
486.78	17378.48
486.96	17551.68
487.14	17893.40
487.32	17886.37
487.50	18127.45
487.68	18192.98
487.85	18555.77
488.03	18508.96
488.21	18614.28
488.39	18759.39
488.57	18803.86
488.75	18735.99
488.92	19243.88
489.10	19559.86
489.28	19246.23
489.46	19552.84
489.64	20025.62
489.81	20098.18
489.99	20116.90
490.17	20290.10
490.35	20383.73
490.53	20386.07
490.70	20339.26
490.88	20390.75
491.06	20552.24
491.24	20622.46
491.41	20809.70
491.59	20603.74
491.77	20879.92
491.95	21137.38
492.13	21451.01
492.30	21799.75
492.48	21731.87
492.66	22125.08
492.84	21972.95
493.01	22169.55
493.19	22111.04
493.37	22452.76
493.54	22389.56
493.72	22572.13
493.90	22703.20
494.08	22888.10
494.25	23126.83
494.43	23433.44
494.61	23346.84
494.79	23288.33
494.96	23426.42
495.14	23749.42
495.32	23681.54
495.49	23833.68
495.67	24051.34
495.85	24070.07
496.02	24027.94
496.20	24114.54
496.38	24531.15
496.55	24388.38
496.73	24950.11
496.91	24510.09
497.09	24945.43
497.26	25003.94
497.44	25195.87
497.62	25539.93
497.79	25511.84
497.97	25228.63
498.14	25656.95
498.32	25488.43
498.50	25781.00
498.67	26017.40
498.85	25912.07
499.03	26204.64
499.20	26246.77
499.38	26511.25
499.56	26637.64
499.73	26632.96
499.91	26749.98
500.08	26614.23
500.26	26541.68
500.44	26712.53
500.61	26927.86
500.79	26553.38
500.97	27042.55
501.14	27105.74
501.32	27419.38
501.49	27358.52
501.67	27374.91
501.84	27681.52
502.02	27433.42
502.20	28175.37
502.37	27892.16
502.55	27807.90
502.72	28020.89
502.90	28421.13
503.07	28264.31
503.25	28278.35
503.43	28226.86
503.60	28189.41
503.78	28137.92
503.95	28353.25
504.13	28795.61
504.30	28676.24
504.48	28723.05
504.65	28814.34
504.83	29102.22
505.01	29230.95
505.18	29221.59
505.36	29579.69
505.53	29343.30
505.71	29661.61
505.88	29642.88
506.06	29546.92
506.23	30017.37
506.41	29575.01
506.58	30057.16
506.76	29916.73
506.93	29963.54
507.11	30602.50
507.28	30099.29
507.46	30003.33
507.63	30127.38
507.81	30003.33
507.98	30270.15
508.16	30579.10
508.33	30834.22
508.50	30829.54
508.68	30761.66
508.85	31337.43
509.03	31377.22
509.20	30998.06
509.38	31524.68
509.55	31393.61
509.73	31213.38
509.90	31489.57
510.08	31491.91
510.25	31552.76
510.42	31695.53
510.60	31955.33
510.77	31936.61
510.95	32055.98
511.12	31920.23
511.30	32025.55
511.47	32683.24
511.64	32163.64
511.82	32500.68
511.99	32327.48
512.17	32261.94
512.34	32460.89
512.51	32446.85
512.69	33177.09
512.86	32835.38
513.04	32711.33
513.21	33064.75
513.38	32926.66
513.56	33160.71
513.73	32772.18
513.90	32818.99
514.08	32973.47
514.25	33111.56
514.43	33317.53
514.60	33385.40
514.77	33500.09
514.95	33663.93
515.12	33535.20
515.29	33773.93
515.47	34227.99
515.64	34155.44
515.81	33993.94
515.99	33853.51
516.16	34059.48
516.33	33397.10
516.51	34092.24
516.68	33329.23
516.85	33483.70
517.03	33619.46
517.20	34092.24
517.37	34160.12
517.54	34525.24
517.72	34342.68
517.89	34258.42
518.06	33993.94
518.24	34026.71
518.41	34389.49
518.58	34766.32
518.75	34794.40
518.93	34499.50
519.10	34576.73
519.27	35082.29
519.45	35054.20
519.62	35255.49
519.79	35583.16
519.96	35154.85
520.14	35599.55
520.31	35625.29
520.48	35262.51
520.65	35871.05
520.83	36095.74
521.00	36055.95
521.17	35814.88
521.34	36210.43
521.52	36180.00
521.69	36180.00
521.86	36404.69
522.03	36472.57
522.20	36552.15
522.38	36833.01
522.55	36734.71
522.72	36753.43
522.89	36690.24
523.07	37170.05
523.24	36886.84
523.41	37312.82
523.58	36758.11
523.75	37270.69
523.92	37310.48
524.10	37331.54
524.27	37507.08
524.44	37518.79
524.61	37640.50
524.78	38108.60
524.96	37612.41
525.13	38155.41
525.30	37935.40
525.47	38108.60
525.64	37853.48
525.81	38382.45
525.98	37841.78
526.16	37642.84
526.33	37455.59
526.50	37633.47
526.67	37352.61
526.84	37013.23
527.01	37357.29
527.18	37904.98
527.36	38204.56
527.53	38253.72
527.70	38745.23
527.87	38267.76
528.04	38635.22
528.21	38883.32
528.38	38593.09
528.55	39056.52
528.72	38899.70
528.89	39220.36
529.07	39264.83
529.24	39026.09
529.41	38696.08
529.58	38691.40
529.75	39180.57
529.92	39133.76
530.09	39386.54
530.26	39250.78
530.43	39763.36
530.60	38951.20
530.77	39093.97
530.94	39786.77
531.11	39391.22
531.28	39510.58
531.46	39613.57
531.63	39578.46
531.80	39768.04
531.97	39625.27
532.14	39700.17
532.31	39220.36
532.48	39533.99
532.65	39725.91
532.82	39716.55
532.99	40219.77
533.16	39543.35
533.33	40444.46
533.50	40493.61
533.67	40350.84
533.84	40156.57
534.01	40549.78
534.18	40058.27
534.35	40430.41
534.52	40172.96
534.69	40444.46
534.86	40367.22
535.03	40598.93
535.20	41476.63
535.37	41134.92
535.54	41734.09
535.71	40919.59
535.88	41184.07
536.05	40753.41
536.22	40624.68
536.38	40680.85
536.55	40863.41
536.72	41001.50
536.89	40603.61
537.06	41010.87
537.23	41481.31
537.40	41006.19
537.57	41132.57
537.74	41165.34
537.91	41507.06
538.08	41486.00
538.25	41427.48
538.42	41294.07
538.59	41785.58
538.75	41167.68
538.92	41464.93
539.09	41324.50
539.26	41537.49
539.43	41626.43
539.60	41488.34
539.77	41457.91
539.94	41294.07
540.11	41354.93
540.28	41593.66
540.44	41514.08
540.61	41432.16
540.78	41280.03
540.95	41420.46
541.12	41474.29
541.29	41467.27
541.46	41855.80
541.62	41734.09
541.79	42211.56
541.96	41794.95
542.13	42146.03
542.30	41993.89
542.47	42216.24
542.63	41818.35
542.80	42232.63
542.97	42686.69
543.14	42618.81
543.31	41979.85
543.48	42756.91
543.64	43508.22
543.81	43241.40
543.98	43133.73
544.15	42766.27
544.32	43107.99
544.48	43400.55
544.65	43262.46
544.82	43466.09
544.99	43201.61
545.16	43154.80
545.32	43241.40
545.49	43590.14
545.66	43683.76
545.83	43536.30
546.00	43831.21
546.16	43058.84
546.33	42906.70
546.50	43143.09
546.67	43618.22
546.83	43428.64
547.00	43482.47
547.17	43253.10
547.34	43634.61
547.50	43405.23
547.67	43800.79
547.84	43812.49
548.00	44004.41
548.17	43814.83
548.34	43789.08
548.51	43887.39
548.67	44009.09
548.84	43920.15
549.01	43746.95
549.18	43606.52
549.34	44229.10
549.51	44301.66
549.68	44072.29
549.84	44273.57
550.01	44460.82
550.18	44390.60
550.34	44137.82
550.51	44383.58
550.68	44392.94
550.84	43524.60
551.01	44186.97
551.18	44311.02
551.34	44774.45
551.51	44662.10
551.68	44362.51
551.84	44680.83
552.01	44495.92
552.18	44650.40
552.34	44488.90
552.51	44587.21
552.68	44091.01
552.84	44741.68
553.01	44575.50
553.18	44732.32
553.34	44580.18
553.51	44083.99
553.67	44524.01
553.84	44954.67
554.01	44741.68
554.17	45067.02
554.34	44779.13
554.51	44959.35
554.67	45099.78
554.84	44706.57
555.00	45048.29
555.17	44797.85
555.33	44931.26
555.50	45123.19
555.67	44954.67
555.83	45067.02
556.00	45022.54
556.16	45092.76
556.33	44933.60
556.50	44910.20
556.66	44994.46
556.83	44940.63
556.99	45621.72
557.16	45500.01
557.32	45375.97
557.49	45317.45
557.65	45263.62
557.82	45345.54
557.98	45972.80
558.15	45436.82
558.32	45635.77
558.48	45308.09
558.65	44776.79
558.81	44985.10
558.98	45202.77
559.14	45113.83
559.31	45617.04
559.47	45333.84
559.64	45844.07
559.80	45741.09
559.97	45612.36
560.13	45373.63
560.30	45357.24
560.46	45359.58
560.63	45476.61
560.79	45647.47
560.96	45666.19
561.12	45392.35
561.29	45270.64
561.45	45455.54
561.61	45523.42
561.78	45546.82
561.94	45298.73
562.11	45184.04
562.27	45595.98
562.44	45333.84
562.60	45954.08
562.77	45701.30
562.93	45649.81
563.10	45848.75
563.26	45361.92
563.42	45750.45
563.59	45511.72
563.75	46014.93
563.92	45862.80
564.08	45666.19
564.24	46024.29
564.41	45977.48
564.57	45619.38
564.74	46143.66
564.90	46033.66
565.07	46227.92
565.23	45888.54
565.39	45490.65
565.56	45570.23
565.72	45731.73
565.88	45785.56
566.05	45886.20
566.21	45844.07
566.38	45617.04
566.54	45605.34
566.70	45951.74
566.87	45888.54
567.03	46075.79
567.19	46602.41
567.36	46436.23
567.52	46068.76
567.68	46291.12
567.85	45965.78
568.01	46066.42
568.17	45867.48
568.34	46007.91
568.50	46309.84
568.66	45914.29
568.83	46160.05
568.99	45954.08
569.15	46244.30
569.32	45799.60
569.48	45705.98
569.64	45827.69
569.81	45893.22
569.97	45656.83
570.13	45930.67
570.30	46014.93
570.46	45776.20
570.62	45380.65
570.78	45544.48
570.95	45558.53
571.11	45731.73
571.27	46028.98
571.43	46068.76
571.60	45832.37
571.76	45982.16
571.92	46401.12
572.09	46021.95
572.25	46349.63
572.41	46330.90
572.57	46190.47
572.74	46204.52
572.90	46398.78
573.06	46251.33
573.22	46113.23
573.38	46227.92
573.55	45977.48
573.71	46410.48
573.87	46335.59
574.03	46103.87
574.20	46302.82
574.36	46330.90
574.52	45982.16
574.68	46223.24
574.84	46188.13
575.01	46017.27
575.17	46309.84
575.33	46103.87
575.49	45771.52
575.65	46564.96
575.82	46574.32
575.98	46138.98
576.14	46857.52
576.30	45961.10
576.46	45979.82
576.62	45776.20
576.79	46216.22
576.95	45844.07
577.11	46216.22
577.27	46227.92
577.43	46260.69
577.59	45940.04
577.75	46153.02
577.92	46143.66
578.08	46141.32
578.24	45682.58
578.40	46110.89
578.56	46007.91
578.72	46560.28
578.88	46213.88
579.04	46300.48
579.21	46085.15
579.37	46153.02
579.53	46284.09
579.69	46169.41
579.85	46036.00
580.01	45975.14
580.17	46040.68
580.33	46314.52
580.49	46206.86
580.65	46248.99
580.82	46241.96
580.98	46401.12
581.14	46277.07
581.30	46410.48
581.46	46136.64
581.62	46464.32
581.78	46569.64
581.94	46323.88
582.10	46213.88
582.26	46553.26
582.42	46436.23
582.58	46143.66
582.74	46653.90
582.90	46557.94
583.06	46328.56
583.22	46515.81
583.38	46483.04
583.54	46747.52
583.70	46890.29
583.86	46696.03
584.02	45937.69
584.18	46508.79
584.34	45998.55
584.50	46506.44
584.66	46157.70
584.82	46146.00
584.98	46822.42
585.14	46801.35
585.30	46080.47
585.46	46529.85
585.62	46176.43
585.78	46241.96
585.94	45897.91
586.10	46492.40
586.26	46370.69
586.42	46403.46
586.58	46169.41
586.74	46190.47
586.90	46195.15
587.06	46363.67
587.22	46241.96
587.38	45970.46
587.54	46473.68
587.70	46469.00
587.86	46443.25
588.02	46366.01
588.18	46501.76
588.34	45853.44
588.49	46082.81
588.65	45668.53
588.81	45359.58
588.97	46059.40
589.13	45661.51
589.29	45933.01
589.45	46232.60
589.61	46209.20
589.77	46246.65
589.93	46129.62
