SpectraSuite Data File
++++++++++++++++++++++++++++++++++++
Date: Fri Oct 25 11:26:27 EDT 2013
User: price-jones
Dark Spectrum Present: No
Reference Spectrum Present: No
Number of Sampled Component Spectra: 1
Spectrometers: USB2+H05261
Integration Time (usec): 100000 (USB2+H05261)
Spectra Averaged: 1 (USB2+H05261)
Boxcar Smoothing: 0 (USB2+H05261)
Correct for Electrical Dark: No (USB2+H05261)
Strobe/Lamp Enabled: No (USB2+H05261)
Correct for Detector Non-linearity: No (USB2+H05261)
Correct for Stray Light: No (USB2+H05261)
Number of Pixels in Processed Spectrum: 2048
>>>>>Begin Processed Spectral Data<<<<<
365.73	182.56
365.92	182.56
366.12	182.56
366.32	121.71
366.52	142.77
366.72	128.73
366.91	102.98
367.11	159.16
367.31	194.26
367.51	135.75
367.70	105.32
367.90	152.13
368.10	98.30
368.30	102.98
368.49	168.52
368.69	210.65
368.89	102.98
369.09	131.07
369.28	222.35
369.48	177.88
369.68	152.13
369.87	271.50
370.07	257.46
370.27	224.69
370.47	348.74
370.66	571.09
370.86	585.13
371.06	634.29
371.25	650.67
371.45	685.78
371.65	648.33
371.84	685.78
372.04	727.91
372.24	683.44
372.44	641.31
372.63	725.57
372.83	821.53
373.03	753.65
373.22	718.54
373.42	720.88
373.62	786.42
373.81	772.38
374.01	807.48
374.21	833.23
374.40	830.89
374.60	847.27
374.79	795.78
374.99	812.17
375.19	851.96
375.38	800.46
375.58	875.36
375.78	919.83
375.97	866.00
376.17	894.08
376.37	851.96
376.56	830.89
376.76	877.70
376.95	837.91
377.15	943.24
377.35	873.02
377.54	905.79
377.74	889.40
377.93	814.51
378.13	957.28
378.33	1004.09
378.52	884.72
378.72	971.32
378.91	947.92
379.11	917.49
379.31	952.60
379.50	1011.11
379.70	947.92
379.89	1032.18
380.09	961.96
380.28	931.53
380.48	997.07
380.68	912.81
380.87	954.94
381.07	1020.47
381.26	1015.79
381.46	992.39
381.65	1069.62
381.85	1025.15
382.04	1032.18
382.24	997.07
382.43	1149.20
382.63	1055.58
382.83	1109.41
383.02	1123.46
383.22	1041.54
383.41	1048.56
383.61	1181.97
383.80	1144.52
384.00	1090.69
384.19	1041.54
384.39	1093.03
384.58	1102.39
384.78	1188.99
384.97	1142.18
385.17	1149.20
385.36	1144.52
385.56	1097.71
385.75	1163.25
385.95	1109.41
386.14	1184.31
386.34	1109.41
386.53	1254.53
386.72	1233.46
386.92	1315.38
387.11	1263.89
387.31	1303.68
387.50	1268.57
387.70	1256.87
387.89	1186.65
388.09	1270.91
388.28	1310.70
388.48	1186.65
388.67	1334.11
388.86	1341.13
389.06	1406.66
389.25	1256.87
389.45	1355.17
389.64	1263.89
389.84	1327.08
390.03	1423.05
390.22	1329.42
390.42	1416.02
390.61	1380.92
390.81	1432.41
391.00	1364.53
391.19	1364.53
391.39	1434.75
391.58	1364.53
391.78	1458.15
391.97	1460.49
392.16	1528.37
392.36	1481.56
392.55	1469.86
392.75	1586.88
392.94	1437.09
393.13	1521.35
393.33	1439.43
393.52	1507.30
393.71	1537.73
393.91	1490.92
394.10	1631.35
394.29	1514.33
394.49	1629.01
394.68	1631.35
394.88	1596.25
395.07	1643.06
395.26	1788.17
395.46	1689.87
395.65	1692.21
395.84	1781.15
396.04	1830.30
396.23	1703.91
396.42	1717.95
396.62	1732.00
396.81	1750.72
397.00	1729.66
397.19	1764.76
397.39	1715.61
397.58	1816.26
397.77	1750.72
397.97	1804.55
398.16	1795.19
398.35	1926.26
398.55	1823.28
398.74	1942.64
398.93	1919.24
399.12	1966.05
399.32	1902.86
399.51	1923.92
399.70	1961.37
399.90	1987.11
400.09	1942.64
400.28	2008.18
400.47	2026.90
400.67	2160.31
400.86	2104.14
401.05	2076.06
401.24	2085.42
401.44	2141.59
401.63	2141.59
401.82	2099.46
402.01	2139.25
402.21	2022.22
402.40	2160.31
402.59	2155.63
402.78	2253.94
402.97	2216.49
403.17	2349.90
403.36	2242.23
403.55	2356.92
403.74	2277.34
403.93	2279.68
404.13	2377.98
404.32	2342.88
404.51	2305.43
404.70	2427.14
404.89	2352.24
405.09	2506.71
405.28	2394.37
405.47	2457.56
405.66	2572.25
405.85	2385.01
406.05	2427.14
406.24	2513.74
406.43	2541.82
406.62	2551.18
406.81	2672.89
407.00	2537.14
407.20	2590.97
407.39	2731.41
407.58	2640.12
407.77	2775.88
407.96	2703.32
408.15	2761.83
408.34	2642.46
408.54	2841.41
408.73	2801.62
408.92	2782.90
409.11	2902.26
409.30	2818.00
409.49	2815.66
409.68	2920.99
409.87	2904.60
410.07	2911.63
410.26	2951.42
410.45	3030.99
410.64	3026.31
410.83	2977.16
411.02	3021.63
411.21	3206.53
411.40	2995.89
411.59	3145.68
411.78	3138.66
411.98	3197.17
412.17	3222.92
412.36	3155.04
412.55	3363.35
412.74	3384.41
412.93	3382.07
413.12	3283.77
413.31	3562.30
413.50	3571.66
413.69	3541.23
413.88	3534.21
414.07	3618.47
414.26	3534.21
414.45	3751.88
414.64	3513.14
414.83	3721.45
415.02	3758.90
415.22	3955.51
415.41	3854.86
415.60	3721.45
415.79	3971.89
415.98	3794.01
416.17	3896.99
416.36	4100.62
416.55	4025.72
416.74	3950.82
416.93	4102.96
417.12	4016.36
417.31	4131.05
417.50	4180.20
417.69	4236.37
417.88	4280.84
418.07	4285.52
418.26	4276.16
418.45	4301.90
418.64	4496.17
418.83	4283.18
419.02	4465.74
419.21	4660.01
419.39	4386.16
419.58	4397.87
419.77	4465.74
419.96	4470.42
420.15	4524.26
420.34	4594.47
420.53	4664.69
420.72	4629.58
420.91	4695.11
421.10	4702.14
421.29	4858.95
421.48	4662.35
421.67	4671.71
421.86	4793.42
422.05	4791.08
422.24	4760.65
422.43	4840.23
422.61	4809.80
422.80	4985.34
422.99	4938.53
423.18	4870.65
423.37	4887.04
423.56	4868.31
423.75	4798.10
423.94	4774.69
424.13	4660.01
424.32	4833.21
424.50	4915.12
424.69	5053.22
424.88	5050.88
425.07	4793.42
425.26	4975.98
425.45	4987.68
425.64	5046.20
425.83	4938.53
426.01	5083.64
426.20	4959.60
426.39	4999.38
426.58	5050.88
426.77	4978.32
426.96	5067.26
427.15	5160.88
427.33	5221.74
427.52	5008.75
427.71	5303.65
427.90	5359.83
428.09	5338.76
428.28	5451.11
428.46	5254.50
428.65	5355.15
428.84	5582.18
429.03	5523.66
429.22	5387.91
429.40	5453.45
429.59	5518.98
429.78	5284.93
429.97	5233.44
430.16	5528.35
430.34	5626.65
430.53	5689.84
430.72	5600.90
430.91	5596.22
431.10	5575.16
431.28	5783.46
431.47	5909.85
431.66	5820.91
431.85	5797.51
432.03	5984.75
432.22	5963.68
432.41	5785.80
432.60	5750.70
432.79	5940.28
432.97	6125.18
433.16	6066.67
433.35	5919.21
433.54	6125.18
433.72	6153.27
433.91	6080.71
434.10	6050.28
434.28	6071.35
434.47	6132.20
434.66	6127.52
434.85	6064.33
435.03	6253.91
435.22	6464.56
435.41	6431.79
435.59	6338.17
435.78	6389.66
435.97	6541.80
436.16	6310.08
436.34	6473.92
436.53	6576.91
436.72	6782.87
436.90	6363.92
437.09	6553.50
437.28	6539.46
437.46	6576.91
437.65	6764.15
437.84	6843.73
438.02	6820.32
438.21	6665.85
438.40	6644.78
438.58	7026.29
438.77	6881.18
438.96	6953.73
439.14	7204.17
439.33	7133.95
439.52	7262.68
439.70	7215.87
439.89	7384.39
440.08	7206.51
440.26	7288.43
440.45	7363.33
440.63	7494.40
440.82	7520.14
441.01	7393.75
441.19	7545.89
441.38	7620.78
441.57	7740.15
441.75	7651.21
441.94	8086.55
442.12	7896.97
442.31	7915.69
442.50	8039.74
442.68	8072.51
442.87	7995.27
443.05	8114.64
443.24	8262.09
443.43	8257.41
443.61	8142.72
443.80	8344.01
443.98	8046.76
444.17	7831.43
444.35	8177.83
444.54	8461.04
444.73	8372.10
444.91	8334.65
445.10	8334.65
445.28	8489.12
445.47	8489.12
445.65	8159.11
445.84	8454.02
446.02	8421.25
446.21	8505.51
446.39	8372.10
446.58	8437.63
446.77	8472.74
446.95	8224.64
447.14	8362.73
447.32	8472.74
447.51	8582.74
447.69	8409.54
447.88	8542.96
448.06	8346.35
448.25	8547.64
448.43	8655.30
448.62	8561.68
448.80	8566.36
448.99	8765.31
449.17	8697.43
449.36	8784.03
449.54	8702.11
449.73	9022.77
449.91	9036.81
450.10	8954.89
450.28	9100.00
450.46	9142.13
450.65	8985.32
450.83	9001.70
451.02	9027.45
451.20	9083.62
451.39	9371.50
451.57	9263.84
451.76	9011.06
451.94	9263.84
452.13	9139.79
452.31	9224.05
452.49	9287.25
452.68	9249.80
452.86	9430.02
453.05	9617.26
453.23	9469.81
453.42	9322.35
453.60	9411.29
453.78	9593.86
453.97	9500.23
454.15	9266.18
454.34	9420.66
454.52	9596.20
454.70	9633.64
454.89	9617.26
455.07	9867.70
455.26	9907.49
455.44	10003.45
455.62	10031.54
455.81	9813.87
455.99	9982.38
456.17	10003.45
456.36	9848.97
456.54	10022.17
456.73	10424.75
456.91	10375.59
457.09	10373.25
457.28	10609.65
457.46	10366.23
457.64	10445.81
457.83	10579.22
458.01	10239.84
458.19	10654.12
458.38	10452.83
458.56	10731.36
458.74	10740.72
458.93	10602.63
459.11	10675.18
459.29	10595.61
459.48	10787.53
459.66	10764.12
459.84	10864.77
460.03	11255.64
460.21	11056.69
460.39	11052.01
460.57	11030.94
460.76	10937.32
460.94	11154.99
461.12	11052.01
461.31	11197.12
461.49	10909.24
461.67	11115.20
461.85	11433.52
462.04	11367.98
462.22	11784.60
462.40	11487.35
462.59	11620.76
462.77	11431.18
462.95	11772.89
463.13	11693.32
463.32	11665.23
463.50	11749.49
463.68	11442.88
463.86	11829.07
464.05	11751.83
464.23	11606.72
464.41	11641.82
464.59	11789.28
464.78	12222.28
464.96	12133.34
465.14	11866.52
465.32	11896.94
465.50	11918.01
465.69	12184.83
465.87	12123.98
466.05	12208.23
466.23	12046.74
466.41	12109.93
466.60	12482.08
466.78	11925.03
466.96	12285.47
467.14	12475.06
467.32	12266.75
467.51	12500.80
467.69	12142.70
467.87	12283.13
468.05	12615.49
468.23	12519.53
468.41	12416.54
468.60	12744.22
468.78	12779.32
468.96	12465.69
469.14	12386.12
469.32	13071.89
469.50	12566.34
469.69	12924.44
469.87	13170.19
470.05	12901.03
470.23	13137.43
470.41	13146.79
470.59	13294.24
470.77	12952.52
470.95	13202.96
471.14	13364.46
471.32	13259.13
471.50	13575.11
471.68	13467.44
471.86	13699.16
472.04	13659.37
472.22	14075.98
472.40	13593.83
472.58	13818.52
472.77	13977.68
472.95	14167.26
473.13	14368.55
473.31	13968.32
473.49	13898.10
473.67	14169.60
473.85	14345.14
474.03	14743.03
474.21	14508.98
474.39	14668.14
474.57	14647.07
474.75	15061.35
474.93	14747.72
475.12	14958.36
475.30	15112.84
475.48	14909.21
475.66	15218.16
475.84	15260.29
476.02	15499.03
476.20	15220.50
476.38	15704.99
476.56	15936.71
476.74	15950.75
476.92	15857.13
477.10	15557.54
477.28	15941.39
477.46	15915.64
477.64	16084.16
477.82	16266.72
478.00	16809.73
478.18	16889.31
478.36	16847.18
478.54	17041.44
478.72	17048.46
478.90	17109.32
479.08	17504.87
479.26	17488.48
479.44	17209.96
479.62	17926.16
479.80	18071.28
479.98	18249.16
480.16	18562.79
480.34	18232.77
480.52	18609.60
480.70	18490.23
480.88	18466.83
481.06	18923.23
481.24	18700.88
481.41	18906.85
481.59	19229.84
481.77	19618.37
481.95	19517.73
482.13	19868.81
482.31	19829.02
482.49	19999.88
482.67	20065.41
482.85	20482.03
483.03	20439.90
483.21	20496.07
483.39	20856.51
483.57	20819.07
483.74	21090.57
483.92	21289.51
484.10	21296.53
484.28	21406.54
484.46	21781.03
484.64	22171.89
484.82	21741.24
485.00	22331.05
485.18	22478.50
485.35	22892.78
485.53	22871.72
485.71	22864.69
485.89	23105.77
486.07	23304.71
486.25	23318.76
486.43	23620.69
486.61	23726.01
486.78	23939.00
486.96	24236.25
487.14	24421.15
487.32	24601.37
487.50	24671.59
487.68	25268.42
487.85	25202.89
488.03	25287.15
488.21	25542.27
488.39	25507.16
488.57	26120.38
488.75	26061.87
488.92	26391.88
489.10	26656.36
489.28	27000.42
489.46	26815.52
489.64	26918.50
489.81	27349.16
489.99	27718.96
490.17	27714.28
490.35	28177.71
490.53	27985.79
490.70	28285.37
490.88	28194.09
491.06	28526.45
491.24	28648.16
491.41	28975.83
491.59	29207.55
491.77	29436.92
491.95	29275.42
492.13	29460.32
492.30	29621.82
492.48	29687.36
492.66	29858.21
492.84	30185.89
493.01	30623.57
493.19	30817.83
493.37	30787.41
493.54	30998.06
493.72	31335.09
493.90	31222.75
494.08	31686.17
494.25	32041.93
494.43	31945.97
494.61	32203.43
494.79	32453.87
494.96	32144.92
495.14	32701.96
495.32	32783.88
495.49	33137.30
495.67	33399.44
495.85	33661.58
496.02	33855.85
496.20	33553.92
496.38	34244.38
496.55	34061.82
496.73	34696.10
496.91	34515.88
497.09	34490.13
497.26	35154.85
497.44	34859.94
497.62	34838.87
497.79	35735.30
497.97	35213.36
498.14	36065.31
498.32	36374.27
498.50	36004.46
498.67	36238.51
498.85	36198.73
499.03	36301.71
499.20	36470.23
499.38	36989.83
499.56	36919.61
499.73	37296.44
499.91	37474.32
500.08	37207.50
500.26	37413.46
500.44	37703.69
500.61	37570.28
500.79	37977.53
500.97	37921.36
501.14	38302.87
501.32	38230.31
501.49	38511.17
501.67	38234.99
501.84	38263.08
502.02	38731.18
502.20	38899.70
502.37	39363.13
502.55	39281.21
502.72	39426.32
502.90	39442.71
503.07	39515.26
503.25	39894.43
503.43	39246.10
503.60	39604.20
503.78	40205.72
503.95	40215.08
504.13	40194.02
504.30	40627.02
504.48	40320.41
504.65	40355.52
504.83	41050.66
505.01	41076.40
505.18	40598.93
505.36	41563.23
505.53	41106.83
505.71	41603.02
505.88	41345.56
506.06	41624.09
506.23	41968.15
506.41	41834.74
506.58	41918.99
506.76	42162.41
506.93	42438.59
507.11	42204.54
507.28	42452.64
507.46	43285.87
507.63	42843.51
507.81	43014.37
507.98	42822.44
508.16	43353.74
508.33	43419.28
508.50	43512.90
508.68	43405.23
508.85	43580.78
509.03	43721.21
509.20	44201.02
509.38	44126.12
509.55	43889.73
509.73	44285.28
509.90	44425.71
510.08	44273.57
510.25	44652.74
510.42	44528.69
510.60	44949.99
510.77	44952.33
510.95	45162.98
511.12	45256.60
511.30	45076.38
511.47	45577.25
511.64	45092.76
511.82	46106.21
511.99	45336.18
512.17	45923.65
512.34	45551.51
512.51	46167.07
512.69	46218.56
512.86	46670.28
513.04	46522.83
513.21	46642.20
513.38	46670.28
513.56	46412.82
513.73	46890.29
513.90	46756.88
514.08	47241.37
514.25	47075.19
514.43	47342.02
514.60	47370.10
514.77	47391.17
514.95	47433.30
515.12	47931.83
515.29	47353.72
515.47	48212.70
515.64	47831.19
515.81	47370.10
515.99	48193.97
516.16	48367.17
516.33	48142.48
516.51	48076.94
516.68	48531.01
516.85	48273.55
517.03	48608.25
517.20	48765.06
517.37	48306.32
517.54	48659.74
517.72	48697.19
517.89	48968.69
518.06	48844.64
518.24	48758.04
518.41	48971.03
518.58	48942.94
518.75	49162.95
518.93	49408.71
519.10	49558.50
519.27	49720.00
519.45	49509.35
519.62	49649.78
519.79	49975.12
519.96	49656.81
520.14	50241.94
520.31	49989.16
520.48	50265.34
520.65	50417.48
520.83	50347.26
521.00	50433.86
521.17	50050.02
521.34	50595.36
521.52	50646.85
521.69	50635.15
521.86	50712.39
522.03	51143.05
522.20	51054.11
522.38	51325.61
522.55	51243.69
522.72	51437.95
522.89	50932.40
523.07	51498.81
523.24	51679.03
523.41	51452.00
523.58	51433.27
523.75	51852.23
523.92	51629.88
524.10	51613.49
524.27	51966.91
524.44	51393.48
524.61	52142.45
524.78	51676.69
524.96	52051.17
525.13	52172.88
525.30	52189.27
525.47	52385.87
525.64	52247.78
525.81	52463.11
525.98	52376.51
526.16	52648.01
526.33	52657.37
526.50	52699.50
526.67	52612.90
526.84	52926.53
527.01	52676.10
527.18	52762.70
527.36	53001.43
527.53	52849.30
527.70	53418.05
527.87	53326.77
528.04	53045.90
528.21	53282.30
528.38	53329.11
528.55	53453.15
528.72	53373.58
528.89	53425.07
529.07	53254.21
529.24	53029.52
529.41	53581.88
529.58	53616.99
529.75	53745.72
529.92	53804.24
530.09	53703.59
530.26	53712.95
530.43	54042.97
530.60	53530.39
530.77	53619.33
530.94	53811.26
531.11	53968.07
531.28	53741.04
531.46	54185.74
531.63	54288.73
531.80	54110.85
531.97	54429.16
532.14	54082.76
532.31	54213.83
532.48	54106.16
532.65	54529.80
532.82	54475.97
532.99	54529.80
533.16	54408.09
533.33	54887.90
533.50	54890.24
533.67	54719.38
533.84	54536.82
534.01	54976.84
534.18	54864.50
534.35	54953.44
534.52	54740.45
534.69	55180.47
534.86	55278.77
535.03	54871.52
535.20	55168.77
535.37	54953.44
535.54	55255.37
535.71	55098.55
535.88	55557.30
536.05	55393.46
536.22	55430.91
536.38	55536.23
536.55	55585.38
536.72	55559.64
536.89	55274.09
537.06	55533.89
537.23	55721.13
537.40	55543.25
537.57	55463.67
537.74	55683.69
537.91	55845.18
538.08	55784.33
538.25	55524.53
538.42	55922.42
538.59	56046.47
538.75	56018.38
538.92	55891.99
539.09	56053.49
539.26	56011.36
539.43	56009.02
539.60	55971.57
539.77	56088.60
539.94	56315.63
540.11	56170.52
540.28	56257.12
540.44	56308.61
540.61	56205.62
540.78	56404.57
540.95	56392.87
541.12	56336.69
541.29	56339.04
541.46	56402.23
541.62	56439.68
541.79	56683.09
541.96	56374.14
542.13	56584.79
542.30	56402.23
542.47	56685.43
542.63	56701.82
542.80	56935.87
542.97	56814.16
543.14	56898.42
543.31	57008.43
543.48	57027.15
543.64	57357.17
543.81	57230.78
543.98	57181.63
544.15	57212.06
544.32	57111.41
544.48	57315.04
544.65	57411.00
544.82	57429.72
544.99	57333.76
545.16	57420.36
545.32	57200.35
545.49	57614.63
545.66	57689.52
545.83	57600.58
546.00	57623.99
546.16	57556.11
546.33	57303.34
546.50	57270.57
546.67	57579.52
546.83	57448.45
547.00	57818.25
547.17	57460.15
547.34	57586.54
547.50	57785.49
547.67	57869.75
547.84	57846.34
548.00	57996.13
548.17	57932.94
548.34	57951.66
548.51	58131.89
548.67	58209.12
548.84	57916.56
549.01	58195.08
549.18	57923.58
549.34	58010.18
549.51	58298.06
549.68	58316.79
549.84	58269.98
550.01	58347.21
550.18	58014.86
550.34	58227.85
550.51	58134.23
550.68	58555.52
550.84	57975.07
551.01	58663.19
551.18	58621.06
551.34	58410.41
551.51	58539.14
551.68	58508.71
551.84	58466.58
552.01	58389.34
552.18	58464.24
552.34	58272.32
552.51	58724.04
552.68	58335.51
552.84	58710.00
553.01	58829.37
553.18	58649.14
553.34	58894.90
553.51	58543.82
553.67	58618.72
553.84	58953.41
554.01	58782.55
554.17	58983.84
554.34	58841.07
554.51	58866.81
554.67	59047.04
554.84	58763.83
555.00	58857.45
555.17	58876.18
555.33	59011.93
555.50	58848.09
555.67	58815.32
555.83	58969.80
556.00	59004.91
556.16	59295.13
556.33	59360.67
556.50	59257.68
556.66	59358.33
556.83	59061.08
556.99	59358.33
557.16	59306.83
557.32	59398.12
557.49	59690.68
557.65	59215.55
557.82	59245.98
557.98	59150.02
558.15	59337.26
558.32	59477.69
558.48	59206.19
558.65	59522.16
558.81	59405.14
558.98	59283.43
559.14	59611.10
559.31	59550.25
559.47	59447.27
559.64	59391.09
559.80	59718.77
559.97	59756.22
560.13	59625.15
560.30	59674.30
560.46	59620.47
560.63	59718.77
560.79	59760.90
560.96	59817.07
561.12	59662.60
561.29	59845.16
561.45	59749.20
561.61	59791.33
561.78	59627.49
561.94	59456.63
562.11	59639.19
562.27	59943.46
562.44	60097.94
562.60	60095.60
562.77	60030.06
562.93	59629.83
563.10	59990.27
563.26	59767.92
563.42	60149.43
563.59	60088.57
563.75	59845.16
563.92	60083.89
564.08	59973.89
564.24	60072.19
564.41	60072.19
564.57	60023.04
564.74	59987.93
564.90	60006.65
565.07	60151.77
565.23	59831.11
565.39	59950.48
565.56	60065.17
565.72	60051.12
565.88	60044.10
566.05	59955.16
566.21	60044.10
566.38	60114.32
566.54	60163.47
566.70	60203.26
566.87	60397.52
567.03	60186.88
567.19	60533.28
567.36	60259.43
567.52	60261.77
567.68	60346.03
567.85	60383.48
568.01	60271.14
568.17	60310.92
568.34	60275.82
568.50	60268.79
568.66	60196.24
568.83	60210.28
568.99	60151.77
569.15	60123.68
569.32	60413.91
569.48	60006.65
569.64	60406.89
569.81	60294.54
569.97	60247.73
570.13	60500.51
570.30	60292.20
570.46	60346.03
570.62	60430.29
570.78	60385.82
570.95	60420.93
571.11	60573.06
571.27	60299.22
571.43	60381.14
571.60	60397.52
571.76	60516.89
571.92	60383.48
572.09	60458.38
572.25	60537.96
572.41	60374.12
572.57	60399.86
572.74	60568.38
572.90	60514.55
573.06	60444.33
573.22	60554.34
573.38	60654.98
573.55	60453.70
573.71	60795.42
573.87	60793.07
574.03	60420.93
574.20	60561.36
574.36	60556.68
574.52	60786.05
574.68	60720.52
574.84	60736.90
575.01	60748.60
575.17	60636.26
575.33	60460.72
575.49	60669.03
575.65	60713.50
575.82	60671.37
575.98	60671.37
576.14	60671.37
576.30	60645.62
576.46	60704.13
576.62	60374.12
576.79	60692.43
576.95	60596.47
577.11	60523.91
577.27	60594.13
577.43	60874.99
577.59	60643.28
577.75	60577.75
577.92	60755.63
578.08	60608.17
578.24	60622.22
578.40	60914.78
578.56	60863.29
578.72	60783.71
578.88	60814.14
579.04	60678.39
579.21	60694.77
579.37	60952.23
579.53	60914.78
579.69	60566.04
579.85	60669.03
580.01	60748.60
580.17	60434.97
580.33	60809.46
580.49	60917.12
580.65	60839.89
580.82	60580.09
580.98	60615.19
581.14	60561.36
581.30	60966.27
581.46	60720.52
581.62	60828.18
581.78	60753.29
581.94	60743.92
582.10	60795.42
582.26	60919.46
582.42	60748.60
582.58	60762.65
582.74	60896.06
582.90	60762.65
583.06	60985.00
583.22	60697.11
583.38	60961.59
583.54	60846.91
583.70	60935.85
583.86	61104.37
584.02	60814.14
584.18	60926.49
584.34	60779.03
584.50	60762.65
584.66	60631.58
584.82	60704.13
584.98	60956.91
585.14	60928.83
585.30	60711.16
585.46	60858.61
585.62	60928.83
585.78	60980.32
585.94	60748.60
586.10	60872.65
586.26	60720.52
586.42	60982.66
586.58	60996.70
586.74	60907.76
586.90	60982.66
587.06	60912.44
587.22	60942.87
587.38	60980.32
587.54	61197.99
587.70	61059.90
587.86	61029.47
588.02	60921.80
588.18	61038.83
588.34	60867.97
588.49	60774.35
