SpectraSuite Data File
++++++++++++++++++++++++++++++++++++
Date: Fri Oct 25 11:26:34 EDT 2013
User: price-jones
Dark Spectrum Present: No
Reference Spectrum Present: No
Number of Sampled Component Spectra: 1
Spectrometers: USB2+H05261
Integration Time (usec): 100000 (USB2+H05261)
Spectra Averaged: 1 (USB2+H05261)
Boxcar Smoothing: 0 (USB2+H05261)
Correct for Electrical Dark: No (USB2+H05261)
Strobe/Lamp Enabled: No (USB2+H05261)
Correct for Detector Non-linearity: No (USB2+H05261)
Correct for Stray Light: No (USB2+H05261)
Number of Pixels in Processed Spectrum: 2048
>>>>>Begin Processed Spectral Data<<<<<
365.73	217.67
365.92	217.67
366.12	217.67
366.32	102.98
366.52	159.16
366.72	133.41
366.91	161.50
367.11	191.92
367.31	65.54
367.51	110.01
367.70	121.71
367.90	131.07
368.10	126.39
368.30	212.99
368.49	126.39
368.69	114.69
368.89	168.52
369.09	170.86
369.28	184.90
369.48	184.90
369.68	189.58
369.87	208.31
370.07	227.03
370.27	173.20
370.47	308.95
370.66	596.84
370.86	613.22
371.06	674.07
371.25	692.80
371.45	674.07
371.65	645.99
371.84	692.80
372.04	676.41
372.24	683.44
372.44	723.23
372.63	758.33
372.83	720.88
373.03	767.70
373.22	779.40
373.42	772.38
373.62	847.27
373.81	830.89
374.01	856.64
374.21	877.70
374.40	828.55
374.60	884.72
374.79	842.59
374.99	807.48
375.19	863.66
375.38	856.64
375.58	809.83
375.78	795.78
375.97	901.11
376.17	891.74
376.37	863.66
376.56	880.04
376.76	826.21
376.95	959.62
377.15	873.02
377.35	805.14
377.54	819.19
377.74	924.51
377.93	947.92
378.13	968.98
378.33	896.43
378.52	1011.11
378.72	1060.26
378.91	947.92
379.11	950.26
379.31	912.81
379.50	1008.77
379.70	931.53
379.89	978.34
380.09	976.00
380.28	1004.09
380.48	990.05
380.68	999.41
380.87	968.98
381.07	950.26
381.26	1025.15
381.46	933.87
381.65	1018.13
381.85	1032.18
382.04	1036.86
382.24	978.34
382.43	1034.52
382.63	1062.60
382.83	964.30
383.02	1100.05
383.22	1116.44
383.41	1107.07
383.61	1109.41
383.80	1160.91
384.00	1188.99
384.19	1118.78
384.39	1242.82
384.58	1259.21
384.78	1179.63
384.97	1069.62
385.17	1188.99
385.36	1235.80
385.56	1139.84
385.75	1191.33
385.95	1078.99
386.14	1186.65
386.34	1254.53
386.53	1273.25
386.72	1193.67
386.92	1196.01
387.11	1291.98
387.31	1369.21
387.50	1327.08
387.70	1291.98
387.89	1254.53
388.09	1217.08
388.28	1303.68
388.48	1263.89
388.67	1378.58
388.86	1296.66
389.06	1376.24
389.25	1322.40
389.45	1268.57
389.64	1352.83
389.84	1472.20
390.03	1409.00
390.22	1376.24
390.42	1448.79
390.61	1380.92
390.81	1411.34
391.00	1371.55
391.19	1462.83
391.39	1462.83
391.58	1397.30
391.78	1376.24
391.97	1493.26
392.16	1490.92
392.36	1547.09
392.55	1596.25
392.75	1488.58
392.94	1416.02
393.13	1579.86
393.33	1511.99
393.52	1598.59
393.71	1507.30
393.91	1652.42
394.10	1617.31
394.29	1680.50
394.49	1526.03
394.68	1689.87
394.88	1668.80
395.07	1689.87
395.26	1811.57
395.46	1617.31
395.65	1771.79
395.84	1636.03
396.04	1722.63
396.23	1727.32
396.42	1804.55
396.62	1769.44
396.81	1771.79
397.00	1689.87
397.19	1797.53
397.39	1785.83
397.58	1797.53
397.77	1753.06
397.97	1809.23
398.16	1921.58
398.35	1954.35
398.55	1865.41
398.74	1926.26
398.93	1954.35
399.12	1956.69
399.32	1844.34
399.51	1870.09
399.70	1991.80
399.90	1935.62
400.09	2057.33
400.28	2120.53
400.47	2059.67
400.67	2043.29
400.86	2069.03
401.05	2143.93
401.24	2167.34
401.44	2019.88
401.63	2036.27
401.82	2197.76
402.01	2097.12
402.21	2289.04
402.40	2157.97
402.59	2148.61
402.78	2291.38
402.97	2155.63
403.17	2368.62
403.36	2279.68
403.55	2366.28
403.74	2413.09
403.93	2382.67
404.13	2359.26
404.32	2499.69
404.51	2370.96
404.70	2427.14
404.89	2532.46
405.09	2534.80
405.28	2347.56
405.47	2513.74
405.66	2469.27
405.85	2487.99
406.05	2574.59
406.24	2715.02
406.43	2640.12
406.62	2609.70
406.81	2768.85
407.00	2679.91
407.20	2626.08
407.39	2621.40
407.58	2796.94
407.77	2818.00
407.96	2717.36
408.15	2740.77
408.34	2803.96
408.54	2827.37
408.73	2808.64
408.92	2867.16
409.11	2834.39
409.30	3000.57
409.49	3023.97
409.68	2995.89
409.87	3038.02
410.07	3054.40
410.26	3063.76
410.45	2970.14
410.64	3033.33
410.83	3098.87
411.02	2998.23
411.21	3215.90
411.40	3117.59
411.59	3103.55
411.78	3229.94
411.98	3276.75
412.17	3258.03
412.36	3314.20
412.55	3232.28
412.74	3405.48
412.93	3384.41
413.12	3454.63
413.31	3534.21
413.50	3482.72
413.69	3559.95
413.88	3597.40
414.07	3627.83
414.26	3688.68
414.45	3695.71
414.64	3660.60
414.83	3794.01
415.02	3791.67
415.22	3850.18
415.41	3845.50
415.60	3927.42
415.79	3854.86
415.98	3976.57
416.17	4007.00
416.36	3995.29
416.55	4037.42
416.74	4098.28
416.93	4133.39
417.12	4119.34
417.31	4227.01
417.50	4262.12
417.69	4407.23
417.88	4287.86
418.07	4234.03
418.26	4430.63
418.45	4208.28
418.64	4528.94
418.83	4358.08
419.02	4493.83
419.21	4484.47
419.39	4428.29
419.58	4479.79
419.77	4526.60
419.96	4561.70
420.15	4706.82
420.34	4660.01
420.53	4596.81
420.72	4737.24
420.91	4685.75
421.10	4629.58
421.29	4692.77
421.48	4741.93
421.67	4716.18
421.86	4765.33
422.05	4861.29
422.24	4842.57
422.43	4842.57
422.61	5090.67
422.80	5022.79
422.99	4947.89
423.18	4849.59
423.37	4959.60
423.56	5001.72
423.75	5018.11
423.94	4910.44
424.13	4624.90
424.32	4690.43
424.50	5057.90
424.69	5071.94
424.88	5078.96
425.07	4992.36
425.26	4954.91
425.45	4807.46
425.64	5053.22
425.83	5032.15
426.01	4994.70
426.20	4985.34
426.39	5006.41
426.58	5069.60
426.77	4961.94
426.96	5125.77
427.15	4992.36
427.33	5128.11
427.52	5034.49
427.71	5408.98
427.90	5156.20
428.09	5284.93
428.28	5385.57
428.46	5350.46
428.65	5472.17
428.84	5430.04
429.03	5448.77
429.22	5366.85
429.40	5453.45
429.59	5561.11
429.78	5448.77
429.97	5392.59
430.16	5713.25
430.34	5596.22
430.53	5659.42
430.72	5596.22
430.91	5617.29
431.10	5713.25
431.28	5682.82
431.47	5699.20
431.66	5856.02
431.85	5767.08
432.03	5764.74
432.22	6104.12
432.41	5970.71
432.60	5830.27
432.79	5961.34
432.97	6019.86
433.16	6104.12
433.35	5951.98
433.54	6017.52
433.72	6239.87
433.91	6012.84
434.10	6146.25
434.28	6059.65
434.47	6148.59
434.66	6106.46
434.85	6218.80
435.03	6345.19
435.22	6356.90
435.41	6441.15
435.59	6221.14
435.78	6586.27
435.97	6509.03
436.16	6497.33
436.34	6345.19
436.53	6483.28
436.72	6766.49
436.90	6525.41
437.09	6619.04
437.28	6462.22
437.46	6754.79
437.65	6736.06
437.84	6846.07
438.02	6729.04
438.21	6745.42
438.40	6670.53
438.58	7005.22
438.77	7054.37
438.96	7108.21
439.14	7103.53
439.33	7054.37
439.52	7293.11
439.70	7133.95
439.89	7349.28
440.08	7269.70
440.26	7393.75
440.45	7468.65
440.63	7552.91
440.82	7681.64
441.01	7501.42
441.19	7674.62
441.38	7758.88
441.57	7707.38
441.75	7873.56
441.94	7936.76
442.12	8042.08
442.31	8133.36
442.50	8102.93
442.68	7920.37
442.87	8072.51
443.05	8133.36
443.24	8156.77
443.43	8091.23
443.61	8201.24
443.80	8451.67
443.98	7929.74
444.17	8065.49
444.35	8402.52
444.54	8477.42
444.73	8432.95
444.91	8271.45
445.10	8376.78
445.28	8348.69
445.47	8304.22
445.65	8278.47
445.84	8437.63
446.02	8430.61
446.21	8423.59
446.39	8547.64
446.58	8652.96
446.77	8538.27
446.95	8243.37
447.14	8603.81
447.32	8599.13
447.51	8549.98
447.69	8400.18
447.88	8681.05
448.06	8470.40
448.25	8510.19
448.43	8730.20
448.62	8692.75
448.80	8557.00
448.99	8709.13
449.17	8802.75
449.36	8559.34
449.54	8819.14
449.73	8894.04
449.91	8931.48
450.10	9050.85
450.28	9123.41
450.46	8990.00
450.65	9025.11
450.83	9207.67
451.02	8990.00
451.20	9078.94
451.39	9146.81
451.57	9202.99
451.76	9135.11
451.94	9275.54
452.13	9406.61
452.31	9359.80
452.49	9205.33
452.68	9411.29
452.86	9371.50
453.05	9486.19
453.23	9542.36
453.42	9165.54
453.60	9308.31
453.78	9455.76
453.97	9600.88
454.15	9696.84
454.34	9387.89
454.52	9509.60
454.70	9818.55
454.89	9834.93
455.07	9727.27
455.26	10071.33
455.44	9973.02
455.62	9970.68
455.81	9933.23
455.99	10083.03
456.17	10326.44
456.36	9937.91
456.54	10143.88
456.73	10319.42
456.91	10518.37
457.09	10298.36
457.28	10607.31
457.46	10281.97
457.64	10644.76
457.83	10516.03
458.01	10555.82
458.19	10761.78
458.38	10436.45
458.56	10602.63
458.74	10668.16
458.93	10614.33
459.11	10614.33
459.29	10799.23
459.48	10885.83
459.66	10902.22
459.84	10897.53
460.03	11077.76
460.21	11147.97
460.39	11087.12
460.57	11115.20
460.76	11026.26
460.94	11131.59
461.12	11075.42
461.31	11288.40
461.49	11140.95
461.67	11178.40
461.85	11648.85
462.04	11367.98
462.22	11447.56
462.40	11693.32
462.59	11393.73
462.77	11735.45
462.95	11730.76
463.13	11758.85
463.32	11712.04
463.50	11702.68
463.68	11683.95
463.86	11908.65
464.05	11747.15
464.23	11634.80
464.41	11763.53
464.59	11913.33
464.78	12170.79
464.96	11747.15
465.14	11789.28
465.32	12074.82
465.50	11885.24
465.69	12175.47
465.87	12266.75
466.05	11948.43
466.23	12259.73
466.41	12266.75
466.60	12688.04
466.78	12135.68
466.96	12262.07
467.14	12390.80
467.32	12458.67
467.51	12449.31
467.69	12294.83
467.87	12418.88
468.05	12723.15
468.23	12229.30
468.41	12147.38
468.60	12629.53
468.78	12903.37
468.96	12819.11
469.14	12802.73
469.32	12830.82
469.50	12456.33
469.69	13186.58
469.87	13085.94
470.05	13139.77
470.23	13188.92
470.41	13132.75
470.59	13319.99
470.77	13090.62
470.95	13362.12
471.14	13778.73
471.32	13270.84
471.50	13495.53
471.68	13422.97
471.86	13954.27
472.04	13954.27
472.22	13909.80
472.40	13727.24
472.58	13891.08
472.77	14019.81
472.95	13982.36
473.13	14349.82
473.31	14303.01
473.49	14263.22
473.67	14462.17
473.85	14204.71
474.03	14717.29
474.21	14759.42
474.39	14911.55
474.57	14595.58
474.75	14902.19
474.93	15002.83
475.12	14911.55
475.30	15236.89
475.48	15145.61
475.66	15599.67
475.84	15117.52
476.02	15159.65
476.20	15442.85
476.38	15744.78
476.56	16091.18
476.74	16002.24
476.92	15875.85
477.10	16013.95
477.28	16231.62
477.46	16102.89
477.64	16248.00
477.82	16381.41
478.00	16924.41
478.18	16758.24
478.36	16821.43
478.54	17198.26
478.72	17224.00
478.90	17610.19
479.08	17729.56
479.26	17713.17
479.44	17486.14
479.62	17961.27
479.80	18324.05
479.98	18223.41
480.16	18686.84
480.34	18185.96
480.52	18553.43
480.70	18672.79
480.88	18808.54
481.06	18977.06
481.24	18820.25
481.41	19140.90
481.59	19250.91
481.77	19384.32
481.95	19798.59
482.13	19658.16
482.31	19637.09
482.49	20210.53
482.67	20016.26
482.85	20573.31
483.03	20634.16
483.21	20966.52
483.39	20971.20
483.57	20585.01
483.74	21324.62
483.92	21195.89
484.10	21130.36
484.28	21764.64
484.46	21989.33
484.64	22530.00
484.82	21876.99
485.00	22288.92
485.18	22668.09
485.35	23129.17
485.53	23023.85
485.71	22925.55
485.89	23550.47
486.07	23379.61
486.25	23400.68
486.43	23543.45
486.61	23974.11
486.78	24257.31
486.96	24306.46
487.14	24704.35
487.32	24987.56
487.50	24840.11
487.68	25015.65
487.85	25256.72
488.03	24982.88
488.21	26001.01
488.39	26101.65
488.57	26033.78
488.75	26127.40
488.92	26590.83
489.10	26567.42
489.28	26878.71
489.46	27225.11
489.64	27131.49
489.81	27723.65
489.99	27505.98
490.17	27798.54
490.35	28238.56
490.53	28411.76
490.70	28484.32
490.88	28346.23
491.06	28755.82
491.24	28713.69
491.41	28999.24
491.59	29638.20
491.77	29640.54
491.95	29596.07
492.13	29834.81
492.30	30050.14
492.48	29982.26
492.66	30532.29
492.84	30169.51
493.01	30548.67
493.19	30476.12
493.37	31182.96
493.54	31140.83
493.72	31325.73
493.90	31180.62
494.08	31761.07
494.25	31992.78
494.43	31990.44
494.61	32411.74
494.79	32643.45
494.96	32266.63
495.14	32627.07
495.32	33762.23
495.49	33130.28
495.67	33652.22
495.85	33383.06
496.02	33809.04
496.20	34167.14
496.38	33500.09
496.55	34064.16
496.73	34710.14
496.91	34890.37
497.09	34939.52
497.26	35306.98
497.44	35157.19
497.62	35669.76
497.79	35803.17
497.97	35318.68
498.14	35990.42
498.32	36196.38
498.50	36154.26
498.67	36392.99
498.85	36451.50
499.03	36505.34
499.20	36877.48
499.38	36898.55
499.56	37352.61
499.73	37247.29
499.91	37621.77
500.08	37516.45
500.26	37076.43
500.44	37448.57
500.61	38031.36
500.79	37525.81
500.97	37727.10
501.14	38333.29
501.32	38602.46
501.49	38518.20
501.67	38824.81
501.84	38955.88
502.02	39152.48
502.20	39110.35
502.37	39576.12
502.55	39112.69
502.72	39669.74
502.90	39573.78
503.07	39924.86
503.25	39756.34
503.43	39981.03
503.60	40437.44
503.78	39856.98
503.95	40648.08
504.13	40521.69
504.30	40512.33
504.48	40769.79
504.65	40664.47
504.83	41469.61
505.01	41425.14
505.18	41123.21
505.36	41415.78
505.53	41123.21
505.71	41413.44
505.88	42199.86
506.06	41581.96
506.23	41865.16
506.41	41724.73
506.58	42005.59
506.76	42663.28
506.93	42885.64
507.11	42714.78
507.28	42707.76
507.46	43047.13
507.63	43091.60
507.81	43374.81
507.98	42944.15
508.16	43325.66
508.33	43725.89
508.50	43454.39
508.68	43573.75
508.85	44027.82
509.03	43915.47
509.20	44280.60
509.38	44486.56
509.55	43803.13
509.73	44708.91
509.90	44697.21
510.08	44435.07
510.25	45118.51
510.42	44451.45
510.60	44978.07
510.77	45411.07
510.95	45310.43
511.12	45200.43
511.30	45420.44
511.47	45530.44
511.64	45289.37
511.82	45972.80
511.99	45703.64
512.17	46333.24
512.34	45961.10
512.51	46272.39
512.69	46433.89
512.86	46501.76
513.04	46417.50
513.21	46663.26
513.38	46845.82
513.56	46927.74
513.73	46883.27
513.90	47063.49
514.08	46398.78
514.25	47449.68
514.43	47407.55
514.60	47599.47
514.77	47777.36
514.95	47777.36
515.12	47632.24
515.29	47391.17
515.47	48210.35
515.64	48320.36
515.81	47824.17
515.99	48397.60
516.16	48598.88
516.33	48397.60
516.51	48397.60
516.68	48886.77
516.85	48577.82
517.03	49263.60
517.20	48889.11
517.37	48619.95
517.54	48928.90
517.72	48825.92
517.89	49397.01
518.06	49338.49
518.24	49509.35
518.41	49591.27
518.58	49118.48
518.75	49343.17
518.93	49923.63
519.10	49600.63
519.27	49586.59
519.45	49839.37
519.62	49930.65
519.79	50171.72
519.96	50387.05
520.14	50410.46
520.31	50138.96
520.48	50485.36
520.65	50604.72
520.83	50602.38
521.00	50607.06
521.17	50621.11
521.34	50740.47
521.52	50794.31
521.69	50930.06
521.86	51049.42
522.03	51194.54
522.20	51358.38
522.38	51496.47
522.55	51332.63
522.72	51402.85
522.89	51264.75
523.07	51695.41
523.24	51206.24
523.41	51690.73
523.58	51409.87
523.75	51987.98
523.92	51742.22
524.10	52231.40
524.27	52121.39
524.44	52207.99
524.61	52081.60
524.78	51903.72
524.96	52346.08
525.13	52278.21
525.30	52334.38
525.47	52662.05
525.64	52678.44
525.81	52559.07
525.98	52612.90
526.16	52729.93
526.33	52568.43
526.50	52753.33
526.67	52961.64
526.84	53102.07
527.01	52945.26
527.18	53095.05
527.36	53167.61
527.53	52898.45
527.70	53270.59
527.87	53202.72
528.04	52992.07
528.21	53645.08
528.38	53558.48
528.55	53469.54
528.72	53153.57
528.89	53514.01
529.07	53588.91
529.24	53317.40
529.41	53724.66
529.58	53968.07
529.75	53773.81
529.92	53998.50
530.09	53825.30
530.26	53684.87
530.43	53989.14
530.60	54031.27
530.77	54087.44
530.94	54094.46
531.11	54049.99
531.28	54223.19
531.46	54370.64
531.63	54227.87
531.80	54225.53
531.97	54529.80
532.14	54768.54
532.31	54459.58
532.48	54625.76
532.65	54822.37
532.82	54454.90
532.99	54871.52
533.16	54901.95
533.33	54555.55
533.50	54815.35
533.67	54564.91
533.84	54756.83
534.01	54897.27
534.18	55234.30
534.35	55196.85
534.52	55157.06
534.69	55143.02
534.86	55356.01
535.03	54995.57
535.20	55152.38
535.37	55480.06
535.54	55526.87
535.71	55243.66
535.88	55503.46
536.05	55463.67
536.22	55512.83
536.38	55512.83
536.55	55679.00
536.72	55854.54
536.89	55653.26
537.06	55686.03
537.23	55978.59
537.40	55803.05
537.57	55814.76
537.74	55770.28
537.91	55856.88
538.08	56020.72
538.25	55522.19
538.42	55765.60
538.59	56104.98
538.75	55936.46
538.92	56034.77
539.09	56182.22
539.26	56207.97
539.43	56165.84
539.60	56427.98
539.77	56222.01
539.94	56308.61
540.11	56418.61
540.28	56519.26
540.44	56416.27
540.61	56320.31
540.78	56685.43
540.95	56566.07
541.12	56376.48
541.29	56589.47
541.46	56563.73
541.62	56566.07
541.79	56699.48
541.96	56549.68
542.13	56722.88
542.30	56570.75
542.47	56968.64
542.63	57010.77
542.80	56849.27
542.97	57256.53
543.14	57109.07
543.31	57076.30
543.48	57340.78
543.64	57411.00
543.81	57471.85
543.98	57237.80
544.15	57359.51
544.32	57382.91
544.48	57766.76
544.65	57518.67
544.82	57680.16
544.99	57497.60
545.16	57460.15
545.32	57457.81
545.49	57755.06
545.66	57799.53
545.83	57832.30
546.00	57717.61
546.16	57638.03
546.33	57769.10
546.50	57483.56
546.67	57719.95
546.83	57537.39
547.00	57925.92
547.17	57556.11
547.34	57696.55
547.50	57862.72
547.67	58122.52
547.84	58071.03
548.00	58216.14
548.17	58159.97
548.34	57996.13
548.51	58279.34
548.67	58248.91
548.84	58274.66
549.01	58056.99
549.18	58220.83
549.34	58398.71
549.51	58262.96
549.68	58581.27
549.84	58258.27
550.01	58429.13
550.18	58312.11
550.34	58466.58
550.51	58377.64
550.68	58567.23
550.84	58321.47
551.01	58504.03
551.18	58522.76
551.34	58445.52
551.51	58742.77
551.68	58656.17
551.84	58478.28
552.01	58569.57
552.18	58562.54
552.34	58637.44
552.51	58702.98
552.68	58581.27
552.84	59028.31
553.01	59023.63
553.18	58728.72
553.34	58974.48
553.51	58695.95
553.67	58850.43
553.84	58932.35
554.01	59140.66
554.17	59018.95
554.34	58855.11
554.51	58976.82
554.67	58986.18
554.84	58958.09
555.00	58934.69
555.17	59112.57
555.33	59206.19
555.50	59058.74
555.67	58941.71
555.83	58965.12
556.00	58908.94
556.16	59323.22
556.33	59334.92
556.50	59353.65
556.66	59547.91
556.83	59096.19
556.99	59444.93
557.16	59653.23
557.32	59632.17
557.49	59714.09
557.65	59451.95
557.82	59367.69
557.98	59135.98
558.15	59372.37
558.32	59414.50
558.48	59473.01
558.65	59669.62
558.81	59414.50
558.98	59578.34
559.14	59524.50
559.31	59533.87
559.47	59657.91
559.64	59636.85
559.80	59770.26
559.97	59934.10
560.13	59498.76
560.30	59522.16
560.46	59634.51
560.63	59957.50
560.79	59730.47
560.96	59833.46
561.12	59587.70
561.29	59821.75
561.45	60027.72
561.61	59945.80
561.78	59760.90
561.94	59910.69
562.11	59971.55
562.27	59868.56
562.44	60004.31
562.60	59983.25
562.77	60135.38
562.93	59847.50
563.10	60367.10
563.26	60027.72
563.42	60360.08
563.59	59873.24
563.75	59896.65
563.92	60067.51
564.08	60074.53
564.24	60186.88
564.41	60072.19
564.57	60123.68
564.74	60149.43
564.90	60177.51
565.07	60163.47
565.23	60130.70
565.39	60224.32
565.56	60069.85
565.72	59983.25
565.88	60252.41
566.05	60236.03
566.21	60233.69
566.38	60299.22
566.54	60371.78
566.70	60334.33
566.87	60357.74
567.03	60151.77
567.19	60430.29
567.36	60280.50
567.52	60409.23
567.68	60479.44
567.85	60268.79
568.01	60603.49
568.17	60425.61
568.34	60479.44
568.50	60289.86
568.66	60388.16
568.83	60500.51
568.99	60514.55
569.15	60526.25
569.32	60528.59
569.48	60418.59
569.64	60310.92
569.81	60540.30
569.97	60369.44
570.13	60502.85
570.30	60502.85
570.46	60350.71
570.62	60378.80
570.78	60355.39
570.95	60453.70
571.11	60573.06
571.27	60514.55
571.43	60519.23
571.60	60488.80
571.76	60533.28
571.92	60519.23
572.09	60748.60
572.25	60650.30
572.41	60542.64
572.57	60718.18
572.74	60484.12
572.90	60612.85
573.06	60526.25
573.22	60743.92
573.38	60537.96
573.55	60671.37
573.71	60872.65
573.87	60919.46
574.03	60556.68
574.20	60596.47
574.36	60425.61
574.52	60683.07
574.68	60865.63
574.84	60975.64
575.01	60872.65
575.17	60924.14
575.33	60554.34
575.49	60512.21
575.65	60732.22
575.82	60790.73
575.98	60846.91
576.14	61038.83
576.30	60851.59
576.46	60844.57
576.62	60743.92
576.79	60912.44
576.95	60743.92
577.11	60753.29
577.27	60865.63
577.43	61020.11
577.59	60835.20
577.75	60671.37
577.92	60800.10
578.08	60755.63
578.24	60856.27
578.40	60945.21
578.56	60982.66
578.72	60741.58
578.88	60996.70
579.04	61024.79
579.21	61066.92
579.37	60980.32
579.53	61059.90
579.69	60755.63
579.85	60764.99
580.01	60825.84
580.17	60748.60
580.33	61106.71
580.49	61148.84
580.65	61024.79
580.82	60858.61
580.98	60694.77
581.14	60959.25
581.30	60853.93
581.46	60704.13
581.62	60959.25
581.78	60790.73
581.94	60973.30
582.10	60851.59
582.26	61057.56
582.42	60917.12
582.58	60830.52
582.74	60942.87
582.90	60952.23
583.06	60919.46
583.22	60835.20
583.38	60795.42
583.54	60970.96
583.70	60982.66
583.86	61132.45
584.02	60760.31
584.18	61141.81
584.34	61052.87
584.50	61095.00
584.66	60935.85
584.82	61078.62
584.98	60996.70
585.14	61146.50
585.30	60790.73
585.46	61160.54
585.62	60980.32
585.78	61188.63
585.94	60891.38
586.10	60992.02
586.26	61024.79
586.42	61256.50
586.58	61113.73
586.74	61165.22
586.90	60882.02
587.06	60952.23
587.22	61221.39
587.38	61113.73
587.54	61190.97
587.70	61371.19
587.86	61123.09
588.02	61080.96
588.18	61137.13
588.34	61001.38
588.49	60985.00
