SpectraSuite Data File
++++++++++++++++++++++++++++++++++++
Date: Fri Oct 25 10:44:43 EDT 2013
User: price-jones
Dark Spectrum Present: No
Reference Spectrum Present: No
Number of Sampled Component Spectra: 1
Spectrometers: USB2+H05261
Integration Time (usec): 100000 (USB2+H05261)
Spectra Averaged: 1 (USB2+H05261)
Boxcar Smoothing: 0 (USB2+H05261)
Correct for Electrical Dark: No (USB2+H05261)
Strobe/Lamp Enabled: No (USB2+H05261)
Correct for Detector Non-linearity: No (USB2+H05261)
Correct for Stray Light: No (USB2+H05261)
Number of Pixels in Processed Spectrum: 2048
>>>>>Begin Processed Spectral Data<<<<<
365.73	112.35
365.92	112.35
366.12	112.35
366.32	11.70
366.52	9.36
366.72	51.49
366.91	0.00
367.11	25.75
367.31	0.00
367.51	0.00
367.70	39.79
367.90	30.43
368.10	72.56
368.30	159.16
368.49	0.00
368.69	7.02
368.89	81.92
369.09	39.79
369.28	107.66
369.48	86.60
369.68	74.90
369.87	105.32
370.07	79.58
370.27	140.43
370.47	191.92
370.66	383.85
370.86	390.87
371.06	367.46
371.25	489.17
371.45	383.85
371.65	451.72
371.84	411.93
372.04	500.87
372.24	454.06
372.44	470.45
372.63	484.49
372.83	411.93
373.03	407.25
373.22	486.83
373.42	510.24
373.62	554.71
373.81	547.69
374.01	594.50
374.21	547.69
374.40	545.34
374.60	545.34
374.79	503.22
374.99	507.90
375.19	603.86
375.38	540.66
375.58	491.51
375.78	585.13
375.97	535.98
376.17	599.18
376.37	559.39
376.56	636.63
376.76	624.92
376.95	521.94
377.15	585.13
377.35	575.77
377.54	622.58
377.74	571.09
377.93	535.98
378.13	631.94
378.33	664.71
378.52	545.34
378.72	650.67
378.91	550.03
379.11	601.52
379.31	587.47
379.50	634.29
379.70	667.05
379.89	720.88
380.09	627.26
380.28	704.50
380.48	601.52
380.68	610.88
380.87	655.35
381.07	688.12
381.26	610.88
381.46	676.41
381.65	622.58
381.85	624.92
382.04	667.05
382.24	669.39
382.43	610.88
382.63	645.99
382.83	638.97
383.02	723.23
383.22	716.20
383.41	664.71
383.61	781.74
383.80	678.76
384.00	781.74
384.19	741.95
384.39	692.80
384.58	671.73
384.78	767.70
384.97	770.04
385.17	741.95
385.36	737.27
385.56	720.88
385.75	704.50
385.95	826.21
386.14	713.86
386.34	826.21
386.53	739.61
386.72	805.14
386.92	858.98
387.11	772.38
387.31	887.06
387.50	791.10
387.70	716.20
387.89	809.83
388.09	798.12
388.28	877.70
388.48	847.27
388.67	887.06
388.86	842.59
389.06	905.79
389.25	873.02
389.45	940.90
389.64	863.66
389.84	929.19
390.03	947.92
390.22	987.71
390.42	891.74
390.61	966.64
390.81	922.17
391.00	980.68
391.19	940.90
391.39	938.55
391.58	961.96
391.78	1018.13
391.97	1001.75
392.16	924.51
392.36	966.64
392.55	1039.20
392.75	1053.24
392.94	994.73
393.13	1018.13
393.33	905.79
393.52	987.71
393.71	994.73
393.91	992.39
394.10	987.71
394.29	1074.31
394.49	1057.92
394.68	1151.54
394.88	1114.10
395.07	1050.90
395.26	1125.80
395.46	1181.97
395.65	1142.18
395.84	1050.90
396.04	1177.29
396.23	1151.54
396.42	1153.88
396.62	1032.18
396.81	1196.01
397.00	1121.12
397.19	1210.06
397.39	1151.54
397.58	1224.10
397.77	1235.80
397.97	1263.89
398.16	1284.95
398.35	1313.04
398.55	1226.44
398.74	1308.36
398.93	1406.66
399.12	1289.64
399.32	1409.00
399.51	1430.07
399.70	1334.11
399.90	1376.24
400.09	1350.49
400.28	1448.79
400.47	1497.94
400.67	1434.75
400.86	1390.28
401.05	1394.96
401.24	1458.15
401.44	1561.14
401.63	1451.13
401.82	1514.33
402.01	1617.31
402.21	1526.03
402.40	1549.43
402.59	1493.26
402.78	1572.84
402.97	1577.52
403.17	1551.78
403.36	1626.67
403.55	1626.67
403.74	1713.27
403.93	1582.20
404.13	1636.03
404.32	1685.19
404.51	1673.48
404.70	1743.70
404.89	1699.23
405.09	1839.66
405.28	1732.00
405.47	1729.66
405.66	1722.63
405.85	1769.44
406.05	1757.74
406.24	1799.87
406.43	1856.04
406.62	1886.47
406.81	1914.56
407.00	1729.66
407.20	1888.81
407.39	1905.20
407.58	1806.89
407.77	1956.69
407.96	1970.73
408.15	2001.16
408.34	2010.52
408.54	2057.33
408.73	1994.14
408.92	2099.46
409.11	2181.38
409.30	2076.06
409.49	1998.82
409.68	2033.93
409.87	2069.03
410.07	2157.97
410.26	2101.80
410.45	2097.12
410.64	2204.78
410.83	2090.10
411.02	2218.83
411.21	2279.68
411.40	2207.13
411.59	2251.60
411.78	2361.60
411.98	2321.81
412.17	2317.13
412.36	2415.43
412.55	2483.31
412.74	2483.31
412.93	2509.05
413.12	2403.73
413.31	2726.72
413.50	2572.25
413.69	2684.59
413.88	2537.14
414.07	2427.14
414.26	2651.83
414.45	2677.57
414.64	2689.28
414.83	2654.17
415.02	2747.79
415.22	2843.75
415.41	2808.64
415.60	2846.09
415.79	2803.96
415.98	2871.84
416.17	2965.46
416.36	2960.78
416.55	2768.85
416.74	2944.39
416.93	2888.22
417.12	2904.60
417.31	3063.76
417.50	3080.14
417.69	3124.62
417.88	3012.27
418.07	2981.84
418.26	3155.04
418.45	3075.46
418.64	3187.81
418.83	3215.90
419.02	3152.70
419.21	3272.07
419.39	3255.69
419.58	3166.74
419.77	3309.52
419.96	3225.26
420.15	3286.11
420.34	3461.65
420.53	3480.38
420.72	3377.39
420.91	3452.29
421.10	3463.99
421.29	3548.25
421.48	3440.59
421.67	3405.48
421.86	3412.50
422.05	3471.01
422.24	3428.88
422.43	3524.85
422.61	3438.25
422.80	3574.00
422.99	3618.47
423.18	3503.78
423.37	3599.74
423.56	3639.53
423.75	3644.21
423.94	3541.23
424.13	3330.58
424.32	3468.67
424.50	3646.55
424.69	3672.30
424.88	3667.62
425.07	3508.46
425.26	3602.08
425.45	3634.85
425.64	3571.66
425.83	3578.68
426.01	3609.11
426.20	3667.62
426.39	3543.57
426.58	3559.95
426.77	3672.30
426.96	3655.92
427.15	3719.11
427.33	3712.09
427.52	3686.34
427.71	3679.32
427.90	3784.65
428.09	3911.04
428.28	3716.77
428.46	3859.54
428.65	3749.54
428.84	3733.15
429.03	3901.67
429.22	3838.48
429.40	3700.39
429.59	3744.86
429.78	3583.36
429.97	3552.93
430.16	3768.26
430.34	3803.37
430.53	4021.04
430.72	3889.97
430.91	4091.26
431.10	4004.66
431.28	4035.08
431.47	4159.13
431.66	4156.79
431.85	4175.52
432.03	4145.09
432.22	4133.39
432.41	4109.98
432.60	4442.34
432.79	4266.80
432.97	4325.31
433.16	4393.19
433.35	4156.79
433.54	4156.79
433.72	4283.18
433.91	4346.37
434.10	4407.23
434.28	4458.72
434.47	4397.87
434.66	4404.89
434.85	4521.92
435.03	4418.93
435.22	4449.36
435.41	4762.99
435.59	4437.66
435.78	4470.42
435.97	4524.26
436.16	4664.69
436.34	4671.71
436.53	4678.73
436.72	4664.69
436.90	4629.58
437.09	4547.66
437.28	4657.67
437.46	4748.95
437.65	4681.07
437.84	4706.82
438.02	4699.80
438.21	4760.65
438.40	4620.22
438.58	4980.66
438.77	5050.88
438.96	4964.28
439.14	5043.85
439.33	5036.83
439.52	4980.66
439.70	5146.84
439.89	5305.99
440.08	5149.18
440.26	5275.57
440.45	5132.79
440.63	5357.49
440.82	5320.04
441.01	5305.99
441.19	5430.04
441.38	5544.73
441.57	5406.64
441.75	5600.90
441.94	5591.54
442.12	5593.88
442.31	5678.14
442.50	5767.08
442.68	5818.57
442.87	5755.38
443.05	5678.14
443.24	5856.02
443.43	5708.57
443.61	5790.49
443.80	6043.26
443.98	5778.78
444.17	5652.39
444.35	5792.83
444.54	5909.85
444.73	5984.75
444.91	5996.45
445.10	5933.26
445.28	5954.32
445.47	5968.37
445.65	5874.74
445.84	5937.94
446.02	6003.47
446.21	5919.21
446.39	5902.83
446.58	6057.31
446.77	5900.49
446.95	5912.19
447.14	6059.65
447.32	6069.01
447.51	5874.74
447.69	5942.62
447.88	6057.31
448.06	6104.12
448.25	5865.38
448.43	6111.14
448.62	5853.68
448.80	5905.17
448.99	6118.16
449.17	6417.75
449.36	6061.99
449.54	6345.19
449.73	6392.00
449.91	6380.30
450.10	6340.51
450.28	6525.41
450.46	6370.94
450.65	6462.22
450.83	6516.05
451.02	6389.66
451.20	6511.37
451.39	6651.80
451.57	6546.48
451.76	6473.92
451.94	6431.79
452.13	6555.84
452.31	6494.99
452.49	6455.20
452.68	6558.18
452.86	6490.31
453.05	6534.78
453.23	6857.77
453.42	6609.67
453.60	6562.86
453.78	6707.98
453.97	6745.42
454.15	6616.69
454.34	6647.12
454.52	6569.88
454.70	6839.05
454.89	6834.36
455.07	6848.41
455.26	6918.62
455.44	6974.80
455.62	6963.09
455.81	6958.41
455.99	6986.50
456.17	7007.56
456.36	7131.61
456.54	7208.85
456.73	7335.24
456.91	7590.36
457.09	7323.54
457.28	7389.07
457.46	7309.49
457.64	7180.76
457.83	7440.56
458.01	7262.68
458.19	7499.08
458.38	7290.77
458.56	7386.73
458.74	7470.99
458.93	7487.37
459.11	7480.35
459.29	7506.10
459.48	7435.88
459.66	7456.95
459.84	7772.92
460.03	7847.82
460.21	7854.84
460.39	7707.38
460.57	7707.38
460.76	7751.85
460.94	7833.77
461.12	7885.26
461.31	7735.47
461.49	7836.11
461.67	7630.15
461.85	8044.42
462.04	8009.31
462.22	8013.99
462.40	8163.79
462.59	8093.57
462.77	8182.51
462.95	7999.95
463.13	8292.52
463.32	8257.41
463.50	8329.97
463.68	8159.11
463.86	8461.04
464.05	8203.58
464.23	8116.98
464.41	8198.90
464.59	8215.28
464.78	8367.42
464.96	8322.94
465.14	8138.04
465.32	8498.49
465.50	8552.32
465.69	8638.92
465.87	8402.52
466.05	8475.08
466.23	8578.06
466.41	8400.18
466.60	8629.56
466.78	8297.20
466.96	8299.54
467.14	8615.51
467.32	8671.68
467.51	8624.87
467.69	8507.85
467.87	8795.73
468.05	8596.79
468.23	8421.25
468.41	8376.78
468.60	8620.19
468.78	8716.16
468.96	8610.83
469.14	8767.65
469.32	9004.04
469.50	8725.52
469.69	8887.01
469.87	8966.59
470.05	9004.04
470.23	8910.42
470.41	8964.25
470.59	9308.31
470.77	8959.57
470.95	9062.55
471.14	9268.52
471.32	8861.27
471.50	9673.43
471.68	9401.93
471.86	9437.04
472.04	9687.48
472.22	9614.92
472.40	9455.76
472.58	9497.89
472.77	9575.13
472.95	9654.71
473.13	9872.38
473.31	9582.15
473.49	9729.61
473.67	9661.73
473.85	9949.62
474.03	10052.60
474.21	10094.73
474.39	9825.57
474.57	9982.38
474.75	10094.73
474.93	10230.48
475.12	10008.13
475.30	10298.36
475.48	10258.57
475.66	10431.77
475.84	10143.88
476.02	10829.66
476.20	10640.08
476.38	10665.82
476.56	10995.84
476.74	10651.78
476.92	11014.56
477.10	10656.46
477.28	10895.19
477.46	11178.40
477.64	11009.88
477.82	11124.57
478.00	11595.01
478.18	11513.10
478.36	11431.18
478.54	11772.89
478.72	11597.35
478.90	11681.61
479.08	11927.37
479.26	11920.35
479.44	12037.38
479.62	11843.11
479.80	12203.55
479.98	12131.00
480.16	12262.07
480.34	12271.43
480.52	12575.70
480.70	12461.01
480.88	12514.84
481.06	12664.64
481.24	12926.78
481.41	13170.19
481.59	12987.63
481.77	13069.55
481.95	13273.18
482.13	13327.01
482.31	13327.01
482.49	13565.74
482.67	13490.85
482.85	13635.96
483.03	13956.61
483.21	13860.65
483.39	14272.59
483.57	13996.40
483.74	14317.06
483.92	14277.27
484.10	14415.36
484.28	14544.09
484.46	14665.80
484.64	14956.02
484.82	14801.55
485.00	14754.74
485.18	15204.12
485.35	14965.39
485.53	15012.20
485.71	15068.37
485.89	15541.16
486.07	15204.12
486.25	15644.14
486.43	15602.01
486.61	15878.19
486.78	15967.13
486.96	16016.29
487.14	16184.80
487.32	16547.59
487.50	16585.04
487.68	16734.83
487.85	16798.02
488.03	17106.98
488.21	17111.66
488.39	17067.19
488.57	17132.72
488.75	17469.76
488.92	17549.34
489.10	17764.67
489.28	18012.76
489.46	18214.05
489.64	18073.62
489.81	18511.30
489.99	18405.97
490.17	18600.24
490.35	18958.34
490.53	18490.23
490.70	18981.74
490.88	18902.17
491.06	19482.62
491.24	19309.42
491.41	19185.37
491.59	19110.47
491.77	19344.53
491.95	19466.24
492.13	19690.93
492.30	20006.90
492.48	20046.69
492.66	20126.27
492.84	20168.40
493.01	20369.68
493.19	20430.54
493.37	20428.20
493.54	20524.16
493.72	20575.65
493.90	21001.63
494.08	21216.96
494.25	21181.85
494.43	21642.93
494.61	21633.57
494.79	21561.02
494.96	21678.04
495.14	21848.90
495.32	21858.26
495.49	22368.50
495.67	22167.21
495.85	22272.54
496.02	22242.11
496.20	22553.40
496.38	22632.98
496.55	22869.37
496.73	23248.54
496.91	22724.26
497.09	22890.44
497.26	23241.52
497.44	22993.42
497.62	23101.09
497.79	23637.07
497.97	23199.39
498.14	23587.92
498.32	23756.44
498.50	23414.72
498.67	24109.86
498.85	24081.77
499.03	24095.82
499.20	24519.45
499.38	24271.36
499.56	24617.75
499.73	24732.44
499.91	24603.71
500.08	24758.19
500.26	24671.59
500.44	24809.68
500.61	24655.20
500.79	24687.97
500.97	24905.64
501.14	25249.70
501.32	25518.86
501.49	25355.02
501.67	25329.28
501.84	25415.88
502.02	25212.25
502.20	25507.16
502.37	25813.77
502.55	25558.65
502.72	26094.63
502.90	26071.23
503.07	26434.01
503.25	26281.88
503.43	26342.73
503.60	26583.80
503.78	26171.87
503.95	26305.28
504.13	26492.52
504.30	26881.05
504.48	26632.96
504.65	26654.02
504.83	26967.65
505.01	26932.54
505.18	27115.11
505.36	27407.67
505.53	27435.76
505.71	27805.56
505.88	27548.11
506.06	27281.28
506.23	27831.31
506.41	27510.66
506.58	27812.59
506.76	27812.59
506.93	27623.00
507.11	27796.20
507.28	27744.71
507.46	28116.86
507.63	28166.01
507.81	28222.18
507.98	28371.97
508.16	28273.67
508.33	28374.31
508.50	28748.80
508.68	28584.96
508.85	28865.83
509.03	28959.45
509.20	28968.81
509.38	29088.18
509.55	28655.18
509.73	29284.78
509.90	29448.62
510.08	28992.22
510.25	29144.35
510.42	28950.09
510.60	29460.32
510.77	29343.30
510.95	29771.61
511.12	29860.55
511.30	30125.04
511.47	30401.22
511.64	30005.67
511.82	30377.81
511.99	29984.60
512.17	30157.80
512.34	30452.71
512.51	30515.90
512.69	30593.14
512.86	30682.08
513.04	30824.86
513.21	30799.11
513.38	30771.02
513.56	30794.43
513.73	30499.52
513.90	30822.51
514.08	31115.08
514.25	30752.30
514.43	31108.06
514.60	31077.63
514.77	31119.76
514.95	31594.89
515.12	31503.61
515.29	31335.09
515.47	32030.23
515.64	31489.57
515.81	31611.28
515.99	31819.58
516.16	31630.00
516.33	31627.66
516.51	31997.46
516.68	31264.88
516.85	31545.74
517.03	31819.58
517.20	32400.04
517.37	32285.35
517.54	31859.37
517.72	32411.74
517.89	32442.17
518.06	32329.82
518.24	32046.62
518.41	32727.71
518.58	32378.97
518.75	32463.23
518.93	32636.43
519.10	32886.87
519.27	32947.72
519.45	32631.75
519.62	32975.81
519.79	33006.23
519.96	33160.71
520.14	33275.40
520.31	33549.24
520.48	33331.57
520.65	33369.02
520.83	33764.57
521.00	34075.86
521.17	33780.95
521.34	33481.36
521.52	33703.71
521.69	33745.84
521.86	33727.12
522.03	33956.49
522.20	34347.36
522.38	33989.26
522.55	34469.07
522.72	34190.55
522.89	34401.19
523.07	34668.02
523.24	34792.06
523.41	34426.94
523.58	34698.44
523.75	34972.28
523.92	35079.95
524.10	34888.03
524.27	35346.77
524.44	35379.54
524.61	35372.52
524.78	35552.74
524.96	35306.98
525.13	35438.05
525.30	35416.99
525.47	35477.84
525.64	35161.87
525.81	35854.67
525.98	36018.50
526.16	35384.22
526.33	35129.10
526.50	35475.50
526.67	34885.68
526.84	35665.08
527.01	35690.83
527.18	35962.33
527.36	36327.45
527.53	35847.64
527.70	36254.90
527.87	36495.97
528.04	36320.43
528.21	36315.75
528.38	36215.11
528.55	36346.18
528.72	36353.20
528.89	36070.00
529.07	36552.15
529.24	36320.43
529.41	36818.97
529.58	36547.47
529.75	36659.81
529.92	36830.67
530.09	37174.73
530.26	36748.75
530.43	36891.52
530.60	36613.00
530.77	37132.60
530.94	36978.12
531.11	36830.67
531.28	37385.38
531.46	37500.06
531.63	37148.98
531.80	37376.01
531.97	36971.10
532.14	37221.54
532.31	37254.31
532.48	37734.12
532.65	37022.59
532.82	37368.99
532.99	37797.31
533.16	37593.68
533.33	37902.64
533.50	38115.62
533.67	37902.64
533.84	37834.76
534.01	37787.95
534.18	37855.82
534.35	38190.52
534.52	38050.09
534.69	38366.06
534.86	38356.70
535.03	38457.34
535.20	38630.54
535.37	38576.71
535.54	38871.62
535.71	38534.58
535.88	38499.47
536.05	38630.54
536.22	38286.48
536.38	38532.24
536.55	38394.15
536.72	38663.31
536.89	38583.73
537.06	39117.37
537.23	39330.36
537.40	39131.42
537.57	38834.17
537.74	38749.91
537.91	39152.48
538.08	39377.17
538.25	38471.39
538.42	39126.74
538.59	39416.96
538.75	39161.84
538.92	39154.82
539.09	39332.70
539.26	39304.62
539.43	39590.16
539.60	39150.14
539.77	39222.70
539.94	39187.59
540.11	39541.01
540.28	39690.80
540.44	39384.19
540.61	39370.15
540.78	39040.14
540.95	39524.63
541.12	39047.16
541.29	39463.77
541.46	39653.36
541.62	39749.32
541.79	40147.21
541.96	39529.31
542.13	39842.94
542.30	39641.65
542.47	39412.28
542.63	40554.46
542.80	40451.48
542.97	40484.25
543.14	40575.53
543.31	39969.33
543.48	40708.94
543.64	40868.09
543.81	40957.03
543.98	40657.45
544.15	40308.71
544.32	40935.97
544.48	40737.02
544.65	40959.38
544.82	40739.36
544.99	40748.73
545.16	41179.39
545.32	40739.36
545.49	41413.44
545.66	41375.99
545.83	41198.11
546.00	41624.09
546.16	41095.13
546.33	41083.42
546.50	41083.42
546.67	41008.53
546.83	40601.27
547.00	40982.78
547.17	41008.53
547.34	41371.31
547.50	41359.61
547.67	41364.29
547.84	41237.90
548.00	41553.87
548.17	41659.20
548.34	41619.41
548.51	41769.20
548.67	41869.84
548.84	42061.77
549.01	41453.23
549.18	41581.96
549.34	41958.78
549.51	41963.46
549.68	41511.74
549.84	42270.08
550.01	42213.90
550.18	42162.41
550.34	42040.70
550.51	42087.51
550.68	42190.50
550.84	41694.30
551.01	42066.45
551.18	42232.63
551.34	42064.11
551.51	42511.15
551.68	42241.99
551.84	42359.02
552.01	41703.67
552.18	42492.43
552.34	42017.30
552.51	42426.89
552.68	42384.76
552.84	42394.12
553.01	42593.07
553.18	42359.02
553.34	42703.07
553.51	42302.84
553.67	42604.77
553.84	43152.46
554.01	42483.06
554.17	43042.45
554.34	42553.28
554.51	42630.52
554.67	43012.02
554.84	42841.17
555.00	42712.44
555.17	42789.67
555.33	42738.18
555.50	42548.60
555.67	42469.02
555.83	42857.55
556.00	43044.79
556.16	43367.79
556.33	42981.60
556.50	42548.60
556.66	42890.32
556.83	42906.70
556.99	43000.32
557.16	43136.07
557.32	43428.64
557.49	43124.37
557.65	42787.33
557.82	43124.37
557.98	43136.07
558.15	43131.39
558.32	43562.05
558.48	43447.36
558.65	43344.38
558.81	42983.94
558.98	43093.94
559.14	43447.36
559.31	43323.32
559.47	43363.11
559.64	43442.68
559.80	43543.33
559.97	43838.23
560.13	43166.50
560.30	43519.92
560.46	43459.07
560.63	43332.68
560.79	43852.28
560.96	43878.02
561.12	43573.75
561.29	43456.73
561.45	43377.15
561.61	43662.69
561.78	43683.76
561.94	43583.12
562.11	43438.00
562.27	43545.67
562.44	43412.26
562.60	43646.31
562.77	43421.62
562.93	43707.16
563.10	44147.18
563.26	43299.91
563.42	43611.20
563.59	43349.06
563.75	43791.42
563.92	43985.69
564.08	43971.64
564.24	44053.56
564.41	44334.43
564.57	43393.53
564.74	43538.65
564.90	44610.61
565.07	43676.74
565.23	44165.91
565.39	43856.96
565.56	43833.55
565.72	43875.68
565.88	44194.00
566.05	44048.88
566.21	43665.03
566.38	43784.40
566.54	44034.84
566.70	43878.02
566.87	44383.58
567.03	44364.85
567.19	44580.18
567.36	44626.99
567.52	44336.77
567.68	44074.63
567.85	43826.53
568.01	43934.20
568.17	44133.14
568.34	44329.75
568.50	44098.03
568.66	43683.76
568.83	44252.51
568.99	43697.80
569.15	43571.41
569.32	44369.54
569.48	44362.51
569.64	43941.22
569.81	44318.04
569.97	44432.73
570.13	44404.64
570.30	44088.67
570.46	43580.78
570.62	44259.53
570.78	44238.47
570.95	44273.57
571.11	44514.65
571.27	44095.69
571.43	44069.95
571.60	44289.96
571.76	44030.16
571.92	44053.56
572.09	44488.90
572.25	44046.54
572.41	44030.16
572.57	44580.18
572.74	44655.08
572.90	44226.76
573.06	44514.65
573.22	44428.05
573.38	44182.29
573.55	44149.53
573.71	44203.36
573.87	43990.37
574.03	44236.12
574.20	44027.82
574.36	44329.75
574.52	44488.90
574.68	44304.00
574.84	44411.67
575.01	44484.22
575.17	44458.48
575.33	44095.69
575.49	44102.71
575.65	44308.68
575.82	44577.84
575.98	44336.77
576.14	44758.06
576.30	44404.64
576.46	44231.44
576.62	44154.21
576.79	44339.11
576.95	44149.53
577.11	44411.67
577.27	44460.82
577.43	44570.82
577.59	44224.42
577.75	44601.25
577.92	44210.38
578.08	44154.21
578.24	44650.40
578.40	44198.68
578.56	44238.47
578.72	44444.43
578.88	44563.80
579.04	44741.68
579.21	44512.31
579.37	44392.94
579.53	44184.63
579.69	44481.88
579.85	44425.71
580.01	44479.54
580.17	44563.80
580.33	44694.87
580.49	44875.09
580.65	44296.98
580.82	44720.62
580.98	44500.61
581.14	44137.82
581.30	45375.97
581.46	44507.63
581.62	44907.86
581.78	44549.76
581.94	44421.03
582.10	44231.44
582.26	44566.14
582.42	44215.06
582.58	44369.54
582.74	44332.09
582.90	44772.11
583.06	44898.50
583.22	44704.23
583.38	45013.18
583.54	44603.59
583.70	44573.16
583.86	44678.49
584.02	44268.89
584.18	44762.75
584.34	44524.01
584.50	44184.63
584.66	44505.29
584.82	44236.12
584.98	44603.59
585.14	44624.65
585.30	44278.25
585.46	44905.52
585.62	44655.08
585.78	44467.84
585.94	44065.27
586.10	44521.67
586.26	44402.30
586.42	45270.64
586.58	44765.09
586.74	44856.37
586.90	44580.18
587.06	44655.08
587.22	44839.98
587.38	44524.01
587.54	44479.54
587.70	44634.02
587.86	44526.35
588.02	44704.23
588.18	44779.13
588.34	44615.29
588.49	44376.56
588.65	43908.45
588.81	43917.81
588.97	44486.56
589.13	44933.60
589.29	44683.17
589.45	44554.44
589.61	44769.77
589.77	44886.79
589.93	44982.76
590.08	44985.10
590.24	45022.54
