SpectraSuite Data File
++++++++++++++++++++++++++++++++++++
Date: Fri Oct 25 10:47:58 EDT 2013
User: price-jones
Dark Spectrum Present: No
Reference Spectrum Present: No
Number of Sampled Component Spectra: 1
Spectrometers: USB2+H05261
Integration Time (usec): 100000 (USB2+H05261)
Spectra Averaged: 1 (USB2+H05261)
Boxcar Smoothing: 0 (USB2+H05261)
Correct for Electrical Dark: No (USB2+H05261)
Strobe/Lamp Enabled: No (USB2+H05261)
Correct for Detector Non-linearity: No (USB2+H05261)
Correct for Stray Light: No (USB2+H05261)
Number of Pixels in Processed Spectrum: 2048
>>>>>Begin Processed Spectral Data<<<<<
365.73	107.66
365.92	107.66
366.12	107.66
366.32	63.19
366.52	0.00
366.72	14.04
366.91	65.54
367.11	56.17
367.31	44.47
367.51	0.00
367.70	60.85
367.90	98.30
368.10	72.56
368.30	81.92
368.49	77.24
368.69	51.49
368.89	7.02
369.09	49.15
369.28	110.01
369.48	49.15
369.68	135.75
369.87	95.96
370.07	121.71
370.27	152.13
370.47	173.20
370.66	381.51
370.86	491.51
371.06	447.04
371.25	433.00
371.45	444.70
371.65	449.38
371.84	444.70
372.04	484.49
372.24	496.19
372.44	491.51
372.63	496.19
372.83	444.70
373.03	486.83
373.22	451.72
373.42	498.53
373.62	454.06
373.81	540.66
374.01	498.53
374.21	578.11
374.40	545.34
374.60	552.37
374.79	528.96
374.99	568.75
375.19	531.30
375.38	575.77
375.58	496.19
375.78	599.18
375.97	634.29
376.17	643.65
376.37	599.18
376.56	573.43
376.76	580.45
376.95	657.69
377.15	629.60
377.35	617.90
377.54	608.54
377.74	627.26
377.93	622.58
378.13	674.07
378.33	624.92
378.52	589.82
378.72	655.35
378.91	580.45
379.11	554.71
379.31	573.43
379.50	587.47
379.70	627.26
379.89	653.01
380.09	624.92
380.28	627.26
380.48	615.56
380.68	641.31
380.87	613.22
381.07	744.29
381.26	638.97
381.46	617.90
381.65	669.39
381.85	690.46
382.04	660.03
382.24	751.31
382.43	624.92
382.63	667.05
382.83	674.07
383.02	777.06
383.22	739.61
383.41	676.41
383.61	692.80
383.80	692.80
384.00	660.03
384.19	653.01
384.39	739.61
384.58	711.52
384.78	706.84
384.97	779.40
385.17	753.65
385.36	770.04
385.56	800.46
385.75	781.74
385.95	781.74
386.14	688.12
386.34	828.55
386.53	777.06
386.72	755.99
386.92	830.89
387.11	833.23
387.31	819.19
387.50	741.95
387.70	795.78
387.89	847.27
388.09	833.23
388.28	826.21
388.48	781.74
388.67	887.06
388.86	856.64
389.06	765.36
389.25	851.96
389.45	896.43
389.64	896.43
389.84	936.21
390.03	866.00
390.22	880.04
390.42	901.11
390.61	873.02
390.81	833.23
391.00	961.96
391.19	943.24
391.39	947.92
391.58	1013.45
391.78	959.62
391.97	1004.09
392.16	931.53
392.36	1032.18
392.55	931.53
392.75	938.55
392.94	924.51
393.13	1020.47
393.33	882.38
393.52	933.87
393.71	966.64
393.91	1088.35
394.10	1020.47
394.29	1114.10
394.49	1057.92
394.68	1067.28
394.88	1055.58
395.07	1160.91
395.26	1172.61
395.46	1057.92
395.65	1146.86
395.84	1100.05
396.04	1231.12
396.23	1132.82
396.42	1090.69
396.62	1071.97
396.81	1142.18
397.00	1170.27
397.19	1121.12
397.39	1193.67
397.58	1219.42
397.77	1174.95
397.97	1200.69
398.16	1291.98
398.35	1301.34
398.55	1273.25
398.74	1259.21
398.93	1249.85
399.12	1413.68
399.32	1296.66
399.51	1296.66
399.70	1397.30
399.90	1331.76
400.09	1345.81
400.28	1341.13
400.47	1376.24
400.67	1453.47
400.86	1427.73
401.05	1460.49
401.24	1511.99
401.44	1441.77
401.63	1554.12
401.82	1570.50
402.01	1526.03
402.21	1523.69
402.40	1474.54
402.59	1556.46
402.78	1479.22
402.97	1469.86
403.17	1657.10
403.36	1561.14
403.55	1572.84
403.74	1617.31
403.93	1650.08
404.13	1689.87
404.32	1701.57
404.51	1636.03
404.70	1645.40
404.89	1671.14
405.09	1621.99
405.28	1748.38
405.47	1739.02
405.66	1699.23
405.85	1701.57
406.05	1701.57
406.24	1724.97
406.43	1739.02
406.62	1818.60
406.81	1902.86
407.00	1820.94
407.20	1809.23
407.39	1783.49
407.58	1900.52
407.77	1884.13
407.96	1860.73
408.15	1952.01
408.34	1987.11
408.54	1961.37
408.73	1912.22
408.92	1982.43
409.11	2017.54
409.30	2017.54
409.49	1954.35
409.68	2026.90
409.87	2012.86
410.07	2080.74
410.26	2085.42
410.45	2073.71
410.64	2118.18
410.83	2246.91
411.02	2090.10
411.21	2235.21
411.40	2312.45
411.59	2218.83
411.78	2277.34
411.98	2244.57
412.17	2396.71
412.36	2392.03
412.55	2459.90
412.74	2354.58
412.93	2431.82
413.12	2335.85
413.31	2534.80
413.50	2473.95
413.69	2452.88
413.88	2499.69
414.07	2436.50
414.26	2600.34
414.45	2696.30
414.64	2663.53
414.83	2792.26
415.02	2637.78
415.22	2677.57
415.41	2757.15
415.60	2733.75
415.79	2778.22
415.98	2818.00
416.17	2857.79
416.36	2885.88
416.55	2827.37
416.74	2850.77
416.93	2909.29
417.12	2960.78
417.31	2911.63
417.50	2881.20
417.69	3047.38
417.88	2995.89
418.07	3000.57
418.26	3061.42
418.45	3082.49
418.64	3096.53
418.83	3180.79
419.02	3211.22
419.21	3211.22
419.39	3096.53
419.58	3187.81
419.77	3066.10
419.96	3337.60
420.15	3276.75
420.34	3403.14
420.53	3328.24
420.72	3279.09
420.91	3412.50
421.10	3379.73
421.29	3405.48
421.48	3353.99
421.67	3410.16
421.86	3353.99
422.05	3358.67
422.24	3283.77
422.43	3358.67
422.61	3459.31
422.80	3590.38
422.99	3515.48
423.18	3637.19
423.37	3545.91
423.56	3564.64
423.75	3492.08
423.94	3527.19
424.13	3236.96
424.32	3316.54
424.50	3445.27
424.69	3709.75
424.88	3522.51
425.07	3496.76
425.26	3424.20
425.45	3447.61
425.64	3475.70
425.83	3508.46
426.01	3555.27
426.20	3609.11
426.39	3555.27
426.58	3482.72
426.77	3492.08
426.96	3623.15
427.15	3571.66
427.33	3637.19
427.52	3611.45
427.71	3639.53
427.90	3667.62
428.09	3824.44
428.28	3740.18
428.46	3768.26
428.65	3772.94
428.84	3901.67
429.03	3861.88
429.22	3758.90
429.40	3705.07
429.59	3758.90
429.78	3613.79
429.97	3625.49
430.16	3786.99
430.34	3847.84
430.53	3843.16
430.72	3768.26
430.91	3810.39
431.10	3936.78
431.28	3943.80
431.47	4051.47
431.66	4095.94
431.85	4007.00
432.03	4135.73
432.22	4315.95
432.41	4107.64
432.60	4355.74
432.79	4175.52
432.97	4250.41
433.16	4205.94
433.35	4191.90
433.54	4278.50
433.72	4238.71
433.91	4322.97
434.10	4311.27
434.28	4306.59
434.47	4484.47
434.66	4346.37
434.85	4308.93
435.03	4400.21
435.22	4416.59
435.41	4465.74
435.59	4397.87
435.78	4397.87
435.97	4695.11
436.16	4500.85
436.34	4472.76
436.53	4418.93
436.72	4690.43
436.90	4641.28
437.09	4645.96
437.28	4472.76
437.46	4500.85
437.65	4589.79
437.84	4564.04
438.02	4685.75
438.21	4645.96
438.40	4690.43
438.58	4812.14
438.77	4933.85
438.96	4861.29
439.14	4987.68
439.33	4945.55
439.52	4968.96
439.70	5006.41
439.89	5125.77
440.08	5130.45
440.26	5076.62
440.45	5093.01
440.63	5135.14
440.82	5284.93
441.01	5366.85
441.19	5313.02
441.38	5401.96
441.57	5390.25
441.75	5504.94
441.94	5617.29
442.12	5614.95
442.31	5460.47
442.50	5495.58
442.68	5523.66
442.87	5734.31
443.05	5727.29
443.24	5834.96
443.43	5731.97
443.61	5783.46
443.80	5893.47
443.98	5867.72
444.17	5373.87
444.35	5722.61
444.54	5884.11
444.73	5804.53
444.91	5755.38
445.10	5804.53
445.28	5776.44
445.47	5703.89
445.65	5809.21
445.84	5750.70
446.02	5802.19
446.21	5841.98
446.39	5673.46
446.58	5975.39
446.77	5956.66
446.95	5797.51
447.14	6017.52
447.32	6010.50
447.51	5834.96
447.69	6031.56
447.88	5919.21
448.06	6036.24
448.25	5966.03
448.43	6059.65
448.62	6078.37
448.80	5898.15
448.99	6118.16
449.17	6115.82
449.36	6033.90
449.54	6244.55
449.73	6375.62
449.91	6399.02
450.10	6424.77
450.28	6356.90
450.46	6321.79
450.65	6324.13
450.83	6349.87
451.02	6345.19
451.20	6352.21
451.39	6509.03
451.57	6436.47
451.76	6347.53
451.94	6359.24
452.13	6487.96
452.31	6452.86
452.49	6401.37
452.68	6296.04
452.86	6469.24
453.05	6450.52
453.23	6483.28
453.42	6558.18
453.60	6502.01
453.78	6544.14
453.97	6658.82
454.15	6719.68
454.34	6480.94
454.52	6740.74
454.70	6890.54
454.89	6750.10
455.07	6810.96
455.26	6895.22
455.44	6979.48
455.62	6806.28
455.81	6991.18
455.99	7014.59
456.17	6883.52
456.36	6932.67
456.54	6923.30
456.73	7059.06
456.91	7122.25
457.09	7019.27
457.28	7295.45
457.46	7152.68
457.64	7442.90
457.83	7248.64
458.01	7108.21
458.19	7517.80
458.38	7173.74
458.56	7426.52
458.74	7321.20
458.93	7403.11
459.11	7552.91
459.29	7302.47
459.48	7517.80
459.66	7559.93
459.84	7485.03
460.03	7756.54
460.21	7632.49
460.39	7737.81
460.57	7513.12
460.76	7691.00
460.94	7761.22
461.12	7761.22
461.31	7705.04
461.49	7737.81
461.67	7733.13
461.85	7847.82
462.04	7882.92
462.22	8421.25
462.40	7889.95
462.59	7988.25
462.77	8133.36
462.95	7985.91
463.13	7918.03
463.32	7866.54
463.50	8215.28
463.68	7995.27
463.86	8182.51
464.05	7941.44
464.23	8072.51
464.41	8201.24
464.59	7981.23
464.78	8500.83
464.96	8259.75
465.14	8131.02
465.32	8290.18
465.50	8290.18
465.69	8329.97
465.87	8355.71
466.05	8332.31
466.23	8243.37
466.41	8306.56
466.60	8386.14
466.78	8177.83
466.96	8351.03
467.14	8416.57
467.32	8400.18
467.51	8456.36
467.69	8334.65
467.87	8430.61
468.05	8425.93
468.23	8334.65
468.41	8517.21
468.60	8596.79
468.78	8674.03
468.96	8517.21
469.14	8830.84
469.32	9004.04
469.50	8692.75
469.69	8938.51
469.87	8903.40
470.05	8943.19
470.23	8894.04
470.41	8954.89
470.59	8889.35
470.77	8643.60
470.95	8980.64
471.14	9277.88
471.32	8971.27
471.50	9301.29
471.68	9088.30
471.86	9048.51
472.04	9305.97
472.22	9401.93
472.40	9210.01
472.58	9268.52
472.77	9502.58
472.95	9657.05
473.13	9776.42
473.31	9341.08
473.49	9603.22
473.67	9434.70
473.85	9717.90
474.03	9837.27
474.21	9776.42
474.39	10085.37
474.57	9951.96
474.75	10171.97
474.93	10024.51
475.12	10083.03
475.30	10307.72
475.48	10265.59
475.66	10356.87
475.84	10164.95
476.02	10223.46
476.20	10429.43
476.38	10427.09
476.56	10635.39
476.74	10682.20
476.92	10459.85
477.10	10504.32
477.28	10965.41
477.46	10876.47
477.64	11307.13
477.82	11218.19
478.00	11204.14
478.18	11269.68
478.36	11597.35
478.54	11367.98
478.72	11449.90
478.90	11463.94
479.08	11836.09
479.26	11758.85
479.44	12035.03
479.62	11782.26
479.80	12044.40
479.98	11915.67
480.16	12322.92
480.34	12224.62
480.52	12528.89
480.70	12592.08
480.88	12294.83
481.06	12453.99
481.24	12475.06
481.41	12664.64
481.59	13055.51
481.77	13160.83
481.95	12996.99
482.13	13158.49
482.31	13240.41
482.49	13343.39
482.67	13383.18
482.85	13523.62
483.03	13802.14
483.21	14017.47
483.39	13855.97
483.57	13659.37
483.74	14024.49
483.92	14438.76
484.10	14033.85
484.28	14354.51
484.46	14583.88
484.64	14775.80
484.82	14394.29
485.00	14843.68
485.18	14792.19
485.35	15208.80
485.53	15105.82
485.71	14867.08
485.89	15239.23
486.07	15122.20
486.25	15578.61
486.43	15627.76
486.61	15941.39
486.78	15826.70
486.96	15903.94
487.14	15962.45
487.32	16362.69
487.50	16446.94
487.68	16753.55
487.85	16601.42
488.03	16901.01
488.21	17179.53
488.39	17238.05
488.57	17029.74
488.75	17511.89
488.92	17415.93
489.10	17628.92
489.28	17884.03
489.46	18120.43
489.64	17813.82
489.81	18249.16
489.99	18429.38
490.17	18644.71
490.35	18574.49
490.53	18384.91
490.70	18934.93
490.88	18757.05
491.06	18892.80
491.24	19115.16
491.41	19019.19
491.59	19009.83
491.77	19206.44
491.95	19396.02
492.13	19360.91
492.30	19527.09
492.48	19667.52
492.66	19896.89
492.84	19604.33
493.01	20243.29
493.19	19906.26
493.37	20493.73
493.54	20444.58
493.72	20938.43
493.90	21006.31
494.08	20711.40
494.25	21116.31
494.43	21128.02
494.61	21348.03
494.79	21460.37
494.96	21385.47
495.14	21179.51
495.32	21619.53
495.49	21366.75
495.67	21947.20
495.85	21926.14
496.02	22244.45
496.20	22284.24
496.38	22295.94
496.55	22321.69
496.73	23037.89
496.91	22913.84
497.09	23051.94
497.26	22876.40
497.44	23115.13
497.62	23147.90
497.79	23058.96
497.97	23190.03
498.14	23335.14
498.32	23166.62
498.50	23639.41
498.67	23939.00
498.85	23644.09
499.03	24056.03
499.20	24039.64
499.38	24194.12
499.56	24116.88
499.73	24240.93
499.91	24395.40
500.08	24655.20
500.26	24341.57
500.44	24306.46
500.61	24390.72
500.79	24617.75
500.97	24879.89
501.14	25125.65
501.32	25090.54
501.49	24980.54
501.67	25202.89
501.84	25181.82
502.02	25235.66
502.20	25661.63
502.37	25816.11
502.55	25333.96
502.72	25844.20
502.90	25855.90
503.07	25914.41
503.25	25886.32
503.43	25781.00
503.60	25940.16
503.78	26206.98
503.95	26333.37
504.13	26382.52
504.30	26684.45
504.48	26455.08
504.65	26347.41
504.83	26745.30
505.01	26749.98
505.18	26714.87
505.36	26553.38
505.53	26738.28
505.71	27681.52
505.88	27395.97
506.06	26712.53
506.23	27187.66
506.41	27271.92
506.58	27496.61
506.76	27538.74
506.93	27693.22
507.11	27772.80
507.28	28261.97
507.46	27843.01
507.63	27714.28
507.81	28121.54
507.98	27978.76
508.16	27814.93
508.33	28130.90
508.50	28163.67
508.68	28439.85
508.85	28781.57
509.03	28704.33
509.20	28786.25
509.38	28959.45
509.55	28889.23
509.73	28842.42
509.90	29259.04
510.08	28751.14
510.25	29149.03
510.42	29298.83
510.60	29610.12
510.77	29577.35
510.95	29755.23
511.12	29589.05
511.30	29511.81
511.47	29759.91
511.64	30223.34
511.82	29926.09
511.99	29495.43
512.17	30033.75
512.34	30199.93
512.51	30504.20
512.69	30246.74
512.86	30352.07
513.04	30747.62
513.21	30717.19
513.38	30345.05
513.56	30948.90
513.73	30614.21
513.90	30984.01
514.08	30986.35
514.25	30859.96
514.43	30946.56
514.60	31157.21
514.77	30946.56
514.95	31292.96
515.12	31255.51
515.29	31117.42
515.47	31318.71
515.64	31374.88
515.81	31662.77
515.99	31489.57
516.16	31288.28
516.33	31538.72
516.51	31875.76
516.68	31391.26
516.85	31482.55
517.03	31414.67
517.20	32067.68
517.37	32027.89
517.54	32294.71
517.72	32416.42
517.89	31819.58
518.06	31931.93
518.24	32252.58
518.41	32180.03
518.58	32598.98
518.75	32240.88
518.93	32620.05
519.10	32446.85
519.27	32936.02
519.45	32879.85
519.62	32818.99
519.79	33247.31
519.96	33097.52
520.14	33490.73
520.31	33076.45
520.48	33434.55
520.65	33301.14
520.83	33549.24
521.00	33399.44
521.17	33874.57
521.34	33434.55
521.52	33991.60
521.69	33556.26
521.86	33977.56
522.03	33998.62
522.20	33965.85
522.38	33961.17
522.55	34288.85
522.72	34117.99
522.89	33834.78
523.07	34693.76
523.24	34143.74
523.41	34333.32
523.58	34174.16
523.75	35072.93
523.92	34174.16
524.10	34815.47
524.27	34941.86
524.44	34925.47
524.61	35147.82
524.78	35028.46
524.96	34822.49
525.13	35274.21
525.30	35655.72
525.47	35484.86
525.64	35562.10
525.81	35187.61
525.98	35138.46
526.16	34778.02
526.33	35232.08
526.50	35887.43
526.67	35339.75
526.84	35491.88
527.01	35098.67
527.18	35718.92
527.36	35803.17
527.53	35779.77
527.70	36053.61
527.87	36046.59
528.04	36142.55
528.21	36100.42
528.38	36165.96
528.55	36570.87
528.72	36402.35
528.89	36577.89
529.07	36313.41
529.24	36561.51
529.41	36704.28
529.58	36718.32
529.75	37041.32
529.92	36697.26
530.09	36704.28
530.26	37291.76
530.43	36769.82
530.60	36470.23
530.77	37305.80
530.94	37085.79
531.11	37071.75
531.28	37127.92
531.46	37425.17
531.63	37113.87
531.80	37050.68
531.97	37088.13
532.14	37481.34
532.31	37120.90
532.48	37254.31
532.65	37858.17
532.82	37558.58
532.99	37801.99
533.16	37706.03
533.33	37727.10
533.50	38005.62
533.67	37787.95
533.84	37593.68
534.01	38014.98
534.18	37434.53
534.35	37900.29
534.52	37975.19
534.69	37907.32
534.86	38220.95
535.03	38026.68
535.20	38380.10
535.37	38801.40
535.54	38445.64
535.71	38281.80
535.88	38405.85
536.05	38117.96
536.22	38553.30
536.38	38270.10
536.55	38761.61
536.72	38293.50
536.89	38487.77
537.06	38576.71
537.23	38876.30
537.40	38703.10
537.57	38602.46
537.74	39463.77
537.91	38885.66
538.08	39222.70
538.25	38628.20
538.42	38897.36
538.59	39061.20
538.75	39110.35
538.92	38822.47
539.09	39222.70
539.26	39210.99
539.43	39122.05
539.60	39295.25
539.77	39313.98
539.94	39005.03
540.11	39328.02
540.28	39089.29
540.44	39599.52
540.61	39435.69
540.78	39349.09
540.95	39583.14
541.12	39805.49
541.29	39526.97
541.46	39248.44
541.62	39655.70
541.79	39576.12
541.96	39042.48
542.13	39716.55
542.30	39927.20
542.47	39927.20
542.63	39917.84
542.80	40027.84
542.97	40414.03
543.14	40430.41
543.31	40432.75
543.48	40552.12
543.64	40669.15
543.81	40643.40
543.98	40662.13
544.15	40477.22
544.32	40744.05
544.48	41062.36
544.65	40196.36
544.82	40488.93
544.99	40638.72
545.16	40470.20
545.32	40928.95
545.49	41127.89
545.66	40760.43
545.83	41139.60
546.00	41174.70
546.16	40804.90
546.33	40856.39
546.50	40542.76
546.67	41193.43
546.83	40566.16
547.00	41158.32
547.17	40811.92
547.34	41158.32
547.50	41518.76
547.67	41694.30
547.84	41493.02
548.00	41289.39
548.17	41666.22
548.34	41287.05
548.51	41965.81
548.67	41764.52
548.84	41553.87
549.01	41256.62
549.18	41862.82
549.34	41956.44
549.51	41724.73
549.68	42211.56
549.84	41792.61
550.01	41731.75
550.18	42335.61
550.34	42057.09
550.51	41645.15
550.68	41731.75
550.84	41537.49
551.01	42206.88
551.18	41951.76
551.34	41963.46
551.51	42373.06
551.68	42192.84
551.84	42150.71
552.01	42117.94
552.18	42302.84
552.34	41914.31
552.51	42532.22
552.68	42300.50
552.84	42480.72
553.01	42543.92
553.18	42340.29
553.34	42279.44
553.51	42258.37
553.67	42354.33
553.84	42314.55
554.01	43028.41
554.17	42930.11
554.34	42534.56
554.51	42824.78
554.67	42993.30
554.84	42775.63
555.00	42602.43
555.17	42527.53
555.33	42670.31
555.50	42724.14
555.67	42735.84
555.83	42710.10
556.00	42735.84
556.16	43363.11
556.33	43171.18
556.50	43400.55
556.66	42794.36
556.83	42628.18
556.99	43395.87
557.16	43175.86
557.32	43189.91
557.49	43192.25
557.65	42862.23
557.82	43131.39
557.98	43005.00
558.15	42932.45
558.32	43468.43
558.48	43447.36
558.65	43012.02
558.81	43269.48
558.98	43548.01
559.14	43063.52
559.31	43260.12
559.47	43842.92
559.64	43524.60
559.80	43697.80
559.97	43842.92
560.13	43356.08
560.30	43494.18
560.46	43435.66
560.63	43377.15
560.79	43737.59
560.96	43573.75
561.12	43681.42
561.29	43564.39
561.45	43236.72
561.61	43641.63
561.78	43309.27
561.94	43732.91
562.11	43681.42
562.27	43529.28
562.44	43461.41
562.60	43709.50
562.77	44079.31
562.93	43529.28
563.10	44044.20
563.26	43414.60
563.42	44095.69
563.59	43805.47
563.75	43388.85
563.92	44357.83
564.08	43964.62
564.24	43845.26
564.41	44105.06
564.57	43791.42
564.74	44088.67
564.90	44360.17
565.07	43957.60
565.23	43672.06
565.39	44133.14
565.56	44098.03
565.72	43688.44
565.88	43702.48
566.05	44060.58
566.21	44083.99
566.38	44037.18
566.54	44240.81
566.70	44186.97
566.87	44631.68
567.03	43913.13
567.19	44563.80
567.36	44444.43
567.52	44168.25
567.68	44423.37
567.85	44285.28
568.01	44444.43
568.17	44406.98
568.34	44399.96
568.50	44165.91
568.66	44229.10
568.83	44444.43
568.99	43873.34
569.15	43995.05
569.32	44212.72
569.48	44465.50
569.64	43999.73
569.81	44217.40
569.97	44533.37
570.13	44156.55
570.30	43999.73
570.46	43812.49
570.62	43917.81
570.78	43913.13
570.95	44456.14
571.11	44577.84
571.27	43824.19
571.43	44273.57
571.60	44467.84
571.76	44133.14
571.92	44128.46
572.09	44362.51
572.25	44694.87
572.41	44114.42
572.57	44725.30
572.74	45137.23
572.90	44266.55
573.06	43943.56
573.22	44727.64
573.38	44332.09
573.55	44329.75
573.71	44694.87
573.87	44318.04
574.03	44140.16
574.20	44842.32
574.36	44336.77
574.52	44645.72
574.68	44776.79
574.84	44729.98
575.01	44348.47
575.17	44535.71
575.33	44418.69
575.49	44060.58
575.65	44790.83
575.82	44814.24
575.98	44390.60
576.14	44957.01
576.30	44879.77
576.46	44301.66
576.62	44563.80
576.79	44435.07
576.95	44032.50
577.11	44238.47
577.27	44327.41
577.43	44704.23
577.59	44610.61
577.75	44552.10
577.92	44329.75
578.08	43966.96
578.24	44083.99
578.40	44268.89
578.56	44355.49
578.72	44753.38
578.88	44849.35
579.04	44870.41
579.21	44315.70
579.37	44479.54
579.53	44435.07
579.69	43913.13
579.85	44491.24
580.01	44900.84
580.17	44835.30
580.33	44889.13
580.49	44751.04
580.65	44884.45
580.82	44542.74
580.98	44245.49
581.14	44659.76
581.30	44886.79
581.46	44884.45
581.62	44519.33
581.78	44357.83
581.94	45539.80
582.10	44231.44
582.26	44657.42
582.42	45020.20
582.58	44619.97
582.74	44655.08
582.90	44383.58
583.06	44933.60
583.22	45200.43
583.38	45059.99
583.54	44949.99
583.70	44729.98
583.86	44444.43
584.02	44421.03
584.18	44879.77
584.34	44821.26
584.50	44828.28
584.66	44849.35
584.82	44516.99
584.98	44776.79
585.14	44886.79
585.30	44481.88
585.46	45354.90
585.62	44296.98
585.78	44512.31
585.94	44217.40
586.10	44655.08
586.26	44966.37
586.42	44980.42
586.58	44839.98
586.74	44304.00
586.90	44252.51
587.06	44687.85
587.22	44879.77
587.38	44233.78
587.54	44875.09
587.70	44952.33
587.86	45144.25
588.02	44919.56
588.18	44776.79
588.34	44788.49
588.49	44449.11
588.65	44086.33
588.81	44385.92
588.97	44690.19
589.13	44601.25
589.29	44727.64
589.45	44619.97
589.61	45219.15
589.77	44524.01
589.93	44694.87
590.08	44626.99
590.24	45034.25
