SpectraSuite Data File
++++++++++++++++++++++++++++++++++++
Date: Fri Oct 25 11:33:10 EDT 2013
User: price-jones
Dark Spectrum Present: No
Reference Spectrum Present: No
Number of Sampled Component Spectra: 1
Spectrometers: USB2+H05261
Integration Time (usec): 100000 (USB2+H05261)
Spectra Averaged: 1 (USB2+H05261)
Boxcar Smoothing: 0 (USB2+H05261)
Correct for Electrical Dark: No (USB2+H05261)
Strobe/Lamp Enabled: No (USB2+H05261)
Correct for Detector Non-linearity: No (USB2+H05261)
Correct for Stray Light: No (USB2+H05261)
Number of Pixels in Processed Spectrum: 2048
>>>>>Begin Processed Spectral Data<<<<<
365.73	252.78
365.92	252.78
366.12	252.78
366.32	166.18
366.52	191.92
366.72	161.50
366.91	259.80
367.11	147.45
367.31	224.69
367.51	159.16
367.70	215.33
367.90	217.67
368.10	208.31
368.30	166.18
368.49	217.67
368.69	128.73
368.89	222.35
369.09	224.69
369.28	189.58
369.48	98.30
369.68	205.97
369.87	224.69
370.07	217.67
370.27	297.25
370.47	304.27
370.66	423.64
370.86	423.64
371.06	557.05
371.25	491.51
371.45	533.64
371.65	587.47
371.84	596.84
372.04	519.60
372.24	535.98
372.44	543.00
372.63	564.07
372.83	559.39
373.03	526.62
373.22	585.13
373.42	695.14
373.62	643.65
373.81	557.05
374.01	571.09
374.21	641.31
374.40	629.60
374.60	678.76
374.79	627.26
374.99	653.01
375.19	650.67
375.38	657.69
375.58	709.18
375.78	657.69
375.97	655.35
376.17	645.99
376.37	755.99
376.56	681.10
376.76	695.14
376.95	667.05
377.15	711.52
377.35	676.41
377.54	622.58
377.74	688.12
377.93	720.88
378.13	678.76
378.33	671.73
378.52	718.54
378.72	699.82
378.91	727.91
379.11	685.78
379.31	751.31
379.50	685.78
379.70	744.29
379.89	713.86
380.09	688.12
380.28	805.14
380.48	678.76
380.68	779.40
380.87	748.97
381.07	683.44
381.26	779.40
381.46	732.59
381.65	791.10
381.85	671.73
382.04	828.55
382.24	746.63
382.43	760.67
382.63	741.95
382.83	833.23
383.02	781.74
383.22	844.93
383.41	821.53
383.61	856.64
383.80	826.21
384.00	819.19
384.19	814.51
384.39	856.64
384.58	812.17
384.78	809.83
384.97	809.83
385.17	903.45
385.36	851.96
385.56	891.74
385.75	840.25
385.95	880.04
386.14	849.61
386.34	868.34
386.53	854.30
386.72	828.55
386.92	854.30
387.11	912.81
387.31	809.83
387.50	800.46
387.70	887.06
387.89	882.38
388.09	964.30
388.28	980.68
388.48	908.13
388.67	973.66
388.86	903.45
389.06	830.89
389.25	931.53
389.45	957.28
389.64	887.06
389.84	1008.77
390.03	1029.84
390.22	966.64
390.42	985.37
390.61	971.32
390.81	1001.75
391.00	997.07
391.19	1034.52
391.39	973.66
391.58	1034.52
391.78	1123.46
391.97	1015.79
392.16	1011.11
392.36	1109.41
392.55	1139.84
392.75	1057.92
392.94	1102.39
393.13	1062.60
393.33	1055.58
393.52	1165.59
393.71	1086.01
393.91	1074.31
394.10	1067.28
394.29	1088.35
394.49	1086.01
394.68	1137.50
394.88	1142.18
395.07	1165.59
395.26	1118.78
395.46	1224.10
395.65	1163.25
395.84	1191.33
396.04	1210.06
396.23	1200.69
396.42	1193.67
396.62	1252.19
396.81	1212.40
397.00	1238.14
397.19	1268.57
397.39	1266.23
397.58	1313.04
397.77	1200.69
397.97	1359.85
398.16	1226.44
398.35	1336.45
398.55	1284.95
398.74	1327.08
398.93	1322.40
399.12	1315.38
399.32	1317.72
399.51	1238.14
399.70	1430.07
399.90	1418.36
400.09	1313.04
400.28	1409.00
400.47	1359.85
400.67	1401.98
400.86	1378.58
401.05	1434.75
401.24	1467.52
401.44	1528.37
401.63	1490.92
401.82	1401.98
402.01	1296.66
402.21	1467.52
402.40	1451.13
402.59	1533.05
402.78	1540.07
402.97	1483.90
403.17	1409.00
403.36	1551.78
403.55	1526.03
403.74	1584.54
403.93	1565.82
404.13	1647.74
404.32	1647.74
404.51	1643.06
404.70	1654.76
404.89	1528.37
405.09	1701.57
405.28	1708.59
405.47	1645.40
405.66	1572.84
405.85	1657.10
406.05	1724.97
406.24	1657.10
406.43	1671.14
406.62	1785.83
406.81	1834.98
407.00	1734.34
407.20	1837.32
407.39	1715.61
407.58	1879.45
407.77	1797.53
407.96	1898.17
408.15	1926.26
408.34	1898.17
408.54	1895.83
408.73	1900.52
408.92	1891.15
409.11	2045.63
409.30	1987.11
409.49	1998.82
409.68	2017.54
409.87	1930.94
410.07	2132.23
410.26	2115.84
410.45	1996.48
410.64	2125.21
410.83	2214.15
411.02	2155.63
411.21	2153.29
411.40	2153.29
411.59	2195.42
411.78	2167.34
411.98	2146.27
412.17	2153.29
412.36	2267.98
412.55	2420.11
412.74	2415.43
412.93	2380.32
413.12	2326.49
413.31	2385.01
413.50	2473.95
413.69	2415.43
413.88	2462.24
414.07	2485.65
414.26	2509.05
414.45	2670.55
414.64	2511.39
414.83	2740.77
415.02	2609.70
415.22	2612.04
415.41	2581.61
415.60	2644.81
415.79	2656.51
415.98	2682.25
416.17	2892.90
416.36	2682.25
416.55	2782.90
416.74	2810.98
416.93	2796.94
417.12	2780.56
417.31	2848.43
417.50	2876.52
417.69	2923.33
417.88	2935.03
418.07	2930.35
418.26	2937.37
418.45	3000.57
418.64	3183.13
418.83	3185.47
419.02	3061.42
419.21	3084.83
419.39	3040.36
419.58	3152.70
419.77	3213.56
419.96	3087.17
420.15	3265.05
420.34	2984.18
420.53	3318.88
420.72	3141.00
420.91	3290.79
421.10	3253.34
421.29	3407.82
421.48	3248.66
421.67	3384.41
421.86	3311.86
422.05	3447.61
422.24	3328.24
422.43	3272.07
422.61	3274.41
422.80	3379.73
422.99	3337.60
423.18	3410.16
423.37	3431.23
423.56	3529.53
423.75	3459.31
423.94	3389.10
424.13	3206.53
424.32	3377.39
424.50	3485.06
424.69	3489.74
424.88	3562.30
425.07	3384.41
425.26	3358.67
425.45	3372.71
425.64	3492.08
425.83	3545.91
426.01	3517.83
426.20	3508.46
426.39	3658.26
426.58	3431.23
426.77	3424.20
426.96	3592.72
427.15	3604.42
427.33	3716.77
427.52	3545.91
427.71	3578.68
427.90	3506.12
428.09	3684.00
428.28	3700.39
428.46	3555.27
428.65	3522.51
428.84	3721.45
429.03	3887.63
429.22	3707.41
429.40	3810.39
429.59	3733.15
429.78	3623.15
429.97	3618.47
430.16	3875.93
430.34	3882.95
430.53	4009.34
430.72	3831.46
430.91	3918.06
431.10	4049.13
431.28	4070.19
431.47	4035.08
431.66	3974.23
431.85	4161.47
432.03	4093.60
432.22	4145.09
432.41	3913.38
432.60	4028.06
432.79	4131.05
432.97	4065.51
433.16	4128.70
433.35	4049.13
433.54	4217.65
433.72	4191.90
433.91	4180.20
434.10	4269.14
434.28	4217.65
434.47	4355.74
434.66	4344.03
434.85	4280.84
435.03	4383.82
435.22	4245.73
435.41	4535.96
435.59	4484.47
435.78	4400.21
435.97	4498.51
436.16	4447.02
436.34	4393.19
436.53	4550.00
436.72	4512.55
436.90	4610.86
437.09	4573.41
437.28	4449.36
437.46	4561.70
437.65	4461.06
437.84	4568.73
438.02	4585.11
438.21	4681.07
438.40	4770.01
438.58	4816.82
438.77	4786.40
438.96	4770.01
439.14	4938.53
439.33	5004.07
439.52	5036.83
439.70	4910.44
439.89	5083.64
440.08	4947.89
440.26	4966.62
440.45	5144.50
440.63	5207.69
440.82	5261.52
441.01	5207.69
441.19	5259.18
441.38	5247.48
441.57	5362.17
441.75	5259.18
441.94	5556.43
442.12	5334.08
442.31	5626.65
442.50	5544.73
442.68	5462.81
442.87	5593.88
443.05	5533.03
443.24	5554.09
443.43	5547.07
443.61	5577.50
443.80	5757.72
443.98	5657.07
444.17	5425.36
444.35	5678.14
444.54	5771.76
444.73	5734.31
444.91	5678.14
445.10	5760.06
445.28	5680.48
445.47	5680.48
445.65	5640.69
445.84	5825.59
446.02	5734.31
446.21	5715.59
446.39	5785.80
446.58	5816.23
446.77	5687.50
446.95	5523.66
447.14	5722.61
447.32	5921.56
447.51	5771.76
447.69	5682.82
447.88	5874.74
448.06	5750.70
448.25	5799.85
448.43	5816.23
448.62	5942.62
448.80	5851.34
448.99	5795.17
449.17	6106.46
449.36	5900.49
449.54	5959.00
449.73	6083.05
449.91	6087.73
450.10	5909.85
450.28	6120.50
450.46	6057.31
450.65	6061.99
450.83	6200.08
451.02	6155.61
451.20	6321.79
451.39	6319.45
451.57	6193.06
451.76	6387.32
451.94	6380.30
452.13	6282.00
452.31	6375.62
452.49	6282.00
452.68	6349.87
452.86	6427.11
453.05	6487.96
453.23	6530.09
453.42	6326.47
453.60	6293.70
453.78	6792.23
453.97	6497.33
454.15	6448.18
454.34	6574.56
454.52	6780.53
454.70	6499.67
454.89	6553.50
455.07	6555.84
455.26	6597.97
455.44	6857.77
455.62	6670.53
455.81	6808.62
455.99	6796.92
456.17	6827.34
456.36	6813.30
456.54	6757.13
456.73	7002.88
456.91	7063.74
457.09	7150.34
457.28	7103.53
457.46	7070.76
457.64	7171.40
457.83	7073.10
458.01	7101.19
458.19	7265.02
458.38	7185.44
458.56	7255.66
458.74	7180.76
458.93	7346.94
459.11	7447.58
459.29	7337.58
459.48	7398.43
459.66	7300.13
459.84	7325.88
460.03	7487.37
460.21	7445.24
460.39	7398.43
460.57	7365.67
460.76	7405.46
460.94	7496.74
461.12	7545.89
461.31	7463.97
461.49	7456.95
461.67	7515.46
461.85	7833.77
462.04	7595.04
462.22	8149.75
462.40	7901.65
462.59	7765.90
462.77	7714.41
462.95	7873.56
463.13	7765.90
463.32	7918.03
463.50	7798.66
463.68	7901.65
463.86	7922.71
464.05	7810.37
464.23	7990.59
464.41	8128.68
464.59	8032.72
464.78	8299.54
464.96	8175.49
465.14	8131.02
465.32	8147.40
465.50	8182.51
465.69	8035.06
465.87	8234.00
466.05	8318.26
466.23	8116.98
466.41	8393.16
466.60	8521.89
466.78	8360.39
466.96	8362.73
467.14	8203.58
467.32	8308.90
467.51	8477.42
467.69	8341.67
467.87	8376.78
468.05	8535.93
468.23	8365.07
468.41	8449.33
468.60	8400.18
468.78	8699.77
468.96	8524.23
469.14	8592.11
469.32	8641.26
469.50	8599.13
469.69	8772.33
469.87	8681.05
470.05	8802.75
470.23	8795.73
470.41	8762.97
470.59	8828.50
470.77	8788.71
470.95	8905.74
471.14	9102.34
471.32	8779.35
471.50	9076.60
471.68	9200.65
471.86	9280.22
472.04	9027.45
472.22	9460.45
472.40	9123.41
472.58	9303.63
472.77	9371.50
472.95	9397.25
473.13	9645.35
473.31	9336.40
473.49	9699.18
473.67	9507.26
473.85	9603.22
474.03	9841.95
474.21	9710.88
474.39	9696.84
474.57	9958.98
474.75	9781.10
474.93	10080.69
475.12	9846.63
475.30	10085.37
475.48	10024.51
475.66	10312.40
475.84	10239.84
476.02	10066.64
476.20	10312.40
476.38	10586.24
476.56	10960.73
476.74	10511.35
476.92	10527.73
477.10	10686.89
477.28	10977.11
477.46	10874.13
477.64	10829.66
477.82	11073.07
478.00	11094.14
478.18	11339.90
478.36	11393.73
478.54	11534.16
478.72	11513.10
478.90	11435.86
479.08	11808.00
479.26	11845.45
479.44	11789.28
479.62	11929.71
479.80	11761.19
479.98	12004.61
480.16	12442.29
480.34	12180.15
480.52	12484.42
480.70	12205.89
480.88	12191.85
481.06	12465.69
481.24	12496.12
481.41	12606.13
481.59	12779.32
481.77	12868.27
481.95	12968.91
482.13	13048.49
482.31	12931.46
482.49	13502.55
482.67	13336.37
482.85	13745.97
483.03	13708.52
483.21	13586.81
483.39	13865.33
483.57	13666.39
483.74	13951.93
483.92	14207.05
484.10	14167.26
484.28	14417.70
484.46	14569.83
484.64	14803.89
484.82	14710.27
485.00	14714.95
485.18	15098.80
485.35	15297.74
485.53	15400.72
485.71	15351.57
485.89	15789.25
486.07	15534.14
486.25	15515.41
486.43	15719.04
486.61	15892.24
486.78	15744.78
486.96	16067.78
487.14	16177.78
487.32	16407.16
487.50	16311.19
487.68	16753.55
487.85	16521.84
488.03	17015.69
488.21	17303.58
488.39	17411.25
488.57	17301.24
488.75	17371.46
488.92	17631.26
489.10	17539.97
489.28	17621.89
489.46	18066.60
489.64	17823.18
489.81	18389.59
489.99	18532.36
490.17	18431.72
490.35	18642.37
490.53	18778.12
490.70	18829.61
490.88	18792.16
491.06	18951.32
491.24	19080.05
491.41	19447.51
491.59	19524.75
491.77	19461.55
491.95	19630.07
492.13	19768.16
492.30	19997.54
492.48	20016.26
492.66	20063.07
492.84	20039.67
493.01	20137.97
493.19	20287.76
493.37	20767.57
493.54	20587.35
493.72	20837.79
493.90	20638.84
494.08	20961.84
494.25	21322.28
494.43	21254.40
494.61	21439.31
494.79	21654.64
494.96	21488.46
495.14	21699.11
495.32	21902.73
495.49	21731.87
495.67	22321.69
495.85	22181.26
496.02	22434.03
496.20	22473.82
496.38	22738.30
496.55	22632.98
496.73	23236.84
496.91	23033.21
497.09	23082.36
497.26	23274.29
497.44	23147.90
497.62	23309.40
497.79	23536.43
497.97	23531.75
498.14	24060.71
498.32	23782.18
498.50	23957.72
498.67	24168.37
498.85	24095.82
499.03	24369.66
499.20	24229.23
499.38	24369.66
499.56	24451.58
499.73	24458.60
499.91	24835.42
500.08	24746.48
500.26	24540.52
500.44	24898.62
500.61	25067.14
500.79	25017.99
500.97	25109.27
501.14	25586.74
501.32	25701.42
501.49	25661.63
501.67	25626.53
501.84	25769.30
502.02	25773.98
502.20	26033.78
502.37	26162.51
502.55	26377.84
502.72	26012.71
502.90	26349.75
503.07	26267.83
503.25	26223.36
503.43	26291.24
503.60	26698.49
503.78	26731.26
503.95	26618.91
504.13	26733.60
504.30	27077.66
504.48	27096.38
504.65	27094.04
504.83	27431.08
505.01	27524.70
505.18	27562.15
505.36	27711.94
505.53	27665.13
505.71	27578.53
505.88	27548.11
506.06	27702.58
506.23	27931.95
506.41	27868.76
506.58	28077.07
506.76	27948.34
506.93	28313.46
507.11	28481.98
507.28	28545.17
507.46	28367.29
507.63	28311.12
507.81	29076.48
507.98	28664.54
508.16	28367.29
508.33	28687.95
508.50	29048.39
508.68	28793.27
508.85	29497.77
509.03	29275.42
509.20	29523.52
509.38	29408.83
509.55	29710.76
509.73	29783.32
509.90	30029.07
510.08	29717.78
510.25	29930.77
510.42	30029.07
510.60	30223.34
510.77	30132.06
510.95	30511.22
511.12	30354.41
511.30	30401.22
511.47	30305.26
511.64	30588.46
511.82	30864.64
511.99	30567.40
512.17	30630.59
512.34	30820.17
512.51	31363.18
512.69	30958.27
512.86	31285.94
513.04	31016.78
513.21	31447.44
513.38	31374.88
513.56	31653.40
513.73	31332.75
513.90	31494.25
514.08	31365.52
514.25	31723.62
514.43	31700.22
514.60	32233.86
514.77	31997.46
514.95	32474.93
515.12	31971.72
515.29	32402.38
515.47	32748.78
515.64	32554.51
515.81	32128.53
515.99	32229.18
516.16	32818.99
516.33	33153.69
516.51	32496.00
516.68	32589.62
516.85	32783.88
517.03	32788.56
517.20	32896.23
517.37	33277.74
517.54	33144.33
517.72	33083.47
517.89	33577.33
518.06	33427.53
518.24	33223.90
518.41	33289.44
518.58	33841.81
518.75	33200.50
518.93	33706.05
519.10	33401.79
519.27	33553.92
519.45	33673.29
519.62	34260.76
519.79	34068.84
519.96	34398.85
520.14	33907.34
520.31	34022.03
520.48	34211.61
520.65	34651.63
520.83	34831.85
521.00	34742.91
521.17	34649.29
521.34	34639.93
521.52	35023.78
521.69	35026.12
521.86	35105.70
522.03	34981.65
522.20	35601.89
522.38	35618.27
522.55	35054.20
522.72	35229.74
522.89	35161.87
523.07	35934.24
523.24	35842.96
523.41	35381.88
523.58	35358.47
523.75	35828.92
523.92	35393.58
524.10	36020.84
524.27	35934.24
524.44	35817.22
524.61	36332.14
524.78	35974.03
524.96	36346.18
525.13	36196.38
525.30	36252.56
525.47	36589.59
525.64	36467.89
525.81	36547.47
525.98	36488.95
526.16	36781.52
526.33	36624.70
526.50	36758.11
526.67	36608.32
526.84	36474.91
527.01	37043.66
527.18	36879.82
527.36	37261.33
527.53	36917.27
527.70	37383.04
527.87	37481.34
528.04	37483.68
528.21	37593.68
528.38	37652.20
528.55	37982.21
528.72	37074.09
528.89	37823.06
529.07	37258.99
529.24	37682.62
529.41	37612.41
529.58	37581.98
529.75	37963.49
529.92	38256.06
530.09	38258.40
530.26	38075.84
530.43	38466.70
530.60	38249.03
530.77	38122.65
530.94	38101.58
531.11	37773.91
531.28	38148.39
531.46	38312.23
531.63	38649.27
531.80	38635.22
531.97	38824.81
532.14	38602.46
532.31	38700.76
532.48	38714.80
532.65	39037.80
532.82	38932.47
532.99	38738.21
533.16	38644.59
533.33	39290.57
533.50	39210.99
533.67	39115.03
533.84	38944.17
534.01	39143.12
534.18	39103.33
534.35	39868.69
534.52	39440.37
534.69	39573.78
534.86	39959.97
535.03	39620.59
535.20	39704.85
535.37	40016.14
535.54	40205.72
535.71	40023.16
535.88	40088.70
536.05	40355.52
536.22	39817.19
536.38	40491.27
536.55	40030.18
536.72	40098.06
536.89	39751.66
537.06	40011.46
537.23	40282.96
537.40	39758.68
537.57	40217.43
537.74	40650.42
537.91	40641.06
538.08	40418.71
538.25	40292.32
538.42	40458.50
538.59	40825.96
538.75	40526.38
538.92	40832.99
539.09	41188.75
539.26	41244.92
539.43	41125.55
539.60	40903.20
539.77	41069.38
539.94	41432.16
540.11	41244.92
540.28	41741.11
540.44	41338.54
540.61	41371.31
540.78	40935.97
540.95	41298.75
541.12	41233.22
541.29	41680.26
541.46	41322.16
541.62	41331.52
541.79	41940.06
541.96	41230.88
542.13	41441.53
542.30	41853.46
542.47	41989.21
542.63	41617.07
542.80	42110.92
542.97	42216.24
543.14	42326.25
543.31	41736.43
543.48	42398.80
543.64	42703.07
543.81	42457.32
543.98	42066.45
544.15	42824.78
544.32	42529.87
544.48	42820.10
544.65	42773.29
544.82	42553.28
544.99	42293.48
545.16	43203.95
545.32	42543.92
545.49	43232.04
545.66	43157.14
545.83	42937.13
546.00	43009.68
546.16	43152.46
546.33	42557.96
546.50	42822.44
546.67	43435.66
546.83	42939.47
547.00	42698.39
547.17	43372.47
547.34	43276.51
547.50	43316.29
547.67	43707.16
547.84	43395.87
548.00	43522.26
548.17	43981.01
548.34	43545.67
548.51	43353.74
548.67	43756.32
548.84	43475.45
549.01	43629.93
549.18	43695.46
549.34	43442.68
549.51	43812.49
549.68	44100.37
549.84	43985.69
550.01	44201.02
550.18	43700.14
550.34	43849.94
550.51	44449.11
550.68	44329.75
550.84	43981.01
551.01	44229.10
551.18	44479.54
551.34	44058.24
551.51	44371.88
551.68	44505.29
551.84	44261.87
552.01	44116.76
552.18	44521.67
552.34	44486.56
552.51	44385.92
552.68	44137.82
552.84	44062.93
553.01	44114.42
553.18	44135.48
553.34	44825.94
553.51	44669.12
553.67	44964.03
553.84	44748.70
554.01	44964.03
554.17	44315.70
554.34	44839.98
554.51	45069.36
554.67	45132.55
554.84	45230.85
555.00	44975.73
555.17	44884.45
555.33	45153.62
555.50	44765.09
555.67	45338.52
555.83	44898.50
556.00	45556.19
556.16	45930.67
556.33	45544.48
556.50	45364.26
556.66	45450.86
556.83	45598.32
556.99	45560.87
557.16	45034.25
557.32	45776.20
557.49	45853.44
557.65	45184.04
557.82	45275.32
557.98	45380.65
558.15	45551.51
558.32	45794.92
558.48	45654.49
558.65	45633.42
558.81	45778.54
558.98	45909.61
559.14	46108.55
559.31	45769.18
559.47	45858.12
559.64	46073.45
559.80	45954.08
559.97	46024.29
560.13	45638.11
560.30	45801.94
560.46	46239.62
560.63	46270.05
560.79	46078.13
560.96	46113.23
561.12	46450.27
561.29	46099.19
561.45	46038.34
561.61	46054.72
561.78	45607.68
561.94	45860.46
562.11	46192.81
562.27	46213.88
562.44	45928.33
562.60	46157.70
562.77	46363.67
562.93	45546.82
563.10	46450.27
563.26	46644.54
563.42	46752.20
563.59	46122.60
563.75	46223.24
563.92	45914.29
564.08	46349.63
564.24	46513.47
564.41	46469.00
564.57	46429.21
564.74	46948.81
564.90	46457.29
565.07	46237.28
565.23	46263.03
565.39	46366.01
565.56	46707.73
565.72	46700.71
565.88	46494.74
566.05	46976.89
566.21	46742.84
566.38	46621.13
566.54	46885.61
566.70	47110.30
566.87	46560.28
567.03	46712.41
567.19	46890.29
567.36	46691.35
567.52	46550.91
567.68	46831.78
567.85	46909.02
568.01	47269.46
568.17	47014.34
568.34	47337.33
568.50	46534.53
568.66	46930.08
568.83	47271.80
568.99	46616.45
569.15	46880.93
569.32	46614.11
569.48	46806.03
569.64	47512.88
569.81	47269.46
569.97	47023.70
570.13	47468.40
570.30	46958.17
570.46	47281.16
570.62	47114.98
570.78	47285.84
570.95	46946.47
571.11	47470.75
571.27	46799.01
571.43	46883.27
571.60	47079.88
571.76	47014.34
571.92	47037.75
572.09	47140.73
572.25	46878.59
572.41	47117.32
572.57	47306.91
572.74	47468.40
572.90	47400.53
573.06	47372.44
573.22	47688.42
573.38	47365.42
573.55	47583.09
573.71	47765.65
573.87	47236.69
574.03	47456.70
574.20	47477.77
574.36	47491.81
574.52	47468.40
574.68	47250.74
574.84	47711.82
575.01	47494.15
575.17	47622.88
575.33	47526.92
575.49	47157.11
575.65	47618.20
575.82	47814.80
575.98	47037.75
576.14	47882.68
576.30	47826.51
576.46	47475.43
576.62	47641.60
576.79	47309.25
576.95	47159.45
577.11	47236.69
577.27	47540.96
577.43	47491.81
577.59	47400.53
577.75	47540.96
577.92	47330.31
578.08	47498.83
578.24	47665.01
578.40	47665.01
578.56	47547.98
578.72	48004.39
578.88	47562.03
579.04	47669.69
579.21	47388.83
579.37	47653.31
579.53	47627.56
579.69	47641.60
579.85	47421.59
580.01	47772.67
580.17	47306.91
580.33	47805.44
580.49	48055.88
580.65	47639.26
580.82	47285.84
580.98	47505.85
581.14	47585.43
581.30	47835.87
581.46	47379.46
581.62	47201.58
581.78	47363.08
581.94	47807.78
582.10	47800.76
582.26	47569.05
582.42	47416.91
582.58	48044.18
582.74	47854.59
582.90	47817.14
583.06	47973.96
583.22	47569.05
583.38	47772.67
583.54	47859.27
583.70	48046.52
583.86	48261.85
584.02	47674.37
584.18	47838.21
584.34	47735.23
584.50	48292.27
584.66	47892.04
584.82	48165.88
584.98	48561.44
585.14	48154.18
585.30	47910.77
585.46	47515.22
585.62	47896.72
585.78	47819.49
585.94	47690.76
586.10	47990.34
586.26	47861.61
586.42	47894.38
586.58	47807.78
586.74	47903.74
586.90	47447.34
587.06	47892.04
587.22	47952.90
587.38	47786.72
587.54	48039.50
587.70	48105.03
587.86	47896.72
588.02	48086.31
588.18	47821.83
588.34	47985.66
588.49	48215.04
588.65	47880.34
588.81	47875.66
588.97	47990.34
589.13	47847.57
589.29	48098.01
589.45	48116.73
589.61	48205.67
589.77	47959.92
589.93	47821.83
