SpectraSuite Data File
++++++++++++++++++++++++++++++++++++
Date: Fri Oct 25 11:22:31 EDT 2013
User: price-jones
Dark Spectrum Present: No
Reference Spectrum Present: No
Number of Sampled Component Spectra: 1
Spectrometers: USB2+H05261
Integration Time (usec): 100000 (USB2+H05261)
Spectra Averaged: 1 (USB2+H05261)
Boxcar Smoothing: 0 (USB2+H05261)
Correct for Electrical Dark: No (USB2+H05261)
Strobe/Lamp Enabled: No (USB2+H05261)
Correct for Detector Non-linearity: No (USB2+H05261)
Correct for Stray Light: No (USB2+H05261)
Number of Pixels in Processed Spectrum: 2048
>>>>>Begin Processed Spectral Data<<<<<
365.73	257.46
365.92	257.46
366.12	257.46
366.32	138.09
366.52	117.03
366.72	135.75
366.91	138.09
367.11	142.77
367.31	119.37
367.51	65.54
367.70	191.92
367.90	243.42
368.10	102.98
368.30	145.11
368.49	131.07
368.69	135.75
368.89	145.11
369.09	112.35
369.28	133.41
369.48	114.69
369.68	124.05
369.87	220.01
370.07	198.95
370.27	257.46
370.47	278.52
370.66	610.88
370.86	585.13
371.06	655.35
371.25	683.44
371.45	620.24
371.65	699.82
371.84	688.12
372.04	697.48
372.24	746.63
372.44	706.84
372.63	692.80
372.83	746.63
373.03	760.67
373.22	772.38
373.42	678.76
373.62	819.19
373.81	739.61
374.01	744.29
374.21	772.38
374.40	812.17
374.60	849.61
374.79	863.66
374.99	772.38
375.19	863.66
375.38	896.43
375.58	837.91
375.78	952.60
375.97	840.25
376.17	889.40
376.37	938.55
376.56	861.32
376.76	887.06
376.95	938.55
377.15	915.15
377.35	856.64
377.54	896.43
377.74	903.45
377.93	873.02
378.13	1022.81
378.33	908.13
378.52	849.61
378.72	828.55
378.91	887.06
379.11	912.81
379.31	968.98
379.50	908.13
379.70	973.66
379.89	1090.69
380.09	950.26
380.28	1013.45
380.48	961.96
380.68	840.25
380.87	929.19
381.07	943.24
381.26	959.62
381.46	973.66
381.65	1060.26
381.85	1006.43
382.04	990.05
382.24	1034.52
382.43	1041.54
382.63	1008.77
382.83	1062.60
383.02	1029.84
383.22	1181.97
383.41	1076.65
383.61	1163.25
383.80	1184.31
384.00	1097.71
384.19	1142.18
384.39	1139.84
384.58	1090.69
384.78	1238.14
384.97	1125.80
385.17	1174.95
385.36	1102.39
385.56	1179.63
385.75	1151.54
385.95	1151.54
386.14	1125.80
386.34	1186.65
386.53	1210.06
386.72	1207.72
386.92	1282.61
387.11	1224.10
387.31	1233.46
387.50	1287.29
387.70	1228.78
387.89	1299.00
388.09	1303.68
388.28	1289.64
388.48	1284.95
388.67	1317.72
388.86	1306.02
389.06	1299.00
389.25	1369.21
389.45	1303.68
389.64	1313.04
389.84	1406.66
390.03	1350.49
390.22	1355.17
390.42	1362.19
390.61	1350.49
390.81	1303.68
391.00	1359.85
391.19	1406.66
391.39	1380.92
391.58	1336.45
391.78	1479.22
391.97	1486.24
392.16	1528.37
392.36	1444.11
392.55	1488.58
392.75	1540.07
392.94	1540.07
393.13	1523.69
393.33	1511.99
393.52	1584.54
393.71	1577.52
393.91	1558.80
394.10	1476.88
394.29	1596.25
394.49	1544.75
394.68	1612.63
394.88	1561.14
395.07	1687.53
395.26	1638.38
395.46	1736.68
395.65	1776.47
395.84	1771.79
396.04	1739.02
396.23	1762.42
396.42	1661.78
396.62	1830.30
396.81	1769.44
397.00	1689.87
397.19	1790.51
397.39	1785.83
397.58	1853.70
397.77	1802.21
397.97	1837.32
398.16	1863.07
398.35	1902.86
398.55	1916.90
398.74	1888.81
398.93	1980.09
399.12	1947.33
399.32	1966.05
399.51	1944.99
399.70	1870.09
399.90	1956.69
400.09	2003.50
400.28	1973.07
400.47	1942.64
400.67	2010.52
400.86	2136.91
401.05	2115.84
401.24	1994.14
401.44	2097.12
401.63	2062.01
401.82	2183.72
402.01	2122.87
402.21	2169.68
402.40	2202.44
402.59	2153.29
402.78	2179.04
402.97	2221.17
403.17	2263.30
403.36	2223.51
403.55	2298.41
403.74	2462.24
403.93	2380.32
404.13	2347.56
404.32	2310.11
404.51	2401.39
404.70	2389.69
404.89	2406.07
405.09	2490.33
405.28	2525.44
405.47	2487.99
405.66	2431.82
405.85	2572.25
406.05	2548.84
406.24	2693.96
406.43	2551.18
406.62	2684.59
406.81	2614.38
407.00	2647.15
407.20	2537.14
407.39	2633.10
407.58	2747.79
407.77	2712.68
407.96	2792.26
408.15	2733.75
408.34	2747.79
408.54	2834.39
408.73	2916.31
408.92	2794.60
409.11	2843.75
409.30	2848.43
409.49	2850.77
409.68	2888.22
409.87	3012.27
410.07	3030.99
410.26	3103.55
410.45	3035.67
410.64	3115.25
410.83	3105.89
411.02	2995.89
411.21	3080.14
411.40	3038.02
411.59	3131.64
411.78	3089.51
411.98	3117.59
412.17	3363.35
412.36	3166.74
412.55	3407.82
412.74	3501.44
412.93	3447.61
413.12	3382.07
413.31	3552.93
413.50	3426.54
413.69	3499.10
413.88	3686.34
414.07	3616.13
414.26	3604.42
414.45	3756.56
414.64	3726.13
414.83	3758.90
415.02	3840.82
415.22	3866.56
415.41	3843.16
415.60	3784.65
415.79	3850.18
415.98	3948.48
416.17	4067.85
416.36	4014.02
416.55	4117.00
416.74	4182.54
416.93	4128.70
417.12	4067.85
417.31	4196.58
417.50	4154.45
417.69	4290.20
417.88	4236.37
418.07	4234.03
418.26	4372.12
418.45	4540.64
418.64	4519.57
418.83	4355.74
419.02	4440.00
419.21	4512.55
419.39	4608.51
419.58	4528.94
419.77	4559.36
419.96	4540.64
420.15	4688.09
420.34	4643.62
420.53	4505.53
420.72	4716.18
420.91	4730.22
421.10	4854.27
421.29	4795.76
421.48	4770.01
421.67	4828.53
421.86	4898.74
422.05	4760.65
422.24	4905.76
422.43	4947.89
422.61	4980.66
422.80	4870.65
422.99	5050.88
423.18	4840.23
423.37	5006.41
423.56	4917.47
423.75	4964.28
423.94	4910.44
424.13	4622.56
424.32	4802.78
424.50	4992.36
424.69	5203.01
424.88	4973.64
425.07	4793.42
425.26	4777.03
425.45	4901.08
425.64	5008.75
425.83	4889.38
426.01	5093.01
426.20	5029.81
426.39	5280.25
426.58	5097.69
426.77	5158.54
426.96	5151.52
427.15	5151.52
427.33	5301.31
427.52	5270.89
427.71	5324.72
427.90	5252.16
428.09	5345.78
428.28	5481.53
428.46	5352.81
428.65	5427.70
428.84	5549.41
429.03	5528.35
429.22	5416.00
429.40	5511.96
429.59	5465.15
429.78	5345.78
429.97	5228.76
430.16	5624.31
430.34	5511.96
430.53	5743.67
430.72	5628.99
430.91	5645.37
431.10	5666.44
431.28	5933.26
431.47	5757.72
431.66	5951.98
431.85	5912.19
432.03	5959.00
432.22	5982.41
432.41	5923.90
432.60	6146.25
432.79	5813.89
432.97	6260.93
433.16	6101.78
433.35	6073.69
433.54	6059.65
433.72	6197.74
433.91	5947.30
434.10	6267.95
434.28	6237.53
434.47	6230.51
434.66	6202.42
434.85	6293.70
435.03	6597.97
435.22	6485.62
435.41	6415.41
435.59	6497.33
435.78	6670.53
435.97	6333.49
436.16	6445.84
436.34	6401.37
436.53	6331.15
436.72	6649.46
436.90	6534.78
437.09	6733.72
437.28	6593.29
437.46	6502.01
437.65	6808.62
437.84	6707.98
438.02	6635.42
438.21	6623.72
438.40	6623.72
438.58	7225.23
438.77	7068.42
438.96	7016.93
439.14	7176.08
439.33	7204.17
439.52	7052.03
439.70	7311.83
439.89	7393.75
440.08	7541.21
440.26	7499.08
440.45	7323.54
440.63	7524.82
440.82	7784.62
441.01	7564.61
441.19	7665.25
441.38	7569.29
441.57	7810.37
441.75	7817.39
441.94	8037.40
442.12	7871.22
442.31	8135.70
442.50	8051.44
442.68	8156.77
442.87	8065.49
443.05	8219.96
443.24	8390.82
443.43	8156.77
443.61	8152.09
443.80	8535.93
443.98	7901.65
444.17	7768.24
444.35	8222.30
444.54	8344.01
444.73	8215.28
444.91	8414.23
445.10	8322.94
445.28	8407.20
445.47	8301.88
445.65	8458.70
445.84	8432.95
446.02	8411.89
446.21	8627.21
446.39	8482.10
446.58	8601.47
446.77	8650.62
446.95	8201.24
447.14	8439.97
447.32	8634.24
447.51	8477.42
447.69	8493.80
447.88	8704.45
448.06	8720.84
448.25	8528.91
448.43	8681.05
448.62	8678.71
448.80	8706.79
448.99	8924.46
449.17	8751.26
449.36	8744.24
449.54	8929.14
449.73	9109.36
449.91	8999.36
450.10	8905.74
450.28	8931.48
450.46	9100.00
450.65	9008.72
450.83	9060.21
451.02	9097.66
451.20	9057.87
451.39	9149.15
451.57	9205.33
451.76	9055.53
451.94	9067.24
452.13	9362.14
452.31	9530.66
452.49	9254.48
452.68	9287.25
452.86	9287.25
453.05	9619.60
453.23	9434.70
453.42	9635.99
453.60	9202.99
453.78	9570.45
453.97	9469.81
454.15	9455.76
454.34	9495.55
454.52	9785.78
454.70	9455.76
454.89	9802.16
455.07	9914.51
455.26	9970.68
455.44	9811.53
455.62	9844.29
455.81	10162.61
455.99	10134.52
456.17	9998.77
456.36	10104.09
456.54	10342.83
456.73	10331.12
456.91	10644.76
457.09	10377.94
457.28	10649.44
457.46	10356.87
457.64	10691.57
457.83	10747.74
458.01	10471.56
458.19	10981.79
458.38	10750.08
458.56	10714.97
458.74	10736.04
458.93	10586.24
459.11	10766.46
459.29	10731.36
459.48	10916.26
459.66	10913.92
459.84	10911.58
460.03	11115.20
460.21	11239.25
460.39	11290.74
460.57	11040.31
460.76	11171.38
460.94	11288.40
461.12	11250.96
461.31	11171.38
461.49	11372.66
461.67	11131.59
461.85	11396.07
462.04	11325.85
462.22	12013.97
462.40	11786.94
462.59	11473.31
462.77	11812.68
462.95	11637.14
463.13	11625.44
463.32	11641.82
463.50	11990.56
463.68	11981.20
463.86	12123.98
464.05	11859.49
464.23	11903.96
464.41	12046.74
464.59	11609.06
464.78	12269.09
464.96	12156.74
465.14	11932.05
465.32	12030.35
465.50	12196.53
465.69	12372.07
465.87	12093.55
466.05	11964.82
466.23	12360.37
466.41	12189.51
466.60	12816.77
466.78	12173.13
466.96	12313.56
467.14	12386.12
467.32	12346.33
467.51	12650.60
467.69	12222.28
467.87	12582.72
468.05	12879.97
468.23	12521.87
468.41	12666.98
468.60	12606.13
468.78	12769.96
468.96	12540.59
469.14	12964.23
469.32	12926.78
469.50	12760.60
469.69	12989.97
469.87	13247.43
470.05	13107.00
470.23	13530.64
470.41	13259.13
470.59	13514.25
470.77	12982.95
470.95	13172.54
471.14	13633.62
471.32	13301.26
471.50	13481.49
471.68	13617.24
471.86	13661.71
472.04	13832.57
472.22	14193.01
472.40	13657.03
472.58	13949.59
472.77	14015.13
472.95	14321.74
473.13	14485.58
473.31	14059.60
473.49	14373.23
473.67	14204.71
473.85	14354.51
474.03	14569.83
474.21	14705.59
474.39	14532.39
474.57	14916.23
474.75	15133.90
474.93	15154.97
475.12	15279.02
475.30	15136.24
475.48	15459.24
475.66	15335.19
475.84	15367.96
476.02	15463.92
476.20	15630.10
476.38	15616.05
476.56	16170.76
476.74	16201.19
476.92	16196.51
477.10	15981.18
477.28	16271.40
477.46	16486.73
477.64	16512.48
477.82	16830.79
478.00	17149.11
478.18	16896.33
478.36	17174.85
478.54	17291.88
478.72	17429.97
478.90	17673.39
479.08	17664.02
479.26	17989.36
479.44	17937.87
479.62	18022.12
479.80	18246.82
479.98	18288.95
480.16	18803.86
480.34	18363.84
480.52	18588.53
480.70	18850.67
480.88	18597.90
481.06	18513.64
481.24	19037.92
481.41	19412.40
481.59	19412.40
481.77	19665.18
481.95	19730.72
482.13	19604.33
482.31	19634.75
482.49	20334.57
482.67	20484.37
482.85	20575.65
483.03	20805.02
483.21	20800.34
483.39	21064.82
483.57	21198.23
483.74	21294.19
483.92	21556.33
484.10	21413.56
484.28	21921.46
484.46	21900.39
484.64	22443.40
484.82	22312.33
485.00	22555.74
485.18	22857.67
485.35	23171.30
485.53	23009.81
485.71	23117.47
485.89	23761.12
486.07	23288.33
486.25	23494.30
486.43	23908.57
486.61	24081.77
486.78	24100.50
486.96	24086.45
487.14	24613.07
487.32	25184.16
487.50	25127.99
487.68	24975.86
487.85	25591.42
488.03	25816.11
488.21	26143.78
488.39	25816.11
488.57	26040.80
488.75	26426.99
488.92	26473.80
489.10	26955.95
489.28	26892.76
489.46	27597.26
489.64	27047.23
489.81	27957.70
489.99	27866.42
490.17	27878.12
490.35	28290.06
490.53	28491.34
490.70	28367.29
490.88	28697.31
491.06	29003.92
491.24	28814.34
491.41	29497.77
491.59	29420.53
491.77	29303.51
491.95	29919.07
492.13	29685.01
492.30	30221.00
492.48	30347.39
492.66	30555.69
492.84	30703.15
493.01	30801.45
493.19	30965.29
493.37	31285.94
493.54	31339.77
493.72	31917.89
493.90	31695.53
494.08	31938.95
494.25	32486.64
494.43	31847.67
494.61	32772.18
494.79	32811.97
494.96	32694.94
495.14	33216.88
495.32	33219.22
495.49	33591.37
495.67	33500.09
495.85	33783.29
496.02	34391.83
496.20	34125.01
496.38	34272.46
496.55	34518.22
496.73	34756.96
496.91	34768.66
497.09	35213.36
497.26	35026.12
497.44	35220.38
497.62	35754.02
497.79	35899.14
497.97	35686.15
498.14	36105.10
498.32	36292.35
498.50	36481.93
498.67	37083.45
498.85	36783.86
499.03	37139.62
499.20	36903.23
499.38	37284.73
499.56	37443.89
499.73	37724.75
499.91	37998.60
500.08	37706.03
500.26	37495.38
500.44	38206.90
500.61	38237.33
500.79	38274.78
500.97	38424.57
501.14	38838.85
501.32	38824.81
501.49	38815.44
501.67	38895.02
501.84	39468.45
502.02	39117.37
502.20	39550.37
502.37	39496.54
502.55	39349.09
502.72	39487.18
502.90	39604.20
503.07	40329.77
503.25	40156.57
503.43	39803.15
503.60	40701.92
503.78	40671.49
503.95	40451.48
504.13	40935.97
504.30	40545.10
504.48	40601.27
504.65	41195.77
504.83	41301.09
505.01	41642.81
505.18	41364.29
505.36	41979.85
505.53	41453.23
505.71	42380.08
505.88	42284.12
506.06	42087.51
506.23	42349.65
506.41	41773.88
506.58	42656.26
506.76	42270.08
506.93	42955.85
507.11	42834.14
507.28	43330.34
507.46	43491.83
507.63	42777.97
507.81	43480.13
507.98	42918.40
508.16	43676.74
508.33	43742.27
508.50	43779.72
508.68	44041.86
508.85	44247.83
509.03	43910.79
509.20	44179.95
509.38	44739.34
509.55	45118.51
509.73	45123.19
509.90	44416.35
510.08	44928.92
510.25	44610.61
510.42	45177.02
510.60	45366.60
510.77	45830.03
510.95	45713.00
511.12	45347.88
511.30	45801.94
511.47	45937.69
511.64	45399.37
511.82	46021.95
511.99	46026.63
512.17	46656.24
512.34	46103.87
512.51	46298.14
512.69	46817.74
512.86	46543.89
513.04	47152.43
513.21	46995.62
513.38	47304.57
513.56	47157.11
513.73	47138.39
513.90	47248.39
514.08	47049.45
514.25	47636.92
514.43	47971.62
514.60	47468.40
514.77	47978.64
514.95	48086.31
515.12	47896.72
515.29	47524.58
515.47	48123.75
515.64	48421.00
515.81	48306.32
515.99	48083.97
516.16	48704.21
516.33	48596.54
516.51	48971.03
516.68	48783.79
516.85	49050.61
517.03	49029.54
517.20	49195.72
517.37	49240.19
517.54	49357.22
517.72	49432.11
517.89	49284.66
518.06	49499.99
518.24	49279.98
518.41	49382.96
518.58	49984.48
518.75	49287.00
518.93	50115.55
519.10	49408.71
519.27	50405.78
519.45	49961.08
519.62	50616.43
519.79	50286.41
519.96	50293.43
520.14	50445.57
520.31	50389.39
520.48	50759.20
520.65	50745.15
520.83	51227.31
521.00	51021.34
521.17	50803.67
521.34	50899.63
521.52	51051.76
521.69	51014.32
521.86	51047.08
522.03	51367.74
522.20	51459.02
522.38	51828.82
522.55	51583.07
522.72	51592.43
522.89	51697.75
523.07	51798.40
523.24	51674.35
523.41	51854.57
523.58	51477.74
523.75	52037.13
523.92	52102.67
524.10	52119.05
524.27	52325.02
524.44	52264.16
524.61	52535.66
524.78	52708.86
524.96	52404.59
525.13	52612.90
525.30	52879.72
525.47	52956.96
525.64	52765.04
525.81	53160.59
525.98	52736.95
526.16	53071.65
526.33	52713.55
526.50	53127.82
526.67	53174.63
526.84	53221.44
527.01	52999.09
527.18	53146.54
527.36	53249.53
527.53	53361.87
527.70	53635.72
527.87	53696.57
528.04	53181.65
528.21	53514.01
528.38	53785.51
528.55	53797.21
528.72	53614.65
528.89	53647.42
529.07	53677.85
529.24	53631.04
529.41	53904.88
529.58	53918.92
529.75	53984.46
529.92	54024.25
530.09	54066.38
530.26	54234.89
530.43	54387.03
530.60	53752.74
530.77	54028.93
530.94	54164.68
531.11	54328.52
531.28	54115.53
531.46	54323.83
531.63	54206.81
531.80	54403.41
531.97	54588.31
532.14	54541.50
532.31	54735.77
532.48	55025.99
532.65	54925.35
532.82	54695.98
532.99	54925.35
533.16	54700.66
533.33	54899.61
533.50	54960.46
533.67	55072.81
533.84	54937.05
534.01	55049.40
534.18	55119.62
534.35	55461.33
534.52	55330.26
534.69	55311.54
534.86	55835.82
535.03	55180.47
535.20	55601.77
535.37	55482.40
535.54	55634.53
535.71	55636.87
535.88	55767.94
536.05	55667.30
536.22	55660.28
536.38	55739.86
536.55	55779.65
536.72	55580.70
536.89	55781.99
537.06	55774.97
537.23	56285.20
537.40	55856.88
537.57	56142.43
537.74	55978.59
537.91	56051.15
538.08	56240.73
538.25	55718.79
538.42	56072.21
538.59	56254.78
538.75	56114.34
538.92	56278.18
539.09	56612.88
539.26	56390.53
539.43	56104.98
539.60	56631.60
539.77	56580.11
539.94	56828.21
540.11	56816.50
540.28	56488.83
540.44	56725.22
540.61	56769.69
540.78	56699.48
540.95	56519.26
541.12	56678.41
541.29	56809.48
541.46	56643.30
541.62	56788.42
541.79	56987.36
541.96	56573.09
542.13	56797.78
542.30	56907.79
542.47	56938.21
542.63	57186.31
542.80	57029.49
542.97	57439.09
543.14	57499.94
543.31	57408.66
543.48	57605.26
543.64	57633.35
543.81	57502.28
543.98	57455.47
544.15	57675.48
544.32	57904.85
544.48	58075.71
544.65	57425.04
544.82	57488.24
544.99	57305.68
545.16	57649.74
545.32	57696.55
545.49	57829.96
545.66	57881.45
545.83	57921.24
546.00	58028.90
546.16	57893.15
546.33	57808.89
546.50	57825.28
546.67	57977.41
546.83	57687.18
547.00	58035.92
547.17	57886.13
547.34	57911.88
547.50	58417.43
547.67	58183.38
547.84	58096.78
548.00	58405.73
548.17	58305.09
548.34	58553.18
548.51	58492.33
548.67	58513.39
548.84	58417.43
549.01	58445.52
549.18	58471.26
549.34	58585.95
549.51	58457.22
549.68	58665.53
549.84	58489.99
550.01	58541.48
550.18	58630.42
550.34	58649.14
550.51	58644.46
550.68	58665.53
550.84	58436.16
551.01	58766.17
551.18	58761.49
551.34	58859.79
551.51	58768.51
551.68	59023.63
551.84	58684.25
552.01	58763.83
552.18	58951.07
552.34	58831.71
552.51	58925.33
552.68	58864.47
552.84	58848.09
553.01	59089.16
553.18	59091.51
553.34	59281.09
553.51	58990.86
553.67	58897.24
553.84	59201.51
554.01	59203.85
554.17	59292.79
554.34	59133.63
554.51	58997.88
554.67	59241.30
554.84	59304.49
555.00	59217.89
555.17	59152.36
555.33	59058.74
555.50	59210.87
555.67	59178.10
555.83	59150.02
556.00	59224.92
556.16	59503.44
556.33	59697.70
556.50	59306.83
556.66	59592.38
556.83	59224.92
556.99	59657.91
557.16	59590.04
557.32	60048.78
557.49	59821.75
557.65	59419.18
557.82	59480.03
557.98	59597.06
558.15	59629.83
558.32	59690.68
558.48	59475.35
558.65	59646.21
558.81	59702.38
558.98	59634.51
559.14	59910.69
559.31	59753.88
559.47	59887.29
559.64	60090.91
559.80	59941.12
559.97	59969.21
560.13	59852.18
560.30	59852.18
560.46	59887.29
560.63	59938.78
560.79	59966.87
560.96	60144.75
561.12	59854.52
561.29	60163.47
561.45	60170.49
561.61	60041.76
561.78	59901.33
561.94	59859.20
562.11	60006.65
562.27	60097.94
562.44	60198.58
562.60	60109.64
562.77	60299.22
562.93	59849.84
563.10	60278.16
563.26	59962.18
563.42	60385.82
563.59	60289.86
563.75	60397.52
563.92	60238.37
564.08	60140.07
564.24	60191.56
564.41	60196.24
564.57	60247.73
564.74	60257.09
564.90	60317.95
565.07	60224.32
565.23	60385.82
565.39	60287.52
565.56	60453.70
565.72	60226.66
565.88	60388.16
566.05	60207.94
566.21	60259.43
566.38	60285.18
566.54	60240.71
566.70	60425.61
566.87	60662.00
567.03	60516.89
567.19	60704.13
567.36	60645.62
567.52	60413.91
567.68	60858.61
567.85	60493.49
568.01	60596.47
568.17	60530.93
568.34	60514.55
568.50	60495.83
568.66	60280.50
568.83	60699.45
568.99	60427.95
569.15	60631.58
569.32	60624.56
569.48	60622.22
569.64	60713.50
569.81	60552.00
569.97	60622.22
570.13	60772.01
570.30	60589.45
570.46	60830.52
570.62	60837.54
570.78	60757.97
570.95	60664.35
571.11	60865.63
571.27	60547.32
571.43	60673.71
571.60	61057.56
571.76	60804.78
571.92	60795.42
572.09	60842.23
572.25	60835.20
572.41	60755.63
572.57	60671.37
572.74	60905.42
572.90	60928.83
573.06	60919.46
573.22	60711.16
573.38	60748.60
573.55	60891.38
573.71	61029.47
573.87	60970.96
574.03	60757.97
574.20	60816.48
574.36	60750.94
574.52	61071.60
574.68	60783.71
574.84	60970.96
575.01	61020.11
575.17	60982.66
575.33	60692.43
575.49	60891.38
575.65	60837.54
575.82	61087.98
575.98	60804.78
576.14	61216.71
576.30	61144.16
576.46	60996.70
576.62	61064.58
576.79	60816.48
576.95	60743.92
577.11	61071.60
577.27	61127.77
577.43	60917.12
577.59	61029.47
577.75	61029.47
577.92	60891.38
578.08	61148.84
578.24	61017.77
578.40	61155.86
578.56	61066.92
578.72	60851.59
578.88	61249.48
579.04	61209.69
579.21	60926.49
579.37	61003.72
579.53	61137.13
579.69	60945.21
579.85	60996.70
580.01	61251.82
580.17	61097.34
580.33	61216.71
580.49	61284.59
580.65	61230.75
580.82	61127.77
580.98	61001.38
581.14	60959.25
581.30	61244.80
581.46	61071.60
581.62	61160.54
581.78	61017.77
581.94	61048.19
582.10	61073.94
582.26	61141.81
582.42	61324.38
582.58	61197.99
582.74	61146.50
582.90	61071.60
583.06	61183.94
583.22	61080.96
583.38	61055.21
583.54	61268.20
583.70	61165.22
583.86	61212.03
584.02	60938.19
584.18	61087.98
584.34	61197.99
584.50	61263.52
584.66	61167.56
584.82	60940.53
584.98	61331.40
585.14	61434.38
585.30	61286.93
585.46	61106.71
585.62	61293.95
585.78	61244.80
585.94	60963.93
586.10	61385.23
586.26	61181.60
586.42	61169.90
586.58	61237.78
586.74	61247.14
586.90	61214.37
587.06	61104.37
587.22	61350.12
587.38	61155.86
587.54	61497.58
587.70	61551.41
587.86	61382.89
588.02	61399.27
588.18	61455.45
588.34	61162.88
588.49	61132.45
