SpectraSuite Data File
++++++++++++++++++++++++++++++++++++
Date: Fri Oct 25 11:26:19 EDT 2013
User: price-jones
Dark Spectrum Present: No
Reference Spectrum Present: No
Number of Sampled Component Spectra: 1
Spectrometers: USB2+H05261
Integration Time (usec): 100000 (USB2+H05261)
Spectra Averaged: 1 (USB2+H05261)
Boxcar Smoothing: 0 (USB2+H05261)
Correct for Electrical Dark: No (USB2+H05261)
Strobe/Lamp Enabled: No (USB2+H05261)
Correct for Detector Non-linearity: No (USB2+H05261)
Correct for Stray Light: No (USB2+H05261)
Number of Pixels in Processed Spectrum: 2048
>>>>>Begin Processed Spectral Data<<<<<
365.73	252.78
365.92	252.78
366.12	252.78
366.32	149.79
366.52	84.26
366.72	180.22
366.91	102.98
367.11	177.88
367.31	163.84
367.51	168.52
367.70	21.06
367.90	180.22
368.10	159.16
368.30	184.90
368.49	114.69
368.69	283.20
368.89	159.16
369.09	124.05
369.28	152.13
369.48	147.45
369.68	229.37
369.87	191.92
370.07	280.86
370.27	297.25
370.47	287.89
370.66	587.47
370.86	596.84
371.06	617.90
371.25	643.65
371.45	683.44
371.65	765.36
371.84	734.93
372.04	676.41
372.24	697.48
372.44	739.61
372.63	732.59
372.83	702.16
373.03	760.67
373.22	709.18
373.42	755.99
373.62	784.08
373.81	814.51
374.01	774.72
374.21	779.40
374.40	819.19
374.60	931.53
374.79	847.27
374.99	851.96
375.19	819.19
375.38	873.02
375.58	819.19
375.78	891.74
375.97	858.98
376.17	908.13
376.37	915.15
376.56	856.64
376.76	863.66
376.95	826.21
377.15	873.02
377.35	875.36
377.54	936.21
377.74	891.74
377.93	840.25
378.13	933.87
378.33	976.00
378.52	877.70
378.72	945.58
378.91	901.11
379.11	947.92
379.31	973.66
379.50	905.79
379.70	952.60
379.89	903.45
380.09	933.87
380.28	952.60
380.48	931.53
380.68	1046.22
380.87	1015.79
381.07	1041.54
381.26	992.39
381.46	1053.24
381.65	1018.13
381.85	1097.71
382.04	1041.54
382.24	1078.99
382.43	1022.81
382.63	1029.84
382.83	1032.18
383.02	1179.63
383.22	1191.33
383.41	1074.31
383.61	1088.35
383.80	1172.61
384.00	1100.05
384.19	1123.46
384.39	1163.25
384.58	1076.65
384.78	1153.88
384.97	1123.46
385.17	1146.86
385.36	1191.33
385.56	1193.67
385.75	1170.27
385.95	1299.00
386.14	1174.95
386.34	1167.93
386.53	1210.06
386.72	1238.14
386.92	1212.40
387.11	1226.44
387.31	1186.65
387.50	1226.44
387.70	1174.95
387.89	1331.76
388.09	1249.85
388.28	1226.44
388.48	1270.91
388.67	1270.91
388.86	1352.83
389.06	1256.87
389.25	1359.85
389.45	1394.96
389.64	1336.45
389.84	1366.87
390.03	1423.05
390.22	1334.11
390.42	1376.24
390.61	1352.83
390.81	1446.45
391.00	1483.90
391.19	1504.96
391.39	1446.45
391.58	1406.66
391.78	1488.58
391.97	1472.20
392.16	1523.69
392.36	1495.60
392.55	1495.60
392.75	1453.47
392.94	1523.69
393.13	1652.42
393.33	1586.88
393.52	1521.35
393.71	1680.50
393.91	1554.12
394.10	1643.06
394.29	1535.39
394.49	1657.10
394.68	1708.59
394.88	1593.90
395.07	1678.16
395.26	1659.44
395.46	1701.57
395.65	1706.25
395.84	1710.93
396.04	1722.63
396.23	1781.15
396.42	1713.27
396.62	1755.40
396.81	1818.60
397.00	1703.91
397.19	1820.94
397.39	1661.78
397.58	1797.53
397.77	1853.70
397.97	1774.13
398.16	1858.39
398.35	1907.54
398.55	1914.56
398.74	1902.86
398.93	2083.08
399.12	2069.03
399.32	1816.26
399.51	1942.64
399.70	2029.24
399.90	1935.62
400.09	2015.20
400.28	1982.43
400.47	1940.30
400.67	2143.93
400.86	2038.61
401.05	2127.55
401.24	1982.43
401.44	2045.63
401.63	2101.80
401.82	2115.84
402.01	2108.82
402.21	2176.70
402.40	2197.76
402.59	2214.15
402.78	2256.28
402.97	2223.51
403.17	2375.64
403.36	2225.85
403.55	2265.64
403.74	2331.17
403.93	2427.14
404.13	2377.98
404.32	2420.11
404.51	2307.77
404.70	2492.67
404.89	2455.22
405.09	2548.84
405.28	2497.35
405.47	2382.67
405.66	2546.50
405.85	2434.16
406.05	2469.27
406.24	2516.08
406.43	2527.78
406.62	2644.81
406.81	2626.08
407.00	2593.31
407.20	2541.82
407.39	2656.51
407.58	2593.31
407.77	2787.58
407.96	2693.96
408.15	2834.39
408.34	2815.66
408.54	2733.75
408.73	2829.71
408.92	2876.52
409.11	2932.69
409.30	2857.79
409.49	2810.98
409.68	2928.01
409.87	2972.48
410.07	2984.18
410.26	3105.89
410.45	3014.61
410.64	3077.80
410.83	3059.08
411.02	3145.68
411.21	3204.19
411.40	3091.85
411.59	3222.92
411.78	3197.17
411.98	3145.68
412.17	3253.34
412.36	3290.79
412.55	3339.94
412.74	3508.46
412.93	3412.50
413.12	3382.07
413.31	3480.38
413.50	3534.21
413.69	3531.87
413.88	3609.11
414.07	3625.49
414.26	3688.68
414.45	3611.45
414.64	3749.54
414.83	3679.32
415.02	3772.94
415.22	3810.39
415.41	3815.07
415.60	3904.01
415.79	3936.78
415.98	3918.06
416.17	4114.66
416.36	4091.26
416.55	3892.31
416.74	4133.39
416.93	4004.66
417.12	4138.07
417.31	4231.69
417.50	4264.46
417.69	4278.50
417.88	4227.01
418.07	4208.28
418.26	4257.43
418.45	4161.47
418.64	4447.02
418.83	4386.16
419.02	4344.03
419.21	4526.60
419.39	4299.56
419.58	4528.94
419.77	4374.46
419.96	4479.79
420.15	4627.24
420.34	4493.83
420.53	4519.57
420.72	4657.67
420.91	4678.73
421.10	4788.74
421.29	4737.24
421.48	4690.43
421.67	4798.10
421.86	4723.20
422.05	4802.78
422.24	4800.44
422.43	4931.51
422.61	4940.87
422.80	5008.75
422.99	4856.61
423.18	5097.69
423.37	5046.20
423.56	4971.30
423.75	4943.21
423.94	4774.69
424.13	4655.33
424.32	4667.03
424.50	4894.06
424.69	5097.69
424.88	5191.31
425.07	4880.02
425.26	4690.43
425.45	5064.92
425.64	4908.10
425.83	5060.24
426.01	5022.79
426.20	5116.41
426.39	5137.48
426.58	5013.43
426.77	5081.30
426.96	5235.78
427.15	4992.36
427.33	5104.71
427.52	5172.58
427.71	5195.99
427.90	5277.91
428.09	5195.99
428.28	5359.83
428.46	5364.51
428.65	5233.44
428.84	5472.17
429.03	5530.69
429.22	5261.52
429.40	5451.11
429.59	5444.09
429.78	5188.97
429.97	5317.70
430.16	5493.24
430.34	5603.24
430.53	5582.18
430.72	5748.36
430.91	5542.39
431.10	5465.15
431.28	5668.78
431.47	5776.44
431.66	5696.86
431.85	5724.95
432.03	5668.78
432.22	5893.47
432.41	5893.47
432.60	5799.85
432.79	6005.81
432.97	5987.09
433.16	5830.27
433.35	5900.49
433.54	6029.22
433.72	6183.70
433.91	6136.88
434.10	6179.01
434.28	6186.04
434.47	6235.19
434.66	6249.23
434.85	6263.27
435.03	6211.78
435.22	6216.46
435.41	6401.37
435.59	6333.49
435.78	6494.99
435.97	6359.24
436.16	6352.21
436.34	6436.47
436.53	6260.93
436.72	6387.32
436.90	6494.99
437.09	6567.54
437.28	6518.39
437.46	6523.07
437.65	6607.33
437.84	6682.23
438.02	6869.47
438.21	6775.85
438.40	6614.35
438.58	7021.61
438.77	7208.85
438.96	6911.60
439.14	6965.43
439.33	6895.22
439.52	7136.29
439.70	7150.34
439.89	7293.11
440.08	7356.30
440.26	7258.00
440.45	7089.48
440.63	7255.66
440.82	7597.38
441.01	7485.03
441.19	7632.49
441.38	7606.74
441.57	7660.57
441.75	7805.69
441.94	7915.69
442.12	7978.89
442.31	7955.48
442.50	7903.99
442.68	7997.61
442.87	7857.18
443.05	8042.08
443.24	8231.66
443.43	7999.95
443.61	8088.89
443.80	8175.49
443.98	8030.38
444.17	7812.71
444.35	8177.83
444.54	8304.22
444.73	8168.47
444.91	8379.12
445.10	8339.33
445.28	8226.98
445.47	8294.86
445.65	8196.56
445.84	8418.91
446.02	8418.91
446.21	8482.10
446.39	8383.80
446.58	8624.87
446.77	8430.61
446.95	8217.62
447.14	8325.29
447.32	8564.02
447.51	8521.89
447.69	8456.36
447.88	8458.70
448.06	8360.39
448.25	8311.24
448.43	8557.00
448.62	8545.30
448.80	8603.81
448.99	8667.00
449.17	8631.90
449.36	8777.01
449.54	8793.39
449.73	8903.40
449.91	8999.36
450.10	8884.67
450.28	9029.79
450.46	9050.85
450.65	9160.86
450.83	8966.59
451.02	8997.02
451.20	9305.97
451.39	9195.96
451.57	8915.10
451.76	8985.32
451.94	9186.60
452.13	9158.52
452.31	9261.50
452.49	9114.05
452.68	9200.65
452.86	9434.70
453.05	9537.68
453.23	9287.25
453.42	9418.32
453.60	9224.05
453.78	9476.83
453.97	9401.93
454.15	9453.42
454.34	9355.12
454.52	9565.77
454.70	9469.81
454.89	9905.15
455.07	9631.30
455.26	9858.34
455.44	9863.02
455.62	9940.26
455.81	9685.14
455.99	9863.02
456.17	10071.33
456.36	10005.79
456.54	10005.79
456.73	10092.39
456.91	10464.54
457.09	10244.52
457.28	10293.68
457.46	10410.70
457.64	10382.62
457.83	10483.26
458.01	10406.02
458.19	10611.99
458.38	10462.19
458.56	10663.48
458.74	10567.52
458.93	10569.86
459.11	10567.52
459.29	10588.58
459.48	10839.02
459.66	10768.80
459.84	10946.69
460.03	11124.57
460.21	10771.15
460.39	10963.07
460.57	10965.41
460.76	11232.23
460.94	11002.86
461.12	11201.80
461.31	11047.33
461.49	11269.68
461.67	11145.63
461.85	11421.81
462.04	11052.01
462.22	11630.12
462.40	11372.66
462.59	11705.02
462.77	11356.28
462.95	11634.80
463.13	11496.71
463.32	11520.12
463.50	11747.15
463.68	11754.17
463.86	11644.17
464.05	11477.99
464.23	11576.29
464.41	12074.82
464.59	11630.12
464.78	11988.22
464.96	11920.35
465.14	11810.34
465.32	11918.01
465.50	12208.23
465.69	12088.87
465.87	12102.91
466.05	12191.85
466.23	12205.89
466.41	12107.59
466.60	12358.03
466.78	12297.17
466.96	12084.19
467.14	12217.60
467.32	12336.96
467.51	12407.18
467.69	12297.17
467.87	12290.15
468.05	12245.68
468.23	12177.81
468.41	12648.26
468.60	12482.08
468.78	12601.44
468.96	12692.73
469.14	12762.94
469.32	12919.76
469.50	12601.44
469.69	13088.28
469.87	12842.52
470.05	13029.76
470.23	13083.59
470.41	12938.48
470.59	13380.84
470.77	12966.57
470.95	13444.04
471.14	13511.91
471.32	13188.92
471.50	13694.47
471.68	13474.46
471.86	13532.98
472.04	13727.24
472.22	13921.51
472.40	13373.82
472.58	13659.37
472.77	13792.78
472.95	14068.96
473.13	14497.28
473.31	14094.71
473.49	14094.71
473.67	14218.75
473.85	14363.87
474.03	14497.28
474.21	14752.40
474.39	14511.32
474.57	14679.84
474.75	14476.21
474.93	15021.56
475.12	14789.85
475.30	15129.22
475.48	14775.80
475.66	15272.00
475.84	14993.47
476.02	15286.04
476.20	15527.11
476.38	15477.96
476.56	15964.79
476.74	15648.82
476.92	15854.79
477.10	15695.63
477.28	16409.50
477.46	16030.33
477.64	16269.06
477.82	16582.70
478.00	17001.65
478.18	16744.19
478.36	17041.44
478.54	16964.20
478.72	16929.09
478.90	17633.60
479.08	17420.61
479.26	17280.18
479.44	17565.72
479.62	17657.00
479.80	18017.44
479.98	18200.01
480.16	18485.55
480.34	17958.93
480.52	18497.25
480.70	18490.23
480.88	18384.91
481.06	18333.42
481.24	18576.83
481.41	19073.03
481.59	19199.41
481.77	19264.95
481.95	19433.47
482.13	19564.54
482.31	19431.13
482.49	20395.43
482.67	20166.06
482.85	20315.85
483.03	20620.12
483.21	20723.10
483.39	21287.17
483.57	20807.36
483.74	20835.45
483.92	21317.60
484.10	21322.28
484.28	21673.36
484.46	21766.98
484.64	22129.77
484.82	21809.11
485.00	22443.40
485.18	22600.21
485.35	22803.84
485.53	22635.32
485.71	22993.42
485.89	23335.14
486.07	23508.34
486.25	23073.00
486.43	23632.39
486.61	23819.63
486.78	23990.49
486.96	24086.45
487.14	24336.89
487.32	24617.75
487.50	24795.64
487.68	24858.83
487.85	25036.71
488.03	25254.38
488.21	25701.42
488.39	25565.67
488.57	26122.72
488.75	25783.34
488.92	26485.50
489.10	26567.42
489.28	26347.41
489.46	26771.05
489.64	26565.08
489.81	27709.60
489.99	27363.20
490.17	27321.07
490.35	27697.90
490.53	27889.82
490.70	28252.61
490.88	28170.69
491.06	28891.57
491.24	28591.98
491.41	28786.25
491.59	29425.22
491.77	29266.06
491.95	29233.29
492.13	29280.10
492.30	29809.06
492.48	30129.72
492.66	30127.38
492.84	30118.01
493.01	30284.19
493.19	30092.27
493.37	31159.55
493.54	30857.62
493.72	31030.82
493.90	31143.17
494.08	31454.46
494.25	31740.00
494.43	31831.29
494.61	32329.82
494.79	32341.52
494.96	32287.69
495.14	32500.68
495.32	33006.23
495.49	33383.06
495.67	32652.81
495.85	33125.60
496.02	33542.22
496.20	33722.44
496.38	33633.50
496.55	33799.68
496.73	34682.06
496.91	34330.98
497.09	34593.12
497.26	34967.60
497.44	34756.96
497.62	35126.76
497.79	35615.93
497.97	35117.40
498.14	36142.55
498.32	36180.00
498.50	35849.99
498.67	36645.77
498.85	36023.19
499.03	36512.36
499.20	36584.91
499.38	36973.44
499.56	36739.39
499.73	37254.31
499.91	37132.60
500.08	37099.83
500.26	37479.00
500.44	37612.41
500.61	37439.21
500.79	37483.68
500.97	37933.06
501.14	38174.14
501.32	38375.42
501.49	38686.71
501.67	38525.22
501.84	38562.67
502.02	38447.98
502.20	38550.96
502.37	39253.12
502.55	39407.60
502.72	38941.83
502.90	39283.55
503.07	39021.41
503.25	39508.24
503.43	39206.31
503.60	39810.17
503.78	40268.92
503.95	40158.91
504.13	40163.59
504.30	40570.85
504.48	40552.12
504.65	40521.69
504.83	40856.39
505.01	41074.06
505.18	40547.44
505.36	41277.69
505.53	41163.00
505.71	41258.96
505.88	41888.57
506.06	41413.44
506.23	41801.97
506.41	41523.44
506.58	41907.29
506.76	41853.46
506.93	42225.60
507.11	42113.26
507.28	42401.14
507.46	42770.95
507.63	42679.67
507.81	43000.32
507.98	42689.03
508.16	43229.69
508.33	43484.81
508.50	43353.74
508.68	43466.09
508.85	43346.72
509.03	43377.15
509.20	43702.48
509.38	44311.02
509.55	44273.57
509.73	44168.25
509.90	44130.80
510.08	44203.36
510.25	44493.58
510.42	44666.78
510.60	44652.74
510.77	44961.69
510.95	45064.67
511.12	44669.12
511.30	44603.59
511.47	45361.92
511.64	45181.70
511.82	45621.72
511.99	45511.72
512.17	45528.10
512.34	45794.92
512.51	46319.20
512.69	46164.73
512.86	46061.74
513.04	46635.17
513.21	46115.58
513.38	46337.93
513.56	46405.80
513.73	46525.17
513.90	46534.53
514.08	46529.85
514.25	47040.09
514.43	47086.90
514.60	47466.06
514.77	47304.57
514.95	47147.75
515.12	47281.16
515.29	47423.93
515.47	47880.34
515.64	47887.36
515.81	47555.00
515.99	48039.50
516.16	48004.39
516.33	48032.47
516.51	48282.91
516.68	48355.47
516.85	48217.38
517.03	48449.09
517.20	48938.26
517.37	48472.49
517.54	48505.26
517.72	48690.16
517.89	48655.06
518.06	48999.12
518.24	48802.51
518.41	49223.81
518.58	49186.36
518.75	49036.56
518.93	49546.80
519.10	49305.73
519.27	49446.16
519.45	49727.02
519.62	49947.03
519.79	49883.84
519.96	49378.28
520.14	49815.96
520.31	49764.47
520.48	50466.63
520.65	50092.15
520.83	50230.24
521.00	50365.99
521.17	50546.21
521.34	50450.25
521.52	50370.67
521.69	50471.31
521.86	50646.85
522.03	50841.12
522.20	51011.98
522.38	51360.72
522.55	51578.39
522.72	51105.60
522.89	50946.44
523.07	51484.76
523.24	51360.72
523.41	51791.37
523.58	51086.87
523.75	51295.18
523.92	51526.89
524.10	51576.04
524.27	51882.66
524.44	51739.88
524.61	51721.16
524.78	51999.68
524.96	52018.41
525.13	52156.50
525.30	51948.19
525.47	52271.18
525.64	52151.82
525.81	52069.90
525.98	52615.24
526.16	52601.20
526.33	52442.04
526.50	52985.05
526.67	52652.69
526.84	52636.31
527.01	52851.64
527.18	52472.47
527.36	52643.33
527.53	52837.59
527.70	53279.96
527.87	53205.06
528.04	52982.71
528.21	53331.45
528.38	52987.39
528.55	53298.68
528.72	53286.98
528.89	53338.47
529.07	53481.24
529.24	53216.76
529.41	53656.78
529.58	53439.11
529.75	53420.39
529.92	53783.17
530.09	53570.18
530.26	53687.21
530.43	53956.37
530.60	53729.34
530.77	53928.28
530.94	53904.88
531.11	53993.82
531.28	54035.95
531.46	54129.57
531.63	54176.38
531.80	54298.09
531.97	54103.82
532.14	54270.00
532.31	53996.16
532.48	54377.67
532.65	54541.50
532.82	54227.87
532.99	54679.60
533.16	54380.01
533.33	54487.67
533.50	54695.98
533.67	54752.15
533.84	54372.99
534.01	54555.55
534.18	54780.24
534.35	55079.83
534.52	54831.73
534.69	54843.43
534.86	55182.81
535.03	54766.20
535.20	54930.03
535.37	54983.86
535.54	55407.50
535.71	54993.23
535.88	55154.72
536.05	55126.64
536.22	55526.87
536.38	55426.23
536.55	55477.72
536.72	55468.36
536.89	55178.13
537.06	55381.76
537.23	55473.04
537.40	55526.87
537.57	55824.12
537.74	55501.12
537.91	55774.97
538.08	55789.01
538.25	55583.04
538.42	55899.01
538.59	56079.24
538.75	55751.56
538.92	56067.53
539.09	55985.61
539.26	56055.83
539.43	55927.10
539.60	56126.05
539.77	56165.84
539.94	56404.57
540.11	56357.76
540.28	56002.00
540.44	56357.76
540.61	56207.97
540.78	56149.45
540.95	56243.07
541.12	56207.97
541.29	56273.50
541.46	56657.35
541.62	56420.95
541.79	56423.29
541.96	56222.01
542.13	56451.38
542.30	56397.55
542.47	56860.97
542.63	56671.39
542.80	56818.84
542.97	57001.41
543.14	57059.92
543.31	56989.70
543.48	57183.97
543.64	57174.61
543.81	57176.95
543.98	57247.16
544.15	57471.85
544.32	57240.14
544.48	57481.22
544.65	57048.22
544.82	57338.44
544.99	57162.90
545.16	57460.15
545.32	57230.78
545.49	57495.26
545.66	57623.99
545.83	57492.92
546.00	57476.54
546.16	57757.40
546.33	57483.56
546.50	57425.04
546.67	57523.35
546.83	57317.38
547.00	57591.22
547.17	57806.55
547.34	57748.04
547.50	57869.75
547.67	57944.64
547.84	57673.14
548.00	57998.48
548.17	57975.07
548.34	57904.85
548.51	58129.54
548.67	58220.83
548.84	57968.05
549.01	57956.35
549.18	58054.65
549.34	58181.04
549.51	57944.64
549.68	58333.17
549.84	58405.73
550.01	58396.37
550.18	58202.10
550.34	58117.84
550.51	58209.12
550.68	58340.19
550.84	57965.71
551.01	58445.52
551.18	58363.60
551.34	58293.38
551.51	58312.11
551.68	58504.03
551.84	58389.34
552.01	58316.79
552.18	58522.76
552.34	58379.98
552.51	58541.48
552.68	58459.56
552.84	58389.34
553.01	58749.79
553.18	58761.49
553.34	58604.67
553.51	58550.84
553.67	58623.40
553.84	58754.47
554.01	58904.26
554.17	58890.22
554.34	58967.46
554.51	58595.31
554.67	59021.29
554.84	58707.66
555.00	58798.94
555.17	59021.29
555.33	59077.46
555.50	58686.59
555.67	58831.71
555.83	59070.44
556.00	59014.27
556.16	59264.70
556.33	59262.36
556.50	59070.44
556.66	59234.28
556.83	58869.15
556.99	59374.71
557.16	59386.41
557.32	59444.93
557.49	59377.05
557.65	59292.79
557.82	59018.95
557.98	59138.32
558.15	59276.41
558.32	59140.66
558.48	59398.12
558.65	59491.74
558.81	59405.14
558.98	59306.83
559.14	59341.94
559.31	59573.66
559.47	59503.44
559.64	59583.02
559.80	59606.42
559.97	59704.73
560.13	59632.17
560.30	59538.55
560.46	59671.96
560.63	59580.68
560.79	59604.08
560.96	59753.88
561.12	59779.62
561.29	59594.72
561.45	59622.81
561.61	59681.32
561.78	59585.36
561.94	59704.73
562.11	60025.38
562.27	59690.68
562.44	59800.69
562.60	59831.11
562.77	59840.48
562.93	59604.08
563.10	59992.61
563.26	59554.93
563.42	60069.85
563.59	59910.69
563.75	59814.73
563.92	59671.96
564.08	59901.33
564.24	60301.56
564.41	60074.53
564.57	60119.00
564.74	60144.75
564.90	60048.78
565.07	60037.08
565.23	60191.56
565.39	59863.88
565.56	60177.51
565.72	60093.25
565.88	60072.19
566.05	60083.89
566.21	60142.41
566.38	60168.15
566.54	60086.23
566.70	60327.31
566.87	60135.38
567.03	60034.74
567.19	60287.52
567.36	60179.85
567.52	60165.81
567.68	60278.16
567.85	60219.64
568.01	60144.75
568.17	60065.17
568.34	60339.01
568.50	60289.86
568.66	60289.86
568.83	60367.10
568.99	60205.60
569.15	60133.04
569.32	60528.59
569.48	60285.18
569.64	60425.61
569.81	60355.39
569.97	60278.16
570.13	60322.63
570.30	60397.52
570.46	60383.48
570.62	60460.72
570.78	60149.43
570.95	60221.98
571.11	60633.92
571.27	60381.14
571.43	60488.80
571.60	60292.20
571.76	60383.48
571.92	60669.03
572.09	60549.66
572.25	60509.87
572.41	60516.89
572.57	60559.02
572.74	60645.62
572.90	60439.65
573.06	60654.98
573.22	60624.56
573.38	60533.28
573.55	60650.30
573.71	60725.20
573.87	60535.62
574.03	60451.36
574.20	60767.33
574.36	60528.59
574.52	60704.13
574.68	60502.85
574.84	60769.67
575.01	60839.89
575.17	60669.03
575.33	60605.83
575.49	60434.97
575.65	60666.69
575.82	60739.24
575.98	60650.30
576.14	60877.33
576.30	60811.80
576.46	60622.22
576.62	60601.15
576.79	60711.16
576.95	60521.57
577.11	60683.07
577.27	60727.54
577.43	60739.24
577.59	60858.61
577.75	60767.33
577.92	60491.15
578.08	60732.22
578.24	60800.10
578.40	60781.37
578.56	60830.52
578.72	60797.76
578.88	60786.05
579.04	60968.61
579.21	60750.94
579.37	60872.65
579.53	60931.17
579.69	60715.84
579.85	60554.34
580.01	60645.62
580.17	60601.15
580.33	60807.12
580.49	60671.37
580.65	60800.10
580.82	60734.56
580.98	60788.39
581.14	60729.88
581.30	60837.54
581.46	60701.79
581.62	60804.78
581.78	60711.16
581.94	60779.03
582.10	60816.48
582.26	60835.20
582.42	60704.13
582.58	60872.65
582.74	60947.55
582.90	60963.93
583.06	60872.65
583.22	60664.35
583.38	60575.40
583.54	60652.64
583.70	60980.32
583.86	60905.42
584.02	60804.78
584.18	60818.82
584.34	60919.46
584.50	60931.17
584.66	60977.98
584.82	60779.03
584.98	61329.06
585.14	60860.95
585.30	60811.80
585.46	61172.24
585.62	60933.51
585.78	60783.71
585.94	60647.96
586.10	60977.98
586.26	60891.38
586.42	60959.25
586.58	60889.04
586.74	60926.49
586.90	60821.16
587.06	60924.14
587.22	60966.27
587.38	60722.86
587.54	61006.06
587.70	61036.49
587.86	61020.11
588.02	60884.36
588.18	61097.34
588.34	60968.61
588.49	60963.93
