SpectraSuite Data File
++++++++++++++++++++++++++++++++++++
Date: Fri Oct 25 11:25:55 EDT 2013
User: price-jones
Dark Spectrum Present: No
Reference Spectrum Present: No
Number of Sampled Component Spectra: 1
Spectrometers: USB2+H05261
Integration Time (usec): 100000 (USB2+H05261)
Spectra Averaged: 1 (USB2+H05261)
Boxcar Smoothing: 0 (USB2+H05261)
Correct for Electrical Dark: No (USB2+H05261)
Strobe/Lamp Enabled: No (USB2+H05261)
Correct for Detector Non-linearity: No (USB2+H05261)
Correct for Stray Light: No (USB2+H05261)
Number of Pixels in Processed Spectrum: 2048
>>>>>Begin Processed Spectral Data<<<<<
365.73	278.52
365.92	278.52
366.12	278.52
366.32	161.50
366.52	154.48
366.72	166.18
366.91	154.48
367.11	184.90
367.31	119.37
367.51	107.66
367.70	91.28
367.90	140.43
368.10	168.52
368.30	145.11
368.49	117.03
368.69	124.05
368.89	205.97
369.09	128.73
369.28	154.48
369.48	156.82
369.68	159.16
369.87	250.44
370.07	175.54
370.27	205.97
370.47	332.36
370.66	603.86
370.86	641.31
371.06	711.52
371.25	613.22
371.45	601.52
371.65	706.84
371.84	638.97
372.04	709.18
372.24	706.84
372.44	763.01
372.63	695.14
372.83	753.65
373.03	748.97
373.22	732.59
373.42	692.80
373.62	788.76
373.81	779.40
374.01	830.89
374.21	877.70
374.40	833.23
374.60	805.14
374.79	786.42
374.99	896.43
375.19	877.70
375.38	779.40
375.58	910.47
375.78	840.25
375.97	835.57
376.17	929.19
376.37	851.96
376.56	887.06
376.76	889.40
376.95	856.64
377.15	922.17
377.35	837.91
377.54	891.74
377.74	819.19
377.93	858.98
378.13	938.55
378.33	912.81
378.52	1055.58
378.72	889.40
378.91	961.96
379.11	908.13
379.31	943.24
379.50	929.19
379.70	919.83
379.89	1004.09
380.09	959.62
380.28	1008.77
380.48	966.64
380.68	1001.75
380.87	992.39
381.07	947.92
381.26	1001.75
381.46	940.90
381.65	1060.26
381.85	1034.52
382.04	1029.84
382.24	1093.03
382.43	1053.24
382.63	1163.25
382.83	1095.37
383.02	1123.46
383.22	1050.90
383.41	992.39
383.61	1093.03
383.80	1090.69
384.00	1088.35
384.19	1184.31
384.39	1172.61
384.58	1144.52
384.78	1121.12
384.97	1149.20
385.17	1107.07
385.36	1200.69
385.56	1217.08
385.75	1198.35
385.95	1280.27
386.14	1219.42
386.34	1149.20
386.53	1205.38
386.72	1214.74
386.92	1266.23
387.11	1188.99
387.31	1186.65
387.50	1144.52
387.70	1235.80
387.89	1261.55
388.09	1235.80
388.28	1327.08
388.48	1352.83
388.67	1362.19
388.86	1249.85
389.06	1327.08
389.25	1348.15
389.45	1266.23
389.64	1301.34
389.84	1380.92
390.03	1380.92
390.22	1357.51
390.42	1329.42
390.61	1359.85
390.81	1373.89
391.00	1348.15
391.19	1446.45
391.39	1490.92
391.58	1490.92
391.78	1444.11
391.97	1493.26
392.16	1530.71
392.36	1500.28
392.55	1483.90
392.75	1469.86
392.94	1582.20
393.13	1526.03
393.33	1479.22
393.52	1500.28
393.71	1659.44
393.91	1558.80
394.10	1610.29
394.29	1629.01
394.49	1521.35
394.68	1561.14
394.88	1647.74
395.07	1664.12
395.26	1708.59
395.46	1633.69
395.65	1593.90
395.84	1734.34
396.04	1717.95
396.23	1713.27
396.42	1774.13
396.62	1823.28
396.81	1790.51
397.00	1767.10
397.19	1795.19
397.39	1708.59
397.58	1914.56
397.77	1743.70
397.97	1785.83
398.16	1851.36
398.35	1860.73
398.55	1788.17
398.74	1933.28
398.93	1930.94
399.12	1914.56
399.32	1907.54
399.51	1949.67
399.70	1977.75
399.90	1926.26
400.09	1909.88
400.28	2033.93
400.47	1949.67
400.67	2143.93
400.86	2111.16
401.05	2150.95
401.24	2132.23
401.44	2146.27
401.63	2139.25
401.82	2139.25
402.01	2136.91
402.21	2157.97
402.40	2155.63
402.59	2277.34
402.78	2186.06
402.97	2345.22
403.17	2284.36
403.36	2305.43
403.55	2303.09
403.74	2366.28
403.93	2277.34
404.13	2317.13
404.32	2265.64
404.51	2216.49
404.70	2342.88
404.89	2389.69
405.09	2621.40
405.28	2427.14
405.47	2455.22
405.66	2420.11
405.85	2443.52
406.05	2579.27
406.24	2640.12
406.43	2485.65
406.62	2724.38
406.81	2719.70
407.00	2574.59
407.20	2640.12
407.39	2686.94
407.58	2796.94
407.77	2829.71
407.96	2773.53
408.15	2754.81
408.34	2740.77
408.54	2750.13
408.73	2740.77
408.92	2771.19
409.11	2867.16
409.30	2827.37
409.49	2942.05
409.68	2913.97
409.87	2960.78
410.07	2904.60
410.26	3030.99
410.45	2958.44
410.64	3070.78
410.83	2993.55
411.02	3164.40
411.21	3108.23
411.40	3176.11
411.59	3325.90
411.78	3136.32
411.98	3269.73
412.17	3204.19
412.36	3269.73
412.55	3304.84
412.74	3463.99
412.93	3337.60
413.12	3253.34
413.31	3634.85
413.50	3456.97
413.69	3506.12
413.88	3552.93
414.07	3588.04
414.26	3604.42
414.45	3702.73
414.64	3730.81
414.83	3700.39
415.02	3749.54
415.22	3929.76
415.41	3964.87
415.60	3808.05
415.79	3852.52
415.98	3962.53
416.17	3904.01
416.36	3901.67
416.55	4051.47
416.74	4131.05
416.93	4042.11
417.12	4051.47
417.31	4128.70
417.50	4175.52
417.69	4341.69
417.88	4386.16
418.07	4259.78
418.26	4217.65
418.45	4222.33
418.64	4475.10
418.83	4372.12
419.02	4442.34
419.21	4564.04
419.39	4606.17
419.58	4498.51
419.77	4486.81
419.96	4458.72
420.15	4636.60
420.34	4540.64
420.53	4542.98
420.72	4582.77
420.91	4723.20
421.10	4802.78
421.29	4947.89
421.48	4711.50
421.67	4856.61
421.86	4713.84
422.05	4802.78
422.24	4674.05
422.43	4870.65
422.61	4791.08
422.80	4880.02
422.99	4830.87
423.18	5006.41
423.37	4999.38
423.56	5090.67
423.75	4891.72
423.94	4905.76
424.13	4468.08
424.32	4823.84
424.50	4978.32
424.69	5128.11
424.88	5076.62
425.07	4861.29
425.26	4816.82
425.45	5018.11
425.64	5043.85
425.83	5018.11
426.01	5069.60
426.20	5174.92
426.39	4954.91
426.58	5027.47
426.77	5004.07
426.96	5266.21
427.15	5205.35
427.33	5165.56
427.52	5210.03
427.71	5219.39
427.90	5238.12
428.09	5296.63
428.28	5394.93
428.46	5380.89
428.65	5240.46
428.84	5467.49
429.03	5561.11
429.22	5348.12
429.40	5565.79
429.59	5497.92
429.78	5371.53
429.97	5174.92
430.16	5469.83
430.34	5544.73
430.53	5699.20
430.72	5797.51
430.91	5717.93
431.10	5570.48
431.28	5746.02
431.47	5792.83
431.66	5914.53
431.85	5987.09
432.03	5928.58
432.22	5928.58
432.41	5781.12
432.60	5781.12
432.79	5825.59
432.97	5982.41
433.16	5984.75
433.35	5905.17
433.54	6195.40
433.72	6108.80
433.91	6076.03
434.10	6246.89
434.28	6141.57
434.47	6141.57
434.66	6392.00
434.85	6370.94
435.03	6303.06
435.22	6270.30
435.41	6422.43
435.59	6307.74
435.78	6382.64
435.97	6497.33
436.16	6420.09
436.34	6693.93
436.53	6483.28
436.72	6663.51
436.90	6459.88
437.09	6558.18
437.28	6579.25
437.46	6670.53
437.65	6560.52
437.84	6775.85
438.02	6846.07
438.21	6890.54
438.40	6724.36
438.58	6745.42
438.77	7049.69
438.96	7075.44
439.14	7049.69
439.33	7192.47
439.52	7213.53
439.70	7229.91
439.89	7365.67
440.08	7375.03
440.26	7368.01
440.45	7400.77
440.63	7431.20
440.82	7597.38
441.01	7545.89
441.19	7494.40
441.38	7534.18
441.57	7716.75
441.75	7896.97
441.94	7882.92
442.12	8070.17
442.31	7756.54
442.50	8021.02
442.68	7995.27
442.87	7964.84
443.05	8138.04
443.24	8086.55
443.43	8112.30
443.61	8112.30
443.80	8390.82
443.98	8037.40
444.17	7878.24
444.35	8315.92
444.54	8320.60
444.73	8161.45
444.91	8196.56
445.10	8320.60
445.28	8360.39
445.47	8362.73
445.65	8397.84
445.84	8629.56
446.02	8444.65
446.21	8376.78
446.39	8465.72
446.58	8603.81
446.77	8454.02
446.95	8236.35
447.14	8484.44
447.32	8521.89
447.51	8444.65
447.69	8362.73
447.88	8603.81
448.06	8571.04
448.25	8388.48
448.43	8601.47
448.62	8648.28
448.80	8470.40
448.99	8594.45
449.17	8655.30
449.36	8828.50
449.54	8858.93
449.73	8870.63
449.91	8943.19
450.10	8840.20
450.28	8936.17
450.46	9146.81
450.65	8990.00
450.83	9029.79
451.02	9107.02
451.20	8968.93
451.39	9092.98
451.57	8987.66
451.76	9259.16
451.94	9252.14
452.13	9352.78
452.31	9170.22
452.49	9146.81
452.68	9305.97
452.86	9221.71
453.05	9507.26
453.23	9366.82
453.42	9516.62
453.60	9383.21
453.78	9699.18
453.97	9413.63
454.15	9624.28
454.34	9556.41
454.52	9394.91
454.70	9605.56
454.89	9774.08
455.07	9731.95
455.26	9816.21
455.44	10047.92
455.62	9895.78
455.81	9970.68
455.99	10012.81
456.17	9895.78
456.36	10005.79
456.54	10054.94
456.73	10235.16
456.91	10277.29
457.09	10368.57
457.28	10415.38
457.46	10228.14
457.64	10359.21
457.83	10476.24
458.01	10352.19
458.19	10717.31
458.38	10516.03
458.56	10647.10
458.74	10635.39
458.93	10623.69
459.11	10523.05
459.29	10686.89
459.48	10747.74
459.66	10930.30
459.84	11000.52
460.03	11129.25
460.21	10930.30
460.39	11014.56
460.57	10892.85
460.76	11000.52
460.94	11147.97
461.12	11002.86
461.31	11248.61
461.49	11019.24
461.67	11225.21
461.85	11485.01
462.04	11080.10
462.22	11618.42
462.40	11571.61
462.59	11555.22
462.77	11541.18
462.95	11768.21
463.13	11356.28
463.32	11683.95
463.50	11646.51
463.68	11789.28
463.86	11651.19
464.05	11829.07
464.23	11669.91
464.41	12065.46
464.59	11719.06
464.78	11981.20
464.96	12037.38
465.14	11819.71
465.32	11906.31
465.50	12056.10
465.69	12025.67
465.87	12341.64
466.05	12056.10
466.23	12219.94
466.41	12348.67
466.60	12432.93
466.78	11922.69
466.96	12444.63
467.14	12093.55
467.32	12381.43
467.51	12446.97
467.69	12257.39
467.87	12521.87
468.05	12650.60
468.23	12297.17
468.41	12306.54
468.60	12772.30
468.78	12610.81
468.96	12463.35
469.14	12882.31
469.32	13006.36
469.50	12849.54
469.69	13057.85
469.87	13043.81
470.05	13149.13
470.23	12994.65
470.41	13097.64
470.59	13156.15
470.77	13378.50
470.95	13191.26
471.14	13518.93
471.32	13144.45
471.50	13614.90
471.68	13617.24
471.86	13734.26
472.04	13500.21
472.22	14015.13
472.40	13689.79
472.58	13862.99
472.77	13867.67
472.95	14363.87
473.13	14459.83
473.31	13982.36
473.49	14328.76
473.67	13804.48
473.85	14403.66
474.03	14459.83
474.21	14630.69
474.39	14665.80
474.57	14635.37
474.75	14878.79
474.93	14768.78
475.12	14986.45
475.30	15178.37
475.48	15096.46
475.66	15218.16
475.84	15154.97
476.02	15515.41
476.20	15382.00
476.38	15346.89
476.56	15992.88
476.74	15939.05
476.92	15873.51
477.10	15723.72
477.28	16116.93
477.46	16145.02
477.64	16030.33
477.82	16650.57
478.00	16823.77
478.18	16709.08
478.36	17158.47
478.54	17114.00
478.72	16882.28
478.90	17558.70
479.08	17867.65
479.26	17404.22
479.44	17500.19
479.62	17542.32
479.80	18256.18
479.98	18195.32
480.16	18476.19
480.34	18251.50
480.52	18707.90
480.70	18569.81
480.88	18305.33
481.06	18506.62
481.24	18979.40
481.41	19267.29
481.59	19246.23
481.77	19428.79
481.95	19576.24
482.13	19697.95
482.31	20147.33
482.49	20102.86
482.67	20280.74
482.85	20411.81
483.03	20395.43
483.21	20940.77
483.39	20870.56
483.57	21050.78
483.74	21319.94
483.92	21486.12
484.10	21319.94
484.28	21544.63
484.46	22012.74
484.64	22408.29
484.82	22038.48
485.00	22382.54
485.18	22906.82
485.35	22909.16
485.53	22553.40
485.71	23391.31
485.89	23295.35
486.07	23538.77
486.25	23271.95
486.43	23262.58
486.61	23503.66
486.78	23740.05
486.96	24025.60
487.14	24587.33
487.32	24369.66
487.50	24638.82
487.68	24861.17
487.85	25029.69
488.03	25364.39
488.21	25717.81
488.39	25422.90
488.57	26085.27
488.75	25820.79
488.92	26202.30
489.10	26742.96
489.28	26586.15
489.46	27026.17
489.64	27201.71
489.81	27601.94
489.99	27449.80
490.17	27749.39
490.35	27948.34
490.53	28254.95
490.70	28933.70
490.88	28498.36
491.06	28666.88
491.24	28669.22
491.41	28823.70
491.59	29462.66
491.77	29060.09
491.95	29441.60
492.13	29383.09
492.30	29816.08
492.48	30108.65
492.66	30569.74
492.84	30150.78
493.01	30656.34
493.19	30661.02
493.37	30497.18
493.54	31482.55
493.72	31740.00
493.90	31332.75
494.08	31744.69
494.25	31936.61
494.43	32311.10
494.61	32329.82
494.79	32215.13
494.96	32142.58
495.14	33118.58
495.32	32809.63
495.49	33338.59
495.67	33282.42
495.85	33450.94
496.02	33553.92
496.20	33902.66
496.38	33802.02
496.55	33795.00
496.73	34759.30
496.91	34232.68
497.09	34763.98
497.26	35035.48
497.44	34946.54
497.62	35215.70
497.79	36002.12
497.97	35358.47
498.14	35849.99
498.32	36329.80
498.50	36002.12
498.67	36369.58
498.85	36367.24
499.03	36767.48
499.20	36561.51
499.38	36348.52
499.56	37139.62
499.73	36818.97
499.91	37184.09
500.08	37198.13
500.26	37432.19
500.44	37584.32
500.61	37502.40
500.79	37507.08
500.97	38370.74
501.14	38611.82
501.32	38768.63
501.49	38408.19
501.67	38431.60
501.84	38817.78
502.02	39009.71
502.20	38742.89
502.37	39236.74
502.55	38803.74
502.72	39533.99
502.90	39482.50
503.07	39697.83
503.25	40034.86
503.43	39901.45
503.60	39730.59
503.78	40020.82
503.95	40304.02
504.13	40701.92
504.30	40453.82
504.48	40334.45
504.65	40662.13
504.83	41127.89
505.01	41317.48
505.18	41586.64
505.36	41373.65
505.53	41043.63
505.71	41408.76
505.88	42059.43
506.06	41294.07
506.23	42061.77
506.41	41378.33
506.58	42284.12
506.76	42220.92
506.93	42405.83
507.11	42330.93
507.28	42672.65
507.46	42677.33
507.63	42792.01
507.81	43033.09
507.98	42972.24
508.16	43028.41
508.33	43398.21
508.50	43646.31
508.68	43756.32
508.85	43482.47
509.03	43660.35
509.20	43693.12
509.38	44217.40
509.55	44341.45
509.73	44243.15
509.90	44477.20
510.08	44397.62
510.25	44392.94
510.42	44388.26
510.60	44811.90
510.77	44741.68
510.95	45577.25
511.12	44765.09
511.30	45109.14
511.47	45485.97
511.64	45074.04
511.82	45666.19
511.99	45780.88
512.17	45708.32
512.34	45867.48
512.51	46389.42
512.69	46028.98
512.86	46033.66
513.04	46595.38
513.21	46312.18
513.38	46696.03
513.56	46906.68
513.73	46763.90
513.90	46838.80
514.08	46632.83
514.25	47161.79
514.43	47356.06
514.60	47114.98
514.77	47243.71
514.95	47391.17
515.12	47583.09
515.29	47367.76
515.47	47892.04
515.64	48219.72
515.81	47917.79
515.99	48189.29
516.16	48463.13
516.33	48229.08
516.51	49027.20
516.68	48292.27
516.85	48179.93
517.03	49003.80
517.20	48722.93
517.37	48615.27
517.54	48430.36
517.72	48968.69
517.89	48842.30
518.06	48879.75
518.24	49287.00
518.41	49216.78
518.58	49368.92
518.75	49303.38
518.93	49158.27
519.10	49507.01
519.27	49773.83
519.45	49397.01
519.62	49584.25
519.79	50167.04
519.96	49656.81
520.14	50087.46
520.31	50181.09
520.48	50192.79
520.65	50209.17
520.83	50674.94
521.00	50918.35
521.17	50328.54
521.34	50714.73
521.52	50784.94
521.69	50759.20
521.86	50810.69
522.03	51063.47
522.20	51374.76
522.38	51393.48
522.55	50850.48
522.72	51236.67
522.89	51239.01
523.07	51550.30
523.24	51224.96
523.41	51688.39
523.58	51697.75
523.75	51915.42
523.92	51901.38
524.10	51915.42
524.27	52083.94
524.44	51955.21
524.61	52191.61
524.78	52018.41
524.96	51807.76
525.13	52435.02
525.30	52360.12
525.47	52509.92
525.64	52514.60
525.81	52507.58
525.98	52463.11
526.16	52313.31
526.33	52643.33
526.50	52790.78
526.67	52451.41
526.84	52931.22
527.01	52669.08
527.18	52563.75
527.36	52846.96
527.53	53043.56
527.70	53448.47
527.87	53340.81
528.04	53378.26
528.21	53443.79
528.38	53289.32
528.55	53324.43
528.72	53324.43
528.89	53279.96
529.07	53298.68
529.24	53450.81
529.41	53427.41
529.58	53680.19
529.75	53731.68
529.92	53563.16
530.09	53724.66
530.26	53944.67
530.43	54124.89
530.60	53888.49
530.77	53986.80
530.94	54040.63
531.11	54260.64
531.28	54017.22
531.46	54122.55
531.63	54258.30
531.80	54389.37
531.97	54370.64
532.14	54581.29
532.31	54578.95
532.48	54473.63
532.65	54841.09
532.82	54356.60
532.99	54658.53
533.16	54616.40
533.33	54901.95
533.50	54927.69
533.67	54827.05
533.84	54733.43
534.01	54864.50
534.18	55018.97
534.35	54913.65
534.52	55014.29
534.69	54953.44
534.86	55248.35
535.03	55250.69
535.20	54871.52
535.37	55477.72
535.54	55386.44
535.71	55234.30
535.88	55423.89
536.05	55447.29
536.22	55503.46
536.38	55756.24
536.55	55728.16
536.72	55374.73
536.89	55599.43
537.06	55597.09
537.23	55739.86
537.40	55686.03
537.57	55688.37
537.74	55683.69
537.91	55987.95
538.08	55987.95
538.25	55854.54
538.42	56039.45
538.59	56030.08
538.75	55964.55
538.92	56360.10
539.09	56289.88
539.26	55915.40
539.43	56158.81
539.60	56289.88
539.77	56409.25
539.94	56413.93
540.11	56296.91
540.28	56488.83
540.44	56404.57
540.61	56432.66
540.78	56418.61
540.95	56556.70
541.12	56481.81
541.29	56423.29
541.46	56507.55
541.62	56797.78
541.79	56577.77
541.96	56266.48
542.13	56474.79
542.30	56514.58
542.47	56523.94
542.63	56938.21
542.80	56746.29
542.97	57043.54
543.14	57111.41
543.31	57111.41
543.48	57345.47
543.64	57324.40
543.81	57293.97
543.98	57331.42
544.15	57059.92
544.32	57420.36
544.48	57462.49
544.65	57347.81
544.82	57317.38
544.99	57336.10
545.16	57415.68
545.32	57530.37
545.49	57574.84
545.66	57497.60
545.83	57652.08
546.00	57687.18
546.16	57570.16
546.33	57530.37
546.50	57499.94
546.67	57708.25
546.83	57584.20
547.00	57502.28
547.17	57455.47
547.34	57832.30
547.50	57982.09
547.67	57996.13
547.84	57949.32
548.00	58068.69
548.17	58176.36
548.34	58150.61
548.51	58061.67
548.67	58260.62
548.84	58019.54
549.01	58204.44
549.18	58108.48
549.34	58218.49
549.51	58251.25
549.68	58272.32
549.84	58349.56
550.01	58281.68
550.18	58253.59
550.34	58454.88
550.51	58337.85
550.68	58251.25
550.84	58085.07
551.01	58539.14
551.18	58258.27
551.34	58445.52
551.51	58585.95
551.68	58349.56
551.84	58719.36
552.01	58525.10
552.18	58567.23
552.34	58382.32
552.51	58623.40
552.68	58702.98
552.84	58515.73
553.01	58876.18
553.18	58742.77
553.34	58857.45
553.51	58759.15
553.67	58735.74
553.84	58752.13
554.01	58922.99
554.17	59018.95
554.34	59047.04
554.51	58922.99
554.67	59175.76
554.84	58955.75
555.00	59128.95
555.17	59178.10
555.33	59159.38
555.50	58925.33
555.67	58986.18
555.83	59032.99
556.00	59135.98
556.16	59377.05
556.33	59377.05
556.50	59260.02
556.66	59576.00
556.83	59077.46
556.99	59402.80
557.16	59355.99
557.32	59606.42
557.49	59568.97
557.65	59451.95
557.82	59576.00
557.98	59077.46
558.15	59461.31
558.32	59384.07
558.48	59358.33
558.65	59487.06
558.81	59496.42
558.98	59676.64
559.14	59697.70
559.31	59693.02
559.47	59543.23
559.64	59475.35
559.80	59735.15
559.97	59702.38
560.13	59524.50
560.30	59688.34
560.46	59599.40
560.63	59826.43
560.79	59723.45
560.96	59697.70
561.12	59788.98
561.29	59639.19
561.45	59653.23
561.61	59833.46
561.78	59735.15
561.94	59683.66
562.11	59690.68
562.27	59847.50
562.44	59934.10
562.60	59978.57
562.77	60090.91
562.93	59861.54
563.10	59805.37
563.26	59859.20
563.42	60030.06
563.59	59955.16
563.75	60147.09
563.92	59955.16
564.08	59931.76
564.24	60200.92
564.41	60219.64
564.57	60327.31
564.74	59990.27
564.90	60011.34
565.07	60104.96
565.23	60144.75
565.39	59980.91
565.56	60278.16
565.72	60093.25
565.88	60233.69
566.05	60163.47
566.21	60175.17
566.38	60198.58
566.54	60048.78
566.70	60390.50
566.87	60390.50
567.03	60329.65
567.19	60322.63
567.36	60289.86
567.52	60346.03
567.68	60399.86
567.85	60275.82
568.01	60226.66
568.17	60233.69
568.34	60243.05
568.50	60313.26
568.66	60343.69
568.83	60371.78
568.99	60053.47
569.15	60420.93
569.32	60310.92
569.48	60395.18
569.64	60339.01
569.81	60285.18
569.97	60331.99
570.13	60479.44
570.30	60334.33
570.46	60388.16
570.62	60610.51
570.78	60498.17
570.95	60453.70
571.11	60399.86
571.27	60643.28
571.43	60666.69
571.60	60591.79
571.76	60552.00
571.92	60706.47
572.09	60420.93
572.25	60575.40
572.41	60463.06
572.57	60500.51
572.74	60711.16
572.90	60463.06
573.06	60715.84
573.22	60612.85
573.38	60537.96
573.55	60629.24
573.71	60870.31
573.87	60587.11
574.03	60474.76
574.20	60872.65
574.36	60704.13
574.52	60659.66
574.68	60687.75
574.84	60982.66
575.01	60666.69
575.17	60851.59
575.33	60720.52
575.49	60711.16
575.65	60704.13
575.82	60509.87
575.98	60858.61
576.14	60732.22
576.30	60580.09
576.46	60767.33
576.62	60542.64
576.79	60788.39
576.95	60638.60
577.11	60851.59
577.27	60910.10
577.43	60837.54
577.59	60769.67
577.75	60612.85
577.92	60535.62
578.08	60741.58
578.24	60891.38
578.40	61158.20
578.56	60938.19
578.72	60678.39
578.88	61024.79
579.04	60973.30
579.21	60816.48
579.37	60935.85
579.53	60921.80
579.69	60554.34
579.85	60645.62
580.01	60823.50
580.17	60608.17
580.33	60973.30
580.49	61228.41
580.65	60928.83
580.82	60750.94
580.98	60879.67
581.14	60734.56
581.30	60860.95
581.46	60905.42
581.62	60924.14
581.78	60832.86
581.94	60882.02
582.10	60734.56
582.26	60893.72
582.42	60917.12
582.58	60968.61
582.74	60853.93
582.90	60959.25
583.06	60933.51
583.22	60884.36
583.38	61001.38
583.54	60830.52
583.70	60928.83
583.86	61087.98
584.02	60683.07
584.18	61104.37
584.34	60896.06
584.50	60851.59
584.66	60977.98
584.82	60811.80
584.98	61249.48
585.14	61059.90
585.30	60786.05
585.46	61017.77
585.62	60963.93
585.78	61066.92
585.94	60942.87
586.10	61092.66
586.26	60905.42
586.42	61055.21
586.58	60935.85
586.74	60919.46
586.90	60966.27
587.06	60954.57
587.22	61186.28
587.38	60952.23
587.54	61111.39
587.70	61050.53
587.86	60963.93
588.02	60800.10
588.18	61160.54
588.34	61020.11
588.49	61052.87
