SpectraSuite Data File
++++++++++++++++++++++++++++++++++++
Date: Fri Oct 25 10:43:55 EDT 2013
User: price-jones
Dark Spectrum Present: No
Reference Spectrum Present: No
Number of Sampled Component Spectra: 1
Spectrometers: USB2+H05261
Integration Time (usec): 100000 (USB2+H05261)
Spectra Averaged: 1 (USB2+H05261)
Boxcar Smoothing: 0 (USB2+H05261)
Correct for Electrical Dark: No (USB2+H05261)
Strobe/Lamp Enabled: No (USB2+H05261)
Correct for Detector Non-linearity: No (USB2+H05261)
Correct for Stray Light: No (USB2+H05261)
Number of Pixels in Processed Spectrum: 2048
>>>>>Begin Processed Spectral Data<<<<<
365.73	170.86
365.92	170.86
366.12	170.86
366.32	0.00
366.52	58.51
366.72	74.90
366.91	0.00
367.11	9.36
367.31	0.00
367.51	4.68
367.70	0.00
367.90	88.94
368.10	28.09
368.30	0.00
368.49	37.45
368.69	23.41
368.89	0.00
369.09	53.83
369.28	84.26
369.48	9.36
369.68	65.54
369.87	114.69
370.07	152.13
370.27	161.50
370.47	210.65
370.66	388.53
370.86	444.70
371.06	442.36
371.25	585.13
371.45	521.94
371.65	468.11
371.84	564.07
372.04	528.96
372.24	510.24
372.44	524.28
372.63	535.98
372.83	449.38
373.03	510.24
373.22	540.66
373.42	528.96
373.62	500.87
373.81	552.37
374.01	650.67
374.21	566.41
374.40	498.53
374.60	617.90
374.79	585.13
374.99	634.29
375.19	613.22
375.38	645.99
375.58	613.22
375.78	648.33
375.97	606.20
376.17	667.05
376.37	592.16
376.56	657.69
376.76	571.09
376.95	648.33
377.15	685.78
377.35	734.93
377.54	645.99
377.74	657.69
377.93	617.90
378.13	676.41
378.33	667.05
378.52	725.57
378.72	760.67
378.91	678.76
379.11	568.75
379.31	613.22
379.50	643.65
379.70	732.59
379.89	653.01
380.09	650.67
380.28	725.57
380.48	772.38
380.68	816.85
380.87	718.54
381.07	706.84
381.26	748.97
381.46	713.86
381.65	755.99
381.85	713.86
382.04	732.59
382.24	744.29
382.43	662.37
382.63	667.05
382.83	655.35
383.02	760.67
383.22	781.74
383.41	727.91
383.61	739.61
383.80	711.52
384.00	758.33
384.19	812.17
384.39	812.17
384.58	901.11
384.78	842.59
384.97	835.57
385.17	788.76
385.36	873.02
385.56	905.79
385.75	772.38
385.95	814.51
386.14	919.83
386.34	779.40
386.53	873.02
386.72	896.43
386.92	870.68
387.11	947.92
387.31	922.17
387.50	936.21
387.70	861.32
387.89	987.71
388.09	889.40
388.28	952.60
388.48	997.07
388.67	903.45
388.86	1018.13
389.06	905.79
389.25	1034.52
389.45	1020.47
389.64	994.73
389.84	1036.86
390.03	945.58
390.22	1078.99
390.42	964.30
390.61	1001.75
390.81	973.66
391.00	1130.48
391.19	1104.73
391.39	1062.60
391.58	1102.39
391.78	1062.60
391.97	1111.75
392.16	1001.75
392.36	1191.33
392.55	1167.93
392.75	1142.18
392.94	1046.22
393.13	1008.77
393.33	1034.52
393.52	1125.80
393.71	1102.39
393.91	1205.38
394.10	1104.73
394.29	1123.46
394.49	1172.61
394.68	1348.15
394.88	1299.00
395.07	1263.89
395.26	1273.25
395.46	1228.78
395.65	1247.51
395.84	1273.25
396.04	1291.98
396.23	1238.14
396.42	1231.12
396.62	1203.04
396.81	1249.85
397.00	1205.38
397.19	1334.11
397.39	1313.04
397.58	1430.07
397.77	1465.18
397.97	1486.24
398.16	1430.07
398.35	1561.14
398.55	1540.07
398.74	1607.95
398.93	1687.53
399.12	1645.40
399.32	1621.99
399.51	1710.93
399.70	1654.76
399.90	1589.22
400.09	1645.40
400.28	1699.23
400.47	1699.23
400.67	1844.34
400.86	1743.70
401.05	1715.61
401.24	1788.17
401.44	1788.17
401.63	1748.38
401.82	1816.26
402.01	1778.81
402.21	1844.34
402.40	1830.30
402.59	1795.19
402.78	1818.60
402.97	1823.28
403.17	1923.92
403.36	1860.73
403.55	1975.41
403.74	1879.45
403.93	1987.11
404.13	2045.63
404.32	1975.41
404.51	1921.58
404.70	1982.43
404.89	2122.87
405.09	1984.77
405.28	1996.48
405.47	2108.82
405.66	2078.40
405.85	2050.31
406.05	2113.50
406.24	2139.25
406.43	2113.50
406.62	2115.84
406.81	2157.97
407.00	2157.97
407.20	2162.66
407.39	2165.00
407.58	2169.68
407.77	2293.72
407.96	2342.88
408.15	2298.41
408.34	2345.22
408.54	2434.16
408.73	2413.09
408.92	2354.58
409.11	2345.22
409.30	2396.71
409.49	2345.22
409.68	2317.13
409.87	2396.71
410.07	2560.55
410.26	2443.52
410.45	2394.37
410.64	2619.06
410.83	2693.96
411.02	2691.62
411.21	2733.75
411.40	2731.41
411.59	2740.77
411.78	2780.56
411.98	2647.15
412.17	2850.77
412.36	2750.13
412.55	2808.64
412.74	2832.05
412.93	2843.75
413.12	2825.03
413.31	2942.05
413.50	3049.72
413.69	2906.95
413.88	2988.86
414.07	3101.21
414.26	3052.06
414.45	3063.76
414.64	3112.91
414.83	3124.62
415.02	3293.13
415.22	3302.50
415.41	3241.64
415.60	3349.31
415.79	3318.88
415.98	3309.52
416.17	3421.86
416.36	3435.91
416.55	3220.58
416.74	3356.33
416.93	3440.59
417.12	3473.36
417.31	3456.97
417.50	3623.15
417.69	3492.08
417.88	3543.57
418.07	3599.74
418.26	3789.33
418.45	3611.45
418.64	3805.71
418.83	3613.79
419.02	3777.62
419.21	3662.94
419.39	3772.94
419.58	3688.68
419.77	3679.32
419.96	3810.39
420.15	3831.46
420.34	3971.89
420.53	3896.99
420.72	3920.40
420.91	3992.95
421.10	4039.76
421.29	3971.89
421.48	3927.42
421.67	4030.40
421.86	4025.72
422.05	3957.85
422.24	3922.74
422.43	3854.86
422.61	4070.19
422.80	4140.41
422.99	4049.13
423.18	4180.20
423.37	4205.94
423.56	4002.32
423.75	4065.51
423.94	3953.16
424.13	3786.99
424.32	3922.74
424.50	4088.92
424.69	4294.88
424.88	4196.58
425.07	4063.17
425.26	3995.29
425.45	3997.64
425.64	3983.59
425.83	4067.85
426.01	4339.35
426.20	4224.67
426.39	4170.83
426.58	4100.62
426.77	4093.60
426.96	4173.18
427.15	4109.98
427.33	4297.22
427.52	4243.39
427.71	4329.99
427.90	4224.67
428.09	4386.16
428.28	4262.12
428.46	4332.33
428.65	4407.23
428.84	4454.04
429.03	4470.42
429.22	4182.54
429.40	4283.18
429.59	4175.52
429.78	4070.19
429.97	4053.81
430.16	4128.70
430.34	4252.75
430.53	4285.52
430.72	4393.19
430.91	4355.74
431.10	4521.92
431.28	4692.77
431.47	4760.65
431.66	5055.56
431.85	4683.41
432.03	4779.37
432.22	4936.19
432.41	4992.36
432.60	4786.40
432.79	4903.42
432.97	4947.89
433.16	4966.62
433.35	4854.27
433.54	4884.70
433.72	4795.76
433.91	4816.82
434.10	5027.47
434.28	4938.53
434.47	5107.05
434.66	5151.52
434.85	5074.28
435.03	5228.76
435.22	5172.58
435.41	5252.16
435.59	5416.00
435.78	5247.48
435.97	5390.25
436.16	5343.44
436.34	5411.32
436.53	5338.76
436.72	5537.71
436.90	5336.42
437.09	5350.46
437.28	5441.75
437.46	5423.02
437.65	5310.68
437.84	5329.40
438.02	5273.23
438.21	5203.01
438.40	5390.25
438.58	5516.64
438.77	5671.12
438.96	5664.10
439.14	5820.91
439.33	5963.68
439.52	5860.70
439.70	5991.77
439.89	5980.07
440.08	5933.26
440.26	5951.98
440.45	5881.77
440.63	6120.50
440.82	6333.49
441.01	5984.75
441.19	6150.93
441.38	6352.21
441.57	6387.32
441.75	6331.15
441.94	6492.65
442.12	6590.95
442.31	6551.16
442.50	6651.80
442.68	6555.84
442.87	6553.50
443.05	6712.66
443.24	6682.23
443.43	6778.19
443.61	6700.95
443.80	6958.41
443.98	6637.76
444.17	6572.22
444.35	6822.66
444.54	6717.34
444.73	6651.80
444.91	6815.64
445.10	6670.53
445.28	6696.27
445.47	6473.92
445.65	6754.79
445.84	6677.55
446.02	6829.68
446.21	6860.11
446.39	6799.26
446.58	6984.16
446.77	6944.37
446.95	6885.86
447.14	7007.56
447.32	7192.47
447.51	6817.98
447.69	6768.83
447.88	7059.06
448.06	6927.99
448.25	6897.56
448.43	6995.86
448.62	7035.65
448.80	7019.27
448.99	7173.74
449.17	7262.68
449.36	6937.35
449.54	7375.03
449.73	7211.19
449.91	7463.97
450.10	7421.84
450.28	7531.84
450.46	7541.21
450.65	7452.27
450.83	7473.33
451.02	7683.98
451.20	7625.47
451.39	7562.27
451.57	7566.95
451.76	7606.74
451.94	7676.96
452.13	7592.70
452.31	7527.16
452.49	7365.67
452.68	7517.80
452.86	7452.27
453.05	7588.02
453.23	7691.00
453.42	7433.54
453.60	7763.56
453.78	7686.32
453.97	7606.74
454.15	7707.38
454.34	7749.51
454.52	7730.79
454.70	8016.33
454.89	7873.56
455.07	7784.62
455.26	8021.02
455.44	8334.65
455.62	7936.76
455.81	8194.22
455.99	8154.43
456.17	8278.47
456.36	8266.77
456.54	8362.73
456.73	8222.30
456.91	8367.42
457.09	8489.12
457.28	8713.81
457.46	8456.36
457.64	8437.63
457.83	8428.27
458.01	8395.50
458.19	8608.49
458.38	8432.95
458.56	8622.53
458.74	8437.63
458.93	8669.34
459.11	8486.78
459.29	8631.90
459.48	8561.68
459.66	8500.83
459.84	8695.09
460.03	8856.59
460.21	9004.04
460.39	8898.72
460.57	8931.48
460.76	8978.30
460.94	9043.83
461.12	9046.17
461.31	9100.00
461.49	9011.06
461.67	9151.49
461.85	9207.67
462.04	9221.71
462.22	9181.92
462.40	9226.39
462.59	9247.46
462.77	9191.28
462.95	9280.22
463.13	9451.08
463.32	9357.46
463.50	9535.34
463.68	9310.65
463.86	9371.50
464.05	9357.46
464.23	9156.18
464.41	9533.00
464.59	9123.41
464.78	9572.79
464.96	9547.05
465.14	9469.81
465.32	9603.22
465.50	9661.73
465.69	9645.35
465.87	9806.84
466.05	9523.64
466.23	9540.02
466.41	9591.52
466.60	9832.59
466.78	9607.90
466.96	9425.34
467.14	9785.78
467.32	9788.12
467.51	9624.28
467.69	9542.36
467.87	9795.14
468.05	9708.54
468.23	9841.95
468.41	9865.36
468.60	9834.93
468.78	9806.84
468.96	9933.23
469.14	9935.57
469.32	10120.48
469.50	9905.15
469.69	9954.30
469.87	10092.39
470.05	10186.01
470.23	10092.39
470.41	10242.18
470.59	10228.14
470.77	10104.09
470.95	10319.42
471.14	10504.32
471.32	10366.23
471.50	10635.39
471.68	10586.24
471.86	10729.02
472.04	10799.23
472.22	10890.51
472.40	10574.54
472.58	10883.49
472.77	10738.38
472.95	10846.04
473.13	11232.23
473.31	10920.94
473.49	11108.18
473.67	10927.96
473.85	10839.02
474.03	11311.81
474.21	11360.96
474.39	11524.80
474.57	11417.13
474.75	11798.64
474.93	11529.48
475.12	11489.69
475.30	11754.17
475.48	11637.14
475.66	11674.59
475.84	11892.26
476.02	11831.41
476.20	11721.40
476.38	12074.82
476.56	12430.59
476.74	12131.00
476.92	12346.33
477.10	12292.49
477.28	12496.12
477.46	12575.70
477.64	12400.16
477.82	12741.88
478.00	13099.98
478.18	13027.42
478.36	13341.05
478.54	13289.56
478.72	13465.10
478.90	13214.66
479.08	13584.47
479.26	13738.94
479.44	13437.02
479.62	13722.56
479.80	13937.89
479.98	14314.72
480.16	14396.64
480.34	14050.24
480.52	14321.74
480.70	14200.03
480.88	14214.07
481.06	14403.66
481.24	14455.15
481.41	14525.36
481.59	15000.49
481.77	14963.04
481.95	14970.07
482.13	15030.92
482.31	15089.43
482.49	15391.36
482.67	15632.44
482.85	15681.59
483.03	15522.43
483.21	15793.94
483.39	15964.79
483.57	15962.45
483.74	16187.14
483.92	16318.22
484.10	16084.16
484.28	16276.09
484.46	16617.80
484.64	16840.15
484.82	16657.59
485.00	16659.93
485.18	17106.98
485.35	17207.62
485.53	16673.98
485.71	16528.86
485.89	17008.67
486.07	16608.44
486.25	17067.19
486.43	17245.07
486.61	17687.43
486.78	18090.00
486.96	17881.69
487.14	18258.52
487.32	18511.30
487.50	18775.78
487.68	18927.91
487.85	18885.78
488.03	19232.18
488.21	19225.16
488.39	19012.17
488.57	19063.66
488.75	19278.99
488.92	19681.56
489.10	19983.49
489.28	20334.57
489.46	20170.74
489.64	20395.43
489.81	20823.75
489.99	21001.63
490.17	20917.37
490.35	21174.83
490.53	21109.29
490.70	21165.46
490.88	21081.21
491.06	21933.16
491.24	21542.29
491.41	21689.74
491.59	21439.31
491.77	21731.87
491.95	21914.44
492.13	21944.86
492.30	22214.02
492.48	22518.29
492.66	22759.37
492.84	22424.67
493.01	22719.58
493.19	22761.71
493.37	23019.17
493.54	23044.91
493.72	23501.32
493.90	23515.36
494.08	23620.69
494.25	24049.00
494.43	24278.38
494.61	24159.01
494.79	24238.59
494.96	24283.06
495.14	24079.43
495.32	24662.22
495.49	24407.11
495.67	24500.73
495.85	24814.36
496.02	24950.11
496.20	25001.60
496.38	25415.88
496.55	25135.01
496.73	26017.40
496.91	25853.56
497.09	26038.46
497.26	26019.74
497.44	25935.48
497.62	25993.99
497.79	26389.54
497.97	25989.31
498.14	26508.91
498.32	26391.88
498.50	26848.29
498.67	26728.92
498.85	26717.22
499.03	27136.17
499.20	27283.62
499.38	27161.92
499.56	27028.51
499.73	27194.68
499.91	27173.62
500.08	27274.26
500.26	27428.74
500.44	27756.41
500.61	27484.91
500.79	27264.90
500.97	27971.74
501.14	27885.14
501.32	27819.61
501.49	27875.78
501.67	27725.99
501.84	28334.53
502.02	28226.86
502.20	28666.88
502.37	28662.20
502.55	28304.10
502.72	28950.09
502.90	28769.86
503.07	29039.03
503.25	29050.73
503.43	28819.02
503.60	28549.85
503.78	28964.13
503.95	29163.08
504.13	29736.51
504.30	29371.38
504.48	29362.02
504.65	29621.82
504.83	30059.50
505.01	30246.74
505.18	30202.27
505.36	30190.57
505.53	30600.16
505.71	30827.20
505.88	31007.42
506.06	30396.54
506.23	30412.92
506.41	30668.04
506.58	30431.65
506.76	30866.98
506.93	31009.76
507.11	31133.81
507.28	31225.09
507.46	30946.56
507.63	30967.63
507.81	31105.72
507.98	30995.71
508.16	31592.55
508.33	31674.47
508.50	31438.08
508.68	31386.58
508.85	31929.59
509.03	31906.18
509.20	31976.40
509.38	32107.47
509.55	32058.32
509.73	32011.51
509.90	32449.19
510.08	32467.91
510.25	32538.13
510.42	32320.46
510.60	32952.40
510.77	32467.91
510.95	33017.94
511.12	32957.08
511.30	33022.62
511.47	33479.02
511.64	33362.00
511.82	33582.01
511.99	33177.09
512.17	33184.12
512.34	32945.38
512.51	33762.23
512.69	33432.21
512.86	33619.46
513.04	33935.43
513.21	33603.07
513.38	33699.03
513.56	33474.34
513.73	33944.79
513.90	33806.70
514.08	34029.05
514.25	33795.00
514.43	33935.43
514.60	34298.21
514.77	34354.38
514.95	34630.57
515.12	34431.62
515.29	34679.72
515.47	34831.85
515.64	35246.13
515.81	34719.51
515.99	34539.29
516.16	34944.20
516.33	34752.27
516.51	34635.25
516.68	34574.39
516.85	33996.28
517.03	34340.34
517.20	35152.51
517.37	35344.43
517.54	35943.61
517.72	35189.95
517.89	35065.91
518.06	35133.78
518.24	35159.53
518.41	35377.20
518.58	35332.73
518.75	35133.78
518.93	35896.80
519.10	35693.17
519.27	35775.09
519.45	36032.55
519.62	36142.55
519.79	36212.77
519.96	36507.68
520.14	36720.66
520.31	36205.75
520.48	36287.67
520.65	36158.94
520.83	37167.71
521.00	37015.57
521.17	36861.10
521.34	36935.99
521.52	37106.85
521.69	36879.82
521.86	37479.00
522.03	37289.42
522.20	37743.48
522.38	37120.90
522.55	37158.34
522.72	37539.85
522.89	37088.13
523.07	37713.05
523.24	37464.96
523.41	37830.08
523.58	37523.47
523.75	38003.28
523.92	38099.24
524.10	38583.73
524.27	38595.43
524.44	37912.00
524.61	38602.46
524.78	38682.03
524.96	38260.74
525.13	38981.62
525.30	38789.70
525.47	39040.14
525.64	38656.29
525.81	38658.63
525.98	37970.51
526.16	38092.22
526.33	38024.34
526.50	38525.22
526.67	38010.30
526.84	38368.40
527.01	38199.88
527.18	38700.76
527.36	39358.45
527.53	39274.19
527.70	39716.55
527.87	39552.71
528.04	39166.52
528.21	39915.50
528.38	39693.15
528.55	39555.05
528.72	40055.93
528.89	40011.46
529.07	39578.46
529.24	40074.65
529.41	39557.39
529.58	39737.62
529.75	40116.78
529.92	40133.17
530.09	39974.01
530.26	40292.32
530.43	40514.67
530.60	40172.96
530.77	40399.99
530.94	40414.03
531.11	40245.51
531.28	40547.44
531.46	40741.71
531.63	40879.80
531.80	40758.09
531.97	40584.89
532.14	40678.51
532.31	40179.98
532.48	40547.44
532.65	40732.34
532.82	40671.49
532.99	40800.22
533.16	40680.85
533.33	41008.53
533.50	41008.53
533.67	40961.72
533.84	40762.77
534.01	41102.15
534.18	41345.56
534.35	41523.44
534.52	41158.32
534.69	41563.23
534.86	41654.51
535.03	41783.24
535.20	42019.64
535.37	41909.63
535.54	41921.34
535.71	41750.48
535.88	41783.24
536.05	41881.55
536.22	42047.72
536.38	41668.56
536.55	41675.58
536.72	41820.69
536.89	41619.41
537.06	41467.27
537.23	41907.29
537.40	42368.38
537.57	42380.08
537.74	42445.62
537.91	42567.32
538.08	42340.29
538.25	41977.51
538.42	41741.11
538.59	42160.07
538.75	42162.41
538.92	42094.53
539.09	42471.36
539.26	42061.77
539.43	42309.86
539.60	42469.02
539.77	42595.41
539.94	42391.78
540.11	42000.91
540.28	42728.82
540.44	42316.89
540.61	42124.96
540.78	42169.43
540.95	42473.70
541.12	42581.37
541.29	42518.17
541.46	42827.12
541.62	42733.50
541.79	42932.45
541.96	42604.77
542.13	42890.32
542.30	42909.04
542.47	43229.69
542.63	43035.43
542.80	43461.41
542.97	43557.37
543.14	43519.92
543.31	43728.23
543.48	43519.92
543.64	43793.76
543.81	44013.77
543.98	43826.53
544.15	43281.19
544.32	43913.13
544.48	44299.32
544.65	43826.53
544.82	44058.24
544.99	43611.20
545.16	44091.01
545.32	43966.96
545.49	44076.97
545.66	44495.92
545.83	44114.42
546.00	44500.61
546.16	44156.55
546.33	43751.63
546.50	44121.44
546.67	44404.64
546.83	43697.80
547.00	44502.95
547.17	44233.78
547.34	44177.61
547.50	44285.28
547.67	44299.32
547.84	44748.70
548.00	44877.43
548.17	45303.41
548.34	44678.49
548.51	44758.06
548.67	44748.70
548.84	44589.55
549.01	44516.99
549.18	44528.69
549.34	44643.38
549.51	44844.66
549.68	44720.62
549.84	45057.65
550.01	45612.36
550.18	44856.37
550.34	45034.25
550.51	44781.47
550.68	45038.93
550.84	44849.35
551.01	45141.91
551.18	44797.85
551.34	44837.64
551.51	45294.05
551.68	44940.63
551.84	45172.34
552.01	45144.25
552.18	45617.04
552.34	44608.27
552.51	45045.95
552.68	45181.70
552.84	45347.88
553.01	45635.77
553.18	45375.97
553.34	45406.39
553.51	45429.80
553.67	45408.73
553.84	46071.10
554.01	45546.82
554.17	45766.84
554.34	46071.10
554.51	45429.80
554.67	45659.17
554.84	45888.54
555.00	45492.99
555.17	45275.32
555.33	45682.58
555.50	45553.85
555.67	45558.53
555.83	45483.63
556.00	46071.10
556.16	46061.74
556.33	45450.86
556.50	45530.44
556.66	45853.44
556.83	45333.84
556.99	45989.19
557.16	45748.11
557.32	45766.84
557.49	46174.09
557.65	46080.47
557.82	45970.46
557.98	46103.87
558.15	45942.38
558.32	46260.69
558.48	45724.71
558.65	45766.84
558.81	45680.24
558.98	45900.25
559.14	45738.75
559.31	45717.68
559.47	46223.24
559.64	46202.18
559.80	46213.88
559.97	46461.97
560.13	45968.12
560.30	46057.06
560.46	46227.92
560.63	46426.87
560.79	46447.93
560.96	46806.03
561.12	46108.55
561.29	46258.35
561.45	46073.45
561.61	46110.89
561.78	46316.86
561.94	46115.58
562.11	45818.33
562.27	46518.15
562.44	46375.37
562.60	46473.68
562.77	46333.24
562.93	46485.38
563.10	46358.99
563.26	46291.12
563.42	46878.59
563.59	46574.32
563.75	46309.84
563.92	46871.57
564.08	46490.06
564.24	46478.36
564.41	46234.94
564.57	46270.05
564.74	46248.99
564.90	46504.10
565.07	46632.83
565.23	46445.59
565.39	46567.30
565.56	46887.95
565.72	46134.30
565.88	46300.48
566.05	46492.40
566.21	46401.12
566.38	46546.23
566.54	46494.74
566.70	46564.96
566.87	46923.06
567.03	46548.57
567.19	46974.55
567.36	46784.97
567.52	46618.79
567.68	47175.84
567.85	46810.71
568.01	46887.95
568.17	46890.29
568.34	46953.49
568.50	46993.28
568.66	46581.34
568.83	46497.08
568.99	46628.15
569.15	46754.54
569.32	46646.88
569.48	46258.35
569.64	47014.34
569.81	46997.96
569.97	46714.75
570.13	46436.23
570.30	46237.28
570.46	46548.57
570.62	46183.45
570.78	46181.11
570.95	46466.66
571.11	46684.33
571.27	46557.94
571.43	46480.70
571.60	46848.16
571.76	46831.78
571.92	47351.38
572.09	46852.84
572.25	46651.56
572.41	46789.65
572.57	46775.61
572.74	47091.58
572.90	46553.26
573.06	46993.28
573.22	46696.03
573.38	46457.29
573.55	46700.71
573.71	47131.37
573.87	47114.98
574.03	47084.56
574.20	46562.62
574.36	46705.39
574.52	46649.22
574.68	46878.59
574.84	47035.41
575.01	46990.94
575.17	46829.44
575.33	46621.13
575.49	46967.53
575.65	46937.10
575.82	47100.94
575.98	46726.46
576.14	47224.99
576.30	47019.02
576.46	47065.83
576.62	46590.70
576.79	46791.99
576.95	46677.30
577.11	46761.56
577.27	47030.72
577.43	46932.42
577.59	46789.65
577.75	46541.55
577.92	46504.10
578.08	46337.93
578.24	46696.03
578.40	46782.63
578.56	47140.73
578.72	46602.41
578.88	47098.60
579.04	47763.31
579.21	46672.62
579.37	46810.71
579.53	46824.76
579.69	46721.77
579.85	46822.42
580.01	46902.00
580.17	46536.87
580.33	46794.33
580.49	47356.06
580.65	46691.35
580.82	47037.75
580.98	46637.51
581.14	46787.31
581.30	47126.69
581.46	47510.53
581.62	47152.43
581.78	46693.69
581.94	47234.35
582.10	46642.20
582.26	46958.17
582.42	47152.43
582.58	46932.42
582.74	46803.69
582.90	47042.43
583.06	47264.78
583.22	47049.45
583.38	47267.12
583.54	47477.77
583.70	47161.79
583.86	47157.11
584.02	46532.19
584.18	47189.88
584.34	47255.42
584.50	47075.19
584.66	46756.88
584.82	46775.61
584.98	46836.46
585.14	46983.91
585.30	46660.92
585.46	46876.25
585.62	46358.99
585.78	46749.86
585.94	46576.66
586.10	46756.88
586.26	46969.87
586.42	47199.24
586.58	47346.70
586.74	47093.92
586.90	46906.68
587.06	46993.28
587.22	47072.85
587.38	46735.82
587.54	47250.74
587.70	47192.22
587.86	47082.22
588.02	47086.90
588.18	46892.63
588.34	46824.76
588.49	46415.16
588.65	46293.46
588.81	46480.70
588.97	46717.09
589.13	46197.49
589.29	46586.02
589.45	46518.15
589.61	47047.11
589.77	47079.88
589.93	46859.87
