SpectraSuite Data File
++++++++++++++++++++++++++++++++++++
Date: Fri Oct 25 10:43:29 EDT 2013
User: price-jones
Dark Spectrum Present: No
Reference Spectrum Present: No
Number of Sampled Component Spectra: 1
Spectrometers: USB2+H05261
Integration Time (usec): 100000 (USB2+H05261)
Spectra Averaged: 1 (USB2+H05261)
Boxcar Smoothing: 0 (USB2+H05261)
Correct for Electrical Dark: No (USB2+H05261)
Strobe/Lamp Enabled: No (USB2+H05261)
Correct for Detector Non-linearity: No (USB2+H05261)
Correct for Stray Light: No (USB2+H05261)
Number of Pixels in Processed Spectrum: 2048
>>>>>Begin Processed Spectral Data<<<<<
365.73	126.39
365.92	126.39
366.12	126.39
366.32	0.00
366.52	4.68
366.72	37.45
366.91	14.04
367.11	32.77
367.31	0.00
367.51	0.00
367.70	0.00
367.90	60.85
368.10	16.38
368.30	4.68
368.49	0.00
368.69	21.06
368.89	88.94
369.09	51.49
369.28	98.30
369.48	42.13
369.68	4.68
369.87	95.96
370.07	100.64
370.27	135.75
370.47	250.44
370.66	449.38
370.86	430.66
371.06	477.47
371.25	428.32
371.45	433.00
371.65	468.11
371.84	428.32
372.04	482.15
372.24	507.90
372.44	470.45
372.63	571.09
372.83	484.49
373.03	545.34
373.22	535.98
373.42	440.02
373.62	564.07
373.81	540.66
374.01	566.41
374.21	500.87
374.40	620.24
374.60	578.11
374.79	489.17
374.99	538.32
375.19	566.41
375.38	617.90
375.58	550.03
375.78	660.03
375.97	589.82
376.17	688.12
376.37	599.18
376.56	643.65
376.76	660.03
376.95	573.43
377.15	547.69
377.35	596.84
377.54	610.88
377.74	615.56
377.93	620.24
378.13	620.24
378.33	671.73
378.52	657.69
378.72	648.33
378.91	564.07
379.11	594.50
379.31	681.10
379.50	592.16
379.70	648.33
379.89	674.07
380.09	727.91
380.28	791.10
380.48	748.97
380.68	664.71
380.87	617.90
381.07	622.58
381.26	685.78
381.46	683.44
381.65	681.10
381.85	664.71
382.04	678.76
382.24	784.08
382.43	690.46
382.63	676.41
382.83	685.78
383.02	734.93
383.22	650.67
383.41	716.20
383.61	725.57
383.80	809.83
384.00	779.40
384.19	793.44
384.39	746.63
384.58	774.72
384.78	833.23
384.97	734.93
385.17	781.74
385.36	788.76
385.56	798.12
385.75	816.85
385.95	727.91
386.14	777.06
386.34	784.08
386.53	791.10
386.72	828.55
386.92	833.23
387.11	866.00
387.31	924.51
387.50	795.78
387.70	866.00
387.89	947.92
388.09	884.72
388.28	908.13
388.48	851.96
388.67	980.68
388.86	973.66
389.06	898.77
389.25	973.66
389.45	903.45
389.64	938.55
389.84	985.37
390.03	999.41
390.22	1018.13
390.42	1013.45
390.61	973.66
390.81	964.30
391.00	1013.45
391.19	992.39
391.39	1020.47
391.58	980.68
391.78	1055.58
391.97	1088.35
392.16	1046.22
392.36	1097.71
392.55	1050.90
392.75	1062.60
392.94	973.66
393.13	1001.75
393.33	968.98
393.52	1104.73
393.71	1057.92
393.91	1032.18
394.10	1188.99
394.29	1111.75
394.49	1153.88
394.68	1254.53
394.88	1165.59
395.07	1184.31
395.26	1238.14
395.46	1289.64
395.65	1174.95
395.84	1284.95
396.04	1217.08
396.23	1177.29
396.42	1181.97
396.62	1156.22
396.81	1170.27
397.00	1254.53
397.19	1165.59
397.39	1378.58
397.58	1296.66
397.77	1376.24
397.97	1390.28
398.16	1411.34
398.35	1483.90
398.55	1465.18
398.74	1481.56
398.93	1516.67
399.12	1474.54
399.32	1472.20
399.51	1455.81
399.70	1460.49
399.90	1465.18
400.09	1533.05
400.28	1568.16
400.47	1509.65
400.67	1617.31
400.86	1643.06
401.05	1640.72
401.24	1652.42
401.44	1694.55
401.63	1710.93
401.82	1739.02
402.01	1624.33
402.21	1638.38
402.40	1699.23
402.59	1750.72
402.78	1720.29
402.97	1720.29
403.17	1708.59
403.36	1722.63
403.55	1746.04
403.74	1757.74
403.93	1820.94
404.13	1827.96
404.32	1916.90
404.51	1858.39
404.70	1912.22
404.89	1863.07
405.09	1994.14
405.28	1881.79
405.47	1968.39
405.66	1893.49
405.85	1909.88
406.05	1872.43
406.24	1916.90
406.43	2036.27
406.62	1987.11
406.81	2104.14
407.00	2087.76
407.20	2038.61
407.39	2101.80
407.58	2157.97
407.77	2054.99
407.96	2246.91
408.15	2253.94
408.34	2298.41
408.54	2172.02
408.73	2263.30
408.92	2260.96
409.11	2321.81
409.30	2352.24
409.49	2195.42
409.68	2333.51
409.87	2181.38
410.07	2246.91
410.26	2293.72
410.45	2457.56
410.64	2445.86
410.83	2436.50
411.02	2527.78
411.21	2607.36
411.40	2640.12
411.59	2511.39
411.78	2616.72
411.98	2605.02
412.17	2605.02
412.36	2597.99
412.55	2614.38
412.74	2717.36
412.93	2846.09
413.12	2630.76
413.31	2815.66
413.50	2841.41
413.69	2789.92
413.88	2860.13
414.07	2810.98
414.26	2911.63
414.45	3040.36
414.64	3030.99
414.83	3040.36
415.02	3028.65
415.22	3112.91
415.41	3112.91
415.60	3145.68
415.79	3089.51
415.98	3187.81
416.17	3215.90
416.36	3225.26
416.55	3344.63
416.74	3283.77
416.93	3300.16
417.12	3269.73
417.31	3375.05
417.50	3229.94
417.69	3412.50
417.88	3410.16
418.07	3473.36
418.26	3524.85
418.45	3487.40
418.64	3466.33
418.83	3482.72
419.02	3611.45
419.21	3508.46
419.39	3485.06
419.58	3562.30
419.77	3449.95
419.96	3574.00
420.15	3693.37
420.34	3665.28
420.53	3606.77
420.72	3735.50
420.91	3777.62
421.10	3854.86
421.29	3728.47
421.48	3836.14
421.67	3824.44
421.86	3747.20
422.05	3744.86
422.24	3709.75
422.43	3794.01
422.61	3826.78
422.80	3784.65
422.99	3894.65
423.18	3925.08
423.37	3943.80
423.56	3817.41
423.75	3861.88
423.94	3684.00
424.13	3768.26
424.32	3836.14
424.50	3934.44
424.69	3943.80
424.88	3997.64
425.07	3791.67
425.26	3794.01
425.45	3822.09
425.64	3889.97
425.83	3831.46
426.01	3929.76
426.20	4112.32
426.39	4100.62
426.58	3894.65
426.77	3847.84
426.96	3995.29
427.15	3953.16
427.33	4016.36
427.52	4154.45
427.71	4070.19
427.90	4051.47
428.09	4032.74
428.28	4109.98
428.46	4119.34
428.65	4138.07
428.84	4205.94
429.03	4245.73
429.22	4077.21
429.40	4161.47
429.59	4009.34
429.78	3779.97
429.97	3829.12
430.16	3964.87
430.34	4147.43
430.53	4063.17
430.72	4205.94
430.91	4189.56
431.10	4388.50
431.28	4519.57
431.47	4521.92
431.66	4664.69
431.85	4571.07
432.03	4627.24
432.22	4540.64
432.41	4533.62
432.60	4559.36
432.79	4676.39
432.97	4723.20
433.16	4697.46
433.35	4601.49
433.54	4779.37
433.72	4688.09
433.91	4741.93
434.10	4685.75
434.28	4758.31
434.47	4770.01
434.66	4819.16
434.85	4968.96
435.03	4840.23
435.22	4847.25
435.41	5067.26
435.59	4898.74
435.78	4978.32
435.97	5062.58
436.16	5165.56
436.34	5083.64
436.53	5107.05
436.72	5345.78
436.90	5067.26
437.09	5076.62
437.28	5210.03
437.46	5116.41
437.65	5107.05
437.84	5142.16
438.02	5254.50
438.21	5071.94
438.40	4915.12
438.58	5385.57
438.77	5252.16
438.96	5439.40
439.14	5488.56
439.33	5547.07
439.52	5650.05
439.70	5593.88
439.89	5465.15
440.08	5577.50
440.26	5568.13
440.45	5790.49
440.63	5849.00
440.82	5905.17
441.01	5996.45
441.19	6010.50
441.38	5949.64
441.57	5975.39
441.75	6040.92
441.94	6122.84
442.12	6167.31
442.31	6181.35
442.50	6375.62
442.68	6190.72
442.87	6132.20
443.05	6223.48
443.24	6368.60
443.43	6483.28
443.61	6572.22
443.80	6588.61
443.98	6296.04
444.17	6321.79
444.35	6581.59
444.54	6778.19
444.73	6490.31
444.91	6483.28
445.10	6303.06
445.28	6314.77
445.47	6317.11
445.65	6340.51
445.84	6450.52
446.02	6583.93
446.21	6497.33
446.39	6513.71
446.58	6581.59
446.77	6560.52
446.95	6506.69
447.14	6722.02
447.32	6780.53
447.51	6665.85
447.69	6546.48
447.88	6548.82
448.06	6672.87
448.25	6614.35
448.43	6574.56
448.62	6621.38
448.80	6502.01
448.99	6810.96
449.17	6878.83
449.36	6832.02
449.54	6757.13
449.73	7056.72
449.91	6998.20
450.10	7159.70
450.28	7272.04
450.46	7396.09
450.65	6988.84
450.83	7267.36
451.02	7103.53
451.20	7260.34
451.39	7243.96
451.57	7171.40
451.76	7171.40
451.94	7295.45
452.13	7040.33
452.31	7145.66
452.49	7023.95
452.68	7136.29
452.86	7225.23
453.05	7211.19
453.23	7293.11
453.42	7386.73
453.60	7262.68
453.78	7382.05
453.97	7197.15
454.15	7236.94
454.34	7190.13
454.52	7426.52
454.70	7421.84
454.89	7618.44
455.07	7606.74
455.26	7536.52
455.44	7669.94
455.62	7698.02
455.81	7658.23
455.99	7691.00
456.17	7721.43
456.36	7688.66
456.54	7728.45
456.73	7941.44
456.91	8035.06
457.09	7936.76
457.28	8362.73
457.46	7812.71
457.64	8245.71
457.83	8114.64
458.01	7733.13
458.19	8084.21
458.38	8128.68
458.56	8121.66
458.74	8191.88
458.93	8278.47
459.11	8304.22
459.29	8313.58
459.48	8198.90
459.66	8222.30
459.84	8334.65
460.03	8461.04
460.21	8528.91
460.39	8393.16
460.57	8489.12
460.76	8486.78
460.94	8573.38
461.12	8568.70
461.31	8353.37
461.49	8486.78
461.67	8512.53
461.85	8648.28
462.04	8688.07
462.22	9195.96
462.40	8779.35
462.59	8762.97
462.77	8667.00
462.95	9036.81
463.13	8791.05
463.32	8830.84
463.50	8889.35
463.68	8805.10
463.86	8947.87
464.05	8915.10
464.23	8800.41
464.41	8945.53
464.59	8681.05
464.78	9088.30
464.96	8994.68
465.14	8985.32
465.32	9034.47
465.50	9172.56
465.69	9291.93
465.87	9188.94
466.05	9263.84
466.23	8837.86
466.41	8954.89
466.60	9359.80
466.78	9116.39
466.96	9153.84
467.14	9202.99
467.32	9219.37
467.51	9472.15
467.69	9055.53
467.87	9245.12
468.05	9453.42
468.23	9415.98
468.41	9308.31
468.60	9369.16
468.78	9694.50
468.96	9364.48
469.14	9607.90
469.32	9528.32
469.50	9263.84
469.69	9465.13
469.87	9708.54
470.05	9724.93
470.23	9818.55
470.41	9795.14
470.59	9753.01
470.77	9607.90
470.95	9853.66
471.14	9891.10
471.32	9799.82
471.50	10200.05
471.68	10317.08
471.86	10195.37
472.04	10406.02
472.22	10347.51
472.40	10125.16
472.58	10319.42
472.77	10434.11
472.95	10434.11
473.13	10743.06
473.31	10499.64
473.49	10471.56
473.67	10497.30
473.85	10710.29
474.03	10586.24
474.21	10773.49
474.39	11016.90
474.57	11009.88
474.75	10925.62
474.93	11052.01
475.12	10958.39
475.30	11112.86
475.48	10799.23
475.66	11066.05
475.84	11192.44
476.02	11351.60
476.20	11250.96
476.38	11817.36
476.56	11702.68
476.74	11604.38
476.92	11709.70
477.10	11651.19
477.28	12098.23
477.46	12046.74
477.64	12119.29
477.82	12437.61
478.00	12482.08
478.18	12437.61
478.36	12624.85
478.54	12404.84
478.72	12559.31
478.90	12812.09
479.08	13050.83
479.26	13006.36
479.44	13111.68
479.62	13350.42
479.80	12966.57
479.98	13104.66
480.16	13802.14
480.34	13207.64
480.52	13551.70
480.70	13923.85
480.88	13327.01
481.06	14073.64
481.24	13607.87
481.41	14106.41
481.59	14174.28
481.77	14328.76
481.95	14176.62
482.13	14335.78
482.31	14546.43
482.49	14803.89
482.67	14817.93
482.85	14874.10
483.03	14827.29
483.21	14895.17
483.39	15131.56
483.57	15157.31
483.74	15276.68
483.92	15414.77
484.10	15293.06
484.28	15733.08
484.46	15969.48
484.64	16315.87
484.82	15917.98
485.00	16018.63
485.18	16299.49
485.35	16460.99
485.53	15997.56
485.71	15889.90
485.89	16369.71
486.07	16449.28
486.25	16500.78
486.43	16823.77
486.61	16952.50
486.78	16992.29
486.96	17490.82
487.14	17296.56
487.32	17635.94
487.50	17900.42
487.68	18078.30
487.85	18015.10
488.03	18328.74
488.21	18520.66
488.39	18157.88
488.57	18382.57
488.75	18548.75
488.92	18719.60
489.10	19089.41
489.28	19398.36
489.46	19496.66
489.64	19307.08
489.81	19824.34
489.99	20156.69
490.17	19936.68
490.35	20334.57
490.53	19882.85
490.70	20304.15
490.88	20449.26
491.06	20666.93
491.24	20503.09
491.41	20872.90
491.59	20643.52
491.77	20699.70
491.95	20828.43
492.13	21006.31
492.30	21156.10
492.48	21619.53
492.66	21214.62
492.84	21757.62
493.01	21949.54
493.19	21558.67
493.37	21940.18
493.54	22197.64
493.72	22537.02
493.90	22141.47
494.08	22778.09
494.25	23110.45
494.43	22757.03
494.61	22988.74
494.79	22972.36
494.96	23468.55
495.14	23564.51
495.32	23197.05
495.49	23522.38
495.67	23454.51
495.85	24126.24
496.02	24039.64
496.20	24306.46
496.38	24081.77
496.55	24313.48
496.73	24596.69
496.91	24320.51
497.09	24704.35
497.26	24819.04
497.44	24430.51
497.62	25207.57
497.79	25034.37
497.97	24706.70
498.14	24954.79
498.32	25186.50
498.50	25366.73
498.67	25467.37
498.85	25668.66
499.03	25619.50
499.20	25965.90
499.38	26003.35
499.56	26253.79
499.73	26333.37
499.91	26424.65
500.08	26434.01
500.26	26139.10
500.44	26132.08
500.61	26906.80
500.79	26146.12
500.97	26600.19
501.14	26780.41
501.32	26799.13
501.49	27016.80
501.67	26644.66
501.84	27072.98
502.02	27440.44
502.20	27206.39
502.37	27714.28
502.55	27534.06
502.72	27896.85
502.90	27929.61
503.07	27576.19
503.25	27580.87
503.43	27751.73
503.60	27950.68
503.78	28142.60
503.95	27690.88
504.13	27845.35
504.30	28053.66
504.48	28547.51
504.65	28687.95
504.83	28563.90
505.01	28769.86
505.18	28753.48
505.36	29132.65
505.53	29219.25
505.71	29350.32
505.88	29570.33
506.06	29390.11
506.23	29612.46
506.41	29518.84
506.58	29256.70
506.76	29553.94
506.93	29530.54
507.11	29692.04
507.28	29736.51
507.46	30031.41
507.63	29699.06
507.81	29649.91
507.98	29757.57
508.16	30539.31
508.33	30094.61
508.50	30108.65
508.68	30410.58
508.85	30923.16
509.03	31005.08
509.20	30899.75
509.38	30785.07
509.55	30897.41
509.73	30991.03
509.90	30927.84
510.08	30974.65
510.25	30981.67
510.42	30995.71
510.60	31353.82
510.77	31386.58
510.95	32011.51
511.12	31344.45
511.30	31768.09
511.47	31665.11
511.64	32180.03
511.82	32503.02
511.99	31978.74
512.17	31751.71
512.34	32165.98
512.51	32142.58
512.69	32381.31
512.86	32531.11
513.04	32746.44
513.21	32484.30
513.38	32793.25
513.56	32163.64
513.73	32692.60
513.90	32968.79
514.08	33111.56
514.25	33163.05
514.43	32596.64
514.60	32711.33
514.77	32842.40
514.95	33504.77
515.12	33315.19
515.29	33390.08
515.47	33371.36
515.64	33670.95
515.81	33469.66
515.99	33404.13
516.16	33523.49
516.33	33085.81
516.51	33642.86
516.68	33146.67
516.85	32776.86
517.03	33071.77
517.20	34061.82
517.37	34401.19
517.54	34122.67
517.72	33996.28
517.89	33738.82
518.06	33376.04
518.24	33694.35
518.41	34103.95
518.58	34473.75
518.75	34464.39
518.93	34831.85
519.10	34485.45
519.27	34728.87
519.45	34740.57
519.62	35143.14
519.79	35168.89
519.96	35435.71
520.14	35189.95
520.31	34946.54
520.48	35019.10
520.65	35344.43
520.83	35765.73
521.00	35620.61
521.17	35632.32
521.34	35868.71
521.52	35885.09
521.69	36341.50
521.86	35882.75
522.03	35849.99
522.20	35667.42
522.38	36308.73
522.55	36034.89
522.72	36105.10
522.89	36133.19
523.07	36573.21
523.24	36252.56
523.41	36659.81
523.58	36601.30
523.75	36809.61
523.92	37137.28
524.10	37038.98
524.27	37092.81
524.44	36868.12
524.61	37109.19
524.78	37015.57
524.96	37170.05
525.13	36748.75
525.30	37378.36
525.47	37441.55
525.64	37462.61
525.81	37067.06
525.98	36935.99
526.16	37139.62
526.33	37081.11
526.50	37071.75
526.67	36863.44
526.84	37287.07
527.01	36940.68
527.18	37511.77
527.36	37738.80
527.53	37890.93
527.70	38375.42
527.87	38075.84
528.04	38071.15
528.21	38370.74
528.38	37663.90
528.55	38490.11
528.72	38679.69
528.89	38579.05
529.07	38600.12
529.24	38146.05
529.41	38476.07
529.58	38415.21
529.75	38522.88
529.92	38822.47
530.09	38665.65
530.26	38616.50
530.43	38731.18
530.60	38485.43
530.77	39505.90
530.94	39391.22
531.11	38920.77
531.28	39012.05
531.46	39271.85
531.63	39086.95
531.80	39260.15
531.97	39213.34
532.14	39012.05
532.31	38653.95
532.48	39175.89
532.65	39049.50
532.82	39367.81
532.99	39100.99
533.16	39356.11
533.33	39615.91
533.50	39512.92
533.67	39707.19
533.84	39665.06
534.01	39533.99
534.18	39569.10
534.35	40318.07
534.52	39482.50
534.69	40011.46
534.86	39966.99
535.03	39964.65
535.20	40346.15
535.37	40404.67
535.54	40797.88
535.71	40168.27
535.88	40315.73
536.05	40535.74
536.22	40343.81
536.38	40334.45
536.55	40453.82
536.72	40322.75
536.89	40086.36
537.06	40210.40
537.23	41258.96
537.40	40418.71
537.57	40788.52
537.74	40744.05
537.91	40837.67
538.08	40804.90
538.25	40774.47
538.42	41097.47
538.59	41170.02
538.75	40521.69
538.92	41095.13
539.09	40765.11
539.26	41036.61
539.43	41060.02
539.60	41123.21
539.77	40783.83
539.94	41338.54
540.11	41031.93
540.28	41174.70
540.44	41338.54
540.61	41282.37
540.78	40898.52
540.95	41209.81
541.12	41315.14
541.29	41071.72
541.46	41619.41
541.62	41596.00
541.79	41734.09
541.96	41174.70
542.13	41588.98
542.30	41350.24
542.47	41804.31
542.63	41827.71
542.80	42272.42
542.97	42249.01
543.14	42195.18
543.31	41724.73
543.48	42164.75
543.64	42586.05
543.81	42667.97
543.98	42745.20
544.15	42213.90
544.32	42520.51
544.48	42941.81
544.65	42756.91
544.82	42658.60
544.99	42590.73
545.16	42089.85
545.32	42766.27
545.49	42866.91
545.66	42478.38
545.83	42834.14
546.00	42906.70
546.16	42838.83
546.33	42534.56
546.50	42323.91
546.67	42784.99
546.83	42625.84
547.00	42843.51
547.17	42555.62
547.34	42450.30
547.50	43173.52
547.67	43143.09
547.84	43173.52
548.00	43377.15
548.17	43480.13
548.34	43299.91
548.51	43061.18
548.67	43679.08
548.84	43166.50
549.01	43540.99
549.18	43320.98
549.34	43075.22
549.51	43728.23
549.68	43597.16
549.84	43587.80
550.01	43730.57
550.18	43423.96
550.34	43271.82
550.51	43562.05
550.68	43758.66
550.84	43000.32
551.01	43526.94
551.18	43402.89
551.34	43927.17
551.51	43697.80
551.68	44208.04
551.84	43728.23
552.01	43753.97
552.18	43365.45
552.34	43531.62
552.51	44016.11
552.68	43473.11
552.84	43920.15
553.01	44093.35
553.18	43508.22
553.34	44346.13
553.51	44065.27
553.67	44250.17
553.84	44451.45
554.01	44460.82
554.17	44371.88
554.34	44186.97
554.51	44170.59
554.67	44250.17
554.84	44254.85
555.00	44161.23
555.17	44231.44
555.33	44446.77
555.50	44425.71
555.67	44587.21
555.83	44617.63
556.00	44360.17
556.16	44645.72
556.33	44271.23
556.50	44327.41
556.66	44397.62
556.83	44149.53
556.99	44140.16
557.16	44598.91
557.32	44563.80
557.49	44470.18
557.65	44472.52
557.82	44830.62
557.98	44734.66
558.15	44797.85
558.32	44680.83
558.48	44758.06
558.65	44472.52
558.81	44439.75
558.98	44631.68
559.14	44732.32
559.31	44591.89
559.47	44479.54
559.64	44746.36
559.80	45034.25
559.97	44884.45
560.13	44577.84
560.30	44748.70
560.46	44931.26
560.63	45184.04
560.79	45485.97
560.96	45174.68
561.12	45125.53
561.29	44524.01
561.45	44634.02
561.61	44830.62
561.78	44692.53
561.94	45092.76
562.11	45223.83
562.27	44355.49
562.44	45055.31
562.60	45450.86
562.77	45045.95
562.93	45221.49
563.10	45359.58
563.26	44938.29
563.42	45696.62
563.59	45099.78
563.75	45343.20
563.92	45736.41
564.08	45020.20
564.24	45303.41
564.41	44947.65
564.57	45237.87
564.74	45055.31
564.90	45132.55
565.07	45038.93
565.23	45401.71
565.39	45448.52
565.56	45146.59
565.72	45067.02
565.88	45340.86
566.05	44949.99
566.21	45340.86
566.38	45425.12
566.54	45331.50
566.70	45338.52
566.87	46003.23
567.03	45516.40
567.19	46141.32
567.36	45951.74
567.52	45581.93
567.68	45165.32
567.85	45422.78
568.01	45385.33
568.17	45567.89
568.34	45682.58
568.50	45577.25
568.66	44931.26
568.83	45933.01
568.99	44992.12
569.15	45549.17
569.32	45574.91
569.48	45064.67
569.64	45656.83
569.81	45457.88
569.97	45799.60
570.13	45607.68
570.30	45111.49
570.46	44968.71
570.62	45123.19
570.78	44942.97
570.95	45436.82
571.11	45167.66
571.27	45392.35
571.43	45380.65
571.60	45968.12
571.76	45502.35
571.92	45769.18
572.09	45762.15
572.25	45577.25
572.41	45485.97
572.57	45867.48
572.74	45872.16
572.90	45476.61
573.06	45727.05
573.22	45450.86
573.38	45404.05
573.55	45394.69
573.71	46108.55
573.87	45705.98
574.03	45158.30
574.20	45724.71
574.36	45439.16
574.52	45390.01
574.68	45748.11
574.84	45652.15
575.01	45570.23
575.17	45799.60
575.33	45649.81
575.49	45322.13
575.65	45698.96
575.82	45464.91
575.98	45237.87
576.14	45968.12
576.30	45757.47
576.46	45450.86
576.62	45640.45
576.79	45532.78
576.95	45179.36
577.11	45897.91
577.27	45921.31
577.43	45813.65
577.59	45565.55
577.75	45549.17
577.92	45572.57
578.08	45385.33
578.24	45628.74
578.40	45504.70
578.56	45757.47
578.72	45546.82
578.88	46026.63
579.04	45626.40
579.21	45715.34
579.37	45429.80
579.53	45792.58
579.69	45340.86
579.85	45226.17
580.01	46241.96
580.17	45509.38
580.33	45717.68
580.49	45799.60
580.65	45736.41
580.82	45654.49
580.98	45570.23
581.14	45485.97
581.30	46176.43
581.46	45326.81
581.62	45991.53
581.78	45935.35
581.94	45982.16
582.10	45776.20
582.26	46256.01
582.42	45467.25
582.58	45722.37
582.74	45911.95
582.90	45825.35
583.06	46138.98
583.22	45909.61
583.38	45766.84
583.54	45972.80
583.70	45947.06
583.86	45792.58
584.02	45509.38
584.18	45951.74
584.34	45734.07
584.50	45832.37
584.66	45888.54
584.82	45640.45
584.98	46160.05
585.14	45734.07
585.30	45153.62
585.46	45464.91
585.62	45371.28
585.78	45731.73
585.94	45411.07
586.10	45607.68
586.26	45579.59
586.42	45514.06
586.58	46082.81
586.74	46017.27
586.90	45635.77
587.06	45839.39
587.22	45551.51
587.38	45544.48
587.54	45977.48
587.70	45991.53
587.86	45500.01
588.02	45874.50
588.18	45579.59
588.34	45570.23
588.49	45270.64
588.65	45514.06
588.81	45340.86
588.97	45132.55
589.13	45853.44
589.29	45020.20
589.45	45546.82
589.61	45617.04
589.77	45837.05
589.93	46131.96
590.08	45921.31
