SpectraSuite Data File
++++++++++++++++++++++++++++++++++++
Date: Fri Oct 25 11:33:49 EDT 2013
User: price-jones
Dark Spectrum Present: No
Reference Spectrum Present: No
Number of Sampled Component Spectra: 1
Spectrometers: USB2+H05261
Integration Time (usec): 100000 (USB2+H05261)
Spectra Averaged: 1 (USB2+H05261)
Boxcar Smoothing: 0 (USB2+H05261)
Correct for Electrical Dark: No (USB2+H05261)
Strobe/Lamp Enabled: No (USB2+H05261)
Correct for Detector Non-linearity: No (USB2+H05261)
Correct for Stray Light: No (USB2+H05261)
Number of Pixels in Processed Spectrum: 2048
>>>>>Begin Processed Spectral Data<<<<<
365.73	290.23
365.92	290.23
366.12	290.23
366.32	133.41
366.52	135.75
366.72	198.95
366.91	163.84
367.11	147.45
367.31	145.11
367.51	67.88
367.70	231.71
367.90	161.50
368.10	170.86
368.30	220.01
368.49	156.82
368.69	201.29
368.89	196.60
369.09	112.35
369.28	212.99
369.48	241.08
369.68	154.48
369.87	227.03
370.07	201.29
370.27	325.33
370.47	334.70
370.66	505.56
370.86	559.39
371.06	503.22
371.25	528.96
371.45	582.79
371.65	578.11
371.84	559.39
372.04	561.73
372.24	610.88
372.44	662.37
372.63	603.86
372.83	587.47
373.03	587.47
373.22	610.88
373.42	624.92
373.62	662.37
373.81	601.52
374.01	671.73
374.21	622.58
374.40	655.35
374.60	648.33
374.79	643.65
374.99	678.76
375.19	674.07
375.38	704.50
375.58	653.01
375.78	699.82
375.97	660.03
376.17	678.76
376.37	641.31
376.56	697.48
376.76	718.54
376.95	676.41
377.15	620.24
377.35	720.88
377.54	676.41
377.74	678.76
377.93	697.48
378.13	718.54
378.33	741.95
378.52	692.80
378.72	709.18
378.91	709.18
379.11	706.84
379.31	730.25
379.50	800.46
379.70	753.65
379.89	589.82
380.09	737.27
380.28	777.06
380.48	725.57
380.68	671.73
380.87	669.39
381.07	828.55
381.26	713.86
381.46	751.31
381.65	730.25
381.85	741.95
382.04	760.67
382.24	770.04
382.43	812.17
382.63	758.33
382.83	849.61
383.02	826.21
383.22	781.74
383.41	741.95
383.61	819.19
383.80	835.57
384.00	823.87
384.19	784.08
384.39	847.27
384.58	781.74
384.78	917.49
384.97	809.83
385.17	800.46
385.36	779.40
385.56	866.00
385.75	964.30
385.95	858.98
386.14	807.48
386.34	873.02
386.53	966.64
386.72	896.43
386.92	894.08
387.11	983.02
387.31	849.61
387.50	882.38
387.70	821.53
387.89	802.80
388.09	840.25
388.28	889.40
388.48	971.32
388.67	903.45
388.86	917.49
389.06	950.26
389.25	912.81
389.45	884.72
389.64	908.13
389.84	903.45
390.03	905.79
390.22	954.94
390.42	896.43
390.61	940.90
390.81	919.83
391.00	929.19
391.19	1029.84
391.39	983.02
391.58	1076.65
391.78	997.07
391.97	990.05
392.16	994.73
392.36	1011.11
392.55	987.71
392.75	961.96
392.94	1123.46
393.13	1046.22
393.33	1078.99
393.52	1039.20
393.71	1062.60
393.91	1153.88
394.10	973.66
394.29	1130.48
394.49	1074.31
394.68	1160.91
394.88	1067.28
395.07	1144.52
395.26	1146.86
395.46	1130.48
395.65	1196.01
395.84	1093.03
396.04	1296.66
396.23	1088.35
396.42	1128.14
396.62	1163.25
396.81	1277.93
397.00	1263.89
397.19	1221.76
397.39	1231.12
397.58	1200.69
397.77	1299.00
397.97	1226.44
398.16	1238.14
398.35	1303.68
398.55	1263.89
398.74	1235.80
398.93	1308.36
399.12	1275.59
399.32	1317.72
399.51	1380.92
399.70	1299.00
399.90	1334.11
400.09	1345.81
400.28	1355.17
400.47	1448.79
400.67	1416.02
400.86	1476.88
401.05	1416.02
401.24	1416.02
401.44	1528.37
401.63	1397.30
401.82	1493.26
402.01	1413.68
402.21	1390.28
402.40	1430.07
402.59	1497.94
402.78	1394.96
402.97	1544.75
403.17	1493.26
403.36	1511.99
403.55	1544.75
403.74	1586.88
403.93	1540.07
404.13	1682.85
404.32	1556.46
404.51	1486.24
404.70	1661.78
404.89	1624.33
405.09	1727.32
405.28	1734.34
405.47	1647.74
405.66	1703.91
405.85	1771.79
406.05	1673.48
406.24	1682.85
406.43	1757.74
406.62	1724.97
406.81	1874.77
407.00	1685.19
407.20	1720.29
407.39	1806.89
407.58	1804.55
407.77	1926.26
407.96	1905.20
408.15	1872.43
408.34	1865.41
408.54	1930.94
408.73	1830.30
408.92	1827.96
409.11	1919.24
409.30	1989.46
409.49	1923.92
409.68	2024.56
409.87	2019.88
410.07	2129.89
410.26	2141.59
410.45	2052.65
410.64	2150.95
410.83	2190.74
411.02	2167.34
411.21	2057.33
411.40	2242.23
411.59	2218.83
411.78	2172.02
411.98	2260.96
412.17	2176.70
412.36	2256.28
412.55	2326.49
412.74	2363.94
412.93	2377.98
413.12	2216.49
413.31	2452.88
413.50	2422.45
413.69	2471.61
413.88	2485.65
414.07	2469.27
414.26	2469.27
414.45	2534.80
414.64	2516.08
414.83	2621.40
415.02	2633.10
415.22	2607.36
415.41	2658.85
415.60	2712.68
415.79	2705.66
415.98	2642.46
416.17	2738.43
416.36	2806.30
416.55	2841.41
416.74	2731.41
416.93	2724.38
417.12	2848.43
417.31	2841.41
417.50	2967.80
417.69	2904.60
417.88	2995.89
418.07	2888.22
418.26	2949.08
418.45	2995.89
418.64	3038.02
418.83	3098.87
419.02	3042.70
419.21	3110.57
419.39	3194.83
419.58	3005.25
419.77	3155.04
419.96	3351.65
420.15	3155.04
420.34	3307.18
420.53	3129.30
420.72	3187.81
420.91	3232.28
421.10	3311.86
421.29	3265.05
421.48	3248.66
421.67	3211.22
421.86	3243.98
422.05	3400.80
422.24	3248.66
422.43	3461.65
422.61	3452.29
422.80	3274.41
422.99	3487.40
423.18	3396.12
423.37	3410.16
423.56	3569.32
423.75	3304.84
423.94	3421.86
424.13	3251.00
424.32	3318.88
424.50	3501.44
424.69	3517.83
424.88	3482.72
425.07	3410.16
425.26	3384.41
425.45	3529.53
425.64	3503.78
425.83	3396.12
426.01	3431.23
426.20	3499.10
426.39	3482.72
426.58	3541.23
426.77	3536.55
426.96	3660.60
427.15	3609.11
427.33	3475.70
427.52	3529.53
427.71	3644.21
427.90	3623.15
428.09	3716.77
428.28	3632.51
428.46	3719.11
428.65	3695.71
428.84	3756.56
429.03	3904.01
429.22	3723.79
429.40	3770.60
429.59	3901.67
429.78	3749.54
429.97	3665.28
430.16	3810.39
430.34	3824.44
430.53	3695.71
430.72	3831.46
430.91	3742.52
431.10	3894.65
431.28	3950.82
431.47	4065.51
431.66	3992.95
431.85	3950.82
432.03	4131.05
432.22	4058.49
432.41	4112.32
432.60	3934.44
432.79	4037.42
432.97	4056.15
433.16	4180.20
433.35	3990.61
433.54	4212.96
433.72	4266.80
433.91	4194.24
434.10	4161.47
434.28	4248.07
434.47	4194.24
434.66	4285.52
434.85	4297.22
435.03	4264.46
435.22	4182.54
435.41	4498.51
435.59	4503.19
435.78	4573.41
435.97	4559.36
436.16	4472.76
436.34	4374.46
436.53	4383.82
436.72	4636.60
436.90	4444.68
437.09	4526.60
437.28	4393.19
437.46	4517.23
437.65	4496.17
437.84	4608.51
438.02	4718.52
438.21	4697.46
438.40	4692.77
438.58	4788.74
438.77	4814.48
438.96	4727.88
439.14	4875.34
439.33	4961.94
439.52	5001.72
439.70	4992.36
439.89	4814.48
440.08	4936.19
440.26	5011.09
440.45	5177.26
440.63	5151.52
440.82	5172.58
441.01	5191.31
441.19	5142.16
441.38	5305.99
441.57	5210.03
441.75	5338.76
441.94	5383.23
442.12	5268.55
442.31	5392.59
442.50	5540.05
442.68	5322.38
442.87	5504.94
443.05	5362.17
443.24	5500.26
443.43	5458.13
443.61	5542.39
443.80	5839.64
443.98	5483.88
444.17	5359.83
444.35	5509.62
444.54	5589.20
444.73	5582.18
444.91	5556.43
445.10	5750.70
445.28	5689.84
445.47	5708.57
445.65	5605.58
445.84	5696.86
446.02	5731.97
446.21	5659.42
446.39	5537.71
446.58	5673.46
446.77	5734.31
446.95	5535.37
447.14	5841.98
447.32	5746.02
447.51	5643.03
447.69	5795.17
447.88	5767.08
448.06	5647.71
448.25	5825.59
448.43	5809.21
448.62	5940.28
448.80	5790.49
448.99	5996.45
449.17	6005.81
449.36	5753.04
449.54	5912.19
449.73	5959.00
449.91	6073.69
450.10	6108.80
450.28	6214.12
450.46	6157.95
450.65	6181.35
450.83	6162.63
451.02	6061.99
451.20	6251.57
451.39	6120.50
451.57	6253.91
451.76	6282.00
451.94	6127.52
452.13	6352.21
452.31	6331.15
452.49	6174.33
452.68	6249.23
452.86	6193.06
453.05	6427.11
453.23	6296.04
453.42	6326.47
453.60	6279.66
453.78	6370.94
453.97	6455.20
454.15	6387.32
454.34	6298.38
454.52	6434.13
454.70	6581.59
454.89	6637.76
455.07	6672.87
455.26	6745.42
455.44	6644.78
455.62	6778.19
455.81	6759.47
455.99	6810.96
456.17	6752.45
456.36	6775.85
456.54	6792.23
456.73	6942.03
456.91	6846.07
457.09	7103.53
457.28	7164.38
457.46	7042.67
457.64	6937.35
457.83	7049.69
458.01	6953.73
458.19	7316.51
458.38	6972.46
458.56	7218.21
458.74	7208.85
458.93	7269.70
459.11	7087.14
459.29	7171.40
459.48	7265.02
459.66	7218.21
459.84	7274.38
460.03	7506.10
460.21	7609.08
460.39	7300.13
460.57	7337.58
460.76	7461.63
460.94	7693.34
461.12	7552.91
461.31	7573.97
461.49	7398.43
461.67	7571.63
461.85	7653.55
462.04	7581.00
462.22	8056.12
462.40	7611.42
462.59	7719.09
462.77	7583.34
462.95	7824.41
463.13	7679.30
463.32	7765.90
463.50	7887.61
463.68	7918.03
463.86	7817.39
464.05	7768.24
464.23	7880.58
464.41	7906.33
464.59	7887.61
464.78	7960.16
464.96	7934.42
465.14	8013.99
465.32	8252.73
465.50	8006.97
465.69	8063.15
465.87	8009.31
466.05	8222.30
466.23	8147.40
466.41	8156.77
466.60	8238.69
466.78	8187.19
466.96	8154.43
467.14	8121.66
467.32	8400.18
467.51	8425.93
467.69	8149.75
467.87	8592.11
468.05	8393.16
468.23	8175.49
468.41	8147.40
468.60	8491.46
468.78	8542.96
468.96	8683.39
469.14	8521.89
469.32	8699.77
469.50	8318.26
469.69	8868.29
469.87	8503.17
470.05	8730.20
470.23	8793.39
470.41	8655.30
470.59	8730.20
470.77	8924.46
470.95	8788.71
471.14	9055.53
471.32	8816.80
471.50	9034.47
471.68	8910.42
471.86	8933.82
472.04	9090.64
472.22	9294.27
472.40	9298.95
472.58	9348.10
472.77	9137.45
472.95	9486.19
473.13	9504.92
473.31	9305.97
473.49	9376.19
473.67	9233.41
473.85	9261.50
474.03	9724.93
474.21	9631.30
474.39	9818.55
474.57	9605.56
474.75	9909.83
474.93	10005.79
475.12	9926.21
475.30	10193.03
475.48	10071.33
475.66	10090.05
475.84	10178.99
476.02	10274.95
476.20	10438.79
476.38	10431.77
476.56	10717.31
476.74	10553.48
476.92	10408.36
477.10	10434.11
477.28	10480.92
477.46	10562.84
477.64	10916.26
477.82	11218.19
478.00	11197.12
478.18	11115.20
478.36	11080.10
478.54	11316.49
478.72	11316.49
478.90	11599.70
479.08	11714.38
479.26	11763.53
479.44	11356.28
479.62	11803.32
479.80	11817.36
479.98	11805.66
480.16	12299.52
480.34	12049.08
480.52	12264.41
480.70	12098.23
480.88	12255.04
481.06	12439.95
481.24	12299.52
481.41	12491.44
481.59	12982.95
481.77	12781.67
481.95	12924.44
482.13	13205.30
482.31	12776.98
482.49	13170.19
482.67	13364.46
482.85	13308.29
483.03	13570.43
483.21	13678.09
483.39	13738.94
483.57	13680.43
483.74	14115.77
483.92	13855.97
484.10	13926.19
484.28	14338.12
484.46	14431.74
484.64	14857.72
484.82	14317.06
485.00	14520.68
485.18	14654.09
485.35	15103.48
485.53	14967.73
485.71	15255.61
485.89	15487.32
486.07	15222.84
486.25	15321.15
486.43	15370.30
486.61	15576.27
486.78	16135.65
486.96	15707.34
487.14	16016.29
487.32	16023.31
487.50	15985.86
487.68	16294.81
487.85	16730.15
488.03	16704.40
488.21	17153.79
488.39	16980.59
488.57	17099.95
488.75	17128.04
488.92	17425.29
489.10	17525.93
489.28	17692.11
489.46	17488.48
489.64	18019.78
489.81	18139.15
489.99	17872.33
490.17	18178.94
490.35	18302.99
490.53	18427.04
490.70	18696.20
490.88	18878.76
491.06	18864.72
491.24	18843.65
491.41	18972.38
491.59	19346.87
491.77	19105.79
491.95	19417.08
492.13	19733.06
492.30	19557.52
492.48	19566.88
492.66	19812.63
492.84	20002.22
493.01	20152.01
493.19	20100.52
493.37	20423.51
493.54	20365.00
493.72	20622.46
493.90	20711.40
494.08	20716.08
494.25	20837.79
494.43	20886.94
494.61	21298.88
494.79	21483.78
494.96	21083.55
495.14	21483.78
495.32	21671.02
495.49	21455.69
495.67	21933.16
495.85	21919.12
496.02	22272.54
496.20	22167.21
496.38	22375.52
496.55	22515.95
496.73	22927.89
496.91	22532.34
497.09	22457.44
497.26	22923.21
497.44	22705.54
497.62	23398.34
497.79	23190.03
497.97	23248.54
498.14	23388.97
498.32	23690.90
498.50	23791.55
498.67	23885.17
498.85	23969.43
499.03	23821.97
499.20	24348.59
499.38	24613.07
499.56	24030.28
499.73	24271.36
499.91	24620.10
500.08	24547.54
500.26	24505.41
500.44	24734.78
500.61	24575.62
500.79	24900.96
500.97	25200.55
501.14	25095.22
501.32	25228.63
501.49	25408.86
501.67	25060.12
501.84	25603.12
502.02	25511.84
502.20	25942.50
502.37	25521.20
502.55	25781.00
502.72	25923.77
502.90	25954.20
503.07	26045.48
503.25	25912.07
503.43	25907.39
503.60	26359.11
503.78	26651.68
503.95	26551.04
504.13	26738.28
504.30	26785.09
504.48	26408.26
504.65	26932.54
504.83	27058.93
505.01	27103.40
505.18	27117.45
505.36	27510.66
505.53	27370.22
505.71	27482.57
505.88	27669.81
506.06	26890.41
506.23	27871.10
506.41	27496.61
506.58	27688.54
506.76	28048.98
506.93	28060.68
507.11	27894.50
507.28	28201.11
507.46	28301.76
507.63	28175.37
507.81	28386.02
507.98	28210.48
508.16	28697.31
508.33	28517.09
508.50	29111.58
508.68	28730.08
508.85	28664.54
509.03	28613.05
509.20	29003.92
509.38	29289.46
509.55	29355.00
509.73	29195.84
509.90	29123.29
510.08	29455.64
510.25	29582.03
510.42	29553.94
510.60	29631.18
510.77	30022.05
510.95	29935.45
511.12	29790.34
511.30	30085.25
511.47	30249.08
511.64	29844.17
511.82	30618.89
511.99	29977.58
512.17	30274.83
512.34	30398.88
512.51	30740.60
512.69	30728.89
512.86	30794.43
513.04	30909.11
513.21	31194.66
513.38	30960.61
513.56	31227.43
513.73	30782.73
513.90	31328.07
514.08	30974.65
514.25	31522.34
514.43	31332.75
514.60	31674.47
514.77	31798.52
514.95	31580.85
515.12	31613.62
515.29	31697.88
515.47	32165.98
515.64	31948.31
515.81	31889.80
515.99	32460.89
516.16	32360.25
516.33	32198.75
516.51	32446.85
516.68	32409.40
516.85	32432.80
517.03	32584.94
517.20	33015.60
517.37	32512.38
517.54	32737.07
517.72	32701.96
517.89	32589.62
518.06	33078.79
518.24	33069.43
518.41	33053.05
518.58	32910.27
518.75	32594.30
518.93	33333.91
519.10	33619.46
519.27	33649.88
519.45	33404.13
519.62	33401.79
519.79	33598.39
519.96	33326.89
520.14	34012.66
520.31	34071.18
520.48	33677.97
520.65	34085.22
520.83	34244.38
521.00	34293.53
521.17	34333.32
521.34	34717.17
521.52	34227.99
521.69	34267.78
521.86	34520.56
522.03	34768.66
522.20	34338.00
522.38	35168.89
522.55	34785.04
522.72	34939.52
522.89	35014.41
523.07	35290.60
523.24	34983.99
523.41	35262.51
523.58	35091.65
523.75	35342.09
523.92	35550.40
524.10	35470.82
524.27	35597.21
524.44	35604.23
524.61	35292.94
524.78	35480.18
524.96	35629.98
525.13	36236.17
525.30	36297.03
525.47	36182.34
525.64	35967.01
525.81	36535.76
525.98	36526.40
526.16	36465.55
526.33	35878.07
526.50	36704.28
526.67	36376.61
526.84	36540.44
527.01	36364.90
527.18	36388.31
527.36	36514.70
527.53	36821.31
527.70	36753.43
527.87	37228.56
528.04	36711.30
528.21	36673.85
528.38	37064.72
528.55	37397.08
528.72	37148.98
528.89	37497.72
529.07	37179.41
529.24	36737.05
529.41	37401.76
529.58	37392.40
529.75	37361.97
529.92	37429.85
530.09	37762.20
530.26	37825.40
530.43	37434.53
530.60	37876.89
530.77	37380.70
530.94	38005.62
531.11	37500.06
531.28	37361.97
531.46	37722.41
531.63	38251.38
531.80	38071.15
531.97	38529.90
532.14	38380.10
532.31	38134.35
532.48	37975.19
532.65	38431.60
532.82	38529.90
532.99	38368.40
533.16	38099.24
533.33	38588.41
533.50	39028.43
533.67	38319.25
533.84	38836.51
534.01	38864.60
534.18	38876.30
534.35	39208.65
534.52	38913.75
534.69	39180.57
534.86	39075.24
535.03	39276.53
535.20	39023.75
535.37	39108.01
535.54	39655.70
535.71	39438.03
535.88	39571.44
536.05	39225.04
536.22	40147.21
536.38	39545.69
536.55	39335.04
536.72	40044.23
536.89	39625.27
537.06	39732.93
537.23	40444.46
537.40	39842.94
537.57	39803.15
537.74	39903.79
537.91	40095.72
538.08	39955.29
538.25	40006.78
538.42	40542.76
538.59	40233.81
538.75	39695.49
538.92	40446.80
539.09	40657.45
539.26	40208.06
539.43	40531.06
539.60	40598.93
539.77	40507.65
539.94	41017.89
540.11	40875.12
540.28	40849.37
540.44	40636.38
540.61	40975.76
540.78	40622.34
540.95	40790.86
541.12	40648.08
541.29	40570.85
541.46	41282.37
541.62	40942.99
541.79	41055.34
541.96	40409.35
542.13	40842.35
542.30	41209.81
542.47	41570.25
542.63	41633.45
542.80	41490.68
542.97	41933.04
543.14	41467.27
543.31	41958.78
543.48	41434.50
543.64	41977.51
543.81	42298.16
543.98	41879.21
544.15	42232.63
544.32	42164.75
544.48	42251.35
544.65	42251.35
544.82	42639.88
544.99	42134.32
545.16	42256.03
545.32	41752.82
545.49	42642.22
545.66	42604.77
545.83	42525.19
546.00	42766.27
546.16	42349.65
546.33	42045.38
546.50	42719.46
546.67	42981.60
546.83	42497.11
547.00	42796.70
547.17	42274.76
547.34	42637.54
547.50	42777.97
547.67	43072.88
547.84	42944.15
548.00	42787.33
548.17	43370.13
548.34	43384.17
548.51	42995.64
548.67	43037.77
548.84	43786.74
549.01	43126.71
549.18	43365.45
549.34	43077.56
549.51	43531.62
549.68	43426.30
549.84	43442.68
550.01	43665.03
550.18	43033.09
550.34	43618.22
550.51	43601.84
550.68	43143.09
550.84	43412.26
551.01	43763.34
551.18	43447.36
551.34	43592.48
551.51	43498.86
551.68	43779.72
551.84	43732.91
552.01	43775.04
552.18	44121.44
552.34	43672.06
552.51	43805.47
552.68	43807.81
552.84	43796.10
553.01	44383.58
553.18	44055.90
553.34	44376.56
553.51	43739.93
553.67	44516.99
553.84	44311.02
554.01	44472.52
554.17	44299.32
554.34	44570.82
554.51	44299.32
554.67	44568.48
554.84	44526.35
555.00	44275.91
555.17	44472.52
555.33	44318.04
555.50	44414.01
555.67	44177.61
555.83	44790.83
556.00	44737.00
556.16	45109.14
556.33	44917.22
556.50	44481.88
556.66	44662.10
556.83	44313.36
556.99	44980.42
557.16	44905.52
557.32	45221.49
557.49	44966.37
557.65	45043.61
557.82	45031.91
557.98	45008.50
558.15	44919.56
558.32	45202.77
558.48	45165.32
558.65	44959.35
558.81	44924.24
558.98	45052.97
559.14	44893.82
559.31	45116.17
559.47	45469.59
559.64	45284.68
559.80	45261.28
559.97	45368.94
560.13	45069.36
560.30	45123.19
560.46	45628.74
560.63	45132.55
560.79	45865.14
560.96	45705.98
561.12	45815.99
561.29	45811.31
561.45	45710.66
561.61	46050.04
561.78	45928.33
561.94	46017.27
562.11	45422.78
562.27	45687.26
562.44	45642.79
562.60	46080.47
562.77	45755.13
562.93	45698.96
563.10	46143.66
563.26	45895.56
563.42	46206.86
563.59	45703.64
563.75	45972.80
563.92	45984.51
564.08	45689.60
564.24	46309.84
564.41	45944.72
564.57	45909.61
564.74	45855.78
564.90	45888.54
565.07	45984.51
565.23	45745.77
565.39	46157.70
565.56	46157.70
565.72	46241.96
565.88	46349.63
566.05	46003.23
566.21	45991.53
566.38	46073.45
566.54	46206.86
566.70	46185.79
566.87	46321.54
567.03	46164.73
567.19	46096.85
567.36	46323.88
567.52	46464.32
567.68	46480.70
567.85	46450.27
568.01	46131.96
568.17	46160.05
568.34	46866.89
568.50	46490.06
568.66	46312.18
568.83	46635.17
568.99	46274.73
569.15	46225.58
569.32	46401.12
569.48	46272.39
569.64	46710.07
569.81	46677.30
569.97	46548.57
570.13	46670.28
570.30	46562.62
570.46	46763.90
570.62	46363.67
570.78	46529.85
570.95	46555.60
571.11	46534.53
571.27	46522.83
571.43	46351.97
571.60	46536.87
571.76	46539.21
571.92	46548.57
572.09	46532.19
572.25	46419.84
572.41	46649.22
572.57	46307.50
572.74	47166.48
572.90	46752.20
573.06	46897.31
573.22	46492.40
573.38	46969.87
573.55	46855.18
573.71	46953.49
573.87	47171.16
574.03	46515.81
574.20	47166.48
574.36	46717.09
574.52	47075.19
574.68	46934.76
574.84	47091.58
575.01	47257.76
575.17	46742.84
575.33	46939.44
575.49	46993.28
575.65	47365.42
575.82	46918.38
575.98	46616.45
576.14	47143.07
576.30	47271.80
576.46	47122.01
576.62	47215.63
576.79	46794.33
576.95	46293.46
577.11	46815.40
577.27	47091.58
577.43	46997.96
577.59	46623.47
577.75	47215.63
577.92	46272.39
578.08	47325.63
578.24	46848.16
578.40	46866.89
578.56	46983.91
578.72	47175.84
578.88	47065.83
579.04	46756.88
579.21	47075.19
579.37	47030.72
579.53	47267.12
579.69	46920.72
579.85	47063.49
580.01	46990.94
580.17	47042.43
580.33	47100.94
580.49	47393.51
580.65	46983.91
580.82	47033.07
580.98	46941.78
581.14	47086.90
581.30	46852.84
581.46	46979.23
581.62	47185.20
581.78	47054.13
581.94	47430.96
582.10	47063.49
582.26	47402.87
582.42	47498.83
582.58	47454.36
582.74	47412.23
582.90	47124.35
583.06	47150.09
583.22	47208.61
583.38	46784.97
583.54	47313.93
583.70	47426.28
583.86	47587.77
584.02	47138.39
584.18	47875.66
584.34	47334.99
584.50	47760.97
584.66	47662.67
584.82	47203.92
584.98	47728.20
585.14	47494.15
585.30	47260.10
585.46	47519.90
585.62	47164.14
585.78	47187.54
585.94	47068.17
586.10	47175.84
586.26	47091.58
586.42	46937.10
586.58	47538.62
586.74	47164.14
586.90	46941.78
587.06	47194.56
587.22	47533.94
587.38	47407.55
587.54	47767.99
587.70	47592.45
587.86	47351.38
588.02	47004.98
588.18	47629.90
588.34	47180.52
588.49	47445.00
588.65	47250.74
588.81	47004.98
588.97	47641.60
589.13	46714.75
589.29	47306.91
589.45	47707.14
589.61	47430.96
589.77	47559.69
589.93	47187.54
590.08	47683.73
