SpectraSuite Data File
++++++++++++++++++++++++++++++++++++
Date: Fri Oct 25 11:23:58 EDT 2013
User: price-jones
Dark Spectrum Present: No
Reference Spectrum Present: No
Number of Sampled Component Spectra: 1
Spectrometers: USB2+H05261
Integration Time (usec): 100000 (USB2+H05261)
Spectra Averaged: 1 (USB2+H05261)
Boxcar Smoothing: 0 (USB2+H05261)
Correct for Electrical Dark: No (USB2+H05261)
Strobe/Lamp Enabled: No (USB2+H05261)
Correct for Detector Non-linearity: No (USB2+H05261)
Correct for Stray Light: No (USB2+H05261)
Number of Pixels in Processed Spectrum: 2048
>>>>>Begin Processed Spectral Data<<<<<
365.73	250.44
365.92	250.44
366.12	250.44
366.32	168.52
366.52	93.62
366.72	142.77
366.91	112.35
367.11	81.92
367.31	88.94
367.51	114.69
367.70	128.73
367.90	149.79
368.10	126.39
368.30	149.79
368.49	180.22
368.69	201.29
368.89	126.39
369.09	135.75
369.28	84.26
369.48	198.95
369.68	208.31
369.87	177.88
370.07	227.03
370.27	238.73
370.47	355.76
370.66	568.75
370.86	699.82
371.06	571.09
371.25	734.93
371.45	702.16
371.65	636.63
371.84	706.84
372.04	636.63
372.24	706.84
372.44	751.31
372.63	678.76
372.83	678.76
373.03	814.51
373.22	812.17
373.42	807.48
373.62	816.85
373.81	795.78
374.01	788.76
374.21	772.38
374.40	809.83
374.60	896.43
374.79	863.66
374.99	830.89
375.19	877.70
375.38	873.02
375.58	835.57
375.78	891.74
375.97	938.55
376.17	851.96
376.37	791.10
376.56	854.30
376.76	912.81
376.95	922.17
377.15	873.02
377.35	877.70
377.54	889.40
377.74	905.79
377.93	873.02
378.13	933.87
378.33	940.90
378.52	847.27
378.72	992.39
378.91	910.47
379.11	936.21
379.31	929.19
379.50	891.74
379.70	959.62
379.89	1071.97
380.09	947.92
380.28	887.06
380.48	1008.77
380.68	997.07
380.87	936.21
381.07	978.34
381.26	1022.81
381.46	1057.92
381.65	1069.62
381.85	1076.65
382.04	999.41
382.24	1055.58
382.43	1064.94
382.63	1067.28
382.83	1069.62
383.02	1100.05
383.22	1076.65
383.41	1060.26
383.61	1135.16
383.80	1139.84
384.00	1153.88
384.19	1191.33
384.39	1109.41
384.58	1184.31
384.78	1107.07
384.97	1081.33
385.17	1174.95
385.36	1184.31
385.56	1071.97
385.75	1071.97
385.95	1165.59
386.14	1284.95
386.34	1203.04
386.53	1254.53
386.72	1153.88
386.92	1233.46
387.11	1205.38
387.31	1261.55
387.50	1224.10
387.70	1231.12
387.89	1200.69
388.09	1268.57
388.28	1310.70
388.48	1235.80
388.67	1306.02
388.86	1352.83
389.06	1329.42
389.25	1310.70
389.45	1350.49
389.64	1273.25
389.84	1401.98
390.03	1385.60
390.22	1369.21
390.42	1369.21
390.61	1352.83
390.81	1376.24
391.00	1425.39
391.19	1486.24
391.39	1371.55
391.58	1474.54
391.78	1521.35
391.97	1451.13
392.16	1432.41
392.36	1511.99
392.55	1572.84
392.75	1540.07
392.94	1570.50
393.13	1497.94
393.33	1497.94
393.52	1453.47
393.71	1605.61
393.91	1598.59
394.10	1624.33
394.29	1575.18
394.49	1582.20
394.68	1717.95
394.88	1619.65
395.07	1717.95
395.26	1668.80
395.46	1720.29
395.65	1673.48
395.84	1703.91
396.04	1757.74
396.23	1699.23
396.42	1788.17
396.62	1743.70
396.81	1760.08
397.00	1790.51
397.19	1792.85
397.39	1851.36
397.58	1952.01
397.77	1851.36
397.97	1930.94
398.16	1944.99
398.35	1898.17
398.55	1952.01
398.74	1870.09
398.93	1923.92
399.12	1923.92
399.32	2022.22
399.51	1940.30
399.70	2094.78
399.90	1956.69
400.09	1942.64
400.28	2043.29
400.47	1895.83
400.67	2010.52
400.86	2040.95
401.05	2162.66
401.24	1994.14
401.44	2083.08
401.63	2181.38
401.82	2225.85
402.01	2197.76
402.21	2195.42
402.40	2141.59
402.59	2165.00
402.78	2176.70
402.97	2270.32
403.17	2289.04
403.36	2260.96
403.55	2282.02
403.74	2469.27
403.93	2363.94
404.13	2382.67
404.32	2359.26
404.51	2275.00
404.70	2389.69
404.89	2258.62
405.09	2455.22
405.28	2480.97
405.47	2532.46
405.66	2534.80
405.85	2448.20
406.05	2480.97
406.24	2670.55
406.43	2546.50
406.62	2612.04
406.81	2710.34
407.00	2567.57
407.20	2560.55
407.39	2602.68
407.58	2738.43
407.77	2715.02
407.96	2691.62
408.15	2677.57
408.34	2712.68
408.54	2860.13
408.73	2752.47
408.92	2829.71
409.11	2799.28
409.30	2848.43
409.49	2944.39
409.68	2944.39
409.87	2986.52
410.07	2949.08
410.26	3073.12
410.45	2963.12
410.64	3019.29
410.83	3087.17
411.02	3019.29
411.21	3187.81
411.40	3201.85
411.59	3222.92
411.78	3199.51
411.98	3225.26
412.17	3227.60
412.36	3363.35
412.55	3328.24
412.74	3503.78
412.93	3346.97
413.12	3365.69
413.31	3623.15
413.50	3602.08
413.69	3475.70
413.88	3478.04
414.07	3595.06
414.26	3513.14
414.45	3536.55
414.64	3665.28
414.83	3707.41
415.02	3801.03
415.22	3786.99
415.41	3829.12
415.60	3892.31
415.79	3990.61
415.98	3962.53
416.17	4049.13
416.36	3913.38
416.55	4060.83
416.74	4067.85
416.93	4037.42
417.12	4124.02
417.31	4297.22
417.50	4243.39
417.69	4250.41
417.88	4320.63
418.07	4173.18
418.26	4280.84
418.45	4393.19
418.64	4458.72
418.83	4374.46
419.02	4421.27
419.21	4601.49
419.39	4622.56
419.58	4379.14
419.77	4521.92
419.96	4540.64
420.15	4564.04
420.34	4631.92
420.53	4596.81
420.72	4716.18
420.91	4678.73
421.10	4678.73
421.29	4833.21
421.48	4748.95
421.67	4730.22
421.86	4957.25
422.05	4697.46
422.24	4784.06
422.43	4777.03
422.61	4865.97
422.80	4922.15
422.99	4884.70
423.18	5006.41
423.37	5048.54
423.56	4910.44
423.75	4896.40
423.94	4711.50
424.13	4484.47
424.32	4814.48
424.50	4980.66
424.69	5034.49
424.88	4961.94
425.07	5004.07
425.26	4997.04
425.45	4971.30
425.64	5015.77
425.83	5022.79
426.01	5060.24
426.20	5226.42
426.39	5184.29
426.58	5163.22
426.77	5097.69
426.96	5132.79
427.15	5076.62
427.33	5195.99
427.52	5315.36
427.71	5144.50
427.90	5203.01
428.09	5369.19
428.28	5364.51
428.46	5287.27
428.65	5423.02
428.84	5509.62
429.03	5526.00
429.22	5200.67
429.40	5490.90
429.59	5589.20
429.78	5420.68
429.97	5378.55
430.16	5397.28
430.34	5647.71
430.53	5614.95
430.72	5551.75
430.91	5479.19
431.10	5600.90
431.28	5703.89
431.47	5668.78
431.66	5823.25
431.85	5799.85
432.03	5863.04
432.22	6010.50
432.41	5980.07
432.60	6040.92
432.79	5947.30
432.97	5954.32
433.16	6094.76
433.35	6061.99
433.54	6033.90
433.72	6221.14
433.91	6270.30
434.10	6267.95
434.28	6099.44
434.47	6326.47
434.66	6129.86
434.85	6408.39
435.03	6204.76
435.22	6265.61
435.41	6551.16
435.59	6450.52
435.78	6242.21
435.97	6450.52
436.16	6581.59
436.34	6553.50
436.53	6457.54
436.72	6602.65
436.90	6562.86
437.09	6691.59
437.28	6509.03
437.46	6576.91
437.65	6761.81
437.84	6710.32
438.02	6738.40
438.21	6773.51
438.40	6754.79
438.58	6998.20
438.77	7098.84
438.96	6899.90
439.14	7054.37
439.33	7178.42
439.52	7243.96
439.70	7140.97
439.89	7253.32
440.08	7386.73
440.26	7592.70
440.45	7487.37
440.63	7473.33
440.82	7541.21
441.01	7424.18
441.19	7744.83
441.38	7756.54
441.57	7719.09
441.75	7655.89
441.94	7882.92
442.12	7983.57
442.31	7936.76
442.50	8105.28
442.68	8088.89
442.87	8065.49
443.05	7976.55
443.24	8140.38
443.43	8400.18
443.61	8166.13
443.80	8266.77
443.98	8023.36
444.17	7810.37
444.35	8121.66
444.54	8372.10
444.73	8229.32
444.91	8400.18
445.10	8397.84
445.28	8470.40
445.47	8210.60
445.65	8496.14
445.84	8423.59
446.02	8451.67
446.21	8313.58
446.39	8524.23
446.58	8519.55
446.77	8439.97
446.95	8217.62
447.14	8500.83
447.32	8557.00
447.51	8414.23
447.69	8610.83
447.88	8547.64
448.06	8484.44
448.25	8645.94
448.43	8709.13
448.62	8645.94
448.80	8416.57
448.99	8685.73
449.17	8755.94
449.36	8554.66
449.54	8812.12
449.73	9104.68
449.91	9118.73
450.10	8919.78
450.28	9015.74
450.46	9261.50
450.65	9008.72
450.83	8875.31
451.02	9062.55
451.20	9308.31
451.39	9205.33
451.57	9135.11
451.76	9249.80
451.94	9071.92
452.13	9193.62
452.31	9315.33
452.49	9233.41
452.68	9577.47
452.86	9298.95
453.05	9247.46
453.23	9570.45
453.42	9458.10
453.60	9448.74
453.78	9593.86
453.97	9593.86
454.15	9481.51
454.34	9589.17
454.52	9626.62
454.70	9575.13
454.89	9600.88
455.07	9741.31
455.26	9848.97
455.44	9872.38
455.62	10001.11
455.81	9802.16
455.99	9816.21
456.17	9799.82
456.36	10181.33
456.54	10317.08
456.73	10286.65
456.91	10441.13
457.09	10506.66
457.28	10300.70
457.46	10307.72
457.64	10700.93
457.83	10534.75
458.01	10296.02
458.19	10703.27
458.38	10408.36
458.56	10810.93
458.74	10808.59
458.93	10787.53
459.11	10721.99
459.29	10956.05
459.48	10892.85
459.66	10782.85
459.84	10820.30
460.03	11021.58
460.21	11232.23
460.39	11140.95
460.57	11185.42
460.76	11115.20
460.94	11211.17
461.12	11199.46
461.31	11330.53
461.49	11173.72
461.67	11056.69
461.85	11562.25
462.04	11599.70
462.22	11250.96
462.40	11658.21
462.59	11456.92
462.77	11580.97
462.95	11602.04
463.13	11531.82
463.32	11592.67
463.50	11681.61
463.68	11784.60
463.86	11791.62
464.05	11637.14
464.23	11559.91
464.41	11910.99
464.59	11822.05
464.78	12070.14
464.96	11948.43
465.14	11871.20
465.32	12074.82
465.50	12060.78
465.69	12390.80
465.87	12095.89
466.05	12208.23
466.23	12135.68
466.41	12233.98
466.60	12449.31
466.78	12023.33
466.96	12285.47
467.14	12283.13
467.32	12589.74
467.51	12556.97
467.69	12224.62
467.87	12393.14
468.05	12695.07
468.23	12622.51
468.41	12730.17
468.60	12725.49
468.78	12858.90
468.96	12795.71
469.14	12800.39
469.32	13069.55
469.50	12917.42
469.69	12781.67
469.87	12964.23
470.05	13151.47
470.23	13022.74
470.41	13142.11
470.59	13408.93
470.77	13167.85
470.95	13453.40
471.14	13420.63
471.32	13343.39
471.50	13525.96
471.68	13701.50
471.86	13671.07
472.04	13820.86
472.22	13881.72
472.40	13654.69
472.58	14026.83
472.77	13895.76
472.95	14031.51
473.13	14607.28
473.31	13851.29
473.49	14286.63
473.67	13994.06
473.85	14448.13
474.03	14581.54
474.21	14590.90
474.39	14911.55
474.57	14686.86
474.75	14970.07
474.93	14738.35
475.12	15014.54
475.30	15176.03
475.48	15159.65
475.66	15234.55
475.84	15269.66
476.02	15290.72
476.20	15688.61
476.38	15878.19
476.56	16074.80
476.74	15990.54
476.92	15838.41
477.10	15639.46
477.28	16142.67
477.46	16348.64
477.64	16470.35
477.82	16594.40
478.00	16968.88
478.18	16975.91
478.36	16823.77
478.54	17151.45
478.72	17123.36
478.90	17252.09
479.08	17404.22
479.26	17996.38
479.44	17734.24
479.62	17853.61
479.80	17998.72
479.98	18417.68
480.16	18478.53
480.34	18335.76
480.52	18803.86
480.70	18778.12
480.88	18260.86
481.06	18941.96
481.24	18948.98
481.41	19082.39
481.59	19222.82
481.77	19302.40
481.95	19606.67
482.13	20025.62
482.31	19934.34
482.49	20276.06
482.67	20451.60
482.85	20496.07
483.03	20507.77
483.21	20926.73
483.39	20854.17
483.57	21205.25
483.74	21179.51
483.92	21521.23
484.10	21394.84
484.28	21446.33
484.46	21986.99
484.64	22361.48
484.82	22118.06
485.00	22415.31
485.18	22625.96
485.35	23051.94
485.53	22593.19
485.71	23147.90
485.89	23683.88
486.07	23206.41
486.25	23658.14
486.43	23407.70
486.61	23793.89
486.78	24168.37
486.96	24386.04
487.14	24547.54
487.32	24659.88
487.50	25003.94
487.68	25116.29
487.85	25273.10
488.03	25380.77
488.21	25619.50
488.39	26108.68
488.57	26136.76
488.75	26129.74
488.92	26396.56
489.10	26368.48
489.28	26796.79
489.46	27012.12
489.64	27260.22
489.81	27831.31
489.99	27573.85
490.17	27992.81
490.35	28219.84
490.53	28187.07
490.70	28400.06
490.88	28460.91
491.06	29305.85
491.24	29181.80
491.41	29050.73
491.59	29277.76
491.77	29167.76
491.95	29663.95
492.13	29757.57
492.30	30188.23
492.48	30087.59
492.66	30132.06
492.84	30796.77
493.01	30902.09
493.19	31000.40
493.37	30820.17
493.54	31379.56
493.72	31622.98
493.90	31613.62
494.08	31536.38
494.25	32470.25
494.43	32217.47
494.61	32849.42
494.79	32535.79
494.96	32371.95
495.14	32748.78
495.32	33015.60
495.49	33102.20
495.67	33556.26
495.85	33614.77
496.02	33996.28
496.20	33900.32
496.38	33919.04
496.55	34373.11
496.73	34962.92
496.91	35070.59
497.09	34909.09
497.26	35021.44
497.44	34951.22
497.62	35697.85
497.79	35690.83
497.97	35419.33
498.14	35976.37
498.32	36840.03
498.50	36528.74
498.67	36315.75
498.85	36657.47
499.03	36814.29
499.20	36811.95
499.38	37083.45
499.56	37148.98
499.73	37081.11
499.91	37448.57
500.08	37858.17
500.26	37139.62
500.44	37825.40
500.61	37956.47
500.79	38239.67
500.97	38204.56
501.14	38628.20
501.32	38394.15
501.49	38742.89
501.67	38864.60
501.84	39049.50
502.02	38824.81
502.20	39157.16
502.37	39372.49
502.55	39189.93
502.72	39576.12
502.90	39737.62
503.07	39590.16
503.25	39562.08
503.43	39538.67
503.60	39824.22
503.78	40514.67
503.95	40442.12
504.13	40650.42
504.30	40650.42
504.48	40999.16
504.65	40907.88
504.83	41134.92
505.01	41509.40
505.18	41352.58
505.36	41523.44
505.53	41556.21
505.71	41631.11
505.88	41888.57
506.06	41680.26
506.23	42195.18
506.41	41904.95
506.58	42164.75
506.76	42574.34
506.93	42696.05
507.11	42541.58
507.28	42878.61
507.46	42625.84
507.63	42923.08
507.81	43351.40
507.98	42824.78
508.16	43393.53
508.33	43246.08
508.50	43491.83
508.68	43648.65
508.85	43826.53
509.03	43746.95
509.20	44013.77
509.38	44552.10
509.55	44201.02
509.73	44926.58
509.90	44741.68
510.08	44617.63
510.25	44512.31
510.42	44875.09
510.60	45141.91
510.77	45179.36
510.95	45825.35
511.12	44910.20
511.30	45237.87
511.47	45390.01
511.64	45427.46
511.82	45584.27
511.99	45888.54
512.17	46279.41
512.34	46019.61
512.51	46370.69
512.69	46323.88
512.86	46120.26
513.04	46791.99
513.21	46880.93
513.38	46829.44
513.56	46983.91
513.73	46752.20
513.90	46981.57
514.08	46813.05
514.25	47508.19
514.43	47208.61
514.60	47325.63
514.77	47346.70
514.95	47840.55
515.12	47597.13
515.29	47751.61
515.47	48350.79
515.64	48105.03
515.81	47950.56
515.99	48093.33
516.16	48559.09
516.33	48266.53
516.51	48739.32
516.68	48514.62
516.85	48650.38
517.03	48854.00
517.20	49312.75
517.37	49317.43
517.54	48631.65
517.72	49137.21
517.89	49378.28
518.06	49294.02
518.24	49242.53
518.41	49392.33
518.58	49457.86
518.75	49394.67
518.93	49715.32
519.10	49504.67
519.27	50064.06
519.45	49675.53
519.62	49935.33
519.79	49961.08
519.96	50265.34
520.14	50143.64
520.31	50218.53
520.48	50527.48
520.65	50557.91
520.83	50394.07
521.00	50768.56
521.17	50946.44
521.34	50595.36
521.52	50777.92
521.69	50993.25
521.86	51463.70
522.03	51302.20
522.20	51271.78
522.38	51735.20
522.55	51437.95
522.72	51484.76
522.89	51730.52
523.07	51990.32
523.24	51669.67
523.41	51789.03
523.58	51641.58
523.75	52198.63
523.92	51807.76
524.10	51934.15
524.27	52083.94
524.44	52179.90
524.61	52261.82
524.78	52435.02
524.96	52278.21
525.13	52313.31
525.30	52360.12
525.47	52549.71
525.64	52577.79
525.81	52500.56
525.98	52683.12
526.16	52704.18
526.33	52512.26
526.50	53179.31
526.67	52676.10
526.84	53050.58
527.01	52849.30
527.18	52907.81
527.36	52861.00
527.53	52994.41
527.70	53530.39
527.87	53523.37
528.04	53361.87
528.21	53551.46
528.38	53560.82
528.55	53883.81
528.72	53635.72
528.89	53413.37
529.07	53661.46
529.24	53542.10
529.41	53911.90
529.58	53631.04
529.75	53881.47
529.92	53689.55
530.09	53701.25
530.26	53815.94
530.43	53986.80
530.60	53645.08
530.77	53801.89
530.94	54419.80
531.11	54143.61
531.28	54157.66
531.46	54262.98
531.63	54211.49
531.80	54293.41
531.97	54527.46
532.14	54396.39
532.31	54719.38
532.48	54663.21
532.65	54665.55
532.82	54679.60
532.99	54887.90
533.16	54747.47
533.33	54897.27
533.50	54801.30
533.67	54878.54
533.84	54899.61
534.01	54843.43
534.18	54862.16
534.35	55278.77
534.52	55255.37
534.69	55473.04
534.86	55351.33
535.03	55386.44
535.20	55154.72
535.37	55398.14
535.54	55360.69
535.71	55203.88
535.88	55683.69
536.05	55356.01
536.22	55847.52
536.38	55889.65
536.55	55737.52
536.72	55636.87
536.89	55622.83
537.06	55877.95
537.23	55758.58
537.40	55671.98
537.57	55538.57
537.74	55840.50
537.91	56151.79
538.08	55831.14
538.25	55709.43
538.42	55702.41
538.59	56039.45
538.75	56039.45
538.92	56090.94
539.09	56158.81
539.26	56170.52
539.43	56154.13
539.60	56420.95
539.77	56196.26
539.94	56472.45
540.11	56601.18
540.28	56800.12
540.44	56671.39
540.61	56402.23
540.78	56573.09
540.95	56493.51
541.12	56418.61
541.29	56474.79
541.46	56519.26
541.62	56505.21
541.79	56956.94
541.96	56287.54
542.13	56804.80
542.30	56708.84
542.47	56760.33
542.63	56952.26
542.80	57134.82
542.97	57282.27
543.14	57336.10
543.31	57270.57
543.48	57272.91
543.64	57471.85
543.81	57455.47
543.98	57214.40
544.15	57209.71
544.32	57333.76
544.48	57593.56
544.65	57703.57
544.82	57528.03
544.99	57277.59
545.16	57579.52
545.32	57471.85
545.49	57565.48
545.66	57640.37
545.83	57848.68
546.00	57930.60
546.16	57858.04
546.33	57434.41
546.50	57572.50
546.67	57736.34
546.83	57586.54
547.00	57956.35
547.17	57890.81
547.34	57865.06
547.50	58010.18
547.67	58150.61
547.84	57946.98
548.00	58251.25
548.17	58312.11
548.34	58162.31
548.51	58225.51
548.67	58150.61
548.84	58145.93
549.01	58108.48
549.18	58209.12
549.34	58539.14
549.51	58408.07
549.68	58410.41
549.84	58506.37
550.01	58550.84
550.18	58078.05
550.34	58457.22
550.51	58698.30
550.68	58415.09
550.84	58363.60
551.01	58876.18
551.18	58363.60
551.34	58623.40
551.51	58644.46
551.68	58578.93
551.84	58351.90
552.01	58342.53
552.18	58611.70
552.34	58702.98
552.51	58885.54
552.68	58632.76
552.84	58515.73
553.01	58899.58
553.18	58922.99
553.34	58721.70
553.51	58789.58
553.67	58820.00
553.84	59065.76
554.01	59016.61
554.17	59023.63
554.34	59157.04
554.51	59002.56
554.67	59283.43
554.84	59171.08
555.00	59105.55
555.17	59068.10
555.33	59084.48
555.50	58995.54
555.67	59075.12
555.83	59061.08
556.00	59208.53
556.16	59278.75
556.33	59267.05
556.50	59276.41
556.66	59449.61
556.83	59025.97
556.99	59561.95
557.16	59505.78
557.32	59561.95
557.49	59688.34
557.65	59395.77
557.82	59480.03
557.98	59428.54
558.15	59407.48
558.32	59557.27
558.48	59248.32
558.65	59625.15
558.81	59351.30
558.98	59662.60
559.14	59489.40
559.31	59700.04
559.47	59927.08
559.64	59908.35
559.80	59714.09
559.97	59707.07
560.13	59573.66
560.30	59655.57
560.46	59781.96
560.63	59952.82
560.79	60083.89
560.96	60126.02
561.12	59901.33
561.29	59913.03
561.45	60065.17
561.61	59950.48
561.78	59842.82
561.94	59898.99
562.11	59906.01
562.27	59849.84
562.44	59887.29
562.60	60100.28
562.77	60259.43
562.93	59732.81
563.10	60109.64
563.26	60079.21
563.42	60317.95
563.59	60055.81
563.75	60079.21
563.92	60048.78
564.08	60009.00
564.24	60327.31
564.41	60250.07
564.57	60083.89
564.74	60111.98
564.90	60107.30
565.07	59957.50
565.23	60271.14
565.39	60240.71
565.56	60193.90
565.72	60353.05
565.88	60191.56
566.05	60144.75
566.21	60233.69
566.38	60245.39
566.54	60339.01
566.70	60413.91
566.87	60467.74
567.03	60116.66
567.19	60647.96
567.36	60245.39
567.52	60381.14
567.68	60683.07
567.85	60268.79
568.01	60378.80
568.17	60472.42
568.34	60376.46
568.50	60530.93
568.66	60285.18
568.83	60399.86
568.99	60430.29
569.15	60392.84
569.32	60566.04
569.48	60498.17
569.64	60720.52
569.81	60575.40
569.97	60537.96
570.13	60580.09
570.30	60463.06
570.46	60582.43
570.62	60537.96
570.78	60823.50
570.95	60404.55
571.11	60594.13
571.27	60612.85
571.43	60540.30
571.60	60690.09
571.76	60701.79
571.92	60587.11
572.09	60580.09
572.25	60575.40
572.41	60392.84
572.57	60561.36
572.74	60809.46
572.90	60577.75
573.06	60680.73
573.22	60603.49
573.38	60666.69
573.55	60575.40
573.71	60973.30
573.87	60781.37
574.03	60472.42
574.20	60704.13
574.36	60664.35
574.52	60690.09
574.68	60671.37
574.84	60994.36
575.01	60828.18
575.17	60521.57
575.33	60874.99
575.49	60671.37
575.65	60921.80
575.82	60973.30
575.98	60825.84
576.14	60994.36
576.30	60697.11
576.46	60804.78
576.62	60797.76
576.79	60652.64
576.95	60743.92
577.11	60783.71
577.27	60966.27
577.43	61034.15
577.59	60860.95
577.75	60725.20
577.92	60797.76
578.08	60690.09
578.24	60846.91
578.40	61059.90
578.56	60985.00
578.72	60924.14
578.88	61001.38
579.04	61183.94
579.21	60952.23
579.37	61017.77
579.53	61092.66
579.69	60863.29
579.85	60975.64
580.01	61003.72
580.17	60783.71
580.33	60795.42
580.49	61062.24
580.65	61155.86
580.82	60835.20
580.98	60858.61
581.14	60612.85
581.30	61050.53
581.46	60956.91
581.62	61034.15
581.78	60837.54
581.94	61027.13
582.10	60825.84
582.26	60814.14
582.42	60959.25
582.58	61024.79
582.74	60842.23
582.90	61029.47
583.06	60924.14
583.22	60570.72
583.38	60935.85
583.54	60891.38
583.70	61111.39
583.86	61043.51
584.02	61057.56
584.18	61188.63
584.34	60856.27
584.50	61134.79
584.66	60846.91
584.82	60856.27
584.98	61190.97
585.14	60975.64
585.30	61062.24
585.46	61015.43
585.62	61190.97
585.78	61221.39
585.94	60774.35
586.10	61022.45
586.26	60949.89
586.42	61176.92
586.58	61158.20
586.74	61017.77
586.90	60977.98
587.06	60975.64
587.22	61104.37
587.38	61041.17
587.54	61307.99
587.70	61254.16
587.86	61064.58
588.02	60910.10
588.18	61329.06
588.34	61144.16
588.49	61066.92
