SpectraSuite Data File
++++++++++++++++++++++++++++++++++++
Date: Fri Oct 25 10:47:17 EDT 2013
User: price-jones
Dark Spectrum Present: No
Reference Spectrum Present: No
Number of Sampled Component Spectra: 1
Spectrometers: USB2+H05261
Integration Time (usec): 100000 (USB2+H05261)
Spectra Averaged: 1 (USB2+H05261)
Boxcar Smoothing: 0 (USB2+H05261)
Correct for Electrical Dark: No (USB2+H05261)
Strobe/Lamp Enabled: No (USB2+H05261)
Correct for Detector Non-linearity: No (USB2+H05261)
Correct for Stray Light: No (USB2+H05261)
Number of Pixels in Processed Spectrum: 2048
>>>>>Begin Processed Spectral Data<<<<<
365.73	159.16
365.92	159.16
366.12	159.16
366.32	72.56
366.52	98.30
366.72	0.00
366.91	56.17
367.11	18.72
367.31	35.11
367.51	14.04
367.70	28.09
367.90	51.49
368.10	0.00
368.30	67.88
368.49	30.43
368.69	102.98
368.89	28.09
369.09	79.58
369.28	114.69
369.48	23.41
369.68	60.85
369.87	72.56
370.07	114.69
370.27	128.73
370.47	280.86
370.66	362.78
370.86	365.12
371.06	465.77
371.25	449.38
371.45	402.57
371.65	472.79
371.84	447.04
372.04	355.76
372.24	475.13
372.44	451.72
372.63	390.87
372.83	491.51
373.03	468.11
373.22	444.70
373.42	482.15
373.62	517.26
373.81	526.62
374.01	601.52
374.21	496.19
374.40	498.53
374.60	603.86
374.79	543.00
374.99	486.83
375.19	578.11
375.38	578.11
375.58	521.94
375.78	648.33
375.97	622.58
376.17	669.39
376.37	498.53
376.56	550.03
376.76	524.28
376.95	638.97
377.15	627.26
377.35	524.28
377.54	610.88
377.74	578.11
377.93	617.90
378.13	561.73
378.33	620.24
378.52	538.32
378.72	678.76
378.91	629.60
379.11	594.50
379.31	622.58
379.50	496.19
379.70	615.56
379.89	648.33
380.09	601.52
380.28	683.44
380.48	667.05
380.68	608.54
380.87	594.50
381.07	641.31
381.26	587.47
381.46	585.13
381.65	601.52
381.85	685.78
382.04	674.07
382.24	678.76
382.43	676.41
382.63	681.10
382.83	718.54
383.02	758.33
383.22	777.06
383.41	624.92
383.61	730.25
383.80	690.46
384.00	674.07
384.19	741.95
384.39	709.18
384.58	697.48
384.78	634.29
384.97	704.50
385.17	727.91
385.36	704.50
385.56	795.78
385.75	713.86
385.95	737.27
386.14	755.99
386.34	744.29
386.53	788.76
386.72	770.04
386.92	866.00
387.11	788.76
387.31	814.51
387.50	767.70
387.70	739.61
387.89	748.97
388.09	826.21
388.28	779.40
388.48	828.55
388.67	924.51
388.86	840.25
389.06	816.85
389.25	837.91
389.45	919.83
389.64	891.74
389.84	814.51
390.03	929.19
390.22	910.47
390.42	896.43
390.61	905.79
390.81	940.90
391.00	912.81
391.19	947.92
391.39	915.15
391.58	912.81
391.78	858.98
391.97	910.47
392.16	924.51
392.36	961.96
392.55	957.28
392.75	973.66
392.94	924.51
393.13	994.73
393.33	983.02
393.52	978.34
393.71	959.62
393.91	973.66
394.10	945.58
394.29	994.73
394.49	1053.24
394.68	1027.50
394.88	1029.84
395.07	1207.72
395.26	1043.88
395.46	1121.12
395.65	994.73
395.84	1078.99
396.04	980.68
396.23	1057.92
396.42	1062.60
396.62	1198.35
396.81	1142.18
397.00	1177.29
397.19	1078.99
397.39	1196.01
397.58	1181.97
397.77	1144.52
397.97	1254.53
398.16	1146.86
398.35	1308.36
398.55	1219.42
398.74	1252.19
398.93	1252.19
399.12	1336.45
399.32	1280.27
399.51	1294.32
399.70	1401.98
399.90	1249.85
400.09	1261.55
400.28	1350.49
400.47	1289.64
400.67	1336.45
400.86	1373.89
401.05	1364.53
401.24	1446.45
401.44	1462.83
401.63	1486.24
401.82	1434.75
402.01	1401.98
402.21	1390.28
402.40	1348.15
402.59	1371.55
402.78	1364.53
402.97	1488.58
403.17	1465.18
403.36	1486.24
403.55	1481.56
403.74	1497.94
403.93	1572.84
404.13	1551.78
404.32	1589.22
404.51	1544.75
404.70	1579.86
404.89	1563.48
405.09	1675.82
405.28	1561.14
405.47	1537.73
405.66	1727.32
405.85	1652.42
406.05	1694.55
406.24	1717.95
406.43	1682.85
406.62	1727.32
406.81	1884.13
407.00	1739.02
407.20	1605.61
407.39	1724.97
407.58	1792.85
407.77	1853.70
407.96	1792.85
408.15	1942.64
408.34	1919.24
408.54	1954.35
408.73	1912.22
408.92	1994.14
409.11	1914.56
409.30	1914.56
409.49	2024.56
409.68	1928.60
409.87	1937.96
410.07	1860.73
410.26	1809.23
410.45	2008.18
410.64	2125.21
410.83	2080.74
411.02	1998.82
411.21	2073.71
411.40	2167.34
411.59	2179.04
411.78	2272.66
411.98	2101.80
412.17	2101.80
412.36	2195.42
412.55	2338.20
412.74	2239.89
412.93	2300.75
413.12	2204.78
413.31	2441.18
413.50	2392.03
413.69	2499.69
413.88	2443.52
414.07	2431.82
414.26	2448.20
414.45	2443.52
414.64	2464.58
414.83	2588.63
415.02	2565.23
415.22	2684.59
415.41	2644.81
415.60	2569.91
415.79	2551.18
415.98	2743.11
416.17	2740.77
416.36	2654.17
416.55	2663.53
416.74	2757.15
416.93	2724.38
417.12	2736.09
417.31	2832.05
417.50	2846.09
417.69	2902.26
417.88	2906.95
418.07	2796.94
418.26	2846.09
418.45	3016.95
418.64	3028.65
418.83	3066.10
419.02	3005.25
419.21	3042.70
419.39	3105.89
419.58	3066.10
419.77	2993.55
419.96	3087.17
420.15	3119.93
420.34	2937.37
420.53	3103.55
420.72	3176.11
420.91	3232.28
421.10	3215.90
421.29	3180.79
421.48	3346.97
421.67	3262.71
421.86	3300.16
422.05	3274.41
422.24	3155.04
422.43	3227.60
422.61	3211.22
422.80	3276.75
422.99	3393.78
423.18	3461.65
423.37	3382.07
423.56	3293.13
423.75	3358.67
423.94	3227.60
424.13	3096.53
424.32	3192.49
424.50	3471.01
424.69	3456.97
424.88	3480.38
425.07	3321.22
425.26	3332.92
425.45	3279.09
425.64	3318.88
425.83	3419.52
426.01	3386.76
426.20	3361.01
426.39	3351.65
426.58	3318.88
426.77	3391.44
426.96	3393.78
427.15	3485.06
427.33	3508.46
427.52	3468.67
427.71	3417.18
427.90	3475.70
428.09	3578.68
428.28	3653.58
428.46	3665.28
428.65	3613.79
428.84	3597.40
429.03	3709.75
429.22	3571.66
429.40	3595.06
429.59	3707.41
429.78	3599.74
429.97	3482.72
430.16	3595.06
430.34	3705.07
430.53	3782.31
430.72	3833.80
430.91	3801.03
431.10	3705.07
431.28	3892.31
431.47	3936.78
431.66	4037.42
431.85	4063.17
432.03	3824.44
432.22	4018.70
432.41	3964.87
432.60	4023.38
432.79	4056.15
432.97	4086.58
433.16	3929.76
433.35	3927.42
433.54	4149.77
433.72	4098.28
433.91	3983.59
434.10	4198.92
434.28	4074.87
434.47	4049.13
434.66	4208.28
434.85	4170.83
435.03	4386.16
435.22	4198.92
435.41	4393.19
435.59	4341.69
435.78	4322.97
435.97	4297.22
436.16	4344.03
436.34	4353.40
436.53	4390.84
436.72	4580.43
436.90	4411.91
437.09	4400.21
437.28	4238.71
437.46	4477.44
437.65	4519.57
437.84	4550.00
438.02	4519.57
438.21	4505.53
438.40	4540.64
438.58	4718.52
438.77	4758.31
438.96	4741.93
439.14	4755.97
439.33	4613.20
439.52	4730.22
439.70	4770.01
439.89	4919.81
440.08	4903.42
440.26	4964.28
440.45	4889.38
440.63	4980.66
440.82	5107.05
441.01	5097.69
441.19	5085.98
441.38	5149.18
441.57	5198.33
441.75	5207.69
441.94	5313.02
442.12	5425.36
442.31	5408.98
442.50	5378.55
442.68	5261.52
442.87	5301.31
443.05	5416.00
443.24	5408.98
443.43	5561.11
443.61	5476.85
443.80	5750.70
443.98	5357.49
444.17	5350.46
444.35	5699.20
444.54	5600.90
444.73	5544.73
444.91	5755.38
445.10	5584.52
445.28	5598.56
445.47	5420.68
445.65	5380.89
445.84	5678.14
446.02	5701.54
446.21	5650.05
446.39	5675.80
446.58	5753.04
446.77	5582.18
446.95	5734.31
447.14	5792.83
447.32	5568.13
447.51	5654.73
447.69	5603.24
447.88	5610.26
448.06	5748.36
448.25	5820.91
448.43	5816.23
448.62	5865.38
448.80	5640.69
448.99	5921.56
449.17	5919.21
449.36	5767.08
449.54	5811.55
449.73	6036.24
449.91	6033.90
450.10	5975.39
450.28	6073.69
450.46	6104.12
450.65	6176.67
450.83	6174.33
451.02	6136.88
451.20	6279.66
451.39	6167.31
451.57	6237.53
451.76	6090.07
451.94	6193.06
452.13	6300.72
452.31	6073.69
452.49	6221.14
452.68	6169.65
452.86	6148.59
453.05	6483.28
453.23	6181.35
453.42	6267.95
453.60	6324.13
453.78	6406.05
453.97	6160.29
454.15	6352.21
454.34	6347.53
454.52	6480.94
454.70	6518.39
454.89	6431.79
455.07	6574.56
455.26	6588.61
455.44	6511.37
455.62	6581.59
455.81	6490.31
455.99	6623.72
456.17	6817.98
456.36	6691.59
456.54	6890.54
456.73	6857.77
456.91	6895.22
457.09	6902.24
457.28	7082.46
457.46	6801.60
457.64	6965.43
457.83	6787.55
458.01	6867.13
458.19	7066.08
458.38	6956.07
458.56	7138.63
458.74	6946.71
458.93	7045.01
459.11	7084.80
459.29	7136.29
459.48	7213.53
459.66	7108.21
459.84	7248.64
460.03	7370.35
460.21	7337.58
460.39	7260.34
460.57	7309.49
460.76	7330.56
460.94	7337.58
461.12	7564.61
461.31	7391.41
461.49	7391.41
461.67	7449.93
461.85	7641.85
462.04	7573.97
462.22	8013.99
462.40	7728.45
462.59	7749.51
462.77	7796.32
462.95	7630.15
463.13	7653.55
463.32	7695.68
463.50	7796.32
463.68	7808.03
463.86	7632.49
464.05	7543.55
464.23	7597.38
464.41	7695.68
464.59	7564.61
464.78	8077.19
464.96	7728.45
465.14	7833.77
465.32	8079.53
465.50	8070.17
465.69	8126.34
465.87	7976.55
466.05	7887.61
466.23	8222.30
466.41	7957.82
466.60	8262.09
466.78	8016.33
466.96	8119.32
467.14	8107.62
467.32	8159.11
467.51	8161.45
467.69	8091.23
467.87	8156.77
468.05	8255.07
468.23	8159.11
468.41	8039.74
468.60	8257.41
468.78	8374.44
468.96	8423.59
469.14	8437.63
469.32	8465.72
469.50	8236.35
469.69	8650.62
469.87	8613.17
470.05	8624.87
470.23	8554.66
470.41	8704.45
470.59	8723.18
470.77	8613.17
470.95	8659.98
471.14	8784.03
471.32	8578.06
471.50	9004.04
471.68	8879.99
471.86	9100.00
472.04	8903.40
472.22	9315.33
472.40	8863.61
472.58	8975.95
472.77	9055.53
472.95	9039.15
473.13	9371.50
473.31	9109.36
473.49	8990.00
473.67	9284.91
473.85	9273.20
474.03	9544.70
474.21	9722.59
474.39	9816.21
474.57	9694.50
474.75	9640.67
474.93	9710.88
475.12	9774.08
475.30	9734.29
475.48	9825.57
475.66	9858.34
475.84	9940.26
476.02	9970.68
476.20	10024.51
476.38	10090.05
476.56	10263.25
476.74	10340.49
476.92	10319.42
477.10	10221.12
477.28	10544.11
477.46	10417.72
477.64	10602.63
477.82	10895.19
478.00	11070.73
478.18	10721.99
478.36	11185.42
478.54	11199.46
478.72	10977.11
478.90	11154.99
479.08	11314.15
479.26	11428.84
479.44	11641.82
479.62	11578.63
479.80	11669.91
479.98	11805.66
480.16	12091.21
480.34	11627.78
480.52	12243.34
480.70	12095.89
480.88	11859.49
481.06	12116.95
481.24	12236.32
481.41	12430.59
481.59	12655.28
481.77	12732.51
481.95	12886.99
482.13	12898.69
482.31	12805.07
482.49	13076.57
482.67	13390.20
482.85	13209.98
483.03	13350.42
483.21	13261.48
483.39	13514.25
483.57	13575.11
483.74	13792.78
483.92	13895.76
484.10	13558.72
484.28	13877.04
484.46	14087.68
484.64	14525.36
484.82	14232.80
485.00	14387.27
485.18	14560.47
485.35	14647.07
485.53	14443.45
485.71	14719.63
485.89	14918.57
486.07	14768.78
486.25	14684.52
486.43	15129.22
486.61	15419.45
486.78	15365.62
486.96	15417.11
487.14	15513.07
487.32	15819.68
487.50	16088.84
487.68	15925.00
487.85	16079.48
488.03	16187.14
488.21	16535.88
488.39	16262.04
488.57	16570.99
488.75	16606.10
488.92	16688.02
489.10	17179.53
489.28	17277.83
489.46	17102.29
489.64	17312.94
489.81	17720.20
489.99	17619.55
490.17	17603.17
490.35	17951.91
490.53	17678.07
490.70	17951.91
490.88	18139.15
491.06	18611.94
491.24	18473.85
491.41	18345.12
491.59	18618.96
491.77	18356.82
491.95	18651.73
492.13	19005.15
492.30	19002.81
492.48	19300.06
492.66	19143.24
492.84	19644.12
493.01	19482.62
493.19	19613.69
493.37	19747.10
493.54	20058.39
493.72	19927.32
493.90	20053.71
494.08	20137.97
494.25	20582.67
494.43	20526.50
494.61	20645.87
494.79	20957.16
494.96	20868.22
495.14	20905.66
495.32	21135.04
495.49	20814.38
495.67	21130.36
495.85	21291.85
496.02	21553.99
496.20	21305.90
496.38	21642.93
496.55	21659.32
496.73	22192.96
496.91	21923.80
497.09	22195.30
497.26	22097.00
497.44	22127.42
497.62	22572.13
497.79	22693.83
497.97	22434.03
498.14	23073.00
498.32	23070.66
498.50	23098.75
498.67	23173.64
498.85	23168.96
499.03	23580.90
499.20	23494.30
499.38	23655.79
499.56	23623.03
499.73	23730.69
499.91	23456.85
500.08	23831.33
500.26	23592.60
500.44	23953.04
500.61	24287.74
500.79	23805.59
500.97	23924.96
501.14	24196.46
501.32	24233.91
501.49	24542.86
501.67	24652.86
501.84	24886.92
502.02	24549.88
502.20	24699.67
502.37	24968.84
502.55	24554.56
502.72	25032.03
502.90	24975.86
503.07	24968.84
503.25	25362.04
503.43	25275.45
503.60	25511.84
503.78	25514.18
503.95	25303.53
504.13	25441.62
504.30	25848.88
504.48	25771.64
504.65	25806.75
504.83	26141.44
505.01	26314.64
505.18	26017.40
505.36	26300.60
505.53	26403.58
505.71	26361.45
505.88	26927.86
506.06	26195.28
506.23	26677.43
506.41	26604.87
506.58	26602.53
506.76	26590.83
506.93	26836.58
507.11	27339.80
507.28	27236.81
507.46	26979.36
507.63	27140.85
507.81	27447.46
507.98	27358.52
508.16	27566.83
508.33	27435.76
508.50	27494.27
508.68	27803.22
508.85	27852.38
509.03	28231.54
509.20	28020.89
509.38	28231.54
509.55	27999.83
509.73	28496.02
509.90	28294.74
510.08	28294.74
510.25	28170.69
510.42	28528.79
510.60	28357.93
510.77	28683.27
510.95	28734.76
511.12	28999.24
511.30	28879.87
511.47	29425.22
511.64	28914.98
511.82	29106.90
511.99	28931.36
512.17	29275.42
512.34	28959.45
512.51	29394.79
512.69	29605.44
512.86	29474.37
513.04	30031.41
513.21	29797.36
513.38	29610.12
513.56	29989.28
513.73	29792.68
513.90	29858.21
514.08	30316.96
514.25	30141.42
514.43	30185.89
514.60	30314.62
514.77	29729.48
514.95	30199.93
515.12	30415.26
515.29	30441.01
515.47	30794.43
515.64	30998.06
515.81	30576.76
515.99	30565.06
516.16	30597.82
516.33	30876.35
516.51	31117.42
516.68	30679.74
516.85	30948.90
517.03	31065.93
517.20	31325.73
517.37	30906.77
517.54	31374.88
517.72	31365.52
517.89	31943.63
518.06	31222.75
518.24	31325.73
518.41	31276.58
518.58	31845.33
518.75	31976.40
518.93	31821.92
519.10	31770.43
519.27	31943.63
519.45	31929.59
519.62	31871.07
519.79	32381.31
519.96	32332.16
520.14	32336.84
520.31	32341.52
520.48	32444.51
520.65	32311.10
520.83	32573.24
521.00	32744.09
521.17	32470.25
521.34	32863.46
521.52	32966.45
521.69	32863.46
521.86	32943.04
522.03	33294.12
522.20	33207.52
522.38	33333.91
522.55	33488.38
522.72	33069.43
522.89	33535.20
523.07	33577.33
523.24	33266.03
523.41	33741.16
523.58	33481.36
523.75	33888.62
523.92	34094.58
524.10	34136.71
524.27	34309.91
524.44	34237.36
524.61	34258.42
524.78	34183.52
524.96	33993.94
525.13	34347.36
525.30	34480.77
525.47	34265.44
525.64	34792.06
525.81	34511.20
525.98	34380.13
526.16	34506.52
526.33	34518.22
526.50	34602.48
526.67	34497.16
526.84	34658.65
527.01	34520.56
527.18	35030.80
527.36	34911.43
527.53	35049.52
527.70	35440.39
527.87	35431.03
528.04	35512.95
528.21	35133.78
528.38	35129.10
528.55	35400.60
528.72	35330.39
528.89	35777.43
529.07	35763.39
529.24	35379.54
529.41	35798.49
529.58	35957.65
529.75	35431.03
529.92	35700.19
530.09	35941.27
530.26	36336.82
530.43	35793.81
530.60	35538.69
530.77	35798.49
530.94	36381.29
531.11	36156.60
531.28	36416.40
531.46	36517.04
531.63	36290.01
531.80	36620.02
531.97	36250.22
532.14	36613.00
532.31	36243.20
532.48	36491.29
532.65	36704.28
532.82	36418.74
532.99	36884.50
533.16	36458.52
533.33	36971.10
533.50	37041.32
533.67	37195.79
533.84	37003.87
534.01	36875.14
534.18	36872.80
534.35	37464.96
534.52	37053.02
534.69	37090.47
534.86	37186.43
535.03	37078.77
535.20	37462.61
535.37	37708.37
535.54	37249.63
535.71	37036.64
535.88	37083.45
536.05	37694.33
536.22	37631.13
536.38	37612.41
536.55	37687.31
536.72	37942.42
536.89	37483.68
537.06	37504.74
537.23	37926.04
537.40	37787.95
537.57	37832.42
537.74	38117.96
537.91	38227.97
538.08	38265.42
538.25	38417.55
538.42	38209.25
538.59	38265.42
538.75	38127.33
538.92	38218.61
539.09	38602.46
539.26	38597.77
539.43	38576.71
539.60	37977.53
539.77	38251.38
539.94	38529.90
540.11	38380.10
540.28	38611.82
540.44	38368.40
540.61	38553.30
540.78	38471.39
540.95	38689.06
541.12	38888.00
541.29	38827.15
541.46	38773.31
541.62	38803.74
541.79	39206.31
541.96	38457.34
542.13	39007.37
542.30	38932.47
542.47	38937.15
542.63	38850.55
542.80	39519.95
542.97	40100.40
543.14	39929.54
543.31	39435.69
543.48	39592.50
543.64	40299.34
543.81	39810.17
543.98	39702.51
544.15	39873.37
544.32	40084.01
544.48	39732.93
544.65	39576.12
544.82	40037.20
544.99	39583.14
545.16	40229.13
545.32	39908.47
545.49	39941.24
545.66	40179.98
545.83	40226.79
546.00	40198.70
546.16	40273.60
546.33	39674.42
546.50	39999.76
546.67	39833.58
546.83	39491.86
547.00	40100.40
547.17	40519.35
547.34	40102.74
547.50	40261.90
547.67	40797.88
547.84	40102.74
548.00	40732.34
548.17	40900.86
548.34	41202.79
548.51	40760.43
548.67	40877.46
548.84	41038.95
549.01	41193.43
549.18	40718.30
549.34	40734.68
549.51	40964.06
549.68	41235.56
549.84	40837.67
550.01	41139.60
550.18	40634.04
550.34	41120.87
550.51	40788.52
550.68	40835.33
550.84	40821.28
551.01	41420.46
551.18	41383.01
551.34	41273.01
551.51	41120.87
551.68	41322.16
551.84	41584.30
552.01	41099.81
552.18	40996.82
552.34	41045.97
552.51	41464.93
552.68	41469.61
552.84	41280.03
553.01	41661.54
553.18	41298.75
553.34	41514.08
553.51	41240.24
553.67	41804.31
553.84	41708.35
554.01	41710.69
554.17	41680.26
554.34	42326.25
554.51	41895.59
554.67	41722.39
554.84	41853.46
555.00	41900.27
555.17	42082.83
555.33	41710.69
555.50	42071.13
555.67	42139.00
555.83	41846.44
556.00	42124.96
556.16	42124.96
556.33	42569.66
556.50	42588.39
556.66	42157.73
556.83	42038.36
556.99	42447.96
557.16	42677.33
557.32	42553.28
557.49	42494.77
557.65	42036.02
557.82	42225.60
557.98	42249.01
558.15	42281.78
558.32	42747.54
558.48	42572.00
558.65	42291.14
558.81	42492.43
558.98	42370.72
559.14	42579.03
559.31	42377.74
559.47	42216.24
559.64	42941.81
559.80	42806.06
559.97	43105.65
560.13	42309.86
560.30	42674.99
560.46	42859.89
560.63	42724.14
560.79	42873.93
560.96	43077.56
561.12	42850.53
561.29	42878.61
561.45	42904.36
561.61	42923.08
561.78	43040.11
561.94	42614.13
562.11	42855.21
562.27	43290.55
562.44	42710.10
562.60	43044.79
562.77	43098.62
562.93	42588.39
563.10	43100.97
563.26	42770.95
563.42	43063.52
563.59	42941.81
563.75	42979.26
563.92	43304.59
564.08	43119.69
564.24	43391.19
564.41	42969.90
564.57	43274.16
564.74	42979.26
564.90	43213.31
565.07	43306.93
565.23	43051.81
565.39	42890.32
565.56	43400.55
565.72	42993.30
565.88	43505.88
566.05	43524.60
566.21	42937.13
566.38	43281.19
566.54	43145.44
566.70	43353.74
566.87	43768.02
567.03	43182.88
567.19	43482.47
567.36	43550.35
567.52	43257.78
567.68	43641.63
567.85	43054.15
568.01	43487.15
568.17	42981.60
568.34	43796.10
568.50	43889.73
568.66	43360.76
568.83	43576.09
568.99	43325.66
569.15	43613.54
569.32	43435.66
569.48	42988.62
569.64	43622.90
569.81	43531.62
569.97	43576.09
570.13	43538.65
570.30	43770.36
570.46	43459.07
570.62	43550.35
570.78	43859.30
570.95	43435.66
571.11	43833.55
571.27	43484.81
571.43	43540.99
571.60	43632.27
571.76	43484.81
571.92	43540.99
572.09	43367.79
572.25	43428.64
572.41	43749.29
572.57	43756.32
572.74	43908.45
572.90	43627.59
573.06	43838.23
573.22	43658.01
573.38	43428.64
573.55	43789.08
573.71	43845.26
573.87	43882.70
574.03	43449.70
574.20	43753.97
574.36	43475.45
574.52	43503.54
574.68	43360.76
574.84	43540.99
575.01	43789.08
575.17	43749.29
575.33	43552.69
575.49	43255.44
575.65	44219.74
575.82	44016.11
575.98	43786.74
576.14	44140.16
576.30	43943.56
576.46	43328.00
576.62	43639.29
576.79	43931.86
576.95	43658.01
577.11	43753.97
577.27	44343.79
577.43	43592.48
577.59	43573.75
577.75	43826.53
577.92	43608.86
578.08	43580.78
578.24	43601.84
578.40	43887.39
578.56	43983.35
578.72	43871.00
578.88	44126.12
579.04	43442.68
579.21	44406.98
579.37	43587.80
579.53	44044.20
579.69	43613.54
579.85	43550.35
580.01	43887.39
580.17	44006.75
580.33	44144.84
580.49	44011.43
580.65	43730.57
580.82	43711.84
580.98	43948.24
581.14	43658.01
581.30	44435.07
581.46	43976.33
581.62	43936.54
581.78	44032.50
581.94	44076.97
582.10	43885.04
582.26	43957.60
582.42	44016.11
582.58	44114.42
582.74	43419.28
582.90	44032.50
583.06	44002.07
583.22	43959.94
583.38	44140.16
583.54	44266.55
583.70	44119.10
583.86	44044.20
584.02	43856.96
584.18	44680.83
584.34	43920.15
584.50	44142.50
584.66	44278.25
584.82	43393.53
584.98	44322.72
585.14	44509.97
585.30	43461.41
585.46	43945.90
585.62	44091.01
585.78	44030.16
585.94	43679.08
586.10	43412.26
586.26	43807.81
586.42	43997.39
586.58	44105.06
586.74	43983.35
586.90	44095.69
587.06	43875.68
587.22	44034.84
587.38	43662.69
587.54	44229.10
587.70	44278.25
587.86	44280.60
588.02	43882.70
588.18	44505.29
588.34	44048.88
588.49	43934.20
588.65	44107.40
588.81	43885.04
588.97	43746.95
589.13	44182.29
589.29	44039.52
589.45	44177.61
589.61	44540.39
589.77	44421.03
589.93	44072.29
590.08	44268.89
590.24	44463.16
590.40	44605.93
