SpectraSuite Data File
++++++++++++++++++++++++++++++++++++
Date: Fri Oct 25 10:44:06 EDT 2013
User: price-jones
Dark Spectrum Present: No
Reference Spectrum Present: No
Number of Sampled Component Spectra: 1
Spectrometers: USB2+H05261
Integration Time (usec): 100000 (USB2+H05261)
Spectra Averaged: 1 (USB2+H05261)
Boxcar Smoothing: 0 (USB2+H05261)
Correct for Electrical Dark: No (USB2+H05261)
Strobe/Lamp Enabled: No (USB2+H05261)
Correct for Detector Non-linearity: No (USB2+H05261)
Correct for Stray Light: No (USB2+H05261)
Number of Pixels in Processed Spectrum: 2048
>>>>>Begin Processed Spectral Data<<<<<
365.73	105.32
365.92	105.32
366.12	105.32
366.32	81.92
366.52	7.02
366.72	72.56
366.91	0.00
367.11	9.36
367.31	0.00
367.51	53.83
367.70	88.94
367.90	81.92
368.10	16.38
368.30	0.00
368.49	0.00
368.69	0.00
368.89	0.00
369.09	105.32
369.28	0.00
369.48	18.72
369.68	14.04
369.87	173.20
370.07	70.22
370.27	72.56
370.47	194.26
370.66	276.18
370.86	444.70
371.06	533.64
371.25	514.92
371.45	496.19
371.65	449.38
371.84	425.98
372.04	449.38
372.24	468.11
372.44	479.81
372.63	491.51
372.83	489.17
373.03	545.34
373.22	491.51
373.42	507.90
373.62	535.98
373.81	568.75
374.01	578.11
374.21	559.39
374.40	505.56
374.60	589.82
374.79	554.71
374.99	683.44
375.19	662.37
375.38	575.77
375.58	624.92
375.78	580.45
375.97	657.69
376.17	725.57
376.37	610.88
376.56	634.29
376.76	561.73
376.95	578.11
377.15	692.80
377.35	631.94
377.54	690.46
377.74	592.16
377.93	641.31
378.13	589.82
378.33	683.44
378.52	727.91
378.72	636.63
378.91	571.09
379.11	610.88
379.31	631.94
379.50	606.20
379.70	706.84
379.89	723.23
380.09	744.29
380.28	704.50
380.48	655.35
380.68	706.84
380.87	716.20
381.07	730.25
381.26	727.91
381.46	683.44
381.65	655.35
381.85	695.14
382.04	730.25
382.24	718.54
382.43	683.44
382.63	690.46
382.83	704.50
383.02	781.74
383.22	746.63
383.41	774.72
383.61	748.97
383.80	748.97
384.00	772.38
384.19	823.87
384.39	805.14
384.58	858.98
384.78	821.53
384.97	791.10
385.17	767.70
385.36	898.77
385.56	877.70
385.75	821.53
385.95	863.66
386.14	870.68
386.34	784.08
386.53	837.91
386.72	856.64
386.92	912.81
387.11	758.33
387.31	828.55
387.50	926.85
387.70	933.87
387.89	936.21
388.09	926.85
388.28	1001.75
388.48	983.02
388.67	1025.15
388.86	908.13
389.06	945.58
389.25	1020.47
389.45	1029.84
389.64	994.73
389.84	1050.90
390.03	983.02
390.22	985.37
390.42	1050.90
390.61	1048.56
390.81	1011.11
391.00	1100.05
391.19	987.71
391.39	1102.39
391.58	1139.84
391.78	1041.54
391.97	1074.31
392.16	1032.18
392.36	1086.01
392.55	983.02
392.75	1001.75
392.94	971.32
393.13	1032.18
393.33	1034.52
393.52	1158.57
393.71	1114.10
393.91	1128.14
394.10	1160.91
394.29	1179.63
394.49	1203.04
394.68	1270.91
394.88	1191.33
395.07	1261.55
395.26	1277.93
395.46	1210.06
395.65	1242.82
395.84	1263.89
396.04	1270.91
396.23	1247.51
396.42	1210.06
396.62	1135.16
396.81	1238.14
397.00	1254.53
397.19	1315.38
397.39	1336.45
397.58	1401.98
397.77	1423.05
397.97	1413.68
398.16	1371.55
398.35	1427.73
398.55	1490.92
398.74	1504.96
398.93	1432.41
399.12	1516.67
399.32	1509.65
399.51	1516.67
399.70	1610.29
399.90	1605.61
400.09	1680.50
400.28	1596.25
400.47	1584.54
400.67	1619.65
400.86	1699.23
401.05	1760.08
401.24	1696.89
401.44	1762.42
401.63	1724.97
401.82	1802.21
402.01	1675.82
402.21	1715.61
402.40	1827.96
402.59	1732.00
402.78	1689.87
402.97	1713.27
403.17	1783.49
403.36	1818.60
403.55	1879.45
403.74	1916.90
403.93	1858.39
404.13	1849.02
404.32	1856.04
404.51	1844.34
404.70	1881.79
404.89	1895.83
405.09	1987.11
405.28	1888.81
405.47	2078.40
405.66	2001.16
405.85	2057.33
406.05	1956.69
406.24	2125.21
406.43	2029.24
406.62	2099.46
406.81	2069.03
407.00	2150.95
407.20	2015.20
407.39	2071.37
407.58	2202.44
407.77	2249.25
407.96	2263.30
408.15	2284.36
408.34	2251.60
408.54	2218.83
408.73	2228.19
408.92	2319.47
409.11	2310.11
409.30	2286.70
409.49	2296.07
409.68	2267.98
409.87	2373.30
410.07	2420.11
410.26	2406.07
410.45	2370.96
410.64	2347.56
410.83	2518.42
411.02	2427.14
411.21	2595.65
411.40	2562.89
411.59	2630.76
411.78	2677.57
411.98	2668.21
412.17	2691.62
412.36	2724.38
412.55	2693.96
412.74	2782.90
412.93	2689.28
413.12	2745.45
413.31	2944.39
413.50	2757.15
413.69	2892.90
413.88	3016.95
414.07	2970.14
414.26	2951.42
414.45	3061.42
414.64	3049.72
414.83	3030.99
415.02	2993.55
415.22	3063.76
415.41	3145.68
415.60	3229.94
415.79	3246.32
415.98	3173.77
416.17	3253.34
416.36	3229.94
416.55	3234.62
416.74	3328.24
416.93	3314.20
417.12	3309.52
417.31	3368.03
417.50	3276.75
417.69	3442.93
417.88	3510.80
418.07	3576.34
418.26	3414.84
418.45	3445.27
418.64	3637.19
418.83	3599.74
419.02	3604.42
419.21	3653.58
419.39	3672.30
419.58	3506.12
419.77	3569.32
419.96	3590.38
420.15	3667.62
420.34	3592.72
420.53	3833.80
420.72	3899.33
420.91	3920.40
421.10	3794.01
421.29	3997.64
421.48	3894.65
421.67	3878.27
421.86	3948.48
422.05	3892.31
422.24	3737.84
422.43	3920.40
422.61	3864.22
422.80	3838.48
422.99	3962.53
423.18	3871.25
423.37	4037.42
423.56	3941.46
423.75	4093.60
423.94	3901.67
424.13	3751.88
424.32	3721.45
424.50	4095.94
424.69	3857.20
424.88	3957.85
425.07	3976.57
425.26	3843.16
425.45	3988.27
425.64	3964.87
425.83	4077.21
426.01	4042.11
426.20	3999.98
426.39	3962.53
426.58	4016.36
426.77	3899.33
426.96	4023.38
427.15	4140.41
427.33	4189.56
427.52	4053.81
427.71	4098.28
427.90	4042.11
428.09	4299.56
428.28	4102.96
428.46	4276.16
428.65	4306.59
428.84	4348.72
429.03	4355.74
429.22	4100.62
429.40	4198.92
429.59	4107.64
429.78	4049.13
429.97	4035.08
430.16	3971.89
430.34	4177.86
430.53	4201.26
430.72	4329.99
430.91	4348.72
431.10	4437.66
431.28	4493.83
431.47	4662.35
431.66	4709.16
431.85	4657.67
432.03	4561.70
432.22	4830.87
432.41	4608.51
432.60	4657.67
432.79	4765.33
432.97	4870.65
433.16	4718.52
433.35	4617.88
433.54	4669.37
433.72	4727.88
433.91	4739.58
434.10	4943.21
434.28	4641.28
434.47	4856.61
434.66	4833.21
434.85	4978.32
435.03	5036.83
435.22	4973.64
435.41	5050.88
435.59	5149.18
435.78	5125.77
435.97	5301.31
436.16	5088.32
436.34	5130.45
436.53	5193.65
436.72	5448.77
436.90	5270.89
437.09	5219.39
437.28	5039.17
437.46	5331.74
437.65	5231.10
437.84	5420.68
438.02	5214.71
438.21	5305.99
438.40	5172.58
438.58	5453.45
438.77	5547.07
438.96	5537.71
439.14	5558.77
439.33	5652.39
439.52	5680.48
439.70	5750.70
439.89	5731.97
440.08	5636.01
440.26	5865.38
440.45	5795.17
440.63	6001.13
440.82	6197.74
441.01	6012.84
441.19	6005.81
441.38	6010.50
441.57	6101.78
441.75	6211.78
441.94	6286.68
442.12	6408.39
442.31	6380.30
442.50	6415.41
442.68	6242.21
442.87	6171.99
443.05	6546.48
443.24	6733.72
443.43	6469.24
443.61	6588.61
443.80	6707.98
443.98	6520.73
444.17	6502.01
444.35	6806.28
444.54	6579.25
444.73	6583.93
444.91	6410.73
445.10	6466.90
445.28	6537.12
445.47	6399.02
445.65	6459.88
445.84	6736.06
446.02	6740.74
446.21	6600.31
446.39	6532.44
446.58	6787.55
446.77	6773.51
446.95	6689.25
447.14	6857.77
447.32	6909.26
447.51	6546.48
447.69	6743.08
447.88	6736.06
448.06	6782.87
448.25	6878.83
448.43	6839.05
448.62	6682.23
448.80	6754.79
448.99	7002.88
449.17	6979.48
449.36	6815.64
449.54	7140.97
449.73	7201.83
449.91	7171.40
450.10	7309.49
450.28	7473.33
450.46	7321.20
450.65	7309.49
450.83	7323.54
451.02	7328.22
451.20	7260.34
451.39	7229.91
451.57	7204.17
451.76	7246.30
451.94	7332.90
452.13	7323.54
452.31	7281.41
452.49	7091.82
452.68	7389.07
452.86	7262.68
453.05	7274.38
453.23	7487.37
453.42	7304.81
453.60	7515.46
453.78	7520.14
453.97	7478.01
454.15	7529.50
454.34	7335.24
454.52	7531.84
454.70	7527.16
454.89	7688.66
455.07	7552.91
455.26	7845.48
455.44	7810.37
455.62	7765.90
455.81	7925.05
455.99	7911.01
456.17	7999.95
456.36	7999.95
456.54	8161.45
456.73	7939.10
456.91	8161.45
457.09	8257.41
457.28	8540.61
457.46	8091.23
457.64	8234.00
457.83	8070.17
458.01	7962.50
458.19	8166.13
458.38	8241.03
458.56	8238.69
458.74	8390.82
458.93	8135.70
459.11	8365.07
459.29	8421.25
459.48	8372.10
459.66	8540.61
459.84	8564.02
460.03	8547.64
460.21	8603.81
460.39	8685.73
460.57	8594.45
460.76	8730.20
460.94	8802.75
461.12	8788.71
461.31	8748.92
461.49	8678.71
461.67	8638.92
461.85	8826.16
462.04	8805.10
462.22	9415.98
462.40	9076.60
462.59	9191.28
462.77	9048.51
462.95	9116.39
463.13	9048.51
463.32	8959.57
463.50	9188.94
463.68	9193.62
463.86	9252.14
464.05	9146.81
464.23	9022.77
464.41	9036.81
464.59	8849.57
464.78	9181.92
464.96	9177.24
465.14	9158.52
465.32	9345.76
465.50	9235.75
465.69	9446.40
465.87	9460.45
466.05	9263.84
466.23	9329.38
466.41	9322.35
466.60	9633.64
466.78	9373.85
466.96	9392.57
467.14	9376.19
467.32	9483.85
467.51	9591.52
467.69	9107.02
467.87	9371.50
468.05	9617.26
468.23	9418.32
468.41	9486.19
468.60	9701.52
468.78	9635.99
468.96	9652.37
469.14	9753.01
469.32	9858.34
469.50	9652.37
469.69	9865.36
469.87	9921.53
470.05	9832.59
470.23	9818.55
470.41	9877.06
470.59	10068.98
470.77	9856.00
470.95	10136.86
471.14	10197.71
471.32	10106.43
471.50	10232.82
471.68	10113.45
471.86	10354.53
472.04	10464.54
472.22	10649.44
472.40	10310.06
472.58	10321.76
472.77	10764.12
472.95	10661.14
473.13	10927.96
473.31	10733.70
473.49	10581.56
473.67	10778.17
473.85	10747.74
474.03	10979.45
474.21	11131.59
474.39	11166.70
474.57	10984.13
474.75	11307.13
474.93	11377.34
475.12	11194.78
475.30	11344.58
475.48	11143.29
475.66	11325.85
475.84	11227.55
476.02	11405.43
476.20	11791.62
476.38	11705.02
476.56	11992.90
476.74	11861.84
476.92	11995.25
477.10	11871.20
477.28	12159.08
477.46	12020.99
477.64	12351.01
477.82	12475.06
478.00	12524.21
478.18	12662.30
478.36	12716.13
478.54	12879.97
478.72	13146.79
478.90	13193.60
479.08	13142.11
479.26	13376.16
479.44	13174.88
479.62	13252.11
479.80	13451.06
479.98	13610.22
480.16	13715.54
480.34	13652.34
480.52	13919.17
480.70	13895.76
480.88	13727.24
481.06	14090.02
481.24	13935.55
481.41	14438.76
481.59	14661.12
481.77	14736.01
481.95	14672.82
482.13	14913.89
482.31	14728.99
482.49	15257.95
482.67	14878.79
482.85	14998.15
483.03	15398.38
483.21	15302.42
483.39	15510.73
483.57	15520.09
483.74	15777.55
483.92	15559.88
484.10	15913.30
484.28	16056.08
484.46	16187.14
484.64	16458.65
484.82	15976.50
485.00	16379.07
485.18	16290.13
485.35	16739.51
485.53	16519.50
485.71	16320.56
485.89	16741.85
486.07	16652.91
486.25	16765.26
486.43	17216.98
486.61	17247.41
486.78	17453.37
486.96	17596.15
487.14	17848.93
487.32	17888.71
487.50	18312.35
487.68	18321.71
487.85	18670.45
488.03	18558.11
488.21	18803.86
488.39	18771.10
488.57	18927.91
488.75	18890.46
488.92	19358.57
489.10	19627.73
489.28	19475.60
489.46	20002.22
489.64	19936.68
489.81	20608.42
489.99	20336.91
490.17	20435.22
490.35	20435.22
490.53	20554.58
490.70	20718.42
490.88	20187.12
491.06	20982.90
491.24	21067.16
491.41	20943.11
491.59	20943.11
491.77	21069.50
491.95	21282.49
492.13	21465.05
492.30	21989.33
492.48	21799.75
492.66	22012.74
492.84	22148.49
493.01	22272.54
493.19	22192.96
493.37	22597.87
493.54	22525.32
493.72	22841.29
493.90	22661.07
494.08	23080.02
494.25	23082.36
494.43	23370.25
494.61	23735.37
494.79	23709.63
494.96	23681.54
495.14	23683.88
495.32	23536.43
495.49	24102.84
495.67	24140.29
495.85	24484.34
496.02	24730.10
496.20	24711.38
496.38	24498.39
496.55	24999.26
496.73	25429.92
496.91	24994.58
497.09	25207.57
497.26	25488.43
497.44	25336.30
497.62	25502.48
497.79	25685.04
497.97	25240.34
498.14	25661.63
498.32	26113.36
498.50	26118.04
498.67	26174.21
498.85	26153.15
499.03	26373.16
499.20	26469.12
499.38	26455.08
499.56	26403.58
499.73	26787.43
499.91	26841.26
500.08	26923.18
500.26	26375.50
500.44	27051.91
500.61	27026.17
500.79	26721.90
500.97	27316.39
501.14	27243.84
501.32	27192.34
501.49	27381.93
501.67	27292.99
501.84	27470.87
502.02	28025.57
502.20	28474.96
502.37	28126.22
502.55	28414.10
502.72	28238.56
502.90	28353.25
503.07	28149.62
503.25	28254.95
503.43	28158.99
503.60	28430.49
503.78	28542.83
503.95	28561.56
504.13	28664.54
504.30	28922.00
504.48	28978.17
504.65	28924.34
504.83	29394.79
505.01	29586.71
505.18	29509.47
505.36	30024.39
505.53	29633.52
505.71	29926.09
505.88	30148.44
506.06	29710.76
506.23	29930.77
506.41	29855.87
506.58	30389.52
506.76	30232.70
506.93	30452.71
507.11	29670.97
507.28	30471.43
507.46	29984.60
507.63	30457.39
507.81	30352.07
507.98	30794.43
508.16	30356.75
508.33	30724.21
508.50	31161.89
508.68	31204.02
508.85	31084.65
509.03	31454.46
509.20	31648.72
509.38	31407.65
509.55	31353.82
509.73	31725.96
509.90	31669.79
510.08	31651.06
510.25	31796.18
510.42	32046.62
510.60	32063.00
510.77	31941.29
510.95	32308.76
511.12	32294.71
511.30	32332.16
511.47	32671.54
511.64	32594.30
511.82	32802.61
511.99	32566.21
512.17	32444.51
512.34	32685.58
512.51	32985.17
512.69	33060.07
512.86	32582.60
513.04	33055.39
513.21	33287.10
513.38	33132.62
513.56	33104.54
513.73	32917.29
513.90	33383.06
514.08	33305.82
514.25	33476.68
514.43	33509.45
514.60	33331.57
514.77	33715.42
514.95	34078.20
515.12	33556.26
515.29	34101.61
515.47	34330.98
515.64	34752.27
515.81	33876.91
515.99	34213.95
516.16	34015.01
516.33	34220.97
516.51	34007.98
516.68	34178.84
516.85	33464.98
517.03	33825.42
517.20	34464.39
517.37	34127.35
517.54	34691.42
517.72	34279.49
517.89	34223.31
518.06	33799.68
518.24	34508.86
518.41	34553.33
518.58	34635.25
518.75	34780.36
518.93	35126.76
519.10	34682.06
519.27	35232.08
519.45	35564.44
519.62	35339.75
519.79	35431.03
519.96	35697.85
520.14	35852.33
520.31	35201.66
520.48	36130.85
520.65	35501.25
520.83	36290.01
521.00	36151.91
521.17	36219.79
521.34	36271.28
521.52	36371.92
521.69	36774.50
521.86	36432.78
522.03	36587.25
522.20	36170.64
522.38	36671.51
522.55	36479.59
522.72	36582.57
522.89	36414.05
523.07	37165.37
523.24	36875.14
523.41	37207.50
523.58	36847.05
523.75	37406.44
523.92	37345.59
524.10	37617.09
524.27	38054.77
524.44	37771.57
524.61	37696.67
524.78	37736.46
524.96	37848.80
525.13	37689.65
525.30	37874.55
525.47	38185.84
525.64	37869.87
525.81	37909.66
525.98	37989.24
526.16	37706.03
526.33	37371.33
526.50	37963.49
526.67	37624.11
526.84	38031.36
527.01	37919.02
527.18	38061.79
527.36	38227.97
527.53	38630.54
527.70	38990.98
527.87	38726.50
528.04	38808.42
528.21	38827.15
528.38	38639.90
528.55	39115.03
528.72	38880.98
528.89	39173.55
529.07	38864.60
529.24	38883.32
529.41	39274.19
529.58	38876.30
529.75	38705.44
529.92	39449.73
530.09	39501.22
530.26	39370.15
530.43	39651.02
530.60	39435.69
530.77	39707.19
530.94	39716.55
531.11	39889.75
531.28	39826.56
531.46	39477.82
531.63	39754.00
531.80	39716.55
531.97	39744.64
532.14	39732.93
532.31	39512.92
532.48	39770.38
532.65	40149.55
532.82	40306.37
532.99	40189.34
533.16	39985.71
533.33	40407.01
533.50	40205.72
533.67	40325.09
533.84	40587.23
534.01	39931.88
534.18	40311.05
534.35	40472.54
534.52	40678.51
534.69	41125.55
534.86	40587.23
535.03	40760.43
535.20	41324.50
535.37	41111.51
535.54	41486.00
535.71	41198.11
535.88	41006.19
536.05	40966.40
536.22	41083.42
536.38	41127.89
536.55	41317.48
536.72	40634.04
536.89	40542.76
537.06	41542.17
537.23	41329.18
537.40	41394.71
537.57	41478.97
537.74	41067.04
537.91	41504.72
538.08	41640.47
538.25	41591.32
538.42	41558.55
538.59	41523.44
538.75	41612.38
538.92	41773.88
539.09	41647.49
539.26	41574.94
539.43	41872.18
539.60	41635.79
539.77	41708.35
539.94	42047.72
540.11	41755.16
540.28	41670.90
540.44	41762.18
540.61	41675.58
540.78	41518.76
540.95	41762.18
541.12	42071.13
541.29	41752.82
541.46	41799.63
541.62	42113.26
541.79	42548.60
541.96	41879.21
542.13	42689.03
542.30	42368.38
542.47	42052.41
542.63	42286.46
542.80	42511.15
542.97	42836.48
543.14	42770.95
543.31	42930.11
543.48	42895.00
543.64	43175.86
543.81	43330.34
543.98	43522.26
544.15	43187.56
544.32	43084.58
544.48	43817.17
544.65	43325.66
544.82	43143.09
544.99	43021.39
545.16	43538.65
545.32	43042.45
545.49	43697.80
545.66	44381.24
545.83	43604.18
546.00	43335.02
546.16	43400.55
546.33	43337.36
546.50	43084.58
546.67	43622.90
546.83	43519.92
547.00	43775.04
547.17	43358.42
547.34	43309.27
547.50	43482.47
547.67	43800.79
547.84	43707.16
548.00	43952.92
548.17	44102.71
548.34	44264.21
548.51	44023.14
548.67	44254.85
548.84	44011.43
549.01	43995.05
549.18	43945.90
549.34	44411.67
549.51	44179.95
549.68	44428.05
549.84	44336.77
550.01	44547.42
550.18	44196.34
550.34	44287.62
550.51	44566.14
550.68	44051.22
550.84	43835.89
551.01	44467.84
551.18	44252.51
551.34	44629.34
551.51	44554.44
551.68	44935.95
551.84	44772.11
552.01	44402.30
552.18	44786.15
552.34	44601.25
552.51	44619.97
552.68	44734.66
552.84	44863.39
553.01	44858.71
553.18	44657.42
553.34	44236.12
553.51	44273.57
553.67	45174.68
553.84	44781.47
554.01	44959.35
554.17	44989.78
554.34	45125.53
554.51	45022.54
554.67	44823.60
554.84	45195.74
555.00	45031.91
555.17	45277.66
555.33	44842.32
555.50	44847.00
555.67	45233.19
555.83	45212.13
556.00	45125.53
556.16	44994.46
556.33	45191.06
556.50	45146.59
556.66	45228.51
556.83	45200.43
556.99	45247.24
557.16	45577.25
557.32	45336.18
557.49	45958.76
557.65	45144.25
557.82	45441.50
557.98	45507.04
558.15	45544.48
558.32	45347.88
558.48	45507.04
558.65	45556.19
558.81	45439.16
558.98	45394.69
559.14	45275.32
559.31	45785.56
559.47	45429.80
559.64	45820.67
559.80	45656.83
559.97	45731.73
560.13	45724.71
560.30	45701.30
560.46	45593.64
560.63	45846.41
560.79	45640.45
560.96	45972.80
561.12	46059.40
561.29	45745.77
561.45	45532.78
561.61	46073.45
561.78	45839.39
561.94	45560.87
562.11	45645.13
562.27	45354.90
562.44	45989.19
562.60	45963.44
562.77	45961.10
562.93	45982.16
563.10	46284.09
563.26	45900.25
563.42	45743.43
563.59	45715.34
563.75	45617.04
563.92	46026.63
564.08	46246.65
564.24	46288.77
564.41	45916.63
564.57	45715.34
564.74	46143.66
564.90	45886.20
565.07	45940.04
565.23	45694.28
565.39	45865.14
565.56	45752.79
565.72	45759.81
565.88	46003.23
566.05	45888.54
566.21	45820.67
566.38	45851.09
566.54	45556.19
566.70	46192.81
566.87	46780.29
567.03	45897.91
567.19	46389.42
567.36	46089.83
567.52	46138.98
567.68	46202.18
567.85	46452.61
568.01	46131.96
568.17	45797.26
568.34	46033.66
568.50	46026.63
568.66	46295.80
568.83	46351.97
568.99	45684.92
569.15	46293.46
569.32	46244.30
569.48	46148.34
569.64	46143.66
569.81	46141.32
569.97	46312.18
570.13	45900.25
570.30	45689.60
570.46	45876.84
570.62	45642.79
570.78	45832.37
570.95	46206.86
571.11	46157.70
571.27	46162.39
571.43	45701.30
571.60	45907.27
571.76	46026.63
571.92	46356.65
572.09	46314.52
572.25	46209.20
572.41	46202.18
572.57	46267.71
572.74	46658.58
572.90	46693.69
573.06	46436.23
573.22	46548.57
573.38	46302.82
573.55	45949.40
573.71	46653.90
573.87	46260.69
574.03	46234.94
574.20	46422.19
574.36	46295.80
574.52	46415.16
574.68	46256.01
574.84	46433.89
575.01	46248.99
575.17	46234.94
575.33	46401.12
575.49	46038.34
575.65	46291.12
575.82	46461.97
575.98	46211.54
576.14	46356.65
576.30	46738.16
576.46	46487.72
576.62	46681.98
576.79	46387.08
576.95	46108.55
577.11	46033.66
577.27	46560.28
577.43	46281.75
577.59	46337.93
577.75	46354.31
577.92	45869.82
578.08	45787.90
578.24	45998.55
578.40	46419.84
578.56	46134.30
578.72	46199.83
578.88	46515.81
579.04	46555.60
579.21	46108.55
579.37	46342.61
579.53	46293.46
579.69	45867.48
579.85	46504.10
580.01	46632.83
580.17	46202.18
580.33	46279.41
580.49	46483.04
580.65	47019.02
580.82	46553.26
580.98	46410.48
581.14	46115.58
581.30	46497.08
581.46	46642.20
581.62	46469.00
581.78	46583.68
581.94	47171.16
582.10	46534.53
582.26	46251.33
582.42	46426.87
582.58	46520.49
582.74	46394.10
582.90	46639.86
583.06	46424.53
583.22	46667.94
583.38	46457.29
583.54	46579.00
583.70	46801.35
583.86	46714.75
584.02	46387.08
584.18	46501.76
584.34	46333.24
584.50	46796.67
584.66	46422.19
584.82	45954.08
584.98	46932.42
585.14	46564.96
585.30	45862.80
585.46	46157.70
585.62	46590.70
585.78	46199.83
585.94	46321.54
586.10	46478.36
586.26	46047.70
586.42	46590.70
586.58	47023.70
586.74	46761.56
586.90	46660.92
587.06	46403.46
587.22	46469.00
587.38	46291.12
587.54	46476.02
587.70	46705.39
587.86	46773.27
588.02	46347.29
588.18	46742.84
588.34	46370.69
588.49	45949.40
588.65	45839.39
588.81	45612.36
588.97	46153.02
589.13	45949.40
589.29	46185.79
589.45	46440.91
589.61	46164.73
589.77	46604.75
589.93	46653.90
