SpectraSuite Data File
++++++++++++++++++++++++++++++++++++
Date: Fri Oct 25 11:25:31 EDT 2013
User: price-jones
Dark Spectrum Present: No
Reference Spectrum Present: No
Number of Sampled Component Spectra: 1
Spectrometers: USB2+H05261
Integration Time (usec): 100000 (USB2+H05261)
Spectra Averaged: 1 (USB2+H05261)
Boxcar Smoothing: 0 (USB2+H05261)
Correct for Electrical Dark: No (USB2+H05261)
Strobe/Lamp Enabled: No (USB2+H05261)
Correct for Detector Non-linearity: No (USB2+H05261)
Correct for Stray Light: No (USB2+H05261)
Number of Pixels in Processed Spectrum: 2048
>>>>>Begin Processed Spectral Data<<<<<
365.73	175.54
365.92	175.54
366.12	175.54
366.32	126.39
366.52	147.45
366.72	191.92
366.91	147.45
367.11	166.18
367.31	175.54
367.51	133.41
367.70	133.41
367.90	154.48
368.10	95.96
368.30	119.37
368.49	110.01
368.69	154.48
368.89	149.79
369.09	170.86
369.28	184.90
369.48	149.79
369.68	147.45
369.87	262.14
370.07	147.45
370.27	248.10
370.47	299.59
370.66	561.73
370.86	629.60
371.06	592.16
371.25	662.37
371.45	683.44
371.65	692.80
371.84	706.84
372.04	763.01
372.24	730.25
372.44	774.72
372.63	711.52
372.83	718.54
373.03	741.95
373.22	765.36
373.42	758.33
373.62	730.25
373.81	765.36
374.01	779.40
374.21	849.61
374.40	793.44
374.60	793.44
374.79	814.51
374.99	873.02
375.19	858.98
375.38	793.44
375.58	854.30
375.78	877.70
375.97	868.34
376.17	952.60
376.37	828.55
376.56	863.66
376.76	877.70
376.95	861.32
377.15	898.77
377.35	940.90
377.54	866.00
377.74	936.21
377.93	863.66
378.13	844.93
378.33	978.34
378.52	931.53
378.72	1039.20
378.91	978.34
379.11	896.43
379.31	940.90
379.50	891.74
379.70	936.21
379.89	931.53
380.09	987.71
380.28	1060.26
380.48	992.39
380.68	973.66
380.87	973.66
381.07	1004.09
381.26	1022.81
381.46	978.34
381.65	1043.88
381.85	1083.67
382.04	1064.94
382.24	1111.75
382.43	1107.07
382.63	1039.20
382.83	1107.07
383.02	1074.31
383.22	1050.90
383.41	1067.28
383.61	1121.12
383.80	1156.22
384.00	1125.80
384.19	1193.67
384.39	1210.06
384.58	1191.33
384.78	1219.42
384.97	1231.12
385.17	1167.93
385.36	1121.12
385.56	1149.20
385.75	1224.10
385.95	1193.67
386.14	1203.04
386.34	1137.50
386.53	1163.25
386.72	1165.59
386.92	1259.21
387.11	1200.69
387.31	1275.59
387.50	1221.76
387.70	1193.67
387.89	1282.61
388.09	1287.29
388.28	1366.87
388.48	1261.55
388.67	1284.95
388.86	1362.19
389.06	1357.51
389.25	1355.17
389.45	1291.98
389.64	1277.93
389.84	1268.57
390.03	1409.00
390.22	1390.28
390.42	1336.45
390.61	1306.02
390.81	1282.61
391.00	1390.28
391.19	1458.15
391.39	1458.15
391.58	1465.18
391.78	1446.45
391.97	1444.11
392.16	1514.33
392.36	1549.43
392.55	1488.58
392.75	1462.83
392.94	1537.73
393.13	1420.71
393.33	1537.73
393.52	1465.18
393.71	1549.43
393.91	1605.61
394.10	1647.74
394.29	1509.65
394.49	1607.95
394.68	1617.31
394.88	1734.34
395.07	1703.91
395.26	1647.74
395.46	1710.93
395.65	1626.67
395.84	1696.89
396.04	1802.21
396.23	1797.53
396.42	1823.28
396.62	1729.66
396.81	1746.04
397.00	1717.95
397.19	1813.92
397.39	1799.87
397.58	1797.53
397.77	1724.97
397.97	1771.79
398.16	1884.13
398.35	1980.09
398.55	1909.88
398.74	1825.62
398.93	1952.01
399.12	1914.56
399.32	1870.09
399.51	1898.17
399.70	1909.88
399.90	1977.75
400.09	1982.43
400.28	2073.71
400.47	1954.35
400.67	2050.31
400.86	2043.29
401.05	2092.44
401.24	2120.53
401.44	1998.82
401.63	2172.02
401.82	2190.74
402.01	2197.76
402.21	2050.31
402.40	2186.06
402.59	2195.42
402.78	2176.70
402.97	2242.23
403.17	2375.64
403.36	2284.36
403.55	2218.83
403.74	2352.24
403.93	2270.32
404.13	2293.72
404.32	2293.72
404.51	2298.41
404.70	2319.47
404.89	2340.54
405.09	2431.82
405.28	2457.56
405.47	2396.71
405.66	2392.03
405.85	2483.31
406.05	2518.42
406.24	2586.29
406.43	2490.33
406.62	2588.63
406.81	2719.70
407.00	2476.29
407.20	2438.84
407.39	2548.84
407.58	2583.95
407.77	2724.38
407.96	2696.30
408.15	2651.83
408.34	2708.00
408.54	2738.43
408.73	2839.07
408.92	2761.83
409.11	2902.26
409.30	2780.56
409.49	2899.92
409.68	2836.73
409.87	3023.97
410.07	2855.45
410.26	2970.14
410.45	3012.27
410.64	2991.20
410.83	3049.72
411.02	3105.89
411.21	3126.96
411.40	3112.91
411.59	3143.34
411.78	3056.74
411.98	3234.62
412.17	3133.98
412.36	3358.67
412.55	3339.94
412.74	3337.60
412.93	3407.82
413.12	3396.12
413.31	3475.70
413.50	3424.20
413.69	3339.94
413.88	3492.08
414.07	3503.78
414.26	3545.91
414.45	3653.58
414.64	3574.00
414.83	3812.73
415.02	3625.49
415.22	3826.78
415.41	3812.73
415.60	3854.86
415.79	3985.93
415.98	3936.78
416.17	3894.65
416.36	3939.12
416.55	4095.94
416.74	4058.49
416.93	4086.58
417.12	3990.61
417.31	4173.18
417.50	4117.00
417.69	4227.01
417.88	4252.75
418.07	4191.90
418.26	4280.84
418.45	4379.14
418.64	4435.32
418.83	4227.01
419.02	4365.10
419.21	4482.13
419.39	4582.77
419.58	4500.85
419.77	4407.23
419.96	4636.60
420.15	4418.93
420.34	4500.85
420.53	4580.43
420.72	4727.88
420.91	4643.62
421.10	4830.87
421.29	4802.78
421.48	4737.24
421.67	4760.65
421.86	4814.48
422.05	4741.93
422.24	4753.63
422.43	4854.27
422.61	4828.53
422.80	4908.10
422.99	4910.44
423.18	4978.32
423.37	4774.69
423.56	4950.23
423.75	4968.96
423.94	4725.54
424.13	4573.41
424.32	4730.22
424.50	4926.83
424.69	5149.18
424.88	5107.05
425.07	5025.13
425.26	4873.00
425.45	4894.06
425.64	4816.82
425.83	5034.49
426.01	4973.64
426.20	5011.09
426.39	5071.94
426.58	4835.55
426.77	4856.61
426.96	5004.07
427.15	5193.65
427.33	4990.02
427.52	5109.39
427.71	5078.96
427.90	5137.48
428.09	5315.36
428.28	5263.86
428.46	5348.12
428.65	5430.04
428.84	5504.94
429.03	5462.81
429.22	5296.63
429.40	5401.96
429.59	5671.12
429.78	5184.29
429.97	5247.48
430.16	5455.79
430.34	5673.46
430.53	5680.48
430.72	5614.95
430.91	5497.92
431.10	5572.82
431.28	5645.37
431.47	5816.23
431.66	5673.46
431.85	5849.00
432.03	5830.27
432.22	6012.84
432.41	5743.67
432.60	5874.74
432.79	5870.06
432.97	5926.24
433.16	6071.35
433.35	5926.24
433.54	6001.13
433.72	6132.20
433.91	5951.98
434.10	6064.33
434.28	6047.94
434.47	6204.76
434.66	6214.12
434.85	6225.82
435.03	6225.82
435.22	6167.31
435.41	6497.33
435.59	6427.11
435.78	6452.86
435.97	6427.11
436.16	6394.34
436.34	6331.15
436.53	6511.37
436.72	6600.31
436.90	6352.21
437.09	6750.10
437.28	6422.43
437.46	6588.61
437.65	6679.89
437.84	6633.08
438.02	6820.32
438.21	6773.51
438.40	6614.35
438.58	6995.86
438.77	7073.10
438.96	6710.32
439.14	7068.42
439.33	6984.16
439.52	7136.29
439.70	7176.08
439.89	7363.33
440.08	7358.64
440.26	7267.36
440.45	7309.49
440.63	7566.95
440.82	7573.97
441.01	7466.31
441.19	7517.80
441.38	7719.09
441.57	7627.81
441.75	7702.70
441.94	7833.77
442.12	7777.60
442.31	8086.55
442.50	8037.40
442.68	7960.16
442.87	8063.15
443.05	7953.14
443.24	8304.22
443.43	8121.66
443.61	8131.02
443.80	8344.01
443.98	7915.69
444.17	7967.18
444.35	8180.17
444.54	8236.35
444.73	8201.24
444.91	8173.15
445.10	8194.22
445.28	8329.97
445.47	8135.70
445.65	8250.39
445.84	8461.04
446.02	8332.31
446.21	8243.37
446.39	8114.64
446.58	8355.71
446.77	8484.44
446.95	8369.76
447.14	8582.74
447.32	8329.97
447.51	8505.51
447.69	8336.99
447.88	8297.20
448.06	8346.35
448.25	8489.12
448.43	8631.90
448.62	8442.31
448.80	8566.36
448.99	8578.06
449.17	8568.70
449.36	8678.71
449.54	8791.05
449.73	8868.29
449.91	8901.06
450.10	8844.88
450.28	9055.53
450.46	9018.08
450.65	8798.07
450.83	8929.14
451.02	9135.11
451.20	8997.02
451.39	9069.58
451.57	9053.19
451.76	8922.12
451.94	9193.62
452.13	9277.88
452.31	9053.19
452.49	9259.16
452.68	9214.69
452.86	9298.95
453.05	9373.85
453.23	9596.20
453.42	9352.78
453.60	9504.92
453.78	9518.96
453.97	9394.91
454.15	9413.63
454.34	9544.70
454.52	9497.89
454.70	9586.83
454.89	9703.86
455.07	9790.46
455.26	9661.73
455.44	9818.55
455.62	9764.72
455.81	9741.31
455.99	10132.18
456.17	9811.53
456.36	10108.77
456.54	9994.09
456.73	10328.78
456.91	10565.18
457.09	10473.90
457.28	10590.92
457.46	10216.44
457.64	10551.14
457.83	10537.09
458.01	10347.51
458.19	10581.56
458.38	10380.28
458.56	10555.82
458.74	10635.39
458.93	10721.99
459.11	10714.97
459.29	10651.78
459.48	10684.55
459.66	10864.77
459.84	10881.15
460.03	10822.64
460.21	10850.72
460.39	10979.45
460.57	11133.93
460.76	11248.61
460.94	11087.12
461.12	11089.46
461.31	11358.62
461.49	11009.88
461.67	11290.74
461.85	11489.69
462.04	11138.61
462.22	11683.95
462.40	11447.56
462.59	11527.14
462.77	11304.79
462.95	11396.07
463.13	11449.90
463.32	11510.75
463.50	11562.25
463.68	11775.24
463.86	11859.49
464.05	11431.18
464.23	11707.36
464.41	11880.56
464.59	11660.55
464.78	12060.78
464.96	11885.24
465.14	11698.00
465.32	11939.07
465.50	12037.38
465.69	12063.12
465.87	12074.82
466.05	12259.73
466.23	12025.67
466.41	12072.48
466.60	12372.07
466.78	12332.28
466.96	12121.63
467.14	12056.10
467.32	12262.07
467.51	12404.84
467.69	12072.48
467.87	12514.84
468.05	12617.83
468.23	12285.47
468.41	12360.37
468.60	12535.91
468.78	12931.46
468.96	12409.52
469.14	12765.28
469.32	12957.21
469.50	12521.87
469.69	12769.96
469.87	12968.91
470.05	13025.08
470.23	13240.41
470.41	13083.59
470.59	13247.43
470.77	13018.06
470.95	13029.76
471.14	13497.87
471.32	13008.70
471.50	13432.33
471.68	13329.35
471.86	13458.08
472.04	13682.77
472.22	14015.13
472.40	13530.64
472.58	13635.96
472.77	13921.51
472.95	13706.18
473.13	14328.76
473.31	13769.37
473.49	14085.34
473.67	14148.54
473.85	14068.96
474.03	14448.13
474.21	14452.81
474.39	14520.68
474.57	14609.62
474.75	14871.76
474.93	14895.17
475.12	14647.07
475.30	15084.75
475.48	14911.55
475.66	15297.74
475.84	14862.40
476.02	15262.63
476.20	15222.84
476.38	15379.66
476.56	15833.72
476.74	15913.30
476.92	15896.92
477.10	15936.71
477.28	15971.82
477.46	16222.25
477.64	16212.89
477.82	16346.30
478.00	16519.50
478.18	16891.65
478.36	16592.06
478.54	16814.41
478.72	17006.33
478.90	17441.67
479.08	17610.19
479.26	17561.04
479.44	17537.63
479.62	17839.56
479.80	17954.25
479.98	18003.40
480.16	18450.44
480.34	17937.87
480.52	18286.61
480.70	18281.92
480.88	18239.79
481.06	18871.74
481.24	18682.16
481.41	18948.98
481.59	19089.41
481.77	19393.68
481.95	19267.29
482.13	19452.19
482.31	19389.00
482.49	20215.21
482.67	19875.83
482.85	20369.68
483.03	20301.81
483.21	20704.38
483.39	20758.21
483.57	20587.35
483.74	20910.35
483.92	21530.59
484.10	21172.49
484.28	21284.83
484.46	21872.31
484.64	22309.99
484.82	21640.59
485.00	22073.59
485.18	22244.45
485.35	23028.53
485.53	22424.67
485.71	22672.77
485.89	23044.91
486.07	23232.16
486.25	23351.52
486.43	23543.45
486.61	23763.46
486.78	24161.35
486.96	24154.33
487.14	24437.53
487.32	24355.61
487.50	24460.94
487.68	25071.82
487.85	25120.97
488.03	25113.95
488.21	25535.24
488.39	25411.20
488.57	26169.53
488.75	26181.23
488.92	26485.50
489.10	26614.23
489.28	26448.05
489.46	26946.59
489.64	26810.84
489.81	27601.94
489.99	27356.18
490.17	27236.81
490.35	27590.24
490.53	27861.74
490.70	28428.15
490.88	28201.11
491.06	28924.34
491.24	28397.72
491.41	28709.01
491.59	28758.16
491.77	29195.84
491.95	29862.90
492.13	29888.64
492.30	29947.15
492.48	29869.92
492.66	29888.64
492.84	29998.65
493.01	30370.79
493.19	30691.44
493.37	30969.97
493.54	30749.96
493.72	31433.39
493.90	31138.49
494.08	31662.77
494.25	31714.26
494.43	31541.06
494.61	31941.29
494.79	32130.87
494.96	32215.13
495.14	32645.79
495.32	32957.08
495.49	32606.00
495.67	32758.14
495.85	33392.42
496.02	33502.43
496.20	33572.64
496.38	33628.82
496.55	33759.89
496.73	34698.44
496.91	34525.24
497.09	34412.90
497.26	34653.97
497.44	34352.04
497.62	35229.74
497.79	35901.48
497.97	35377.20
498.14	35761.05
498.32	36079.36
498.50	35789.13
498.67	36116.81
498.85	36055.95
499.03	36392.99
499.20	36252.56
499.38	36718.32
499.56	36730.03
499.73	37083.45
499.91	37146.64
500.08	37361.97
500.26	37034.30
500.44	37125.58
500.61	37589.00
500.79	37148.98
500.97	37951.79
501.14	38436.28
501.32	38471.39
501.49	38246.69
501.67	38218.61
501.84	38958.22
502.02	38614.16
502.20	39145.46
502.37	38932.47
502.55	38911.41
502.72	39077.58
502.90	39487.18
503.07	39438.03
503.25	39569.10
503.43	39559.73
503.60	40060.61
503.78	40025.50
503.95	39943.58
504.13	40287.64
504.30	40224.45
504.48	40940.65
504.65	40598.93
504.83	40620.00
505.01	40699.58
505.18	41069.38
505.36	41219.17
505.53	40985.12
505.71	41200.45
505.88	41476.63
506.06	40999.16
506.23	41617.07
506.41	41352.58
506.58	41951.76
506.76	41944.74
506.93	42260.71
507.11	42178.79
507.28	42593.07
507.46	42754.57
507.63	42497.11
507.81	42972.24
507.98	43051.81
508.16	42883.30
508.33	43246.08
508.50	43330.34
508.68	43438.00
508.85	43782.06
509.03	43779.72
509.20	43639.29
509.38	44292.30
509.55	43983.35
509.73	44109.74
509.90	44334.43
510.08	44327.41
510.25	44472.52
510.42	44465.50
510.60	44783.81
510.77	45095.10
510.95	44938.29
511.12	44903.18
511.30	44521.67
511.47	45560.87
511.64	45170.00
511.82	45825.35
511.99	45553.85
512.17	45415.76
512.34	45382.99
512.51	46094.51
512.69	46246.65
512.86	46143.66
513.04	46333.24
513.21	46138.98
513.38	46319.20
513.56	46944.12
513.73	46354.31
513.90	46946.47
514.08	46902.00
514.25	46941.78
514.43	46953.49
514.60	46857.52
514.77	46824.76
514.95	47414.57
515.12	47297.55
515.29	47063.49
515.47	47676.71
515.64	47903.74
515.81	47470.75
515.99	47845.23
516.16	48362.49
516.33	48128.44
516.51	48296.95
516.68	48367.17
516.85	48231.42
517.03	48680.80
517.20	48921.88
517.37	48526.33
517.54	48704.21
517.72	48835.28
517.89	49045.93
518.06	49017.84
518.24	48961.67
518.41	48889.11
518.58	49242.53
518.75	49006.14
518.93	49530.42
519.10	49287.00
519.27	49478.92
519.45	49389.98
519.62	49727.02
519.79	49441.48
519.96	49893.20
520.14	49883.84
520.31	50003.20
520.48	49925.97
520.65	50223.22
520.83	50351.94
521.00	50206.83
521.17	50117.89
521.34	50440.89
521.52	50677.28
521.69	50637.49
521.86	50866.86
522.03	50829.41
522.20	51346.67
522.38	50967.51
522.55	51061.13
522.72	51264.75
522.89	51344.33
523.07	51648.60
523.24	51461.36
523.41	51166.45
523.58	51356.03
523.75	51856.91
523.92	51519.87
524.10	51681.37
524.27	51625.20
524.44	51875.63
524.61	51770.31
524.78	51966.91
524.96	51945.85
525.13	52069.90
525.30	52168.20
525.47	52449.06
525.64	52229.05
525.81	52350.76
525.98	52418.64
526.16	52655.03
526.33	52362.46
526.50	52811.85
526.67	52610.56
526.84	53186.33
527.01	52760.36
527.18	52739.29
527.36	52713.55
527.53	52697.16
527.70	53415.71
527.87	53144.20
528.04	53071.65
528.21	53123.14
528.38	53198.04
528.55	53481.24
528.72	53455.50
528.89	53469.54
529.07	53057.60
529.24	52952.28
529.41	53605.29
529.58	53464.86
529.75	53626.35
529.92	53474.22
530.09	53570.18
530.26	53670.82
530.43	53708.27
530.60	53734.02
530.77	53928.28
530.94	53642.74
531.11	53827.64
531.28	53710.61
531.46	53968.07
531.63	54138.93
531.80	53996.16
531.97	53947.01
532.14	54372.99
532.31	54459.58
532.48	54361.28
532.65	54532.14
532.82	54206.81
532.99	54185.74
533.16	54459.58
533.33	54405.75
533.50	54635.13
533.67	54616.40
533.84	54663.21
534.01	54901.95
534.18	54707.68
534.35	54962.80
534.52	54798.96
534.69	54880.88
534.86	55030.68
535.03	54981.52
535.20	54990.89
535.37	55210.90
535.54	55086.85
535.71	55063.44
535.88	55330.26
536.05	55363.03
536.22	55288.13
536.38	55405.16
536.55	55594.74
536.72	55477.72
536.89	55175.79
537.06	55288.13
537.23	55611.13
537.40	55229.62
537.57	55646.24
537.74	55587.72
537.91	55826.46
538.08	55608.79
538.25	55613.47
538.42	55945.83
538.59	55676.66
538.75	55608.79
538.92	55870.93
539.09	56093.28
539.26	55852.20
539.43	56006.68
539.60	56116.68
539.77	55899.01
539.94	56259.46
540.11	56100.30
540.28	56168.18
540.44	56229.03
540.61	56430.32
540.78	56252.44
540.95	56135.41
541.12	56289.88
541.29	56287.54
541.46	56360.10
541.62	56521.60
541.79	56385.85
541.96	56243.07
542.13	56378.82
542.30	56339.04
542.47	56491.17
542.63	56659.69
542.80	56790.76
542.97	56891.40
543.14	56942.89
543.31	56966.30
543.48	57209.71
543.64	57263.55
543.81	57141.84
543.98	57312.70
544.15	57179.29
544.32	57518.67
544.48	57392.28
544.65	57212.06
544.82	57130.14
544.99	56961.62
545.16	57212.06
545.32	57148.86
545.49	57549.09
545.66	57609.95
545.83	57385.25
546.00	57614.63
546.16	57411.00
546.33	57190.99
546.50	57350.15
546.67	57724.63
546.83	57193.33
547.00	57542.07
547.17	57457.81
547.34	57652.08
547.50	57897.83
547.67	57921.24
547.84	57970.39
548.00	57944.64
548.17	58068.69
548.34	57841.66
548.51	58234.87
548.67	58155.29
548.84	58052.31
549.01	57937.62
549.18	57851.02
549.34	58120.18
549.51	58106.14
549.68	58117.84
549.84	58038.26
550.01	58335.51
550.18	58003.16
550.34	58302.74
550.51	58279.34
550.68	58085.07
550.84	58014.86
551.01	58384.66
551.18	58253.59
551.34	58344.87
551.51	58333.17
551.68	58358.92
551.84	58305.09
552.01	58237.21
552.18	58471.26
552.34	58333.17
552.51	58450.20
552.68	58410.41
552.84	58429.13
553.01	58548.50
553.18	58653.82
553.34	58639.78
553.51	58794.26
553.67	58836.39
553.84	58557.86
554.01	58894.90
554.17	58908.94
554.34	58822.34
554.51	58880.86
554.67	58878.52
554.84	58901.92
555.00	58864.47
555.17	59030.65
555.33	59131.29
555.50	58817.66
555.67	58904.26
555.83	58738.08
556.00	59077.46
556.16	58908.94
556.33	59213.21
556.50	59044.69
556.66	59442.59
556.83	58993.20
556.99	59238.96
557.16	59355.99
557.32	59334.92
557.49	59416.84
557.65	59105.55
557.82	59203.85
557.98	59150.02
558.15	59442.59
558.32	59224.92
558.48	59341.94
558.65	59400.46
558.81	59334.92
558.98	59491.74
559.14	59236.62
559.31	59578.34
559.47	59550.25
559.64	59592.38
559.80	59615.79
559.97	59655.57
560.13	59437.90
560.30	59533.87
560.46	59622.81
560.63	59704.73
560.79	59664.94
560.96	59700.04
561.12	59786.64
561.29	59573.66
561.45	59793.67
561.61	59576.00
561.78	59725.79
561.94	59676.64
562.11	59477.69
562.27	59561.95
562.44	59854.52
562.60	59931.76
562.77	59730.47
562.93	59643.87
563.10	60182.19
563.26	59604.08
563.42	60055.81
563.59	59852.18
563.75	59707.07
563.92	59866.22
564.08	59807.71
564.24	59934.10
564.41	59887.29
564.57	59906.01
564.74	59866.22
564.90	59884.95
565.07	59819.41
565.23	60121.34
565.39	59948.14
565.56	60074.53
565.72	59978.57
565.88	59847.50
566.05	59997.29
566.21	60006.65
566.38	60191.56
566.54	60151.77
566.70	60210.28
566.87	60280.50
567.03	59868.56
567.19	60299.22
567.36	60149.43
567.52	60046.44
567.68	60198.58
567.85	60205.60
568.01	60219.64
568.17	60088.57
568.34	60224.32
568.50	60282.84
568.66	60011.34
568.83	60364.76
568.99	60439.65
569.15	60404.55
569.32	60252.41
569.48	60355.39
569.64	60331.99
569.81	60308.58
569.97	60193.90
570.13	60261.77
570.30	60324.97
570.46	60437.31
570.62	60371.78
570.78	60278.16
570.95	60198.58
571.11	60313.26
571.27	60299.22
571.43	60390.50
571.60	60350.71
571.76	60402.21
571.92	60327.31
572.09	60456.04
572.25	60528.59
572.41	60336.67
572.57	60317.95
572.74	60718.18
572.90	60601.15
573.06	60420.93
573.22	60589.45
573.38	60491.15
573.55	60577.75
573.71	60662.00
573.87	60650.30
574.03	60367.10
574.20	60659.66
574.36	60465.40
574.52	60678.39
574.68	60610.51
574.84	60671.37
575.01	60498.17
575.17	60622.22
575.33	60395.18
575.49	60481.78
575.65	60645.62
575.82	60568.38
575.98	60594.13
576.14	60825.84
576.30	60638.60
576.46	60640.94
576.62	60626.90
576.79	60465.40
576.95	60453.70
577.11	60636.26
577.27	60692.43
577.43	60830.52
577.59	60491.15
577.75	60608.17
577.92	60479.44
578.08	60580.09
578.24	60608.17
578.40	60629.24
578.56	60863.29
578.72	60823.50
578.88	60867.97
579.04	60931.17
579.21	60879.67
579.37	60786.05
579.53	60889.04
579.69	60570.72
579.85	60594.13
580.01	60856.27
580.17	60460.72
580.33	60671.37
580.49	60898.40
580.65	60636.26
580.82	60853.93
580.98	60750.94
581.14	60671.37
581.30	60860.95
581.46	60743.92
581.62	60736.90
581.78	60671.37
581.94	60715.84
582.10	60804.78
582.26	60893.72
582.42	60748.60
582.58	60839.89
582.74	60755.63
582.90	60746.26
583.06	60610.51
583.22	60617.53
583.38	60750.94
583.54	60863.29
583.70	60804.78
583.86	60893.72
584.02	60610.51
584.18	60903.08
584.34	60823.50
584.50	60793.07
584.66	60844.57
584.82	60795.42
584.98	60961.59
585.14	60846.91
585.30	60727.54
585.46	60807.12
585.62	60924.14
585.78	61247.14
585.94	60919.46
586.10	60903.08
586.26	60879.67
586.42	60996.70
586.58	61001.38
586.74	60860.95
586.90	60825.84
587.06	60856.27
587.22	60980.32
587.38	60860.95
587.54	60907.76
587.70	61099.68
587.86	60989.68
588.02	60680.73
588.18	61006.06
588.34	60907.76
588.49	60954.57
