SpectraSuite Data File
++++++++++++++++++++++++++++++++++++
Date: Fri Oct 25 10:47:35 EDT 2013
User: price-jones
Dark Spectrum Present: No
Reference Spectrum Present: No
Number of Sampled Component Spectra: 1
Spectrometers: USB2+H05261
Integration Time (usec): 100000 (USB2+H05261)
Spectra Averaged: 1 (USB2+H05261)
Boxcar Smoothing: 0 (USB2+H05261)
Correct for Electrical Dark: No (USB2+H05261)
Strobe/Lamp Enabled: No (USB2+H05261)
Correct for Detector Non-linearity: No (USB2+H05261)
Correct for Stray Light: No (USB2+H05261)
Number of Pixels in Processed Spectrum: 2048
>>>>>Begin Processed Spectral Data<<<<<
365.73	126.39
365.92	126.39
366.12	126.39
366.32	51.49
366.52	35.11
366.72	56.17
366.91	18.72
367.11	42.13
367.31	60.85
367.51	0.00
367.70	0.00
367.90	74.90
368.10	14.04
368.30	63.19
368.49	56.17
368.69	74.90
368.89	93.62
369.09	84.26
369.28	65.54
369.48	93.62
369.68	74.90
369.87	112.35
370.07	149.79
370.27	98.30
370.47	217.67
370.66	425.98
370.86	386.19
371.06	393.21
371.25	482.15
371.45	505.56
371.65	458.74
371.84	435.34
372.04	442.36
372.24	379.17
372.44	472.79
372.63	526.62
372.83	496.19
373.03	531.30
373.22	493.85
373.42	517.26
373.62	517.26
373.81	468.11
374.01	519.60
374.21	601.52
374.40	538.32
374.60	571.09
374.79	561.73
374.99	550.03
375.19	608.54
375.38	578.11
375.58	547.69
375.78	617.90
375.97	606.20
376.17	589.82
376.37	601.52
376.56	585.13
376.76	585.13
376.95	559.39
377.15	610.88
377.35	643.65
377.54	580.45
377.74	578.11
377.93	578.11
378.13	620.24
378.33	617.90
378.52	599.18
378.72	610.88
378.91	617.90
379.11	620.24
379.31	664.71
379.50	613.22
379.70	650.67
379.89	648.33
380.09	603.86
380.28	690.46
380.48	709.18
380.68	688.12
380.87	592.16
381.07	690.46
381.26	667.05
381.46	636.63
381.65	638.97
381.85	643.65
382.04	704.50
382.24	758.33
382.43	713.86
382.63	667.05
382.83	739.61
383.02	753.65
383.22	753.65
383.41	763.01
383.61	704.50
383.80	758.33
384.00	760.67
384.19	732.59
384.39	709.18
384.58	833.23
384.78	763.01
384.97	716.20
385.17	695.14
385.36	826.21
385.56	805.14
385.75	809.83
385.95	791.10
386.14	851.96
386.34	753.65
386.53	816.85
386.72	788.76
386.92	772.38
387.11	788.76
387.31	842.59
387.50	748.97
387.70	746.63
387.89	800.46
388.09	788.76
388.28	830.89
388.48	814.51
388.67	880.04
388.86	830.89
389.06	805.14
389.25	929.19
389.45	915.15
389.64	875.36
389.84	847.27
390.03	854.30
390.22	898.77
390.42	924.51
390.61	966.64
390.81	938.55
391.00	971.32
391.19	971.32
391.39	1015.79
391.58	922.17
391.78	1001.75
391.97	1046.22
392.16	950.26
392.36	1029.84
392.55	929.19
392.75	994.73
392.94	924.51
393.13	1036.86
393.33	912.81
393.52	1074.31
393.71	1025.15
393.91	1022.81
394.10	1076.65
394.29	1034.52
394.49	1090.69
394.68	1067.28
394.88	1034.52
395.07	1146.86
395.26	1125.80
395.46	1100.05
395.65	1137.50
395.84	1167.93
396.04	1198.35
396.23	1156.22
396.42	1104.73
396.62	1076.65
396.81	1116.44
397.00	1116.44
397.19	1231.12
397.39	1221.76
397.58	1336.45
397.77	1247.51
397.97	1228.78
398.16	1343.47
398.35	1324.74
398.55	1277.93
398.74	1324.74
398.93	1373.89
399.12	1289.64
399.32	1306.02
399.51	1364.53
399.70	1392.62
399.90	1380.92
400.09	1444.11
400.28	1418.36
400.47	1418.36
400.67	1563.48
400.86	1479.22
401.05	1455.81
401.24	1490.92
401.44	1467.52
401.63	1612.63
401.82	1514.33
402.01	1507.30
402.21	1596.25
402.40	1598.59
402.59	1570.50
402.78	1526.03
402.97	1537.73
403.17	1558.80
403.36	1645.40
403.55	1556.46
403.74	1727.32
403.93	1572.84
404.13	1652.42
404.32	1617.31
404.51	1689.87
404.70	1706.25
404.89	1732.00
405.09	1713.27
405.28	1762.42
405.47	1776.47
405.66	1682.85
405.85	1774.13
406.05	1781.15
406.24	1764.76
406.43	1837.32
406.62	1741.36
406.81	1947.33
407.00	1865.41
407.20	1830.30
407.39	1823.28
407.58	1935.62
407.77	1959.03
407.96	1959.03
408.15	1942.64
408.34	1940.30
408.54	2132.23
408.73	1968.39
408.92	1984.77
409.11	1980.09
409.30	2047.97
409.49	1963.71
409.68	2069.03
409.87	2085.42
410.07	2099.46
410.26	2120.53
410.45	2204.78
410.64	2146.27
410.83	2232.87
411.02	2319.47
411.21	2331.17
411.40	2263.30
411.59	2237.55
411.78	2181.38
411.98	2382.67
412.17	2473.95
412.36	2473.95
412.55	2485.65
412.74	2338.20
412.93	2485.65
413.12	2513.74
413.31	2459.90
413.50	2546.50
413.69	2502.03
413.88	2621.40
414.07	2492.67
414.26	2576.93
414.45	2506.71
414.64	2644.81
414.83	2810.98
415.02	2712.68
415.22	2822.69
415.41	2832.05
415.60	2911.63
415.79	2958.44
415.98	2899.92
416.17	2885.88
416.36	2925.67
416.55	2911.63
416.74	2883.54
416.93	2958.44
417.12	3014.61
417.31	3014.61
417.50	3012.27
417.69	3101.21
417.88	3068.44
418.07	3042.70
418.26	3119.93
418.45	3080.14
418.64	3131.64
418.83	3251.00
419.02	3166.74
419.21	3286.11
419.39	3208.87
419.58	3101.21
419.77	3194.83
419.96	3255.69
420.15	3379.73
420.34	3283.77
420.53	3351.65
420.72	3412.50
420.91	3344.63
421.10	3480.38
421.29	3492.08
421.48	3447.61
421.67	3391.44
421.86	3344.63
422.05	3349.31
422.24	3417.18
422.43	3372.71
422.61	3440.59
422.80	3485.06
422.99	3492.08
423.18	3541.23
423.37	3543.57
423.56	3618.47
423.75	3585.70
423.94	3407.82
424.13	3222.92
424.32	3393.78
424.50	3634.85
424.69	3684.00
424.88	3744.86
425.07	3473.36
425.26	3332.92
425.45	3463.99
425.64	3480.38
425.83	3712.09
426.01	3681.66
426.20	3599.74
426.39	3585.70
426.58	3599.74
426.77	3574.00
426.96	3679.32
427.15	3707.41
427.33	3709.75
427.52	3681.66
427.71	3840.82
427.90	3695.71
428.09	3749.54
428.28	3737.84
428.46	3777.62
428.65	3742.52
428.84	4004.66
429.03	4018.70
429.22	3761.24
429.40	3887.63
429.59	3948.48
429.78	3669.96
429.97	3564.64
430.16	3812.73
430.34	3679.32
430.53	3901.67
430.72	4011.68
430.91	3796.35
431.10	3868.91
431.28	4173.18
431.47	4091.26
431.66	4337.01
431.85	4145.09
432.03	4278.50
432.22	4273.82
432.41	4269.14
432.60	4201.26
432.79	4337.01
432.97	4299.56
433.16	4241.05
433.35	4238.71
433.54	4222.33
433.72	4512.55
433.91	4283.18
434.10	4400.21
434.28	4475.10
434.47	4430.63
434.66	4400.21
434.85	4484.47
435.03	4550.00
435.22	4573.41
435.41	4440.00
435.59	4456.38
435.78	4620.22
435.97	4620.22
436.16	4676.39
436.34	4641.28
436.53	4498.51
436.72	4662.35
436.90	4692.77
437.09	4819.16
437.28	4690.43
437.46	4737.24
437.65	4755.97
437.84	4692.77
438.02	4774.69
438.21	4774.69
438.40	4531.28
438.58	4887.04
438.77	4891.72
438.96	4957.25
439.14	5188.97
439.33	4905.76
439.52	5011.09
439.70	4943.21
439.89	5144.50
440.08	5195.99
440.26	5298.97
440.45	5125.77
440.63	5357.49
440.82	5514.30
441.01	5556.43
441.19	5331.74
441.38	5626.65
441.57	5458.13
441.75	5533.03
441.94	5654.73
442.12	5556.43
442.31	5731.97
442.50	5746.02
442.68	5640.69
442.87	5657.07
443.05	5844.32
443.24	5748.36
443.43	5771.76
443.61	5757.72
443.80	6104.12
443.98	5694.52
444.17	5605.58
444.35	6019.86
444.54	5898.15
444.73	5977.73
444.91	5874.74
445.10	5743.67
445.28	5905.17
445.47	5729.63
445.65	5886.45
445.84	5980.07
446.02	5956.66
446.21	6003.47
446.39	5898.15
446.58	5898.15
446.77	6024.54
446.95	5982.41
447.14	6054.97
447.32	6111.14
447.51	5994.11
447.69	5944.96
447.88	5996.45
448.06	6019.86
448.25	6094.76
448.43	6162.63
448.62	6125.18
448.80	6033.90
448.99	6183.70
449.17	6209.44
449.36	6045.60
449.54	6347.53
449.73	6317.11
449.91	6368.60
450.10	6307.74
450.28	6497.33
450.46	6572.22
450.65	6626.06
450.83	6380.30
451.02	6347.53
451.20	6494.99
451.39	6539.46
451.57	6518.39
451.76	6314.77
451.94	6445.84
452.13	6609.67
452.31	6511.37
452.49	6445.84
452.68	6604.99
452.86	6553.50
453.05	6733.72
453.23	6754.79
453.42	6729.04
453.60	6717.34
453.78	6864.79
453.97	6644.78
454.15	6642.44
454.34	6614.35
454.52	6759.47
454.70	6771.17
454.89	6710.32
455.07	6820.32
455.26	6864.79
455.44	7030.97
455.62	6953.73
455.81	6890.54
455.99	7208.85
456.17	6946.71
456.36	6977.14
456.54	7176.08
456.73	7164.38
456.91	7304.81
457.09	7211.19
457.28	7309.49
457.46	7295.45
457.64	7269.70
457.83	7351.62
458.01	7309.49
458.19	7517.80
458.38	7386.73
458.56	7412.48
458.74	7494.40
458.93	7566.95
459.11	7599.72
459.29	7412.48
459.48	7613.76
459.66	7583.34
459.84	7541.21
460.03	7653.55
460.21	7648.87
460.39	7719.09
460.57	7674.62
460.76	7770.58
460.94	7887.61
461.12	7880.58
461.31	7875.90
461.49	7803.35
461.67	7950.80
461.85	7969.52
462.04	7815.05
462.22	8414.23
462.40	7960.16
462.59	8128.68
462.77	7995.27
462.95	8194.22
463.13	7948.46
463.32	8056.12
463.50	8306.56
463.68	8208.26
463.86	8264.43
464.05	8091.23
464.23	8037.40
464.41	8463.38
464.59	8308.90
464.78	8439.97
464.96	8402.52
465.14	8147.40
465.32	8294.86
465.50	8304.22
465.69	8292.52
465.87	8250.39
466.05	8271.45
466.23	8315.92
466.41	8224.64
466.60	8720.84
466.78	8341.67
466.96	8395.50
467.14	8514.87
467.32	8482.10
467.51	8751.26
467.69	8475.08
467.87	8739.56
468.05	8739.56
468.23	8549.98
468.41	8622.53
468.60	8517.21
468.78	8802.75
468.96	8737.22
469.14	8926.80
469.32	8908.08
469.50	8484.44
469.69	8922.12
469.87	8805.10
470.05	9083.62
470.23	8933.82
470.41	9015.74
470.59	9123.41
470.77	9130.43
470.95	9092.98
471.14	9289.59
471.32	9043.83
471.50	9205.33
471.68	9350.44
471.86	9451.08
472.04	9228.73
472.22	9474.49
472.40	9495.55
472.58	9348.10
472.77	9542.36
472.95	9750.67
473.13	9912.17
473.31	9853.66
473.49	9673.43
473.67	9839.61
473.85	9874.72
474.03	10019.83
474.21	9919.19
474.39	10024.51
474.57	9942.60
474.75	9961.32
474.93	10141.54
475.12	10258.57
475.30	10406.02
475.48	10300.70
475.66	10583.90
475.84	10246.87
476.02	10335.81
476.20	10331.12
476.38	10604.97
476.56	10972.43
476.74	10764.12
476.92	10930.30
477.10	10799.23
477.28	11005.20
477.46	10857.75
477.64	11204.14
477.82	11061.37
478.00	11480.33
478.18	11473.31
478.36	11550.54
478.54	11620.76
478.72	11690.98
478.90	11997.59
479.08	11953.12
479.26	11999.93
479.44	12042.06
479.62	12060.78
479.80	12184.83
479.98	12123.98
480.16	12332.28
480.34	12449.31
480.52	12430.59
480.70	12435.27
480.88	12456.33
481.06	12458.67
481.24	12568.68
481.41	12830.82
481.59	13205.30
481.77	13217.01
481.95	13153.81
482.13	13345.73
482.31	13217.01
482.49	13666.39
482.67	13568.09
482.85	13500.21
483.03	13893.42
483.21	14017.47
483.39	14012.79
483.57	14101.73
483.74	14143.86
483.92	14448.13
484.10	14413.02
484.28	14466.85
484.46	14541.75
484.64	14960.70
484.82	14864.74
485.00	14939.64
485.18	14904.53
485.35	15279.02
485.53	15309.44
485.71	15101.14
485.89	15583.29
486.07	15272.00
486.25	15721.38
486.43	15749.46
486.61	16002.24
486.78	15915.64
486.96	15995.22
487.14	16395.45
487.32	16327.58
487.50	16400.13
487.68	16671.64
487.85	17067.19
488.03	16959.52
488.21	17102.29
488.39	17069.53
488.57	17415.93
488.75	17376.14
488.92	17530.61
489.10	17865.31
489.28	17715.51
489.46	18078.30
489.64	18160.22
489.81	18359.16
489.99	18649.39
490.17	18808.54
490.35	18455.12
490.53	18633.00
490.70	19372.61
490.88	18813.23
491.06	18836.63
491.24	19133.88
491.41	19143.24
491.59	19246.23
491.77	19058.98
491.95	19489.64
492.13	20116.90
492.30	19777.53
492.48	20123.93
492.66	20189.46
492.84	20130.95
493.01	20563.95
493.19	20308.83
493.37	20318.19
493.54	20458.62
493.72	20760.55
493.90	20877.58
494.08	20973.54
494.25	21294.19
494.43	21390.16
494.61	21511.86
494.79	21898.05
494.96	21542.29
495.14	21757.62
495.32	21635.91
495.49	21750.60
495.67	22183.60
495.85	22129.77
496.02	22443.40
496.20	22389.56
496.38	22867.03
496.55	22637.66
496.73	23452.17
496.91	22750.01
497.09	23178.33
497.26	22923.21
497.44	22934.91
497.62	23103.43
497.79	23232.16
497.97	23178.33
498.14	23810.27
498.32	23597.28
498.50	23859.42
498.67	24114.54
498.85	23929.64
499.03	24503.07
499.20	24114.54
499.38	24327.53
499.56	24528.81
499.73	24659.88
499.91	24243.27
500.08	24697.33
500.26	24547.54
500.44	24577.97
500.61	24812.02
500.79	24762.87
500.97	25022.67
501.14	25336.30
501.32	25371.41
501.49	24589.67
501.67	25673.34
501.84	25165.44
502.02	25481.41
502.20	25853.56
502.37	26153.15
502.55	25942.50
502.72	25846.54
502.90	26242.09
503.07	25991.65
503.25	26178.89
503.43	25912.07
503.60	26150.81
503.78	26445.71
503.95	26705.51
504.13	26328.69
504.30	26689.13
504.48	26958.29
504.65	26754.66
504.83	27068.30
505.01	27171.28
505.18	27126.81
505.36	27456.82
505.53	27325.75
505.71	27662.79
505.88	27674.49
506.06	27515.34
506.23	27571.51
506.41	27424.06
506.58	27697.90
506.76	27601.94
506.93	27922.59
507.11	27817.27
507.28	28091.11
507.46	28027.92
507.63	27892.16
507.81	28496.02
507.98	28561.56
508.16	28498.36
508.33	28589.64
508.50	28594.32
508.68	28797.95
508.85	29287.12
509.03	29268.40
509.20	28793.27
509.38	29174.78
509.55	29289.46
509.73	29439.26
509.90	29539.90
510.08	29268.40
510.25	29172.44
510.42	29237.97
510.60	29757.57
510.77	29509.47
510.95	30092.27
511.12	29851.19
511.30	29963.54
511.47	30405.90
511.64	30101.63
511.82	30401.22
511.99	30323.98
512.17	30323.98
512.34	30319.30
512.51	30403.56
512.69	30586.12
512.86	30483.14
513.04	30738.26
513.21	30993.37
513.38	30698.47
513.56	31054.23
513.73	30813.15
513.90	31185.30
514.08	31157.21
514.25	30958.27
514.43	31213.38
514.60	31084.65
514.77	31213.38
514.95	31377.22
515.12	31503.61
515.29	31527.02
515.47	31515.31
515.64	31854.69
515.81	31552.76
515.99	31758.73
516.16	31709.58
516.33	31604.25
516.51	32180.03
516.68	31681.49
516.85	31463.82
517.03	32304.07
517.20	31885.12
517.37	32119.17
517.54	32627.07
517.72	32325.14
517.89	32229.18
518.06	32425.78
518.24	32643.45
518.41	32194.07
518.58	32570.90
518.75	32479.61
518.93	32730.05
519.10	33067.09
519.27	33172.41
519.45	32905.59
519.62	33228.59
519.79	33085.81
519.96	33186.46
520.14	33567.96
520.31	33357.32
520.48	33699.03
520.65	33226.24
520.83	33713.08
521.00	34085.22
521.17	34150.76
521.34	34354.38
521.52	34237.36
521.69	33603.07
521.86	34125.01
522.03	34209.27
522.20	34202.25
522.38	34672.70
522.55	34380.13
522.72	34721.85
522.89	34759.30
523.07	35007.39
523.24	34115.65
523.41	34923.13
523.58	34754.61
523.75	35353.79
523.92	35000.37
524.10	35093.99
524.27	35196.98
524.44	34876.32
524.61	34993.35
524.78	35697.85
524.96	35442.73
525.13	35700.19
525.30	35517.63
525.47	35976.37
525.64	35667.42
525.81	35697.85
525.98	35732.96
526.16	35452.09
526.33	35761.05
526.50	35700.19
526.67	35569.12
526.84	35299.96
527.01	35688.49
527.18	35599.55
527.36	36114.47
527.53	36084.04
527.70	36774.50
527.87	36669.17
528.04	36189.36
528.21	36287.67
528.38	35924.88
528.55	36444.48
528.72	36825.99
528.89	36425.76
529.07	36613.00
529.24	36542.78
529.41	36739.39
529.58	36769.82
529.75	36507.68
529.92	36776.84
530.09	37441.55
530.26	37354.95
530.43	37106.85
530.60	37015.57
530.77	37258.99
530.94	37132.60
531.11	36570.87
531.28	37219.20
531.46	37591.34
531.63	37661.56
531.80	37373.67
531.97	37053.02
532.14	37179.41
532.31	37258.99
532.48	37539.85
532.65	37710.71
532.82	37368.99
532.99	37638.15
533.16	37736.46
533.33	37628.79
533.50	37989.24
533.67	38075.84
533.84	38017.32
534.01	37872.21
534.18	38115.62
534.35	38417.55
534.52	37912.00
534.69	38153.07
534.86	38464.36
535.03	38213.93
535.20	38508.83
535.37	38998.01
535.54	38951.20
535.71	38401.17
535.88	38328.61
536.05	38557.99
536.22	38897.36
536.38	38822.47
536.55	38597.77
536.72	38616.50
536.89	38660.97
537.06	38686.71
537.23	38700.76
537.40	38728.84
537.57	39049.50
537.74	38593.09
537.91	39274.19
538.08	39346.75
538.25	39035.45
538.42	38747.57
538.59	39873.37
538.75	38806.08
538.92	39363.13
539.09	39412.28
539.26	39737.62
539.43	39030.77
539.60	39489.52
539.77	39019.07
539.94	39751.66
540.11	39423.98
540.28	39269.51
540.44	39580.80
540.61	39751.66
540.78	39555.05
540.95	39529.31
541.12	39835.92
541.29	39936.56
541.46	39653.36
541.62	40411.69
541.79	40257.21
541.96	39475.48
542.13	39859.32
542.30	40318.07
542.47	39990.39
542.63	40154.23
542.80	40065.29
542.97	40533.40
543.14	40931.29
543.31	40732.34
543.48	40945.33
543.64	41345.56
543.81	40708.94
543.98	40744.05
544.15	40903.20
544.32	40807.24
544.48	41132.57
544.65	40491.27
544.82	41226.20
544.99	40645.74
545.16	40994.48
545.32	40666.81
545.49	40940.65
545.66	41488.34
545.83	41249.60
546.00	41261.30
546.16	41390.03
546.33	41315.14
546.50	40879.80
546.67	41457.91
546.83	40669.15
547.00	41528.13
547.17	41333.86
547.34	41579.62
547.50	41677.92
547.67	41921.34
547.84	41373.65
548.00	41979.85
548.17	41832.39
548.34	41371.31
548.51	42047.72
548.67	41766.86
548.84	41619.41
549.01	41596.00
549.18	41783.24
549.34	42131.98
549.51	42328.59
549.68	42408.17
549.84	42351.99
550.01	42176.45
550.18	42185.82
550.34	41996.23
550.51	41745.80
550.68	41977.51
550.84	41605.36
551.01	42190.50
551.18	42213.90
551.34	42646.90
551.51	42127.30
551.68	42480.72
551.84	42539.24
552.01	42410.51
552.18	42256.03
552.34	42391.78
552.51	42738.18
552.68	42284.12
552.84	42930.11
553.01	43070.54
553.18	42497.11
553.34	42892.66
553.51	42761.59
553.67	42880.95
553.84	43009.68
554.01	42913.72
554.17	42801.38
554.34	43430.98
554.51	42848.19
554.67	42529.87
554.84	42639.88
555.00	42887.98
555.17	42923.08
555.33	42834.14
555.50	43154.80
555.67	42948.83
555.83	42822.44
556.00	43093.94
556.16	43838.23
556.33	43395.87
556.50	42995.64
556.66	43608.86
556.83	42792.01
556.99	43243.74
557.16	43985.69
557.32	43367.79
557.49	43234.38
557.65	43084.58
557.82	43227.35
557.98	43145.44
558.15	43117.35
558.32	43346.72
558.48	43363.11
558.65	43592.48
558.81	43166.50
558.98	43419.28
559.14	43636.95
559.31	43491.83
559.47	43512.90
559.64	43487.15
559.80	43732.91
559.97	43714.19
560.13	43615.88
560.30	43627.59
560.46	43749.29
560.63	43585.46
560.79	43957.60
560.96	44453.79
561.12	43779.72
561.29	43634.61
561.45	43931.86
561.61	43620.56
561.78	43758.66
561.94	43768.02
562.11	43749.29
562.27	43725.89
562.44	43746.95
562.60	44102.71
562.77	44093.35
562.93	43964.62
563.10	44151.87
563.26	43618.22
563.42	44285.28
563.59	43789.08
563.75	43845.26
563.92	44273.57
564.08	44243.15
564.24	44189.31
564.41	44285.28
564.57	44088.67
564.74	44392.94
564.90	44083.99
565.07	43873.34
565.23	44065.27
565.39	44268.89
565.56	44032.50
565.72	43765.68
565.88	44198.68
566.05	44250.17
566.21	44245.49
566.38	44179.95
566.54	44067.61
566.70	44339.11
566.87	44514.65
567.03	44069.95
567.19	44790.83
567.36	44376.56
567.52	44098.03
567.68	44706.57
567.85	44409.32
568.01	44201.02
568.17	44388.26
568.34	44500.61
568.50	44252.51
568.66	44444.43
568.83	44512.31
568.99	44332.09
569.15	44158.89
569.32	44051.22
569.48	44196.34
569.64	44601.25
569.81	44580.18
569.97	44163.57
570.13	44535.71
570.30	43894.41
570.46	44418.69
570.62	43981.01
570.78	44231.44
570.95	44179.95
571.11	44395.28
571.27	44243.15
571.43	44278.25
571.60	44903.18
571.76	44147.18
571.92	44451.45
572.09	44336.77
572.25	43604.18
572.41	44226.76
572.57	44348.47
572.74	45052.97
572.90	44957.01
573.06	44673.81
573.22	44797.85
573.38	44652.74
573.55	44158.89
573.71	44584.86
573.87	44765.09
574.03	44542.74
574.20	44451.45
574.36	44617.63
574.52	44493.58
574.68	44641.04
574.84	44713.59
575.01	44505.29
575.17	44676.15
575.33	44486.56
575.49	44278.25
575.65	44938.29
575.82	44919.56
575.98	44744.02
576.14	44435.07
576.30	44474.86
576.46	44659.76
576.62	44495.92
576.79	44329.75
576.95	44409.32
577.11	44722.96
577.27	44706.57
577.43	44755.72
577.59	44795.51
577.75	44589.55
577.92	44411.67
578.08	44662.10
578.24	44802.53
578.40	44547.42
578.56	44671.46
578.72	44481.88
578.88	44769.77
579.04	44882.11
579.21	44655.08
579.37	44285.28
579.53	44732.32
579.69	44432.73
579.85	44507.63
580.01	44966.37
580.17	44800.19
580.33	44964.03
580.49	44678.49
580.65	44624.65
580.82	44664.44
580.98	44879.77
581.14	44701.89
581.30	44804.88
581.46	44732.32
581.62	44680.83
581.78	45233.19
581.94	45275.32
582.10	45076.38
582.26	45170.00
582.42	44722.96
582.58	44893.82
582.74	44891.48
582.90	44559.12
583.06	44697.21
583.22	44877.43
583.38	45052.97
583.54	44673.81
583.70	44912.54
583.86	44732.32
584.02	44456.14
584.18	44786.15
584.34	44947.65
584.50	45162.98
584.66	44786.15
584.82	45031.91
584.98	45303.41
585.14	44903.18
585.30	44847.00
585.46	44612.95
585.62	44711.25
585.78	44531.03
585.94	44706.57
586.10	44870.41
586.26	45022.54
586.42	44861.05
586.58	45172.34
586.74	44865.73
586.90	45193.40
587.06	44935.95
587.22	45001.48
587.38	44889.13
587.54	45338.52
587.70	45308.09
587.86	44933.60
588.02	45090.42
588.18	45235.53
588.34	44753.38
588.49	44322.72
588.65	44350.81
588.81	44713.59
588.97	44451.45
589.13	44626.99
589.29	44912.54
589.45	44865.73
589.61	44725.30
589.77	45083.40
589.93	45008.50
590.08	45418.10
590.24	45017.86
