SpectraSuite Data File
++++++++++++++++++++++++++++++++++++
Date: Fri Oct 25 10:48:32 EDT 2013
User: price-jones
Dark Spectrum Present: No
Reference Spectrum Present: No
Number of Sampled Component Spectra: 1
Spectrometers: USB2+H05261
Integration Time (usec): 100000 (USB2+H05261)
Spectra Averaged: 1 (USB2+H05261)
Boxcar Smoothing: 0 (USB2+H05261)
Correct for Electrical Dark: No (USB2+H05261)
Strobe/Lamp Enabled: No (USB2+H05261)
Correct for Detector Non-linearity: No (USB2+H05261)
Correct for Stray Light: No (USB2+H05261)
Number of Pixels in Processed Spectrum: 2048
>>>>>Begin Processed Spectral Data<<<<<
365.73	105.32
365.92	105.32
366.12	105.32
366.32	58.51
366.52	0.00
366.72	42.13
366.91	0.00
367.11	0.00
367.31	0.00
367.51	23.41
367.70	0.00
367.90	58.51
368.10	18.72
368.30	93.62
368.49	0.00
368.69	58.51
368.89	65.54
369.09	21.06
369.28	51.49
369.48	14.04
369.68	79.58
369.87	77.24
370.07	124.05
370.27	182.56
370.47	131.07
370.66	449.38
370.86	456.40
371.06	449.38
371.25	533.64
371.45	454.06
371.65	477.47
371.84	470.45
372.04	472.79
372.24	561.73
372.44	615.56
372.63	550.03
372.83	547.69
373.03	500.87
373.22	599.18
373.42	624.92
373.62	482.15
373.81	528.96
374.01	624.92
374.21	601.52
374.40	615.56
374.60	594.50
374.79	547.69
374.99	561.73
375.19	683.44
375.38	613.22
375.58	575.77
375.78	667.05
375.97	641.31
376.17	650.67
376.37	610.88
376.56	580.45
376.76	608.54
376.95	585.13
377.15	695.14
377.35	732.59
377.54	688.12
377.74	669.39
377.93	620.24
378.13	683.44
378.33	720.88
378.52	751.31
378.72	636.63
378.91	653.01
379.11	627.26
379.31	587.47
379.50	746.63
379.70	716.20
379.89	805.14
380.09	692.80
380.28	660.03
380.48	758.33
380.68	662.37
380.87	791.10
381.07	795.78
381.26	758.33
381.46	716.20
381.65	758.33
381.85	664.71
382.04	671.73
382.24	709.18
382.43	720.88
382.63	795.78
382.83	816.85
383.02	737.27
383.22	858.98
383.41	835.57
383.61	772.38
383.80	744.29
384.00	851.96
384.19	840.25
384.39	835.57
384.58	835.57
384.78	861.32
384.97	802.80
385.17	840.25
385.36	812.17
385.56	795.78
385.75	821.53
385.95	908.13
386.14	903.45
386.34	889.40
386.53	842.59
386.72	854.30
386.92	924.51
387.11	819.19
387.31	908.13
387.50	889.40
387.70	875.36
387.89	936.21
388.09	908.13
388.28	898.77
388.48	896.43
388.67	903.45
388.86	990.05
389.06	938.55
389.25	968.98
389.45	992.39
389.64	1043.88
389.84	1048.56
390.03	1036.86
390.22	1032.18
390.42	1039.20
390.61	1210.06
390.81	1048.56
391.00	1137.50
391.19	1097.71
391.39	1057.92
391.58	1050.90
391.78	1076.65
391.97	1132.82
392.16	1022.81
392.36	1111.75
392.55	1046.22
392.75	1086.01
392.94	992.39
393.13	1036.86
393.33	1076.65
393.52	1116.44
393.71	1090.69
393.91	1184.31
394.10	1160.91
394.29	1160.91
394.49	1179.63
394.68	1186.65
394.88	1310.70
395.07	1270.91
395.26	1249.85
395.46	1270.91
395.65	1334.11
395.84	1228.78
396.04	1352.83
396.23	1291.98
396.42	1186.65
396.62	1261.55
396.81	1179.63
397.00	1228.78
397.19	1299.00
397.39	1273.25
397.58	1406.66
397.77	1331.76
397.97	1519.01
398.16	1418.36
398.35	1509.65
398.55	1409.00
398.74	1519.01
398.93	1549.43
399.12	1582.20
399.32	1572.84
399.51	1570.50
399.70	1586.88
399.90	1722.63
400.09	1563.48
400.28	1652.42
400.47	1650.08
400.67	1657.10
400.86	1593.90
401.05	1647.74
401.24	1724.97
401.44	1732.00
401.63	1685.19
401.82	1834.98
402.01	1696.89
402.21	1741.36
402.40	1830.30
402.59	1741.36
402.78	1739.02
402.97	1818.60
403.17	1851.36
403.36	1909.88
403.55	1900.52
403.74	1872.43
403.93	1837.32
404.13	1982.43
404.32	1893.49
404.51	1912.22
404.70	1968.39
404.89	1970.73
405.09	2040.95
405.28	1968.39
405.47	1893.49
405.66	2001.16
405.85	2083.08
406.05	2040.95
406.24	2008.18
406.43	2139.25
406.62	2099.46
406.81	2129.89
407.00	2073.71
407.20	2111.16
407.39	2155.63
407.58	2195.42
407.77	2284.36
407.96	2286.70
408.15	2230.53
408.34	2291.38
408.54	2296.07
408.73	2272.66
408.92	2403.73
409.11	2401.39
409.30	2305.43
409.49	2289.04
409.68	2303.09
409.87	2354.58
410.07	2307.77
410.26	2415.43
410.45	2459.90
410.64	2464.58
410.83	2597.99
411.02	2586.29
411.21	2609.70
411.40	2621.40
411.59	2595.65
411.78	2677.57
411.98	2679.91
412.17	2642.46
412.36	2743.11
412.55	2738.43
412.74	2789.92
412.93	2815.66
413.12	2686.94
413.31	2909.29
413.50	2878.86
413.69	2860.13
413.88	3028.65
414.07	2958.44
414.26	2899.92
414.45	2909.29
414.64	2951.42
414.83	3145.68
415.02	3141.00
415.22	3215.90
415.41	3094.19
415.60	3307.18
415.79	3232.28
415.98	3372.71
416.17	3302.50
416.36	3339.94
416.55	3236.96
416.74	3386.76
416.93	3251.00
417.12	3246.32
417.31	3279.09
417.50	3475.70
417.69	3562.30
417.88	3456.97
418.07	3506.12
418.26	3574.00
418.45	3597.40
418.64	3665.28
418.83	3660.60
419.02	3585.70
419.21	3676.98
419.39	3620.81
419.58	3651.24
419.77	3578.68
419.96	3679.32
420.15	3796.35
420.34	3782.31
420.53	3810.39
420.72	3864.22
420.91	3859.54
421.10	3880.61
421.29	4016.36
421.48	3871.25
421.67	3756.56
421.86	3805.71
422.05	3918.06
422.24	3861.88
422.43	3836.14
422.61	3927.42
422.80	3880.61
422.99	4086.58
423.18	4037.42
423.37	4046.79
423.56	3843.16
423.75	3978.91
423.94	3997.64
424.13	3770.60
424.32	4016.36
424.50	4014.02
424.69	4002.32
424.88	4016.36
425.07	4028.06
425.26	4004.66
425.45	3904.01
425.64	3948.48
425.83	3932.10
426.01	4100.62
426.20	4133.39
426.39	4231.69
426.58	4028.06
426.77	4030.40
426.96	4014.02
427.15	4004.66
427.33	4121.68
427.52	4023.38
427.71	4152.11
427.90	4182.54
428.09	4205.94
428.28	4236.37
428.46	4339.35
428.65	4196.58
428.84	4283.18
429.03	4212.96
429.22	4248.07
429.40	4147.43
429.59	4074.87
429.78	4138.07
429.97	4053.81
430.16	4044.45
430.34	4145.09
430.53	4308.93
430.72	4285.52
430.91	4294.88
431.10	4517.23
431.28	4692.77
431.47	4667.03
431.66	4854.27
431.85	4652.98
432.03	4657.67
432.22	4800.44
432.41	4585.11
432.60	4720.86
432.79	4760.65
432.97	4924.49
433.16	4751.29
433.35	4638.94
433.54	4795.76
433.72	4770.01
433.91	4772.35
434.10	4828.53
434.28	4985.34
434.47	4865.97
434.66	4999.38
434.85	4844.91
435.03	4926.83
435.22	5043.85
435.41	5172.58
435.59	5284.93
435.78	5130.45
435.97	5298.97
436.16	5238.12
436.34	5167.90
436.53	5116.41
436.72	5320.04
436.90	5048.54
437.09	5224.08
437.28	5163.22
437.46	5345.78
437.65	5268.55
437.84	5231.10
438.02	5298.97
438.21	5317.70
438.40	5130.45
438.58	5490.90
438.77	5540.05
438.96	5521.32
439.14	5603.24
439.33	5591.54
439.52	5626.65
439.70	5633.67
439.89	5715.59
440.08	5738.99
440.26	5715.59
440.45	5762.40
440.63	6026.88
440.82	6019.86
441.01	5996.45
441.19	6146.25
441.38	6162.63
441.57	6179.01
441.75	6298.38
441.94	6450.52
442.12	6436.47
442.31	6389.66
442.50	6375.62
442.68	6462.22
442.87	6214.12
443.05	6368.60
443.24	6710.32
443.43	6609.67
443.61	6705.63
443.80	6733.72
443.98	6494.99
444.17	6434.13
444.35	6796.92
444.54	6857.77
444.73	6651.80
444.91	6544.14
445.10	6504.35
445.28	6689.25
445.47	6679.89
445.65	6614.35
445.84	6450.52
446.02	6537.12
446.21	6736.06
446.39	6656.48
446.58	6759.47
446.77	6724.36
446.95	6574.56
447.14	6736.06
447.32	6906.92
447.51	6740.74
447.69	6815.64
447.88	6743.08
448.06	6836.70
448.25	6771.17
448.43	6700.95
448.62	6892.88
448.80	6766.49
448.99	6974.80
449.17	6960.75
449.36	6923.30
449.54	7052.03
449.73	7042.67
449.91	7098.84
450.10	7382.05
450.28	7442.90
450.46	7372.69
450.65	7307.15
450.83	7335.24
451.02	7332.90
451.20	7360.98
451.39	7321.20
451.57	7339.92
451.76	7468.65
451.94	7363.33
452.13	7485.03
452.31	7377.37
452.49	7204.17
452.68	7325.88
452.86	7222.89
453.05	7445.24
453.23	7330.56
453.42	7370.35
453.60	7473.33
453.78	7740.15
453.97	7506.10
454.15	7445.24
454.34	7543.55
454.52	7700.36
454.70	7550.57
454.89	7833.77
455.07	7693.34
455.26	7576.31
455.44	7791.64
455.62	7899.31
455.81	7625.47
455.99	7688.66
456.17	7892.29
456.36	7960.16
456.54	8180.17
456.73	8128.68
456.91	8351.03
457.09	8196.56
457.28	8329.97
457.46	8156.77
457.64	8325.29
457.83	8135.70
458.01	8194.22
458.19	8322.94
458.38	8332.31
458.56	8444.65
458.74	8362.73
458.93	8313.58
459.11	8535.93
459.29	8456.36
459.48	8510.19
459.66	8528.91
459.84	8486.78
460.03	8713.81
460.21	8650.62
460.39	8631.90
460.57	8456.36
460.76	8547.64
460.94	8819.14
461.12	8741.90
461.31	8638.92
461.49	8856.59
461.67	8702.11
461.85	8877.65
462.04	8870.63
462.22	9404.27
462.40	9224.05
462.59	8980.64
462.77	9139.79
462.95	9132.77
463.13	9013.40
463.32	8966.59
463.50	9090.64
463.68	9177.24
463.86	9228.73
464.05	9088.30
464.23	9013.40
464.41	9254.48
464.59	9046.17
464.78	9312.99
464.96	9153.84
465.14	9355.12
465.32	9327.03
465.50	9343.42
465.69	9554.07
465.87	9383.21
466.05	9287.25
466.23	9247.46
466.41	9540.02
466.60	9584.49
466.78	9310.65
466.96	9235.75
467.14	9411.29
467.32	9626.62
467.51	9675.77
467.69	9535.34
467.87	9509.60
468.05	9708.54
468.23	9540.02
468.41	9626.62
468.60	9465.13
468.78	9921.53
468.96	9628.96
469.14	9785.78
469.32	9900.47
469.50	9645.35
469.69	9921.53
469.87	9877.06
470.05	9954.30
470.23	9844.29
470.41	9909.83
470.59	10211.76
470.77	10008.13
470.95	10207.08
471.14	10452.83
471.32	10242.18
471.50	10586.24
471.68	10420.06
471.86	10480.92
472.04	10560.50
472.22	10548.79
472.40	10820.30
472.58	10630.71
472.77	10717.31
472.95	10572.20
473.13	11012.22
473.31	10698.59
473.49	10642.42
473.67	10665.82
473.85	10897.53
474.03	11082.44
474.21	11274.36
474.39	11243.93
474.57	10988.82
474.75	11370.32
474.93	11295.43
475.12	11171.38
475.30	11363.30
475.48	11485.01
475.66	11482.67
475.84	11557.57
476.02	11630.12
476.20	11634.80
476.38	12004.61
476.56	12163.76
476.74	11875.88
476.92	12025.67
477.10	11857.15
477.28	12229.30
477.46	12332.28
477.64	12493.78
477.82	12430.59
478.00	12580.38
478.18	12547.61
478.36	12636.55
478.54	12847.20
478.72	12959.55
478.90	13060.19
479.08	13198.28
479.26	13406.59
479.44	13322.33
479.62	13439.36
479.80	13706.18
479.98	13731.92
480.16	13921.51
480.34	13867.67
480.52	13888.74
480.70	14174.28
480.88	13907.46
481.06	14279.61
481.24	14368.55
481.41	14398.98
481.59	14691.54
481.77	14813.25
481.95	14710.27
482.13	14689.20
482.31	15007.52
482.49	14876.44
482.67	15229.87
482.85	15073.05
483.03	15651.16
483.21	15405.41
483.39	15880.53
483.57	15599.67
483.74	16004.58
483.92	15765.85
484.10	15948.41
484.28	16290.13
484.46	16126.29
484.64	16575.67
484.82	15784.57
485.00	16329.92
485.18	16566.31
485.35	16711.42
485.53	16276.09
485.71	16203.53
485.89	16748.87
486.07	16835.47
486.25	16805.05
486.43	17186.55
486.61	17158.47
486.78	17532.95
486.96	17996.38
487.14	17853.61
487.32	18087.66
487.50	18160.22
487.68	18225.75
487.85	18899.83
488.03	18824.93
488.21	18808.54
488.39	18883.44
488.57	19094.09
488.75	18977.06
488.92	19583.26
489.10	19700.29
489.28	19924.98
489.46	20084.14
489.64	19840.72
489.81	20470.33
489.99	20383.73
490.17	20755.87
490.35	20666.93
490.53	20648.21
490.70	20819.07
490.88	21109.29
491.06	21399.52
491.24	20943.11
491.41	20996.95
491.59	21156.10
491.77	21366.75
491.95	21226.32
492.13	21593.78
492.30	22050.19
492.48	21956.57
492.66	22223.39
492.84	22218.71
493.01	22295.94
493.19	22405.95
493.37	22642.34
493.54	22640.00
493.72	22941.93
493.90	22958.31
494.08	23077.68
494.25	23510.68
494.43	23473.23
494.61	23496.64
494.79	23777.50
494.96	23803.25
495.14	23889.85
495.32	24034.96
495.49	24322.85
495.67	24217.52
495.85	24584.99
496.02	24400.08
496.20	24907.98
496.38	25062.46
496.55	24931.39
496.73	25818.45
496.91	25238.00
497.09	25432.26
497.26	25640.57
497.44	25565.67
497.62	25549.29
497.79	25638.23
497.97	25453.33
498.14	25635.89
498.32	25956.54
498.50	25628.87
498.67	26466.78
498.85	26417.63
499.03	26574.44
499.20	26955.95
499.38	26700.83
499.56	26663.38
499.73	26944.25
499.91	26995.74
500.08	26869.35
500.26	26855.31
500.44	26993.40
500.61	27026.17
500.79	26778.07
500.97	27433.42
501.14	27847.69
501.32	27730.67
501.49	27655.77
501.67	27885.14
501.84	27725.99
502.02	28144.94
502.20	28121.54
502.37	28463.25
502.55	28044.30
502.72	28704.33
502.90	28409.42
503.07	28339.21
503.25	28765.18
503.43	28678.58
503.60	28762.84
503.78	28741.78
503.95	28779.23
504.13	29067.11
504.30	29413.51
504.48	28938.38
504.65	29649.91
504.83	29528.20
505.01	29563.31
505.18	29544.58
505.36	30036.09
505.53	29551.60
505.71	30249.08
505.88	29970.56
506.06	29797.36
506.23	30230.36
506.41	29830.13
506.58	30328.66
506.76	30401.22
506.93	30370.79
507.11	30426.96
507.28	30609.53
507.46	30792.09
507.63	30841.24
507.81	30679.74
507.98	30794.43
508.16	30824.86
508.33	30897.41
508.50	31098.70
508.68	31283.60
508.85	31512.97
509.03	31335.09
509.20	31384.24
509.38	31850.01
509.55	31660.43
509.73	31604.25
509.90	31435.74
510.08	31833.63
510.25	31817.24
510.42	32027.89
510.60	32519.40
510.77	32283.01
510.95	32631.75
511.12	32070.02
511.30	32669.20
511.47	32416.42
511.64	32308.76
511.82	33130.28
511.99	33046.02
512.17	33057.73
512.34	32751.12
512.51	33401.79
512.69	33167.73
512.86	33591.37
513.04	33858.19
513.21	33432.21
513.38	33151.35
513.56	33111.56
513.73	33263.69
513.90	33350.29
514.08	33605.41
514.25	33528.17
514.43	33865.21
514.60	33420.51
514.77	33755.21
514.95	34045.43
515.12	34614.18
515.29	34277.15
515.47	34438.64
515.64	34295.87
515.81	33944.79
515.99	34962.92
516.16	34483.11
516.33	34019.69
516.51	34705.46
516.68	34157.78
516.85	33860.53
517.03	34333.32
517.20	34272.46
517.37	34263.10
517.54	34799.08
517.72	34983.99
517.89	34387.15
518.06	35040.16
518.24	34225.65
518.41	34923.13
518.58	35068.25
518.75	35386.56
518.93	35433.37
519.10	35868.71
519.27	35824.24
519.45	36091.06
519.62	35679.13
519.79	36034.89
519.96	36077.02
520.14	36233.83
520.31	35758.70
520.48	36018.50
520.65	36009.14
520.83	36687.90
521.00	36641.09
521.17	36554.49
521.34	36643.43
521.52	36844.71
521.69	36467.89
521.86	37301.12
522.03	36882.16
522.20	36828.33
522.38	36814.29
522.55	36842.37
522.72	37312.82
522.89	36954.72
523.07	37233.24
523.24	37060.04
523.41	37694.33
523.58	37270.69
523.75	37897.95
523.92	37661.56
524.10	37968.17
524.27	37979.87
524.44	38632.88
524.61	38052.43
524.78	38061.79
524.96	38265.42
525.13	38412.87
525.30	38412.87
525.47	38595.43
525.64	38347.34
525.81	38501.81
525.98	37888.59
526.16	38471.39
526.33	37928.38
526.50	38270.10
526.67	38286.48
526.84	38199.88
527.01	38117.96
527.18	38347.34
527.36	38635.22
527.53	39164.18
527.70	39154.82
527.87	39126.74
528.04	39501.22
528.21	39143.12
528.38	39449.73
528.55	39512.92
528.72	39051.84
528.89	39625.27
529.07	39665.06
529.24	39548.03
529.41	39555.05
529.58	39210.99
529.75	39255.46
529.92	39924.86
530.09	39714.21
530.26	39545.69
530.43	39929.54
530.60	39835.92
530.77	39924.86
530.94	40346.15
531.11	39882.73
531.28	40053.59
531.46	40179.98
531.63	40027.84
531.80	40432.75
531.97	40339.13
532.14	39845.28
532.31	39826.56
532.48	40046.57
532.65	40374.24
532.82	40713.62
532.99	40781.49
533.16	40631.70
533.33	40540.42
533.50	40620.00
533.67	40797.88
533.84	40772.13
534.01	40821.28
534.18	40823.62
534.35	41226.20
534.52	41008.53
534.69	41446.21
534.86	41148.96
535.03	41268.33
535.20	41387.69
535.37	41914.31
535.54	41720.05
535.71	41607.70
535.88	41296.41
536.05	41174.70
536.22	41373.65
536.38	41235.56
536.55	41706.01
536.72	41586.64
536.89	40940.65
537.06	41500.04
537.23	41610.04
537.40	41696.64
537.57	41977.51
537.74	42005.59
537.91	42321.57
538.08	42059.43
538.25	41813.67
538.42	41603.02
538.59	42234.97
538.75	41766.86
538.92	42045.38
539.09	42026.66
539.26	41926.02
539.43	41968.15
539.60	42244.33
539.77	41738.77
539.94	41813.67
540.11	41841.76
540.28	42057.09
540.44	42169.43
540.61	42249.01
540.78	42349.65
540.95	42288.80
541.12	41710.69
541.29	42665.63
541.46	42361.36
541.62	42532.22
541.79	42986.28
541.96	42651.58
542.13	42574.34
542.30	42965.21
542.47	42689.03
542.63	42609.45
542.80	43175.86
542.97	43269.48
543.14	43316.29
543.31	43070.54
543.48	43440.34
543.64	44006.75
543.81	44168.25
543.98	43442.68
544.15	43487.15
544.32	43770.36
544.48	43730.57
544.65	43423.96
544.82	43693.12
544.99	43309.27
545.16	44009.09
545.32	43133.73
545.49	43622.90
545.66	44018.46
545.83	44018.46
546.00	44229.10
546.16	43847.60
546.33	43606.52
546.50	43501.20
546.67	43929.51
546.83	44020.80
547.00	44002.07
547.17	44072.29
547.34	43538.65
547.50	44261.87
547.67	44449.11
547.84	44114.42
548.00	44439.75
548.17	44329.75
548.34	44318.04
548.51	44390.60
548.67	44425.71
548.84	44758.06
549.01	44325.07
549.18	44189.31
549.34	44804.88
549.51	44399.96
549.68	44994.46
549.84	44767.43
550.01	44999.14
550.18	44414.01
550.34	44779.13
550.51	45045.95
550.68	44636.36
550.84	44271.23
551.01	45151.27
551.18	44973.39
551.34	44900.84
551.51	44786.15
551.68	45059.99
551.84	45228.51
552.01	45296.39
552.18	45254.26
552.34	44439.75
552.51	45228.51
552.68	45134.89
552.84	45542.14
553.01	45495.33
553.18	45289.37
553.34	45390.01
553.51	45097.44
553.67	45415.76
553.84	45684.92
554.01	46017.27
554.17	45394.69
554.34	45607.68
554.51	45432.14
554.67	46050.04
554.84	45869.82
555.00	45474.27
555.17	45558.53
555.33	45720.02
555.50	45352.56
555.67	45830.03
555.83	45633.42
556.00	45345.54
556.16	46211.54
556.33	45942.38
556.50	45727.05
556.66	45893.22
556.83	45600.66
556.99	46012.59
557.16	45610.02
557.32	46005.57
557.49	45904.93
557.65	45689.60
557.82	45804.28
557.98	45961.10
558.15	45504.70
558.32	46045.36
558.48	45881.52
558.65	45546.82
558.81	45979.82
558.98	45855.78
559.14	45895.56
559.31	45975.14
559.47	45942.38
559.64	46225.58
559.80	46117.92
559.97	45677.90
560.13	46192.81
560.30	45970.46
560.46	46227.92
560.63	46143.66
560.79	46108.55
560.96	46220.90
561.12	46059.40
561.29	46064.08
561.45	45921.31
561.61	46487.72
561.78	45757.47
561.94	45928.33
562.11	46061.74
562.27	46080.47
562.44	46447.93
562.60	46689.01
562.77	46476.02
562.93	46445.59
563.10	46618.79
563.26	46141.32
563.42	46330.90
563.59	46651.56
563.75	46621.13
563.92	46185.79
564.08	46408.14
564.24	46562.62
564.41	46602.41
564.57	46651.56
564.74	46674.96
564.90	46543.89
565.07	46616.45
565.23	46511.13
565.39	46373.03
565.56	46188.13
565.72	46466.66
565.88	46298.14
566.05	46291.12
566.21	46595.38
566.38	46115.58
566.54	47016.68
566.70	46674.96
566.87	46913.70
567.03	46562.62
567.19	47098.60
567.36	47248.39
567.52	46520.49
567.68	46639.86
567.85	46625.81
568.01	46756.88
568.17	46571.98
568.34	46621.13
568.50	46670.28
568.66	46494.74
568.83	46543.89
568.99	46590.70
569.15	46590.70
569.32	46735.82
569.48	46368.35
569.64	46817.74
569.81	46857.52
569.97	46574.32
570.13	46827.10
570.30	46541.55
570.46	46148.34
570.62	46586.02
570.78	46574.32
570.95	46845.82
571.11	46621.13
571.27	46373.03
571.43	46508.79
571.60	46944.12
571.76	46724.11
571.92	46635.17
572.09	46845.82
572.25	46490.06
572.41	46520.49
572.57	46557.94
572.74	47480.11
572.90	47136.05
573.06	46651.56
573.22	47400.53
573.38	47084.56
573.55	46721.77
573.71	46972.21
573.87	47089.24
574.03	46843.48
574.20	46714.75
574.36	47337.33
574.52	46679.64
574.68	46656.24
574.84	47063.49
575.01	46749.86
575.17	47030.72
575.33	47077.54
575.49	46635.17
575.65	46962.85
575.82	47407.55
575.98	46941.78
576.14	46946.47
576.30	46852.84
576.46	46452.61
576.62	46894.97
576.79	46948.81
576.95	46871.57
577.11	46850.50
577.27	46665.60
577.43	46747.52
577.59	46761.56
577.75	47023.70
577.92	46349.63
578.08	46548.57
578.24	46536.87
578.40	46569.64
578.56	46878.59
578.72	46806.03
578.88	46876.25
579.04	47423.93
579.21	46850.50
579.37	46892.63
579.53	46548.57
579.69	46326.22
579.85	46885.61
580.01	47089.24
580.17	47449.68
580.33	47100.94
580.49	47234.35
580.65	47068.17
580.82	47063.49
580.98	46749.86
581.14	46745.18
581.30	47129.03
581.46	46969.87
581.62	47147.75
581.78	46930.08
581.94	47194.56
582.10	47145.41
582.26	47103.28
582.42	47402.87
582.58	47491.81
582.74	46630.49
582.90	47117.32
583.06	47320.95
583.22	47187.54
583.38	47316.27
583.54	47192.22
583.70	46946.47
583.86	47007.32
584.02	46937.10
584.18	46866.89
584.34	46979.23
584.50	47042.43
584.66	46953.49
584.82	46714.75
584.98	47107.96
585.14	46974.55
585.30	47023.70
585.46	47129.03
585.62	46616.45
585.78	46653.90
585.94	46791.99
586.10	46850.50
586.26	46904.34
586.42	47377.12
586.58	47096.26
586.74	47124.35
586.90	46569.64
587.06	46756.88
587.22	47152.43
587.38	46735.82
587.54	46784.97
587.70	47028.38
587.86	47044.77
588.02	47014.34
588.18	47196.90
588.34	47442.66
588.49	46623.47
588.65	46623.47
588.81	46658.58
588.97	46263.03
589.13	45923.65
589.29	46710.07
589.45	46857.52
589.61	46890.29
589.77	47009.66
589.93	46995.62
