SpectraSuite Data File
++++++++++++++++++++++++++++++++++++
Date: Fri Oct 25 10:44:15 EDT 2013
User: price-jones
Dark Spectrum Present: No
Reference Spectrum Present: No
Number of Sampled Component Spectra: 1
Spectrometers: USB2+H05261
Integration Time (usec): 100000 (USB2+H05261)
Spectra Averaged: 1 (USB2+H05261)
Boxcar Smoothing: 0 (USB2+H05261)
Correct for Electrical Dark: No (USB2+H05261)
Strobe/Lamp Enabled: No (USB2+H05261)
Correct for Detector Non-linearity: No (USB2+H05261)
Correct for Stray Light: No (USB2+H05261)
Number of Pixels in Processed Spectrum: 2048
>>>>>Begin Processed Spectral Data<<<<<
365.73	196.60
365.92	196.60
366.12	196.60
366.32	21.06
366.52	32.77
366.72	25.75
366.91	56.17
367.11	81.92
367.31	49.15
367.51	4.68
367.70	35.11
367.90	7.02
368.10	14.04
368.30	30.43
368.49	23.41
368.69	37.45
368.89	58.51
369.09	0.00
369.28	2.34
369.48	112.35
369.68	91.28
369.87	67.88
370.07	51.49
370.27	163.84
370.47	196.60
370.66	334.70
370.86	468.11
371.06	449.38
371.25	500.87
371.45	496.19
371.65	526.62
371.84	468.11
372.04	444.70
372.24	489.17
372.44	472.79
372.63	526.62
372.83	528.96
373.03	482.15
373.22	533.64
373.42	531.30
373.62	528.96
373.81	507.90
374.01	543.00
374.21	575.77
374.40	547.69
374.60	540.66
374.79	606.20
374.99	582.79
375.19	545.34
375.38	613.22
375.58	653.01
375.78	667.05
375.97	568.75
376.17	603.86
376.37	589.82
376.56	596.84
376.76	615.56
376.95	526.62
377.15	571.09
377.35	692.80
377.54	610.88
377.74	662.37
377.93	643.65
378.13	631.94
378.33	538.32
378.52	662.37
378.72	669.39
378.91	634.29
379.11	699.82
379.31	741.95
379.50	608.54
379.70	676.41
379.89	704.50
380.09	681.10
380.28	748.97
380.48	725.57
380.68	695.14
380.87	606.20
381.07	685.78
381.26	699.82
381.46	690.46
381.65	767.70
381.85	676.41
382.04	713.86
382.24	837.91
382.43	697.48
382.63	603.86
382.83	734.93
383.02	793.44
383.22	805.14
383.41	678.76
383.61	692.80
383.80	798.12
384.00	788.76
384.19	706.84
384.39	821.53
384.58	840.25
384.78	774.72
384.97	791.10
385.17	821.53
385.36	833.23
385.56	758.33
385.75	842.59
385.95	791.10
386.14	847.27
386.34	802.80
386.53	828.55
386.72	842.59
386.92	802.80
387.11	894.08
387.31	854.30
387.50	835.57
387.70	856.64
387.89	856.64
388.09	842.59
388.28	891.74
388.48	868.34
388.67	919.83
388.86	952.60
389.06	912.81
389.25	887.06
389.45	987.71
389.64	997.07
389.84	985.37
390.03	954.94
390.22	1025.15
390.42	978.34
390.61	1015.79
390.81	980.68
391.00	1083.67
391.19	1074.31
391.39	1107.07
391.58	1064.94
391.78	1048.56
391.97	976.00
392.16	1015.79
392.36	1074.31
392.55	1086.01
392.75	990.05
392.94	957.28
393.13	997.07
393.33	1022.81
393.52	1100.05
393.71	1088.35
393.91	1083.67
394.10	1062.60
394.29	1156.22
394.49	1235.80
394.68	1231.12
394.88	1198.35
395.07	1303.68
395.26	1287.29
395.46	1170.27
395.65	1259.21
395.84	1153.88
396.04	1242.82
396.23	1254.53
396.42	1214.74
396.62	1186.65
396.81	1247.51
397.00	1275.59
397.19	1273.25
397.39	1259.21
397.58	1327.08
397.77	1427.73
397.97	1399.64
398.16	1387.94
398.35	1455.81
398.55	1406.66
398.74	1540.07
398.93	1500.28
399.12	1519.01
399.32	1504.96
399.51	1392.62
399.70	1547.09
399.90	1603.27
400.09	1689.87
400.28	1682.85
400.47	1624.33
400.67	1605.61
400.86	1757.74
401.05	1640.72
401.24	1727.32
401.44	1771.79
401.63	1743.70
401.82	1586.88
402.01	1729.66
402.21	1696.89
402.40	1706.25
402.59	1652.42
402.78	1694.55
402.97	1811.57
403.17	1732.00
403.36	1849.02
403.55	1888.81
403.74	1867.75
403.93	1795.19
404.13	1893.49
404.32	1785.83
404.51	1926.26
404.70	1963.71
404.89	1865.41
405.09	1944.99
405.28	1914.56
405.47	1968.39
405.66	1980.09
405.85	1881.79
406.05	1891.15
406.24	2062.01
406.43	2057.33
406.62	1991.80
406.81	2183.72
407.00	1923.92
407.20	2024.56
407.39	2069.03
407.58	2279.68
407.77	2193.08
407.96	2169.68
408.15	2183.72
408.34	2211.81
408.54	2214.15
408.73	2218.83
408.92	2363.94
409.11	2258.62
409.30	2267.98
409.49	2319.47
409.68	2293.72
409.87	2347.56
410.07	2352.24
410.26	2389.69
410.45	2361.60
410.64	2406.07
410.83	2555.86
411.02	2532.46
411.21	2619.06
411.40	2630.76
411.59	2693.96
411.78	2672.89
411.98	2612.04
412.17	2710.34
412.36	2740.77
412.55	2799.28
412.74	2740.77
412.93	2729.06
413.12	2796.94
413.31	2876.52
413.50	2822.69
413.69	2827.37
413.88	2860.13
414.07	2895.24
414.26	2918.65
414.45	2850.77
414.64	2993.55
414.83	3045.04
415.02	3054.40
415.22	3068.44
415.41	3033.33
415.60	3141.00
415.79	3077.80
415.98	3234.62
416.17	3206.53
416.36	3178.45
416.55	3288.45
416.74	3269.73
416.93	3325.90
417.12	3332.92
417.31	3335.26
417.50	3276.75
417.69	3524.85
417.88	3445.27
418.07	3454.63
418.26	3304.84
418.45	3471.01
418.64	3597.40
418.83	3588.04
419.02	3508.46
419.21	3590.38
419.39	3602.08
419.58	3471.01
419.77	3428.88
419.96	3641.87
420.15	3857.20
420.34	3667.62
420.53	3861.88
420.72	3871.25
420.91	3936.78
421.10	3885.29
421.29	4025.72
421.48	3707.41
421.67	3889.97
421.86	3740.18
422.05	3679.32
422.24	3705.07
422.43	3805.71
422.61	3831.46
422.80	3967.21
422.99	3794.01
423.18	3943.80
423.37	3999.98
423.56	3932.10
423.75	3871.25
423.94	3852.52
424.13	3597.40
424.32	3737.84
424.50	3985.93
424.69	4081.89
424.88	4049.13
425.07	3861.88
425.26	3861.88
425.45	3845.50
425.64	4081.89
425.83	3995.29
426.01	4086.58
426.20	4002.32
426.39	3845.50
426.58	3892.31
426.77	4030.40
426.96	3946.14
427.15	3927.42
427.33	3943.80
427.52	4109.98
427.71	4140.41
427.90	4152.11
428.09	4117.00
428.28	4037.42
428.46	4191.90
428.65	4161.47
428.84	4203.60
429.03	4168.49
429.22	4021.04
429.40	4196.58
429.59	4180.20
429.78	3936.78
429.97	3967.21
430.16	4074.87
430.34	4049.13
430.53	4170.83
430.72	4180.20
430.91	4318.29
431.10	4367.44
431.28	4512.55
431.47	4531.28
431.66	4716.18
431.85	4578.09
432.03	4641.28
432.22	4596.81
432.41	4704.48
432.60	4821.50
432.79	4617.88
432.97	4746.61
433.16	4716.18
433.35	4615.54
433.54	4725.54
433.72	4620.22
433.91	4624.90
434.10	4774.69
434.28	4870.65
434.47	4858.95
434.66	4858.95
434.85	4908.10
435.03	4983.00
435.22	4912.78
435.41	5221.74
435.59	5046.20
435.78	5111.73
435.97	5313.02
436.16	5158.54
436.34	5308.34
436.53	5116.41
436.72	5364.51
436.90	5104.71
437.09	5109.39
437.28	5046.20
437.46	5219.39
437.65	5125.77
437.84	5268.55
438.02	5144.50
438.21	5303.65
438.40	5132.79
438.58	5298.97
438.77	5327.06
438.96	5273.23
439.14	5530.69
439.33	5568.13
439.52	5717.93
439.70	5596.22
439.89	5579.84
440.08	5727.29
440.26	5713.25
440.45	5699.20
440.63	5872.40
440.82	6029.22
441.01	5827.93
441.19	5994.11
441.38	6225.82
441.57	6064.33
441.75	6225.82
441.94	6340.51
442.12	6289.02
442.31	6436.47
442.50	6291.36
442.68	6118.16
442.87	6305.40
443.05	6392.00
443.24	6413.07
443.43	6246.89
443.61	6338.17
443.80	6640.10
443.98	6401.37
444.17	6258.59
444.35	6366.26
444.54	6698.61
444.73	6555.84
444.91	6548.82
445.10	6513.71
445.28	6256.25
445.47	6216.46
445.65	6516.05
445.84	6537.12
446.02	6633.08
446.21	6619.04
446.39	6511.37
446.58	6558.18
446.77	6747.76
446.95	6616.69
447.14	6590.95
447.32	6799.26
447.51	6768.83
447.69	6553.50
447.88	6647.12
448.06	6651.80
448.25	6602.65
448.43	6839.05
448.62	6803.94
448.80	6794.58
448.99	6935.01
449.17	6785.21
449.36	6806.28
449.54	7089.48
449.73	7030.97
449.91	7171.40
450.10	7243.96
450.28	7274.38
450.46	7365.67
450.65	7300.13
450.83	7150.34
451.02	6998.20
451.20	7194.81
451.39	7199.49
451.57	7262.68
451.76	7258.00
451.94	7138.63
452.13	7311.83
452.31	7136.29
452.49	7049.69
452.68	7241.62
452.86	7192.47
453.05	7176.08
453.23	7410.14
453.42	7152.68
453.60	7309.49
453.78	7339.92
453.97	7407.80
454.15	7344.60
454.34	7391.41
454.52	7452.27
454.70	7585.68
454.89	7566.95
455.07	7557.59
455.26	7470.99
455.44	7786.96
455.62	7674.62
455.81	7709.72
455.99	7667.60
456.17	7829.09
456.36	7866.54
456.54	7953.14
456.73	7955.48
456.91	8184.85
457.09	8084.21
457.28	8219.96
457.46	7962.50
457.64	8088.89
457.83	8224.64
458.01	7999.95
458.19	8297.20
458.38	8086.55
458.56	8285.50
458.74	8135.70
458.93	8252.73
459.11	8205.92
459.29	8276.13
459.48	8344.01
459.66	8484.44
459.84	8304.22
460.03	8514.87
460.21	8552.32
460.39	8549.98
460.57	8662.32
460.76	8414.23
460.94	8566.36
461.12	8699.77
461.31	8676.37
461.49	8585.08
461.67	8627.21
461.85	8905.74
462.04	8725.52
462.22	8910.42
462.40	8879.99
462.59	8784.03
462.77	8954.89
462.95	9095.32
463.13	8844.88
463.32	8762.97
463.50	9132.77
463.68	8947.87
463.86	9125.75
464.05	8924.46
464.23	8966.59
464.41	9013.40
464.59	8943.19
464.78	9135.11
464.96	9135.11
465.14	8992.34
465.32	9219.37
465.50	9301.29
465.69	9195.96
465.87	9144.47
466.05	9240.44
466.23	9226.39
466.41	9132.77
466.60	9617.26
466.78	9179.58
466.96	9111.71
467.14	9490.87
467.32	9385.55
467.51	9542.36
467.69	9298.95
467.87	9408.95
468.05	9565.77
468.23	9282.56
468.41	9287.25
468.60	9863.02
468.78	9579.81
468.96	9441.72
469.14	9589.17
469.32	9600.88
469.50	9469.81
469.69	9640.67
469.87	9591.52
470.05	9825.57
470.23	9802.16
470.41	9898.13
470.59	9909.83
470.77	10111.11
470.95	10059.62
471.14	10125.16
471.32	9970.68
471.50	10406.02
471.68	10033.88
471.86	10492.62
472.04	10338.15
472.22	10576.88
472.40	10251.55
472.58	10523.05
472.77	10410.70
472.95	10602.63
473.13	10792.21
473.31	10766.46
473.49	10616.67
473.67	10689.23
473.85	10775.83
474.03	11014.56
474.21	10864.77
474.39	11108.18
474.57	11002.86
474.75	11082.44
474.93	11360.96
475.12	11265.00
475.30	11215.85
475.48	11169.04
475.66	11293.08
475.84	11180.74
476.02	11529.48
476.20	11466.28
476.38	11356.28
476.56	11882.90
476.74	11747.15
476.92	11939.07
477.10	11882.90
477.28	11932.05
477.46	12358.03
477.64	12042.06
477.82	12177.81
478.00	12662.30
478.18	12510.16
478.36	12631.87
478.54	12638.89
478.72	12879.97
478.90	13004.02
479.08	13245.09
479.26	13261.48
479.44	13291.90
479.62	13179.56
479.80	13214.66
479.98	13350.42
480.16	13895.76
480.34	13722.56
480.52	13715.54
480.70	13642.98
480.88	13764.69
481.06	13940.23
481.24	14080.66
481.41	14366.21
481.59	14485.58
481.77	14574.52
481.95	14370.89
482.13	14864.74
482.31	14724.31
482.49	14834.32
482.67	14724.31
482.85	14965.39
483.03	15096.46
483.21	15274.34
483.39	15068.37
483.57	15171.35
483.74	15307.10
483.92	15679.25
484.10	15618.39
484.28	15873.51
484.46	16238.64
484.64	16390.77
484.82	15948.41
485.00	16170.76
485.18	16496.10
485.35	16425.88
485.53	16250.34
485.71	16285.45
485.89	16458.65
486.07	16535.88
486.25	16451.63
486.43	16933.78
486.61	16830.79
486.78	17312.94
486.96	17420.61
487.14	17689.77
487.32	17598.49
487.50	17930.84
487.68	18139.15
487.85	18092.34
488.03	18497.25
488.21	18658.75
488.39	18574.49
488.57	18822.59
488.75	18551.09
488.92	18824.93
489.10	19609.01
489.28	19152.60
489.46	19742.42
489.64	19604.33
489.81	20023.28
489.99	20140.31
490.17	20320.53
490.35	20343.94
490.53	20458.62
490.70	20634.16
490.88	20414.15
491.06	20739.49
491.24	21022.69
491.41	20856.51
491.59	20622.46
491.77	20893.96
491.95	21034.39
492.13	21502.50
492.30	21750.60
492.48	21802.09
492.66	21820.81
492.84	22024.44
493.01	22146.15
493.19	21947.20
493.37	22256.15
493.54	22150.83
493.72	22574.47
493.90	22506.59
494.08	22726.60
494.25	23019.17
494.43	23133.86
494.61	23281.31
494.79	23267.27
494.96	23360.89
495.14	23356.21
495.32	23803.25
495.49	23480.25
495.67	23765.80
495.85	24044.32
496.02	24203.48
496.20	24547.54
496.38	24292.42
496.55	24524.13
496.73	24893.94
496.91	25062.46
497.09	24840.11
497.26	25247.36
497.44	25015.65
497.62	25415.88
497.79	25481.41
497.97	25294.17
498.14	25401.83
498.32	25280.13
498.50	25902.71
498.67	25748.23
498.85	26029.10
499.03	26033.78
499.20	26167.19
499.38	26508.91
499.56	26244.43
499.73	26721.90
499.91	26590.83
500.08	26466.78
500.26	26279.54
500.44	26754.66
500.61	26899.78
500.79	26733.60
500.97	26616.57
501.14	27147.87
501.32	26902.12
501.49	27012.12
501.67	26925.52
501.84	27515.34
502.02	27435.76
502.20	27641.73
502.37	27915.57
502.55	27627.68
502.72	27997.49
502.90	27983.44
503.07	27946.00
503.25	28276.01
503.43	28191.75
503.60	27946.00
503.78	28486.66
503.95	28109.83
504.13	28367.29
504.30	28961.79
504.48	28687.95
504.65	28811.99
504.83	29013.28
505.01	29523.52
505.18	29008.60
505.36	29947.15
505.53	29577.35
505.71	29811.40
505.88	29666.29
506.06	29357.34
506.23	29539.90
506.41	29207.55
506.58	29886.30
506.76	29488.41
506.93	30291.21
507.11	29729.48
507.28	30141.42
507.46	29956.52
507.63	30155.46
507.81	30384.83
507.98	30012.69
508.16	30244.40
508.33	30639.95
508.50	30902.09
508.68	30838.90
508.85	31197.00
509.03	30923.16
509.20	31220.41
509.38	31372.54
509.55	31470.84
509.73	31466.16
509.90	31035.50
510.08	31473.18
510.25	31367.86
510.42	31372.54
510.60	31377.22
510.77	31796.18
510.95	32072.36
511.12	32063.00
511.30	32465.57
511.47	32505.36
511.64	32556.85
511.82	32446.85
511.99	32013.85
512.17	32671.54
512.34	32526.42
512.51	32814.31
512.69	32774.52
512.86	32837.72
513.04	33083.47
513.21	32828.35
513.38	32734.73
513.56	32978.15
513.73	32573.24
513.90	33027.30
514.08	33127.94
514.25	33270.72
514.43	33312.84
514.60	33472.00
514.77	33333.91
514.95	33893.30
515.12	33605.41
515.29	33752.87
515.47	33832.44
515.64	33942.45
515.81	34178.84
515.99	33919.04
516.16	33886.28
516.33	33532.86
516.51	33905.00
516.68	33467.32
516.85	33200.50
517.03	33586.69
517.20	33546.90
517.37	33944.79
517.54	34361.40
517.72	34363.75
517.89	33956.49
518.06	34174.16
518.24	34089.90
518.41	34108.63
518.58	34670.36
518.75	34955.90
518.93	34834.19
519.10	35000.37
519.27	35019.10
519.45	35115.06
519.62	34848.24
519.79	35356.13
519.96	35503.59
520.14	35683.81
520.31	35264.85
520.48	35732.96
520.65	35592.53
520.83	36414.05
521.00	35817.22
521.17	35744.66
521.34	36378.95
521.52	36257.24
521.69	36481.93
521.86	36598.96
522.03	36306.39
522.20	36610.66
522.38	36058.29
522.55	36435.12
522.72	36556.83
522.89	36371.92
523.07	36416.40
523.24	36720.66
523.41	36900.89
523.58	37364.31
523.75	37226.22
523.92	36966.42
524.10	37748.16
524.27	37357.29
524.44	37141.96
524.61	37507.08
524.78	37109.19
524.96	37446.23
525.13	37661.56
525.30	37827.74
525.47	37926.04
525.64	37530.49
525.81	38029.02
525.98	37532.83
526.16	37479.00
526.33	37223.88
526.50	37509.43
526.67	36994.51
526.84	37357.29
527.01	37490.70
527.18	37930.72
527.36	38036.05
527.53	38071.15
527.70	39000.35
527.87	38682.03
528.04	38810.76
528.21	38513.52
528.38	38632.88
528.55	38808.42
528.72	38808.42
528.89	39431.01
529.07	38546.28
529.24	38562.67
529.41	39005.03
529.58	38871.62
529.75	39019.07
529.92	39175.89
530.09	39356.11
530.26	39218.02
530.43	39182.91
530.60	39529.31
530.77	39459.09
530.94	39564.42
531.11	39110.35
531.28	39433.35
531.46	39803.15
531.63	39454.41
531.80	39442.71
531.97	39431.01
532.14	39419.30
532.31	39225.04
532.48	39468.45
532.65	39482.50
532.82	39793.79
532.99	39976.35
533.16	40060.61
533.33	40538.08
533.50	40456.16
533.67	40236.15
533.84	40142.53
534.01	40484.25
534.18	40081.67
534.35	40605.95
534.52	40048.91
534.69	40456.16
534.86	40016.14
535.03	40430.41
535.20	40549.78
535.37	41053.00
535.54	41205.13
535.71	40224.45
535.88	40495.95
536.05	41029.59
536.22	41013.21
536.38	40893.84
536.55	41015.55
536.72	40542.76
536.89	40774.47
537.06	41050.66
537.23	40942.99
537.40	41212.15
537.57	41455.57
537.74	41586.64
537.91	41497.70
538.08	41258.96
538.25	41116.19
538.42	41638.13
538.59	41677.92
538.75	41326.84
538.92	41163.00
539.09	41586.64
539.26	41558.55
539.43	41551.53
539.60	41443.87
539.77	41427.48
539.94	41146.62
540.11	41579.62
540.28	41942.40
540.44	41415.78
540.61	41689.62
540.78	41626.43
540.95	41612.38
541.12	41289.39
541.29	41942.40
541.46	41823.03
541.62	42026.66
541.79	42213.90
541.96	41364.29
542.13	41818.35
542.30	42359.02
542.47	41869.84
542.63	42052.41
542.80	42305.18
542.97	42632.86
543.14	42944.15
543.31	42990.96
543.48	42710.10
543.64	43124.37
543.81	42930.11
543.98	43105.65
544.15	42909.04
544.32	43098.62
544.48	43426.30
544.65	43337.36
544.82	43470.77
544.99	43044.79
545.16	42792.01
545.32	43566.73
545.49	43351.40
545.66	43304.59
545.83	43473.11
546.00	43409.92
546.16	43346.72
546.33	43115.01
546.50	42955.85
546.67	43744.61
546.83	43271.82
547.00	43206.29
547.17	43005.00
547.34	43337.36
547.50	43555.03
547.67	43749.29
547.84	43559.71
548.00	43761.00
548.17	44238.47
548.34	43704.82
548.51	44060.58
548.67	43952.92
548.84	43615.88
549.01	43660.35
549.18	43438.00
549.34	43573.75
549.51	44112.08
549.68	44156.55
549.84	44119.10
550.01	44119.10
550.18	44418.69
550.34	44376.56
550.51	44100.37
550.68	44313.36
550.84	43985.69
551.01	44044.20
551.18	44109.74
551.34	44083.99
551.51	44360.17
551.68	44465.50
551.84	44479.54
552.01	44156.55
552.18	44470.18
552.34	44341.45
552.51	44364.85
552.68	44493.58
552.84	44561.46
553.01	44821.26
553.18	44381.24
553.34	44481.88
553.51	44718.28
553.67	44432.73
553.84	45017.86
554.01	44886.79
554.17	44935.95
554.34	44828.28
554.51	44842.32
554.67	44786.15
554.84	44879.77
555.00	45057.65
555.17	45003.82
555.33	44966.37
555.50	44811.90
555.67	44638.70
555.83	44924.24
556.00	44854.03
556.16	45148.93
556.33	44931.26
556.50	44861.05
556.66	44439.75
556.83	44821.26
556.99	45394.69
557.16	45139.57
557.32	45148.93
557.49	45319.79
557.65	45008.50
557.82	45141.91
557.98	45261.28
558.15	45022.54
558.32	44926.58
558.48	45574.91
558.65	45291.71
558.81	44825.94
558.98	45329.16
559.14	45120.85
559.31	45666.19
559.47	45535.12
559.64	45570.23
559.80	45265.96
559.97	45481.29
560.13	45289.37
560.30	45333.84
560.46	45202.77
560.63	45406.39
560.79	45624.06
560.96	45654.49
561.12	45209.79
561.29	45471.93
561.45	45394.69
561.61	45666.19
561.78	45563.21
561.94	45275.32
562.11	45422.78
562.27	45469.59
562.44	45916.63
562.60	45481.29
562.77	45572.57
562.93	45567.89
563.10	46033.66
563.26	45354.90
563.42	45925.99
563.59	45127.87
563.75	45738.75
563.92	45752.79
564.08	45991.53
564.24	45893.22
564.41	45579.59
564.57	45708.32
564.74	45858.12
564.90	45701.30
565.07	46045.36
565.23	46068.76
565.39	45556.19
565.56	45762.15
565.72	45607.68
565.88	45808.96
566.05	45673.21
566.21	45689.60
566.38	45647.47
566.54	45886.20
566.70	46092.17
566.87	46391.76
567.03	46012.59
567.19	46461.97
567.36	45916.63
567.52	45907.27
567.68	45860.46
567.85	45727.05
568.01	46248.99
568.17	46155.36
568.34	46218.56
568.50	45666.19
568.66	45811.31
568.83	45808.96
568.99	45661.51
569.15	45160.64
569.32	45750.45
569.48	45958.76
569.64	46197.49
569.81	46251.33
569.97	45860.46
570.13	45944.72
570.30	45883.86
570.46	45815.99
570.62	45565.55
570.78	45743.43
570.95	46052.38
571.11	45729.39
571.27	46164.73
571.43	45675.55
571.60	46129.62
571.76	46026.63
571.92	46122.60
572.09	46089.83
572.25	46272.39
572.41	46155.36
572.57	46845.82
572.74	46932.42
572.90	46230.26
573.06	46368.35
573.22	46014.93
573.38	45970.46
573.55	45911.95
573.71	46333.24
573.87	45727.05
574.03	46192.81
574.20	46209.20
574.36	46342.61
574.52	46497.08
574.68	46209.20
574.84	46251.33
575.01	46101.53
575.17	45972.80
575.33	45986.85
575.49	45811.31
575.65	46225.58
575.82	46033.66
575.98	46183.45
576.14	46401.12
576.30	46080.47
576.46	46403.46
576.62	46389.42
576.79	46433.89
576.95	46270.05
577.11	45947.06
577.27	46199.83
577.43	46256.01
577.59	46167.07
577.75	45991.53
577.92	45783.22
578.08	45687.26
578.24	45560.87
578.40	45933.01
578.56	46209.20
578.72	46045.36
578.88	46389.42
579.04	46096.85
579.21	46424.53
579.37	45951.74
579.53	46014.93
579.69	46443.25
579.85	46155.36
580.01	46094.51
580.17	46021.95
580.33	46522.83
580.49	46443.25
580.65	46707.73
580.82	46410.48
580.98	46120.26
581.14	45911.95
581.30	46319.20
581.46	46237.28
581.62	46291.12
581.78	46248.99
581.94	46370.69
582.10	46351.97
582.26	46162.39
582.42	46251.33
582.58	46660.92
582.74	45717.68
582.90	46742.84
583.06	46466.66
583.22	46199.83
583.38	46656.24
583.54	46335.59
583.70	46256.01
583.86	46286.43
584.02	45860.46
584.18	46557.94
584.34	46113.23
584.50	46248.99
584.66	46031.32
584.82	45872.16
584.98	46466.66
585.14	46251.33
585.30	46370.69
585.46	46148.34
585.62	46721.77
585.78	45930.67
585.94	46326.22
586.10	46415.16
586.26	46433.89
586.42	46824.76
586.58	46527.51
586.74	46665.60
586.90	46174.09
587.06	46302.82
587.22	46164.73
587.38	46050.04
587.54	46389.42
587.70	46366.01
587.86	46178.77
588.02	46190.47
588.18	46267.71
588.34	46026.63
588.49	45759.81
588.65	45923.65
588.81	45909.61
588.97	46036.00
589.13	45560.87
589.29	46410.48
589.45	46155.36
589.61	46356.65
589.77	46621.13
589.93	46286.43
