SpectraSuite Data File
++++++++++++++++++++++++++++++++++++
Date: Fri Oct 25 10:44:39 EDT 2013
User: price-jones
Dark Spectrum Present: No
Reference Spectrum Present: No
Number of Sampled Component Spectra: 1
Spectrometers: USB2+H05261
Integration Time (usec): 100000 (USB2+H05261)
Spectra Averaged: 1 (USB2+H05261)
Boxcar Smoothing: 0 (USB2+H05261)
Correct for Electrical Dark: No (USB2+H05261)
Strobe/Lamp Enabled: No (USB2+H05261)
Correct for Detector Non-linearity: No (USB2+H05261)
Correct for Stray Light: No (USB2+H05261)
Number of Pixels in Processed Spectrum: 2048
>>>>>Begin Processed Spectral Data<<<<<
365.73	91.28
365.92	91.28
366.12	91.28
366.32	74.90
366.52	32.77
366.72	35.11
366.91	65.54
367.11	0.00
367.31	32.77
367.51	49.15
367.70	0.00
367.90	135.75
368.10	21.06
368.30	35.11
368.49	2.34
368.69	2.34
368.89	77.24
369.09	0.00
369.28	95.96
369.48	74.90
369.68	46.81
369.87	39.79
370.07	72.56
370.27	117.03
370.47	245.76
370.66	367.46
370.86	456.40
371.06	360.44
371.25	407.25
371.45	505.56
371.65	416.62
371.84	493.85
372.04	486.83
372.24	484.49
372.44	428.32
372.63	440.02
372.83	397.89
373.03	442.36
373.22	498.53
373.42	489.17
373.62	482.15
373.81	531.30
374.01	531.30
374.21	531.30
374.40	472.79
374.60	552.37
374.79	484.49
374.99	465.77
375.19	526.62
375.38	519.60
375.58	491.51
375.78	519.60
375.97	486.83
376.17	603.86
376.37	468.11
376.56	566.41
376.76	622.58
376.95	550.03
377.15	653.01
377.35	592.16
377.54	596.84
377.74	631.94
377.93	624.92
378.13	653.01
378.33	655.35
378.52	657.69
378.72	608.54
378.91	636.63
379.11	629.60
379.31	622.58
379.50	587.47
379.70	575.77
379.89	599.18
380.09	627.26
380.28	627.26
380.48	669.39
380.68	606.20
380.87	648.33
381.07	706.84
381.26	748.97
381.46	685.78
381.65	695.14
381.85	629.60
382.04	727.91
382.24	620.24
382.43	702.16
382.63	636.63
382.83	681.10
383.02	681.10
383.22	695.14
383.41	653.01
383.61	730.25
383.80	699.82
384.00	662.37
384.19	695.14
384.39	685.78
384.58	732.59
384.78	870.68
384.97	791.10
385.17	758.33
385.36	645.99
385.56	748.97
385.75	744.29
385.95	730.25
386.14	819.19
386.34	748.97
386.53	788.76
386.72	833.23
386.92	791.10
387.11	765.36
387.31	777.06
387.50	690.46
387.70	870.68
387.89	917.49
388.09	875.36
388.28	739.61
388.48	772.38
388.67	877.70
388.86	901.11
389.06	877.70
389.25	870.68
389.45	950.26
389.64	884.72
389.84	931.53
390.03	922.17
390.22	961.96
390.42	889.40
390.61	924.51
390.81	959.62
391.00	971.32
391.19	968.98
391.39	1011.11
391.58	933.87
391.78	978.34
391.97	945.58
392.16	924.51
392.36	898.77
392.55	994.73
392.75	863.66
392.94	947.92
393.13	898.77
393.33	908.13
393.52	926.85
393.71	973.66
393.91	976.00
394.10	1055.58
394.29	1006.43
394.49	1006.43
394.68	1097.71
394.88	1081.33
395.07	1104.73
395.26	1163.25
395.46	1078.99
395.65	1118.78
395.84	1088.35
396.04	1125.80
396.23	1020.47
396.42	1022.81
396.62	1107.07
396.81	1132.82
397.00	1137.50
397.19	1224.10
397.39	1095.37
397.58	1212.40
397.77	1165.59
397.97	1301.34
398.16	1217.08
398.35	1210.06
398.55	1310.70
398.74	1315.38
398.93	1266.23
399.12	1240.48
399.32	1291.98
399.51	1231.12
399.70	1444.11
399.90	1376.24
400.09	1299.00
400.28	1416.02
400.47	1406.66
400.67	1423.05
400.86	1467.52
401.05	1430.07
401.24	1467.52
401.44	1469.86
401.63	1416.02
401.82	1521.35
402.01	1493.26
402.21	1479.22
402.40	1504.96
402.59	1523.69
402.78	1636.03
402.97	1490.92
403.17	1547.09
403.36	1636.03
403.55	1675.82
403.74	1575.18
403.93	1689.87
404.13	1769.44
404.32	1657.10
404.51	1708.59
404.70	1748.38
404.89	1668.80
405.09	1790.51
405.28	1668.80
405.47	1605.61
405.66	1755.40
405.85	1809.23
406.05	1706.25
406.24	1813.92
406.43	1769.44
406.62	1846.68
406.81	1827.96
407.00	1764.76
407.20	1797.53
407.39	1785.83
407.58	1827.96
407.77	1895.83
407.96	2012.86
408.15	1944.99
408.34	1867.75
408.54	1919.24
408.73	1940.30
408.92	1991.80
409.11	2146.27
409.30	2019.88
409.49	2038.61
409.68	2024.56
409.87	1961.37
410.07	2022.22
410.26	2057.33
410.45	2083.08
410.64	2097.12
410.83	2134.57
411.02	2200.10
411.21	2377.98
411.40	2244.57
411.59	2282.02
411.78	2389.69
411.98	2363.94
412.17	2429.48
412.36	2291.38
412.55	2396.71
412.74	2394.37
412.93	2459.90
413.12	2382.67
413.31	2530.12
413.50	2438.84
413.69	2382.67
413.88	2686.94
414.07	2621.40
414.26	2541.82
414.45	2602.68
414.64	2628.42
414.83	2766.51
415.02	2708.00
415.22	2644.81
415.41	2764.17
415.60	2876.52
415.79	2869.50
415.98	2956.10
416.17	2913.97
416.36	2796.94
416.55	2799.28
416.74	2792.26
416.93	2726.72
417.12	2869.50
417.31	2799.28
417.50	2967.80
417.69	3045.04
417.88	2937.37
418.07	3131.64
418.26	3014.61
418.45	2993.55
418.64	3173.77
418.83	3192.49
419.02	3110.57
419.21	3110.57
419.39	3251.00
419.58	3192.49
419.77	3164.40
419.96	3103.55
420.15	3290.79
420.34	3227.60
420.53	3339.94
420.72	3379.73
420.91	3375.05
421.10	3562.30
421.29	3353.99
421.48	3337.60
421.67	3403.14
421.86	3517.83
422.05	3386.76
422.24	3365.69
422.43	3302.50
422.61	3517.83
422.80	3538.89
422.99	3524.85
423.18	3449.95
423.37	3513.14
423.56	3487.40
423.75	3468.67
423.94	3583.36
424.13	3463.99
424.32	3447.61
424.50	3449.95
424.69	3588.04
424.88	3538.89
425.07	3431.23
425.26	3412.50
425.45	3529.53
425.64	3609.11
425.83	3536.55
426.01	3672.30
426.20	3545.91
426.39	3501.44
426.58	3496.76
426.77	3435.91
426.96	3480.38
427.15	3482.72
427.33	3634.85
427.52	3583.36
427.71	3665.28
427.90	3613.79
428.09	3737.84
428.28	3812.73
428.46	3705.07
428.65	3796.35
428.84	3665.28
429.03	3927.42
429.22	3712.09
429.40	3779.97
429.59	3829.12
429.78	3674.64
429.97	3655.92
430.16	3770.60
430.34	3772.94
430.53	3836.14
430.72	3936.78
430.91	3756.56
431.10	3810.39
431.28	3929.76
431.47	4086.58
431.66	4049.13
431.85	3983.59
432.03	4105.30
432.22	4187.22
432.41	4238.71
432.60	4117.00
432.79	4126.36
432.97	4077.21
433.16	4259.78
433.35	4147.43
433.54	4243.39
433.72	4224.67
433.91	4283.18
434.10	4301.90
434.28	4329.99
434.47	4290.20
434.66	4395.53
434.85	4444.68
435.03	4402.55
435.22	4444.68
435.41	4535.96
435.59	4535.96
435.78	4660.01
435.97	4432.97
436.16	4526.60
436.34	4575.75
436.53	4634.26
436.72	4688.09
436.90	4622.56
437.09	4615.54
437.28	4561.70
437.46	4599.15
437.65	4704.48
437.84	4718.52
438.02	4751.29
438.21	4617.88
438.40	4645.96
438.58	4870.65
438.77	4870.65
438.96	4858.95
439.14	5081.30
439.33	5109.39
439.52	5132.79
439.70	5008.75
439.89	4983.00
440.08	5153.86
440.26	5198.33
440.45	5203.01
440.63	5331.74
440.82	5296.63
441.01	5277.91
441.19	5481.53
441.38	5348.12
441.57	5359.83
441.75	5434.72
441.94	5575.16
442.12	5650.05
442.31	5736.65
442.50	5708.57
442.68	5465.15
442.87	5818.57
443.05	5701.54
443.24	5774.10
443.43	5790.49
443.61	5699.20
443.80	5921.56
443.98	5626.65
444.17	5516.64
444.35	5813.89
444.54	6012.84
444.73	5825.59
444.91	5624.31
445.10	5837.30
445.28	5722.61
445.47	5636.01
445.65	5741.33
445.84	5900.49
446.02	5755.38
446.21	5785.80
446.39	5724.95
446.58	6001.13
446.77	5937.94
446.95	5867.72
447.14	6029.22
447.32	6083.05
447.51	5968.37
447.69	5825.59
447.88	5930.92
448.06	5867.72
448.25	5781.12
448.43	5984.75
448.62	6038.58
448.80	6146.25
448.99	6148.59
449.17	6167.31
449.36	6092.41
449.54	6141.57
449.73	6387.32
449.91	6445.84
450.10	6232.85
450.28	6394.34
450.46	6366.26
450.65	6296.04
450.83	6466.90
451.02	6356.90
451.20	6520.73
451.39	6380.30
451.57	6363.92
451.76	6417.75
451.94	6497.33
452.13	6586.27
452.31	6408.39
452.49	6340.51
452.68	6331.15
452.86	6523.07
453.05	6532.44
453.23	6558.18
453.42	6431.79
453.60	6586.27
453.78	6649.46
453.97	6635.42
454.15	6445.84
454.34	6614.35
454.52	6686.91
454.70	6822.66
454.89	6717.34
455.07	6696.27
455.26	6787.55
455.44	6862.45
455.62	6935.01
455.81	7194.81
455.99	7026.29
456.17	7054.37
456.36	6977.14
456.54	7056.72
456.73	7194.81
456.91	7255.66
457.09	7054.37
457.28	7538.87
457.46	7140.97
457.64	7396.09
457.83	7295.45
458.01	7143.32
458.19	7396.09
458.38	7372.69
458.56	7213.53
458.74	7197.15
458.93	7330.56
459.11	7510.78
459.29	7454.61
459.48	7555.25
459.66	7569.29
459.84	7478.01
460.03	7604.40
460.21	7658.23
460.39	7564.61
460.57	7585.68
460.76	7637.17
460.94	7866.54
461.12	7772.92
461.31	7880.58
461.49	7646.53
461.67	7805.69
461.85	7918.03
462.04	7796.32
462.22	8039.74
462.40	7805.69
462.59	7742.49
462.77	7885.26
462.95	8126.34
463.13	7981.23
463.32	7981.23
463.50	8056.12
463.68	8128.68
463.86	8182.51
464.05	7988.25
464.23	7997.61
464.41	8201.24
464.59	7981.23
464.78	8325.29
464.96	8135.70
465.14	8093.57
465.32	8264.43
465.50	8461.04
465.69	8287.84
465.87	8217.62
466.05	8280.82
466.23	8121.66
466.41	8393.16
466.60	8535.93
466.78	8416.57
466.96	8395.50
467.14	8376.78
467.32	8372.10
467.51	8430.61
467.69	8308.90
467.87	8435.29
468.05	8606.15
468.23	8456.36
468.41	8306.56
468.60	8557.00
468.78	8648.28
468.96	8449.33
469.14	8788.71
469.32	8812.12
469.50	8545.30
469.69	8695.09
469.87	8819.14
470.05	8975.95
470.23	8879.99
470.41	8856.59
470.59	8842.54
470.77	8826.16
470.95	8917.44
471.14	9057.87
471.32	8919.78
471.50	9181.92
471.68	9476.83
471.86	9415.98
472.04	9282.56
472.22	9565.77
472.40	9310.65
472.58	9254.48
472.77	9493.21
472.95	9657.05
473.13	10036.22
473.31	9703.86
473.49	9504.92
473.67	9549.39
473.85	9626.62
474.03	9825.57
474.21	9839.61
474.39	10012.81
474.57	9916.85
474.75	10019.83
474.93	10012.81
475.12	10120.48
475.30	10129.84
475.48	10129.84
475.66	10242.18
475.84	10394.32
476.02	10391.98
476.20	10380.28
476.38	10572.20
476.56	10504.32
476.74	10719.65
476.92	10621.35
477.10	10588.58
477.28	10979.45
477.46	10665.82
477.64	10937.32
477.82	11293.08
478.00	11433.52
478.18	11332.87
478.36	11403.09
478.54	11410.11
478.72	11332.87
478.90	11573.95
479.08	11672.25
479.26	11845.45
479.44	11983.54
479.62	12159.08
479.80	11978.86
479.98	12086.53
480.16	12437.61
480.34	12479.74
480.52	12491.44
480.70	12285.47
480.88	12348.67
481.06	12386.12
481.24	12390.80
481.41	13137.43
481.59	12975.93
481.77	13111.68
481.95	13029.76
482.13	13111.68
482.31	13205.30
482.49	13303.60
482.67	13635.96
482.85	13813.84
483.03	13837.25
483.21	13933.21
483.39	13696.82
483.57	13722.56
483.74	14183.65
483.92	14108.75
484.10	14183.65
484.28	14466.85
484.46	14553.45
484.64	14841.34
484.82	14721.97
485.00	14635.37
485.18	15075.39
485.35	14897.51
485.53	15070.71
485.71	14806.23
485.89	15241.57
486.07	15192.42
486.25	15267.31
486.43	15562.22
486.61	15747.12
486.78	15719.04
486.96	15962.45
487.14	15775.21
487.32	16358.00
487.50	16372.05
487.68	16638.87
487.85	16807.39
488.03	16802.71
488.21	17029.74
488.39	16805.05
488.57	16980.59
488.75	17275.49
488.92	17224.00
489.10	17554.02
489.28	17713.17
489.46	17731.90
489.64	17593.81
489.81	18373.21
489.99	18136.81
490.17	18029.15
490.35	18714.92
490.53	18799.18
490.70	18644.71
490.88	18780.46
491.06	18883.44
491.24	18735.99
491.41	19101.11
491.59	19040.26
491.77	19108.13
491.95	19503.68
492.13	19356.23
492.30	19559.86
492.48	19922.64
492.66	19899.23
492.84	19730.72
493.01	20215.21
493.19	20152.01
493.37	20217.55
493.54	20407.13
493.72	20421.17
493.90	20575.65
494.08	20961.84
494.25	21144.40
494.43	21149.08
494.61	21090.57
494.79	21577.40
494.96	21036.74
495.14	21186.53
495.32	21502.50
495.49	21624.21
495.67	21771.66
495.85	22101.68
496.02	22127.42
496.20	22228.07
496.38	22508.93
496.55	22785.12
496.73	23159.60
496.91	22740.64
497.09	23084.70
497.26	22918.53
497.44	22721.92
497.62	22719.58
497.79	23129.17
497.97	23108.11
498.14	23211.09
498.32	23241.52
498.50	23503.66
498.67	23583.24
498.85	23770.48
499.03	24222.20
499.20	24046.66
499.38	24194.12
499.56	23859.42
499.73	24009.22
499.91	24318.17
500.08	24299.44
500.26	24051.34
500.44	24702.01
500.61	24353.27
500.79	24631.80
500.97	24664.57
501.14	25109.27
501.32	25230.98
501.49	25060.12
501.67	25020.33
501.84	25013.31
502.02	25582.06
502.20	25305.87
502.37	25593.76
502.55	25259.06
502.72	25731.85
502.90	25846.54
503.07	25654.61
503.25	26134.42
503.43	25745.89
503.60	25944.84
503.78	26171.87
503.95	25951.86
504.13	25940.16
504.30	26230.38
504.48	26036.12
504.65	26965.31
504.83	26689.13
505.01	26403.58
505.18	27070.64
505.36	26958.29
505.53	26661.04
505.71	27260.22
505.88	27447.46
506.06	26899.78
506.23	27473.21
506.41	27098.72
506.58	27229.79
506.76	27517.68
506.93	27625.34
507.11	27566.83
507.28	27452.14
507.46	27697.90
507.63	27667.47
507.81	28135.58
507.98	28065.36
508.16	28091.11
508.33	28219.84
508.50	28404.74
508.68	28481.98
508.85	28748.80
509.03	28453.89
509.20	28538.15
509.38	28858.81
509.55	28704.33
509.73	28751.14
509.90	29326.91
510.08	29331.59
510.25	28882.21
510.42	29294.14
510.60	28804.97
510.77	29453.30
510.95	29411.17
511.12	29722.46
511.30	29612.46
511.47	29890.98
511.64	30010.35
511.82	29802.04
511.99	29846.51
512.17	29921.41
512.34	29865.24
512.51	30328.66
512.69	30249.08
512.86	30448.03
513.04	30415.26
513.21	30394.20
513.38	30333.34
513.56	30450.37
513.73	29989.28
513.90	30579.10
514.08	30632.93
514.25	31096.36
514.43	31115.08
514.60	30862.30
514.77	30866.98
514.95	30878.69
515.12	31082.31
515.29	31482.55
515.47	31569.15
515.64	31494.25
515.81	31262.54
515.99	31505.95
516.16	31864.05
516.33	30991.03
516.51	31550.42
516.68	31473.18
516.85	31346.79
517.03	31641.70
517.20	31515.31
517.37	31995.12
517.54	32102.79
517.72	32105.13
517.89	31784.48
518.06	32168.32
518.24	31735.32
518.41	31910.86
518.58	32084.06
518.75	32393.01
518.93	32638.77
519.10	32624.73
519.27	32397.70
519.45	32648.13
519.62	32603.66
519.79	32882.19
519.96	32683.24
520.14	33195.82
520.31	33359.66
520.48	33074.11
520.65	32926.66
520.83	33500.09
521.00	33170.07
521.17	33411.15
521.34	33240.29
521.52	33195.82
521.69	33663.93
521.86	33572.64
522.03	33713.08
522.20	33965.85
522.38	34190.55
522.55	34036.07
522.72	34267.78
522.89	34141.39
523.07	34637.59
523.24	34024.37
523.41	34593.12
523.58	34677.38
523.75	34555.67
523.92	34735.89
524.10	34656.31
524.27	34309.91
524.44	34925.47
524.61	34876.32
524.78	35117.40
524.96	35344.43
525.13	34962.92
525.30	35290.60
525.47	35232.08
525.64	35063.57
525.81	35070.59
525.98	35091.65
526.16	35101.01
526.33	34944.20
526.50	35583.16
526.67	35379.54
526.84	35012.07
527.01	35475.50
527.18	35477.84
527.36	35590.19
527.53	35618.27
527.70	35784.45
527.87	36189.36
528.04	35555.08
528.21	35665.08
528.38	36002.12
528.55	36081.70
528.72	36627.04
528.89	36133.19
529.07	36376.61
529.24	36025.53
529.41	36275.96
529.58	36472.57
529.75	35765.73
529.92	36570.87
530.09	36418.74
530.26	36327.45
530.43	36882.16
530.60	36472.57
530.77	36788.54
530.94	36362.56
531.11	36945.36
531.28	36994.51
531.46	37048.34
531.63	36823.65
531.80	36879.82
531.97	37291.76
532.14	36727.69
532.31	37038.98
532.48	37411.12
532.65	37368.99
532.82	37060.04
532.99	37322.18
533.16	36723.01
533.33	37439.21
533.50	37570.28
533.67	37783.27
533.84	37551.56
534.01	37254.31
534.18	37570.28
534.35	37598.37
534.52	37490.70
534.69	37546.87
534.86	37883.91
535.03	37890.93
535.20	38124.99
535.37	37832.42
535.54	38176.48
535.71	37961.15
535.88	38094.56
536.05	38110.94
536.22	38188.18
536.38	38326.27
536.55	38462.02
536.72	38232.65
536.89	37982.21
537.06	38483.09
537.23	38703.10
537.40	38220.95
537.57	38600.12
537.74	38721.82
537.91	39068.22
538.08	38574.37
538.25	38216.27
538.42	38373.08
538.59	38740.55
538.75	38384.79
538.92	38862.26
539.09	38693.74
539.26	39021.41
539.43	38635.22
539.60	39157.16
539.77	38389.47
539.94	38841.19
540.11	39255.46
540.28	38946.51
540.44	39313.98
540.61	38960.56
540.78	38941.83
540.95	39100.99
541.12	39065.88
541.29	38806.08
541.46	39398.24
541.62	39526.97
541.79	39707.19
541.96	39445.05
542.13	39531.65
542.30	39452.07
542.47	39772.72
542.63	39885.07
542.80	39721.23
542.97	39983.37
543.14	40453.82
543.31	39585.48
543.48	40425.73
543.64	40517.01
543.81	40751.07
543.98	40411.69
544.15	39901.45
544.32	40411.69
544.48	41076.40
544.65	40322.75
544.82	40594.25
544.99	40219.77
545.16	40708.94
545.32	40378.92
545.49	40905.54
545.66	40608.29
545.83	41029.59
546.00	40926.61
546.16	40914.90
546.33	40591.91
546.50	40313.39
546.67	40905.54
546.83	40479.57
547.00	40842.35
547.17	40896.18
547.34	40748.73
547.50	41200.45
547.67	41375.99
547.84	41099.81
548.00	41144.28
548.17	41366.63
548.34	40971.08
548.51	41420.46
548.67	41799.63
548.84	41432.16
549.01	41350.24
549.18	41521.10
549.34	41219.17
549.51	41507.06
549.68	41486.00
549.84	41448.55
550.01	41708.35
550.18	41598.34
550.34	41478.97
550.51	41521.10
550.68	41727.07
550.84	41338.54
551.01	41982.19
551.18	41537.49
551.34	41467.27
551.51	41724.73
551.68	42234.97
551.84	41848.78
552.01	41722.39
552.18	41659.20
552.34	41593.66
552.51	41696.64
552.68	41958.78
552.84	42354.33
553.01	42447.96
553.18	42359.02
553.34	42473.70
553.51	41830.05
553.67	42223.26
553.84	42515.83
554.01	42700.73
554.17	42122.62
554.34	42611.79
554.51	42351.99
554.67	42454.98
554.84	42548.60
555.00	42293.48
555.17	42387.10
555.33	42134.32
555.50	42113.26
555.67	42450.30
555.83	42239.65
556.00	42607.11
556.16	43129.05
556.33	42789.67
556.50	42646.90
556.66	42815.42
556.83	42635.20
556.99	42930.11
557.16	42951.17
557.32	43201.61
557.49	43288.21
557.65	42831.80
557.82	42422.21
557.98	42766.27
558.15	42965.21
558.32	43229.69
558.48	42511.15
558.65	43051.81
558.81	42738.18
558.98	42808.40
559.14	42412.85
559.31	42784.99
559.47	43065.86
559.64	43058.84
559.80	43065.86
559.97	43007.34
560.13	42600.09
560.30	42934.79
560.46	43171.18
560.63	43335.02
560.79	43447.36
560.96	43569.07
561.12	43576.09
561.29	43400.55
561.45	43379.49
561.61	43363.11
561.78	43400.55
561.94	43063.52
562.11	43519.92
562.27	43393.53
562.44	42862.23
562.60	43782.06
562.77	43863.98
562.93	43456.73
563.10	43386.51
563.26	43405.23
563.42	43358.42
563.59	43426.30
563.75	42895.00
563.92	43798.44
564.08	43714.19
564.24	43257.78
564.41	43690.78
564.57	43707.16
564.74	43110.33
564.90	43208.63
565.07	43220.33
565.23	43428.64
565.39	43557.37
565.56	43533.96
565.72	43297.57
565.88	43861.64
566.05	43789.08
566.21	43332.68
566.38	43753.97
566.54	43585.46
566.70	43761.00
566.87	43777.38
567.03	43784.40
567.19	43807.81
567.36	43466.09
567.52	43620.56
567.68	44041.86
567.85	43770.36
568.01	43826.53
568.17	43831.21
568.34	43833.55
568.50	44013.77
568.66	43697.80
568.83	43861.64
568.99	43730.57
569.15	43784.40
569.32	43545.67
569.48	43821.85
569.64	43901.43
569.81	43920.15
569.97	44037.18
570.13	43871.00
570.30	44147.18
570.46	43655.67
570.62	43805.47
570.78	43728.23
570.95	43838.23
571.11	44013.77
571.27	43995.05
571.43	43775.04
571.60	43786.74
571.76	43655.67
571.92	43746.95
572.09	43863.98
572.25	43880.36
572.41	43973.98
572.57	43735.25
572.74	44275.91
572.90	44308.68
573.06	43859.30
573.22	44030.16
573.38	43753.97
573.55	43758.66
573.71	43793.76
573.87	44065.27
574.03	43849.94
574.20	44072.29
574.36	43798.44
574.52	44208.04
574.68	43957.60
574.84	43814.83
575.01	43868.66
575.17	43611.20
575.33	43559.71
575.49	43756.32
575.65	44011.43
575.82	43957.60
575.98	44065.27
576.14	44624.65
576.30	44252.51
576.46	43992.71
576.62	44123.78
576.79	43840.57
576.95	43966.96
577.11	44177.61
577.27	44151.87
577.43	43924.83
577.59	44547.42
577.75	43973.98
577.92	43608.86
578.08	43721.21
578.24	43889.73
578.40	43784.40
578.56	43566.73
578.72	43950.58
578.88	44222.08
579.04	44357.83
579.21	44348.47
579.37	44479.54
579.53	44268.89
579.69	44296.98
579.85	44456.14
580.01	44119.10
580.17	44325.07
580.33	44259.53
580.49	44781.47
580.65	44114.42
580.82	44477.20
580.98	44247.83
581.14	43641.63
581.30	44161.23
581.46	44339.11
581.62	44453.79
581.78	44219.74
581.94	44594.23
582.10	44444.43
582.26	44568.48
582.42	44154.21
582.58	43988.03
582.74	44165.91
582.90	44301.66
583.06	44561.46
583.22	44172.93
583.38	44538.05
583.54	44589.55
583.70	44287.62
583.86	44325.07
584.02	43761.00
584.18	44360.17
584.34	44254.85
584.50	44339.11
584.66	44055.90
584.82	44334.43
584.98	44657.42
585.14	44264.21
585.30	43992.71
585.46	44304.00
585.62	44144.84
585.78	44313.36
585.94	44062.93
586.10	43835.89
586.26	43866.32
586.42	44184.63
586.58	44311.02
586.74	44430.39
586.90	44149.53
587.06	44119.10
587.22	44226.76
587.38	44006.75
587.54	44247.83
587.70	44285.28
587.86	44683.17
588.02	44341.45
588.18	44395.28
588.34	44446.77
588.49	43941.22
588.65	43945.90
588.81	44254.85
588.97	44320.38
589.13	44020.80
589.29	44484.22
589.45	44343.79
589.61	44355.49
589.77	44402.30
589.93	44133.14
590.08	44722.96
590.24	44673.81
590.40	44383.58
