SpectraSuite Data File
++++++++++++++++++++++++++++++++++++
Date: Fri Oct 25 11:23:11 EDT 2013
User: price-jones
Dark Spectrum Present: No
Reference Spectrum Present: No
Number of Sampled Component Spectra: 1
Spectrometers: USB2+H05261
Integration Time (usec): 100000 (USB2+H05261)
Spectra Averaged: 1 (USB2+H05261)
Boxcar Smoothing: 0 (USB2+H05261)
Correct for Electrical Dark: No (USB2+H05261)
Strobe/Lamp Enabled: No (USB2+H05261)
Correct for Detector Non-linearity: No (USB2+H05261)
Correct for Stray Light: No (USB2+H05261)
Number of Pixels in Processed Spectrum: 2048
>>>>>Begin Processed Spectral Data<<<<<
365.73	205.97
365.92	205.97
366.12	205.97
366.32	142.77
366.52	163.84
366.72	79.58
366.91	135.75
367.11	65.54
367.31	74.90
367.51	102.98
367.70	133.41
367.90	142.77
368.10	154.48
368.30	124.05
368.49	60.85
368.69	159.16
368.89	196.60
369.09	147.45
369.28	159.16
369.48	145.11
369.68	126.39
369.87	163.84
370.07	152.13
370.27	283.20
370.47	358.10
370.66	592.16
370.86	648.33
371.06	713.86
371.25	685.78
371.45	662.37
371.65	660.03
371.84	636.63
372.04	681.10
372.24	706.84
372.44	730.25
372.63	737.27
372.83	636.63
373.03	723.23
373.22	692.80
373.42	772.38
373.62	767.70
373.81	779.40
374.01	828.55
374.21	765.36
374.40	823.87
374.60	774.72
374.79	791.10
374.99	887.06
375.19	851.96
375.38	840.25
375.58	713.86
375.78	891.74
375.97	877.70
376.17	938.55
376.37	791.10
376.56	826.21
376.76	835.57
376.95	863.66
377.15	877.70
377.35	851.96
377.54	894.08
377.74	880.04
377.93	901.11
378.13	985.37
378.33	1011.11
378.52	957.28
378.72	926.85
378.91	940.90
379.11	936.21
379.31	952.60
379.50	898.77
379.70	964.30
379.89	964.30
380.09	947.92
380.28	1006.43
380.48	1006.43
380.68	1020.47
380.87	1043.88
381.07	1053.24
381.26	976.00
381.46	964.30
381.65	1041.54
381.85	1011.11
382.04	1039.20
382.24	1057.92
382.43	1057.92
382.63	1041.54
382.83	1165.59
383.02	1086.01
383.22	1128.14
383.41	1022.81
383.61	1102.39
383.80	1104.73
384.00	1163.25
384.19	1123.46
384.39	1109.41
384.58	1158.57
384.78	1207.72
384.97	1177.29
385.17	1174.95
385.36	1172.61
385.56	1228.78
385.75	1149.20
385.95	1121.12
386.14	1235.80
386.34	1233.46
386.53	1263.89
386.72	1212.40
386.92	1214.74
387.11	1284.95
387.31	1303.68
387.50	1217.08
387.70	1355.17
387.89	1254.53
388.09	1380.92
388.28	1299.00
388.48	1301.34
388.67	1409.00
388.86	1317.72
389.06	1378.58
389.25	1413.68
389.45	1364.53
389.64	1327.08
389.84	1310.70
390.03	1474.54
390.22	1483.90
390.42	1378.58
390.61	1411.34
390.81	1441.77
391.00	1362.19
391.19	1437.09
391.39	1430.07
391.58	1460.49
391.78	1504.96
391.97	1549.43
392.16	1519.01
392.36	1514.33
392.55	1542.41
392.75	1568.16
392.94	1561.14
393.13	1570.50
393.33	1647.74
393.52	1533.05
393.71	1572.84
393.91	1493.26
394.10	1633.69
394.29	1563.48
394.49	1657.10
394.68	1638.38
394.88	1638.38
395.07	1516.67
395.26	1811.57
395.46	1767.10
395.65	1792.85
395.84	1757.74
396.04	1741.36
396.23	1706.25
396.42	1724.97
396.62	1834.98
396.81	1764.76
397.00	1701.57
397.19	1823.28
397.39	1795.19
397.58	1968.39
397.77	1827.96
397.97	1856.04
398.16	1959.03
398.35	1877.11
398.55	1877.11
398.74	1884.13
398.93	1968.39
399.12	1935.62
399.32	1797.53
399.51	1944.99
399.70	2005.84
399.90	1956.69
400.09	2015.20
400.28	2069.03
400.47	2026.90
400.67	2172.02
400.86	1998.82
401.05	2033.93
401.24	2172.02
401.44	2101.80
401.63	2101.80
401.82	2143.93
402.01	2064.35
402.21	2218.83
402.40	2267.98
402.59	2258.62
402.78	2342.88
402.97	2331.17
403.17	2253.94
403.36	2235.21
403.55	2319.47
403.74	2363.94
403.93	2333.51
404.13	2417.77
404.32	2415.43
404.51	2253.94
404.70	2436.50
404.89	2420.11
405.09	2530.12
405.28	2492.67
405.47	2579.27
405.66	2492.67
405.85	2581.61
406.05	2548.84
406.24	2597.99
406.43	2586.29
406.62	2658.85
406.81	2677.57
407.00	2651.83
407.20	2623.74
407.39	2581.61
407.58	2672.89
407.77	2862.48
407.96	2719.70
408.15	2799.28
408.34	2752.47
408.54	2909.29
408.73	2761.83
408.92	2825.03
409.11	2988.86
409.30	2932.69
409.49	2920.99
409.68	3019.29
409.87	2904.60
410.07	2970.14
410.26	3157.38
410.45	3000.57
410.64	3105.89
410.83	3084.83
411.02	3030.99
411.21	3192.49
411.40	3066.10
411.59	3197.17
411.78	3213.56
411.98	3152.70
412.17	3330.58
412.36	3428.88
412.55	3417.18
412.74	3508.46
412.93	3485.06
413.12	3267.39
413.31	3665.28
413.50	3543.57
413.69	3494.42
413.88	3581.02
414.07	3571.66
414.26	3618.47
414.45	3625.49
414.64	3758.90
414.83	3826.78
415.02	3808.05
415.22	3817.41
415.41	3810.39
415.60	3889.97
415.79	3978.91
415.98	3978.91
416.17	3911.04
416.36	3995.29
416.55	4044.45
416.74	4077.21
416.93	4147.43
417.12	4147.43
417.31	4234.03
417.50	4236.37
417.69	4325.31
417.88	4320.63
418.07	4332.33
418.26	4498.51
418.45	4400.21
418.64	4512.55
418.83	4449.36
419.02	4568.73
419.21	4491.49
419.39	4561.70
419.58	4510.21
419.77	4524.26
419.96	4559.36
420.15	4636.60
420.34	4627.24
420.53	4683.41
420.72	4751.29
420.91	4596.81
421.10	4868.31
421.29	4861.29
421.48	4718.52
421.67	4821.50
421.86	4765.33
422.05	4788.74
422.24	4821.50
422.43	4896.40
422.61	5118.75
422.80	4973.64
422.99	5067.26
423.18	4905.76
423.37	5111.73
423.56	4849.59
423.75	5048.54
423.94	4833.21
424.13	4774.69
424.32	4835.55
424.50	4950.23
424.69	5032.15
424.88	5172.58
425.07	5001.72
425.26	4959.60
425.45	5064.92
425.64	5039.17
425.83	5100.03
426.01	5259.18
426.20	5245.14
426.39	5254.50
426.58	4983.00
426.77	5132.79
426.96	5158.54
427.15	5188.97
427.33	5261.52
427.52	5200.67
427.71	5406.64
427.90	5254.50
428.09	5392.59
428.28	5404.30
428.46	5387.91
428.65	5329.40
428.84	5558.77
429.03	5549.41
429.22	5418.34
429.40	5729.63
429.59	5563.45
429.78	5343.44
429.97	5256.84
430.16	5586.86
430.34	5460.47
430.53	5762.40
430.72	5769.42
430.91	5671.12
431.10	5783.46
431.28	5771.76
431.47	5919.21
431.66	6115.82
431.85	5841.98
432.03	6092.41
432.22	6026.88
432.41	5989.43
432.60	5940.28
432.79	6066.67
432.97	6043.26
433.16	6237.53
433.35	5961.34
433.54	6237.53
433.72	6080.71
433.91	6120.50
434.10	6059.65
434.28	6143.91
434.47	6232.85
434.66	6509.03
434.85	6401.37
435.03	6422.43
435.22	6377.96
435.41	6635.42
435.59	6642.44
435.78	6349.87
435.97	6511.37
436.16	6530.09
436.34	6389.66
436.53	6600.31
436.72	6738.40
436.90	6366.26
437.09	6820.32
437.28	6597.97
437.46	6623.72
437.65	6696.27
437.84	6757.13
438.02	6832.02
438.21	6775.85
438.40	6780.53
438.58	7084.80
438.77	6972.46
438.96	7019.27
439.14	7276.73
439.33	7140.97
439.52	7309.49
439.70	7405.46
439.89	7239.28
440.08	7456.95
440.26	7524.82
440.45	7213.53
440.63	7672.28
440.82	7716.75
441.01	7728.45
441.19	7775.26
441.38	7819.73
441.57	7815.05
441.75	7906.33
441.94	8184.85
442.12	7962.50
442.31	8013.99
442.50	8149.75
442.68	8058.46
442.87	8142.72
443.05	8219.96
443.24	8280.82
443.43	8369.76
443.61	8215.28
443.80	8535.93
443.98	8259.75
444.17	7941.44
444.35	8182.51
444.54	8489.12
444.73	8147.40
444.91	8325.29
445.10	8409.54
445.28	8507.85
445.47	8407.20
445.65	8510.19
445.84	8418.91
446.02	8667.00
446.21	8358.05
446.39	8627.21
446.58	8716.16
446.77	8538.27
446.95	8238.69
447.14	8524.23
447.32	8542.96
447.51	8709.13
447.69	8454.02
447.88	8582.74
448.06	8587.43
448.25	8746.58
448.43	8549.98
448.62	8655.30
448.80	8882.33
448.99	8753.60
449.17	8943.19
449.36	8805.10
449.54	8931.48
449.73	8872.97
449.91	8978.30
450.10	9132.77
450.28	9231.07
450.46	9179.58
450.65	9202.99
450.83	9301.29
451.02	9067.24
451.20	9263.84
451.39	9097.66
451.57	9284.91
451.76	9273.20
451.94	9181.92
452.13	9296.61
452.31	9324.69
452.49	9343.42
452.68	9373.85
452.86	9434.70
453.05	9427.68
453.23	9589.17
453.42	9434.70
453.60	9371.50
453.78	9774.08
453.97	9493.21
454.15	9568.11
454.34	9640.67
454.52	9781.10
454.70	9724.93
454.89	9853.66
455.07	9593.86
455.26	9987.07
455.44	9980.04
455.62	10223.46
455.81	9963.66
455.99	9958.98
456.17	10228.14
456.36	10054.94
456.54	10174.31
456.73	10445.81
456.91	10551.14
457.09	10527.73
457.28	10750.08
457.46	10490.28
457.64	10574.54
457.83	10581.56
458.01	10658.80
458.19	10768.80
458.38	10689.23
458.56	10644.76
458.74	10848.38
458.93	11133.93
459.11	11105.84
459.29	10780.51
459.48	11012.22
459.66	10733.70
459.84	11075.42
460.03	11082.44
460.21	11094.14
460.39	11091.80
460.57	11246.27
460.76	11276.70
460.94	11389.05
461.12	11360.96
461.31	11269.68
461.49	11335.21
461.67	11501.39
461.85	11726.08
462.04	11405.43
462.22	11534.16
462.40	11784.60
462.59	11693.32
462.77	11538.84
462.95	11983.54
463.13	11772.89
463.32	11730.76
463.50	11894.60
463.68	11791.62
463.86	12102.91
464.05	11515.44
464.23	11634.80
464.41	12088.87
464.59	11850.13
464.78	12318.24
464.96	11976.52
465.14	11985.88
465.32	12102.91
465.50	12210.57
465.69	12292.49
465.87	12336.96
466.05	12339.30
466.23	12486.76
466.41	12362.71
466.60	12533.57
466.78	12231.64
466.96	12348.67
467.14	12222.28
467.32	12421.22
467.51	12769.96
467.69	12355.69
467.87	12746.56
468.05	12739.54
468.23	12601.44
468.41	12678.68
468.60	12795.71
468.78	13184.24
468.96	12556.97
469.14	12971.25
469.32	12917.42
469.50	12938.48
469.69	13315.31
469.87	12954.87
470.05	13331.69
470.23	13226.37
470.41	13291.90
470.59	13385.52
470.77	13088.28
470.95	13497.87
471.14	13591.49
471.32	13205.30
471.50	13544.68
471.68	13591.49
471.86	13848.95
472.04	13827.88
472.22	14253.86
472.40	13987.04
472.58	14010.45
472.77	13839.59
472.95	14303.01
473.13	14839.00
473.31	14162.58
473.49	14338.12
473.67	14380.25
473.85	14443.45
474.03	14775.80
474.21	14780.48
474.39	14836.66
474.57	14738.35
474.75	14878.79
474.93	15274.34
475.12	15166.67
475.30	15293.06
475.48	15138.58
475.66	15342.21
475.84	15267.31
476.02	15594.99
476.20	15421.79
476.38	15693.29
476.56	16327.58
476.74	16318.22
476.92	16276.09
477.10	15925.00
477.28	16322.90
477.46	16365.03
477.64	16365.03
477.82	16844.84
478.00	17301.24
478.18	17006.33
478.36	17121.02
478.54	17266.13
478.72	17209.96
478.90	17371.46
479.08	17710.83
479.26	17869.99
479.44	17888.71
479.62	18272.56
479.80	18061.91
479.98	18735.99
480.16	18920.89
480.34	18565.13
480.52	18892.80
480.70	18850.67
480.88	18597.90
481.06	19276.65
481.24	19241.54
481.41	19304.74
481.59	19590.28
481.77	19555.18
481.95	19569.22
482.13	20189.46
482.31	19599.65
482.49	20636.50
482.67	20460.96
482.85	20638.84
483.03	20826.09
483.21	21003.97
483.39	21212.28
483.57	21163.12
483.74	21317.60
483.92	21708.47
484.10	21495.48
484.28	21851.24
484.46	22396.59
484.64	22579.15
484.82	22029.12
485.00	22663.41
485.18	22913.84
485.35	23065.98
485.53	22817.88
485.71	23419.40
485.89	23885.17
486.07	23508.34
486.25	23658.14
486.43	23723.67
486.61	23997.51
486.78	24449.24
486.96	24594.35
487.14	24599.03
487.32	24643.50
487.50	25333.96
487.68	25289.49
487.85	25268.42
488.03	25612.48
488.21	26052.50
488.39	26085.27
488.57	26588.49
488.75	26604.87
488.92	26789.77
489.10	27229.79
489.28	27094.04
489.46	27477.89
489.64	27491.93
489.81	28304.10
489.99	27894.50
490.17	27871.10
490.35	28678.58
490.53	28465.60
490.70	28683.27
490.88	28648.16
491.06	29010.94
491.24	29252.02
491.41	29429.90
491.59	29802.04
491.77	29764.59
491.95	29741.19
492.13	30174.19
492.30	30251.42
492.48	30419.94
492.66	30487.82
492.84	30768.68
493.01	30883.37
493.19	31077.63
493.37	31505.95
493.54	31180.62
493.72	32011.51
493.90	31496.59
494.08	32032.57
494.25	32203.43
494.43	32505.36
494.61	32430.46
494.79	32716.01
494.96	32727.71
495.14	33273.06
495.32	33392.42
495.49	33434.55
495.67	33366.68
495.85	34099.26
496.02	34520.56
496.20	33986.92
496.38	34178.84
496.55	34340.34
496.73	35302.30
496.91	35306.98
497.09	35248.47
497.26	35529.33
497.44	35199.32
497.62	35569.12
497.79	36086.38
497.97	35648.70
498.14	36285.33
498.32	36521.72
498.50	36453.84
498.67	36786.20
498.85	36568.53
499.03	37050.68
499.20	37312.82
499.38	37132.60
499.56	37483.68
499.73	37596.03
499.91	37979.87
500.08	37851.14
500.26	37904.98
500.44	37970.51
500.61	38246.69
500.79	38117.96
500.97	38731.18
501.14	39374.83
501.32	39077.58
501.49	39014.39
501.67	39297.59
501.84	39501.22
502.02	39438.03
502.20	39470.79
502.37	39641.65
502.55	39306.96
502.72	39854.64
502.90	39892.09
503.07	39978.69
503.25	40226.79
503.43	39901.45
503.60	40481.91
503.78	40542.76
503.95	40856.39
504.13	40694.89
504.30	41333.86
504.48	41170.02
504.65	41179.39
504.83	41401.74
505.01	41471.95
505.18	41574.94
505.36	41890.91
505.53	41670.90
505.71	41935.38
505.88	42096.88
506.06	41853.46
506.23	42354.33
506.41	42103.90
506.58	42806.06
506.76	42817.76
506.93	43042.45
507.11	42707.76
507.28	42581.37
507.46	42705.41
507.63	43454.39
507.81	43770.36
507.98	43136.07
508.16	43559.71
508.33	43908.45
508.50	44058.24
508.68	43847.60
508.85	44470.18
509.03	44053.56
509.20	44378.90
509.38	44776.79
509.55	45106.80
509.73	45322.13
509.90	44971.05
510.08	45233.19
510.25	45081.06
510.42	45212.13
510.60	45322.13
510.77	45710.66
510.95	45794.92
511.12	45600.66
511.30	45818.33
511.47	45975.14
511.64	45703.64
511.82	46256.01
511.99	46309.84
512.17	46307.50
512.34	46253.67
512.51	46656.24
512.69	46738.16
512.86	47061.15
513.04	46780.29
513.21	47210.95
513.38	46873.91
513.56	47529.26
513.73	47655.65
513.90	47571.39
514.08	47622.88
514.25	47456.70
514.43	48072.26
514.60	47934.17
514.77	47892.04
514.95	47695.44
515.12	48191.63
515.29	47922.47
515.47	48168.22
515.64	48552.07
515.81	48219.72
515.99	48816.55
516.16	48767.40
516.33	48814.21
516.51	49050.61
516.68	48868.05
516.85	48842.30
517.03	49336.15
517.20	49048.27
517.37	49169.97
517.54	49270.62
517.72	49331.47
517.89	49844.05
518.06	49602.97
518.24	49783.19
518.41	49720.00
518.58	50171.72
518.75	49397.01
518.93	49832.35
519.10	49984.48
519.27	49984.48
519.45	50138.96
519.62	50567.27
519.79	50136.62
519.96	50396.42
520.14	50466.63
520.31	50511.10
520.48	50586.00
520.65	50696.00
520.83	51047.08
521.00	51014.32
521.17	50810.69
521.34	51086.87
521.52	51194.54
521.69	51107.94
521.86	51491.79
522.03	51494.13
522.20	51597.11
522.38	52034.79
522.55	51749.24
522.72	51765.63
522.89	51669.67
523.07	52100.32
523.24	51821.80
523.41	51922.44
523.58	51903.72
523.75	52467.79
523.92	52142.45
524.10	52472.47
524.27	52446.72
524.44	52591.84
524.61	52617.58
524.78	52477.15
524.96	52626.95
525.13	52470.13
525.30	52825.89
525.47	52956.96
525.64	52701.84
525.81	53155.91
525.98	53279.96
526.16	53088.03
526.33	53097.39
526.50	53155.91
526.67	53361.87
526.84	53237.83
527.01	53141.86
527.18	53006.11
527.36	53434.43
527.53	53169.95
527.70	53773.81
527.87	53984.46
528.04	53305.70
528.21	53776.15
528.38	53607.63
528.55	54061.69
528.72	53771.47
528.89	53673.16
529.07	53581.88
529.24	53741.04
529.41	54127.23
529.58	54171.70
529.75	54148.29
529.92	54080.42
530.09	54288.73
530.26	54504.06
530.43	54394.05
530.60	54127.23
530.77	54167.02
530.94	54354.26
531.11	54082.76
531.28	54351.92
531.46	54508.74
531.63	54419.80
531.80	54623.42
531.97	54796.62
532.14	54548.53
532.31	54712.36
532.48	54930.03
532.65	55154.72
532.82	54728.75
532.99	55128.98
533.16	54688.96
533.33	55150.04
533.50	55363.03
533.67	55358.35
533.84	54995.57
534.01	55199.19
534.18	55423.89
534.35	55674.32
534.52	55395.80
534.69	55515.17
534.86	55461.33
535.03	55569.00
535.20	55461.33
535.37	55561.98
535.54	55592.40
535.71	55583.04
535.88	55683.69
536.05	55714.11
536.22	55828.80
536.38	55697.73
536.55	55707.09
536.72	56023.06
536.89	55870.93
537.06	55980.93
537.23	56072.21
537.40	55742.20
537.57	56011.36
537.74	56383.51
537.91	56238.39
538.08	56154.13
538.25	56072.21
538.42	56189.24
538.59	56399.89
538.75	56287.54
538.92	56502.87
539.09	56332.01
539.26	56404.57
539.43	56456.06
539.60	56385.85
539.77	56341.38
539.94	56502.87
540.11	56420.95
540.28	56683.09
540.44	56507.55
540.61	56802.46
540.78	56722.88
540.95	56582.45
541.12	56795.44
541.29	56711.18
541.46	56736.93
541.62	56882.04
541.79	56919.49
541.96	56568.41
542.13	56671.39
542.30	57130.14
542.47	57298.65
542.63	57247.16
542.80	57233.12
542.97	57296.31
543.14	57551.43
543.31	57453.13
543.48	57425.04
543.64	57696.55
543.81	57556.11
543.98	57513.98
544.15	57708.25
544.32	57471.85
544.48	57876.77
544.65	57602.92
544.82	57783.15
544.99	57490.58
545.16	57556.11
545.32	57677.82
545.49	57890.81
545.66	58101.46
545.83	58110.82
546.00	57935.28
546.16	58047.63
546.33	57776.12
546.50	57670.80
546.67	58127.20
546.83	57736.34
547.00	57968.05
547.17	58075.71
547.34	57998.48
547.50	58045.29
547.67	58246.57
547.84	58501.69
548.00	58560.20
548.17	58752.13
548.34	58450.20
548.51	58857.45
548.67	58698.30
548.84	58485.31
549.01	58377.64
549.18	58197.42
549.34	58742.77
549.51	58489.99
549.68	58695.95
549.84	58822.34
550.01	58824.68
550.18	58314.45
550.34	58794.26
550.51	58763.83
550.68	58721.70
550.84	58693.61
551.01	59011.93
551.18	58763.83
551.34	58707.66
551.51	58674.89
551.68	58733.40
551.84	58700.64
552.01	58920.65
552.18	58885.54
552.34	58805.96
552.51	58808.30
552.68	58808.30
552.84	58953.41
553.01	59203.85
553.18	59238.96
553.34	59100.87
553.51	59189.81
553.67	59164.06
553.84	59206.19
554.01	59243.64
554.17	59278.75
554.34	59318.54
554.51	59405.14
554.67	59241.30
554.84	59318.54
555.00	59166.40
555.17	59157.04
555.33	59281.09
555.50	59260.02
555.67	59503.44
555.83	59304.49
556.00	59501.10
556.16	59667.28
556.33	59683.66
556.50	59416.84
556.66	59552.59
556.83	59407.48
556.99	59625.15
557.16	59831.11
557.32	59863.88
557.49	59969.21
557.65	59517.48
557.82	59709.41
557.98	59756.22
558.15	59700.04
558.32	59774.94
558.48	59690.68
558.65	59959.84
558.81	59873.24
558.98	60048.78
559.14	59824.09
559.31	60004.31
559.47	59845.16
559.64	60097.94
559.80	59941.12
559.97	59969.21
560.13	60072.19
560.30	60172.83
560.46	60161.13
560.63	59924.74
560.79	59917.71
560.96	60149.43
561.12	60224.32
561.29	60060.49
561.45	60109.64
561.61	60090.91
561.78	60004.31
561.94	60081.55
562.11	60116.66
562.27	60172.83
562.44	60020.70
562.60	60339.01
562.77	60259.43
562.93	60051.12
563.10	60233.69
563.26	60289.86
563.42	60392.84
563.59	60229.01
563.75	60142.41
563.92	60266.45
564.08	60154.11
564.24	60374.12
564.41	60516.89
564.57	60399.86
564.74	60500.51
564.90	60280.50
565.07	60498.17
565.23	60289.86
565.39	60226.66
565.56	60472.42
565.72	60479.44
565.88	60322.63
566.05	60465.40
566.21	60502.85
566.38	60441.99
566.54	60451.36
566.70	60416.25
566.87	60580.09
567.03	60594.13
567.19	60640.94
567.36	60582.43
567.52	60605.83
567.68	60963.93
567.85	60544.98
568.01	60795.42
568.17	60500.51
568.34	60631.58
568.50	60633.92
568.66	60509.87
568.83	60706.47
568.99	60720.52
569.15	60664.35
569.32	60762.65
569.48	60671.37
569.64	60697.11
569.81	60741.58
569.97	60640.94
570.13	60872.65
570.30	60669.03
570.46	60750.94
570.62	60772.01
570.78	60961.59
570.95	60732.22
571.11	60804.78
571.27	60755.63
571.43	60750.94
571.60	60928.83
571.76	60711.16
571.92	60999.04
572.09	60725.20
572.25	60884.36
572.41	60797.76
572.57	60842.23
572.74	60982.66
572.90	60877.33
573.06	61095.00
573.22	60872.65
573.38	60776.69
573.55	61041.17
573.71	61123.09
573.87	60977.98
574.03	60659.66
574.20	60956.91
574.36	61043.51
574.52	61017.77
574.68	60945.21
574.84	60942.87
575.01	61015.43
575.17	60793.07
575.33	60961.59
575.49	60959.25
575.65	61050.53
575.82	60877.33
575.98	61228.41
576.14	61120.75
576.30	61015.43
576.46	61041.17
576.62	61059.90
576.79	60858.61
576.95	60889.04
577.11	61031.81
577.27	61209.69
577.43	60985.00
577.59	61137.13
577.75	61080.96
577.92	61029.47
578.08	61169.90
578.24	61256.50
578.40	61020.11
578.56	61134.79
578.72	60917.12
578.88	61307.99
579.04	61350.12
579.21	60977.98
579.37	61137.13
579.53	61399.27
579.69	61055.21
579.85	61045.85
580.01	61190.97
580.17	60938.19
580.33	61408.64
580.49	61062.24
580.65	61219.05
580.82	60999.04
580.98	61048.19
581.14	60956.91
581.30	61441.40
581.46	61118.41
581.62	61258.84
581.78	61209.69
581.94	61303.31
582.10	60992.02
582.26	61179.26
582.42	61031.81
582.58	61200.33
582.74	61263.52
582.90	61062.24
583.06	61095.00
583.22	60947.55
583.38	61165.22
583.54	61155.86
583.70	61265.86
583.86	61181.60
584.02	61235.44
584.18	61265.86
584.34	61399.27
584.50	61226.07
584.66	61144.16
584.82	61083.30
584.98	61228.41
585.14	61322.04
585.30	61272.88
585.46	61457.79
585.62	61202.67
585.78	61329.06
585.94	60985.00
586.10	61289.27
586.26	61172.24
586.42	61513.96
586.58	61226.07
586.74	61457.79
586.90	61291.61
587.06	61099.68
587.22	61298.63
587.38	61324.38
587.54	61586.52
587.70	61645.03
587.86	61326.72
588.02	61193.31
588.18	61490.55
588.34	61324.38
588.49	61261.18
