SpectraSuite Data File
++++++++++++++++++++++++++++++++++++
Date: Fri Oct 25 10:47:47 EDT 2013
User: price-jones
Dark Spectrum Present: No
Reference Spectrum Present: No
Number of Sampled Component Spectra: 1
Spectrometers: USB2+H05261
Integration Time (usec): 100000 (USB2+H05261)
Spectra Averaged: 1 (USB2+H05261)
Boxcar Smoothing: 0 (USB2+H05261)
Correct for Electrical Dark: No (USB2+H05261)
Strobe/Lamp Enabled: No (USB2+H05261)
Correct for Detector Non-linearity: No (USB2+H05261)
Correct for Stray Light: No (USB2+H05261)
Number of Pixels in Processed Spectrum: 2048
>>>>>Begin Processed Spectral Data<<<<<
365.73	112.35
365.92	112.35
366.12	112.35
366.32	18.72
366.52	74.90
366.72	79.58
366.91	60.85
367.11	63.19
367.31	60.85
367.51	4.68
367.70	49.15
367.90	49.15
368.10	25.75
368.30	25.75
368.49	37.45
368.69	84.26
368.89	28.09
369.09	53.83
369.28	72.56
369.48	79.58
369.68	53.83
369.87	60.85
370.07	105.32
370.27	117.03
370.47	208.31
370.66	278.52
370.86	344.06
371.06	505.56
371.25	468.11
371.45	416.62
371.65	411.93
371.84	433.00
372.04	470.45
372.24	526.62
372.44	458.74
372.63	521.94
372.83	550.03
373.03	472.79
373.22	500.87
373.42	500.87
373.62	550.03
373.81	491.51
374.01	535.98
374.21	601.52
374.40	535.98
374.60	514.92
374.79	531.30
374.99	500.87
375.19	603.86
375.38	561.73
375.58	521.94
375.78	503.22
375.97	545.34
376.17	610.88
376.37	521.94
376.56	547.69
376.76	655.35
376.95	547.69
377.15	582.79
377.35	674.07
377.54	608.54
377.74	587.47
377.93	676.41
378.13	627.26
378.33	615.56
378.52	566.41
378.72	634.29
378.91	580.45
379.11	645.99
379.31	631.94
379.50	643.65
379.70	699.82
379.89	737.27
380.09	655.35
380.28	592.16
380.48	599.18
380.68	688.12
380.87	641.31
381.07	676.41
381.26	758.33
381.46	748.97
381.65	610.88
381.85	676.41
382.04	643.65
382.24	641.31
382.43	695.14
382.63	737.27
382.83	685.78
383.02	732.59
383.22	784.08
383.41	664.71
383.61	678.76
383.80	758.33
384.00	699.82
384.19	760.67
384.39	671.73
384.58	753.65
384.78	781.74
384.97	739.61
385.17	819.19
385.36	713.86
385.56	746.63
385.75	826.21
385.95	866.00
386.14	805.14
386.34	791.10
386.53	826.21
386.72	706.84
386.92	802.80
387.11	786.42
387.31	922.17
387.50	711.52
387.70	844.93
387.89	800.46
388.09	844.93
388.28	870.68
388.48	915.15
388.67	833.23
388.86	851.96
389.06	823.87
389.25	968.98
389.45	854.30
389.64	875.36
389.84	915.15
390.03	903.45
390.22	994.73
390.42	957.28
390.61	952.60
390.81	903.45
391.00	924.51
391.19	1006.43
391.39	945.58
391.58	992.39
391.78	943.24
391.97	992.39
392.16	959.62
392.36	1006.43
392.55	968.98
392.75	945.58
392.94	978.34
393.13	966.64
393.33	992.39
393.52	1069.62
393.71	983.02
393.91	1048.56
394.10	1111.75
394.29	1107.07
394.49	1027.50
394.68	1050.90
394.88	1097.71
395.07	1102.39
395.26	1090.69
395.46	1078.99
395.65	1135.16
395.84	1142.18
396.04	1184.31
396.23	1224.10
396.42	1039.20
396.62	1125.80
396.81	1153.88
397.00	1151.54
397.19	1191.33
397.39	1263.89
397.58	1259.21
397.77	1224.10
397.97	1231.12
398.16	1331.76
398.35	1235.80
398.55	1331.76
398.74	1350.49
398.93	1411.34
399.12	1315.38
399.32	1313.04
399.51	1322.40
399.70	1327.08
399.90	1341.13
400.09	1348.15
400.28	1411.34
400.47	1439.43
400.67	1467.52
400.86	1444.11
401.05	1565.82
401.24	1427.73
401.44	1542.41
401.63	1479.22
401.82	1537.73
402.01	1519.01
402.21	1551.78
402.40	1502.62
402.59	1570.50
402.78	1469.86
402.97	1516.67
403.17	1556.46
403.36	1579.86
403.55	1603.27
403.74	1612.63
403.93	1558.80
404.13	1619.65
404.32	1717.95
404.51	1624.33
404.70	1645.40
404.89	1748.38
405.09	1792.85
405.28	1701.57
405.47	1788.17
405.66	1739.02
405.85	1820.94
406.05	1748.38
406.24	1832.64
406.43	1863.07
406.62	1823.28
406.81	1881.79
407.00	1820.94
407.20	1781.15
407.39	1902.86
407.58	1991.80
407.77	1982.43
407.96	1996.48
408.15	1984.77
408.34	2031.58
408.54	2036.27
408.73	2012.86
408.92	2064.35
409.11	1919.24
409.30	2033.93
409.49	1984.77
409.68	2024.56
409.87	2026.90
410.07	2122.87
410.26	2115.84
410.45	2143.93
410.64	2038.61
410.83	2211.81
411.02	2310.11
411.21	2293.72
411.40	2326.49
411.59	2321.81
411.78	2296.07
411.98	2310.11
412.17	2340.54
412.36	2324.15
412.55	2417.77
412.74	2464.58
412.93	2600.34
413.12	2380.32
413.31	2668.21
413.50	2513.74
413.69	2511.39
413.88	2609.70
414.07	2658.85
414.26	2672.89
414.45	2654.17
414.64	2693.96
414.83	2551.18
415.02	2698.64
415.22	2785.24
415.41	2775.88
415.60	2630.76
415.79	2792.26
415.98	2909.29
416.17	2857.79
416.36	2803.96
416.55	2918.65
416.74	2890.56
416.93	2897.58
417.12	2920.99
417.31	3019.29
417.50	3033.33
417.69	3176.11
417.88	3117.59
418.07	2932.69
418.26	3126.96
418.45	3068.44
418.64	3122.27
418.83	2928.01
419.02	3208.87
419.21	3141.00
419.39	3318.88
419.58	3148.02
419.77	3115.25
419.96	3222.92
420.15	3361.01
420.34	3290.79
420.53	3379.73
420.72	3398.46
420.91	3379.73
421.10	3414.84
421.29	3442.93
421.48	3351.65
421.67	3513.14
421.86	3328.24
422.05	3314.20
422.24	3346.97
422.43	3456.97
422.61	3478.04
422.80	3667.62
422.99	3559.95
423.18	3538.89
423.37	3456.97
423.56	3349.31
423.75	3454.63
423.94	3452.29
424.13	3349.31
424.32	3513.14
424.50	3508.46
424.69	3604.42
424.88	3571.66
425.07	3482.72
425.26	3480.38
425.45	3602.08
425.64	3485.06
425.83	3630.17
426.01	3707.41
426.20	3695.71
426.39	3494.42
426.58	3557.61
426.77	3468.67
426.96	3686.34
427.15	3590.38
427.33	3637.19
427.52	3616.13
427.71	3700.39
427.90	3751.88
428.09	3887.63
428.28	3758.90
428.46	3716.77
428.65	3796.35
428.84	3786.99
429.03	4016.36
429.22	3695.71
429.40	3749.54
429.59	3740.18
429.78	3770.60
429.97	3714.43
430.16	3719.11
430.34	3878.27
430.53	3850.18
430.72	3913.38
430.91	3950.82
431.10	3934.44
431.28	3915.72
431.47	4095.94
431.66	4025.72
431.85	4002.32
432.03	4191.90
432.22	4203.60
432.41	4173.18
432.60	4147.43
432.79	4161.47
432.97	4248.07
433.16	4276.16
433.35	4229.35
433.54	4269.14
433.72	4409.57
433.91	4304.25
434.10	4337.01
434.28	4393.19
434.47	4484.47
434.66	4341.69
434.85	4407.23
435.03	4444.68
435.22	4372.12
435.41	4624.90
435.59	4538.30
435.78	4526.60
435.97	4491.49
436.16	4568.73
436.34	4601.49
436.53	4603.83
436.72	4748.95
436.90	4505.53
437.09	4638.94
437.28	4554.68
437.46	4580.43
437.65	4730.22
437.84	4709.16
438.02	4657.67
438.21	4856.61
438.40	4709.16
438.58	4971.30
438.77	4978.32
438.96	4975.98
439.14	4961.94
439.33	4987.68
439.52	5118.75
439.70	5029.81
439.89	5247.48
440.08	5336.42
440.26	5186.63
440.45	5135.14
440.63	5282.59
440.82	5322.38
441.01	5352.81
441.19	5345.78
441.38	5483.88
441.57	5460.47
441.75	5383.23
441.94	5628.99
442.12	5589.20
442.31	5570.48
442.50	5664.10
442.68	5760.06
442.87	5799.85
443.05	5673.46
443.24	5811.55
443.43	5724.95
443.61	5668.78
443.80	5909.85
443.98	5736.65
444.17	5617.29
444.35	5916.87
444.54	5886.45
444.73	5879.43
444.91	5959.00
445.10	5884.11
445.28	5823.25
445.47	5743.67
445.65	5762.40
445.84	5921.56
446.02	5823.25
446.21	5937.94
446.39	5912.19
446.58	5923.90
446.77	6033.90
446.95	5799.85
447.14	6045.60
447.32	5846.66
447.51	5909.85
447.69	6174.33
447.88	5940.28
448.06	5963.68
448.25	5930.92
448.43	5980.07
448.62	6200.08
448.80	6059.65
448.99	6047.94
449.17	6160.29
449.36	6256.25
449.54	6312.42
449.73	6303.06
449.91	6296.04
450.10	6424.77
450.28	6424.77
450.46	6333.49
450.65	6408.39
450.83	6342.85
451.02	6616.69
451.20	6626.06
451.39	6459.88
451.57	6588.61
451.76	6567.54
451.94	6427.11
452.13	6366.26
452.31	6354.55
452.49	6291.36
452.68	6387.32
452.86	6567.54
453.05	6497.33
453.23	6612.01
453.42	6609.67
453.60	6422.43
453.78	6715.00
453.97	6609.67
454.15	6565.20
454.34	6574.56
454.52	6600.31
454.70	6654.14
454.89	6796.92
455.07	6766.49
455.26	6654.14
455.44	7005.22
455.62	7037.99
455.81	7002.88
455.99	7143.32
456.17	6897.56
456.36	7108.21
456.54	7187.79
456.73	7339.92
456.91	7297.79
457.09	7279.07
457.28	7234.60
457.46	7222.89
457.64	7199.49
457.83	7222.89
458.01	7187.79
458.19	7440.56
458.38	7421.84
458.56	7508.44
458.74	7358.64
458.93	7353.96
459.11	7386.73
459.29	7431.20
459.48	7349.28
459.66	7435.88
459.84	7552.91
460.03	7723.77
460.21	7499.08
460.39	7712.07
460.57	7641.85
460.76	7728.45
460.94	7613.76
461.12	7714.41
461.31	7808.03
461.49	8023.36
461.67	7754.19
461.85	8011.65
462.04	7978.89
462.22	8383.80
462.40	8088.89
462.59	7815.05
462.77	7988.25
462.95	8109.96
463.13	8065.49
463.32	8051.44
463.50	8264.43
463.68	8208.26
463.86	8081.87
464.05	7948.46
464.23	8004.63
464.41	8184.85
464.59	8049.10
464.78	8575.72
464.96	8285.50
465.14	8168.47
465.32	8446.99
465.50	8353.37
465.69	8411.89
465.87	8290.18
466.05	8421.25
466.23	8512.53
466.41	8545.30
466.60	8416.57
466.78	8156.77
466.96	8388.48
467.14	8463.38
467.32	8461.04
467.51	8559.34
467.69	8308.90
467.87	8575.72
468.05	8571.04
468.23	8395.50
468.41	8528.91
468.60	8538.27
468.78	8699.77
468.96	8634.24
469.14	8982.98
469.32	8926.80
469.50	8535.93
469.69	8723.18
469.87	8891.70
470.05	9055.53
470.23	8952.55
470.41	8879.99
470.59	9167.88
470.77	9210.01
470.95	9029.79
471.14	9046.17
471.32	9160.86
471.50	9231.07
471.68	9343.42
471.86	9411.29
472.04	9455.76
472.22	9406.61
472.40	9324.69
472.58	9504.92
472.77	9495.55
472.95	9661.73
473.13	9809.19
473.31	9420.66
473.49	9528.32
473.67	9731.95
473.85	9596.20
474.03	9961.32
474.21	9783.44
474.39	10045.58
474.57	10050.26
474.75	10305.38
474.93	10132.18
475.12	9935.57
475.30	10200.05
475.48	10258.57
475.66	10183.67
475.84	10237.50
476.02	10319.42
476.20	10462.19
476.38	10527.73
476.56	10714.97
476.74	10951.37
476.92	10846.04
477.10	10892.85
477.28	11033.29
477.46	10972.43
477.64	10960.73
477.82	11311.81
478.00	11269.68
478.18	11372.66
478.36	11625.44
478.54	11543.52
478.72	11686.29
478.90	11793.96
479.08	12028.01
479.26	11922.69
479.44	11815.02
479.62	11796.30
479.80	12212.92
479.98	11992.90
480.16	12336.96
480.34	12156.74
480.52	12503.14
480.70	12418.88
480.88	12138.02
481.06	12865.92
481.24	12910.40
481.41	13153.81
481.59	13209.98
481.77	13085.94
481.95	13032.10
482.13	13490.85
482.31	13200.62
482.49	13650.00
482.67	13378.50
482.85	13760.01
483.03	13724.90
483.21	14052.58
483.39	14094.71
483.57	14057.26
483.74	14050.24
483.92	14487.92
484.10	14338.12
484.28	14544.09
484.46	14668.14
484.64	15215.82
484.82	14473.87
485.00	14993.47
485.18	15183.06
485.35	15119.86
485.53	14831.97
485.71	15206.46
485.89	15403.07
486.07	15360.94
486.25	15487.32
486.43	15807.98
486.61	15803.30
486.78	15791.59
486.96	15796.28
487.14	16182.46
487.32	16273.74
487.50	16386.09
487.68	16456.31
487.85	16718.45
488.03	16926.75
488.21	17200.60
488.39	17020.38
488.57	17053.14
488.75	17132.72
488.92	17539.97
489.10	17809.14
489.28	17848.93
489.46	18216.39
489.64	18090.00
489.81	18253.84
489.99	18408.31
490.17	18537.04
490.35	18714.92
490.53	18698.54
490.70	18827.27
490.88	18904.51
491.06	19323.46
491.24	19147.92
491.41	19201.76
491.59	19173.67
491.77	19152.60
491.95	19403.04
492.13	19623.05
492.30	19833.70
492.48	19714.33
492.66	19978.81
492.84	20070.09
493.01	20369.68
493.19	20255.00
493.37	20636.50
493.54	20470.33
493.72	20573.31
493.90	20589.69
494.08	20875.24
494.25	21132.70
494.43	21481.44
494.61	21434.63
494.79	21481.44
494.96	21273.13
495.14	21261.43
495.32	21722.51
495.49	22075.93
495.67	21774.00
495.85	22319.35
496.02	22136.79
496.20	22410.63
496.38	22527.66
496.55	22647.02
496.73	23171.30
496.91	22574.47
497.09	22553.40
497.26	23185.35
497.44	23122.15
497.62	23384.29
497.79	23056.62
497.97	23342.16
498.14	23559.83
498.32	23807.93
498.50	23583.24
498.67	23931.98
498.85	23903.89
499.03	24130.92
499.20	24287.74
499.38	24353.27
499.56	24577.97
499.73	24463.28
499.91	24386.04
500.08	24641.16
500.26	24587.33
500.44	24652.86
500.61	24395.40
500.79	24556.90
500.97	24842.45
501.14	25387.79
501.32	24985.22
501.49	25371.41
501.67	25263.74
501.84	25439.28
502.02	25570.35
502.20	25722.49
502.37	25560.99
502.55	25813.77
502.72	25518.86
502.90	26038.46
503.07	25888.67
503.25	25687.38
503.43	25792.70
503.60	26199.96
503.78	25998.67
503.95	25942.50
504.13	26410.60
504.30	26642.32
504.48	26829.56
504.65	26541.68
504.83	27173.62
505.01	27145.53
505.18	27054.25
505.36	27346.82
505.53	26817.86
505.71	27370.22
505.88	27737.69
506.06	27400.65
506.23	27515.34
506.41	27824.29
506.58	27414.69
506.76	27714.28
506.93	27758.75
507.11	27711.94
507.28	28063.02
507.46	28037.28
507.63	27754.07
507.81	28259.63
507.98	27859.40
508.16	28435.17
508.33	28601.35
508.50	28449.21
508.68	28460.91
508.85	28903.28
509.03	28486.66
509.20	28879.87
509.38	29315.21
509.55	29142.01
509.73	29202.86
509.90	28849.44
510.08	29263.72
510.25	29553.94
510.42	29233.29
510.60	29755.23
510.77	29593.73
510.95	29741.19
511.12	29565.65
511.30	29759.91
511.47	29954.18
511.64	30419.94
511.82	30206.95
511.99	30323.98
512.17	30398.88
512.34	30450.37
512.51	30225.68
512.69	30597.82
512.86	30572.08
513.04	31077.63
513.21	31068.27
513.38	31026.14
513.56	30611.87
513.73	30705.49
513.90	30883.37
514.08	30962.95
514.25	31178.28
514.43	30986.35
514.60	30953.58
514.77	30927.84
514.95	30991.03
515.12	31531.70
515.29	31529.36
515.47	31468.50
515.64	31871.07
515.81	31651.06
515.99	31749.37
516.16	31997.46
516.33	31594.89
516.51	31672.13
516.68	31494.25
516.85	32360.25
517.03	32156.62
517.20	32030.23
517.37	32137.90
517.54	32643.45
517.72	32116.83
517.89	32332.16
518.06	32346.20
518.24	32320.46
518.41	32247.90
518.58	32264.28
518.75	32645.79
518.93	32701.96
519.10	32823.67
519.27	32994.53
519.45	32673.88
519.62	33069.43
519.79	33331.57
519.96	33219.22
520.14	33544.56
520.31	33074.11
520.48	33268.37
520.65	33060.07
520.83	33621.80
521.00	33656.90
521.17	33823.08
521.34	33897.98
521.52	33951.81
521.69	34033.73
521.86	34110.97
522.03	34183.52
522.20	34117.99
522.38	34066.50
522.55	34125.01
522.72	34120.33
522.89	33991.60
523.07	34639.93
523.24	34321.62
523.41	34668.02
523.58	34768.66
523.75	34974.63
523.92	34700.78
524.10	35056.54
524.27	35061.22
524.44	34778.02
524.61	35304.64
524.78	35255.49
524.96	34960.58
525.13	35065.91
525.30	35419.33
525.47	35367.84
525.64	35316.34
525.81	35641.68
525.98	35505.93
526.16	35440.39
526.33	35681.47
526.50	35629.98
526.67	35562.10
526.84	35414.65
527.01	35337.41
527.18	35777.43
527.36	35641.68
527.53	35950.63
527.70	36442.14
527.87	36517.04
528.04	36311.07
528.21	36357.88
528.38	36549.81
528.55	36472.57
528.72	36643.43
528.89	36381.29
529.07	36437.46
529.24	36603.64
529.41	36416.40
529.58	36580.23
529.75	36720.66
529.92	36577.89
530.09	37244.94
530.26	36961.74
530.43	36849.39
530.60	36800.24
530.77	36671.51
530.94	37163.03
531.11	37298.78
531.28	37296.44
531.46	37209.84
531.63	37579.64
531.80	37247.29
531.97	37270.69
532.14	37631.13
532.31	37277.71
532.48	37729.44
532.65	37495.38
532.82	37757.52
532.99	38204.56
533.16	37694.33
533.33	37724.75
533.50	37916.68
533.67	38087.54
533.84	37691.99
534.01	37979.87
534.18	38307.55
534.35	38464.36
534.52	38206.90
534.69	38572.03
534.86	38602.46
535.03	38356.70
535.20	38817.78
535.37	38443.30
535.54	38817.78
535.71	38476.07
535.88	38904.38
536.05	38637.56
536.22	38579.05
536.38	38892.68
536.55	38651.61
536.72	38815.44
536.89	38178.82
537.06	38438.62
537.23	38609.48
537.40	38490.11
537.57	38522.88
537.74	38941.83
537.91	39367.81
538.08	39154.82
538.25	38752.25
538.42	38831.83
538.59	39353.77
538.75	38787.36
538.92	39236.74
539.09	39796.13
539.26	39770.38
539.43	39517.60
539.60	39526.97
539.77	39594.84
539.94	39246.10
540.11	39466.11
540.28	39447.39
540.44	39573.78
540.61	39510.58
540.78	39842.94
540.95	39517.60
541.12	39328.02
541.29	39871.03
541.46	40086.36
541.62	39700.17
541.79	40378.92
541.96	39445.05
542.13	39461.43
542.30	40224.45
542.47	39901.45
542.63	40212.74
542.80	40407.01
542.97	39941.24
543.14	40526.38
543.31	40584.89
543.48	40507.65
543.64	41172.36
543.81	40924.27
543.98	40758.09
544.15	40264.24
544.32	40928.95
544.48	40851.71
544.65	40926.61
544.82	41193.43
544.99	40584.89
545.16	40912.56
545.32	40938.31
545.49	41151.30
545.66	41256.62
545.83	41031.93
546.00	41420.46
546.16	41415.78
546.33	41319.82
546.50	40760.43
546.67	41092.79
546.83	40945.33
547.00	41680.26
547.17	40847.03
547.34	41235.56
547.50	41223.86
547.67	41649.83
547.84	41511.74
548.00	41668.56
548.17	41736.43
548.34	41448.55
548.51	41986.87
548.67	41979.85
548.84	41750.48
549.01	41596.00
549.18	41631.11
549.34	41804.31
549.51	42110.92
549.68	42347.31
549.84	42064.11
550.01	42389.44
550.18	42054.75
550.34	41951.76
550.51	42714.78
550.68	41933.04
550.84	41729.41
551.01	42274.76
551.18	41933.04
551.34	42253.69
551.51	42007.94
551.68	42424.55
551.84	42616.47
552.01	41989.21
552.18	42337.95
552.34	41792.61
552.51	42635.20
552.68	42195.18
552.84	42511.15
553.01	42555.62
553.18	42506.47
553.34	42422.21
553.51	42614.13
553.67	42108.58
553.84	42557.96
554.01	42717.12
554.17	42909.04
554.34	43033.09
554.51	42824.78
554.67	43103.31
554.84	43306.93
555.00	43056.50
555.17	42761.59
555.33	43014.37
555.50	42869.25
555.67	42895.00
555.83	43325.66
556.00	42806.06
556.16	43524.60
556.33	43030.75
556.50	42522.85
556.66	43161.82
556.83	42761.59
556.99	43332.68
557.16	43473.11
557.32	43442.68
557.49	43070.54
557.65	43131.39
557.82	43192.25
557.98	43199.27
558.15	43543.33
558.32	43505.88
558.48	43335.02
558.65	43288.21
558.81	42857.55
558.98	43496.52
559.14	43203.95
559.31	43910.79
559.47	43384.17
559.64	43952.92
559.80	43606.52
559.97	43730.57
560.13	43325.66
560.30	43023.73
560.46	43332.68
560.63	43349.06
560.79	43412.26
560.96	43772.70
561.12	43779.72
561.29	43599.50
561.45	44083.99
561.61	43819.51
561.78	43419.28
561.94	43608.86
562.11	43592.48
562.27	43679.08
562.44	43555.03
562.60	44135.48
562.77	44156.55
562.93	43519.92
563.10	44240.81
563.26	43714.19
563.42	43899.09
563.59	43573.75
563.75	43625.25
563.92	43842.92
564.08	43868.66
564.24	44186.97
564.41	43964.62
564.57	44020.80
564.74	43924.83
564.90	44191.65
565.07	43718.87
565.23	43800.79
565.39	44074.63
565.56	44357.83
565.72	43849.94
565.88	43695.46
566.05	43917.81
566.21	44275.91
566.38	43910.79
566.54	44299.32
566.70	44313.36
566.87	44313.36
567.03	44509.97
567.19	44708.91
567.36	44828.28
567.52	43995.05
567.68	44219.74
567.85	44151.87
568.01	44299.32
568.17	44392.94
568.34	44406.98
568.50	44175.27
568.66	43583.12
568.83	44458.48
568.99	44222.08
569.15	43962.28
569.32	44194.00
569.48	44219.74
569.64	44369.54
569.81	44568.48
569.97	44626.99
570.13	44339.11
570.30	44170.59
570.46	44158.89
570.62	44016.11
570.78	44428.05
570.95	44439.75
571.11	44416.35
571.27	44470.18
571.43	44332.09
571.60	44226.76
571.76	44521.67
571.92	44327.41
572.09	44545.08
572.25	44610.61
572.41	44762.75
572.57	44409.32
572.74	45219.15
572.90	44612.95
573.06	44531.03
573.22	44215.06
573.38	44428.05
573.55	43892.07
573.71	44458.48
573.87	44603.59
574.03	44371.88
574.20	44524.01
574.36	44577.84
574.52	44884.45
574.68	44362.51
574.84	44519.33
575.01	44699.55
575.17	44952.33
575.33	44624.65
575.49	44385.92
575.65	45074.04
575.82	44617.63
575.98	44814.24
576.14	44821.26
576.30	44432.73
576.46	44311.02
576.62	44795.51
576.79	44643.38
576.95	44486.56
577.11	44645.72
577.27	44884.45
577.43	44692.53
577.59	44762.75
577.75	44669.12
577.92	44392.94
578.08	44605.93
578.24	44615.29
578.40	44570.82
578.56	44793.17
578.72	44996.80
578.88	44811.90
579.04	45052.97
579.21	44690.19
579.37	44137.82
579.53	44678.49
579.69	44481.88
579.85	45010.84
580.01	44722.96
580.17	45076.38
580.33	44975.73
580.49	44828.28
580.65	44708.91
580.82	45214.47
580.98	44626.99
581.14	44327.41
581.30	44898.50
581.46	44690.19
581.62	44648.06
581.78	45305.75
581.94	45038.93
582.10	44905.52
582.26	44423.37
582.42	44552.10
582.58	45251.92
582.74	44671.46
582.90	44631.68
583.06	45177.02
583.22	44636.36
583.38	45226.17
583.54	44666.78
583.70	45043.61
583.86	45041.27
584.02	44306.34
584.18	45083.40
584.34	44748.70
584.50	44954.67
584.66	43957.60
584.82	44531.03
584.98	44685.51
585.14	44814.24
585.30	44343.79
585.46	44526.35
585.62	45020.20
585.78	44737.00
585.94	44615.29
586.10	44666.78
586.26	44673.81
586.42	45345.54
586.58	45013.18
586.74	44847.00
586.90	44615.29
587.06	44540.39
587.22	44687.85
587.38	44212.72
587.54	45116.17
587.70	45055.31
587.86	45120.85
588.02	44875.09
588.18	45092.76
588.34	44610.61
588.49	44694.87
588.65	44423.37
588.81	44472.52
588.97	44626.99
589.13	44847.00
589.29	45001.48
589.45	44715.93
589.61	44844.66
589.77	44884.45
589.93	45216.81
590.08	45221.49
590.24	44907.86
