SpectraSuite Data File
++++++++++++++++++++++++++++++++++++
Date: Fri Oct 25 11:26:21 EDT 2013
User: price-jones
Dark Spectrum Present: No
Reference Spectrum Present: No
Number of Sampled Component Spectra: 1
Spectrometers: USB2+H05261
Integration Time (usec): 100000 (USB2+H05261)
Spectra Averaged: 1 (USB2+H05261)
Boxcar Smoothing: 0 (USB2+H05261)
Correct for Electrical Dark: No (USB2+H05261)
Strobe/Lamp Enabled: No (USB2+H05261)
Correct for Detector Non-linearity: No (USB2+H05261)
Correct for Stray Light: No (USB2+H05261)
Number of Pixels in Processed Spectrum: 2048
>>>>>Begin Processed Spectral Data<<<<<
365.73	255.12
365.92	255.12
366.12	255.12
366.32	194.26
366.52	203.63
366.72	107.66
366.91	107.66
367.11	175.54
367.31	140.43
367.51	119.37
367.70	84.26
367.90	93.62
368.10	142.77
368.30	91.28
368.49	131.07
368.69	182.56
368.89	187.24
369.09	201.29
369.28	161.50
369.48	93.62
369.68	191.92
369.87	189.58
370.07	220.01
370.27	245.76
370.47	252.78
370.66	566.41
370.86	629.60
371.06	741.95
371.25	690.46
371.45	631.94
371.65	819.19
371.84	711.52
372.04	767.70
372.24	725.57
372.44	739.61
372.63	732.59
372.83	814.51
373.03	727.91
373.22	786.42
373.42	741.95
373.62	758.33
373.81	737.27
374.01	901.11
374.21	901.11
374.40	720.88
374.60	802.80
374.79	840.25
374.99	835.57
375.19	854.30
375.38	863.66
375.58	866.00
375.78	861.32
375.97	866.00
376.17	861.32
376.37	898.77
376.56	854.30
376.76	823.87
376.95	826.21
377.15	884.72
377.35	924.51
377.54	940.90
377.74	889.40
377.93	940.90
378.13	870.68
378.33	933.87
378.52	980.68
378.72	917.49
378.91	954.94
379.11	936.21
379.31	919.83
379.50	837.91
379.70	980.68
379.89	954.94
380.09	997.07
380.28	936.21
380.48	992.39
380.68	966.64
380.87	1025.15
381.07	1018.13
381.26	1018.13
381.46	1001.75
381.65	1118.78
381.85	1025.15
382.04	1132.82
382.24	1039.20
382.43	1006.43
382.63	1022.81
382.83	1088.35
383.02	1048.56
383.22	1100.05
383.41	1107.07
383.61	1097.71
383.80	1116.44
384.00	1100.05
384.19	1090.69
384.39	1048.56
384.58	1123.46
384.78	1188.99
384.97	1170.27
385.17	1177.29
385.36	1156.22
385.56	1158.57
385.75	1179.63
385.95	1172.61
386.14	1254.53
386.34	1179.63
386.53	1191.33
386.72	1142.18
386.92	1240.48
387.11	1287.29
387.31	1228.78
387.50	1280.27
387.70	1226.44
387.89	1181.97
388.09	1254.53
388.28	1233.46
388.48	1331.76
388.67	1378.58
388.86	1359.85
389.06	1231.12
389.25	1313.04
389.45	1371.55
389.64	1334.11
389.84	1383.26
390.03	1371.55
390.22	1409.00
390.42	1413.68
390.61	1409.00
390.81	1387.94
391.00	1399.64
391.19	1476.88
391.39	1423.05
391.58	1483.90
391.78	1373.89
391.97	1401.98
392.16	1453.47
392.36	1504.96
392.55	1448.79
392.75	1507.30
392.94	1479.22
393.13	1458.15
393.33	1495.60
393.52	1556.46
393.71	1572.84
393.91	1563.48
394.10	1619.65
394.29	1687.53
394.49	1600.93
394.68	1631.35
394.88	1680.50
395.07	1633.69
395.26	1732.00
395.46	1638.38
395.65	1682.85
395.84	1696.89
396.04	1724.97
396.23	1774.13
396.42	1577.52
396.62	1823.28
396.81	1851.36
397.00	1734.34
397.19	1827.96
397.39	1771.79
397.58	1872.43
397.77	1753.06
397.97	1832.64
398.16	1879.45
398.35	1837.32
398.55	1930.94
398.74	1795.19
398.93	1940.30
399.12	1907.54
399.32	1944.99
399.51	1947.33
399.70	2036.27
399.90	1916.90
400.09	1891.15
400.28	1982.43
400.47	2054.99
400.67	2069.03
400.86	2115.84
401.05	2080.74
401.24	2186.06
401.44	2099.46
401.63	2160.31
401.82	2047.97
402.01	2108.82
402.21	2115.84
402.40	2272.66
402.59	2209.47
402.78	2223.51
402.97	2190.74
403.17	2176.70
403.36	2270.32
403.55	2321.81
403.74	2363.94
403.93	2338.20
404.13	2312.45
404.32	2396.71
404.51	2345.22
404.70	2459.90
404.89	2228.19
405.09	2457.56
405.28	2415.43
405.47	2532.46
405.66	2499.69
405.85	2485.65
406.05	2457.56
406.24	2459.90
406.43	2560.55
406.62	2726.72
406.81	2663.53
407.00	2644.81
407.20	2518.42
407.39	2628.42
407.58	2668.21
407.77	2726.72
407.96	2698.64
408.15	2686.94
408.34	2813.32
408.54	2771.19
408.73	2799.28
408.92	2836.73
409.11	2883.54
409.30	2923.33
409.49	2904.60
409.68	2988.86
409.87	2988.86
410.07	3002.91
410.26	3030.99
410.45	2993.55
410.64	2988.86
410.83	2977.16
411.02	3005.25
411.21	3192.49
411.40	3075.46
411.59	3220.58
411.78	3314.20
411.98	3157.38
412.17	3143.34
412.36	3213.56
412.55	3349.31
412.74	3452.29
412.93	3403.14
413.12	3337.60
413.31	3632.51
413.50	3410.16
413.69	3463.99
413.88	3644.21
414.07	3545.91
414.26	3597.40
414.45	3653.58
414.64	3578.68
414.83	3904.01
415.02	3779.97
415.22	3925.08
415.41	3957.85
415.60	3763.58
415.79	3831.46
415.98	3995.29
416.17	4035.08
416.36	3899.33
416.55	3911.04
416.74	4121.68
416.93	3962.53
417.12	4011.68
417.31	4173.18
417.50	4135.73
417.69	4313.61
417.88	4407.23
418.07	4227.01
418.26	4266.80
418.45	4318.29
418.64	4540.64
418.83	4510.21
419.02	4337.01
419.21	4493.83
419.39	4475.10
419.58	4449.36
419.77	4557.02
419.96	4592.13
420.15	4465.74
420.34	4587.45
420.53	4507.87
420.72	4641.28
420.91	4617.88
421.10	4741.93
421.29	4802.78
421.48	4596.81
421.67	4709.16
421.86	4641.28
422.05	4781.71
422.24	4858.95
422.43	4690.43
422.61	4912.78
422.80	4929.17
422.99	4964.28
423.18	4933.85
423.37	5078.96
423.56	4777.03
423.75	4807.46
423.94	4702.14
424.13	4573.41
424.32	4877.68
424.50	5074.28
424.69	5034.49
424.88	5074.28
425.07	5029.81
425.26	4987.68
425.45	4793.42
425.64	4896.40
425.83	4997.04
426.01	4990.02
426.20	4999.38
426.39	5062.58
426.58	4865.97
426.77	4929.17
426.96	5097.69
427.15	5170.24
427.33	5078.96
427.52	5074.28
427.71	5224.08
427.90	5214.71
428.09	5104.71
428.28	5219.39
428.46	5366.85
428.65	5261.52
428.84	5416.00
429.03	5439.40
429.22	5228.76
429.40	5437.06
429.59	5441.75
429.78	5181.95
429.97	5151.52
430.16	5495.58
430.34	5589.20
430.53	5600.90
430.72	5703.89
430.91	5526.00
431.10	5596.22
431.28	5621.97
431.47	5736.65
431.66	5685.16
431.85	5722.61
432.03	5877.09
432.22	5881.77
432.41	5827.93
432.60	5701.54
432.79	5825.59
432.97	5930.92
433.16	5944.96
433.35	6087.73
433.54	6064.33
433.72	6099.44
433.91	6078.37
434.10	6164.97
434.28	5977.73
434.47	6263.27
434.66	6284.34
434.85	6361.58
435.03	6272.64
435.22	6413.07
435.41	6361.58
435.59	6361.58
435.78	6413.07
435.97	6588.61
436.16	6380.30
436.34	6237.53
436.53	6408.39
436.72	6579.25
436.90	6394.34
437.09	6406.05
437.28	6293.70
437.46	6363.92
437.65	6590.95
437.84	6647.12
438.02	6612.01
438.21	6621.38
438.40	6670.53
438.58	7136.29
438.77	7042.67
438.96	6977.14
439.14	6984.16
439.33	7105.87
439.52	7176.08
439.70	7363.33
439.89	7290.77
440.08	7440.56
440.26	7393.75
440.45	7157.36
440.63	7473.33
440.82	7648.87
441.01	7379.71
441.19	7447.58
441.38	7662.91
441.57	7681.64
441.75	7588.02
441.94	7950.80
442.12	7801.01
442.31	8046.76
442.50	7822.07
442.68	7854.84
442.87	8032.72
443.05	8105.28
443.24	8177.83
443.43	8100.59
443.61	8215.28
443.80	8264.43
443.98	7852.50
444.17	7864.20
444.35	8149.75
444.54	8168.47
444.73	8219.96
444.91	8250.39
445.10	8170.81
445.28	8234.00
445.47	8170.81
445.65	8159.11
445.84	8280.82
446.02	8355.71
446.21	8189.53
446.39	8435.29
446.58	8432.95
446.77	8355.71
446.95	8306.56
447.14	8315.92
447.32	8451.67
447.51	8388.48
447.69	8428.27
447.88	8287.84
448.06	8542.96
448.25	8547.64
448.43	8449.33
448.62	8538.27
448.80	8313.58
448.99	8517.21
449.17	8549.98
449.36	8603.81
449.54	8975.95
449.73	8816.80
449.91	8912.76
450.10	8924.46
450.28	8943.19
450.46	9004.04
450.65	8884.67
450.83	9027.45
451.02	9188.94
451.20	9165.54
451.39	9240.44
451.57	8980.64
451.76	8861.27
451.94	8964.25
452.13	9179.58
452.31	9303.63
452.49	9130.43
452.68	9350.44
452.86	9202.99
453.05	9434.70
453.23	9324.69
453.42	9111.71
453.60	9231.07
453.78	9628.96
453.97	9268.52
454.15	9432.36
454.34	9373.85
454.52	9790.46
454.70	9434.70
454.89	9614.92
455.07	9834.93
455.26	9900.47
455.44	9830.25
455.62	9874.72
455.81	9973.02
455.99	9919.19
456.17	9987.07
456.36	10120.48
456.54	10087.71
456.73	10399.00
456.91	10448.15
457.09	10216.44
457.28	10593.26
457.46	10115.80
457.64	10361.55
457.83	10284.31
458.01	10539.43
458.19	10661.14
458.38	10415.38
458.56	10693.91
458.74	10544.11
458.93	10520.71
459.11	10644.76
459.29	10766.46
459.48	10745.40
459.66	10885.83
459.84	10597.95
460.03	10810.93
460.21	10937.32
460.39	10782.85
460.57	11096.48
460.76	10850.72
460.94	11037.97
461.12	11143.29
461.31	11290.74
461.49	11201.80
461.67	11002.86
461.85	11218.19
462.04	11080.10
462.22	11824.39
462.40	11531.82
462.59	11346.92
462.77	11445.22
462.95	11243.93
463.13	11620.76
463.32	11412.45
463.50	11412.45
463.68	11679.27
463.86	11854.81
464.05	11735.45
464.23	11604.38
464.41	11819.71
464.59	11716.72
464.78	11875.88
464.96	11852.47
465.14	11768.21
465.32	11999.93
465.50	12107.59
465.69	11953.12
465.87	12011.63
466.05	12262.07
466.23	12262.07
466.41	12042.06
466.60	12343.99
466.78	12058.44
466.96	12060.78
467.14	12198.87
467.32	12308.88
467.51	12407.18
467.69	12112.27
467.87	12313.56
468.05	12407.18
468.23	12262.07
468.41	12475.06
468.60	12453.99
468.78	12805.07
468.96	12622.51
469.14	12659.96
469.32	12858.90
469.50	12657.62
469.69	12699.75
469.87	12999.34
470.05	12985.29
470.23	13081.25
470.41	13069.55
470.59	13195.94
470.77	12961.89
470.95	13308.29
471.14	13486.17
471.32	13191.26
471.50	13364.46
471.68	13327.01
471.86	13362.12
472.04	13865.33
472.22	13799.80
472.40	13689.79
472.58	13537.66
472.77	13792.78
472.95	13963.64
473.13	14382.59
473.31	13947.25
473.49	14108.75
473.67	14097.05
473.85	14141.52
474.03	14583.88
474.21	14534.73
474.39	14588.56
474.57	14663.46
474.75	14754.74
474.93	14794.53
475.12	14827.29
475.30	14841.34
475.48	14939.64
475.66	15154.97
475.84	15192.42
476.02	15281.36
476.20	15173.69
476.38	15377.32
476.56	15719.04
476.74	15915.64
476.92	15644.14
477.10	15730.74
477.28	15861.81
477.46	16126.29
477.64	16189.49
477.82	16482.05
478.00	16599.08
478.18	16596.74
478.36	16809.73
478.54	17041.44
478.72	16947.82
478.90	17530.61
479.08	17235.70
479.26	17537.63
479.44	17434.65
479.62	17678.07
479.80	18068.94
479.98	17853.61
480.16	18420.02
480.34	18059.57
480.52	18148.51
480.70	18405.97
480.88	18389.59
481.06	18649.39
481.24	18548.75
481.41	18834.29
481.59	19225.16
481.77	19229.84
481.95	19335.17
482.13	19454.53
482.31	19803.27
482.49	20156.69
482.67	19964.77
482.85	20472.67
483.03	20383.73
483.21	20739.49
483.39	20793.32
483.57	20559.27
483.74	20908.01
483.92	21153.76
484.10	20856.51
484.28	21671.02
484.46	21598.46
484.64	22232.75
484.82	21537.61
485.00	22352.12
485.18	22745.33
485.35	22808.52
485.53	22499.57
485.71	23199.39
485.89	23702.61
486.07	22920.87
486.25	23154.92
486.43	23463.87
486.61	23606.64
486.78	24114.54
486.96	24009.22
487.14	24428.17
487.32	24540.52
487.50	24905.64
487.68	24980.54
487.85	25001.60
488.03	25362.04
488.21	25228.63
488.39	25701.42
488.57	25748.23
488.75	25886.32
488.92	26300.60
489.10	26429.33
489.28	26703.17
489.46	26745.30
489.64	26705.51
489.81	27520.02
489.99	27407.67
490.17	27676.83
490.35	27943.66
490.53	27648.75
490.70	28397.72
490.88	28051.32
491.06	28568.58
491.24	28905.62
491.41	28748.80
491.59	29230.95
491.77	29022.64
491.95	29296.49
492.13	29244.99
492.30	29776.30
492.48	29926.09
492.66	30143.76
492.84	29998.65
493.01	30417.60
493.19	30256.11
493.37	30555.69
493.54	30696.13
493.72	31428.71
493.90	31388.92
494.08	31316.37
494.25	31864.05
494.43	31871.07
494.61	32044.27
494.79	31831.29
494.96	32161.30
495.14	32587.28
495.32	33008.58
495.49	32828.35
495.67	33067.09
495.85	33347.95
496.02	33706.05
496.20	33853.51
496.38	33949.47
496.55	33539.88
496.73	34216.29
496.91	34017.35
497.09	34644.61
497.26	34642.27
497.44	34845.90
497.62	35138.46
497.79	35871.05
497.97	34939.52
498.14	35791.47
498.32	35875.73
498.50	35929.56
498.67	36364.90
498.85	36325.11
499.03	36465.55
499.20	36081.70
499.38	36856.42
499.56	36847.05
499.73	36350.86
499.91	36641.09
500.08	37048.34
500.26	36966.42
500.44	37118.56
500.61	37759.86
500.79	37329.20
500.97	38190.52
501.14	38295.85
501.32	38382.45
501.49	38787.36
501.67	37972.85
501.84	38270.10
502.02	38429.26
502.20	38948.85
502.37	38370.74
502.55	38651.61
502.72	38923.11
502.90	39299.94
503.07	39445.05
503.25	39573.78
503.43	39571.44
503.60	39646.33
503.78	40161.25
503.95	39997.41
504.13	40577.87
504.30	40594.25
504.48	39763.36
504.65	40355.52
504.83	40753.41
505.01	40957.03
505.18	41015.55
505.36	40975.76
505.53	40832.99
505.71	41434.50
505.88	41439.18
506.06	41214.49
506.23	41708.35
506.41	41488.34
506.58	42029.00
506.76	41706.01
506.93	42391.78
507.11	41968.15
507.28	42485.40
507.46	42279.44
507.63	42817.76
507.81	42775.63
507.98	42564.98
508.16	42902.02
508.33	42806.06
508.50	43021.39
508.68	42962.87
508.85	43281.19
509.03	43852.28
509.20	43604.18
509.38	44212.72
509.55	43903.77
509.73	43777.38
509.90	44261.87
510.08	44264.21
510.25	44655.08
510.42	44645.72
510.60	44814.24
510.77	45057.65
510.95	45446.18
511.12	44608.27
511.30	45167.66
511.47	44879.77
511.64	45144.25
511.82	45734.07
511.99	45708.32
512.17	45846.41
512.34	45729.39
512.51	45940.04
512.69	46103.87
512.86	46085.15
513.04	46499.42
513.21	46185.79
513.38	46080.47
513.56	46581.34
513.73	46595.38
513.90	46710.07
514.08	46103.87
514.25	47164.14
514.43	47189.88
514.60	47196.90
514.77	47189.88
514.95	46880.93
515.12	47480.11
515.29	47077.54
515.47	47636.92
515.64	48100.35
515.81	47613.52
515.99	47782.04
516.16	48336.74
516.33	48151.84
516.51	48271.21
516.68	48189.29
516.85	48175.25
517.03	48481.86
517.20	48404.62
517.37	48502.92
517.54	48346.11
517.72	48322.70
517.89	48858.68
518.06	48755.70
518.24	48753.36
518.41	48825.92
518.58	48872.73
518.75	48952.30
518.93	49006.14
519.10	49226.15
519.27	49429.77
519.45	49446.16
519.62	49701.28
519.79	49867.45
519.96	49628.72
520.14	49551.48
520.31	49815.96
520.48	50333.22
520.65	49738.72
520.83	50433.86
521.00	50279.39
521.17	50335.56
521.34	50150.66
521.52	50780.26
521.69	50209.17
521.86	50618.77
522.03	51058.79
522.20	51332.63
522.38	51154.75
522.55	51248.37
522.72	50906.65
522.89	51299.86
523.07	51215.60
523.24	51407.53
523.41	51236.67
523.58	51241.35
523.75	51536.26
523.92	51449.66
524.10	51831.16
524.27	51760.95
524.44	51580.73
524.61	51753.93
524.78	51920.10
524.96	51730.52
525.13	52275.87
525.30	52296.93
525.47	52327.36
525.64	52257.14
525.81	52395.23
525.98	52566.09
526.16	52514.60
526.33	52442.04
526.50	52767.38
526.67	52332.04
526.84	52877.38
527.01	52397.57
527.18	52500.56
527.36	52463.11
527.53	52711.20
527.70	53031.86
527.87	53294.00
528.04	52699.50
528.21	53109.10
528.38	53350.17
528.55	53125.48
528.72	53120.80
528.89	53350.17
529.07	53272.93
529.24	52956.96
529.41	53450.81
529.58	53352.51
529.75	53364.21
529.92	53736.36
530.09	53614.65
530.26	53715.29
530.43	53902.54
530.60	53464.86
530.77	53801.89
530.94	53790.19
531.11	53612.31
531.28	54007.86
531.46	54033.61
531.63	54110.85
531.80	53918.92
531.97	53890.83
532.14	54763.85
532.31	54057.01
532.48	54333.20
532.65	54607.04
532.82	54185.74
532.99	54548.53
533.16	54295.75
533.33	54801.30
533.50	54756.83
533.67	54616.40
533.84	54426.82
534.01	54621.08
534.18	54908.97
534.35	55264.73
534.52	54939.39
534.69	55175.79
534.86	55058.76
535.03	54749.81
535.20	55154.72
535.37	55166.43
535.54	55117.28
535.71	55040.04
535.88	55035.36
536.05	55302.18
536.22	55545.59
536.38	55421.55
536.55	55276.43
536.72	55498.78
536.89	55243.66
537.06	55501.12
537.23	55831.14
537.40	55351.33
537.57	55835.82
537.74	55728.16
537.91	55643.90
538.08	55374.73
538.25	55416.86
538.42	55639.22
538.59	55983.27
538.75	55374.73
538.92	55868.59
539.09	55847.52
539.26	55873.27
539.43	55934.12
539.60	56046.47
539.77	56039.45
539.94	56100.30
540.11	56055.83
540.28	56196.26
540.44	56453.72
540.61	56175.20
540.78	56093.28
540.95	56158.81
541.12	56402.23
541.29	56126.05
541.46	56463.08
541.62	56542.66
541.79	56711.18
541.96	56137.75
542.13	56631.60
542.30	56617.56
542.47	56680.75
542.63	56381.16
542.80	56640.96
542.97	56961.62
543.14	57069.28
543.31	57179.29
543.48	57003.75
543.64	57406.32
543.81	57162.90
543.98	57127.80
544.15	57118.43
544.32	57188.65
544.48	57205.03
544.65	57293.97
544.82	57453.13
544.99	57296.31
545.16	57366.53
545.32	57233.12
545.49	57380.57
545.66	57439.09
545.83	57499.94
546.00	57661.44
546.16	57483.56
546.33	57614.63
546.50	57394.62
546.67	57652.08
546.83	57169.93
547.00	57595.90
547.17	57399.30
547.34	57675.48
547.50	57886.13
547.67	57930.60
547.84	57841.66
548.00	58007.84
548.17	58010.18
548.34	58038.26
548.51	58124.86
548.67	57925.92
548.84	57949.32
549.01	57764.42
549.18	58164.65
549.34	58073.37
549.51	58087.42
549.68	58258.27
549.84	58061.67
550.01	58040.60
550.18	57970.39
550.34	58358.92
550.51	58426.79
550.68	58272.32
550.84	58260.62
551.01	58295.72
551.18	58485.31
551.34	58347.21
551.51	58384.66
551.68	58389.34
551.84	58199.76
552.01	58267.64
552.18	58461.90
552.34	58305.09
552.51	58513.39
552.68	58246.57
552.84	58511.05
553.01	58674.89
553.18	58731.06
553.34	58583.61
553.51	58550.84
553.67	58667.87
553.84	58932.35
554.01	58595.31
554.17	58883.20
554.34	58646.80
554.51	58979.16
554.67	58852.77
554.84	58937.03
555.00	58672.55
555.17	58808.30
555.33	58880.86
555.50	58817.66
555.67	58789.58
555.83	58901.92
556.00	58995.54
556.16	59093.85
556.33	58791.92
556.50	59227.26
556.66	59285.77
556.83	58908.94
556.99	59161.72
557.16	59224.92
557.32	59309.18
557.49	59327.90
557.65	59175.76
557.82	59295.13
557.98	59185.13
558.15	59185.13
558.32	59133.63
558.48	59299.81
558.65	59260.02
558.81	59437.90
558.98	59489.40
559.14	59470.67
559.31	59576.00
559.47	59484.72
559.64	59416.84
559.80	59377.05
559.97	59423.86
560.13	59517.48
560.30	59622.81
560.46	59496.42
560.63	59629.83
560.79	59725.79
560.96	59746.86
561.12	59592.38
561.29	59632.17
561.45	59730.47
561.61	59522.16
561.78	59714.09
561.94	59629.83
562.11	59508.12
562.27	59779.62
562.44	59636.85
562.60	59819.41
562.77	59917.71
562.93	59671.96
563.10	60009.00
563.26	59613.44
563.42	59966.87
563.59	59875.58
563.75	59877.93
563.92	59821.75
564.08	59564.29
564.24	60020.70
564.41	60090.91
564.57	59934.10
564.74	60046.44
564.90	59973.89
565.07	59863.88
565.23	59959.84
565.39	60072.19
565.56	60210.28
565.72	59805.37
565.88	59999.63
566.05	59962.18
566.21	59987.93
566.38	60142.41
566.54	60179.85
566.70	60182.19
566.87	60212.62
567.03	59854.52
567.19	60306.24
567.36	60011.34
567.52	60310.92
567.68	60411.57
567.85	60090.91
568.01	60282.84
568.17	60058.15
568.34	60126.02
568.50	60264.11
568.66	60147.09
568.83	60224.32
568.99	60065.17
569.15	60493.49
569.32	60247.73
569.48	60217.30
569.64	60364.76
569.81	60315.61
569.97	60224.32
570.13	60331.99
570.30	60240.71
570.46	60360.08
570.62	60250.07
570.78	60449.02
570.95	60065.17
571.11	60411.57
571.27	60388.16
571.43	60404.55
571.60	60331.99
571.76	60420.93
571.92	60584.77
572.09	60528.59
572.25	60327.31
572.41	60479.44
572.57	60444.33
572.74	60654.98
572.90	60364.76
573.06	60453.70
573.22	60395.18
573.38	60479.44
573.55	60444.33
573.71	60659.66
573.87	60662.00
574.03	60285.18
574.20	60608.17
574.36	60456.04
574.52	60418.59
574.68	60636.26
574.84	60729.88
575.01	60718.18
575.17	60516.89
575.33	60500.51
575.49	60355.39
575.65	60701.79
575.82	60542.64
575.98	60486.46
576.14	60786.05
576.30	60575.40
576.46	60479.44
576.62	60519.23
576.79	60638.60
576.95	60439.65
577.11	60678.39
577.27	60673.71
577.43	60741.58
577.59	60591.79
577.75	60659.66
577.92	60477.10
578.08	60500.51
578.24	60654.98
578.40	60741.58
578.56	60924.14
578.72	60505.19
578.88	60631.58
579.04	60760.31
579.21	60706.47
579.37	60919.46
579.53	60690.09
579.69	60519.23
579.85	60767.33
580.01	60498.17
580.17	60626.90
580.33	60680.73
580.49	60762.65
580.65	60865.63
580.82	60650.30
580.98	60800.10
581.14	60624.56
581.30	60734.56
581.46	60706.47
581.62	60683.07
581.78	60617.53
581.94	60940.53
582.10	60863.29
582.26	60750.94
582.42	60788.39
582.58	60699.45
582.74	60790.73
582.90	60750.94
583.06	60769.67
583.22	60528.59
583.38	60683.07
583.54	60837.54
583.70	60736.90
583.86	60917.12
584.02	60570.72
584.18	60963.93
584.34	60821.16
584.50	60699.45
584.66	60715.84
584.82	60727.54
584.98	60940.53
585.14	60917.12
585.30	60617.53
585.46	60814.14
585.62	60767.33
585.78	60886.70
585.94	60699.45
586.10	60828.18
586.26	60928.83
586.42	60970.96
586.58	60818.82
586.74	60896.06
586.90	60664.35
587.06	60809.46
587.22	61022.45
587.38	60748.60
587.54	61083.30
587.70	61111.39
587.86	60982.66
588.02	60718.18
588.18	61186.28
588.34	60910.10
588.49	60947.55
