SpectraSuite Data File
++++++++++++++++++++++++++++++++++++
Date: Fri Oct 25 11:23:26 EDT 2013
User: price-jones
Dark Spectrum Present: No
Reference Spectrum Present: No
Number of Sampled Component Spectra: 1
Spectrometers: USB2+H05261
Integration Time (usec): 100000 (USB2+H05261)
Spectra Averaged: 1 (USB2+H05261)
Boxcar Smoothing: 0 (USB2+H05261)
Correct for Electrical Dark: No (USB2+H05261)
Strobe/Lamp Enabled: No (USB2+H05261)
Correct for Detector Non-linearity: No (USB2+H05261)
Correct for Stray Light: No (USB2+H05261)
Number of Pixels in Processed Spectrum: 2048
>>>>>Begin Processed Spectral Data<<<<<
365.73	245.76
365.92	245.76
366.12	245.76
366.32	159.16
366.52	65.54
366.72	142.77
366.91	121.71
367.11	88.94
367.31	128.73
367.51	100.64
367.70	138.09
367.90	170.86
368.10	126.39
368.30	121.71
368.49	81.92
368.69	152.13
368.89	175.54
369.09	133.41
369.28	191.92
369.48	166.18
369.68	236.39
369.87	124.05
370.07	187.24
370.27	189.58
370.47	306.61
370.66	641.31
370.86	615.56
371.06	641.31
371.25	653.01
371.45	676.41
371.65	711.52
371.84	657.69
372.04	653.01
372.24	718.54
372.44	648.33
372.63	727.91
372.83	713.86
373.03	748.97
373.22	833.23
373.42	819.19
373.62	791.10
373.81	772.38
374.01	877.70
374.21	802.80
374.40	730.25
374.60	858.98
374.79	861.32
374.99	840.25
375.19	868.34
375.38	837.91
375.58	854.30
375.78	858.98
375.97	835.57
376.17	842.59
376.37	863.66
376.56	800.46
376.76	821.53
376.95	863.66
377.15	847.27
377.35	877.70
377.54	922.17
377.74	889.40
377.93	917.49
378.13	884.72
378.33	929.19
378.52	943.24
378.72	924.51
378.91	994.73
379.11	903.45
379.31	915.15
379.50	922.17
379.70	976.00
379.89	1022.81
380.09	978.34
380.28	976.00
380.48	1064.94
380.68	957.28
380.87	964.30
381.07	1029.84
381.26	966.64
381.46	1109.41
381.65	1011.11
381.85	1011.11
382.04	1043.88
382.24	1041.54
382.43	1076.65
382.63	1086.01
382.83	1046.22
383.02	1043.88
383.22	1111.75
383.41	1132.82
383.61	1057.92
383.80	1025.15
384.00	1097.71
384.19	1125.80
384.39	1153.88
384.58	1181.97
384.78	1121.12
384.97	1198.35
385.17	1062.60
385.36	1210.06
385.56	1212.40
385.75	1071.97
385.95	1188.99
386.14	1268.57
386.34	1210.06
386.53	1245.16
386.72	1191.33
386.92	1270.91
387.11	1156.22
387.31	1184.31
387.50	1212.40
387.70	1289.64
387.89	1242.82
388.09	1277.93
388.28	1275.59
388.48	1233.46
388.67	1357.51
388.86	1327.08
389.06	1378.58
389.25	1345.81
389.45	1336.45
389.64	1394.96
389.84	1413.68
390.03	1409.00
390.22	1369.21
390.42	1280.27
390.61	1336.45
390.81	1432.41
391.00	1406.66
391.19	1453.47
391.39	1401.98
391.58	1439.43
391.78	1343.47
391.97	1432.41
392.16	1409.00
392.36	1519.01
392.55	1523.69
392.75	1549.43
392.94	1462.83
393.13	1540.07
393.33	1528.37
393.52	1605.61
393.71	1607.95
393.91	1621.99
394.10	1657.10
394.29	1603.27
394.49	1563.48
394.68	1575.18
394.88	1591.56
395.07	1727.32
395.26	1675.82
395.46	1626.67
395.65	1729.66
395.84	1696.89
396.04	1685.19
396.23	1774.13
396.42	1687.53
396.62	1804.55
396.81	1748.38
397.00	1778.81
397.19	1827.96
397.39	1827.96
397.58	1839.66
397.77	1865.41
397.97	1863.07
398.16	1767.10
398.35	2015.20
398.55	1825.62
398.74	1919.24
398.93	1956.69
399.12	1884.13
399.32	1926.26
399.51	1923.92
399.70	1952.01
399.90	1961.37
400.09	2010.52
400.28	2073.71
400.47	2059.67
400.67	2059.67
400.86	2118.18
401.05	2150.95
401.24	2141.59
401.44	2069.03
401.63	2118.18
401.82	2094.78
402.01	2218.83
402.21	2167.34
402.40	2134.57
402.59	2260.96
402.78	2169.68
402.97	2244.57
403.17	2235.21
403.36	2256.28
403.55	2270.32
403.74	2321.81
403.93	2324.15
404.13	2314.79
404.32	2415.43
404.51	2389.69
404.70	2375.64
404.89	2464.58
405.09	2525.44
405.28	2555.86
405.47	2548.84
405.66	2471.61
405.85	2438.84
406.05	2443.52
406.24	2476.29
406.43	2478.63
406.62	2551.18
406.81	2590.97
407.00	2452.88
407.20	2616.72
407.39	2537.14
407.58	2612.04
407.77	2691.62
407.96	2705.66
408.15	2820.35
408.34	2885.88
408.54	2822.69
408.73	2780.56
408.92	2775.88
409.11	2878.86
409.30	2909.29
409.49	2860.13
409.68	3030.99
409.87	2897.58
410.07	2942.05
410.26	3016.95
410.45	3122.27
410.64	3073.12
410.83	3084.83
411.02	3070.78
411.21	3234.62
411.40	3243.98
411.59	3185.47
411.78	3110.57
411.98	3208.87
412.17	3171.43
412.36	3361.01
412.55	3527.19
412.74	3431.23
412.93	3414.84
413.12	3452.29
413.31	3503.78
413.50	3396.12
413.69	3506.12
413.88	3581.02
414.07	3611.45
414.26	3590.38
414.45	3805.71
414.64	3590.38
414.83	3709.75
415.02	3705.07
415.22	3758.90
415.41	3936.78
415.60	3784.65
415.79	3833.80
415.98	4135.73
416.17	3941.46
416.36	3920.40
416.55	4100.62
416.74	3913.38
416.93	3969.55
417.12	4166.15
417.31	4163.81
417.50	4084.23
417.69	4400.21
417.88	4276.16
418.07	4287.86
418.26	4306.59
418.45	4367.44
418.64	4388.50
418.83	4430.63
419.02	4566.39
419.21	4603.83
419.39	4685.75
419.58	4596.81
419.77	4465.74
419.96	4610.86
420.15	4578.09
420.34	4634.26
420.53	4667.03
420.72	4678.73
420.91	4795.76
421.10	4868.31
421.29	4837.89
421.48	4676.39
421.67	4957.25
421.86	4739.58
422.05	4861.29
422.24	4779.37
422.43	4873.00
422.61	4940.87
422.80	5025.13
422.99	4891.72
423.18	5011.09
423.37	4856.61
423.56	5025.13
423.75	5050.88
423.94	4865.97
424.13	4664.69
424.32	4905.76
424.50	5144.50
424.69	5095.35
424.88	5004.07
425.07	5013.43
425.26	4994.70
425.45	5046.20
425.64	4994.70
425.83	4945.55
426.01	4985.34
426.20	5093.01
426.39	5029.81
426.58	5032.15
426.77	5116.41
426.96	5104.71
427.15	5104.71
427.33	5214.71
427.52	5142.16
427.71	5338.76
427.90	5287.27
428.09	5259.18
428.28	5528.35
428.46	5469.83
428.65	5107.05
428.84	5495.58
429.03	5551.75
429.22	5362.17
429.40	5530.69
429.59	5479.19
429.78	5245.14
429.97	5270.89
430.16	5385.57
430.34	5619.63
430.53	5738.99
430.72	5652.39
430.91	5607.92
431.10	5657.07
431.28	5795.17
431.47	5933.26
431.66	5760.06
431.85	5757.72
432.03	5975.39
432.22	6031.56
432.41	5865.38
432.60	5841.98
432.79	6047.94
432.97	6052.63
433.16	5881.77
433.35	5902.83
433.54	5998.79
433.72	6113.48
433.91	6099.44
434.10	6164.97
434.28	6188.38
434.47	6298.38
434.66	6312.42
434.85	6431.79
435.03	6452.86
435.22	6328.81
435.41	6504.35
435.59	6445.84
435.78	6499.67
435.97	6373.28
436.16	6429.45
436.34	6497.33
436.53	6532.44
436.72	6888.20
436.90	6427.11
437.09	6703.29
437.28	6628.40
437.46	6530.09
437.65	6614.35
437.84	6867.13
438.02	6750.10
438.21	6876.49
438.40	6656.48
438.58	6850.75
438.77	7082.46
438.96	7042.67
439.14	7016.93
439.33	7339.92
439.52	7035.65
439.70	7117.57
439.89	7290.77
440.08	7396.09
440.26	7309.49
440.45	7304.81
440.63	7482.69
440.82	7496.74
441.01	7571.63
441.19	7644.19
441.38	7571.63
441.57	7646.53
441.75	7801.01
441.94	7948.46
442.12	7978.89
442.31	7957.82
442.50	8084.21
442.68	8037.40
442.87	8063.15
443.05	8131.02
443.24	8285.50
443.43	8409.54
443.61	8304.22
443.80	8472.74
443.98	8030.38
444.17	8006.97
444.35	8046.76
444.54	8351.03
444.73	8400.18
444.91	8439.97
445.10	8315.92
445.28	8425.93
445.47	8278.47
445.65	8175.49
445.84	8503.17
446.02	8533.59
446.21	8365.07
446.39	8421.25
446.58	8479.76
446.77	8592.11
446.95	8465.72
447.14	8479.76
447.32	8636.58
447.51	8559.34
447.69	8491.46
447.88	8573.38
448.06	8655.30
448.25	8568.70
448.43	8528.91
448.62	8580.40
448.80	8606.15
448.99	8681.05
449.17	8987.66
449.36	8793.39
449.54	9032.13
449.73	9179.58
449.91	9104.68
450.10	8940.85
450.28	8990.00
450.46	9135.11
450.65	9097.66
450.83	9043.83
451.02	9069.58
451.20	9268.52
451.39	9167.88
451.57	9135.11
451.76	9118.73
451.94	9224.05
452.13	9383.21
452.31	9366.82
452.49	9310.65
452.68	9282.56
452.86	9235.75
453.05	9458.10
453.23	9497.89
453.42	9350.44
453.60	9308.31
453.78	9680.46
453.97	9502.58
454.15	9699.18
454.34	9600.88
454.52	9753.01
454.70	9633.64
454.89	9912.17
455.07	9818.55
455.26	10010.47
455.44	10071.33
455.62	10113.45
455.81	10167.29
455.99	10104.09
456.17	10097.07
456.36	10237.50
456.54	10204.74
456.73	10113.45
456.91	10616.67
457.09	10436.45
457.28	10534.75
457.46	10459.85
457.64	10516.03
457.83	10317.08
458.01	10497.30
458.19	10724.33
458.38	10700.93
458.56	10696.25
458.74	10881.15
458.93	10801.57
459.11	10698.59
459.29	10897.53
459.48	10979.45
459.66	10998.18
459.84	11021.58
460.03	10923.28
460.21	11211.17
460.39	11204.14
460.57	11236.91
460.76	11180.74
460.94	11206.48
461.12	11211.17
461.31	11246.27
461.49	11197.12
461.67	11197.12
461.85	11386.71
462.04	11552.88
462.22	11501.39
462.40	11440.54
462.59	11311.81
462.77	11541.18
462.95	11700.34
463.13	11555.22
463.32	11683.95
463.50	11784.60
463.68	11791.62
463.86	11831.41
464.05	11482.67
464.23	11882.90
464.41	11948.43
464.59	11665.23
464.78	12093.55
464.96	12177.81
465.14	11936.73
465.32	12203.55
465.50	12269.09
465.69	12081.85
465.87	12411.86
466.05	12203.55
466.23	11976.52
466.41	12241.00
466.60	12688.04
466.78	12198.87
466.96	12510.16
467.14	12241.00
467.32	12397.82
467.51	12582.72
467.69	12053.76
467.87	12353.35
468.05	12739.54
468.23	12381.43
468.41	12524.21
468.60	12676.34
468.78	12713.79
468.96	12718.47
469.14	12699.75
469.32	13039.12
469.50	12725.49
469.69	13076.57
469.87	12938.48
470.05	13228.71
470.23	13125.72
470.41	13256.79
470.59	13259.13
470.77	13165.51
470.95	13287.22
471.14	13544.68
471.32	13385.52
471.50	13418.29
471.68	13680.43
471.86	13797.46
472.04	13668.73
472.22	13921.51
472.40	13680.43
472.58	13851.29
472.77	14122.79
472.95	14265.57
473.13	14647.07
473.31	14171.94
473.49	14303.01
473.67	14295.99
473.85	14665.80
474.03	14621.33
474.21	14677.50
474.39	14867.08
474.57	14888.15
474.75	14920.92
474.93	14796.87
475.12	14820.27
475.30	15309.44
475.48	15206.46
475.66	15391.36
475.84	15136.24
476.02	15353.91
476.20	15386.68
476.38	15700.31
476.56	16248.00
476.74	16339.28
476.92	16032.67
477.10	15737.76
477.28	16182.46
477.46	16327.58
477.64	16238.64
477.82	16828.45
478.00	17121.02
478.18	16826.11
478.36	17025.06
478.54	17146.76
478.72	17355.07
478.90	17448.69
479.08	17516.57
479.26	17781.05
479.44	17675.73
479.62	17572.74
479.80	17982.34
479.98	18064.25
480.16	18466.83
480.34	18415.34
480.52	18551.09
480.70	18733.65
480.88	18354.48
481.06	18876.42
481.24	18993.45
481.41	19197.07
481.59	19398.36
481.77	19398.36
481.95	19758.80
482.13	20020.94
482.31	19885.19
482.49	20140.31
482.67	20257.34
482.85	20259.68
483.03	20823.75
483.21	20994.61
483.39	21018.01
483.57	21170.15
483.74	21067.16
483.92	21521.23
484.10	21556.33
484.28	21537.61
484.46	22192.96
484.64	22092.32
484.82	21949.54
485.00	22302.96
485.18	23035.55
485.35	23250.88
485.53	22934.91
485.71	23218.11
485.89	23477.91
486.07	23470.89
486.25	23850.06
486.43	23789.20
486.61	24257.31
486.78	24376.68
486.96	24070.07
487.14	24723.08
487.32	24369.66
487.50	25273.10
487.68	24933.73
487.85	25329.28
488.03	25876.96
488.21	25869.94
488.39	26078.25
488.57	26232.72
488.75	26424.65
488.92	26691.47
489.10	27087.02
489.28	26820.20
489.46	27587.89
489.64	27307.03
489.81	27953.02
489.99	28060.68
490.17	27461.51
490.35	28489.00
490.53	28540.49
490.70	28830.72
490.88	28477.30
491.06	29130.31
491.24	29235.63
491.41	28671.56
491.59	29425.22
491.77	29523.52
491.95	29481.39
492.13	29989.28
492.30	30190.57
492.48	30316.96
492.66	30235.04
492.84	30719.53
493.01	30703.15
493.19	31098.70
493.37	30974.65
493.54	31386.58
493.72	31496.59
493.90	31269.56
494.08	32224.50
494.25	32231.52
494.43	32137.90
494.61	32657.49
494.79	32264.28
494.96	33053.05
495.14	33455.62
495.32	33532.86
495.49	33401.79
495.67	33249.65
495.85	33802.02
496.02	33783.29
496.20	34162.46
496.38	33991.60
496.55	34333.32
496.73	34965.26
496.91	34717.17
497.09	34848.24
497.26	35365.49
497.44	35103.35
497.62	35498.91
497.79	35934.24
497.97	35700.19
498.14	35985.74
498.32	36229.15
498.50	36479.59
498.67	37036.64
498.85	37057.70
499.03	36734.71
499.20	36940.68
499.38	36884.50
499.56	37181.75
499.73	37361.97
499.91	37717.73
500.08	37684.97
500.26	37385.38
500.44	37607.73
500.61	38380.10
500.79	38181.16
500.97	38382.45
501.14	38602.46
501.32	38656.29
501.49	38600.12
501.67	38583.73
501.84	39531.65
502.02	38539.26
502.20	39337.38
502.37	39388.88
502.55	39681.44
502.72	39601.86
502.90	39873.37
503.07	39498.88
503.25	40378.92
503.43	40121.46
503.60	40297.00
503.78	40275.94
503.95	40608.29
504.13	40959.38
504.30	40744.05
504.48	40767.45
504.65	41081.08
504.83	41212.15
505.01	41474.29
505.18	41397.06
505.36	41507.06
505.53	41450.89
505.71	41722.39
505.88	42052.41
506.06	41563.23
506.23	41961.12
506.41	41872.18
506.58	42841.17
506.76	42508.81
506.93	43033.09
507.11	42337.95
507.28	42768.61
507.46	43056.50
507.63	43058.84
507.81	43562.05
507.98	42794.36
508.16	43428.64
508.33	43831.21
508.50	43229.69
508.68	43908.45
508.85	43835.89
509.03	44156.55
509.20	44289.96
509.38	44652.74
509.55	44741.68
509.73	44694.87
509.90	44978.07
510.08	44856.37
510.25	44987.44
510.42	45045.95
510.60	44987.44
510.77	45539.80
510.95	45544.48
511.12	45045.95
511.30	45553.85
511.47	45488.31
511.64	45839.39
511.82	46129.62
511.99	45769.18
512.17	46260.69
512.34	46003.23
512.51	46476.02
512.69	46815.40
512.86	46684.33
513.04	47271.80
513.21	46953.49
513.38	46609.43
513.56	47236.69
513.73	47103.28
513.90	47079.88
514.08	47311.59
514.25	47416.91
514.43	47665.01
514.60	47271.80
514.77	47695.44
514.95	47688.42
515.12	47812.46
515.29	48016.09
515.47	48299.30
515.64	48119.07
515.81	48170.57
515.99	48238.44
516.16	48641.01
516.33	48500.58
516.51	48697.19
516.68	48479.52
516.85	48631.65
517.03	49291.68
517.20	49301.04
517.37	49123.16
517.54	49134.87
517.72	49230.83
517.89	49141.89
518.06	49560.84
518.24	49436.80
518.41	49471.90
518.58	49542.12
518.75	49413.39
518.93	49724.68
519.10	49670.85
519.27	49893.20
519.45	50003.20
519.62	50073.42
519.79	50206.83
519.96	50330.88
520.14	50504.08
520.31	50391.73
520.48	50955.80
520.65	50457.27
520.83	50876.22
521.00	50836.44
521.17	51023.68
521.34	51021.34
521.52	51070.49
521.69	50604.72
521.86	51150.07
522.03	51065.81
522.20	51618.17
522.38	51325.61
522.55	51753.93
522.72	51562.00
522.89	51260.07
523.07	52149.48
523.24	51819.46
523.41	51700.09
523.58	51859.25
523.75	51997.34
523.92	52016.07
524.10	52428.00
524.27	52053.51
524.44	52397.57
524.61	52243.10
524.78	52413.96
524.96	52287.57
525.13	52523.96
525.30	52399.91
525.47	52617.58
525.64	52591.84
525.81	52743.97
525.98	52982.71
526.16	52701.84
526.33	52875.04
526.50	53289.32
526.67	52739.29
526.84	53092.71
527.01	53092.71
527.18	52971.00
527.36	53013.13
527.53	53207.40
527.70	53715.29
527.87	53418.05
528.04	53256.55
528.21	53404.00
528.38	53689.55
528.55	53965.73
528.72	53581.88
528.89	53841.68
529.07	53715.29
529.24	53848.71
529.41	53862.75
529.58	53712.95
529.75	53698.91
529.92	53888.49
530.09	53883.81
530.26	53965.73
530.43	54021.90
530.60	53970.41
530.77	53970.41
530.94	54419.80
531.11	53888.49
531.28	54464.27
531.46	54351.92
531.63	54628.10
531.80	54363.62
531.97	54473.63
532.14	54658.53
532.31	54630.44
532.48	54688.96
532.65	54887.90
532.82	54494.69
532.99	55063.44
533.16	54803.64
533.33	54995.57
533.50	55002.59
533.67	54981.52
533.84	54920.67
534.01	54965.14
534.18	54913.65
534.35	55552.62
534.52	55320.90
534.69	55377.08
534.86	55592.40
535.03	55339.63
535.20	55384.10
535.37	55594.74
535.54	55398.14
535.71	55451.97
535.88	55550.27
536.05	55725.81
536.22	55882.63
536.38	55873.27
536.55	55854.54
536.72	55674.32
536.89	55723.47
537.06	55913.06
537.23	55913.06
537.40	55746.88
537.57	56065.19
537.74	56023.06
537.91	56058.17
538.08	56011.36
538.25	55847.52
538.42	56126.05
538.59	56062.85
538.75	55962.21
538.92	56016.04
539.09	56128.39
539.26	56210.31
539.43	56374.14
539.60	56601.18
539.77	56451.38
539.94	56612.88
540.11	56657.35
540.28	56442.02
540.44	56685.43
540.61	56678.41
540.78	56437.34
540.95	56458.40
541.12	56580.11
541.29	56516.92
541.46	56849.27
541.62	56832.89
541.79	56933.53
541.96	56566.07
542.13	56559.05
542.30	56715.86
542.47	56851.61
542.63	57020.13
542.80	56999.07
542.97	57116.09
543.14	57612.29
543.31	57380.57
543.48	57425.04
543.64	57502.28
543.81	57600.58
543.98	57563.14
544.15	57563.14
544.32	57546.75
544.48	57628.67
544.65	57403.98
544.82	57544.41
544.99	57528.03
545.16	57586.54
545.32	57436.75
545.49	57939.96
545.66	57977.41
545.83	57726.97
546.00	57722.29
546.16	57944.64
546.33	57799.53
546.50	57434.41
546.67	57921.24
546.83	57598.24
547.00	57822.93
547.17	57879.11
547.34	57965.71
547.50	58150.61
547.67	58274.66
547.84	58059.33
548.00	58094.44
548.17	58293.38
548.34	58291.04
548.51	58174.02
548.67	58307.43
548.84	58286.36
549.01	58204.44
549.18	58274.66
549.34	58438.50
549.51	58358.92
549.68	58508.71
549.84	58623.40
550.01	58686.59
550.18	58504.03
550.34	58590.63
550.51	58604.67
550.68	58356.58
550.84	58372.96
551.01	58712.34
551.18	58735.74
551.34	58812.98
551.51	58621.06
551.68	58848.09
551.84	58632.76
552.01	58693.61
552.18	59004.91
552.34	58672.55
552.51	58906.60
552.68	58728.72
552.84	58728.72
553.01	59203.85
553.18	58922.99
553.34	59051.72
553.51	58731.06
553.67	58686.59
553.84	59103.21
554.01	59063.42
554.17	58962.78
554.34	59231.94
554.51	59061.08
554.67	59306.83
554.84	59124.27
555.00	59047.04
555.17	59107.89
555.33	59241.30
555.50	59000.22
555.67	59128.95
555.83	58979.16
556.00	59290.45
556.16	59601.74
556.33	59437.90
556.50	59367.69
556.66	59540.89
556.83	59372.37
556.99	59585.36
557.16	59576.00
557.32	59578.34
557.49	59840.48
557.65	59538.55
557.82	59559.61
557.98	59494.08
558.15	59618.13
558.32	59660.26
558.48	59365.35
558.65	59540.89
558.81	59632.17
558.98	59458.97
559.14	59812.39
559.31	59700.04
559.47	59749.20
559.64	59758.56
559.80	59732.81
559.97	59948.14
560.13	59831.11
560.30	59973.89
560.46	59838.14
560.63	60037.08
560.79	59964.52
560.96	59898.99
561.12	60011.34
561.29	60165.81
561.45	60030.06
561.61	59955.16
561.78	59901.33
561.94	59877.93
562.11	60023.04
562.27	59889.63
562.44	60214.96
562.60	60238.37
562.77	60142.41
562.93	59950.48
563.10	60413.91
563.26	59882.61
563.42	60367.10
563.59	60331.99
563.75	60067.51
563.92	60355.39
564.08	60275.82
564.24	60488.80
564.41	60339.01
564.57	60226.66
564.74	60161.13
564.90	60250.07
565.07	60339.01
565.23	60273.48
565.39	60250.07
565.56	60355.39
565.72	60252.41
565.88	60299.22
566.05	60313.26
566.21	60301.56
566.38	60250.07
566.54	60310.92
566.70	60390.50
566.87	60446.68
567.03	60264.11
567.19	60456.04
567.36	60301.56
567.52	60432.63
567.68	60584.77
567.85	60493.49
568.01	60659.66
568.17	60481.78
568.34	60748.60
568.50	60533.28
568.66	60544.98
568.83	60568.38
568.99	60409.23
569.15	60404.55
569.32	60596.47
569.48	60638.60
569.64	60647.96
569.81	60772.01
569.97	60626.90
570.13	60608.17
570.30	60584.77
570.46	60636.26
570.62	60577.75
570.78	60638.60
570.95	60575.40
571.11	60760.31
571.27	60514.55
571.43	60741.58
571.60	60783.71
571.76	60783.71
571.92	60673.71
572.09	60615.19
572.25	60837.54
572.41	60624.56
572.57	60603.49
572.74	60949.89
572.90	60720.52
573.06	60762.65
573.22	60912.44
573.38	60811.80
573.55	60762.65
573.71	60673.71
573.87	60830.52
574.03	60727.54
574.20	60807.12
574.36	60750.94
574.52	60804.78
574.68	60935.85
574.84	60947.55
575.01	60725.20
575.17	60807.12
575.33	60732.22
575.49	60926.49
575.65	60851.59
575.82	60816.48
575.98	60938.19
576.14	60910.10
576.30	61024.79
576.46	60879.67
576.62	60729.88
576.79	60753.29
576.95	60865.63
577.11	61106.71
577.27	61017.77
577.43	61036.49
577.59	60783.71
577.75	60823.50
577.92	61031.81
578.08	60704.13
578.24	60907.76
578.40	60865.63
578.56	61216.71
578.72	60961.59
578.88	61057.56
579.04	61151.18
579.21	60947.55
579.37	61001.38
579.53	61064.58
579.69	60942.87
579.85	61059.90
580.01	60973.30
580.17	60793.07
580.33	61069.26
580.49	61158.20
580.65	61076.28
580.82	61062.24
580.98	60947.55
581.14	60774.35
581.30	61305.65
581.46	61095.00
581.62	60970.96
581.78	60917.12
581.94	61153.52
582.10	61085.64
582.26	61020.11
582.42	60985.00
582.58	61111.39
582.74	60814.14
582.90	61179.26
583.06	61130.11
583.22	60954.57
583.38	61113.73
583.54	61235.44
583.70	61181.60
583.86	61120.75
584.02	61099.68
584.18	61080.96
584.34	61008.40
584.50	61036.49
584.66	61003.72
584.82	60975.64
584.98	61073.94
585.14	61315.01
585.30	60952.23
585.46	61104.37
585.62	61214.37
585.78	61293.95
585.94	61041.17
586.10	61165.22
586.26	61066.92
586.42	61169.90
586.58	61181.60
586.74	61127.77
586.90	61130.11
587.06	61116.07
587.22	61272.88
587.38	61001.38
587.54	61268.20
587.70	61286.93
587.86	61197.99
588.02	61183.94
588.18	61361.82
588.34	61102.03
