SpectraSuite Data File
++++++++++++++++++++++++++++++++++++
Date: Fri Oct 25 11:25:38 EDT 2013
User: price-jones
Dark Spectrum Present: No
Reference Spectrum Present: No
Number of Sampled Component Spectra: 1
Spectrometers: USB2+H05261
Integration Time (usec): 100000 (USB2+H05261)
Spectra Averaged: 1 (USB2+H05261)
Boxcar Smoothing: 0 (USB2+H05261)
Correct for Electrical Dark: No (USB2+H05261)
Strobe/Lamp Enabled: No (USB2+H05261)
Correct for Detector Non-linearity: No (USB2+H05261)
Correct for Stray Light: No (USB2+H05261)
Number of Pixels in Processed Spectrum: 2048
>>>>>Begin Processed Spectral Data<<<<<
365.73	187.24
365.92	187.24
366.12	187.24
366.32	191.92
366.52	147.45
366.72	159.16
366.91	119.37
367.11	184.90
367.31	112.35
367.51	175.54
367.70	138.09
367.90	159.16
368.10	63.19
368.30	168.52
368.49	177.88
368.69	236.39
368.89	51.49
369.09	135.75
369.28	220.01
369.48	119.37
369.68	198.95
369.87	194.26
370.07	217.67
370.27	315.97
370.47	301.93
370.66	571.09
370.86	575.77
371.06	662.37
371.25	655.35
371.45	664.71
371.65	617.90
371.84	692.80
372.04	685.78
372.24	704.50
372.44	734.93
372.63	650.67
372.83	744.29
373.03	709.18
373.22	746.63
373.42	791.10
373.62	748.97
373.81	854.30
374.01	835.57
374.21	837.91
374.40	837.91
374.60	891.74
374.79	746.63
374.99	798.12
375.19	819.19
375.38	812.17
375.58	870.68
375.78	847.27
375.97	896.43
376.17	990.05
376.37	884.72
376.56	842.59
376.76	861.32
376.95	823.87
377.15	990.05
377.35	870.68
377.54	828.55
377.74	870.68
377.93	896.43
378.13	945.58
378.33	936.21
378.52	950.26
378.72	1020.47
378.91	910.47
379.11	926.85
379.31	940.90
379.50	1004.09
379.70	903.45
379.89	1013.45
380.09	903.45
380.28	915.15
380.48	1055.58
380.68	1004.09
380.87	952.60
381.07	1081.33
381.26	1088.35
381.46	1008.77
381.65	954.94
381.85	1064.94
382.04	1086.01
382.24	1034.52
382.43	1062.60
382.63	1001.75
382.83	1041.54
383.02	1008.77
383.22	1093.03
383.41	1123.46
383.61	1116.44
383.80	1076.65
384.00	1130.48
384.19	1109.41
384.39	1104.73
384.58	1170.27
384.78	1174.95
384.97	1132.82
385.17	1130.48
385.36	1245.16
385.56	1156.22
385.75	1170.27
385.95	1228.78
386.14	1205.38
386.34	1177.29
386.53	1245.16
386.72	1219.42
386.92	1275.59
387.11	1259.21
387.31	1254.53
387.50	1224.10
387.70	1280.27
387.89	1322.40
388.09	1282.61
388.28	1280.27
388.48	1256.87
388.67	1301.34
388.86	1320.06
389.06	1364.53
389.25	1380.92
389.45	1291.98
389.64	1399.64
389.84	1369.21
390.03	1418.36
390.22	1373.89
390.42	1273.25
390.61	1324.74
390.81	1303.68
391.00	1378.58
391.19	1451.13
391.39	1502.62
391.58	1528.37
391.78	1469.86
391.97	1490.92
392.16	1488.58
392.36	1537.73
392.55	1502.62
392.75	1544.75
392.94	1500.28
393.13	1465.18
393.33	1605.61
393.52	1586.88
393.71	1476.88
393.91	1535.39
394.10	1645.40
394.29	1633.69
394.49	1647.74
394.68	1638.38
394.88	1633.69
395.07	1598.59
395.26	1708.59
395.46	1621.99
395.65	1717.95
395.84	1675.82
396.04	1792.85
396.23	1727.32
396.42	1795.19
396.62	1750.72
396.81	1708.59
397.00	1774.13
397.19	1823.28
397.39	1842.00
397.58	1795.19
397.77	1823.28
397.97	1879.45
398.16	1774.13
398.35	1912.22
398.55	1961.37
398.74	1942.64
398.93	1881.79
399.12	1870.09
399.32	1860.73
399.51	1980.09
399.70	2059.67
399.90	2019.88
400.09	2026.90
400.28	1947.33
400.47	1994.14
400.67	2083.08
400.86	2101.80
401.05	2045.63
401.24	2113.50
401.44	2139.25
401.63	2106.48
401.82	2136.91
402.01	2094.78
402.21	2064.35
402.40	2160.31
402.59	2148.61
402.78	2209.47
402.97	2150.95
403.17	2260.96
403.36	2202.44
403.55	2172.02
403.74	2342.88
403.93	2375.64
404.13	2368.62
404.32	2326.49
404.51	2396.71
404.70	2495.01
404.89	2293.72
405.09	2480.97
405.28	2370.96
405.47	2448.20
405.66	2431.82
405.85	2523.10
406.05	2495.01
406.24	2436.50
406.43	2499.69
406.62	2546.50
406.81	2635.44
407.00	2539.48
407.20	2609.70
407.39	2651.83
407.58	2682.25
407.77	2663.53
407.96	2717.36
408.15	2909.29
408.34	2717.36
408.54	2848.43
408.73	2726.72
408.92	2712.68
409.11	2906.95
409.30	2869.50
409.49	2902.26
409.68	2944.39
409.87	2869.50
410.07	3000.57
410.26	2913.97
410.45	2963.12
410.64	3007.59
410.83	3119.93
411.02	3040.36
411.21	3192.49
411.40	3138.66
411.59	3080.14
411.78	3241.64
411.98	3194.83
412.17	3239.30
412.36	3262.71
412.55	3232.28
412.74	3452.29
412.93	3396.12
413.12	3239.30
413.31	3674.64
413.50	3463.99
413.69	3456.97
413.88	3623.15
414.07	3630.17
414.26	3653.58
414.45	3637.19
414.64	3559.95
414.83	3822.09
415.02	3791.67
415.22	3906.35
415.41	3929.76
415.60	3817.41
415.79	3885.29
415.98	3859.54
416.17	4079.55
416.36	4035.08
416.55	3992.95
416.74	4086.58
416.93	4042.11
417.12	4044.45
417.31	4095.94
417.50	4112.32
417.69	4229.35
417.88	4259.78
418.07	4222.33
418.26	4341.69
418.45	4339.35
418.64	4447.02
418.83	4454.04
419.02	4430.63
419.21	4414.25
419.39	4351.06
419.58	4397.87
419.77	4416.59
419.96	4622.56
420.15	4603.83
420.34	4552.34
420.53	4624.90
420.72	4627.24
420.91	4641.28
421.10	4709.16
421.29	4608.51
421.48	4676.39
421.67	4891.72
421.86	4830.87
422.05	4755.97
422.24	4643.62
422.43	4868.31
422.61	4870.65
422.80	4791.08
422.99	4877.68
423.18	4924.49
423.37	5004.07
423.56	5020.45
423.75	4865.97
423.94	4842.57
424.13	4545.32
424.32	4699.80
424.50	4954.91
424.69	5027.47
424.88	4957.25
425.07	4882.36
425.26	4798.10
425.45	4873.00
425.64	4975.98
425.83	4957.25
426.01	4936.19
426.20	4999.38
426.39	4985.34
426.58	5064.92
426.77	5032.15
426.96	5165.56
427.15	5153.86
427.33	5273.23
427.52	5132.79
427.71	5064.92
427.90	5177.26
428.09	5338.76
428.28	5378.55
428.46	5399.62
428.65	5074.28
428.84	5528.35
429.03	5350.46
429.22	5399.62
429.40	5493.24
429.59	5493.24
429.78	5390.25
429.97	5327.06
430.16	5427.70
430.34	5523.66
430.53	5563.45
430.72	5781.12
430.91	5708.57
431.10	5584.52
431.28	5694.52
431.47	5755.38
431.66	5942.62
431.85	5729.63
432.03	5849.00
432.22	5916.87
432.41	5956.66
432.60	5849.00
432.79	5804.53
432.97	5802.19
433.16	5804.53
433.35	5949.64
433.54	6001.13
433.72	5951.98
433.91	6052.63
434.10	5956.66
434.28	5954.32
434.47	5982.41
434.66	6284.34
434.85	6303.06
435.03	6321.79
435.22	6223.48
435.41	6410.73
435.59	6340.51
435.78	6408.39
435.97	6427.11
436.16	6356.90
436.34	6326.47
436.53	6654.14
436.72	6525.41
436.90	6314.77
437.09	6558.18
437.28	6338.17
437.46	6569.88
437.65	6703.29
437.84	6839.05
438.02	6841.39
438.21	6647.12
438.40	6494.99
438.58	6817.98
438.77	7037.99
438.96	6981.82
439.14	7129.27
439.33	7211.19
439.52	7178.42
439.70	7176.08
439.89	7375.03
440.08	7267.36
440.26	7293.11
440.45	7243.96
440.63	7473.33
440.82	7674.62
441.01	7583.34
441.19	7632.49
441.38	7660.57
441.57	7637.17
441.75	8004.63
441.94	8053.78
442.12	7838.45
442.31	8067.83
442.50	8065.49
442.68	8016.33
442.87	8053.78
443.05	8128.68
443.24	8028.04
443.43	8081.87
443.61	8046.76
443.80	8355.71
443.98	8091.23
444.17	7836.11
444.35	8070.17
444.54	8306.56
444.73	8379.12
444.91	8411.89
445.10	8388.48
445.28	8351.03
445.47	8283.16
445.65	8379.12
445.84	8273.79
446.02	8498.49
446.21	8606.15
446.39	8418.91
446.58	8568.70
446.77	8432.95
446.95	8138.04
447.14	8439.97
447.32	8711.47
447.51	8430.61
447.69	8519.55
447.88	8505.51
448.06	8306.56
448.25	8383.80
448.43	8526.57
448.62	8549.98
448.80	8505.51
448.99	8589.77
449.17	8655.30
449.36	8517.21
449.54	8685.73
449.73	8837.86
449.91	9060.21
450.10	9001.70
450.28	9001.70
450.46	8982.98
450.65	8978.30
450.83	9011.06
451.02	9240.44
451.20	9172.56
451.39	9097.66
451.57	9224.05
451.76	8975.95
451.94	9085.96
452.13	9348.10
452.31	9179.58
452.49	9128.09
452.68	9231.07
452.86	9401.93
453.05	9582.15
453.23	9537.68
453.42	9296.61
453.60	9193.62
453.78	9303.63
453.97	9488.53
454.15	9537.68
454.34	9355.12
454.52	9757.69
454.70	9540.02
454.89	9713.22
455.07	9806.84
455.26	9907.49
455.44	9834.93
455.62	9968.34
455.81	9785.78
455.99	10001.11
456.17	10073.67
456.36	10015.15
456.54	10092.39
456.73	10291.34
456.91	10232.82
457.09	10436.45
457.28	10354.53
457.46	10143.88
457.64	10501.98
457.83	10382.62
458.01	10286.65
458.19	10712.63
458.38	10263.25
458.56	10541.77
458.74	10801.57
458.93	10487.94
459.11	10619.01
459.29	10696.25
459.48	10628.37
459.66	10644.76
459.84	10995.84
460.03	11084.78
460.21	10843.70
460.39	10967.75
460.57	11002.86
460.76	10998.18
460.94	10810.93
461.12	10902.22
461.31	10937.32
461.49	10977.11
461.67	11162.01
461.85	11435.86
462.04	11243.93
462.22	11683.95
462.40	11276.70
462.59	11555.22
462.77	11410.11
462.95	11548.20
463.13	11522.46
463.32	11573.95
463.50	11866.52
463.68	11489.69
463.86	11557.57
464.05	11454.58
464.23	11765.87
464.41	11983.54
464.59	11829.07
464.78	12304.20
464.96	11974.18
465.14	11676.93
465.32	12053.76
465.50	12060.78
465.69	12042.06
465.87	12058.44
466.05	11971.84
466.23	12222.28
466.41	12065.46
466.60	12468.03
466.78	12147.38
466.96	12269.09
467.14	12163.76
467.32	12453.99
467.51	12203.55
467.69	12243.34
467.87	12442.29
468.05	12458.67
468.23	12421.22
468.41	12222.28
468.60	12762.94
468.78	12709.11
468.96	12493.78
469.14	12779.32
469.32	12716.13
469.50	12725.49
469.69	12854.22
469.87	13069.55
470.05	13006.36
470.23	13247.43
470.41	13083.59
470.59	13228.71
470.77	13013.38
470.95	13092.96
471.14	13600.85
471.32	13266.16
471.50	13476.80
471.68	13570.43
471.86	13558.72
472.04	13593.83
472.22	13921.51
472.40	13624.26
472.58	13757.67
472.77	13921.51
472.95	13731.92
473.13	14541.75
473.31	13862.99
473.49	14092.37
473.67	14450.47
473.85	14244.50
474.03	14572.18
474.21	14195.35
474.39	14728.99
474.57	14707.93
474.75	14958.36
474.93	15183.06
475.12	14871.76
475.30	15047.30
475.48	14949.00
475.66	15122.20
475.84	15246.25
476.02	15374.98
476.20	15246.25
476.38	15651.16
476.56	16327.58
476.74	15843.09
476.92	15868.83
477.10	15896.92
477.28	16145.02
477.46	15981.18
477.64	16280.77
477.82	16470.35
478.00	16727.81
478.18	16779.30
478.36	16931.44
478.54	17090.59
478.72	16915.05
478.90	17458.06
479.08	17495.50
479.26	17785.73
479.44	17521.25
479.62	17549.34
479.80	17909.78
479.98	18225.75
480.16	18349.80
480.34	17893.40
480.52	18530.02
480.70	18422.36
480.88	18279.58
481.06	18244.48
481.24	18607.26
481.41	18787.48
481.59	19215.80
481.77	19517.73
481.95	19545.81
482.13	19740.08
482.31	19356.23
482.49	20243.29
482.67	20231.59
482.85	20315.85
483.03	20692.68
483.21	20875.24
483.39	20826.09
483.57	20872.90
483.74	20870.56
483.92	21303.56
484.10	21200.57
484.28	21287.17
484.46	21652.30
484.64	22345.09
484.82	21944.86
485.00	22115.72
485.18	22637.66
485.35	22504.25
485.53	22312.33
485.71	23129.17
485.89	23538.77
486.07	23475.57
486.25	23166.62
486.43	23440.47
486.61	23285.99
486.78	24034.96
486.96	24203.48
487.14	24404.77
487.32	24240.93
487.50	24601.37
487.68	24924.36
487.85	25317.57
488.03	25553.97
488.21	25715.47
488.39	25490.77
488.57	26082.93
488.75	26059.52
488.92	26316.98
489.10	26796.79
489.28	26773.39
489.46	27271.92
489.64	26775.73
489.81	27742.37
489.99	27772.80
490.17	27770.46
490.35	27931.95
490.53	27990.47
490.70	28210.48
490.88	28268.99
491.06	28662.20
491.24	29179.46
491.41	28704.33
491.59	29017.96
491.77	29179.46
491.95	29347.98
492.13	29376.06
492.30	30000.99
492.48	29898.00
492.66	30134.40
492.84	30515.90
493.01	30586.12
493.19	30153.12
493.37	30981.67
493.54	31250.83
493.72	31496.59
493.90	31349.14
494.08	31686.17
494.25	31796.18
494.43	31775.11
494.61	32268.97
494.79	32411.74
494.96	32198.75
495.14	32383.65
495.32	33130.28
495.49	33064.75
495.67	32926.66
495.85	33565.62
496.02	33778.61
496.20	33968.19
496.38	33593.71
496.55	33862.87
496.73	34876.32
496.91	34176.50
497.09	34913.77
497.26	35049.52
497.44	34696.10
497.62	35173.57
497.79	35475.50
497.97	35185.27
498.14	35763.39
498.32	35931.90
498.50	35847.64
498.67	36175.32
498.85	36088.72
499.03	36474.91
499.20	36392.99
499.38	36772.16
499.56	36725.35
499.73	36601.30
499.91	37081.11
500.08	37338.57
500.26	37174.73
500.44	37851.14
500.61	37965.83
500.79	37479.00
500.97	37904.98
501.14	38316.91
501.32	38227.97
501.49	38480.75
501.67	38728.84
501.84	38700.76
502.02	38728.84
502.20	39115.03
502.37	38967.58
502.55	39388.88
502.72	39344.41
502.90	39091.63
503.07	39288.23
503.25	39487.18
503.43	39423.98
503.60	39852.30
503.78	40432.75
503.95	40065.29
504.13	40453.82
504.30	40603.61
504.48	40627.02
504.65	40327.43
504.83	40840.01
505.01	40730.00
505.18	40832.99
505.36	40975.76
505.53	41179.39
505.71	41675.58
505.88	41797.29
506.06	41310.46
506.23	41560.89
506.41	41518.76
506.58	42071.13
506.76	41834.74
506.93	42239.65
507.11	41792.61
507.28	42073.47
507.46	42251.35
507.63	42651.58
507.81	43077.56
507.98	42686.69
508.16	42658.60
508.33	43126.71
508.50	43789.08
508.68	43187.56
508.85	43643.97
509.03	43519.92
509.20	43597.16
509.38	43882.70
509.55	44172.93
509.73	44414.01
509.90	44266.55
510.08	44217.40
510.25	44563.80
510.42	44744.02
510.60	44498.26
510.77	45102.12
510.95	45825.35
511.12	44854.03
511.30	45095.10
511.47	45221.49
511.64	45048.29
511.82	45628.74
511.99	45263.62
512.17	45710.66
512.34	45614.70
512.51	45874.50
512.69	45951.74
512.86	46305.16
513.04	46316.86
513.21	46396.44
513.38	46574.32
513.56	46501.76
513.73	46707.73
513.90	47241.37
514.08	46305.16
514.25	46941.78
514.43	47269.46
514.60	47339.68
514.77	47037.75
514.95	47440.32
515.12	47412.23
515.29	47756.29
515.47	47866.30
515.64	48196.31
515.81	47906.08
515.99	48114.39
516.16	48170.57
516.33	48233.76
516.51	48231.42
516.68	48502.92
516.85	48205.67
517.03	48673.78
517.20	48477.18
517.37	48521.65
517.54	48561.44
517.72	48526.33
517.89	48839.96
518.06	48956.99
518.24	48956.99
518.41	48971.03
518.58	48975.71
518.75	48928.90
518.93	49432.11
519.10	49240.19
519.27	49591.27
519.45	49279.98
519.62	49757.45
519.79	49790.22
519.96	49745.75
520.14	49972.78
520.31	49820.64
520.48	50433.86
520.65	50021.93
520.83	50199.81
521.00	50527.48
521.17	50260.66
521.34	50923.04
521.52	50724.09
521.69	50637.49
521.86	50768.56
522.03	50869.20
522.20	51569.02
522.38	51353.69
522.55	51299.86
522.72	51283.48
522.89	51159.43
523.07	51742.22
523.24	51367.74
523.41	51547.96
523.58	51217.94
523.75	51728.18
523.92	51585.41
524.10	51840.53
524.27	51917.76
524.44	51782.01
524.61	51852.23
524.78	51934.15
524.96	52039.47
525.13	51969.26
525.30	52374.17
525.47	52182.24
525.64	52360.12
525.81	52470.13
525.98	52673.76
526.16	52423.32
526.33	52577.79
526.50	52739.29
526.67	52844.62
526.84	52844.62
527.01	52872.70
527.18	53123.14
527.36	52863.34
527.53	53073.99
527.70	53326.77
527.87	53125.48
528.04	53244.85
528.21	53181.65
528.38	53368.90
528.55	53364.21
528.72	53392.30
528.89	53268.25
529.07	53045.90
529.24	53254.21
529.41	53315.06
529.58	53411.02
529.75	53638.06
529.92	53729.34
530.09	53825.30
530.26	53801.89
530.43	53935.30
530.60	53661.46
530.77	53879.13
530.94	54021.90
531.11	53790.19
531.28	54281.70
531.46	54248.94
531.63	53991.48
531.80	53918.92
531.97	54319.15
532.14	54024.25
532.31	54431.50
532.48	54515.76
532.65	54447.88
532.82	54490.01
532.99	54695.98
533.16	54742.79
533.33	54499.37
533.50	54625.76
533.67	54805.98
533.84	54417.46
534.01	55014.29
534.18	54803.64
534.35	55110.25
534.52	54944.08
534.69	54731.09
534.86	55082.17
535.03	54789.60
535.20	55285.79
535.37	55421.55
535.54	55524.53
535.71	54841.09
535.88	55133.66
536.05	55248.35
536.22	55461.33
536.38	55491.76
536.55	55393.46
536.72	55426.23
536.89	55409.84
537.06	55695.39
537.23	55557.30
537.40	55494.10
537.57	55641.56
537.74	55608.79
537.91	56004.34
538.08	55676.66
538.25	55608.79
538.42	55805.39
538.59	55877.95
538.75	55735.18
538.92	55718.79
539.09	56189.24
539.26	56048.81
539.43	55821.78
539.60	55943.48
539.77	56135.41
539.94	56367.12
540.11	56317.97
540.28	56313.29
540.44	56657.35
540.61	56212.65
540.78	56013.70
540.95	56362.44
541.12	56472.45
541.29	56175.20
541.46	56430.32
541.62	56608.20
541.79	56786.08
541.96	56266.48
542.13	56411.59
542.30	56528.62
542.47	56800.12
542.63	56549.68
542.80	56844.59
542.97	57176.95
543.14	57017.79
543.31	57015.45
543.48	57102.05
543.64	57186.31
543.81	57247.16
543.98	57153.54
544.15	57293.97
544.32	57345.47
544.48	57467.17
544.65	57261.21
544.82	57235.46
544.99	57198.01
545.16	57378.23
545.32	57315.04
545.49	57513.98
545.66	57733.99
545.83	57602.92
546.00	57638.03
546.16	57490.58
546.33	57455.47
546.50	57286.95
546.67	57623.99
546.83	57221.42
547.00	57663.78
547.17	57528.03
547.34	57642.71
547.50	57879.11
547.67	57949.32
547.84	57897.83
548.00	57785.49
548.17	58054.65
548.34	57982.09
548.51	58061.67
548.67	58103.80
548.84	58042.95
549.01	57965.71
549.18	58005.50
549.34	58157.63
549.51	58052.31
549.68	58255.93
549.84	58251.25
550.01	58152.95
550.18	58204.44
550.34	58047.63
550.51	58110.82
550.68	58307.43
550.84	58078.05
551.01	58447.86
551.18	58286.36
551.34	58351.90
551.51	58511.05
551.68	58607.01
551.84	58466.58
552.01	58225.51
552.18	58532.12
552.34	58513.39
552.51	58581.27
552.68	58487.65
552.84	58710.00
553.01	58831.71
553.18	58681.91
553.34	58897.24
553.51	58429.13
553.67	58712.34
553.84	58878.52
554.01	58789.58
554.17	58724.04
554.34	59028.31
554.51	58911.28
554.67	59028.31
554.84	59037.67
555.00	58820.00
555.17	59021.29
555.33	59051.72
555.50	58539.14
555.67	59021.29
555.83	59014.27
556.00	59086.82
556.16	59199.17
556.33	59189.81
556.50	59030.65
556.66	59152.36
556.83	58988.52
556.99	59461.31
557.16	59339.60
557.32	59339.60
557.49	59536.21
557.65	59199.17
557.82	59260.02
557.98	59243.64
558.15	59384.07
558.32	59444.93
558.48	59145.34
558.65	59320.88
558.81	59374.71
558.98	59487.06
559.14	59468.33
559.31	59489.40
559.47	59625.15
559.64	59592.38
559.80	59477.69
559.97	59496.42
560.13	59377.05
560.30	59508.12
560.46	59660.26
560.63	59686.00
560.79	59742.17
560.96	59728.13
561.12	59634.51
561.29	59503.44
561.45	59840.48
561.61	59856.86
561.78	59779.62
561.94	59730.47
562.11	59573.66
562.27	59788.98
562.44	59927.08
562.60	59952.82
562.77	59941.12
562.93	59845.16
563.10	59803.03
563.26	59760.90
563.42	60048.78
563.59	59927.08
563.75	59847.50
563.92	59964.52
564.08	59987.93
564.24	60093.25
564.41	60104.96
564.57	60140.07
564.74	60004.31
564.90	60030.06
565.07	60041.76
565.23	59987.93
565.39	60165.81
565.56	60107.30
565.72	59903.67
565.88	59990.27
566.05	60107.30
566.21	60095.60
566.38	60023.04
566.54	60282.84
566.70	60273.48
566.87	60177.51
567.03	60205.60
567.19	60355.39
567.36	60229.01
567.52	60165.81
567.68	60236.03
567.85	60198.58
568.01	60346.03
568.17	60306.24
568.34	60418.59
568.50	60210.28
568.66	60460.72
568.83	60247.73
568.99	60395.18
569.15	60203.26
569.32	60282.84
569.48	60451.36
569.64	60212.62
569.81	60388.16
569.97	59959.84
570.13	60409.23
570.30	60278.16
570.46	60437.31
570.62	60369.44
570.78	60427.95
570.95	60217.30
571.11	60310.92
571.27	60313.26
571.43	60378.80
571.60	60624.56
571.76	60456.04
571.92	60519.23
572.09	60533.28
572.25	60463.06
572.41	60512.21
572.57	60570.72
572.74	60460.72
572.90	60694.77
573.06	60474.76
573.22	60811.80
573.38	60547.32
573.55	60636.26
573.71	60743.92
573.87	60584.77
574.03	60339.01
574.20	60439.65
574.36	60687.75
574.52	60683.07
574.68	60633.92
574.84	60673.71
575.01	60821.16
575.17	60643.28
575.33	60722.86
575.49	60425.61
575.65	60654.98
575.82	60814.14
575.98	60713.50
576.14	60891.38
576.30	60823.50
576.46	60605.83
576.62	60540.30
576.79	60741.58
576.95	60488.80
577.11	60610.51
577.27	60678.39
577.43	60877.33
577.59	60402.21
577.75	60736.90
577.92	60561.36
578.08	60575.40
578.24	60591.79
578.40	61167.56
578.56	60807.12
578.72	60720.52
578.88	61104.37
579.04	61048.19
579.21	60676.05
579.37	60769.67
579.53	60931.17
579.69	60666.69
579.85	60811.80
580.01	60669.03
580.17	60479.44
580.33	60928.83
580.49	60720.52
580.65	60818.82
580.82	60823.50
580.98	60610.51
581.14	60718.18
581.30	61006.06
581.46	60821.16
581.62	60753.29
581.78	60816.48
581.94	60917.12
582.10	60889.04
582.26	60774.35
582.42	60594.13
582.58	60671.37
582.74	60692.43
582.90	60753.29
583.06	60697.11
583.22	60561.36
583.38	60755.63
583.54	60940.53
583.70	60914.78
583.86	60926.49
584.02	60788.39
584.18	61027.13
584.34	61013.08
584.50	60853.93
584.66	60851.59
584.82	60790.73
584.98	61134.79
585.14	60900.74
585.30	60680.73
585.46	60896.06
585.62	60877.33
585.78	61134.79
585.94	60568.38
586.10	60935.85
586.26	60701.79
586.42	60907.76
586.58	60917.12
586.74	60835.20
586.90	61109.05
587.06	60896.06
587.22	61106.71
587.38	61027.13
587.54	61052.87
587.70	61104.37
587.86	60982.66
588.02	61066.92
588.18	61010.74
588.34	61062.24
