SpectraSuite Data File
++++++++++++++++++++++++++++++++++++
Date: Fri Oct 25 11:23:52 EDT 2013
User: price-jones
Dark Spectrum Present: No
Reference Spectrum Present: No
Number of Sampled Component Spectra: 1
Spectrometers: USB2+H05261
Integration Time (usec): 100000 (USB2+H05261)
Spectra Averaged: 1 (USB2+H05261)
Boxcar Smoothing: 0 (USB2+H05261)
Correct for Electrical Dark: No (USB2+H05261)
Strobe/Lamp Enabled: No (USB2+H05261)
Correct for Detector Non-linearity: No (USB2+H05261)
Correct for Stray Light: No (USB2+H05261)
Number of Pixels in Processed Spectrum: 2048
>>>>>Begin Processed Spectral Data<<<<<
365.73	262.14
365.92	262.14
366.12	262.14
366.32	161.50
366.52	114.69
366.72	177.88
366.91	191.92
367.11	114.69
367.31	67.88
367.51	138.09
367.70	133.41
367.90	140.43
368.10	142.77
368.30	126.39
368.49	124.05
368.69	114.69
368.89	147.45
369.09	203.63
369.28	210.65
369.48	145.11
369.68	131.07
369.87	210.65
370.07	243.42
370.27	220.01
370.47	313.63
370.66	620.24
370.86	638.97
371.06	704.50
371.25	648.33
371.45	681.10
371.65	676.41
371.84	702.16
372.04	781.74
372.24	671.73
372.44	674.07
372.63	727.91
372.83	770.04
373.03	772.38
373.22	709.18
373.42	692.80
373.62	744.29
373.81	788.76
374.01	777.06
374.21	795.78
374.40	751.31
374.60	774.72
374.79	847.27
374.99	842.59
375.19	844.93
375.38	861.32
375.58	828.55
375.78	837.91
375.97	821.53
376.17	896.43
376.37	786.42
376.56	908.13
376.76	837.91
376.95	915.15
377.15	905.79
377.35	880.04
377.54	894.08
377.74	891.74
377.93	933.87
378.13	870.68
378.33	973.66
378.52	863.66
378.72	877.70
378.91	903.45
379.11	835.57
379.31	931.53
379.50	1004.09
379.70	1053.24
379.89	1067.28
380.09	933.87
380.28	957.28
380.48	931.53
380.68	959.62
380.87	1015.79
381.07	950.26
381.26	1020.47
381.46	1043.88
381.65	1064.94
381.85	1029.84
382.04	1032.18
382.24	1048.56
382.43	1034.52
382.63	1100.05
382.83	1132.82
383.02	1135.16
383.22	1116.44
383.41	1039.20
383.61	1018.13
383.80	1174.95
384.00	1046.22
384.19	1111.75
384.39	1165.59
384.58	1128.14
384.78	1156.22
384.97	1198.35
385.17	1144.52
385.36	1186.65
385.56	1109.41
385.75	1238.14
385.95	1224.10
386.14	1144.52
386.34	1228.78
386.53	1214.74
386.72	1191.33
386.92	1221.76
387.11	1303.68
387.31	1280.27
387.50	1235.80
387.70	1198.35
387.89	1296.66
388.09	1266.23
388.28	1331.76
388.48	1282.61
388.67	1219.42
388.86	1256.87
389.06	1308.36
389.25	1355.17
389.45	1320.06
389.64	1303.68
389.84	1331.76
390.03	1411.34
390.22	1376.24
390.42	1380.92
390.61	1331.76
390.81	1432.41
391.00	1493.26
391.19	1563.48
391.39	1401.98
391.58	1451.13
391.78	1465.18
391.97	1528.37
392.16	1540.07
392.36	1404.32
392.55	1528.37
392.75	1570.50
392.94	1479.22
393.13	1458.15
393.33	1561.14
393.52	1502.62
393.71	1575.18
393.91	1570.50
394.10	1607.95
394.29	1558.80
394.49	1603.27
394.68	1643.06
394.88	1537.73
395.07	1589.22
395.26	1563.48
395.46	1547.09
395.65	1734.34
395.84	1694.55
396.04	1746.04
396.23	1685.19
396.42	1753.06
396.62	1776.47
396.81	1799.87
397.00	1713.27
397.19	1851.36
397.39	1820.94
397.58	1834.98
397.77	1834.98
397.97	1870.09
398.16	1797.53
398.35	1785.83
398.55	1914.56
398.74	1818.60
398.93	1916.90
399.12	1870.09
399.32	1888.81
399.51	1968.39
399.70	1926.26
399.90	1984.77
400.09	2001.16
400.28	2141.59
400.47	2010.52
400.67	2078.40
400.86	2092.44
401.05	2150.95
401.24	2062.01
401.44	2129.89
401.63	2101.80
401.82	2169.68
402.01	2143.93
402.21	2249.25
402.40	2263.30
402.59	2169.68
402.78	2197.76
402.97	2244.57
403.17	2349.90
403.36	2256.28
403.55	2195.42
403.74	2310.11
403.93	2401.39
404.13	2340.54
404.32	2417.77
404.51	2399.05
404.70	2518.42
404.89	2459.90
405.09	2452.88
405.28	2457.56
405.47	2509.05
405.66	2473.95
405.85	2548.84
406.05	2640.12
406.24	2581.61
406.43	2555.86
406.62	2621.40
406.81	2572.25
407.00	2509.05
407.20	2600.34
407.39	2640.12
407.58	2693.96
407.77	2698.64
407.96	2764.17
408.15	2780.56
408.34	2651.83
408.54	2722.04
408.73	2857.79
408.92	2841.41
409.11	2970.14
409.30	2869.50
409.49	3033.33
409.68	2885.88
409.87	3016.95
410.07	2918.65
410.26	2951.42
410.45	3000.57
410.64	3047.38
410.83	3016.95
411.02	3075.46
411.21	3283.77
411.40	3141.00
411.59	3145.68
411.78	3119.93
411.98	3227.60
412.17	3265.05
412.36	3445.27
412.55	3246.32
412.74	3414.84
412.93	3421.86
413.12	3559.95
413.31	3480.38
413.50	3524.85
413.69	3485.06
413.88	3639.53
414.07	3604.42
414.26	3522.51
414.45	3463.99
414.64	3686.34
414.83	3721.45
415.02	3747.20
415.22	3833.80
415.41	3934.44
415.60	3861.88
415.79	3918.06
415.98	3847.84
416.17	4004.66
416.36	4077.21
416.55	3964.87
416.74	3904.01
416.93	4065.51
417.12	4051.47
417.31	4201.26
417.50	4187.22
417.69	4348.72
417.88	4205.94
418.07	4388.50
418.26	4437.66
418.45	4243.39
418.64	4400.21
418.83	4477.44
419.02	4404.89
419.21	4645.96
419.39	4524.26
419.58	4493.83
419.77	4564.04
419.96	4585.11
420.15	4550.00
420.34	4615.54
420.53	4545.32
420.72	4678.73
420.91	4702.14
421.10	4765.33
421.29	4767.67
421.48	4713.84
421.67	4718.52
421.86	4755.97
422.05	4889.38
422.24	4814.48
422.43	4807.46
422.61	4924.49
422.80	4875.34
422.99	4873.00
423.18	4896.40
423.37	5029.81
423.56	4983.00
423.75	4837.89
423.94	4746.61
424.13	4676.39
424.32	4753.63
424.50	4931.51
424.69	4994.70
424.88	5064.92
425.07	5032.15
425.26	4837.89
425.45	5067.26
425.64	5107.05
425.83	4973.64
426.01	5160.88
426.20	5041.51
426.39	5130.45
426.58	5128.11
426.77	4959.60
426.96	5228.76
427.15	5078.96
427.33	5270.89
427.52	5060.24
427.71	5324.72
427.90	5212.37
428.09	5298.97
428.28	5329.40
428.46	5455.79
428.65	5352.81
428.84	5500.26
429.03	5458.13
429.22	5317.70
429.40	5355.15
429.59	5547.07
429.78	5341.10
429.97	5338.76
430.16	5572.82
430.34	5685.16
430.53	5593.88
430.72	5774.10
430.91	5605.58
431.10	5598.56
431.28	5802.19
431.47	5853.68
431.66	5738.99
431.85	5830.27
432.03	5781.12
432.22	5928.58
432.41	5895.81
432.60	5853.68
432.79	5893.47
432.97	5966.03
433.16	5982.41
433.35	6104.12
433.54	6183.70
433.72	6031.56
433.91	6160.29
434.10	6099.44
434.28	6080.71
434.47	6251.57
434.66	6420.09
434.85	6375.62
435.03	6274.98
435.22	6312.42
435.41	6459.88
435.59	6445.84
435.78	6354.55
435.97	6473.92
436.16	6406.05
436.34	6534.78
436.53	6509.03
436.72	6745.42
436.90	6506.69
437.09	6771.17
437.28	6544.14
437.46	6686.91
437.65	6684.57
437.84	6855.43
438.02	6911.60
438.21	6759.47
438.40	6600.31
438.58	6796.92
438.77	7075.44
438.96	6881.18
439.14	7138.63
439.33	7178.42
439.52	7265.02
439.70	7391.41
439.89	7398.43
440.08	7578.65
440.26	7391.41
440.45	7346.94
440.63	7545.89
440.82	7632.49
441.01	7569.29
441.19	7651.21
441.38	7733.13
441.57	7503.76
441.75	7789.30
441.94	7861.86
442.12	7899.31
442.31	8053.78
442.50	8100.59
442.68	7801.01
442.87	8142.72
443.05	8189.53
443.24	8313.58
443.43	8189.53
443.61	8262.09
443.80	8664.66
443.98	7950.80
444.17	7978.89
444.35	8358.05
444.54	8573.38
444.73	8369.76
444.91	8341.67
445.10	8517.21
445.28	8409.54
445.47	8367.42
445.65	8313.58
445.84	8685.73
446.02	8418.91
446.21	8430.61
446.39	8376.78
446.58	8631.90
446.77	8388.48
446.95	8203.58
447.14	8446.99
447.32	8779.35
447.51	8531.25
447.69	8549.98
447.88	8561.68
448.06	8437.63
448.25	8500.83
448.43	8547.64
448.62	8606.15
448.80	8559.34
448.99	8802.75
449.17	8716.16
449.36	8638.92
449.54	8786.37
449.73	8978.30
449.91	8908.08
450.10	8861.27
450.28	8966.59
450.46	9312.99
450.65	8966.59
450.83	9029.79
451.02	9170.22
451.20	9221.71
451.39	9116.39
451.57	9104.68
451.76	9109.36
451.94	9364.48
452.13	9247.46
452.31	9554.07
452.49	9008.72
452.68	9273.20
452.86	9394.91
453.05	9378.53
453.23	9504.92
453.42	9626.62
453.60	9277.88
453.78	9364.48
453.97	9516.62
454.15	9535.34
454.34	9605.56
454.52	9682.80
454.70	9612.58
454.89	9715.56
455.07	9841.95
455.26	9668.75
455.44	9856.00
455.62	10029.20
455.81	9865.36
455.99	9980.04
456.17	10068.98
456.36	10022.17
456.54	10101.75
456.73	10375.59
456.91	10380.28
457.09	10551.14
457.28	10394.32
457.46	10422.41
457.64	10532.41
457.83	10340.49
458.01	10370.91
458.19	10714.97
458.38	10356.87
458.56	10747.74
458.74	10747.74
458.93	10464.54
459.11	10813.28
459.29	10710.29
459.48	10970.09
459.66	10663.48
459.84	10906.90
460.03	10939.66
460.21	11171.38
460.39	10883.49
460.57	11049.67
460.76	11070.73
460.94	11007.54
461.12	11236.91
461.31	11133.93
461.49	11281.38
461.67	11255.64
461.85	11403.09
462.04	11318.83
462.22	11398.41
462.40	11768.21
462.59	11681.61
462.77	11407.77
462.95	11861.84
463.13	11667.57
463.32	11625.44
463.50	11758.85
463.68	11695.66
463.86	11648.85
464.05	11611.40
464.23	11688.64
464.41	12131.00
464.59	11800.98
464.78	11988.22
464.96	11770.55
465.14	12093.55
465.32	11852.47
465.50	12170.79
465.69	12051.42
465.87	11964.82
466.05	12465.69
466.23	12051.42
466.41	12276.11
466.60	12491.44
466.78	12177.81
466.96	12241.00
467.14	12250.36
467.32	12528.89
467.51	12528.89
467.69	12248.02
467.87	12498.46
468.05	12657.62
468.23	12184.83
468.41	12505.48
468.60	12650.60
468.78	12659.96
468.96	12718.47
469.14	12659.96
469.32	13102.32
469.50	12800.39
469.69	12980.61
469.87	13287.22
470.05	12837.84
470.23	13221.69
470.41	13165.51
470.59	13645.32
470.77	13399.57
470.95	13235.73
471.14	13273.18
471.32	13486.17
471.50	13532.98
471.68	13357.44
471.86	13467.44
472.04	13816.18
472.22	13975.34
472.40	13694.47
472.58	13923.85
472.77	13813.84
472.95	14134.50
473.13	14745.38
473.31	14080.66
473.49	14115.77
473.67	14122.79
473.85	14487.92
474.03	14670.48
474.21	14637.71
474.39	14647.07
474.57	14506.64
474.75	14995.81
474.93	14970.07
475.12	15140.93
475.30	15040.28
475.48	15353.91
475.66	15131.56
475.84	15391.36
476.02	15580.95
476.20	15477.96
476.38	15967.13
476.56	16011.60
476.74	15927.35
476.92	15800.96
477.10	16039.69
477.28	16035.01
477.46	16182.46
477.64	16266.72
477.82	16379.07
478.00	16870.58
478.18	16781.64
478.36	17280.18
478.54	17207.62
478.72	17116.34
478.90	17214.64
479.08	17680.41
479.26	17678.07
479.44	17909.78
479.62	17935.53
479.80	18026.81
479.98	18087.66
480.16	18710.24
480.34	18302.99
480.52	18504.28
480.70	18583.85
480.88	18420.02
481.06	18794.50
481.24	18759.39
481.41	19019.19
481.59	19314.10
481.77	19564.54
481.95	19665.18
482.13	19744.76
482.31	19702.63
482.49	20372.02
482.67	20489.05
482.85	20243.29
483.03	20631.82
483.21	21043.76
483.39	20783.96
483.57	20730.12
483.74	21223.98
483.92	21357.39
484.10	21310.58
484.28	21720.17
484.46	22010.40
484.64	22600.21
484.82	21954.22
485.00	22403.61
485.18	22981.72
485.35	23410.04
485.53	22595.53
485.71	23051.94
485.89	23679.20
486.07	23459.19
486.25	23454.51
486.43	23576.22
486.61	23967.09
486.78	24215.18
486.96	24313.48
487.14	25181.82
487.32	24816.70
487.50	24879.89
487.68	24882.24
487.85	25633.55
488.03	25385.45
488.21	25867.60
488.39	25537.59
488.57	26169.53
488.75	26214.00
488.92	26677.43
489.10	26602.53
489.28	26565.08
489.46	27089.36
489.64	26874.03
489.81	27494.27
489.99	27887.48
490.17	27531.72
490.35	28142.60
490.53	28215.16
490.70	28346.23
490.88	28411.76
491.06	29132.65
491.24	28800.29
491.41	28999.24
491.59	29387.77
491.77	29296.49
491.95	30122.69
492.13	29968.22
492.30	30017.37
492.48	30150.78
492.66	30433.99
492.84	30232.70
493.01	31096.36
493.19	30764.00
493.37	30768.68
493.54	31211.04
493.72	31517.65
493.90	31718.94
494.08	31732.98
494.25	31770.43
494.43	32002.14
494.61	32613.02
494.79	32891.55
494.96	32790.91
495.14	33317.53
495.32	33039.00
495.49	33034.32
495.67	33462.64
495.85	33888.62
496.02	33820.74
496.20	33954.15
496.38	34068.84
496.55	34157.78
496.73	34679.72
496.91	34548.65
497.09	34902.07
497.26	35250.81
497.44	34686.74
497.62	35625.29
497.79	35653.38
497.97	35683.81
498.14	36322.77
498.32	36477.25
498.50	36503.00
498.67	36629.38
498.85	36297.03
499.03	36809.61
499.20	36577.89
499.38	37322.18
499.56	37036.64
499.73	37163.03
499.91	37371.33
500.08	37839.44
500.26	37287.07
500.44	37729.44
500.61	37483.68
500.79	37914.34
500.97	38047.75
501.14	38782.68
501.32	38665.65
501.49	38204.56
501.67	38810.76
501.84	39316.32
502.02	39243.76
502.20	38808.42
502.37	39304.62
502.55	39096.31
502.72	39426.32
502.90	39529.31
503.07	39693.15
503.25	39756.34
503.43	39625.27
503.60	39772.72
503.78	40346.15
503.95	40446.80
504.13	40875.12
504.30	40732.34
504.48	40776.81
504.65	40697.24
504.83	41141.94
505.01	41420.46
505.18	41312.80
505.36	41523.44
505.53	41441.53
505.71	41722.39
505.88	41879.21
506.06	41427.48
506.23	42045.38
506.41	41979.85
506.58	42185.82
506.76	42043.04
506.93	42801.38
507.11	42492.43
507.28	42593.07
507.46	42969.90
507.63	43236.72
507.81	43374.81
507.98	43115.01
508.16	43143.09
508.33	43716.53
508.50	43730.57
508.68	43625.25
508.85	43913.13
509.03	43903.77
509.20	43761.00
509.38	44327.41
509.55	44453.79
509.73	44676.15
509.90	44683.17
510.08	44451.45
510.25	45062.33
510.42	44704.23
510.60	45034.25
510.77	45106.80
510.95	45532.78
511.12	45198.09
511.30	45146.59
511.47	45329.16
511.64	45954.08
511.82	45757.47
511.99	45813.65
512.17	46241.96
512.34	45600.66
512.51	46625.81
512.69	46368.35
512.86	46389.42
513.04	46883.27
513.21	46829.44
513.38	46974.55
513.56	47114.98
513.73	46890.29
513.90	47054.13
514.08	46899.65
514.25	47250.74
514.43	47924.81
514.60	47756.29
514.77	47407.55
514.95	47875.66
515.12	47697.78
515.29	47536.28
515.47	47632.24
515.64	48119.07
515.81	48303.98
515.99	48559.09
516.16	48664.42
516.33	48416.32
516.51	48481.86
516.68	48325.04
516.85	48926.56
517.03	48896.13
517.20	49172.31
517.37	49184.02
517.54	49043.59
517.72	48746.34
517.89	49294.02
518.06	49310.41
518.24	49708.30
518.41	49366.58
518.58	49710.64
518.75	49373.60
518.93	49509.35
519.10	49776.17
519.27	49799.58
519.45	49808.94
519.62	50113.21
519.79	49764.47
519.96	50028.95
520.14	50092.15
520.31	50164.70
520.48	50532.17
520.65	49893.20
520.83	50831.75
521.00	50859.84
521.17	50501.74
521.34	51110.28
521.52	50939.42
521.69	51243.69
521.86	51330.29
522.03	51463.70
522.20	51648.60
522.38	51452.00
522.55	51100.92
522.72	51224.96
522.89	51260.07
523.07	51452.00
523.24	51711.80
523.41	51899.04
523.58	51442.63
523.75	51831.16
523.92	52041.81
524.10	52048.83
524.27	52088.62
524.44	52114.37
524.61	51901.38
524.78	52210.33
524.96	52294.59
525.13	52402.25
525.30	52596.52
525.47	52521.62
525.64	52650.35
525.81	52636.31
525.98	52472.47
526.16	52863.34
526.33	52743.97
526.50	52954.62
526.67	53003.77
526.84	53062.29
527.01	53099.73
527.18	53050.58
527.36	52914.83
527.53	53169.95
527.70	53539.75
527.87	53373.58
528.04	53043.56
528.21	53553.80
528.38	53366.55
528.55	53776.15
528.72	53237.83
528.89	53455.50
529.07	53357.19
529.24	53769.13
529.41	53738.70
529.58	53918.92
529.75	53876.79
529.92	53937.65
530.09	54031.27
530.26	53876.79
530.43	54223.19
530.60	53661.46
530.77	53839.34
530.94	54398.73
531.11	53710.61
531.28	54110.85
531.46	54375.33
531.63	54246.60
531.80	54380.01
531.97	54340.22
532.14	54431.50
532.31	54403.41
532.48	54497.03
532.65	54387.03
532.82	54387.03
532.99	54775.56
533.16	54684.28
533.33	54649.17
533.50	54927.69
533.67	55100.89
533.84	54815.35
534.01	55196.85
534.18	54801.30
534.35	55363.03
534.52	54925.35
534.69	55337.29
534.86	55150.04
535.03	55395.80
535.20	55316.22
535.37	55201.53
535.54	55543.25
535.71	55363.03
535.88	55524.53
536.05	55444.95
536.22	55702.41
536.38	55679.00
536.55	55704.75
536.72	55838.16
536.89	55693.05
537.06	55686.03
537.23	55959.87
537.40	55899.01
537.57	55845.18
537.74	55896.67
537.91	56016.04
538.08	55791.35
538.25	55849.86
538.42	55784.33
538.59	56156.47
538.75	55927.10
538.92	56203.28
539.09	56254.78
539.26	56011.36
539.43	56254.78
539.60	56222.01
539.77	56065.19
539.94	56507.55
540.11	56432.66
540.28	56676.07
540.44	56523.94
540.61	56582.45
540.78	56430.32
540.95	56406.91
541.12	56348.40
541.29	56470.11
541.46	56701.82
541.62	56608.20
541.79	56823.53
541.96	56495.85
542.13	56720.54
542.30	56715.86
542.47	57097.37
542.63	56673.73
542.80	56853.95
542.97	57198.01
543.14	57338.44
543.31	57284.61
543.48	57464.83
543.64	57551.43
543.81	57200.35
543.98	57453.13
544.15	57375.89
544.32	57279.93
544.48	57712.93
544.65	57263.55
544.82	57518.67
544.99	57190.99
545.16	57495.26
545.32	57525.69
545.49	57733.99
545.66	57731.65
545.83	57523.35
546.00	57806.55
546.16	57673.14
546.33	57626.33
546.50	57427.38
546.67	57968.05
546.83	57546.75
547.00	57783.15
547.17	57932.94
547.34	57827.62
547.50	58164.65
547.67	58248.91
547.84	57829.96
548.00	58206.78
548.17	58302.74
548.34	58230.19
548.51	58295.72
548.67	58258.27
548.84	58052.31
549.01	58188.06
549.18	58279.34
549.34	58419.77
549.51	58248.91
549.68	58412.75
549.84	58468.92
550.01	58384.66
550.18	58403.39
550.34	58387.00
550.51	58377.64
550.68	58457.22
550.84	58255.93
551.01	58623.40
551.18	58459.56
551.34	58653.82
551.51	58590.63
551.68	58585.95
551.84	58539.14
552.01	58492.33
552.18	58890.22
552.34	58532.12
552.51	58677.23
552.68	58614.04
552.84	58801.28
553.01	59056.40
553.18	58983.84
553.34	58899.58
553.51	58642.12
553.67	58934.69
553.84	58869.15
554.01	59011.93
554.17	59267.05
554.34	58871.49
554.51	59023.63
554.67	59248.32
554.84	59070.44
555.00	59011.93
555.17	59042.35
555.33	58944.05
555.50	59028.31
555.67	58997.88
555.83	59049.38
556.00	58990.86
556.16	59386.41
556.33	59103.21
556.50	59451.95
556.66	59526.84
556.83	59332.58
556.99	59370.03
557.16	59643.87
557.32	59426.20
557.49	59664.94
557.65	59407.48
557.82	59449.61
557.98	59341.94
558.15	59522.16
558.32	59693.02
558.48	59440.24
558.65	59536.21
558.81	59709.41
558.98	59573.66
559.14	59625.15
559.31	59653.23
559.47	59749.20
559.64	59751.54
559.80	59606.42
559.97	59969.21
560.13	59763.24
560.30	59964.52
560.46	59777.28
560.63	59753.88
560.79	59835.80
560.96	59744.51
561.12	59884.95
561.29	59943.46
561.45	59847.50
561.61	59777.28
561.78	59842.82
561.94	59821.75
562.11	59973.89
562.27	60016.02
562.44	59889.63
562.60	59934.10
562.77	60229.01
562.93	60177.51
563.10	60240.71
563.26	59966.87
563.42	60184.54
563.59	59992.61
563.75	60193.90
563.92	60076.87
564.08	60030.06
564.24	59990.27
564.41	60236.03
564.57	60104.96
564.74	60299.22
564.90	60212.62
565.07	60205.60
565.23	60109.64
565.39	60205.60
565.56	60090.91
565.72	60308.58
565.88	60341.35
566.05	60320.29
566.21	59971.55
566.38	60313.26
566.54	60245.39
566.70	60378.80
566.87	60542.64
567.03	60177.51
567.19	60357.74
567.36	60470.08
567.52	60406.89
567.68	60449.02
567.85	60376.46
568.01	60280.50
568.17	60355.39
568.34	60582.43
568.50	60371.78
568.66	60275.82
568.83	60650.30
568.99	60331.99
569.15	60460.72
569.32	60685.41
569.48	60451.36
569.64	60708.82
569.81	60566.04
569.97	60378.80
570.13	60584.77
570.30	60544.98
570.46	60512.21
570.62	60542.64
570.78	60575.40
570.95	60388.16
571.11	60598.81
571.27	60601.15
571.43	60598.81
571.60	60860.95
571.76	60673.71
571.92	60645.62
572.09	60512.21
572.25	60467.74
572.41	60591.79
572.57	60554.34
572.74	60683.07
572.90	60699.45
573.06	60867.97
573.22	60336.67
573.38	60706.47
573.55	60701.79
573.71	60601.15
573.87	60676.05
574.03	60580.09
574.20	60725.20
574.36	60573.06
574.52	60577.75
574.68	60842.23
574.84	60975.64
575.01	60757.97
575.17	60755.63
575.33	60814.14
575.49	60591.79
575.65	60830.52
575.82	60846.91
575.98	60917.12
576.14	61095.00
576.30	60900.74
576.46	60729.88
576.62	60746.26
576.79	60917.12
576.95	60963.93
577.11	60926.49
577.27	60935.85
577.43	61008.40
577.59	60802.44
577.75	60818.82
577.92	60692.43
578.08	60837.54
578.24	60643.28
578.40	61127.77
578.56	60853.93
578.72	61029.47
578.88	61031.81
579.04	61130.11
579.21	60987.34
579.37	60898.40
579.53	61120.75
579.69	60772.01
579.85	61036.49
580.01	60985.00
580.17	60786.05
580.33	60985.00
580.49	61017.77
580.65	61027.13
580.82	61055.21
580.98	60999.04
581.14	60825.84
581.30	60973.30
581.46	60973.30
581.62	61008.40
581.78	60982.66
581.94	61027.13
582.10	60989.68
582.26	60896.06
582.42	61048.19
582.58	61120.75
582.74	61062.24
582.90	61078.62
583.06	61024.79
583.22	60828.18
583.38	60994.36
583.54	61066.92
583.70	61293.95
583.86	61118.41
584.02	60963.93
584.18	61080.96
584.34	61048.19
584.50	61148.84
584.66	61020.11
584.82	60926.49
584.98	61102.03
585.14	61087.98
585.30	60942.87
585.46	61055.21
585.62	60914.78
585.78	61300.97
585.94	60912.44
586.10	60867.97
586.26	61132.45
586.42	61020.11
586.58	61041.17
586.74	61141.81
586.90	61015.43
587.06	60973.30
587.22	61090.32
587.38	61071.60
587.54	61181.60
587.70	61109.05
587.86	61008.40
588.02	61041.17
588.18	61151.18
588.34	60973.30
