SpectraSuite Data File
++++++++++++++++++++++++++++++++++++
Date: Fri Oct 25 11:26:12 EDT 2013
User: price-jones
Dark Spectrum Present: No
Reference Spectrum Present: No
Number of Sampled Component Spectra: 1
Spectrometers: USB2+H05261
Integration Time (usec): 100000 (USB2+H05261)
Spectra Averaged: 1 (USB2+H05261)
Boxcar Smoothing: 0 (USB2+H05261)
Correct for Electrical Dark: No (USB2+H05261)
Strobe/Lamp Enabled: No (USB2+H05261)
Correct for Detector Non-linearity: No (USB2+H05261)
Correct for Stray Light: No (USB2+H05261)
Number of Pixels in Processed Spectrum: 2048
>>>>>Begin Processed Spectral Data<<<<<
365.73	224.69
365.92	224.69
366.12	224.69
366.32	208.31
366.52	187.24
366.72	166.18
366.91	102.98
367.11	121.71
367.31	86.60
367.51	65.54
367.70	95.96
367.90	166.18
368.10	60.85
368.30	91.28
368.49	126.39
368.69	196.60
368.89	145.11
369.09	79.58
369.28	166.18
369.48	161.50
369.68	189.58
369.87	189.58
370.07	255.12
370.27	266.82
370.47	308.95
370.66	575.77
370.86	688.12
371.06	610.88
371.25	683.44
371.45	653.01
371.65	676.41
371.84	720.88
372.04	690.46
372.24	737.27
372.44	751.31
372.63	833.23
372.83	772.38
373.03	821.53
373.22	748.97
373.42	755.99
373.62	753.65
373.81	802.80
374.01	847.27
374.21	842.59
374.40	863.66
374.60	856.64
374.79	807.48
374.99	858.98
375.19	770.04
375.38	758.33
375.58	786.42
375.78	856.64
375.97	894.08
376.17	938.55
376.37	861.32
376.56	915.15
376.76	945.58
376.95	819.19
377.15	873.02
377.35	875.36
377.54	936.21
377.74	924.51
377.93	840.25
378.13	968.98
378.33	933.87
378.52	905.79
378.72	924.51
378.91	889.40
379.11	961.96
379.31	880.04
379.50	1041.54
379.70	926.85
379.89	1020.47
380.09	1011.11
380.28	950.26
380.48	950.26
380.68	919.83
380.87	971.32
381.07	1046.22
381.26	1036.86
381.46	1053.24
381.65	1102.39
381.85	1011.11
382.04	1046.22
382.24	1074.31
382.43	1095.37
382.63	1025.15
382.83	1146.86
383.02	1123.46
383.22	1114.10
383.41	1146.86
383.61	1118.78
383.80	1146.86
384.00	1088.35
384.19	1081.33
384.39	1128.14
384.58	1153.88
384.78	1256.87
384.97	1153.88
385.17	1130.48
385.36	1111.75
385.56	1181.97
385.75	1177.29
385.95	1200.69
386.14	1139.84
386.34	1081.33
386.53	1245.16
386.72	1191.33
386.92	1207.72
387.11	1296.66
387.31	1245.16
387.50	1181.97
387.70	1357.51
387.89	1261.55
388.09	1200.69
388.28	1327.08
388.48	1320.06
388.67	1282.61
388.86	1249.85
389.06	1249.85
389.25	1362.19
389.45	1427.73
389.64	1301.34
389.84	1364.53
390.03	1427.73
390.22	1404.32
390.42	1390.28
390.61	1399.64
390.81	1376.24
391.00	1378.58
391.19	1434.75
391.39	1540.07
391.58	1488.58
391.78	1549.43
391.97	1500.28
392.16	1540.07
392.36	1603.27
392.55	1509.65
392.75	1547.09
392.94	1572.84
393.13	1542.41
393.33	1519.01
393.52	1565.82
393.71	1521.35
393.91	1462.83
394.10	1565.82
394.29	1610.29
394.49	1657.10
394.68	1657.10
394.88	1575.18
395.07	1612.63
395.26	1696.89
395.46	1687.53
395.65	1750.72
395.84	1706.25
396.04	1762.42
396.23	1783.49
396.42	1839.66
396.62	1741.36
396.81	1713.27
397.00	1769.44
397.19	1802.21
397.39	1732.00
397.58	1865.41
397.77	1806.89
397.97	1849.02
398.16	1823.28
398.35	1933.28
398.55	1886.47
398.74	1942.64
398.93	2022.22
399.12	1891.15
399.32	1912.22
399.51	1970.73
399.70	1959.03
399.90	1956.69
400.09	2003.50
400.28	1959.03
400.47	1991.80
400.67	2113.50
400.86	2125.21
401.05	2012.86
401.24	2076.06
401.44	2125.21
401.63	2080.74
401.82	2221.17
402.01	2115.84
402.21	2167.34
402.40	2122.87
402.59	2167.34
402.78	2230.53
402.97	2258.62
403.17	2291.38
403.36	2225.85
403.55	2204.78
403.74	2291.38
403.93	2179.04
404.13	2303.09
404.32	2363.94
404.51	2286.70
404.70	2464.58
404.89	2370.96
405.09	2389.69
405.28	2422.45
405.47	2466.92
405.66	2530.12
405.85	2509.05
406.05	2506.71
406.24	2579.27
406.43	2628.42
406.62	2719.70
406.81	2607.36
407.00	2504.37
407.20	2616.72
407.39	2576.93
407.58	2621.40
407.77	2668.21
407.96	2789.92
408.15	2700.98
408.34	2689.28
408.54	2782.90
408.73	2815.66
408.92	2787.58
409.11	2871.84
409.30	2946.73
409.49	2747.79
409.68	2890.56
409.87	2979.50
410.07	2928.01
410.26	2939.71
410.45	3042.70
410.64	2972.48
410.83	3016.95
411.02	3143.34
411.21	3073.12
411.40	3150.36
411.59	3136.32
411.78	3206.53
411.98	3267.39
412.17	3290.79
412.36	3358.67
412.55	3375.05
412.74	3328.24
412.93	3473.36
413.12	3353.99
413.31	3346.97
413.50	3473.36
413.69	3510.80
413.88	3630.17
414.07	3442.93
414.26	3595.06
414.45	3662.94
414.64	3676.98
414.83	3784.65
415.02	3655.92
415.22	3782.31
415.41	3843.16
415.60	3847.84
415.79	3775.28
415.98	3786.99
416.17	3964.87
416.36	4070.19
416.55	3913.38
416.74	4018.70
416.93	4152.11
417.12	4114.66
417.31	4184.88
417.50	4187.22
417.69	4407.23
417.88	4142.75
418.07	4299.56
418.26	4283.18
418.45	4358.08
418.64	4463.40
418.83	4376.80
419.02	4423.61
419.21	4535.96
419.39	4475.10
419.58	4521.92
419.77	4383.82
419.96	4472.76
420.15	4428.29
420.34	4545.32
420.53	4554.68
420.72	4564.04
420.91	4695.11
421.10	4732.56
421.29	4873.00
421.48	4720.86
421.67	4699.80
421.86	4699.80
422.05	4880.02
422.24	4784.06
422.43	4884.70
422.61	4865.97
422.80	4751.29
422.99	4795.76
423.18	5025.13
423.37	4887.04
423.56	4945.55
423.75	4905.76
423.94	4821.50
424.13	4727.88
424.32	4770.01
424.50	4889.38
424.69	4943.21
424.88	4973.64
425.07	4873.00
425.26	4830.87
425.45	5025.13
425.64	5043.85
425.83	4842.57
426.01	5109.39
426.20	5186.63
426.39	5001.72
426.58	5193.65
426.77	5062.58
426.96	5195.99
427.15	5179.61
427.33	5275.57
427.52	5224.08
427.71	5198.33
427.90	5165.56
428.09	5203.01
428.28	5331.74
428.46	5308.34
428.65	5376.21
428.84	5535.37
429.03	5493.24
429.22	5364.51
429.40	5411.32
429.59	5490.90
429.78	5493.24
429.97	5317.70
430.16	5441.75
430.34	5682.82
430.53	5710.91
430.72	5586.86
430.91	5696.86
431.10	5645.37
431.28	5750.70
431.47	5738.99
431.66	5877.09
431.85	5776.44
432.03	5767.08
432.22	6064.33
432.41	5813.89
432.60	6022.20
432.79	5923.90
432.97	6008.16
433.16	6183.70
433.35	5977.73
433.54	6003.47
433.72	6071.35
433.91	6036.24
434.10	6061.99
434.28	6061.99
434.47	6136.88
434.66	6211.78
434.85	6148.59
435.03	6471.58
435.22	6279.66
435.41	6597.97
435.59	6464.56
435.78	6438.81
435.97	6394.34
436.16	6349.87
436.34	6420.09
436.53	6523.07
436.72	6593.29
436.90	6321.79
437.09	6562.86
437.28	6389.66
437.46	6544.14
437.65	6576.91
437.84	6911.60
438.02	6506.69
438.21	6752.45
438.40	6738.40
438.58	6986.50
438.77	6855.43
438.96	6839.05
439.14	7211.19
439.33	7159.70
439.52	7124.59
439.70	7000.54
439.89	7234.60
440.08	7524.82
440.26	7258.00
440.45	7194.81
440.63	7438.22
440.82	7630.15
441.01	7501.42
441.19	7566.95
441.38	7700.36
441.57	7658.23
441.75	7646.53
441.94	7805.69
442.12	7850.16
442.31	8070.17
442.50	7864.20
442.68	7845.48
442.87	7995.27
443.05	7911.01
443.24	8091.23
443.43	8030.38
443.61	8116.98
443.80	8231.66
443.98	8100.59
444.17	7875.90
444.35	8159.11
444.54	8255.07
444.73	8180.17
444.91	8201.24
445.10	8507.85
445.28	8226.98
445.47	8215.28
445.65	8383.80
445.84	8297.20
446.02	8395.50
446.21	8470.40
446.39	8376.78
446.58	8376.78
446.77	8439.97
446.95	8360.39
447.14	8491.46
447.32	8552.32
447.51	8313.58
447.69	8241.03
447.88	8395.50
448.06	8514.87
448.25	8442.31
448.43	8620.19
448.62	8561.68
448.80	8435.29
448.99	8657.64
449.17	8748.92
449.36	8575.72
449.54	8720.84
449.73	8877.65
449.91	8816.80
450.10	9015.74
450.28	8877.65
450.46	8971.27
450.65	8823.82
450.83	8894.04
451.02	9001.70
451.20	9268.52
451.39	9352.78
451.57	9032.13
451.76	9139.79
451.94	9090.64
452.13	9390.23
452.31	9383.21
452.49	9359.80
452.68	9509.60
452.86	9451.08
453.05	9394.91
453.23	9617.26
453.42	9341.08
453.60	9247.46
453.78	9458.10
453.97	9432.36
454.15	9401.93
454.34	9408.95
454.52	9731.95
454.70	9570.45
454.89	9640.67
455.07	9834.93
455.26	9858.34
455.44	9802.16
455.62	9942.60
455.81	9837.27
455.99	9874.72
456.17	9984.73
456.36	9961.32
456.54	10328.78
456.73	10258.57
456.91	10429.43
457.09	10120.48
457.28	10377.94
457.46	10363.89
457.64	10546.45
457.83	10377.94
458.01	10469.22
458.19	10565.18
458.38	10424.75
458.56	10703.27
458.74	10520.71
458.93	10658.80
459.11	10836.68
459.29	10682.20
459.48	10670.50
459.66	10824.98
459.84	10932.64
460.03	11063.71
460.21	10967.75
460.39	10885.83
460.57	10649.44
460.76	11035.63
460.94	11084.78
461.12	11288.40
461.31	11103.50
461.49	11297.77
461.67	11227.55
461.85	11433.52
462.04	11126.91
462.22	11538.84
462.40	11735.45
462.59	11461.60
462.77	11452.24
462.95	11653.53
463.13	11644.17
463.32	11630.12
463.50	11772.89
463.68	11651.19
463.86	11688.64
464.05	11557.57
464.23	11583.31
464.41	12065.46
464.59	11772.89
464.78	12131.00
464.96	11796.30
465.14	11859.49
465.32	11971.84
465.50	12081.85
465.69	12081.85
465.87	11964.82
466.05	12241.00
466.23	12306.54
466.41	12212.92
466.60	12531.23
466.78	12264.41
466.96	12266.75
467.14	12395.48
467.32	12292.49
467.51	12400.16
467.69	12119.29
467.87	12393.14
468.05	12402.50
468.23	12297.17
468.41	12510.16
468.60	12528.89
468.78	12858.90
468.96	12416.54
469.14	12812.09
469.32	12877.63
469.50	12723.15
469.69	13102.32
469.87	12950.18
470.05	13259.13
470.23	12917.42
470.41	13163.17
470.59	13298.92
470.77	13048.49
470.95	13238.07
471.14	13532.98
471.32	13022.74
471.50	13671.07
471.68	13504.89
471.86	13764.69
472.04	13816.18
472.22	14129.81
472.40	13785.76
472.58	13652.34
472.77	13895.76
472.95	14019.81
473.13	14469.19
473.31	14101.73
473.49	14029.17
473.67	14305.35
473.85	14157.90
474.03	14422.38
474.21	14406.00
474.39	14679.84
474.57	14853.04
474.75	14750.06
474.93	14918.57
475.12	14757.08
475.30	15115.18
475.48	14899.85
475.66	15047.30
475.84	14979.43
476.02	15459.24
476.20	15147.95
476.38	15426.47
476.56	15683.93
476.74	16013.95
476.92	15887.56
477.10	15833.72
477.28	16046.71
477.46	16086.50
477.64	16233.96
477.82	16533.54
478.00	16662.27
478.18	16456.31
478.36	16685.68
478.54	17092.93
478.72	17142.08
478.90	17202.94
479.08	17373.80
479.26	17537.63
479.44	17591.47
479.62	18094.68
479.80	17865.31
479.98	17891.06
480.16	18321.71
480.34	18068.94
480.52	18593.22
480.70	18679.82
480.88	18183.62
481.06	18663.43
481.24	18682.16
481.41	19012.17
481.59	19403.04
481.77	19889.87
481.95	19651.14
482.13	19548.15
482.31	19719.01
482.49	19873.49
482.67	20070.09
482.85	20475.01
483.03	20467.98
483.21	20732.47
483.39	21113.97
483.57	20814.38
483.74	21198.23
483.92	21570.38
484.10	21198.23
484.28	21675.70
484.46	21689.74
484.64	22195.30
484.82	22178.92
485.00	22188.28
485.18	22513.61
485.35	22700.86
485.53	22637.66
485.71	22871.72
485.89	23290.67
486.07	23016.83
486.25	23550.47
486.43	23302.37
486.61	23969.43
486.78	23838.36
486.96	23981.13
487.14	24531.15
487.32	24751.17
487.50	24510.09
487.68	24989.90
487.85	25247.36
488.03	25324.60
488.21	25563.33
488.39	25624.18
488.57	25804.41
488.75	26232.72
488.92	26438.69
489.10	26661.04
489.28	26712.53
489.46	27101.06
489.64	27323.41
489.81	27487.25
489.99	27482.57
490.17	27679.18
490.35	27749.39
490.53	28224.52
490.70	28313.46
490.88	28208.14
491.06	28793.27
491.24	29083.50
491.41	28886.89
491.59	28973.49
491.77	29226.27
491.95	29827.79
492.13	29441.60
492.30	30087.59
492.48	30113.33
492.66	29879.28
492.84	30115.67
493.01	31126.78
493.19	30698.47
493.37	30698.47
493.54	30944.22
493.72	31096.36
493.90	31669.79
494.08	31534.04
494.25	32093.43
494.43	31845.33
494.61	32032.57
494.79	32704.31
494.96	32411.74
495.14	32273.65
495.32	33266.03
495.49	32631.75
495.67	33186.46
495.85	33043.68
496.02	33354.97
496.20	34038.41
496.38	33886.28
496.55	33780.95
496.73	34700.78
496.91	34436.30
497.09	34518.22
497.26	34918.45
497.44	34916.11
497.62	35218.04
497.79	35732.96
497.97	35669.76
498.14	35775.09
498.32	36030.21
498.50	36062.97
498.67	36198.73
498.85	36336.82
499.03	36400.01
499.20	36479.59
499.38	36648.11
499.56	36697.26
499.73	37008.55
499.91	36966.42
500.08	37340.91
500.26	37399.42
500.44	37659.22
500.61	37614.75
500.79	37804.33
500.97	37610.07
501.14	38263.08
501.32	38354.36
501.49	38230.31
501.67	38447.98
501.84	38628.20
502.02	38686.71
502.20	38639.90
502.37	39002.69
502.55	39147.80
502.72	39281.21
502.90	39335.04
503.07	39423.98
503.25	39728.25
503.43	39510.58
503.60	40133.17
503.78	39697.83
503.95	39852.30
504.13	40460.84
504.30	40353.18
504.48	40126.14
504.65	40662.13
504.83	41055.34
505.01	41404.08
505.18	41167.68
505.36	41134.92
505.53	40844.69
505.71	41366.63
505.88	41741.11
506.06	41233.22
506.23	41689.62
506.41	41638.13
506.58	42195.18
506.76	41752.82
506.93	42396.46
507.11	42234.97
507.28	42188.16
507.46	42616.47
507.63	42302.84
507.81	42906.70
507.98	42784.99
508.16	43051.81
508.33	43306.93
508.50	43140.75
508.68	43775.04
508.85	44067.61
509.03	44116.76
509.20	43768.02
509.38	43957.60
509.55	44100.37
509.73	44177.61
509.90	44170.59
510.08	44304.00
510.25	44706.57
510.42	44594.23
510.60	44669.12
510.77	45120.85
510.95	45354.90
511.12	44889.13
511.30	44870.41
511.47	45172.34
511.64	45619.38
511.82	45727.05
511.99	45228.51
512.17	46099.19
512.34	45617.04
512.51	45963.44
512.69	46532.19
512.86	45897.91
513.04	46630.49
513.21	46291.12
513.38	46464.32
513.56	46637.51
513.73	46684.33
513.90	46593.04
514.08	46993.28
514.25	47332.65
514.43	47318.61
514.60	47377.12
514.77	47271.80
514.95	47636.92
515.12	47714.16
515.29	47358.40
515.47	47730.54
515.64	47793.74
515.81	48058.22
515.99	48163.54
516.16	47515.22
516.33	48325.04
516.51	49001.46
516.68	48460.79
516.85	48418.66
517.03	48479.52
517.20	48982.73
517.37	48486.54
517.54	48545.05
517.72	48488.88
517.89	48877.41
518.06	49195.72
518.24	49057.63
518.41	49284.66
518.58	49127.84
518.75	49139.55
518.93	49254.23
519.10	49235.51
519.27	49535.10
519.45	49504.67
519.62	49654.47
519.79	49832.35
519.96	49619.36
520.14	50099.17
520.31	50028.95
520.48	50293.43
520.65	50206.83
520.83	50082.78
521.00	50670.26
521.17	50412.80
521.34	50555.57
521.52	50632.81
521.69	50637.49
521.86	50504.08
522.03	50948.78
522.20	51098.58
522.38	51482.42
522.55	51157.09
522.72	51058.79
522.89	51222.62
523.07	51274.12
523.24	51437.95
523.41	51510.51
523.58	51400.50
523.75	51957.55
523.92	51793.71
524.10	51679.03
524.27	51639.24
524.44	52076.92
524.61	51866.27
524.78	51882.66
524.96	52121.39
525.13	52165.86
525.30	52133.09
525.47	52385.87
525.64	52193.95
525.81	52327.36
525.98	52184.58
526.16	52247.78
526.33	52500.56
526.50	52861.00
526.67	52839.93
526.84	52760.36
527.01	52722.91
527.18	52842.27
527.36	53015.47
527.53	53041.22
527.70	53308.04
527.87	53188.67
528.04	53139.52
528.21	53038.88
528.38	53368.90
528.55	53261.23
528.72	53333.79
528.89	53366.55
529.07	53399.32
529.24	53120.80
529.41	53495.28
529.58	53638.06
529.75	53586.57
529.92	53560.82
530.09	53909.56
530.26	53902.54
530.43	53897.86
530.60	53595.93
530.77	53722.32
530.94	53876.79
531.11	53890.83
531.28	53977.43
531.46	54134.25
531.63	54042.97
531.80	54071.06
531.97	54227.87
532.14	54511.08
532.31	54370.64
532.48	54651.51
532.65	54749.81
532.82	54424.48
532.99	54583.63
533.16	54380.01
533.33	54625.76
533.50	54857.48
533.67	54738.11
533.84	54368.30
534.01	54698.32
534.18	54805.98
534.35	55182.81
534.52	54962.80
534.69	54969.82
534.86	55140.68
535.03	54883.22
535.20	55009.61
535.37	55468.36
535.54	54838.75
535.71	55246.00
535.88	55206.22
536.05	55552.62
536.22	55379.42
536.38	55325.58
536.55	55398.14
536.72	55276.43
536.89	55367.71
537.06	55594.74
537.23	55725.81
537.40	55503.46
537.57	55627.51
537.74	55611.13
537.91	56030.08
538.08	55884.97
538.25	55412.18
538.42	56027.74
538.59	56203.28
538.75	55873.27
538.92	55938.80
539.09	56076.90
539.26	55887.31
539.43	56079.24
539.60	56116.68
539.77	55966.89
539.94	56287.54
540.11	56163.50
540.28	55971.57
540.44	56210.31
540.61	56081.58
540.78	56149.45
540.95	56086.26
541.12	56446.70
541.29	56449.04
541.46	56474.79
541.62	56615.22
541.79	56622.24
541.96	56203.28
542.13	56369.46
542.30	56498.19
542.47	56650.33
542.63	56823.53
542.80	56910.13
542.97	56825.87
543.14	56956.94
543.31	57247.16
543.48	56933.53
543.64	57268.23
543.81	57488.24
543.98	57303.34
544.15	57282.27
544.32	57385.25
544.48	57354.83
544.65	57116.09
544.82	57322.06
544.99	57293.97
545.16	57523.35
545.32	57413.34
545.49	57513.98
545.66	57605.26
545.83	57626.33
546.00	57584.20
546.16	57752.72
546.33	57471.85
546.50	57212.06
546.67	57710.59
546.83	57263.55
547.00	57673.14
547.17	57682.50
547.34	57673.14
547.50	58019.54
547.67	57982.09
547.84	57860.38
548.00	58054.65
548.17	58129.54
548.34	58010.18
548.51	58117.84
548.67	58078.05
548.84	57916.56
549.01	58166.99
549.18	58080.39
549.34	58038.26
549.51	58401.05
549.68	58204.44
549.84	58396.37
550.01	58534.46
550.18	58295.72
550.34	58300.40
550.51	58302.74
550.68	58174.02
550.84	58389.34
551.01	58471.26
551.18	58419.77
551.34	58450.20
551.51	58438.50
551.68	58522.76
551.84	58459.56
552.01	58351.90
552.18	58438.50
552.34	58267.64
552.51	58590.63
552.68	58298.06
552.84	58445.52
553.01	58866.81
553.18	58756.81
553.34	58880.86
553.51	58585.95
553.67	58759.15
553.84	58827.02
554.01	58777.87
554.17	58852.77
554.34	59025.97
554.51	58953.41
554.67	58925.33
554.84	58766.17
555.00	58817.66
555.17	58911.28
555.33	59007.25
555.50	58937.03
555.67	59040.01
555.83	58843.41
556.00	58834.05
556.16	59348.96
556.33	59075.12
556.50	59320.88
556.66	59250.66
556.83	58871.49
556.99	59360.67
557.16	59320.88
557.32	59529.19
557.49	59416.84
557.65	59295.13
557.82	59304.49
557.98	59208.53
558.15	59327.90
558.32	59348.96
558.48	59241.30
558.65	59377.05
558.81	59330.24
558.98	59311.52
559.14	59325.56
559.31	59643.87
559.47	59519.82
559.64	59442.59
559.80	59732.81
559.97	59625.15
560.13	59622.81
560.30	59739.83
560.46	59732.81
560.63	59742.17
560.79	59629.83
560.96	59688.34
561.12	59821.75
561.29	59744.51
561.45	59695.36
561.61	59924.74
561.78	59657.91
561.94	59681.32
562.11	59777.28
562.27	59526.84
562.44	59927.08
562.60	59838.14
562.77	59838.14
562.93	59784.30
563.10	59819.41
563.26	59973.89
563.42	60121.34
563.59	60097.94
563.75	59833.46
563.92	60011.34
564.08	59980.91
564.24	60189.22
564.41	60020.70
564.57	59891.97
564.74	59826.43
564.90	59889.63
565.07	59978.57
565.23	60037.08
565.39	60083.89
565.56	60172.83
565.72	60046.44
565.88	60170.49
566.05	59980.91
566.21	59826.43
566.38	60165.81
566.54	60301.56
566.70	60346.03
566.87	60221.98
567.03	60083.89
567.19	60463.06
567.36	60095.60
567.52	60074.53
567.68	60451.36
567.85	60285.18
568.01	60250.07
568.17	60355.39
568.34	60189.22
568.50	60266.45
568.66	60156.45
568.83	60233.69
568.99	60383.48
569.15	60236.03
569.32	60446.68
569.48	60147.09
569.64	60329.65
569.81	60488.80
569.97	60168.15
570.13	60418.59
570.30	60411.57
570.46	60247.73
570.62	60367.10
570.78	60439.65
570.95	60399.86
571.11	60348.37
571.27	60172.83
571.43	60420.93
571.60	60563.70
571.76	60392.84
571.92	60308.58
572.09	60523.91
572.25	60357.74
572.41	60301.56
572.57	60530.93
572.74	60491.15
572.90	60402.21
573.06	60474.76
573.22	60582.43
573.38	60566.04
573.55	60662.00
573.71	60690.09
573.87	60636.26
574.03	60601.15
574.20	60453.70
574.36	60404.55
574.52	60788.39
574.68	60825.84
574.84	60636.26
575.01	60903.08
575.17	60687.75
575.33	60692.43
575.49	60580.09
575.65	60706.47
575.82	60750.94
575.98	60633.92
576.14	60839.89
576.30	60603.49
576.46	60619.88
576.62	60753.29
576.79	60657.32
576.95	60640.94
577.11	60802.44
577.27	60652.64
577.43	60814.14
577.59	60741.58
577.75	60680.73
577.92	60500.51
578.08	60828.18
578.24	60734.56
578.40	60739.24
578.56	60996.70
578.72	60713.50
578.88	61087.98
579.04	60907.76
579.21	60704.13
579.37	60853.93
579.53	60797.76
579.69	60563.70
579.85	60498.17
580.01	60687.75
580.17	60629.24
580.33	60842.23
580.49	60786.05
580.65	60891.38
580.82	60989.68
580.98	60587.11
581.14	60673.71
581.30	60783.71
581.46	60769.67
581.62	60704.13
581.78	60818.82
581.94	60786.05
582.10	60692.43
582.26	60879.67
582.42	60816.48
582.58	60837.54
582.74	60589.45
582.90	60935.85
583.06	60874.99
583.22	60697.11
583.38	60839.89
583.54	60900.74
583.70	60753.29
583.86	60954.57
584.02	60835.20
584.18	60975.64
584.34	60757.97
584.50	60973.30
584.66	60891.38
584.82	60652.64
584.98	61153.52
585.14	61048.19
585.30	61024.79
585.46	61034.15
585.62	60949.89
585.78	60863.29
585.94	60748.60
586.10	60809.46
586.26	60807.12
586.42	61010.74
586.58	60914.78
586.74	61059.90
586.90	60924.14
587.06	60884.36
587.22	61087.98
587.38	60795.42
587.54	61221.39
587.70	61153.52
587.86	60893.72
588.02	60942.87
588.18	61165.22
588.34	60870.31
588.49	61080.96
