SpectraSuite Data File
++++++++++++++++++++++++++++++++++++
Date: Fri Oct 25 10:47:36 EDT 2013
User: price-jones
Dark Spectrum Present: No
Reference Spectrum Present: No
Number of Sampled Component Spectra: 1
Spectrometers: USB2+H05261
Integration Time (usec): 100000 (USB2+H05261)
Spectra Averaged: 1 (USB2+H05261)
Boxcar Smoothing: 0 (USB2+H05261)
Correct for Electrical Dark: No (USB2+H05261)
Strobe/Lamp Enabled: No (USB2+H05261)
Correct for Detector Non-linearity: No (USB2+H05261)
Correct for Stray Light: No (USB2+H05261)
Number of Pixels in Processed Spectrum: 2048
>>>>>Begin Processed Spectral Data<<<<<
365.73	166.18
365.92	166.18
366.12	166.18
366.32	14.04
366.52	95.96
366.72	102.98
366.91	25.75
367.11	42.13
367.31	0.00
367.51	56.17
367.70	21.06
367.90	51.49
368.10	0.00
368.30	16.38
368.49	100.64
368.69	110.01
368.89	14.04
369.09	16.38
369.28	65.54
369.48	70.22
369.68	70.22
369.87	131.07
370.07	102.98
370.27	128.73
370.47	180.22
370.66	332.36
370.86	411.93
371.06	465.77
371.25	416.62
371.45	386.19
371.65	477.47
371.84	505.56
372.04	519.60
372.24	456.40
372.44	491.51
372.63	519.60
372.83	491.51
373.03	531.30
373.22	573.43
373.42	444.70
373.62	498.53
373.81	479.81
374.01	528.96
374.21	557.05
374.40	592.16
374.60	608.54
374.79	568.75
374.99	507.90
375.19	552.37
375.38	624.92
375.58	582.79
375.78	601.52
375.97	596.84
376.17	657.69
376.37	690.46
376.56	624.92
376.76	552.37
376.95	636.63
377.15	617.90
377.35	617.90
377.54	613.22
377.74	610.88
377.93	545.34
378.13	617.90
378.33	660.03
378.52	589.82
378.72	662.37
378.91	631.94
379.11	603.86
379.31	688.12
379.50	653.01
379.70	660.03
379.89	552.37
380.09	664.71
380.28	631.94
380.48	690.46
380.68	669.39
380.87	709.18
381.07	716.20
381.26	685.78
381.46	653.01
381.65	667.05
381.85	606.20
382.04	706.84
382.24	713.86
382.43	603.86
382.63	697.48
382.83	692.80
383.02	786.42
383.22	758.33
383.41	636.63
383.61	697.48
383.80	760.67
384.00	709.18
384.19	770.04
384.39	784.08
384.58	746.63
384.78	683.44
384.97	774.72
385.17	798.12
385.36	648.33
385.56	788.76
385.75	844.93
385.95	828.55
386.14	748.97
386.34	777.06
386.53	781.74
386.72	816.85
386.92	833.23
387.11	784.08
387.31	866.00
387.50	835.57
387.70	772.38
387.89	814.51
388.09	791.10
388.28	823.87
388.48	922.17
388.67	903.45
388.86	868.34
389.06	940.90
389.25	943.24
389.45	919.83
389.64	877.70
389.84	880.04
390.03	910.47
390.22	952.60
390.42	917.49
390.61	950.26
390.81	894.08
391.00	964.30
391.19	1020.47
391.39	910.47
391.58	987.71
391.78	896.43
391.97	997.07
392.16	1041.54
392.36	1013.45
392.55	1011.11
392.75	945.58
392.94	1020.47
393.13	1043.88
393.33	987.71
393.52	1018.13
393.71	1034.52
393.91	1064.94
394.10	943.24
394.29	1090.69
394.49	1100.05
394.68	1069.62
394.88	1095.37
395.07	1163.25
395.26	1081.33
395.46	1238.14
395.65	1184.31
395.84	1259.21
396.04	1088.35
396.23	1036.86
396.42	1151.54
396.62	1149.20
396.81	1142.18
397.00	1137.50
397.19	1226.44
397.39	1144.52
397.58	1217.08
397.77	1296.66
397.97	1334.11
398.16	1416.02
398.35	1327.08
398.55	1247.51
398.74	1439.43
398.93	1460.49
399.12	1409.00
399.32	1327.08
399.51	1416.02
399.70	1327.08
399.90	1310.70
400.09	1430.07
400.28	1467.52
400.47	1446.45
400.67	1418.36
400.86	1514.33
401.05	1591.56
401.24	1376.24
401.44	1465.18
401.63	1570.50
401.82	1558.80
402.01	1472.20
402.21	1511.99
402.40	1497.94
402.59	1549.43
402.78	1465.18
402.97	1544.75
403.17	1568.16
403.36	1617.31
403.55	1671.14
403.74	1762.42
403.93	1636.03
404.13	1657.10
404.32	1671.14
404.51	1612.63
404.70	1722.63
404.89	1692.21
405.09	1746.04
405.28	1727.32
405.47	1736.68
405.66	1734.34
405.85	1767.10
406.05	1741.36
406.24	1842.00
406.43	1818.60
406.62	1804.55
406.81	1877.11
407.00	1834.98
407.20	1802.21
407.39	1799.87
407.58	1907.54
407.77	1872.43
407.96	1877.11
408.15	1923.92
408.34	2078.40
408.54	2111.16
408.73	2024.56
408.92	2125.21
409.11	2148.61
409.30	2066.69
409.49	2047.97
409.68	1998.82
409.87	1998.82
410.07	2080.74
410.26	2132.23
410.45	2169.68
410.64	2157.97
410.83	2204.78
411.02	2333.51
411.21	2270.32
411.40	2267.98
411.59	2260.96
411.78	2258.62
411.98	2251.60
412.17	2279.68
412.36	2331.17
412.55	2410.75
412.74	2392.03
412.93	2471.61
413.12	2462.24
413.31	2609.70
413.50	2471.61
413.69	2509.05
413.88	2473.95
414.07	2644.81
414.26	2586.29
414.45	2605.02
414.64	2626.08
414.83	2782.90
415.02	2705.66
415.22	2782.90
415.41	2684.59
415.60	2773.53
415.79	2878.86
415.98	2916.31
416.17	2939.71
416.36	2843.75
416.55	2920.99
416.74	3042.70
416.93	2956.10
417.12	3028.65
417.31	2906.95
417.50	3075.46
417.69	3131.64
417.88	3222.92
418.07	3162.06
418.26	2911.63
418.45	3033.33
418.64	3169.09
418.83	3229.94
419.02	3103.55
419.21	3283.77
419.39	3232.28
419.58	3150.36
419.77	3197.17
419.96	3251.00
420.15	3358.67
420.34	3372.71
420.53	3332.92
420.72	3459.31
420.91	3361.01
421.10	3426.54
421.29	3449.95
421.48	3471.01
421.67	3431.23
421.86	3440.59
422.05	3351.65
422.24	3382.07
422.43	3375.05
422.61	3389.10
422.80	3588.04
422.99	3522.51
423.18	3616.13
423.37	3576.34
423.56	3552.93
423.75	3574.00
423.94	3599.74
424.13	3295.47
424.32	3382.07
424.50	3623.15
424.69	3602.08
424.88	3620.81
425.07	3592.72
425.26	3494.42
425.45	3489.74
425.64	3433.57
425.83	3639.53
426.01	3534.21
426.20	3559.95
426.39	3489.74
426.58	3466.33
426.77	3475.70
426.96	3655.92
427.15	3660.60
427.33	3655.92
427.52	3669.96
427.71	3581.02
427.90	3698.05
428.09	3796.35
428.28	3819.75
428.46	3836.14
428.65	3728.47
428.84	3873.59
429.03	4051.47
429.22	3698.05
429.40	3770.60
429.59	3880.61
429.78	3702.73
429.97	3597.40
430.16	3819.75
430.34	3791.67
430.53	3941.46
430.72	3939.12
430.91	3836.14
431.10	4030.40
431.28	3967.21
431.47	4079.55
431.66	4100.62
431.85	4070.19
432.03	4131.05
432.22	4299.56
432.41	4306.59
432.60	4318.29
432.79	4351.06
432.97	4355.74
433.16	4163.81
433.35	4156.79
433.54	4346.37
433.72	4276.16
433.91	4189.56
434.10	4248.07
434.28	4379.14
434.47	4327.65
434.66	4386.16
434.85	4444.68
435.03	4449.36
435.22	4547.66
435.41	4547.66
435.59	4496.17
435.78	4547.66
435.97	4528.94
436.16	4587.45
436.34	4552.34
436.53	4669.37
436.72	4812.14
436.90	4540.64
437.09	4737.24
437.28	4592.13
437.46	4575.75
437.65	4695.11
437.84	4688.09
438.02	4585.11
438.21	4758.31
438.40	4667.03
438.58	4753.63
438.77	4896.40
438.96	4809.80
439.14	5020.45
439.33	5034.49
439.52	5018.11
439.70	5060.24
439.89	5172.58
440.08	5025.13
440.26	5163.22
440.45	5179.61
440.63	5217.05
440.82	5401.96
441.01	5408.98
441.19	5469.83
441.38	5451.11
441.57	5451.11
441.75	5565.79
441.94	5600.90
442.12	5708.57
442.31	5713.25
442.50	5844.32
442.68	5654.73
442.87	5715.59
443.05	5806.87
443.24	5909.85
443.43	5743.67
443.61	5708.57
443.80	6059.65
443.98	5802.19
444.17	5570.48
444.35	5919.21
444.54	6022.20
444.73	5956.66
444.91	5884.11
445.10	5907.51
445.28	5764.74
445.47	5696.86
445.65	5813.89
445.84	5811.55
446.02	6047.94
446.21	5863.04
446.39	5827.93
446.58	5937.94
446.77	5975.39
446.95	6104.12
447.14	5970.71
447.32	6120.50
447.51	6104.12
447.69	5980.07
447.88	6012.84
448.06	6092.41
448.25	6043.26
448.43	5982.41
448.62	6092.41
448.80	5998.79
448.99	6008.16
449.17	6401.37
449.36	6090.07
449.54	6183.70
449.73	6244.55
449.91	6366.26
450.10	6387.32
450.28	6427.11
450.46	6403.71
450.65	6317.11
450.83	6389.66
451.02	6331.15
451.20	6375.62
451.39	6651.80
451.57	6490.31
451.76	6359.24
451.94	6644.78
452.13	6621.38
452.31	6480.94
452.49	6464.56
452.68	6551.16
452.86	6469.24
453.05	6647.12
453.23	6658.82
453.42	6677.55
453.60	6658.82
453.78	6729.04
453.97	6689.25
454.15	6555.84
454.34	6745.42
454.52	6829.68
454.70	6970.12
454.89	6820.32
455.07	6696.27
455.26	7180.76
455.44	7052.03
455.62	7016.93
455.81	6963.09
455.99	7068.42
456.17	6951.39
456.36	7037.99
456.54	7279.07
456.73	7145.66
456.91	7234.60
457.09	7311.83
457.28	7351.62
457.46	7307.15
457.64	7368.01
457.83	7346.94
458.01	7300.13
458.19	7438.22
458.38	7119.91
458.56	7616.10
458.74	7311.83
458.93	7543.55
459.11	7424.18
459.29	7672.28
459.48	7527.16
459.66	7688.66
459.84	7707.38
460.03	7733.13
460.21	7541.21
460.39	7796.32
460.57	7899.31
460.76	7838.45
460.94	7775.26
461.12	7716.75
461.31	7808.03
461.49	7793.98
461.67	7452.27
461.85	8042.08
462.04	7808.03
462.22	8231.66
462.40	8067.83
462.59	7854.84
462.77	8035.06
462.95	8273.79
463.13	7971.86
463.32	8002.29
463.50	8131.02
463.68	8215.28
463.86	8318.26
464.05	7960.16
464.23	7880.58
464.41	8269.11
464.59	8091.23
464.78	8432.95
464.96	8250.39
465.14	8114.64
465.32	8367.42
465.50	8198.90
465.69	8491.46
465.87	8397.84
466.05	8454.02
466.23	8454.02
466.41	8362.73
466.60	8517.21
466.78	8379.12
466.96	8489.12
467.14	8393.16
467.32	8393.16
467.51	8652.96
467.69	8322.94
467.87	8477.42
468.05	8636.58
468.23	8568.70
468.41	8713.81
468.60	8355.71
468.78	8542.96
468.96	8702.11
469.14	8847.22
469.32	8840.20
469.50	8650.62
469.69	8727.86
469.87	8894.04
470.05	9116.39
470.23	8982.98
470.41	8915.10
470.59	9366.82
470.77	8952.55
470.95	9217.03
471.14	9364.48
471.32	9160.86
471.50	9170.22
471.68	9486.19
471.86	9411.29
472.04	9462.79
472.22	9418.32
472.40	9317.67
472.58	9624.28
472.77	9568.11
472.95	9516.62
473.13	9919.19
473.31	9720.24
473.49	9565.77
473.67	9671.09
473.85	9565.77
474.03	9942.60
474.21	10106.43
474.39	10104.09
474.57	9841.95
474.75	10197.71
474.93	10153.24
475.12	10232.82
475.30	10345.17
475.48	10216.44
475.66	10403.68
475.84	10232.82
476.02	10436.45
476.20	10499.64
476.38	10764.12
476.56	10792.21
476.74	10782.85
476.92	10778.17
477.10	10621.35
477.28	11042.65
477.46	11225.21
477.64	11089.46
477.82	11386.71
478.00	11318.83
478.18	11272.02
478.36	11459.26
478.54	11379.68
478.72	11452.24
478.90	11782.26
479.08	11826.73
479.26	11981.20
479.44	11981.20
479.62	12348.67
479.80	12131.00
479.98	12095.89
480.16	12561.66
480.34	12486.76
480.52	12575.70
480.70	12493.78
480.88	12374.41
481.06	12510.16
481.24	12856.56
481.41	13135.09
481.59	12915.08
481.77	13399.57
481.95	13282.54
482.13	13193.60
482.31	13390.20
482.49	13465.10
482.67	13654.69
482.85	13703.84
483.03	13806.82
483.21	14026.83
483.39	13994.06
483.57	14153.22
483.74	14087.68
483.92	14324.08
484.10	14160.24
484.28	14497.28
484.46	14644.73
484.64	15147.95
484.82	14649.41
485.00	14883.47
485.18	15101.14
485.35	15171.35
485.53	14965.39
485.71	15173.69
485.89	15225.18
486.07	15475.62
486.25	15545.84
486.43	15716.70
486.61	15854.79
486.78	15957.77
486.96	16109.91
487.14	16243.32
487.32	16280.77
487.50	16690.36
487.68	16844.84
487.85	16879.94
488.03	16865.90
488.21	17139.74
488.39	17109.32
488.57	17263.79
488.75	17151.45
488.92	17568.06
489.10	17678.07
489.28	17701.47
489.46	18005.74
489.64	17958.93
489.81	18417.68
489.99	18595.56
490.17	18410.65
490.35	18778.12
490.53	18878.76
490.70	18988.77
490.88	18941.96
491.06	19136.22
491.24	18953.66
491.41	19332.82
491.59	19307.08
491.77	19248.57
491.95	19569.22
492.13	19571.56
492.30	20159.03
492.48	19960.09
492.66	20025.62
492.84	20100.52
493.01	20343.94
493.19	20210.53
493.37	20898.64
493.54	20624.80
493.72	20645.87
493.90	20865.88
494.08	21310.58
494.25	21291.85
494.43	21266.11
494.61	21558.67
494.79	21411.22
494.96	21476.76
495.14	21593.78
495.32	21895.71
495.49	22080.61
495.67	21799.75
495.85	22277.22
496.02	22106.36
496.20	22508.93
496.38	22302.96
496.55	22792.14
496.73	22911.50
496.91	22890.44
497.09	23164.28
497.26	23117.47
497.44	22965.34
497.62	23082.36
497.79	23527.06
497.97	23236.84
498.14	23765.80
498.32	23611.32
498.50	23728.35
498.67	24154.33
498.85	24034.96
499.03	24238.59
499.20	24364.98
499.38	24467.96
499.56	24472.64
499.73	24465.62
499.91	24957.13
500.08	24638.82
500.26	24589.67
500.44	24566.26
500.61	24835.42
500.79	24577.97
500.97	24952.45
501.14	25486.09
501.32	25102.25
501.49	25193.53
501.67	25546.95
501.84	25184.16
502.02	25745.89
502.20	25958.88
502.37	25809.09
502.55	25839.51
502.72	26052.50
502.90	26160.17
503.07	25853.56
503.25	26129.74
503.43	26209.32
503.60	26293.58
503.78	26541.68
503.95	26597.85
504.13	26618.91
504.30	26761.69
504.48	26668.06
504.65	26845.94
504.83	26998.08
505.01	26792.11
505.18	27065.96
505.36	27206.39
505.53	27342.14
505.71	27283.62
505.88	27552.79
506.06	27138.51
506.23	27756.41
506.41	27407.67
506.58	27548.11
506.76	27953.02
506.93	28060.68
507.11	27747.05
507.28	28067.70
507.46	27531.72
507.63	28070.04
507.81	28336.87
507.98	28224.52
508.16	28449.21
508.33	28556.88
508.50	28711.35
508.68	28917.32
508.85	28875.19
509.03	28837.74
509.20	28842.42
509.38	29010.94
509.55	28870.51
509.73	29151.37
509.90	29111.58
510.08	29301.17
510.25	29226.27
510.42	29734.17
510.60	29535.22
510.77	30019.71
510.95	29589.05
511.12	29935.45
511.30	29736.51
511.47	30000.99
511.64	30487.82
511.82	30436.33
511.99	29900.34
512.17	30045.46
512.34	30323.98
512.51	30707.83
512.69	30738.26
512.86	30382.49
513.04	30707.83
513.21	30595.48
513.38	30955.93
513.56	30637.61
513.73	30780.39
513.90	31321.05
514.08	30876.35
514.25	31662.77
514.43	31016.78
514.60	31281.26
514.77	31117.42
514.95	31325.73
515.12	31222.75
515.29	31271.90
515.47	31648.72
515.64	31842.99
515.81	31761.07
515.99	31728.30
516.16	31803.20
516.33	31480.21
516.51	32107.47
516.68	31508.29
516.85	31402.97
517.03	31899.16
517.20	31995.12
517.37	32140.24
517.54	32238.54
517.72	32212.79
517.89	32402.38
518.06	32615.37
518.24	32615.37
518.41	32116.83
518.58	32514.72
518.75	32486.64
518.93	33099.86
519.10	32753.46
519.27	33046.02
519.45	33312.84
519.62	33528.17
519.79	33151.35
519.96	33453.28
520.14	33404.13
520.31	33584.35
520.48	33497.75
520.65	33617.11
520.83	34171.82
521.00	33743.50
521.17	33785.63
521.34	33839.47
521.52	33963.51
521.69	34122.67
521.86	33986.92
522.03	34220.97
522.20	34143.74
522.38	34003.30
522.55	34712.49
522.72	34417.58
522.89	34300.55
523.07	34513.54
523.24	34562.69
523.41	34558.01
523.58	34440.98
523.75	34672.70
523.92	35021.44
524.10	35166.55
524.27	34883.34
524.44	35262.51
524.61	35173.57
524.78	35473.16
524.96	35072.93
525.13	35644.02
525.30	35337.41
525.47	35236.77
525.64	35461.46
525.81	35363.15
525.98	35398.26
526.16	35456.78
526.33	35304.64
526.50	35868.71
526.67	35337.41
526.84	35585.50
527.01	35672.10
527.18	35606.57
527.36	35882.75
527.53	35999.78
527.70	36163.62
527.87	36622.36
528.04	36484.27
528.21	35948.29
528.38	36105.10
528.55	36278.30
528.72	36971.10
528.89	36559.17
529.07	36495.97
529.24	36362.56
529.41	36458.52
529.58	36449.16
529.75	36582.57
529.92	36928.97
530.09	37156.00
530.26	37050.68
530.43	37289.42
530.60	36837.69
530.77	36992.17
530.94	37106.85
531.11	37186.43
531.28	37153.66
531.46	37303.46
531.63	37638.15
531.80	37069.40
531.97	37476.66
532.14	37818.38
532.31	37399.42
532.48	37591.34
532.65	37535.17
532.82	37937.74
532.99	37902.64
533.16	37801.99
533.33	37886.25
533.50	37846.46
533.67	37996.26
533.84	37713.05
534.01	38260.74
534.18	37675.60
534.35	38480.75
534.52	38239.67
534.69	38267.76
534.86	38340.32
535.03	38078.18
535.20	38335.63
535.37	38288.82
535.54	39026.09
535.71	38534.58
535.88	38721.82
536.05	38368.40
536.22	39208.65
536.38	38848.21
536.55	38834.17
536.72	38698.42
536.89	38267.76
537.06	38319.25
537.23	39562.08
537.40	39278.87
537.57	39311.64
537.74	39084.61
537.91	39625.27
538.08	38965.24
538.25	39232.06
538.42	39103.33
538.59	39229.72
538.75	38965.24
538.92	39269.51
539.09	39548.03
539.26	39386.54
539.43	38967.58
539.60	39426.32
539.77	39374.83
539.94	40114.44
540.11	39203.97
540.28	39634.63
540.44	39159.50
540.61	39239.08
540.78	39445.05
540.95	39646.33
541.12	39599.52
541.29	39604.20
541.46	39590.16
541.62	40226.79
541.79	40467.86
541.96	39152.48
542.13	39629.95
542.30	40102.74
542.47	40105.08
542.63	40322.75
542.80	40680.85
542.97	40170.61
543.14	40964.06
543.31	40568.51
543.48	40369.56
543.64	41109.17
543.81	40706.60
543.98	40697.24
544.15	40636.38
544.32	41029.59
544.48	41167.68
544.65	40751.07
544.82	41078.74
544.99	40594.25
545.16	41010.87
545.32	41184.07
545.49	41146.62
545.66	41258.96
545.83	41104.49
546.00	40835.33
546.16	40708.94
546.33	41233.22
546.50	40940.65
546.67	41045.97
546.83	40641.06
547.00	41226.20
547.17	41289.39
547.34	41497.70
547.50	41287.05
547.67	41567.91
547.84	41558.55
548.00	41614.72
548.17	41687.28
548.34	41797.29
548.51	42146.03
548.67	42136.66
548.84	41806.65
549.01	41874.52
549.18	41778.56
549.34	41921.34
549.51	42244.33
549.68	42040.70
549.84	42033.68
550.01	42150.71
550.18	41998.57
550.34	41928.36
550.51	41694.30
550.68	41909.63
550.84	42195.18
551.01	41986.87
551.18	41902.61
551.34	42258.37
551.51	42417.53
551.68	42012.62
551.84	42188.16
552.01	42085.17
552.18	42590.73
552.34	42075.81
552.51	42904.36
552.68	42433.91
552.84	42462.00
553.01	42990.96
553.18	42476.04
553.34	42602.43
553.51	42660.94
553.67	42845.85
553.84	43124.37
554.01	42876.27
554.17	42829.46
554.34	42630.52
554.51	42974.58
554.67	43122.03
554.84	42988.62
555.00	42536.90
555.17	42920.74
555.33	42948.83
555.50	42787.33
555.67	43030.75
555.83	43007.34
556.00	43061.18
556.16	43559.71
556.33	43578.43
556.50	42611.79
556.66	43075.22
556.83	42899.68
556.99	43358.42
557.16	43496.52
557.32	43440.34
557.49	43112.67
557.65	42946.49
557.82	43133.73
557.98	43379.49
558.15	43131.39
558.32	43405.23
558.48	43533.96
558.65	43665.03
558.81	43412.26
558.98	43299.91
559.14	43220.33
559.31	43360.76
559.47	43271.82
559.64	43863.98
559.80	43419.28
559.97	43693.12
560.13	43342.04
560.30	43391.19
560.46	43758.66
560.63	43751.63
560.79	43711.84
560.96	43906.11
561.12	43763.34
561.29	43615.88
561.45	43594.82
561.61	43620.56
561.78	43697.80
561.94	43622.90
562.11	43608.86
562.27	43353.74
562.44	43690.78
562.60	44088.67
562.77	43702.48
562.93	43997.39
563.10	44058.24
563.26	43835.89
563.42	44240.81
563.59	44175.27
563.75	43920.15
563.92	44016.11
564.08	44126.12
564.24	44243.15
564.41	44311.02
564.57	44140.16
564.74	43852.28
564.90	44573.16
565.07	44563.80
565.23	43807.81
565.39	44062.93
565.56	44589.55
565.72	43962.28
565.88	43959.94
566.05	43784.40
566.21	44198.68
566.38	44020.80
566.54	44011.43
566.70	44765.09
566.87	44800.19
567.03	44437.41
567.19	44449.11
567.36	44030.16
567.52	44219.74
567.68	44626.99
567.85	43896.75
568.01	44612.95
568.17	44130.80
568.34	44163.57
568.50	44535.71
568.66	44102.71
568.83	44516.99
568.99	44032.50
569.15	44130.80
569.32	43732.91
569.48	44140.16
569.64	44767.43
569.81	44999.14
569.97	44589.55
570.13	44299.32
570.30	44229.10
570.46	44327.41
570.62	44453.79
570.78	44383.58
570.95	44236.12
571.11	44388.26
571.27	44463.16
571.43	44367.20
571.60	44177.61
571.76	44519.33
571.92	44172.93
572.09	44402.30
572.25	44385.92
572.41	44451.45
572.57	44783.81
572.74	44727.64
572.90	44552.10
573.06	44861.05
573.22	44467.84
573.38	44687.85
573.55	44388.26
573.71	44737.00
573.87	44444.43
574.03	44194.00
574.20	44428.05
574.36	44266.55
574.52	44409.32
574.68	44959.35
574.84	44425.71
575.01	44575.50
575.17	44678.49
575.33	44304.00
575.49	44610.61
575.65	44847.00
575.82	45055.31
575.98	44371.88
576.14	44961.69
576.30	44575.50
576.46	44411.67
576.62	44423.37
576.79	44484.22
576.95	44032.50
577.11	44762.75
577.27	44851.69
577.43	44877.43
577.59	45244.90
577.75	44533.37
577.92	44299.32
578.08	44605.93
578.24	44409.32
578.40	44947.65
578.56	44470.18
578.72	44720.62
578.88	44964.03
579.04	44692.53
579.21	44711.25
579.37	44023.14
579.53	44524.01
579.69	44406.98
579.85	44685.51
580.01	44982.76
580.17	44898.50
580.33	45092.76
580.49	45106.80
580.65	44786.15
580.82	44966.37
580.98	44722.96
581.14	44294.64
581.30	44964.03
581.46	44825.94
581.62	44781.47
581.78	44744.02
581.94	44893.82
582.10	44818.92
582.26	45015.52
582.42	44786.15
582.58	44353.15
582.74	44589.55
582.90	44847.00
583.06	45151.27
583.22	44882.11
583.38	45092.76
583.54	44617.63
583.70	44818.92
583.86	44797.85
584.02	44053.56
584.18	44802.53
584.34	45041.27
584.50	44587.21
584.66	44957.01
584.82	44488.90
584.98	45052.97
585.14	44631.68
585.30	44570.82
585.46	44978.07
585.62	44587.21
585.78	44509.97
585.94	44275.91
586.10	44648.06
586.26	44566.14
586.42	44753.38
586.58	44779.13
586.74	44514.65
586.90	44961.69
587.06	44774.45
587.22	44996.80
587.38	44594.23
587.54	45181.70
587.70	45045.95
587.86	44928.92
588.02	45272.98
588.18	44851.69
588.34	44758.06
588.49	44528.69
588.65	44825.94
588.81	44252.51
588.97	44978.07
589.13	44266.55
589.29	45078.72
589.45	44837.64
589.61	44594.23
589.77	45144.25
589.93	45230.85
590.08	44868.07
590.24	45071.70
