SpectraSuite Data File
++++++++++++++++++++++++++++++++++++
Date: Fri Oct 25 11:23:45 EDT 2013
User: price-jones
Dark Spectrum Present: No
Reference Spectrum Present: No
Number of Sampled Component Spectra: 1
Spectrometers: USB2+H05261
Integration Time (usec): 100000 (USB2+H05261)
Spectra Averaged: 1 (USB2+H05261)
Boxcar Smoothing: 0 (USB2+H05261)
Correct for Electrical Dark: No (USB2+H05261)
Strobe/Lamp Enabled: No (USB2+H05261)
Correct for Detector Non-linearity: No (USB2+H05261)
Correct for Stray Light: No (USB2+H05261)
Number of Pixels in Processed Spectrum: 2048
>>>>>Begin Processed Spectral Data<<<<<
365.73	259.80
365.92	259.80
366.12	259.80
366.32	180.22
366.52	119.37
366.72	100.64
366.91	170.86
367.11	100.64
367.31	91.28
367.51	35.11
367.70	145.11
367.90	121.71
368.10	65.54
368.30	161.50
368.49	187.24
368.69	159.16
368.89	152.13
369.09	191.92
369.28	173.20
369.48	105.32
369.68	77.24
369.87	271.50
370.07	166.18
370.27	257.46
370.47	287.89
370.66	468.11
370.86	650.67
371.06	655.35
371.25	650.67
371.45	631.94
371.65	713.86
371.84	606.20
372.04	650.67
372.24	643.65
372.44	741.95
372.63	706.84
372.83	760.67
373.03	835.57
373.22	800.46
373.42	748.97
373.62	784.08
373.81	706.84
374.01	798.12
374.21	821.53
374.40	819.19
374.60	795.78
374.79	795.78
374.99	861.32
375.19	844.93
375.38	835.57
375.58	833.23
375.78	844.93
375.97	896.43
376.17	847.27
376.37	809.83
376.56	844.93
376.76	840.25
376.95	891.74
377.15	943.24
377.35	889.40
377.54	788.76
377.74	866.00
377.93	898.77
378.13	896.43
378.33	931.53
378.52	910.47
378.72	861.32
378.91	992.39
379.11	950.26
379.31	964.30
379.50	936.21
379.70	959.62
379.89	1034.52
380.09	924.51
380.28	1029.84
380.48	1004.09
380.68	990.05
380.87	954.94
381.07	978.34
381.26	990.05
381.46	1004.09
381.65	999.41
381.85	1022.81
382.04	1011.11
382.24	1090.69
382.43	1034.52
382.63	1060.26
382.83	976.00
383.02	1083.67
383.22	1097.71
383.41	1137.50
383.61	1114.10
383.80	1163.25
384.00	1114.10
384.19	1097.71
384.39	1146.86
384.58	1170.27
384.78	1071.97
384.97	1172.61
385.17	1210.06
385.36	1167.93
385.56	1142.18
385.75	1167.93
385.95	1219.42
386.14	1210.06
386.34	1100.05
386.53	1142.18
386.72	1210.06
386.92	1231.12
387.11	1228.78
387.31	1184.31
387.50	1233.46
387.70	1210.06
387.89	1270.91
388.09	1310.70
388.28	1214.74
388.48	1280.27
388.67	1270.91
388.86	1334.11
389.06	1341.13
389.25	1336.45
389.45	1336.45
389.64	1291.98
389.84	1385.60
390.03	1441.77
390.22	1394.96
390.42	1416.02
390.61	1399.64
390.81	1430.07
391.00	1366.87
391.19	1434.75
391.39	1479.22
391.58	1441.77
391.78	1500.28
391.97	1526.03
392.16	1474.54
392.36	1572.84
392.55	1458.15
392.75	1500.28
392.94	1509.65
393.13	1448.79
393.33	1568.16
393.52	1547.09
393.71	1584.54
393.91	1593.90
394.10	1563.48
394.29	1640.72
394.49	1643.06
394.68	1605.61
394.88	1710.93
395.07	1703.91
395.26	1724.97
395.46	1764.76
395.65	1708.59
395.84	1706.25
396.04	1839.66
396.23	1844.34
396.42	1748.38
396.62	1785.83
396.81	1788.17
397.00	1783.49
397.19	1811.57
397.39	1706.25
397.58	1870.09
397.77	1802.21
397.97	1846.68
398.16	1802.21
398.35	1919.24
398.55	1870.09
398.74	1867.75
398.93	1898.17
399.12	1881.79
399.32	1863.07
399.51	1966.05
399.70	2001.16
399.90	1865.41
400.09	2038.61
400.28	2036.27
400.47	2040.95
400.67	2029.24
400.86	2080.74
401.05	2136.91
401.24	2111.16
401.44	2080.74
401.63	2139.25
401.82	2195.42
402.01	2218.83
402.21	2239.89
402.40	2188.40
402.59	2275.00
402.78	2232.87
402.97	2249.25
403.17	2183.72
403.36	2211.81
403.55	2291.38
403.74	2232.87
403.93	2370.96
404.13	2427.14
404.32	2359.26
404.51	2296.07
404.70	2431.82
404.89	2385.01
405.09	2525.44
405.28	2415.43
405.47	2513.74
405.66	2448.20
405.85	2466.92
406.05	2448.20
406.24	2581.61
406.43	2586.29
406.62	2541.82
406.81	2792.26
407.00	2628.42
407.20	2630.76
407.39	2689.28
407.58	2724.38
407.77	2743.11
407.96	2642.46
408.15	2708.00
408.34	2649.49
408.54	2677.57
408.73	2670.55
408.92	2799.28
409.11	2911.63
409.30	2897.58
409.49	2818.00
409.68	2904.60
409.87	2913.97
410.07	3061.42
410.26	3061.42
410.45	3063.76
410.64	3035.67
410.83	3084.83
411.02	3068.44
411.21	3098.87
411.40	3070.78
411.59	3398.46
411.78	3187.81
411.98	3150.36
412.17	3253.34
412.36	3323.56
412.55	3339.94
412.74	3410.16
412.93	3389.10
413.12	3377.39
413.31	3674.64
413.50	3468.67
413.69	3471.01
413.88	3667.62
414.07	3714.43
414.26	3702.73
414.45	3723.79
414.64	3613.79
414.83	3686.34
415.02	3908.69
415.22	3833.80
415.41	3880.61
415.60	3932.10
415.79	3941.46
415.98	3981.25
416.17	4067.85
416.36	3964.87
416.55	4163.81
416.74	4259.78
416.93	4187.22
417.12	4224.67
417.31	4180.20
417.50	4011.68
417.69	4292.54
417.88	4353.40
418.07	4208.28
418.26	4283.18
418.45	4365.10
418.64	4463.40
418.83	4465.74
419.02	4519.57
419.21	4435.32
419.39	4475.10
419.58	4477.44
419.77	4404.89
419.96	4660.01
420.15	4437.66
420.34	4620.22
420.53	4589.79
420.72	4664.69
420.91	4706.82
421.10	4732.56
421.29	4683.41
421.48	4652.98
421.67	4690.43
421.86	4854.27
422.05	4940.87
422.24	4849.59
422.43	4788.74
422.61	4926.83
422.80	5263.86
422.99	4931.51
423.18	4945.55
423.37	5032.15
423.56	4901.08
423.75	4926.83
423.94	4807.46
424.13	4678.73
424.32	4816.82
424.50	5125.77
424.69	5048.54
424.88	5231.10
425.07	4940.87
425.26	4840.23
425.45	4947.89
425.64	4849.59
425.83	5043.85
426.01	5032.15
426.20	4992.36
426.39	5036.83
426.58	5036.83
426.77	5064.92
426.96	5160.88
427.15	5006.41
427.33	5151.52
427.52	5135.14
427.71	5273.23
427.90	5261.52
428.09	5355.15
428.28	5444.09
428.46	5401.96
428.65	5371.53
428.84	5504.94
429.03	5399.62
429.22	5219.39
429.40	5526.00
429.59	5472.17
429.78	5427.70
429.97	5341.10
430.16	5598.56
430.34	5495.58
430.53	5727.29
430.72	5633.67
430.91	5617.29
431.10	5516.64
431.28	5769.42
431.47	5839.64
431.66	5813.89
431.85	5760.06
432.03	5907.51
432.22	6120.50
432.41	6008.16
432.60	5987.09
432.79	6024.54
432.97	6061.99
433.16	6085.39
433.35	5937.94
433.54	6033.90
433.72	6078.37
433.91	6026.88
434.10	5968.37
434.28	6216.46
434.47	6312.42
434.66	6279.66
434.85	6296.04
435.03	6153.27
435.22	6333.49
435.41	6518.39
435.59	6478.60
435.78	6487.96
435.97	6321.79
436.16	6494.99
436.34	6523.07
436.53	6324.13
436.72	6635.42
436.90	6558.18
437.09	6862.45
437.28	6497.33
437.46	6602.65
437.65	6586.27
437.84	6902.24
438.02	6841.39
438.21	6668.19
438.40	6703.29
438.58	6871.81
438.77	7019.27
438.96	7061.40
439.14	7037.99
439.33	7162.04
439.52	7290.77
439.70	7117.57
439.89	7206.51
440.08	7339.92
440.26	7372.69
440.45	7281.41
440.63	7424.18
440.82	7655.89
441.01	7510.78
441.19	7595.04
441.38	7763.56
441.57	7803.35
441.75	7978.89
441.94	8006.97
442.12	7976.55
442.31	8056.12
442.50	8009.31
442.68	7929.74
442.87	8095.91
443.05	8121.66
443.24	8191.88
443.43	8152.09
443.61	8248.05
443.80	8236.35
443.98	8107.62
444.17	7864.20
444.35	8421.25
444.54	8468.06
444.73	8376.78
444.91	8212.94
445.10	8421.25
445.28	8475.08
445.47	8320.60
445.65	8278.47
445.84	8601.47
446.02	8507.85
446.21	8437.63
446.39	8442.31
446.58	8519.55
446.77	8503.17
446.95	8336.99
447.14	8531.25
447.32	8519.55
447.51	8418.91
447.69	8432.95
447.88	8760.63
448.06	8554.66
448.25	8479.76
448.43	8652.96
448.62	8400.18
448.80	8664.66
448.99	8786.37
449.17	8755.94
449.36	8814.46
449.54	8805.10
449.73	9025.11
449.91	9055.53
450.10	9046.17
450.28	8961.91
450.46	9212.35
450.65	9111.71
450.83	9231.07
451.02	9013.40
451.20	9352.78
451.39	9156.18
451.57	9102.34
451.76	9125.75
451.94	9029.79
452.13	9406.61
452.31	9336.40
452.49	9380.87
452.68	9528.32
452.86	9294.27
453.05	9635.99
453.23	9376.19
453.42	9458.10
453.60	9490.87
453.78	9561.09
453.97	9544.70
454.15	9366.82
454.34	9537.68
454.52	9764.72
454.70	9547.05
454.89	9848.97
455.07	9905.15
455.26	9645.35
455.44	10038.56
455.62	10026.86
455.81	10005.79
455.99	10012.81
456.17	10061.96
456.36	9989.41
456.54	9970.68
456.73	10328.78
456.91	10525.39
457.09	10480.92
457.28	10733.70
457.46	10417.72
457.64	10731.36
457.83	10504.32
458.01	10516.03
458.19	10876.47
458.38	10614.33
458.56	10747.74
458.74	10553.48
458.93	10925.62
459.11	10850.72
459.29	10757.10
459.48	10918.60
459.66	10597.95
459.84	10937.32
460.03	10974.77
460.21	11197.12
460.39	11152.65
460.57	11105.84
460.76	11157.33
460.94	11302.45
461.12	11337.56
461.31	11265.00
461.49	11241.59
461.67	11393.73
461.85	11274.36
462.04	11290.74
462.22	11463.94
462.40	11726.08
462.59	11681.61
462.77	11358.62
462.95	11573.95
463.13	11901.62
463.32	11576.29
463.50	11857.15
463.68	11829.07
463.86	11871.20
464.05	11604.38
464.23	11758.85
464.41	11864.18
464.59	11793.96
464.78	11969.50
464.96	12046.74
465.14	11882.90
465.32	12161.42
465.50	12166.10
465.69	12362.71
465.87	12280.79
466.05	12273.77
466.23	12016.31
466.41	12547.61
466.60	12755.92
466.78	12341.64
466.96	12257.39
467.14	12390.80
467.32	12257.39
467.51	12559.31
467.69	12360.37
467.87	12528.89
468.05	12636.55
468.23	12416.54
468.41	12444.63
468.60	12753.58
468.78	12884.65
468.96	12617.83
469.14	12929.12
469.32	13064.87
469.50	12690.38
469.69	13027.42
469.87	13085.94
470.05	13088.28
470.23	13200.62
470.41	13116.36
470.59	13270.84
470.77	13254.45
470.95	13233.39
471.14	13586.81
471.32	13224.03
471.50	13701.50
471.68	13624.26
471.86	13488.51
472.04	13731.92
472.22	14033.85
472.40	13579.79
472.58	14038.53
472.77	14326.42
472.95	14157.90
473.13	14785.16
473.31	14401.32
473.49	14181.31
473.67	14244.50
473.85	14448.13
474.03	14864.74
474.21	14728.99
474.39	14974.75
474.57	14785.16
474.75	14956.02
474.93	14981.77
475.12	15126.88
475.30	15000.49
475.48	15094.11
475.66	15316.47
475.84	15264.97
476.02	15506.05
476.20	15564.56
476.38	15690.95
476.56	15939.05
476.74	15981.18
476.92	16095.86
477.10	15679.25
477.28	16259.70
477.46	16311.19
477.64	16217.57
477.82	16659.93
478.00	17275.49
478.18	16975.91
478.36	17221.66
478.54	17158.47
478.72	17303.58
478.90	17348.05
479.08	17694.45
479.26	17886.37
479.44	17778.71
479.62	17757.64
479.80	18071.28
479.98	18291.29
480.16	18523.00
480.34	18366.18
480.52	18778.12
480.70	18630.66
480.88	18389.59
481.06	18916.21
481.24	18593.22
481.41	19412.40
481.59	19662.84
481.77	19786.89
481.95	19740.08
482.13	19604.33
482.31	19639.44
482.49	20098.18
482.67	20374.36
482.85	20769.91
483.03	20472.67
483.21	21069.50
483.39	20936.09
483.57	20896.30
483.74	21120.99
483.92	21507.18
484.10	21221.64
484.28	21582.08
484.46	22237.43
484.64	22340.41
484.82	22176.58
485.00	22567.45
485.18	22815.54
485.35	23126.83
485.53	22803.84
485.71	23304.71
485.89	23672.18
486.07	23714.31
486.25	23503.66
486.43	23831.33
486.61	24254.97
486.78	24407.11
486.96	24229.23
487.14	24889.26
487.32	24498.39
487.50	25228.63
487.68	25163.10
487.85	25434.60
488.03	25570.35
488.21	26052.50
488.39	25755.26
488.57	26345.07
488.75	25982.29
488.92	26820.20
489.10	26721.90
489.28	26939.57
489.46	27344.48
489.64	27112.77
489.81	27948.34
489.99	27826.63
490.17	28006.85
490.35	28189.41
490.53	28734.76
490.70	28566.24
490.88	28748.80
491.06	29242.65
491.24	28947.75
491.41	29230.95
491.59	29724.80
491.77	29380.74
491.95	29668.63
492.13	30050.14
492.30	29991.62
492.48	30242.06
492.66	30366.11
492.84	30553.35
493.01	30792.09
493.19	30920.82
493.37	30897.41
493.54	31337.43
493.72	31618.30
493.90	31960.02
494.08	31578.51
494.25	32196.41
494.43	32147.26
494.61	32449.19
494.79	33118.58
494.96	32058.32
495.14	33139.65
495.32	33226.24
495.49	33226.24
495.67	33345.61
495.85	33876.91
496.02	34106.29
496.20	34223.31
496.38	34373.11
496.55	34476.09
496.73	35321.02
496.91	34710.14
497.09	35147.82
497.26	35077.61
497.44	34817.81
497.62	35538.69
497.79	35908.50
497.97	35955.31
498.14	35995.10
498.32	36231.49
498.50	36278.30
498.67	36753.43
498.85	36678.54
499.03	37305.80
499.20	36938.33
499.38	37137.28
499.56	37614.75
499.73	37118.56
499.91	37951.79
500.08	38092.22
500.26	37546.87
500.44	37916.68
500.61	37942.42
500.79	37949.45
500.97	38176.48
501.14	39007.37
501.32	38843.53
501.49	39145.46
501.67	38871.62
501.84	38876.30
502.02	39058.86
502.20	38946.51
502.37	39543.35
502.55	39498.88
502.72	39585.48
502.90	40194.02
503.07	39732.93
503.25	39707.19
503.43	40299.34
503.60	40212.74
503.78	40535.74
503.95	40240.83
504.13	40870.43
504.30	40828.30
504.48	40608.29
504.65	40732.34
504.83	41020.23
505.01	41563.23
505.18	41516.42
505.36	41439.18
505.53	41090.44
505.71	42029.00
505.88	41930.70
506.06	41476.63
506.23	42621.16
506.41	41991.55
506.58	42567.32
506.76	42450.30
506.93	42581.37
507.11	42642.22
507.28	42965.21
507.46	43140.75
507.63	42876.27
507.81	43201.61
507.98	42953.51
508.16	43540.99
508.33	43990.37
508.50	43814.83
508.68	43903.77
508.85	44119.10
509.03	43973.98
509.20	44168.25
509.38	44729.98
509.55	44949.99
509.73	44875.09
509.90	44729.98
510.08	44662.10
510.25	45291.71
510.42	44650.40
510.60	45551.51
510.77	45277.66
510.95	45574.91
511.12	45216.81
511.30	45380.65
511.47	45436.82
511.64	45455.54
511.82	46146.00
511.99	45638.11
512.17	45984.51
512.34	45593.64
512.51	46333.24
512.69	46801.35
512.86	46625.81
513.04	46717.09
513.21	46822.42
513.38	47093.92
513.56	47379.46
513.73	47033.07
513.90	47131.37
514.08	47285.84
514.25	47611.18
514.43	47484.79
514.60	47517.56
514.77	47515.22
514.95	48006.73
515.12	47910.77
515.29	47674.37
515.47	47786.72
515.64	48313.34
515.81	48362.49
515.99	48453.77
516.16	48769.74
516.33	48348.45
516.51	48842.30
516.68	48648.03
516.85	48662.08
517.03	49212.10
517.20	49092.74
517.37	49102.10
517.54	49205.08
517.72	49193.38
517.89	48818.89
518.06	49287.00
518.24	49766.81
518.41	49556.16
518.58	49514.03
518.75	49324.45
518.93	49778.51
519.10	49324.45
519.27	49982.14
519.45	49834.69
519.62	49996.18
519.79	50190.45
519.96	50216.19
520.14	50539.19
520.31	50260.66
520.48	50939.42
520.65	50356.63
520.83	50539.19
521.00	51016.66
521.17	50548.55
521.34	50693.66
521.52	50925.38
521.69	51606.47
521.86	51079.85
522.03	51220.28
522.20	51468.38
522.38	51597.11
522.55	51503.49
522.72	51421.57
522.89	51606.47
523.07	51669.67
523.24	51793.71
523.41	51964.57
523.58	51578.39
523.75	51924.78
523.92	51952.87
524.10	52303.95
524.27	51863.93
524.44	52100.32
524.61	51901.38
524.78	52058.20
524.96	52303.95
525.13	52521.62
525.30	52573.11
525.47	52729.93
525.64	52708.86
525.81	52954.62
525.98	53078.67
526.16	52587.16
526.33	52509.92
526.50	53392.30
526.67	52926.53
526.84	53340.81
527.01	53036.54
527.18	52846.96
527.36	53324.43
527.53	53102.07
527.70	53663.80
527.87	53750.40
528.04	53062.29
528.21	53619.33
528.38	53698.91
528.55	53717.64
528.72	53469.54
528.89	53591.25
529.07	53588.91
529.24	53710.61
529.41	53656.78
529.58	53614.65
529.75	54054.67
529.92	54211.49
530.09	54071.06
530.26	53984.46
530.43	54005.52
530.60	54134.25
530.77	53956.37
530.94	54408.09
531.11	54358.94
531.28	54232.55
531.46	54368.30
531.63	54424.48
531.80	54658.53
531.97	54623.42
532.14	54443.20
532.31	54688.96
532.48	54695.98
532.65	54897.27
532.82	54644.49
532.99	54981.52
533.16	54656.19
533.33	54873.86
533.50	55110.25
533.67	55030.68
533.84	54843.43
534.01	54939.39
534.18	54911.31
534.35	55288.13
534.52	55236.64
534.69	55341.97
534.86	55430.91
535.03	55276.43
535.20	55409.84
535.37	55384.10
535.54	55629.85
535.71	55388.78
535.88	55587.72
536.05	55744.54
536.22	55763.26
536.38	55772.63
536.55	55594.74
536.72	55789.01
536.89	55655.60
537.06	55833.48
537.23	55934.12
537.40	56039.45
537.57	55765.60
537.74	55756.24
537.91	56072.21
538.08	56074.55
538.25	55547.93
538.42	56186.90
538.59	56158.81
538.75	56013.70
538.92	56135.41
539.09	56236.05
539.26	56397.55
539.43	56126.05
539.60	56390.53
539.77	56371.80
539.94	56575.43
540.11	56540.32
540.28	56523.94
540.44	56617.56
540.61	56500.53
540.78	56552.02
540.95	56587.13
541.12	56493.51
541.29	56573.09
541.46	56498.19
541.62	56655.01
541.79	56697.14
541.96	56624.58
542.13	56552.02
542.30	56858.63
542.47	56872.68
542.63	57038.86
542.80	57022.47
542.97	57214.40
543.14	57244.82
543.31	57310.36
543.48	57350.15
543.64	57619.31
543.81	57553.77
543.98	57593.56
544.15	57581.86
544.32	57572.50
544.48	57694.21
544.65	57542.07
544.82	57366.53
544.99	57350.15
545.16	57712.93
545.32	57476.54
545.49	57853.36
545.66	57764.42
545.83	57691.86
546.00	57858.04
546.16	57635.69
546.33	57907.19
546.50	57612.29
546.67	57806.55
546.83	57537.39
547.00	57921.24
547.17	57911.88
547.34	57965.71
547.50	58323.81
547.67	58103.80
547.84	58122.52
548.00	58129.54
548.17	58375.30
548.34	58082.73
548.51	58071.03
548.67	58230.19
548.84	58450.20
549.01	58202.10
549.18	58166.99
549.34	58485.31
549.51	58532.12
549.68	58511.05
549.84	58438.50
550.01	58333.17
550.18	58440.84
550.34	58506.37
550.51	58674.89
550.68	58543.82
550.84	58398.71
551.01	58885.54
551.18	58511.05
551.34	58796.60
551.51	58677.23
551.68	58749.79
551.84	58761.49
552.01	58590.63
552.18	58911.28
552.34	58618.72
552.51	58990.86
552.68	58663.19
552.84	58719.36
553.01	59047.04
553.18	58976.82
553.34	58939.37
553.51	58759.15
553.67	58934.69
553.84	59063.42
554.01	59084.48
554.17	59353.65
554.34	58960.44
554.51	59236.62
554.67	59030.65
554.84	59138.32
555.00	58871.49
555.17	59023.63
555.33	58981.50
555.50	59128.95
555.67	59313.86
555.83	58939.37
556.00	59351.30
556.16	59313.86
556.33	59482.37
556.50	59365.35
556.66	59620.47
556.83	59276.41
556.99	59526.84
557.16	59573.66
557.32	59552.59
557.49	59620.47
557.65	59484.72
557.82	59442.59
557.98	59606.42
558.15	59241.30
558.32	59786.64
558.48	59480.03
558.65	59718.77
558.81	59697.70
558.98	59793.67
559.14	59898.99
559.31	59781.96
559.47	59709.41
559.64	59859.20
559.80	59803.03
559.97	59997.29
560.13	59594.72
560.30	59906.01
560.46	59849.84
560.63	59898.99
560.79	60041.76
560.96	60088.57
561.12	59990.27
561.29	59957.50
561.45	60020.70
561.61	59997.29
561.78	59880.27
561.94	59896.65
562.11	59847.50
562.27	59906.01
562.44	59976.23
562.60	60151.77
562.77	59936.44
562.93	59854.52
563.10	60196.24
563.26	60177.51
563.42	60552.00
563.59	60250.07
563.75	60119.00
563.92	60079.21
564.08	60074.53
564.24	60266.45
564.41	60200.92
564.57	60275.82
564.74	60219.64
564.90	60147.09
565.07	60334.33
565.23	60214.96
565.39	60207.94
565.56	60294.54
565.72	60285.18
565.88	60233.69
566.05	60278.16
566.21	60355.39
566.38	60229.01
566.54	60413.91
566.70	60217.30
566.87	60416.25
567.03	60177.51
567.19	60636.26
567.36	60348.37
567.52	60308.58
567.68	60647.96
567.85	60498.17
568.01	60589.45
568.17	60472.42
568.34	60521.57
568.50	60519.23
568.66	60680.73
568.83	60477.10
568.99	60479.44
569.15	60378.80
569.32	60697.11
569.48	60575.40
569.64	60601.15
569.81	60594.13
569.97	60500.51
570.13	60561.36
570.30	60678.39
570.46	60631.58
570.62	60772.01
570.78	60645.62
570.95	60573.06
571.11	60779.03
571.27	60729.88
571.43	60779.03
571.60	60720.52
571.76	60795.42
571.92	60776.69
572.09	60694.77
572.25	60664.35
572.41	60769.67
572.57	60727.54
572.74	60942.87
572.90	60743.92
573.06	60659.66
573.22	60823.50
573.38	60722.86
573.55	60790.73
573.71	60830.52
573.87	60795.42
574.03	60533.28
574.20	60839.89
574.36	60657.32
574.52	60942.87
574.68	60898.40
574.84	61020.11
575.01	61041.17
575.17	60996.70
575.33	60917.12
575.49	60739.24
575.65	60874.99
575.82	61013.08
575.98	60804.78
576.14	61162.88
576.30	61027.13
576.46	60860.95
576.62	60921.80
576.79	60776.69
576.95	60774.35
577.11	60865.63
577.27	61097.34
577.43	60865.63
577.59	60898.40
577.75	60772.01
577.92	60715.84
578.08	60938.19
578.24	60683.07
578.40	61001.38
578.56	61183.94
578.72	61083.30
578.88	61193.31
579.04	61230.75
579.21	61102.03
579.37	61146.50
579.53	61109.05
579.69	60828.18
579.85	61066.92
580.01	60900.74
580.17	60783.71
580.33	61071.60
580.49	61123.09
580.65	61242.46
580.82	61085.64
580.98	60741.58
581.14	60945.21
581.30	61008.40
581.46	60968.61
581.62	61052.87
581.78	60750.94
581.94	61015.43
582.10	61069.26
582.26	60987.34
582.42	61013.08
582.58	61080.96
582.74	61024.79
582.90	61006.06
583.06	60870.31
583.22	60874.99
583.38	60872.65
583.54	60992.02
583.70	61099.68
583.86	61190.97
584.02	60910.10
584.18	61055.21
584.34	61228.41
584.50	60938.19
584.66	60772.01
584.82	60919.46
584.98	61151.18
585.14	61176.92
585.30	60900.74
585.46	61230.75
585.62	61090.32
585.78	61312.67
585.94	61034.15
586.10	61263.52
586.26	61048.19
586.42	61277.57
586.58	61226.07
586.74	61165.22
586.90	60863.29
587.06	61069.26
587.22	61181.60
587.38	61195.65
587.54	61436.72
587.70	61200.33
587.86	61254.16
588.02	61130.11
588.18	61319.70
588.34	61446.08
588.49	61113.73
