SpectraSuite Data File
++++++++++++++++++++++++++++++++++++
Date: Fri Oct 25 11:23:54 EDT 2013
User: price-jones
Dark Spectrum Present: No
Reference Spectrum Present: No
Number of Sampled Component Spectra: 1
Spectrometers: USB2+H05261
Integration Time (usec): 100000 (USB2+H05261)
Spectra Averaged: 1 (USB2+H05261)
Boxcar Smoothing: 0 (USB2+H05261)
Correct for Electrical Dark: No (USB2+H05261)
Strobe/Lamp Enabled: No (USB2+H05261)
Correct for Detector Non-linearity: No (USB2+H05261)
Correct for Stray Light: No (USB2+H05261)
Number of Pixels in Processed Spectrum: 2048
>>>>>Begin Processed Spectral Data<<<<<
365.73	198.95
365.92	198.95
366.12	198.95
366.32	135.75
366.52	180.22
366.72	145.11
366.91	126.39
367.11	117.03
367.31	117.03
367.51	131.07
367.70	105.32
367.90	205.97
368.10	102.98
368.30	131.07
368.49	119.37
368.69	191.92
368.89	154.48
369.09	147.45
369.28	147.45
369.48	173.20
369.68	180.22
369.87	191.92
370.07	231.71
370.27	222.35
370.47	283.20
370.66	589.82
370.86	650.67
371.06	615.56
371.25	704.50
371.45	608.54
371.65	739.61
371.84	608.54
372.04	681.10
372.24	770.04
372.44	688.12
372.63	744.29
372.83	774.72
373.03	737.27
373.22	706.84
373.42	840.25
373.62	734.93
373.81	788.76
374.01	835.57
374.21	786.42
374.40	828.55
374.60	858.98
374.79	788.76
374.99	805.14
375.19	812.17
375.38	854.30
375.58	807.48
375.78	915.15
375.97	866.00
376.17	940.90
376.37	805.14
376.56	887.06
376.76	882.38
376.95	835.57
377.15	912.81
377.35	898.77
377.54	903.45
377.74	875.36
377.93	910.47
378.13	919.83
378.33	954.94
378.52	931.53
378.72	887.06
378.91	936.21
379.11	994.73
379.31	964.30
379.50	997.07
379.70	1013.45
379.89	957.28
380.09	940.90
380.28	985.37
380.48	954.94
380.68	959.62
380.87	1055.58
381.07	990.05
381.26	1090.69
381.46	997.07
381.65	1029.84
381.85	973.66
382.04	1057.92
382.24	980.68
382.43	1055.58
382.63	1029.84
382.83	1088.35
383.02	1100.05
383.22	1116.44
383.41	1001.75
383.61	1081.33
383.80	1121.12
384.00	1135.16
384.19	1109.41
384.39	1170.27
384.58	1196.01
384.78	1142.18
384.97	1205.38
385.17	1294.32
385.36	1188.99
385.56	1139.84
385.75	1193.67
385.95	1196.01
386.14	1224.10
386.34	1212.40
386.53	1256.87
386.72	1186.65
386.92	1268.57
387.11	1254.53
387.31	1320.06
387.50	1247.51
387.70	1256.87
387.89	1268.57
388.09	1299.00
388.28	1331.76
388.48	1263.89
388.67	1338.79
388.86	1390.28
389.06	1252.19
389.25	1306.02
389.45	1247.51
389.64	1308.36
389.84	1343.47
390.03	1369.21
390.22	1437.09
390.42	1397.30
390.61	1434.75
390.81	1338.79
391.00	1514.33
391.19	1427.73
391.39	1411.34
391.58	1418.36
391.78	1497.94
391.97	1544.75
392.16	1497.94
392.36	1523.69
392.55	1413.68
392.75	1486.24
392.94	1413.68
393.13	1596.25
393.33	1528.37
393.52	1523.69
393.71	1554.12
393.91	1610.29
394.10	1563.48
394.29	1549.43
394.49	1537.73
394.68	1551.78
394.88	1502.62
395.07	1624.33
395.26	1577.52
395.46	1666.46
395.65	1696.89
395.84	1785.83
396.04	1830.30
396.23	1755.40
396.42	1825.62
396.62	1891.15
396.81	1783.49
397.00	1678.16
397.19	1713.27
397.39	1795.19
397.58	1856.04
397.77	1776.47
397.97	1783.49
398.16	1797.53
398.35	1827.96
398.55	1884.13
398.74	1912.22
398.93	1968.39
399.12	1912.22
399.32	1991.80
399.51	1919.24
399.70	1944.99
399.90	2024.56
400.09	2118.18
400.28	2015.20
400.47	2043.29
400.67	1998.82
400.86	2113.50
401.05	2045.63
401.24	2033.93
401.44	2118.18
401.63	2113.50
401.82	2132.23
402.01	2033.93
402.21	2141.59
402.40	2090.10
402.59	2139.25
402.78	2176.70
402.97	2197.76
403.17	2139.25
403.36	2122.87
403.55	2303.09
403.74	2380.32
403.93	2370.96
404.13	2366.28
404.32	2342.88
404.51	2366.28
404.70	2476.29
404.89	2408.41
405.09	2518.42
405.28	2478.63
405.47	2499.69
405.66	2523.10
405.85	2495.01
406.05	2565.23
406.24	2567.57
406.43	2502.03
406.62	2626.08
406.81	2724.38
407.00	2628.42
407.20	2541.82
407.39	2614.38
407.58	2705.66
407.77	2766.51
407.96	2761.83
408.15	2775.88
408.34	2626.08
408.54	2778.22
408.73	2841.41
408.92	2731.41
409.11	2956.10
409.30	2958.44
409.49	2843.75
409.68	3009.93
409.87	2862.48
410.07	2979.50
410.26	3030.99
410.45	2963.12
410.64	3084.83
410.83	3012.27
411.02	3047.38
411.21	3059.08
411.40	3087.17
411.59	3180.79
411.78	3211.22
411.98	3234.62
412.17	3206.53
412.36	3297.81
412.55	3370.37
412.74	3447.61
412.93	3522.51
413.12	3260.37
413.31	3531.87
413.50	3449.95
413.69	3459.31
413.88	3513.14
414.07	3571.66
414.26	3499.10
414.45	3719.11
414.64	3667.62
414.83	3772.94
415.02	3775.28
415.22	3770.60
415.41	3843.16
415.60	3707.41
415.79	3913.38
415.98	3960.19
416.17	4028.06
416.36	3976.57
416.55	3957.85
416.74	3978.91
416.93	4063.17
417.12	4138.07
417.31	4128.70
417.50	4091.26
417.69	4257.43
417.88	4329.99
418.07	4259.78
418.26	4381.48
418.45	4376.80
418.64	4568.73
418.83	4442.34
419.02	4341.69
419.21	4423.61
419.39	4482.13
419.58	4416.59
419.77	4475.10
419.96	4517.23
420.15	4615.54
420.34	4645.96
420.53	4669.37
420.72	4786.40
420.91	4650.64
421.10	4732.56
421.29	4865.97
421.48	4713.84
421.67	4819.16
421.86	4718.52
422.05	4828.53
422.24	4971.30
422.43	4861.29
422.61	4784.06
422.80	4901.08
422.99	4894.06
423.18	4971.30
423.37	4987.68
423.56	4971.30
423.75	5118.75
423.94	4809.80
424.13	4709.16
424.32	4821.50
424.50	5107.05
424.69	5083.64
424.88	5064.92
425.07	4964.28
425.26	4898.74
425.45	4873.00
425.64	4964.28
425.83	4826.18
426.01	5217.05
426.20	4947.89
426.39	4999.38
426.58	5090.67
426.77	4985.34
426.96	5015.77
427.15	5247.48
427.33	5235.78
427.52	5287.27
427.71	5284.93
427.90	5210.03
428.09	5383.23
428.28	5432.38
428.46	5359.83
428.65	5378.55
428.84	5540.05
429.03	5598.56
429.22	5383.23
429.40	5636.01
429.59	5570.48
429.78	5331.74
429.97	5219.39
430.16	5444.09
430.34	5568.13
430.53	5795.17
430.72	5673.46
430.91	5565.79
431.10	5537.71
431.28	5741.33
431.47	5727.29
431.66	5923.90
431.85	5699.20
432.03	5947.30
432.22	5970.71
432.41	5963.68
432.60	5919.21
432.79	5919.21
432.97	6064.33
433.16	6069.01
433.35	6017.52
433.54	6019.86
433.72	6033.90
433.91	6132.20
434.10	6104.12
434.28	6026.88
434.47	6146.25
434.66	6167.31
434.85	6356.90
435.03	6427.11
435.22	6326.47
435.41	6511.37
435.59	6487.96
435.78	6450.52
435.97	6422.43
436.16	6307.74
436.34	6359.24
436.53	6413.07
436.72	6562.86
436.90	6525.41
437.09	6572.22
437.28	6324.13
437.46	6614.35
437.65	6544.14
437.84	6712.66
438.02	6766.49
438.21	6754.79
438.40	6640.10
438.58	7005.22
438.77	7124.59
438.96	6974.80
439.14	7094.16
439.33	7138.63
439.52	7197.15
439.70	7232.26
439.89	7314.17
440.08	7258.00
440.26	7283.75
440.45	7524.82
440.63	7487.37
440.82	7569.29
441.01	7351.62
441.19	7571.63
441.38	7681.64
441.57	7620.78
441.75	7803.35
441.94	7911.01
442.12	8035.06
442.31	8184.85
442.50	8105.28
442.68	8023.36
442.87	8039.74
443.05	8175.49
443.24	8241.03
443.43	8058.46
443.61	8168.47
443.80	8439.97
443.98	8053.78
444.17	8023.36
444.35	8271.45
444.54	8336.99
444.73	8308.90
444.91	8149.75
445.10	8353.37
445.28	8269.11
445.47	8360.39
445.65	8592.11
445.84	8414.23
446.02	8470.40
446.21	8751.26
446.39	8332.31
446.58	8386.14
446.77	8351.03
446.95	8079.53
447.14	8439.97
447.32	8610.83
447.51	8435.29
447.69	8479.76
447.88	8549.98
448.06	8491.46
448.25	8549.98
448.43	8645.94
448.62	8491.46
448.80	8720.84
448.99	8912.76
449.17	8716.16
449.36	8744.24
449.54	8814.46
449.73	8830.84
449.91	9039.15
450.10	9008.72
450.28	9177.24
450.46	9146.81
450.65	9081.28
450.83	8931.48
451.02	9088.30
451.20	9095.32
451.39	9331.72
451.57	9043.83
451.76	9217.03
451.94	9252.14
452.13	9200.65
452.31	9249.80
452.49	9217.03
452.68	9364.48
452.86	9420.66
453.05	9446.40
453.23	9322.35
453.42	9394.91
453.60	9472.15
453.78	9483.85
453.97	9624.28
454.15	9556.41
454.34	9359.80
454.52	9853.66
454.70	9748.33
454.89	9804.50
455.07	9703.86
455.26	9762.37
455.44	10090.05
455.62	10066.64
455.81	9914.51
455.99	9823.23
456.17	10076.01
456.36	9982.38
456.54	10134.52
456.73	10349.85
456.91	10317.08
457.09	10307.72
457.28	10464.54
457.46	10338.15
457.64	10487.94
457.83	10387.30
458.01	10335.81
458.19	10614.33
458.38	10406.02
458.56	10789.87
458.74	10904.56
458.93	10679.86
459.11	10817.96
459.29	10869.45
459.48	10745.40
459.66	10628.37
459.84	10846.04
460.03	11023.92
460.21	11066.05
460.39	10925.62
460.57	11152.65
460.76	10960.73
460.94	11330.53
461.12	11262.66
461.31	11330.53
461.49	11084.78
461.67	11241.59
461.85	11477.99
462.04	11309.47
462.22	11527.14
462.40	11587.99
462.59	11370.32
462.77	11726.08
462.95	11529.48
463.13	11253.30
463.32	11604.38
463.50	11613.74
463.68	11936.73
463.86	11861.84
464.05	11627.78
464.23	11740.13
464.41	12095.89
464.59	11817.36
464.78	12084.19
464.96	12011.63
465.14	11892.26
465.32	12063.12
465.50	12095.89
465.69	12241.00
465.87	12170.79
466.05	12187.17
466.23	12058.44
466.41	12318.24
466.60	12884.65
466.78	12245.68
466.96	12343.99
467.14	12189.51
467.32	12428.24
467.51	12669.32
467.69	12084.19
467.87	12414.20
468.05	12561.66
468.23	12484.42
468.41	12638.89
468.60	12966.57
468.78	12938.48
468.96	12648.26
469.14	12765.28
469.32	13041.46
469.50	12477.40
469.69	12996.99
469.87	12830.82
470.05	13195.94
470.23	13385.52
470.41	12985.29
470.59	13422.97
470.77	13191.26
470.95	13401.91
471.14	13273.18
471.32	13013.38
471.50	13579.79
471.68	13476.80
471.86	13893.42
472.04	13865.33
472.22	14005.77
472.40	13965.98
472.58	14012.79
472.77	13710.86
472.95	14494.94
473.13	14317.06
473.31	14146.20
473.49	14342.80
473.67	14022.15
473.85	14705.59
474.03	14813.25
474.21	14579.20
474.39	14642.39
474.57	14853.04
474.75	15070.71
474.93	14899.85
475.12	14860.06
475.30	15234.55
475.48	15077.73
475.66	15295.40
475.84	15367.96
476.02	15452.22
476.20	15623.08
476.38	15669.89
476.56	15925.00
476.74	15709.68
476.92	15695.63
477.10	15716.70
477.28	16236.30
477.46	16212.89
477.64	16411.84
477.82	16549.93
478.00	17219.32
478.18	16901.01
478.36	16936.12
478.54	17294.22
478.72	17364.43
478.90	17429.97
479.08	17743.60
479.26	17991.70
479.44	17680.41
479.62	17872.33
479.80	18022.12
479.98	18335.76
480.16	18569.81
480.34	18148.51
480.52	18558.11
480.70	18733.65
480.88	18551.09
481.06	18944.30
481.24	18883.44
481.41	19204.10
481.59	19428.79
481.77	19461.55
481.95	19613.69
482.13	19686.25
482.31	19597.31
482.49	20056.05
482.67	20245.63
482.85	20297.13
483.03	20627.14
483.21	20657.57
483.39	20954.82
483.57	20917.37
483.74	21177.17
483.92	21607.83
484.10	21198.23
484.28	21673.36
484.46	21729.53
484.64	22721.92
484.82	22394.25
485.00	22445.74
485.18	22820.22
485.35	22925.55
485.53	22869.37
485.71	23197.05
485.89	23484.94
486.07	23236.84
486.25	23269.61
486.43	23772.82
486.61	23901.55
486.78	24063.05
486.96	24451.58
487.14	24723.08
487.32	24657.54
487.50	24800.32
487.68	24950.11
487.85	25369.07
488.03	25422.90
488.21	25895.69
488.39	25750.57
488.57	26277.19
488.75	26490.18
488.92	26422.31
489.10	26536.99
489.28	26630.62
489.46	26958.29
489.64	27124.47
489.81	27655.77
489.99	27709.60
490.17	28009.19
490.35	28407.08
490.53	28381.34
490.70	28432.83
490.88	28140.26
491.06	28709.01
491.24	28875.19
491.41	29015.62
491.59	29696.72
491.77	29177.12
491.95	29928.43
492.13	29713.10
492.30	30127.38
492.48	30211.64
492.66	30136.74
492.84	29895.66
493.01	30726.55
493.19	30747.62
493.37	31033.16
493.54	31433.39
493.72	31632.34
493.90	31805.54
494.08	31840.65
494.25	32030.23
494.43	32140.24
494.61	32322.80
494.79	32816.65
494.96	32692.60
495.14	32711.33
495.32	33099.86
495.49	33352.63
495.67	33432.21
495.85	33633.50
496.02	34108.63
496.20	34281.83
496.38	34024.37
496.55	34232.68
496.73	34810.79
496.91	34843.56
497.09	35030.80
497.26	34834.19
497.44	34965.26
497.62	35332.73
497.79	35835.94
497.97	35409.96
498.14	35981.06
498.32	36582.57
498.50	36060.63
498.67	36753.43
498.85	36404.69
499.03	36517.04
499.20	36598.96
499.38	36634.06
499.56	36973.44
499.73	37675.60
499.91	37212.18
500.08	37813.70
500.26	37507.08
500.44	37949.45
500.61	37874.55
500.79	37729.44
500.97	38443.30
501.14	38398.83
501.32	38752.25
501.49	38632.88
501.67	38649.27
501.84	39058.86
502.02	39091.63
502.20	39077.58
502.37	39325.68
502.55	39351.43
502.72	39512.92
502.90	39765.70
503.07	39608.89
503.25	39742.30
503.43	39812.51
503.60	40044.23
503.78	40252.53
503.95	40280.62
504.13	40463.18
504.30	40758.09
504.48	40509.99
504.65	40844.69
504.83	41053.00
505.01	41514.08
505.18	41399.40
505.36	41532.81
505.53	41418.12
505.71	41579.62
505.88	41612.38
506.06	41823.03
506.23	42246.67
506.41	41745.80
506.58	41977.51
506.76	42487.74
506.93	42380.08
507.11	42801.38
507.28	42246.67
507.46	42632.86
507.63	42536.90
507.81	43044.79
507.98	43236.72
508.16	42986.28
508.33	43426.30
508.50	43438.00
508.68	43440.34
508.85	43838.23
509.03	44198.68
509.20	44100.37
509.38	44460.82
509.55	44638.70
509.73	44626.99
509.90	44610.61
510.08	44729.98
510.25	44947.65
510.42	44959.35
510.60	44865.73
510.77	45205.11
510.95	45607.68
511.12	44905.52
511.30	45614.70
511.47	45668.53
511.64	45408.73
511.82	45937.69
511.99	45661.51
512.17	46263.03
512.34	45825.35
512.51	46656.24
512.69	46443.25
512.86	46344.95
513.04	46773.27
513.21	46770.93
513.38	46972.21
513.56	46981.57
513.73	46953.49
513.90	47206.26
514.08	47143.07
514.25	47213.29
514.43	47430.96
514.60	47297.55
514.77	47271.80
514.95	47950.56
515.12	47690.76
515.29	47545.64
515.47	47945.87
515.64	48301.64
515.81	47697.78
515.99	48404.62
516.16	48313.34
516.33	48362.49
516.51	48994.43
516.68	47995.03
516.85	48774.42
517.03	49031.88
517.20	49205.08
517.37	48830.60
517.54	49240.19
517.72	49169.97
517.89	49186.36
518.06	49205.08
518.24	49006.14
518.41	49263.60
518.58	49738.72
518.75	49434.45
518.93	49656.81
519.10	49509.35
519.27	49696.59
519.45	49745.75
519.62	50010.23
519.79	49705.96
519.96	49900.22
520.14	50248.96
520.31	50052.36
520.48	50604.72
520.65	50087.46
520.83	50550.89
521.00	51084.53
521.17	51063.47
521.34	50756.86
521.52	50946.44
521.69	50944.10
521.86	51021.34
522.03	50908.99
522.20	51381.78
522.38	51564.34
522.55	51138.36
522.72	51559.66
522.89	51215.60
523.07	51594.77
523.24	51725.84
523.41	51700.09
523.58	51447.32
523.75	52114.37
523.92	52163.52
524.10	51746.90
524.27	52189.27
524.44	52156.50
524.61	52367.15
524.78	52271.18
524.96	52294.59
525.13	52229.05
525.30	52568.43
525.47	52790.78
525.64	52399.91
525.81	52605.88
525.98	52989.73
526.16	52533.32
526.33	52872.70
526.50	52945.26
526.67	52802.49
526.84	52750.99
527.01	52947.60
527.18	53151.23
527.36	53066.97
527.53	53378.26
527.70	53425.07
527.87	53291.66
528.04	53631.04
528.21	53539.75
528.38	53485.92
528.55	53607.63
528.72	53621.67
528.89	53525.71
529.07	53347.83
529.24	53600.61
529.41	53593.59
529.58	53806.58
529.75	53645.08
529.92	53626.35
530.09	53893.18
530.26	54080.42
530.43	53991.48
530.60	54047.65
530.77	53897.86
530.94	54422.14
531.11	53963.39
531.28	54358.94
531.46	54382.35
531.63	54384.69
531.80	54258.30
531.97	54335.54
532.14	54651.51
532.31	54532.14
532.48	54557.89
532.65	54663.21
532.82	54513.42
532.99	54747.47
533.16	54567.25
533.33	54714.70
533.50	54937.05
533.67	54918.33
533.84	54834.07
534.01	54932.37
534.18	55040.04
534.35	55171.11
534.52	55199.19
534.69	55164.09
534.86	55533.89
535.03	55264.73
535.20	55248.35
535.37	55407.50
535.54	55714.11
535.71	55187.49
535.88	55573.68
536.05	55484.74
536.22	55681.34
536.38	55718.79
536.55	55695.39
536.72	55847.52
536.89	55604.11
537.06	55798.37
537.23	55817.10
537.40	55693.05
537.57	55627.51
537.74	55833.48
537.91	56149.45
538.08	55739.86
538.25	55924.76
538.42	55990.30
538.59	56285.20
538.75	55835.82
538.92	56229.03
539.09	56484.15
539.26	56198.60
539.43	56177.54
539.60	56238.39
539.77	56236.05
539.94	56495.85
540.11	56357.76
540.28	56528.62
540.44	56610.54
540.61	56608.20
540.78	56336.69
540.95	56172.86
541.12	56332.01
541.29	56287.54
541.46	56647.99
541.62	56612.88
541.79	56793.10
541.96	56364.78
542.13	56678.41
542.30	56568.41
542.47	56844.59
542.63	56870.34
542.80	56800.12
542.97	57116.09
543.14	57242.48
543.31	57317.38
543.48	57233.12
543.64	57574.84
543.81	57167.58
543.98	57539.73
544.15	57116.09
544.32	57602.92
544.48	57691.86
544.65	57261.21
544.82	57647.39
544.99	57249.50
545.16	57504.62
545.32	57340.78
545.49	57497.60
545.66	57724.63
545.83	57738.68
546.00	58094.44
546.16	57766.76
546.33	57546.75
546.50	57659.10
546.67	57602.92
546.83	57642.71
547.00	57783.15
547.17	57865.06
547.34	57787.83
547.50	57944.64
547.67	58085.07
547.84	57993.79
548.00	58234.87
548.17	58333.17
548.34	58157.63
548.51	58181.04
548.67	58431.47
548.84	58300.40
549.01	58094.44
549.18	58302.74
549.34	58405.73
549.51	58497.01
549.68	58356.58
549.84	58342.53
550.01	58447.86
550.18	58384.66
550.34	58595.31
550.51	58356.58
550.68	58599.99
550.84	58213.80
551.01	58536.80
551.18	58571.91
551.34	58651.48
551.51	58539.14
551.68	58841.07
551.84	58738.08
552.01	58609.35
552.18	58569.57
552.34	58405.73
552.51	58857.45
552.68	58543.82
552.84	58747.45
553.01	58976.82
553.18	58857.45
553.34	58927.67
553.51	58763.83
553.67	58749.79
553.84	59243.64
554.01	58997.88
554.17	59089.16
554.34	59084.48
554.51	59337.26
554.67	59166.40
554.84	59047.04
555.00	59072.78
555.17	59025.97
555.33	58995.54
555.50	58848.09
555.67	59210.87
555.83	59128.95
556.00	59257.68
556.16	59379.39
556.33	59339.60
556.50	59313.86
556.66	59245.98
556.83	58969.80
556.99	59538.55
557.16	59643.87
557.32	59784.30
557.49	59641.53
557.65	59477.69
557.82	59367.69
557.98	59487.06
558.15	59372.37
558.32	59543.23
558.48	59454.29
558.65	59566.63
558.81	59732.81
558.98	59700.04
559.14	59664.94
559.31	59777.28
559.47	59753.88
559.64	59695.36
559.80	59845.16
559.97	60027.72
560.13	59718.77
560.30	59810.05
560.46	59814.73
560.63	59693.02
560.79	59765.58
560.96	60081.55
561.12	59934.10
561.29	59641.53
561.45	59997.29
561.61	59793.67
561.78	59817.07
561.94	59810.05
562.11	59866.22
562.27	59866.22
562.44	59856.86
562.60	60186.88
562.77	60044.10
562.93	59831.11
563.10	60168.15
563.26	59929.42
563.42	60144.75
563.59	59969.21
563.75	60086.23
563.92	59898.99
564.08	60107.30
564.24	60203.26
564.41	60051.12
564.57	59987.93
564.74	60048.78
564.90	60327.31
565.07	60144.75
565.23	60156.45
565.39	60168.15
565.56	60336.67
565.72	60324.97
565.88	60343.69
566.05	60182.19
566.21	60137.72
566.38	60177.51
566.54	60341.35
566.70	60348.37
566.87	60425.61
567.03	60250.07
567.19	60509.87
567.36	60322.63
567.52	60303.90
567.68	60626.90
567.85	60453.70
568.01	60505.19
568.17	60397.52
568.34	60554.34
568.50	60444.33
568.66	60334.33
568.83	60395.18
568.99	60320.29
569.15	60533.28
569.32	60430.29
569.48	60327.31
569.64	60575.40
569.81	60381.14
569.97	60533.28
570.13	60495.83
570.30	60346.03
570.46	60519.23
570.62	60554.34
570.78	60662.00
570.95	60547.32
571.11	60811.80
571.27	60540.30
571.43	60493.49
571.60	60631.58
571.76	60647.96
571.92	60898.40
572.09	60638.60
572.25	60523.91
572.41	60437.31
572.57	60687.75
572.74	60842.23
572.90	60743.92
573.06	60631.58
573.22	60755.63
573.38	60713.50
573.55	60858.61
573.71	60720.52
573.87	60711.16
574.03	60652.64
574.20	60800.10
574.36	60816.48
574.52	60933.51
574.68	60809.46
574.84	60835.20
575.01	60704.13
575.17	60722.86
575.33	60788.39
575.49	60479.44
575.65	60650.30
575.82	60797.76
575.98	60835.20
576.14	60959.25
576.30	61010.74
576.46	60842.23
576.62	61099.68
576.79	60870.31
576.95	60725.20
577.11	60989.68
577.27	60994.36
577.43	60865.63
577.59	60708.82
577.75	61066.92
577.92	60748.60
578.08	60889.04
578.24	60825.84
578.40	61052.87
578.56	60968.61
578.72	60961.59
578.88	61048.19
579.04	61095.00
579.21	60940.53
579.37	60989.68
579.53	61106.71
579.69	60795.42
579.85	60800.10
580.01	60851.59
580.17	60734.56
580.33	61123.09
580.49	61055.21
580.65	60928.83
580.82	60863.29
580.98	61059.90
581.14	60718.18
581.30	61031.81
581.46	60942.87
581.62	60776.69
581.78	60800.10
581.94	61062.24
582.10	60886.70
582.26	60898.40
582.42	60889.04
582.58	60807.12
582.74	61092.66
582.90	60949.89
583.06	60701.79
583.22	60938.19
583.38	60931.17
583.54	60842.23
583.70	61038.83
583.86	61144.16
584.02	60891.38
584.18	61076.28
584.34	61251.82
584.50	61162.88
584.66	60828.18
584.82	60809.46
584.98	61209.69
585.14	61001.38
585.30	61062.24
585.46	61015.43
585.62	61106.71
585.78	61151.18
585.94	60786.05
586.10	61137.13
586.26	61200.33
586.42	61099.68
586.58	60985.00
586.74	61169.90
586.90	61076.28
587.06	60985.00
587.22	61106.71
587.38	61015.43
587.54	61410.98
587.70	61293.95
587.86	61207.35
588.02	61134.79
588.18	61553.75
588.34	61113.73
588.49	61099.68
