SpectraSuite Data File
++++++++++++++++++++++++++++++++++++
Date: Fri Oct 25 10:43:30 EDT 2013
User: price-jones
Dark Spectrum Present: No
Reference Spectrum Present: No
Number of Sampled Component Spectra: 1
Spectrometers: USB2+H05261
Integration Time (usec): 100000 (USB2+H05261)
Spectra Averaged: 1 (USB2+H05261)
Boxcar Smoothing: 0 (USB2+H05261)
Correct for Electrical Dark: No (USB2+H05261)
Strobe/Lamp Enabled: No (USB2+H05261)
Correct for Detector Non-linearity: No (USB2+H05261)
Correct for Stray Light: No (USB2+H05261)
Number of Pixels in Processed Spectrum: 2048
>>>>>Begin Processed Spectral Data<<<<<
365.73	84.26
365.92	84.26
366.12	84.26
366.32	58.51
366.52	39.79
366.72	65.54
366.91	0.00
367.11	37.45
367.31	23.41
367.51	23.41
367.70	0.00
367.90	44.47
368.10	67.88
368.30	0.00
368.49	0.00
368.69	56.17
368.89	0.00
369.09	53.83
369.28	126.39
369.48	79.58
369.68	74.90
369.87	28.09
370.07	86.60
370.27	119.37
370.47	201.29
370.66	381.51
370.86	444.70
371.06	491.51
371.25	477.47
371.45	498.53
371.65	477.47
371.84	472.79
372.04	430.66
372.24	498.53
372.44	491.51
372.63	477.47
372.83	416.62
373.03	524.28
373.22	472.79
373.42	540.66
373.62	475.13
373.81	573.43
374.01	519.60
374.21	561.73
374.40	627.26
374.60	571.09
374.79	578.11
374.99	489.17
375.19	514.92
375.38	636.63
375.58	634.29
375.78	568.75
375.97	585.13
376.17	683.44
376.37	620.24
376.56	610.88
376.76	617.90
376.95	667.05
377.15	622.58
377.35	671.73
377.54	688.12
377.74	629.60
377.93	613.22
378.13	655.35
378.33	678.76
378.52	674.07
378.72	737.27
378.91	624.92
379.11	692.80
379.31	697.48
379.50	746.63
379.70	795.78
379.89	725.57
380.09	669.39
380.28	676.41
380.48	627.26
380.68	767.70
380.87	650.67
381.07	702.16
381.26	720.88
381.46	709.18
381.65	760.67
381.85	699.82
382.04	667.05
382.24	737.27
382.43	814.51
382.63	685.78
382.83	732.59
383.02	697.48
383.22	678.76
383.41	636.63
383.61	718.54
383.80	744.29
384.00	753.65
384.19	725.57
384.39	716.20
384.58	809.83
384.78	819.19
384.97	819.19
385.17	763.01
385.36	847.27
385.56	830.89
385.75	772.38
385.95	802.80
386.14	835.57
386.34	751.31
386.53	793.44
386.72	858.98
386.92	844.93
387.11	861.32
387.31	912.81
387.50	791.10
387.70	880.04
387.89	809.83
388.09	840.25
388.28	938.55
388.48	873.02
388.67	880.04
388.86	896.43
389.06	922.17
389.25	873.02
389.45	896.43
389.64	933.87
389.84	983.02
390.03	847.27
390.22	1032.18
390.42	999.41
390.61	994.73
390.81	1088.35
391.00	1053.24
391.19	1107.07
391.39	1123.46
391.58	1055.58
391.78	1055.58
391.97	1025.15
392.16	1053.24
392.36	1172.61
392.55	1067.28
392.75	1032.18
392.94	959.62
393.13	1043.88
393.33	994.73
393.52	929.19
393.71	1081.33
393.91	1088.35
394.10	1102.39
394.29	1109.41
394.49	1125.80
394.68	1212.40
394.88	1167.93
395.07	1172.61
395.26	1242.82
395.46	1270.91
395.65	1174.95
395.84	1165.59
396.04	1313.04
396.23	1125.80
396.42	1221.76
396.62	1193.67
396.81	1235.80
397.00	1203.04
397.19	1306.02
397.39	1263.89
397.58	1331.76
397.77	1404.32
397.97	1420.71
398.16	1430.07
398.35	1467.52
398.55	1401.98
398.74	1479.22
398.93	1533.05
399.12	1451.13
399.32	1455.81
399.51	1535.39
399.70	1586.88
399.90	1458.15
400.09	1563.48
400.28	1579.86
400.47	1504.96
400.67	1668.80
400.86	1607.95
401.05	1727.32
401.24	1612.63
401.44	1715.61
401.63	1689.87
401.82	1797.53
402.01	1629.01
402.21	1790.51
402.40	1713.27
402.59	1727.32
402.78	1774.13
402.97	1762.42
403.17	1795.19
403.36	1771.79
403.55	1671.14
403.74	1858.39
403.93	1900.52
404.13	1870.09
404.32	1842.00
404.51	1879.45
404.70	1926.26
404.89	1921.58
405.09	1966.05
405.28	1933.28
405.47	2043.29
405.66	1984.77
405.85	1900.52
406.05	1970.73
406.24	2033.93
406.43	2097.12
406.62	2008.18
406.81	2207.13
407.00	2003.50
407.20	2001.16
407.39	2073.71
407.58	2090.10
407.77	2155.63
407.96	2244.57
408.15	2232.87
408.34	2256.28
408.54	2279.68
408.73	2263.30
408.92	2218.83
409.11	2354.58
409.30	2321.81
409.49	2265.64
409.68	2270.32
409.87	2160.31
410.07	2380.32
410.26	2370.96
410.45	2289.04
410.64	2373.30
410.83	2527.78
411.02	2476.29
411.21	2511.39
411.40	2635.44
411.59	2509.05
411.78	2705.66
411.98	2558.21
412.17	2675.23
412.36	2703.32
412.55	2726.72
412.74	2764.17
412.93	2686.94
413.12	2679.91
413.31	2867.16
413.50	2787.58
413.69	2869.50
413.88	2937.37
414.07	2888.22
414.26	2883.54
414.45	2991.20
414.64	2935.03
414.83	2890.56
415.02	3049.72
415.22	3138.66
415.41	3169.09
415.60	3155.04
415.79	3194.83
415.98	3124.62
416.17	3201.85
416.36	3178.45
416.55	3290.79
416.74	3229.94
416.93	3304.84
417.12	3339.94
417.31	3164.40
417.50	3356.33
417.69	3454.63
417.88	3447.61
418.07	3492.08
418.26	3471.01
418.45	3332.92
418.64	3473.36
418.83	3499.10
419.02	3524.85
419.21	3625.49
419.39	3473.36
419.58	3590.38
419.77	3508.46
419.96	3632.51
420.15	3707.41
420.34	3606.77
420.53	3674.64
420.72	3801.03
420.91	3871.25
421.10	3918.06
421.29	3803.37
421.48	3730.81
421.67	3831.46
421.86	3784.65
422.05	3693.37
422.24	3742.52
422.43	3791.67
422.61	3901.67
422.80	3936.78
422.99	3964.87
423.18	3857.20
423.37	4042.11
423.56	3939.12
423.75	3967.21
423.94	3988.27
424.13	3522.51
424.32	3719.11
424.50	3840.82
424.69	3943.80
424.88	4107.64
425.07	3796.35
425.26	3758.90
425.45	3936.78
425.64	3911.04
425.83	4007.00
426.01	4011.68
426.20	4044.45
426.39	3873.59
426.58	3899.33
426.77	3978.91
426.96	4079.55
427.15	4098.28
427.33	4079.55
427.52	4014.02
427.71	4084.23
427.90	4093.60
428.09	4063.17
428.28	4142.75
428.46	4102.96
428.65	4035.08
428.84	4299.56
429.03	4257.43
429.22	3950.82
429.40	4234.03
429.59	4077.21
429.78	3988.27
429.97	3847.84
430.16	3992.95
430.34	4025.72
430.53	4201.26
430.72	4170.83
430.91	4236.37
431.10	4259.78
431.28	4484.47
431.47	4568.73
431.66	4554.68
431.85	4395.53
432.03	4624.90
432.22	4791.08
432.41	4622.56
432.60	4599.15
432.79	4603.83
432.97	4645.96
433.16	4660.01
433.35	4652.98
433.54	4592.13
433.72	4484.47
433.91	4671.71
434.10	4601.49
434.28	4774.69
434.47	4809.80
434.66	5022.79
434.85	4889.38
435.03	4924.49
435.22	4938.53
435.41	5053.22
435.59	5104.71
435.78	5043.85
435.97	5144.50
436.16	5181.95
436.34	5184.29
436.53	5174.92
436.72	5301.31
436.90	5064.92
437.09	5111.73
437.28	5184.29
437.46	5067.26
437.65	5060.24
437.84	4931.51
438.02	5081.30
438.21	5083.64
438.40	4936.19
438.58	5458.13
438.77	5448.77
438.96	5406.64
439.14	5509.62
439.33	5486.22
439.52	5497.92
439.70	5666.44
439.89	5612.60
440.08	5631.33
440.26	5636.01
440.45	5633.67
440.63	5839.64
440.82	6024.54
441.01	5994.11
441.19	6073.69
441.38	5959.00
441.57	6061.99
441.75	6207.10
441.94	6214.12
442.12	6099.44
442.31	6392.00
442.50	6183.70
442.68	6249.23
442.87	6368.60
443.05	6359.24
443.24	6490.31
443.43	6310.08
443.61	6502.01
443.80	6677.55
443.98	6319.45
444.17	6434.13
444.35	6403.71
444.54	6527.75
444.73	6614.35
444.91	6588.61
445.10	6431.79
445.28	6298.38
445.47	6303.06
445.65	6399.02
445.84	6424.77
446.02	6520.73
446.21	6462.22
446.39	6541.80
446.58	6656.48
446.77	6583.93
446.95	6565.20
447.14	6967.77
447.32	6647.12
447.51	6796.92
447.69	6551.16
447.88	6576.91
448.06	6707.98
448.25	6759.47
448.43	6813.30
448.62	6696.27
448.80	6546.48
448.99	6920.96
449.17	6871.81
449.36	6796.92
449.54	6759.47
449.73	7110.55
449.91	7173.74
450.10	7269.70
450.28	7250.98
450.46	7173.74
450.65	7213.53
450.83	7143.32
451.02	7096.50
451.20	7190.13
451.39	7112.89
451.57	7101.19
451.76	7220.55
451.94	7117.57
452.13	7204.17
452.31	7063.74
452.49	7066.08
452.68	7262.68
452.86	7213.53
453.05	7166.72
453.23	7426.52
453.42	7126.93
453.60	7269.70
453.78	7302.47
453.97	7419.50
454.15	7297.79
454.34	7475.67
454.52	7611.42
454.70	7499.08
454.89	7421.84
455.07	7606.74
455.26	7557.59
455.44	7826.75
455.62	7494.40
455.81	7630.15
455.99	7817.39
456.17	7894.63
456.36	7793.98
456.54	7871.22
456.73	7918.03
456.91	8114.64
457.09	8058.46
457.28	8116.98
457.46	8016.33
457.64	8028.04
457.83	7922.71
458.01	8079.53
458.19	8205.92
458.38	8070.17
458.56	8166.13
458.74	8156.77
458.93	8187.19
459.11	8210.60
459.29	8109.96
459.48	8421.25
459.66	8463.38
459.84	8269.11
460.03	8568.70
460.21	8547.64
460.39	8465.72
460.57	8315.92
460.76	8388.48
460.94	8767.65
461.12	8411.89
461.31	8608.49
461.49	8671.68
461.67	8685.73
461.85	8751.26
462.04	8624.87
462.22	9266.18
462.40	8837.86
462.59	8842.54
462.77	8865.95
462.95	8971.27
463.13	8858.93
463.32	8739.56
463.50	8952.55
463.68	8915.10
463.86	8929.14
464.05	8854.25
464.23	8898.72
464.41	8924.46
464.59	8760.63
464.78	9310.65
464.96	8910.42
465.14	8816.80
465.32	8987.66
465.50	9195.96
465.69	9535.34
465.87	9013.40
466.05	9156.18
466.23	9064.89
466.41	9231.07
466.60	9331.72
466.78	9036.81
466.96	9195.96
467.14	9329.38
467.32	9228.73
467.51	9469.81
467.69	9139.79
467.87	9261.50
468.05	9355.12
468.23	9446.40
468.41	9425.34
468.60	9411.29
468.78	9476.83
468.96	9394.91
469.14	9631.30
469.32	9678.12
469.50	9294.27
469.69	9547.05
469.87	9682.80
470.05	9776.42
470.23	9738.97
470.41	9865.36
470.59	9919.19
470.77	9540.02
470.95	9930.89
471.14	10141.54
471.32	9778.76
471.50	10232.82
471.68	9954.30
471.86	10422.41
472.04	10148.56
472.22	10483.26
472.40	10490.28
472.58	10499.64
472.77	10415.38
472.95	10633.05
473.13	11014.56
473.31	10436.45
473.49	10424.75
473.67	10555.82
473.85	10691.57
474.03	11110.52
474.21	10752.42
474.39	10986.47
474.57	10867.11
474.75	11215.85
474.93	10904.56
475.12	11068.39
475.30	11166.70
475.48	11143.29
475.66	11248.61
475.84	11295.43
476.02	11405.43
476.20	11243.93
476.38	11658.21
476.56	11721.40
476.74	11822.05
476.92	11726.08
477.10	11651.19
477.28	12098.23
477.46	12004.61
477.64	12276.11
477.82	12208.23
478.00	12559.31
478.18	12400.16
478.36	12404.84
478.54	12641.23
478.72	12725.49
478.90	13027.42
479.08	12917.42
479.26	12999.34
479.44	12931.46
479.62	13104.66
479.80	13057.85
479.98	13308.29
480.16	13823.20
480.34	13650.00
480.52	13572.77
480.70	13542.34
480.88	13638.30
481.06	13928.53
481.24	14045.55
481.41	14064.28
481.59	14228.12
481.77	14424.72
481.95	14237.48
482.13	14354.51
482.31	14235.14
482.49	14717.29
482.67	14668.14
482.85	14834.32
483.03	15012.20
483.21	15367.96
483.39	15414.77
483.57	15360.94
483.74	15129.22
483.92	15314.13
484.10	15716.70
484.28	15946.07
484.46	16011.60
484.64	16126.29
484.82	16011.60
485.00	15955.43
485.18	16423.54
485.35	16407.16
485.53	16212.89
485.71	16114.59
485.89	16292.47
486.07	16276.09
486.25	16554.61
486.43	16788.66
486.61	16992.29
486.78	17050.80
486.96	17404.22
487.14	17582.10
487.32	17628.92
487.50	17989.36
487.68	18078.30
487.85	18017.44
488.03	18349.80
488.21	18476.19
488.39	18401.29
488.57	18663.43
488.75	18778.12
488.92	19147.92
489.10	19157.28
489.28	19248.57
489.46	19536.45
489.64	19545.81
489.81	19932.00
489.99	20276.06
490.17	19953.07
490.35	19934.34
490.53	20034.99
490.70	20460.96
490.88	20135.63
491.06	20847.15
491.24	20741.83
491.41	20411.81
491.59	20606.08
491.77	20730.12
491.95	21060.14
492.13	21270.79
492.30	21596.12
492.48	21247.38
492.66	21750.60
492.84	21467.39
493.01	21827.84
493.19	21991.67
493.37	22375.52
493.54	22317.01
493.72	22361.48
493.90	22518.29
494.08	22799.16
494.25	23016.83
494.43	22656.39
494.61	23503.66
494.79	23342.16
494.96	23300.03
495.14	23669.84
495.32	23316.42
495.49	23351.52
495.67	23513.02
495.85	24039.64
496.02	24079.43
496.20	24144.97
496.38	24526.47
496.55	24556.90
496.73	24877.55
496.91	24847.13
497.09	24973.52
497.26	24996.92
497.44	25043.73
497.62	24673.93
497.79	25287.15
497.97	24961.81
498.14	25200.55
498.32	25366.73
498.50	25853.56
498.67	25977.61
498.85	25734.19
499.03	25708.44
499.20	25881.64
499.38	25947.18
499.56	26181.23
499.73	26422.31
499.91	26586.15
500.08	26529.97
500.26	26408.26
500.44	26368.48
500.61	26705.51
500.79	26635.30
500.97	26656.36
501.14	26927.86
501.32	27335.12
501.49	27009.78
501.67	27122.13
501.84	27159.58
502.02	27627.68
502.20	27283.62
502.37	27974.08
502.55	27913.23
502.72	27927.27
502.90	27653.43
503.07	27583.21
503.25	27662.79
503.43	27812.59
503.60	28013.87
503.78	28009.19
503.95	27772.80
504.13	28250.27
504.30	28498.36
504.48	28765.18
504.65	28577.94
504.83	28882.21
505.01	28723.05
505.18	28545.17
505.36	29237.97
505.53	29027.32
505.71	29476.71
505.88	29806.72
506.06	29106.90
506.23	29116.26
506.41	29610.12
506.58	29612.46
506.76	29788.00
506.93	30033.75
507.11	29614.80
507.28	29685.01
507.46	29764.59
507.63	29900.34
507.81	29727.14
507.98	29802.04
508.16	30148.44
508.33	30560.37
508.50	30522.93
508.68	30480.80
508.85	31358.50
509.03	30597.82
509.20	30646.97
509.38	30923.16
509.55	30916.14
509.73	30871.67
509.90	30731.23
510.08	31241.47
510.25	30857.62
510.42	31290.62
510.60	31569.15
510.77	31784.48
510.95	32072.36
511.12	31662.77
511.30	32002.14
511.47	32205.77
511.64	32318.12
511.82	32158.96
511.99	32093.43
512.17	31880.44
512.34	31873.42
512.51	32615.37
512.69	32180.03
512.86	32589.62
513.04	32783.88
513.21	32772.18
513.38	32460.89
513.56	32858.78
513.73	32627.07
513.90	32655.15
514.08	32947.72
514.25	32753.46
514.43	33057.73
514.60	32465.57
514.77	33057.73
514.95	33406.47
515.12	33427.53
515.29	33259.01
515.47	33511.79
515.64	33708.40
515.81	33399.44
515.99	33357.32
516.16	33357.32
516.33	33490.73
516.51	33448.60
516.68	33041.34
516.85	33013.26
517.03	33228.59
517.20	33860.53
517.37	33888.62
517.54	34260.76
517.72	34227.99
517.89	33242.63
518.06	33661.58
518.24	34054.79
518.41	33965.85
518.58	33989.26
518.75	34195.23
518.93	34663.33
519.10	34389.49
519.27	34553.33
519.45	34710.14
519.62	34991.01
519.79	35140.80
519.96	35381.88
520.14	35257.83
520.31	34920.79
520.48	35164.21
520.65	35117.40
520.83	35335.07
521.00	35264.85
521.17	35644.02
521.34	35751.68
521.52	36130.85
521.69	35922.54
521.86	36231.49
522.03	36205.75
522.20	35885.09
522.38	35821.90
522.55	36505.34
522.72	36107.44
522.89	35943.61
523.07	36484.27
523.24	36154.26
523.41	36627.04
523.58	36540.44
523.75	36793.22
523.92	36928.97
524.10	36786.20
524.27	37165.37
524.44	37434.53
524.61	37209.84
524.78	37097.49
524.96	37144.30
525.13	37427.51
525.30	37766.88
525.47	37329.20
525.64	37544.53
525.81	37598.37
525.98	37244.94
526.16	37219.20
526.33	37041.32
526.50	37387.72
526.67	37167.71
526.84	36982.80
527.01	37376.01
527.18	37415.80
527.36	37731.78
527.53	37680.28
527.70	38115.62
527.87	38447.98
528.04	38148.39
528.21	38078.18
528.38	38361.38
528.55	38958.22
528.72	38485.43
528.89	38459.68
529.07	38473.73
529.24	38085.20
529.41	38890.34
529.58	38242.01
529.75	38576.71
529.92	38710.12
530.09	38621.18
530.26	39208.65
530.43	39012.05
530.60	38548.62
530.77	38927.79
530.94	39082.27
531.11	39201.63
531.28	39435.69
531.46	39468.45
531.63	39349.09
531.80	39522.29
531.97	39253.12
532.14	39152.48
532.31	39159.50
532.48	39178.23
532.65	39100.99
532.82	39168.87
532.99	39360.79
533.16	39093.97
533.33	39662.72
533.50	39959.97
533.67	39999.76
533.84	39674.42
534.01	39576.12
534.18	40044.23
534.35	39775.06
534.52	39473.13
534.69	40226.79
534.86	40018.48
535.03	39892.09
535.20	40519.35
535.37	40645.74
535.54	40517.01
535.71	40182.32
535.88	40636.38
536.05	40507.65
536.22	40381.26
536.38	40659.79
536.55	40505.31
536.72	40076.99
536.89	40198.70
537.06	40669.15
537.23	40818.94
537.40	40528.72
537.57	40507.65
537.74	40603.61
537.91	41336.20
538.08	40985.12
538.25	40535.74
538.42	40989.80
538.59	40898.52
538.75	40823.62
538.92	41371.31
539.09	40865.75
539.26	41200.45
539.43	41507.06
539.60	41493.02
539.77	41235.56
539.94	41055.34
540.11	41401.74
540.28	41216.83
540.44	41336.20
540.61	41254.28
540.78	40966.40
540.95	41350.24
541.12	41411.10
541.29	41242.58
541.46	41106.83
541.62	41731.75
541.79	41855.80
541.96	41207.47
542.13	41614.72
542.30	41603.02
542.47	41918.99
542.63	41741.11
542.80	41631.11
542.97	42148.37
543.14	42298.16
543.31	42110.92
543.48	42351.99
543.64	42075.81
543.81	42848.19
543.98	42703.07
544.15	42373.06
544.32	42745.20
544.48	43129.05
544.65	42396.46
544.82	42981.60
544.99	42387.10
545.16	42663.28
545.32	42803.72
545.49	43215.65
545.66	43021.39
545.83	42698.39
546.00	43105.65
546.16	43124.37
546.33	42897.34
546.50	42981.60
546.67	43005.00
546.83	42602.43
547.00	43021.39
547.17	43225.01
547.34	42326.25
547.50	43021.39
547.67	43414.60
547.84	43225.01
548.00	43098.62
548.17	43398.21
548.34	43384.17
548.51	44247.83
548.67	43557.37
548.84	43377.15
549.01	43189.91
549.18	43386.51
549.34	43487.15
549.51	43456.73
549.68	43641.63
549.84	43545.67
550.01	43859.30
550.18	43356.08
550.34	43402.89
550.51	43672.06
550.68	43732.91
550.84	42925.42
551.01	44098.03
551.18	43648.65
551.34	44133.14
551.51	43669.72
551.68	44163.57
551.84	43571.41
552.01	43777.38
552.18	43594.82
552.34	43482.47
552.51	43999.73
552.68	43840.57
552.84	44406.98
553.01	44329.75
553.18	43887.39
553.34	44694.87
553.51	43910.79
553.67	44376.56
553.84	44587.21
554.01	44542.74
554.17	44406.98
554.34	44629.34
554.51	44357.83
554.67	44671.46
554.84	44388.26
555.00	44545.08
555.17	44233.78
555.33	44629.34
555.50	44409.32
555.67	44252.51
555.83	44634.02
556.00	44493.58
556.16	45216.81
556.33	44467.84
556.50	44481.88
556.66	44374.22
556.83	44210.38
556.99	44842.32
557.16	44601.25
557.32	44959.35
557.49	45120.85
557.65	44575.50
557.82	44711.25
557.98	45148.93
558.15	44554.44
558.32	44769.77
558.48	44765.09
558.65	44692.53
558.81	44781.47
558.98	44212.72
559.14	44491.24
559.31	45109.14
559.47	45010.84
559.64	44868.07
559.80	45127.87
559.97	44800.19
560.13	44779.13
560.30	44788.49
560.46	45298.73
560.63	45502.35
560.79	45397.03
560.96	45226.17
561.12	45240.21
561.29	44879.77
561.45	45141.91
561.61	44828.28
561.78	45308.09
561.94	44931.26
562.11	45265.96
562.27	44835.30
562.44	45167.66
562.60	45387.67
562.77	45347.88
562.93	45045.95
563.10	45392.35
563.26	45408.73
563.42	45020.20
563.59	45022.54
563.75	45242.56
563.92	45668.53
564.08	45698.96
564.24	45256.60
564.41	45350.22
564.57	45364.26
564.74	45354.90
564.90	44987.44
565.07	45354.90
565.23	45272.98
565.39	45179.36
565.56	45347.88
565.72	45162.98
565.88	45099.78
566.05	44889.13
566.21	44912.54
566.38	45272.98
566.54	45331.50
566.70	45301.07
566.87	45443.84
567.03	45729.39
567.19	45504.70
567.36	45626.40
567.52	45624.06
567.68	45397.03
567.85	45371.28
568.01	45647.47
568.17	45820.67
568.34	45471.93
568.50	45326.81
568.66	45359.58
568.83	45198.09
568.99	45420.44
569.15	45359.58
569.32	45415.76
569.48	45595.98
569.64	45595.98
569.81	45776.20
569.97	45485.97
570.13	45652.15
570.30	45043.61
570.46	45401.71
570.62	45258.94
570.78	45319.79
570.95	45565.55
571.11	45537.46
571.27	45624.06
571.43	45104.46
571.60	45560.87
571.76	45544.48
571.92	45448.52
572.09	46106.21
572.25	45673.21
572.41	45574.91
572.57	46014.93
572.74	45860.46
572.90	45790.24
573.06	45881.52
573.22	46017.27
573.38	45422.78
573.55	45722.37
573.71	45830.03
573.87	45642.79
574.03	45654.49
574.20	45963.44
574.36	45794.92
574.52	45677.90
574.68	45464.91
574.84	45815.99
575.01	45535.12
575.17	45401.71
575.33	45352.56
575.49	45546.82
575.65	45532.78
575.82	46085.15
575.98	45558.53
576.14	45968.12
576.30	45867.48
576.46	45717.68
576.62	45427.46
576.79	45352.56
576.95	45698.96
577.11	45844.07
577.27	45783.22
577.43	45631.08
577.59	45698.96
577.75	45986.85
577.92	45312.77
578.08	45041.27
578.24	45443.84
578.40	45975.14
578.56	45675.55
578.72	45668.53
578.88	46096.85
579.04	45654.49
579.21	45954.08
579.37	45535.12
579.53	46213.88
579.69	45240.21
579.85	45537.46
580.01	45574.91
580.17	45670.87
580.33	45764.49
580.49	46057.06
580.65	45984.51
580.82	45764.49
580.98	45532.78
581.14	45476.61
581.30	45902.59
581.46	45954.08
581.62	46127.28
581.78	45443.84
581.94	46120.26
582.10	45832.37
582.26	46199.83
582.42	45907.27
582.58	45886.20
582.74	45691.94
582.90	46316.86
583.06	46164.73
583.22	46075.79
583.38	46045.36
583.54	46295.80
583.70	45797.26
583.86	46190.47
584.02	45801.94
584.18	45865.14
584.34	45696.62
584.50	45549.17
584.66	45904.93
584.82	45937.69
584.98	45883.86
585.14	46017.27
585.30	45914.29
585.46	45544.48
585.62	45469.59
585.78	45619.38
585.94	45408.73
586.10	45605.34
586.26	45649.81
586.42	45886.20
586.58	46057.06
586.74	45757.47
586.90	45750.45
587.06	45874.50
587.22	45785.56
587.38	45773.86
587.54	45687.26
587.70	45897.91
587.86	45677.90
588.02	45893.22
588.18	45808.96
588.34	45972.80
588.49	45265.96
588.65	45364.26
588.81	45455.54
588.97	45654.49
589.13	45298.73
589.29	45275.32
589.45	45607.68
589.61	45626.40
589.77	46012.59
589.93	45963.44
590.08	45797.26
