SpectraSuite Data File
++++++++++++++++++++++++++++++++++++
Date: Fri Oct 25 10:47:28 EDT 2013
User: price-jones
Dark Spectrum Present: No
Reference Spectrum Present: No
Number of Sampled Component Spectra: 1
Spectrometers: USB2+H05261
Integration Time (usec): 100000 (USB2+H05261)
Spectra Averaged: 1 (USB2+H05261)
Boxcar Smoothing: 0 (USB2+H05261)
Correct for Electrical Dark: No (USB2+H05261)
Strobe/Lamp Enabled: No (USB2+H05261)
Correct for Detector Non-linearity: No (USB2+H05261)
Correct for Stray Light: No (USB2+H05261)
Number of Pixels in Processed Spectrum: 2048
>>>>>Begin Processed Spectral Data<<<<<
365.73	145.11
365.92	145.11
366.12	145.11
366.32	124.05
366.52	0.00
366.72	2.34
366.91	44.47
367.11	81.92
367.31	58.51
367.51	4.68
367.70	0.00
367.90	42.13
368.10	58.51
368.30	117.03
368.49	11.70
368.69	60.85
368.89	81.92
369.09	74.90
369.28	28.09
369.48	58.51
369.68	110.01
369.87	60.85
370.07	196.60
370.27	147.45
370.47	212.99
370.66	425.98
370.86	411.93
371.06	407.25
371.25	437.68
371.45	395.55
371.65	407.25
371.84	334.70
372.04	437.68
372.24	517.26
372.44	496.19
372.63	456.40
372.83	470.45
373.03	486.83
373.22	491.51
373.42	482.15
373.62	568.75
373.81	458.74
374.01	486.83
374.21	489.17
374.40	500.87
374.60	547.69
374.79	531.30
374.99	531.30
375.19	594.50
375.38	641.31
375.58	582.79
375.78	582.79
375.97	622.58
376.17	643.65
376.37	603.86
376.56	545.34
376.76	447.04
376.95	531.30
377.15	507.90
377.35	641.31
377.54	580.45
377.74	610.88
377.93	596.84
378.13	587.47
378.33	655.35
378.52	594.50
378.72	608.54
378.91	622.58
379.11	650.67
379.31	622.58
379.50	683.44
379.70	741.95
379.89	599.18
380.09	613.22
380.28	657.69
380.48	662.37
380.68	620.24
380.87	690.46
381.07	655.35
381.26	692.80
381.46	613.22
381.65	594.50
381.85	636.63
382.04	641.31
382.24	643.65
382.43	660.03
382.63	681.10
382.83	695.14
383.02	751.31
383.22	732.59
383.41	645.99
383.61	624.92
383.80	739.61
384.00	685.78
384.19	737.27
384.39	748.97
384.58	685.78
384.78	814.51
384.97	725.57
385.17	704.50
385.36	758.33
385.56	805.14
385.75	777.06
385.95	723.23
386.14	781.74
386.34	802.80
386.53	851.96
386.72	760.67
386.92	760.67
387.11	823.87
387.31	844.93
387.50	784.08
387.70	791.10
387.89	847.27
388.09	814.51
388.28	856.64
388.48	908.13
388.67	882.38
388.86	858.98
389.06	929.19
389.25	896.43
389.45	837.91
389.64	828.55
389.84	870.68
390.03	926.85
390.22	926.85
390.42	936.21
390.61	894.08
390.81	877.70
391.00	933.87
391.19	1018.13
391.39	961.96
391.58	968.98
391.78	983.02
391.97	905.79
392.16	912.81
392.36	1062.60
392.55	959.62
392.75	971.32
392.94	983.02
393.13	1057.92
393.33	889.40
393.52	971.32
393.71	1039.20
393.91	1121.12
394.10	1064.94
394.29	1111.75
394.49	1076.65
394.68	1032.18
394.88	1060.26
395.07	1118.78
395.26	1114.10
395.46	1104.73
395.65	1046.22
395.84	1179.63
396.04	1102.39
396.23	1036.86
396.42	1149.20
396.62	1156.22
396.81	1071.97
397.00	1186.65
397.19	1153.88
397.39	1217.08
397.58	1247.51
397.77	1207.72
397.97	1165.59
398.16	1224.10
398.35	1207.72
398.55	1245.16
398.74	1254.53
398.93	1394.96
399.12	1240.48
399.32	1357.51
399.51	1320.06
399.70	1409.00
399.90	1348.15
400.09	1411.34
400.28	1341.13
400.47	1406.66
400.67	1313.04
400.86	1397.30
401.05	1430.07
401.24	1406.66
401.44	1406.66
401.63	1366.87
401.82	1481.56
402.01	1427.73
402.21	1383.26
402.40	1495.60
402.59	1504.96
402.78	1418.36
402.97	1439.43
403.17	1542.41
403.36	1633.69
403.55	1509.65
403.74	1572.84
403.93	1474.54
404.13	1661.78
404.32	1584.54
404.51	1523.69
404.70	1675.82
404.89	1687.53
405.09	1682.85
405.28	1832.64
405.47	1638.38
405.66	1715.61
405.85	1790.51
406.05	1790.51
406.24	1694.55
406.43	1776.47
406.62	1769.44
406.81	1823.28
407.00	1724.97
407.20	1762.42
407.39	1844.34
407.58	1809.23
407.77	1762.42
407.96	1818.60
408.15	1891.15
408.34	1771.79
408.54	1933.28
408.73	1844.34
408.92	1886.47
409.11	2045.63
409.30	1891.15
409.49	2017.54
409.68	1977.75
409.87	1944.99
410.07	2040.95
410.26	1982.43
410.45	2078.40
410.64	2129.89
410.83	2214.15
411.02	2129.89
411.21	2209.47
411.40	2193.08
411.59	2214.15
411.78	2141.59
411.98	2291.38
412.17	2244.57
412.36	2349.90
412.55	2349.90
412.74	2401.39
412.93	2392.03
413.12	2394.37
413.31	2424.80
413.50	2415.43
413.69	2359.26
413.88	2525.44
414.07	2462.24
414.26	2537.14
414.45	2504.37
414.64	2499.69
414.83	2583.95
415.02	2665.87
415.22	2794.60
415.41	2729.06
415.60	2693.96
415.79	2736.09
415.98	2848.43
416.17	2925.67
416.36	2724.38
416.55	2719.70
416.74	2878.86
416.93	2813.32
417.12	2911.63
417.31	2935.03
417.50	2911.63
417.69	2967.80
417.88	3063.76
418.07	2995.89
418.26	3009.93
418.45	3052.06
418.64	3239.30
418.83	3098.87
419.02	3075.46
419.21	3122.27
419.39	3136.32
419.58	3087.17
419.77	2988.86
419.96	3251.00
420.15	3337.60
420.34	3265.05
420.53	3229.94
420.72	3178.45
420.91	3314.20
421.10	3358.67
421.29	3335.26
421.48	3321.22
421.67	3297.81
421.86	3265.05
422.05	3288.45
422.24	3234.62
422.43	3339.94
422.61	3400.80
422.80	3166.74
422.99	3417.18
423.18	3410.16
423.37	3431.23
423.56	3433.57
423.75	3351.65
423.94	3356.33
424.13	3258.03
424.32	3405.48
424.50	3501.44
424.69	3335.26
424.88	3489.74
425.07	3531.87
425.26	3353.99
425.45	3379.73
425.64	3454.63
425.83	3473.36
426.01	3574.00
426.20	3522.51
426.39	3557.61
426.58	3503.78
426.77	3662.94
426.96	3510.80
427.15	3515.48
427.33	3618.47
427.52	3625.49
427.71	3625.49
427.90	3585.70
428.09	3688.68
428.28	3777.62
428.46	3609.11
428.65	3646.55
428.84	3836.14
429.03	3882.95
429.22	3660.60
429.40	3707.41
429.59	3775.28
429.78	3662.94
429.97	3557.61
430.16	3693.37
430.34	3655.92
430.53	3754.22
430.72	3904.01
430.91	3803.37
431.10	3882.95
431.28	3920.40
431.47	3932.10
431.66	3997.64
431.85	4032.74
432.03	4215.30
432.22	4011.68
432.41	4037.42
432.60	4198.92
432.79	4105.30
432.97	4194.24
433.16	4119.34
433.35	4091.26
433.54	4124.02
433.72	4168.49
433.91	4269.14
434.10	4252.75
434.28	4203.60
434.47	4269.14
434.66	4264.46
434.85	4393.19
435.03	4304.25
435.22	4325.31
435.41	4528.94
435.59	4524.26
435.78	4447.02
435.97	4580.43
436.16	4395.53
436.34	4458.72
436.53	4538.30
436.72	4638.94
436.90	4477.44
437.09	4676.39
437.28	4498.51
437.46	4552.34
437.65	4507.87
437.84	4510.21
438.02	4554.68
438.21	4489.15
438.40	4697.46
438.58	4629.58
438.77	4875.34
438.96	4809.80
439.14	4915.12
439.33	4826.18
439.52	4968.96
439.70	4851.93
439.89	5231.10
440.08	4983.00
440.26	5006.41
440.45	4959.60
440.63	4994.70
440.82	5118.75
441.01	5231.10
441.19	5151.52
441.38	5474.51
441.57	5320.04
441.75	5348.12
441.94	5554.09
442.12	5486.22
442.31	5528.35
442.50	5605.58
442.68	5320.04
442.87	5462.81
443.05	5462.81
443.24	5554.09
443.43	5600.90
443.61	5493.24
443.80	5755.38
443.98	5570.48
444.17	5371.53
444.35	5813.89
444.54	5865.38
444.73	5746.02
444.91	5523.66
445.10	5640.69
445.28	5813.89
445.47	5530.69
445.65	5589.20
445.84	5757.72
446.02	5650.05
446.21	5781.12
446.39	5760.06
446.58	5774.10
446.77	5863.04
446.95	5631.33
447.14	5757.72
447.32	5816.23
447.51	5856.02
447.69	5650.05
447.88	5919.21
448.06	5870.06
448.25	5699.20
448.43	5823.25
448.62	6017.52
448.80	5701.54
448.99	5977.73
449.17	5954.32
449.36	6036.24
449.54	6029.22
449.73	6036.24
449.91	6174.33
450.10	6087.73
450.28	6221.14
450.46	6427.11
450.65	6242.21
450.83	6270.30
451.02	6169.65
451.20	6422.43
451.39	6263.27
451.57	6282.00
451.76	6267.95
451.94	6289.02
452.13	6359.24
452.31	6445.84
452.49	6181.35
452.68	6258.59
452.86	6478.60
453.05	6342.85
453.23	6408.39
453.42	6555.84
453.60	6487.96
453.78	6623.72
453.97	6473.92
454.15	6530.09
454.34	6567.54
454.52	6696.27
454.70	6476.26
454.89	6616.69
455.07	6670.53
455.26	6775.85
455.44	6799.26
455.62	6696.27
455.81	6815.64
455.99	6707.98
456.17	6771.17
456.36	6722.02
456.54	6986.50
456.73	6984.16
456.91	7110.55
457.09	6998.20
457.28	7108.21
457.46	7133.95
457.64	7246.30
457.83	7143.32
458.01	7101.19
458.19	7283.75
458.38	7166.72
458.56	7316.51
458.74	7243.96
458.93	7030.97
459.11	7234.60
459.29	7192.47
459.48	7309.49
459.66	7342.26
459.84	7517.80
460.03	7452.27
460.21	7382.05
460.39	7475.67
460.57	7391.41
460.76	7468.65
460.94	7473.33
461.12	7424.18
461.31	7480.35
461.49	7419.50
461.67	7630.15
461.85	7660.57
462.04	7824.41
462.22	8088.89
462.40	7903.99
462.59	7655.89
462.77	7733.13
462.95	7845.48
463.13	7948.46
463.32	7901.65
463.50	8018.68
463.68	7896.97
463.86	7934.42
464.05	7808.03
464.23	7798.66
464.41	8039.74
464.59	7683.98
464.78	7948.46
464.96	8056.12
465.14	7852.50
465.32	8126.34
465.50	8138.04
465.69	8191.88
465.87	8152.09
466.05	8271.45
466.23	8173.15
466.41	8229.32
466.60	8348.69
466.78	8217.62
466.96	8189.53
467.14	8374.44
467.32	8313.58
467.51	8271.45
467.69	8145.06
467.87	8255.07
468.05	8465.72
468.23	8475.08
468.41	8334.65
468.60	8435.29
468.78	8327.63
468.96	8561.68
469.14	8493.80
469.32	8821.48
469.50	8430.61
469.69	8753.60
469.87	8774.67
470.05	8746.58
470.23	8849.57
470.41	8875.31
470.59	8915.10
470.77	8835.52
470.95	8772.33
471.14	9022.77
471.32	8847.22
471.50	9156.18
471.68	9081.28
471.86	8868.29
472.04	9165.54
472.22	9310.65
472.40	9069.58
472.58	9205.33
472.77	9233.41
472.95	9341.08
473.13	9549.39
473.31	9493.21
473.49	9376.19
473.67	9301.29
473.85	9476.83
474.03	9659.39
474.21	9689.82
474.39	9827.91
474.57	9781.10
474.75	9921.53
474.93	10024.51
475.12	9886.42
475.30	10167.29
475.48	10061.96
475.66	10136.86
475.84	9961.32
476.02	10118.14
476.20	10221.12
476.38	10420.06
476.56	10665.82
476.74	10483.26
476.92	10520.71
477.10	10499.64
477.28	10752.42
477.46	10644.76
477.64	10984.13
477.82	10888.17
478.00	11241.59
478.18	11009.88
478.36	11103.50
478.54	11201.80
478.72	11190.10
478.90	11618.42
479.08	11597.35
479.26	11632.46
479.44	11922.69
479.62	11920.35
479.80	11894.60
479.98	11915.67
480.16	12081.85
480.34	12210.57
480.52	12475.06
480.70	12297.17
480.88	12175.47
481.06	12332.28
481.24	12311.22
481.41	12390.80
481.59	12776.98
481.77	12875.29
481.95	12760.60
482.13	12842.52
482.31	12863.58
482.49	13380.84
482.67	13359.78
482.85	13376.16
483.03	13631.28
483.21	13799.80
483.39	13635.96
483.57	13540.00
483.74	13778.73
483.92	13944.91
484.10	13914.48
484.28	14019.81
484.46	14422.38
484.64	14541.75
484.82	14555.79
485.00	14558.13
485.18	14743.03
485.35	14682.18
485.53	14787.50
485.71	14913.89
485.89	15124.54
486.07	14946.66
486.25	15208.80
486.43	15372.64
486.61	15344.55
486.78	15599.67
486.96	15634.78
487.14	16063.10
487.32	15847.77
487.50	16233.96
487.68	16252.68
487.85	16402.47
488.03	16671.64
488.21	16482.05
488.39	17050.80
488.57	16657.59
488.75	16877.60
488.92	17242.73
489.10	17287.20
489.28	17647.64
489.46	17750.62
489.64	17874.67
489.81	17956.59
489.99	18080.64
490.17	18136.81
490.35	18314.69
490.53	18391.93
490.70	18335.76
490.88	18827.27
491.06	18726.63
491.24	18745.35
491.41	18497.25
491.59	19026.21
491.77	18731.31
491.95	19276.65
492.13	19187.71
492.30	19527.09
492.48	19754.12
492.66	19604.33
492.84	19782.21
493.01	19948.39
493.19	19807.95
493.37	20042.01
493.54	20222.23
493.72	20189.46
493.90	20435.22
494.08	20613.10
494.25	20821.41
494.43	20636.50
494.61	21252.06
494.79	20837.79
494.96	21034.39
495.14	20854.17
495.32	21525.91
495.49	21474.42
495.67	21853.58
495.85	21511.86
496.02	21696.77
496.20	21984.65
496.38	21823.16
496.55	22075.93
496.73	22441.06
496.91	22246.79
497.09	22295.94
497.26	22614.26
497.44	22864.69
497.62	22923.21
497.79	22974.70
497.97	22782.77
498.14	22876.40
498.32	23058.96
498.50	23168.96
498.67	23405.36
498.85	23522.38
499.03	24016.24
499.20	23903.89
499.38	23976.45
499.56	23681.54
499.73	24367.32
499.91	24339.23
500.08	24100.50
500.26	24034.96
500.44	24224.54
500.61	24086.45
500.79	24409.45
500.97	24573.28
501.14	25069.48
501.32	24797.98
501.49	24856.49
501.67	24844.79
501.84	25172.46
502.02	25137.35
502.20	25359.70
502.37	25551.63
502.55	25462.69
502.72	25064.80
502.90	25324.60
503.07	25399.49
503.25	25418.22
503.43	25605.46
503.60	26033.78
503.78	25706.10
503.95	25806.75
504.13	26253.79
504.30	25916.75
504.48	26331.03
504.65	25982.29
504.83	26412.95
505.01	26326.35
505.18	26143.78
505.36	26895.10
505.53	26808.50
505.71	26888.07
505.88	27082.34
506.06	26651.68
506.23	27082.34
506.41	27119.79
506.58	27140.85
506.76	27374.91
506.93	27517.68
507.11	27484.91
507.28	27367.88
507.46	27304.69
507.63	27398.31
507.81	27887.48
507.98	27885.14
508.16	27637.05
508.33	27992.81
508.50	27852.38
508.68	28004.51
508.85	28489.00
509.03	27971.74
509.20	28283.03
509.38	28496.02
509.55	28297.08
509.73	28397.72
509.90	28788.59
510.08	28709.01
510.25	28978.17
510.42	29015.62
510.60	28809.65
510.77	28980.51
510.95	29383.09
511.12	28814.34
511.30	29818.42
511.47	29315.21
511.64	29677.99
511.82	29462.66
511.99	29500.11
512.17	29511.81
512.34	29727.14
512.51	29956.52
512.69	29982.26
512.86	30040.78
513.04	29825.45
513.21	30263.13
513.38	30043.12
513.56	29907.37
513.73	30607.19
513.90	30232.70
514.08	30258.45
514.25	30452.71
514.43	30857.62
514.60	30635.27
514.77	30438.67
514.95	30876.35
515.12	30602.50
515.29	30785.07
515.47	31152.53
515.64	31035.50
515.81	30761.66
515.99	31115.08
516.16	31400.63
516.33	31281.26
516.51	30991.03
516.68	31250.83
516.85	30986.35
517.03	31269.56
517.20	31613.62
517.37	31646.38
517.54	31779.79
517.72	31576.17
517.89	31814.90
518.06	31641.70
518.24	31971.72
518.41	32100.45
518.58	31681.49
518.75	31899.16
518.93	32418.76
519.10	32030.23
519.27	32753.46
519.45	32428.12
519.62	32844.74
519.79	32781.54
519.96	32514.72
520.14	32760.48
520.31	32397.70
520.48	32940.70
520.65	33078.79
520.83	33076.45
521.00	33296.46
521.17	33027.30
521.34	33146.67
521.52	33523.49
521.69	33099.86
521.86	33682.65
522.03	33619.46
522.20	33851.17
522.38	33715.42
522.55	33832.44
522.72	34195.23
522.89	33947.13
523.07	33715.42
523.24	33811.38
523.41	33823.08
523.58	34120.33
523.75	34534.60
523.92	34185.86
524.10	34572.05
524.27	34342.68
524.44	34281.83
524.61	34256.08
524.78	34712.49
524.96	34806.11
525.13	34771.00
525.30	35405.28
525.47	35023.78
525.64	34859.94
525.81	35002.71
525.98	34822.49
526.16	34562.69
526.33	34974.63
526.50	35246.13
526.67	35058.88
526.84	34686.74
527.01	34714.83
527.18	35325.71
527.36	35419.33
527.53	35971.69
527.70	35346.77
527.87	35536.35
528.04	35435.71
528.21	35325.71
528.38	35697.85
528.55	35894.46
528.72	36224.47
528.89	35810.20
529.07	35864.03
529.24	35732.96
529.41	36320.43
529.58	36203.41
529.75	35754.02
529.92	36142.55
530.09	36102.76
530.26	36821.31
530.43	36018.50
530.60	36409.37
530.77	36491.29
530.94	36591.94
531.11	36449.16
531.28	36697.26
531.46	36833.01
531.63	36739.39
531.80	36371.92
531.97	36648.11
532.14	36797.90
532.31	36723.01
532.48	36533.42
532.65	37048.34
532.82	36961.74
532.99	37312.82
533.16	36917.27
533.33	37057.70
533.50	37275.37
533.67	37406.44
533.84	37319.84
534.01	37546.87
534.18	37163.03
534.35	37998.60
534.52	37352.61
534.69	37521.13
534.86	37460.27
535.03	37305.80
535.20	37797.31
535.37	37977.53
535.54	38115.62
535.71	37661.56
535.88	37626.45
536.05	37890.93
536.22	37834.76
536.38	38141.37
536.55	38483.09
536.72	38295.85
536.89	38043.07
537.06	38162.43
537.23	38143.71
537.40	38316.91
537.57	38302.87
537.74	38279.46
537.91	38553.30
538.08	38579.05
538.25	38188.18
538.42	38539.26
538.59	38646.93
538.75	38267.76
538.92	38710.12
539.09	39115.03
539.26	38607.14
539.43	38820.13
539.60	38492.45
539.77	38569.69
539.94	38733.53
540.11	38988.64
540.28	39379.51
540.44	39063.54
540.61	38972.26
540.78	38820.13
540.95	39093.97
541.12	39143.12
541.29	39091.63
541.46	39358.45
541.62	39299.94
541.79	39608.89
541.96	39304.62
542.13	39220.36
542.30	39168.87
542.47	39845.28
542.63	39086.95
542.80	39435.69
542.97	39814.85
543.14	39873.37
543.31	40030.18
543.48	39744.64
543.64	41060.02
543.81	40657.45
543.98	39899.11
544.15	39885.07
544.32	40081.67
544.48	40414.03
544.65	40051.25
544.82	40594.25
544.99	40245.51
545.16	40517.01
545.32	39800.81
545.49	40458.50
545.66	40638.72
545.83	40706.60
546.00	41450.89
546.16	40280.62
546.33	40631.70
546.50	40168.27
546.67	40744.05
546.83	40271.26
547.00	40596.59
547.17	40664.47
547.34	40769.79
547.50	40467.86
547.67	40823.62
547.84	40481.91
548.00	41214.49
548.17	41029.59
548.34	40931.29
548.51	41137.26
548.67	41092.79
548.84	41397.06
549.01	41549.19
549.18	41062.36
549.34	41057.68
549.51	41010.87
549.68	41354.93
549.84	41310.46
550.01	41773.88
550.18	41443.87
550.34	41741.11
550.51	41553.87
550.68	41230.88
550.84	41153.64
551.01	41450.89
551.18	41486.00
551.34	41509.40
551.51	41371.31
551.68	41535.15
551.84	41556.21
552.01	41670.90
552.18	42370.72
552.34	41663.88
552.51	41748.14
552.68	42057.09
552.84	41783.24
553.01	42246.67
553.18	42148.37
553.34	42370.72
553.51	41876.86
553.67	41771.54
553.84	42377.74
554.01	42171.77
554.17	42291.14
554.34	41951.76
554.51	42237.31
554.67	42127.30
554.84	42253.69
555.00	42209.22
555.17	42113.26
555.33	42366.04
555.50	42024.32
555.67	42471.36
555.83	42637.54
556.00	42237.31
556.16	42759.25
556.33	42380.08
556.50	42588.39
556.66	42546.26
556.83	42476.04
556.99	42653.92
557.16	42890.32
557.32	42923.08
557.49	42953.51
557.65	42426.89
557.82	42382.42
557.98	42443.27
558.15	42506.47
558.32	42705.41
558.48	42597.75
558.65	43061.18
558.81	42916.06
558.98	42679.67
559.14	42988.62
559.31	43409.92
559.47	42923.08
559.64	43386.51
559.80	42925.42
559.97	43318.64
560.13	43107.99
560.30	43054.15
560.46	42689.03
560.63	43068.20
560.79	43536.30
560.96	43379.49
561.12	43117.35
561.29	43639.29
561.45	42895.00
561.61	43295.23
561.78	43175.86
561.94	42995.64
562.11	43154.80
562.27	42960.53
562.44	43531.62
562.60	43751.63
562.77	43882.70
562.93	43363.11
563.10	43430.98
563.26	43187.56
563.42	43250.76
563.59	43681.42
563.75	43353.74
563.92	43557.37
564.08	43587.80
564.24	43538.65
564.41	43707.16
564.57	43674.40
564.74	43824.19
564.90	43728.23
565.07	43384.17
565.23	43391.19
565.39	43370.13
565.56	43548.01
565.72	43470.77
565.88	43421.62
566.05	43386.51
566.21	43449.70
566.38	43704.82
566.54	43892.07
566.70	43629.93
566.87	43992.71
567.03	43751.63
567.19	43875.68
567.36	44121.44
567.52	43814.83
567.68	43489.49
567.85	43866.32
568.01	43627.59
568.17	43716.53
568.34	43688.44
568.50	43943.56
568.66	43739.93
568.83	43536.30
568.99	43772.70
569.15	43650.99
569.32	43990.37
569.48	43100.97
569.64	43812.49
569.81	44397.62
569.97	44041.86
570.13	43927.17
570.30	43845.26
570.46	43477.79
570.62	43576.09
570.78	43531.62
570.95	43459.07
571.11	44224.42
571.27	43859.30
571.43	44102.71
571.60	44388.26
571.76	43714.19
571.92	44081.65
572.09	44119.10
572.25	44065.27
572.41	43971.64
572.57	44168.25
572.74	44552.10
572.90	44121.44
573.06	44156.55
573.22	44140.16
573.38	44067.61
573.55	43807.81
573.71	44292.30
573.87	43861.64
574.03	43536.30
574.20	44292.30
574.36	43828.87
574.52	43899.09
574.68	44399.96
574.84	44336.77
575.01	43854.62
575.17	43936.54
575.33	44259.53
575.49	44509.97
575.65	44318.04
575.82	44404.64
575.98	44385.92
576.14	44650.40
576.30	44304.00
576.46	44161.23
576.62	43903.77
576.79	44144.84
576.95	43922.49
577.11	44060.58
577.27	43931.86
577.43	44479.54
577.59	44128.46
577.75	44182.29
577.92	43896.75
578.08	44095.69
578.24	43999.73
578.40	43697.80
578.56	44142.50
578.72	44147.18
578.88	44336.77
579.04	44320.38
579.21	44399.96
579.37	44091.01
579.53	44114.42
579.69	44226.76
579.85	43842.92
580.01	44254.85
580.17	44414.01
580.33	44547.42
580.49	44318.04
580.65	44395.28
580.82	44472.52
580.98	44065.27
581.14	44055.90
581.30	44648.06
581.46	44306.34
581.62	44072.29
581.78	44105.06
581.94	44786.15
582.10	44545.08
582.26	44505.29
582.42	44418.69
582.58	44428.05
582.74	44123.78
582.90	44182.29
583.06	44577.84
583.22	44357.83
583.38	44737.00
583.54	44055.90
583.70	44376.56
583.86	44175.27
584.02	44011.43
584.18	44336.77
584.34	44069.95
584.50	44013.77
584.66	44212.72
584.82	44205.70
584.98	44598.91
585.14	44648.06
585.30	44533.37
585.46	44322.72
585.62	43959.94
585.78	44451.45
585.94	44538.05
586.10	44100.37
586.26	44151.87
586.42	44147.18
586.58	44603.59
586.74	44374.22
586.90	44198.68
587.06	44463.16
587.22	44481.88
587.38	44521.67
587.54	44704.23
587.70	44636.36
587.86	44650.40
588.02	44222.08
588.18	44575.50
588.34	44720.62
588.49	44271.23
588.65	44268.89
588.81	44217.40
588.97	44058.24
589.13	44240.81
589.29	44311.02
589.45	44816.58
589.61	44381.24
589.77	44556.78
589.93	44793.17
590.08	44575.50
590.24	45228.51
