SpectraSuite Data File
++++++++++++++++++++++++++++++++++++
Date: Fri Oct 25 11:23:39 EDT 2013
User: price-jones
Dark Spectrum Present: No
Reference Spectrum Present: No
Number of Sampled Component Spectra: 1
Spectrometers: USB2+H05261
Integration Time (usec): 100000 (USB2+H05261)
Spectra Averaged: 1 (USB2+H05261)
Boxcar Smoothing: 0 (USB2+H05261)
Correct for Electrical Dark: No (USB2+H05261)
Strobe/Lamp Enabled: No (USB2+H05261)
Correct for Detector Non-linearity: No (USB2+H05261)
Correct for Stray Light: No (USB2+H05261)
Number of Pixels in Processed Spectrum: 2048
>>>>>Begin Processed Spectral Data<<<<<
365.73	222.35
365.92	222.35
366.12	222.35
366.32	56.17
366.52	138.09
366.72	161.50
366.91	114.69
367.11	154.48
367.31	117.03
367.51	105.32
367.70	173.20
367.90	166.18
368.10	100.64
368.30	194.26
368.49	114.69
368.69	210.65
368.89	184.90
369.09	154.48
369.28	91.28
369.48	133.41
369.68	117.03
369.87	182.56
370.07	161.50
370.27	184.90
370.47	341.72
370.66	543.00
370.86	660.03
371.06	610.88
371.25	727.91
371.45	592.16
371.65	681.10
371.84	608.54
372.04	685.78
372.24	697.48
372.44	669.39
372.63	737.27
372.83	767.70
373.03	800.46
373.22	830.89
373.42	730.25
373.62	737.27
373.81	767.70
374.01	774.72
374.21	809.83
374.40	814.51
374.60	873.02
374.79	767.70
374.99	791.10
375.19	851.96
375.38	868.34
375.58	807.48
375.78	793.44
375.97	905.79
376.17	887.06
376.37	833.23
376.56	933.87
376.76	812.17
376.95	863.66
377.15	917.49
377.35	866.00
377.54	887.06
377.74	891.74
377.93	821.53
378.13	910.47
378.33	919.83
378.52	898.77
378.72	973.66
378.91	915.15
379.11	875.36
379.31	894.08
379.50	966.64
379.70	1004.09
379.89	992.39
380.09	997.07
380.28	1008.77
380.48	1027.50
380.68	933.87
380.87	985.37
381.07	959.62
381.26	1025.15
381.46	999.41
381.65	1116.44
381.85	1022.81
382.04	1093.03
382.24	1090.69
382.43	1064.94
382.63	1093.03
382.83	1071.97
383.02	1034.52
383.22	1053.24
383.41	1067.28
383.61	1060.26
383.80	1135.16
384.00	1160.91
384.19	1163.25
384.39	1151.54
384.58	1067.28
384.78	1114.10
384.97	1163.25
385.17	1200.69
385.36	1135.16
385.56	1156.22
385.75	1214.74
385.95	1249.85
386.14	1149.20
386.34	1205.38
386.53	1233.46
386.72	1118.78
386.92	1163.25
387.11	1210.06
387.31	1287.29
387.50	1186.65
387.70	1224.10
387.89	1217.08
388.09	1245.16
388.28	1196.01
388.48	1252.19
388.67	1306.02
388.86	1273.25
389.06	1380.92
389.25	1273.25
389.45	1348.15
389.64	1334.11
389.84	1348.15
390.03	1432.41
390.22	1458.15
390.42	1423.05
390.61	1366.87
390.81	1390.28
391.00	1444.11
391.19	1509.65
391.39	1406.66
391.58	1425.39
391.78	1451.13
391.97	1568.16
392.16	1565.82
392.36	1493.26
392.55	1558.80
392.75	1593.90
392.94	1514.33
393.13	1500.28
393.33	1462.83
393.52	1547.09
393.71	1570.50
393.91	1549.43
394.10	1526.03
394.29	1591.56
394.49	1643.06
394.68	1626.67
394.88	1640.72
395.07	1755.40
395.26	1570.50
395.46	1638.38
395.65	1724.97
395.84	1715.61
396.04	1767.10
396.23	1694.55
396.42	1673.48
396.62	1750.72
396.81	1605.61
397.00	1818.60
397.19	1774.13
397.39	1891.15
397.58	1837.32
397.77	1694.55
397.97	1820.94
398.16	1867.75
398.35	1891.15
398.55	1973.07
398.74	2010.52
398.93	1930.94
399.12	2012.86
399.32	1942.64
399.51	1867.75
399.70	2015.20
399.90	2012.86
400.09	1961.37
400.28	2052.65
400.47	2010.52
400.67	2003.50
400.86	2047.97
401.05	2085.42
401.24	2115.84
401.44	2190.74
401.63	2214.15
401.82	2155.63
402.01	2087.76
402.21	2113.50
402.40	2157.97
402.59	2239.89
402.78	2221.17
402.97	2200.10
403.17	2169.68
403.36	2282.02
403.55	2237.55
403.74	2267.98
403.93	2300.75
404.13	2375.64
404.32	2335.85
404.51	2335.85
404.70	2373.30
404.89	2300.75
405.09	2464.58
405.28	2516.08
405.47	2389.69
405.66	2502.03
405.85	2602.68
406.05	2537.14
406.24	2525.44
406.43	2616.72
406.62	2614.38
406.81	2642.46
407.00	2616.72
407.20	2520.76
407.39	2590.97
407.58	2750.13
407.77	2724.38
407.96	2764.17
408.15	2750.13
408.34	2726.72
408.54	2883.54
408.73	2663.53
408.92	2843.75
409.11	2883.54
409.30	2871.84
409.49	2888.22
409.68	2930.35
409.87	3000.57
410.07	3056.74
410.26	3007.59
410.45	3243.98
410.64	2939.71
410.83	3077.80
411.02	3159.72
411.21	3117.59
411.40	3047.38
411.59	3272.07
411.78	3059.08
411.98	3239.30
412.17	3255.69
412.36	3302.50
412.55	3297.81
412.74	3407.82
412.93	3445.27
413.12	3428.88
413.31	3545.91
413.50	3428.88
413.69	3431.23
413.88	3588.04
414.07	3660.60
414.26	3751.88
414.45	3700.39
414.64	3700.39
414.83	3737.84
415.02	3873.59
415.22	3866.56
415.41	3969.55
415.60	3925.08
415.79	3709.75
415.98	3922.74
416.17	3901.67
416.36	4072.53
416.55	3936.78
416.74	3962.53
416.93	4203.60
417.12	4163.81
417.31	4053.81
417.50	4126.36
417.69	4285.52
417.88	4154.45
418.07	4269.14
418.26	4231.69
418.45	4348.72
418.64	4674.05
418.83	4374.46
419.02	4369.78
419.21	4472.76
419.39	4414.25
419.58	4580.43
419.77	4465.74
419.96	4727.88
420.15	4606.17
420.34	4578.09
420.53	4812.14
420.72	4753.63
420.91	4606.17
421.10	4805.12
421.29	4837.89
421.48	4610.86
421.67	4660.01
421.86	4809.80
422.05	4772.35
422.24	4805.12
422.43	4809.80
422.61	4896.40
422.80	5069.60
422.99	4779.37
423.18	4891.72
423.37	4943.21
423.56	4971.30
423.75	5008.75
423.94	4777.03
424.13	4648.30
424.32	4802.78
424.50	5001.72
424.69	5057.90
424.88	5144.50
425.07	5130.45
425.26	4917.47
425.45	5062.58
425.64	4964.28
425.83	4961.94
426.01	5107.05
426.20	4947.89
426.39	5184.29
426.58	4931.51
426.77	5186.63
426.96	4983.00
427.15	5167.90
427.33	5242.80
427.52	5226.42
427.71	5277.91
427.90	5240.46
428.09	5249.82
428.28	5324.72
428.46	5327.06
428.65	5455.79
428.84	5451.11
429.03	5348.12
429.22	5423.02
429.40	5504.94
429.59	5366.85
429.78	5352.81
429.97	5252.16
430.16	5348.12
430.34	5551.75
430.53	5628.99
430.72	5631.33
430.91	5640.69
431.10	5535.37
431.28	5734.31
431.47	5762.40
431.66	5844.32
431.85	5729.63
432.03	5902.83
432.22	5893.47
432.41	6017.52
432.60	5820.91
432.79	5804.53
432.97	5998.79
433.16	5996.45
433.35	5984.75
433.54	6073.69
433.72	6195.40
433.91	6118.16
434.10	6136.88
434.28	5961.34
434.47	6286.68
434.66	6277.32
434.85	6384.98
435.03	6270.30
435.22	6469.24
435.41	6544.14
435.59	6469.24
435.78	6363.92
435.97	6494.99
436.16	6431.79
436.34	6443.49
436.53	6541.80
436.72	6719.68
436.90	6487.96
437.09	6499.67
437.28	6396.68
437.46	6696.27
437.65	6775.85
437.84	6817.98
438.02	6904.58
438.21	6782.87
438.40	6806.28
438.58	6785.21
438.77	6972.46
438.96	6850.75
439.14	7138.63
439.33	6956.07
439.52	7213.53
439.70	7351.62
439.89	7290.77
440.08	7417.16
440.26	7300.13
440.45	7492.05
440.63	7473.33
440.82	7627.81
441.01	7510.78
441.19	7545.89
441.38	7688.66
441.57	7583.34
441.75	7779.94
441.94	7831.43
442.12	7915.69
442.31	7936.76
442.50	8053.78
442.68	7953.14
442.87	8091.23
443.05	8081.87
443.24	8084.21
443.43	8114.64
443.61	8170.81
443.80	8446.99
443.98	7962.50
444.17	7698.02
444.35	8224.64
444.54	8329.97
444.73	8353.37
444.91	8161.45
445.10	8372.10
445.28	8395.50
445.47	8383.80
445.65	8203.58
445.84	8484.44
446.02	8482.10
446.21	8442.31
446.39	8489.12
446.58	8383.80
446.77	8533.59
446.95	8250.39
447.14	8505.51
447.32	8482.10
447.51	8549.98
447.69	8449.33
447.88	8643.60
448.06	8451.67
448.25	8432.95
448.43	8589.77
448.62	8407.20
448.80	8554.66
448.99	8641.26
449.17	8755.94
449.36	8594.45
449.54	8791.05
449.73	9013.40
449.91	9064.89
450.10	8936.17
450.28	9200.65
450.46	9104.68
450.65	9280.22
450.83	8966.59
451.02	9088.30
451.20	9191.28
451.39	9158.52
451.57	9118.73
451.76	9088.30
451.94	9090.64
452.13	9163.20
452.31	9455.76
452.49	9195.96
452.68	9535.34
452.86	9387.89
453.05	9411.29
453.23	9551.73
453.42	9385.55
453.60	9481.51
453.78	9610.24
453.97	9624.28
454.15	9455.76
454.34	9446.40
454.52	9792.80
454.70	9619.60
454.89	9886.42
455.07	9909.83
455.26	9928.55
455.44	9891.10
455.62	10026.86
455.81	9844.29
455.99	9975.36
456.17	10083.03
456.36	10059.62
456.54	10176.65
456.73	10090.05
456.91	10448.15
457.09	10408.36
457.28	10427.09
457.46	10497.30
457.64	10579.22
457.83	10480.92
458.01	10384.96
458.19	10738.38
458.38	10712.63
458.56	10785.19
458.74	10593.26
458.93	10459.85
459.11	10792.21
459.29	10815.62
459.48	10995.84
459.66	10871.79
459.84	11002.86
460.03	10885.83
460.21	10810.93
460.39	11037.97
460.57	11302.45
460.76	11246.27
460.94	11056.69
461.12	11173.72
461.31	11180.74
461.49	11211.17
461.67	11311.81
461.85	11702.68
462.04	11463.94
462.22	11698.00
462.40	11585.65
462.59	11459.26
462.77	11552.88
462.95	11566.93
463.13	11599.70
463.32	11709.70
463.50	11592.67
463.68	11716.72
463.86	11967.16
464.05	11803.32
464.23	11651.19
464.41	11922.69
464.59	11772.89
464.78	12355.69
464.96	12163.76
465.14	11927.37
465.32	12145.04
465.50	12006.95
465.69	12290.15
465.87	12421.22
466.05	12159.08
466.23	12372.07
466.41	12154.40
466.60	12559.31
466.78	12222.28
466.96	12163.76
467.14	12437.61
467.32	12631.87
467.51	12669.32
467.69	12177.81
467.87	12547.61
468.05	12596.76
468.23	12498.46
468.41	12437.61
468.60	12461.01
468.78	12624.85
468.96	12587.40
469.14	12933.80
469.32	12776.98
469.50	12500.80
469.69	13074.23
469.87	13008.70
470.05	13088.28
470.23	13228.71
470.41	13146.79
470.59	13394.89
470.77	13139.77
470.95	13224.03
471.14	13699.16
471.32	13099.98
471.50	13565.74
471.68	13692.13
471.86	13671.07
472.04	13497.87
472.22	14080.66
472.40	13781.07
472.58	14092.37
472.77	13858.31
472.95	14183.65
473.13	14567.49
473.31	14094.71
473.49	14190.67
473.67	13961.30
473.85	14363.87
474.03	14934.96
474.21	14644.73
474.39	14546.43
474.57	14686.86
474.75	14860.06
474.93	14857.72
475.12	14766.44
475.30	15166.67
475.48	15070.71
475.66	15241.57
475.84	15206.46
476.02	15332.85
476.20	15218.16
476.38	15676.91
476.56	15667.55
476.74	15889.90
476.92	15800.96
477.10	15946.07
477.28	16236.30
477.46	16112.25
477.64	16545.25
477.82	16791.00
478.00	16905.69
478.18	16404.81
478.36	17032.08
478.54	17027.40
478.72	16959.52
478.90	17165.49
479.08	17699.13
479.26	17605.51
479.44	17713.17
479.62	17987.02
479.80	17893.40
479.98	17792.75
480.16	18611.94
480.34	18506.62
480.52	18546.40
480.70	18782.80
480.88	18501.93
481.06	18714.92
481.24	19044.94
481.41	19433.47
481.59	19349.21
481.77	19321.12
481.95	19403.04
482.13	19740.08
482.31	19854.76
482.49	20198.82
482.67	20299.47
482.85	20329.89
483.03	20496.07
483.21	20706.72
483.39	20882.26
483.57	20800.34
483.74	20971.20
483.92	21373.77
484.10	20957.16
484.28	21710.81
484.46	21991.67
484.64	22209.34
484.82	22059.55
485.00	22340.41
485.18	22665.75
485.35	23073.00
485.53	22682.13
485.71	22979.38
485.89	23433.44
486.07	23777.50
486.25	23473.23
486.43	23768.14
486.61	23445.15
486.78	24030.28
486.96	24217.52
487.14	24870.53
487.32	24624.78
487.50	24903.30
487.68	24973.52
487.85	25378.43
488.03	25441.62
488.21	25867.60
488.39	25830.15
488.57	26499.55
488.75	26324.01
488.92	26621.25
489.10	26529.97
489.28	26419.97
489.46	27466.19
489.64	27101.06
489.81	27768.12
489.99	28037.28
490.17	27821.95
490.35	28481.98
490.53	28123.88
490.70	28308.78
490.88	28500.70
491.06	29333.93
491.24	28964.13
491.41	28739.44
491.59	29476.71
491.77	29252.02
491.95	29853.53
492.13	29769.27
492.30	30050.14
492.48	30239.72
492.66	30026.73
492.84	30150.78
493.01	30735.92
493.19	30747.62
493.37	30796.77
493.54	31075.29
493.72	31688.51
493.90	31571.49
494.08	32041.93
494.25	32294.71
494.43	32081.72
494.61	32378.97
494.79	32788.56
494.96	32472.59
495.14	32914.95
495.32	33354.97
495.49	33326.89
495.67	33406.47
495.85	33633.50
496.02	33961.17
496.20	34164.80
496.38	34284.17
496.55	34251.40
496.73	35030.80
496.91	34190.55
497.09	34792.06
497.26	34988.67
497.44	34859.94
497.62	35297.62
497.79	36128.51
497.97	35622.95
498.14	36367.24
498.32	35892.12
498.50	36172.98
498.67	36715.98
498.85	36524.06
499.03	36493.63
499.20	36807.26
499.38	36723.01
499.56	37003.87
499.73	37266.01
499.91	37432.19
500.08	37820.72
500.26	37626.45
500.44	37553.90
500.61	38085.20
500.79	37851.14
500.97	38153.07
501.14	38492.45
501.32	38543.94
501.49	38628.20
501.67	38759.27
501.84	38646.93
502.02	39159.50
502.20	39222.70
502.37	39173.55
502.55	39058.86
502.72	39454.41
502.90	39524.63
503.07	39538.67
503.25	39754.00
503.43	40187.00
503.60	40058.27
503.78	40418.71
503.95	40631.70
504.13	40615.32
504.30	40580.21
504.48	40638.72
504.65	40631.70
504.83	41043.63
505.01	41603.02
505.18	41240.24
505.36	41881.55
505.53	41165.34
505.71	41230.88
505.88	41890.91
506.06	41617.07
506.23	41879.21
506.41	41862.82
506.58	41706.01
506.76	42253.69
506.93	42431.57
507.11	42019.64
507.28	42258.37
507.46	42567.32
507.63	42679.67
507.81	43281.19
507.98	42958.19
508.16	43042.45
508.33	43636.95
508.50	43185.22
508.68	43819.51
508.85	43901.43
509.03	43789.08
509.20	44224.42
509.38	44151.87
509.55	44502.95
509.73	44121.44
509.90	44694.87
510.08	44385.92
510.25	44535.71
510.42	44699.55
510.60	44601.25
510.77	44957.01
510.95	45460.23
511.12	45516.40
511.30	45144.25
511.47	45673.21
511.64	45813.65
511.82	45502.35
511.99	45722.37
512.17	46195.15
512.34	45736.41
512.51	46380.06
512.69	46073.45
512.86	46426.87
513.04	46972.21
513.21	46766.24
513.38	46981.57
513.56	47058.81
513.73	47199.24
513.90	47222.65
514.08	46820.08
514.25	47192.22
514.43	47559.69
514.60	47091.58
514.77	47662.67
514.95	47730.54
515.12	47737.57
515.29	47859.27
515.47	47901.40
515.64	48161.20
515.81	48088.65
515.99	48292.27
516.16	48594.20
516.33	48472.49
516.51	48285.25
516.68	48229.08
516.85	48287.59
517.03	49020.18
517.20	49125.50
517.37	48741.66
517.54	49102.10
517.72	49102.10
517.89	49198.06
518.06	49059.97
518.24	49134.87
518.41	49418.07
518.58	49251.89
518.75	49214.44
518.93	49635.74
519.10	49523.40
519.27	50241.94
519.45	49542.12
519.62	49965.76
519.79	49897.88
519.96	50134.28
520.14	50071.08
520.31	50138.96
520.48	50506.42
520.65	50190.45
520.83	50597.70
521.00	50576.64
521.17	50677.28
521.34	50806.01
521.52	50866.86
521.69	50782.60
521.86	51100.92
522.03	51033.04
522.20	51585.41
522.38	51728.18
522.55	51292.84
522.72	51049.42
522.89	51496.47
523.07	51721.16
523.24	51536.26
523.41	51915.42
523.58	51157.09
523.75	51690.73
523.92	51990.32
524.10	51716.48
524.27	51821.80
524.44	52215.01
524.61	52175.22
524.78	52292.25
524.96	52498.22
525.13	52690.14
525.30	52460.77
525.47	52530.98
525.64	52612.90
525.81	52472.47
525.98	52942.92
526.16	52664.39
526.33	52589.50
526.50	53041.22
526.67	52722.91
526.84	52669.08
527.01	52985.05
527.18	52968.66
527.36	53254.21
527.53	52952.28
527.70	53361.87
527.87	53448.47
528.04	53312.72
528.21	53542.10
528.38	53619.33
528.55	53432.09
528.72	53186.33
528.89	53570.18
529.07	53284.64
529.24	53312.72
529.41	53504.65
529.58	53790.19
529.75	53741.04
529.92	53815.94
530.09	53904.88
530.26	53881.47
530.43	53825.30
530.60	53874.45
530.77	53916.58
530.94	54073.40
531.11	54150.63
531.28	54218.51
531.46	54312.13
531.63	54578.95
531.80	54347.24
531.97	54546.18
532.14	54497.03
532.31	54583.63
532.48	54763.85
532.65	54658.53
532.82	54466.61
532.99	54883.22
533.16	54480.65
533.33	54780.24
533.50	55311.54
533.67	54883.22
533.84	54686.62
534.01	54915.99
534.18	55112.59
534.35	55136.00
534.52	54990.89
534.69	55269.41
534.86	55061.10
535.03	55140.68
535.20	55213.24
535.37	55281.11
535.54	55405.16
535.71	55304.52
535.88	55297.50
536.05	55414.52
536.22	55540.91
536.38	55657.94
536.55	55529.21
536.72	55428.57
536.89	55480.06
537.06	55508.14
537.23	55882.63
537.40	55716.45
537.57	55590.06
537.74	55828.80
537.91	55796.03
538.08	55915.40
538.25	55894.33
538.42	56193.92
538.59	56114.34
538.75	55969.23
538.92	56112.00
539.09	56144.77
539.26	56226.69
539.43	55983.27
539.60	56399.89
539.77	56100.30
539.94	56664.37
540.11	56329.67
540.28	56666.71
540.44	56278.18
540.61	56467.76
540.78	56303.93
540.95	56292.22
541.12	56268.82
541.29	56399.89
541.46	56367.12
541.62	56561.39
541.79	56774.37
541.96	56093.28
542.13	56685.43
542.30	56697.14
542.47	56718.20
542.63	56767.35
542.80	57024.81
542.97	57057.58
543.14	57043.54
543.31	57359.51
543.48	57153.54
543.64	57638.03
543.81	57338.44
543.98	57523.35
544.15	57354.83
544.32	57506.96
544.48	57549.09
544.65	57425.04
544.82	57450.79
544.99	57385.25
545.16	57413.34
545.32	57485.90
545.49	57682.50
545.66	57806.55
545.83	57783.15
546.00	57815.91
546.16	57333.76
546.33	57563.14
546.50	57661.44
546.67	57600.58
546.83	57607.61
547.00	57787.83
547.17	57876.77
547.34	57745.70
547.50	58019.54
547.67	58108.48
547.84	58199.76
548.00	58094.44
548.17	58209.12
548.34	58012.52
548.51	58356.58
548.67	58225.51
548.84	58389.34
549.01	58021.88
549.18	58115.50
549.34	58244.23
549.51	58333.17
549.68	58326.15
549.84	58429.13
550.01	58396.37
550.18	58305.09
550.34	58817.66
550.51	58529.78
550.68	58504.03
550.84	58199.76
551.01	58581.27
551.18	58546.16
551.34	58607.01
551.51	58534.46
551.68	58609.35
551.84	58674.89
552.01	58499.35
552.18	58681.91
552.34	58674.89
552.51	58789.58
552.68	58571.91
552.84	58801.28
553.01	58967.46
553.18	58829.37
553.34	58864.47
553.51	58618.72
553.67	58815.32
553.84	59018.95
554.01	59107.89
554.17	58852.77
554.34	59114.91
554.51	58892.56
554.67	59374.71
554.84	58979.16
555.00	59009.59
555.17	58815.32
555.33	58990.86
555.50	58951.07
555.67	58932.35
555.83	59018.95
556.00	59131.29
556.16	59561.95
556.33	59355.99
556.50	59110.23
556.66	59365.35
556.83	59243.64
556.99	59512.80
557.16	59402.80
557.32	59330.24
557.49	59536.21
557.65	59348.96
557.82	59477.69
557.98	59358.33
558.15	59334.92
558.32	59414.50
558.48	59302.15
558.65	59473.01
558.81	59505.78
558.98	59456.63
559.14	59657.91
559.31	59693.02
559.47	59629.83
559.64	59714.09
559.80	59767.92
559.97	59641.53
560.13	59737.49
560.30	59840.48
560.46	59936.44
560.63	59957.50
560.79	59845.16
560.96	60182.19
561.12	59913.03
561.29	59969.21
561.45	59985.59
561.61	59920.05
561.78	59817.07
561.94	59898.99
562.11	59922.40
562.27	59798.35
562.44	60069.85
562.60	59887.29
562.77	59985.59
562.93	59863.88
563.10	59973.89
563.26	59906.01
563.42	60280.50
563.59	59898.99
563.75	59943.46
563.92	59920.05
564.08	60025.38
564.24	60191.56
564.41	60076.87
564.57	60254.75
564.74	60126.02
564.90	60102.62
565.07	60121.34
565.23	60392.84
565.39	60023.04
565.56	60322.63
565.72	60170.49
565.88	60273.48
566.05	60158.79
566.21	60058.15
566.38	60282.84
566.54	60406.89
566.70	60193.90
566.87	60498.17
567.03	60189.22
567.19	60369.44
567.36	60385.82
567.52	60383.48
567.68	60645.62
567.85	60537.96
568.01	60528.59
568.17	60259.43
568.34	60331.99
568.50	60193.90
568.66	60376.46
568.83	60486.46
568.99	60563.70
569.15	60509.87
569.32	60460.72
569.48	60406.89
569.64	60552.00
569.81	60317.95
569.97	60261.77
570.13	60479.44
570.30	60327.31
570.46	60388.16
570.62	60343.69
570.78	60540.30
570.95	60479.44
571.11	60544.98
571.27	60441.99
571.43	60523.91
571.60	60629.24
571.76	60598.81
571.92	60676.05
572.09	60722.86
572.25	60734.56
572.41	60629.24
572.57	60652.64
572.74	60872.65
572.90	60736.90
573.06	60563.70
573.22	60741.58
573.38	60519.23
573.55	60678.39
573.71	60795.42
573.87	60736.90
574.03	60491.15
574.20	60772.01
574.36	60666.69
574.52	60802.44
574.68	60985.00
574.84	60837.54
575.01	60706.47
575.17	60903.08
575.33	60711.16
575.49	60523.91
575.65	60783.71
575.82	60949.89
575.98	60809.46
576.14	61029.47
576.30	60800.10
576.46	60643.28
576.62	60748.60
576.79	60882.02
576.95	60507.53
577.11	60837.54
577.27	61001.38
577.43	60874.99
577.59	60659.66
577.75	60666.69
577.92	60907.76
578.08	60987.34
578.24	60746.26
578.40	61064.58
578.56	60956.91
578.72	60816.48
578.88	61104.37
579.04	60982.66
579.21	60947.55
579.37	61052.87
579.53	60996.70
579.69	60741.58
579.85	60718.18
580.01	61022.45
580.17	60685.41
580.33	61029.47
580.49	61076.28
580.65	61106.71
580.82	60903.08
580.98	60762.65
581.14	60996.70
581.30	61038.83
581.46	61001.38
581.62	60900.74
581.78	61017.77
581.94	61069.26
582.10	60919.46
582.26	61073.94
582.42	61073.94
582.58	61186.28
582.74	60961.59
582.90	60928.83
583.06	60956.91
583.22	60956.91
583.38	61113.73
583.54	60999.04
583.70	60994.36
583.86	60947.55
584.02	60727.54
584.18	61300.97
584.34	61130.11
584.50	60907.76
584.66	60933.51
584.82	60952.23
584.98	61230.75
585.14	61010.74
585.30	60935.85
585.46	60977.98
585.62	61052.87
585.78	61315.01
585.94	60966.27
586.10	61022.45
586.26	61071.60
586.42	61315.01
586.58	61137.13
586.74	61207.35
586.90	60956.91
587.06	61073.94
587.22	61429.70
587.38	61127.77
587.54	61202.67
587.70	61307.99
587.86	61064.58
588.02	60954.57
588.18	61172.24
588.34	60882.02
588.49	61116.07
