SpectraSuite Data File
++++++++++++++++++++++++++++++++++++
Date: Fri Oct 25 11:25:35 EDT 2013
User: price-jones
Dark Spectrum Present: No
Reference Spectrum Present: No
Number of Sampled Component Spectra: 1
Spectrometers: USB2+H05261
Integration Time (usec): 100000 (USB2+H05261)
Spectra Averaged: 1 (USB2+H05261)
Boxcar Smoothing: 0 (USB2+H05261)
Correct for Electrical Dark: No (USB2+H05261)
Strobe/Lamp Enabled: No (USB2+H05261)
Correct for Detector Non-linearity: No (USB2+H05261)
Correct for Stray Light: No (USB2+H05261)
Number of Pixels in Processed Spectrum: 2048
>>>>>Begin Processed Spectral Data<<<<<
365.73	294.91
365.92	294.91
366.12	294.91
366.32	114.69
366.52	159.16
366.72	102.98
366.91	131.07
367.11	110.01
367.31	65.54
367.51	95.96
367.70	149.79
367.90	98.30
368.10	180.22
368.30	196.60
368.49	98.30
368.69	175.54
368.89	224.69
369.09	105.32
369.28	189.58
369.48	138.09
369.68	149.79
369.87	182.56
370.07	142.77
370.27	238.73
370.47	325.33
370.66	615.56
370.86	559.39
371.06	681.10
371.25	634.29
371.45	669.39
371.65	720.88
371.84	718.54
372.04	657.69
372.24	653.01
372.44	667.05
372.63	737.27
372.83	777.06
373.03	732.59
373.22	711.52
373.42	688.12
373.62	727.91
373.81	723.23
374.01	788.76
374.21	770.04
374.40	814.51
374.60	849.61
374.79	772.38
374.99	767.70
375.19	863.66
375.38	851.96
375.58	791.10
375.78	812.17
375.97	889.40
376.17	870.68
376.37	833.23
376.56	938.55
376.76	856.64
376.95	877.70
377.15	812.17
377.35	880.04
377.54	952.60
377.74	971.32
377.93	908.13
378.13	903.45
378.33	861.32
378.52	1015.79
378.72	1008.77
378.91	952.60
379.11	943.24
379.31	870.68
379.50	828.55
379.70	964.30
379.89	943.24
380.09	1013.45
380.28	933.87
380.48	1022.81
380.68	964.30
380.87	1020.47
381.07	961.96
381.26	1055.58
381.46	1020.47
381.65	1013.45
381.85	1050.90
382.04	1060.26
382.24	1041.54
382.43	1074.31
382.63	1121.12
382.83	1081.33
383.02	1081.33
383.22	1139.84
383.41	1048.56
383.61	1074.31
383.80	1181.97
384.00	1163.25
384.19	1114.10
384.39	1102.39
384.58	1102.39
384.78	1123.46
384.97	1151.54
385.17	1149.20
385.36	1205.38
385.56	1111.75
385.75	1259.21
385.95	1163.25
386.14	1184.31
386.34	1151.54
386.53	1235.80
386.72	1196.01
386.92	1249.85
387.11	1193.67
387.31	1210.06
387.50	1235.80
387.70	1247.51
387.89	1233.46
388.09	1198.35
388.28	1252.19
388.48	1296.66
388.67	1348.15
388.86	1315.38
389.06	1329.42
389.25	1343.47
389.45	1392.62
389.64	1427.73
389.84	1294.32
390.03	1378.58
390.22	1427.73
390.42	1387.94
390.61	1448.79
390.81	1439.43
391.00	1369.21
391.19	1488.58
391.39	1507.30
391.58	1362.19
391.78	1446.45
391.97	1547.09
392.16	1474.54
392.36	1586.88
392.55	1488.58
392.75	1591.56
392.94	1523.69
393.13	1380.92
393.33	1558.80
393.52	1629.01
393.71	1584.54
393.91	1643.06
394.10	1584.54
394.29	1554.12
394.49	1647.74
394.68	1626.67
394.88	1661.78
395.07	1689.87
395.26	1673.48
395.46	1617.31
395.65	1739.02
395.84	1640.72
396.04	1914.56
396.23	1741.36
396.42	1708.59
396.62	1664.12
396.81	1727.32
397.00	1769.44
397.19	1692.21
397.39	1762.42
397.58	1790.51
397.77	1858.39
397.97	1837.32
398.16	1816.26
398.35	1802.21
398.55	1844.34
398.74	1806.89
398.93	1982.43
399.12	1966.05
399.32	1921.58
399.51	1956.69
399.70	2045.63
399.90	1963.71
400.09	2062.01
400.28	2062.01
400.47	1991.80
400.67	2054.99
400.86	2080.74
401.05	2157.97
401.24	2054.99
401.44	2090.10
401.63	2165.00
401.82	2160.31
402.01	2111.16
402.21	2204.78
402.40	2260.96
402.59	2179.04
402.78	2246.91
402.97	2277.34
403.17	2347.56
403.36	2223.51
403.55	2279.68
403.74	2317.13
403.93	2296.07
404.13	2455.22
404.32	2380.32
404.51	2368.62
404.70	2434.16
404.89	2565.23
405.09	2490.33
405.28	2331.17
405.47	2415.43
405.66	2609.70
405.85	2513.74
406.05	2487.99
406.24	2586.29
406.43	2572.25
406.62	2635.44
406.81	2665.87
407.00	2546.50
407.20	2541.82
407.39	2619.06
407.58	2808.64
407.77	2724.38
407.96	2750.13
408.15	2612.04
408.34	2738.43
408.54	2726.72
408.73	2747.79
408.92	2747.79
409.11	2899.92
409.30	2832.05
409.49	3028.65
409.68	2832.05
409.87	3052.06
410.07	2951.42
410.26	2892.90
410.45	2979.50
410.64	2970.14
410.83	3002.91
411.02	3054.40
411.21	3145.68
411.40	3117.59
411.59	3283.77
411.78	3199.51
411.98	3169.09
412.17	3297.81
412.36	3431.23
412.55	3353.99
412.74	3368.03
412.93	3370.37
413.12	3372.71
413.31	3578.68
413.50	3445.27
413.69	3625.49
413.88	3660.60
414.07	3527.19
414.26	3618.47
414.45	3637.19
414.64	3531.87
414.83	3929.76
415.02	3754.22
415.22	3885.29
415.41	3815.07
415.60	3833.80
415.79	3976.57
415.98	3880.61
416.17	4046.79
416.36	3941.46
416.55	3950.82
416.74	3974.23
416.93	4093.60
417.12	4065.51
417.31	4159.13
417.50	4243.39
417.69	4231.69
417.88	4170.83
418.07	4175.52
418.26	4191.90
418.45	4264.46
418.64	4554.68
418.83	4383.82
419.02	4383.82
419.21	4465.74
419.39	4472.76
419.58	4477.44
419.77	4365.10
419.96	4542.98
420.15	4512.55
420.34	4660.01
420.53	4550.00
420.72	4697.46
420.91	4727.88
421.10	4751.29
421.29	4896.40
421.48	4660.01
421.67	4805.12
421.86	4784.06
422.05	4772.35
422.24	5004.07
422.43	4784.06
422.61	4732.56
422.80	4990.02
422.99	4870.65
423.18	4919.81
423.37	4943.21
423.56	4849.59
423.75	4814.48
423.94	4858.95
424.13	4669.37
424.32	4765.33
424.50	5022.79
424.69	4990.02
424.88	5097.69
425.07	4915.12
425.26	4842.57
425.45	4975.98
425.64	4966.62
425.83	4882.36
426.01	5088.32
426.20	4990.02
426.39	5057.90
426.58	5055.56
426.77	4882.36
426.96	5240.46
427.15	5011.09
427.33	5069.60
427.52	5174.92
427.71	5291.95
427.90	5069.60
428.09	5254.50
428.28	5315.36
428.46	5423.02
428.65	5366.85
428.84	5530.69
429.03	5425.36
429.22	5493.24
429.40	5495.58
429.59	5453.45
429.78	5420.68
429.97	5355.15
430.16	5490.90
430.34	5582.18
430.53	5827.93
430.72	5537.71
430.91	5603.24
431.10	5600.90
431.28	5699.20
431.47	5856.02
431.66	5860.70
431.85	5664.10
432.03	6050.28
432.22	5954.32
432.41	5823.25
432.60	5727.29
432.79	5865.38
432.97	6001.13
433.16	5942.62
433.35	5975.39
433.54	6127.52
433.72	6076.03
433.91	6031.56
434.10	6108.80
434.28	6066.67
434.47	6195.40
434.66	6321.79
434.85	6270.30
435.03	6059.65
435.22	6279.66
435.41	6438.81
435.59	6246.89
435.78	6462.22
435.97	6518.39
436.16	6473.92
436.34	6490.31
436.53	6544.14
436.72	6558.18
436.90	6338.17
437.09	6387.32
437.28	6546.48
437.46	6551.16
437.65	6658.82
437.84	6759.47
438.02	6766.49
438.21	6780.53
438.40	6635.42
438.58	6888.20
438.77	7040.33
438.96	6977.14
439.14	7012.24
439.33	7131.61
439.52	7124.59
439.70	7178.42
439.89	7272.04
440.08	7417.16
440.26	7377.37
440.45	7456.95
440.63	7566.95
440.82	7894.63
441.01	7503.76
441.19	7606.74
441.38	7716.75
441.57	7620.78
441.75	7646.53
441.94	7875.90
442.12	7786.96
442.31	7999.95
442.50	7962.50
442.68	7908.67
442.87	7983.57
443.05	8072.51
443.24	8049.10
443.43	8189.53
443.61	8215.28
443.80	8486.78
443.98	8238.69
444.17	7901.65
444.35	8086.55
444.54	8381.46
444.73	8095.91
444.91	8362.73
445.10	8156.77
445.28	8315.92
445.47	8339.33
445.65	8327.63
445.84	8435.29
446.02	8470.40
446.21	8386.14
446.39	8463.38
446.58	8479.76
446.77	8332.31
446.95	8166.13
447.14	8411.89
447.32	8500.83
447.51	8479.76
447.69	8486.78
447.88	8479.76
448.06	8444.65
448.25	8463.38
448.43	8491.46
448.62	8435.29
448.80	8540.61
448.99	8517.21
449.17	8615.51
449.36	8484.44
449.54	8599.13
449.73	9020.42
449.91	8952.55
450.10	8833.18
450.28	9015.74
450.46	8889.35
450.65	8954.89
450.83	9088.30
451.02	9076.60
451.20	9238.09
451.39	9092.98
451.57	9177.24
451.76	9046.17
451.94	9212.35
452.13	9268.52
452.31	9320.01
452.49	9078.94
452.68	9451.08
452.86	9235.75
453.05	9488.53
453.23	9579.81
453.42	9355.12
453.60	9310.65
453.78	9767.06
453.97	9305.97
454.15	9554.07
454.34	9460.45
454.52	9671.09
454.70	9680.46
454.89	9745.99
455.07	9713.22
455.26	9745.99
455.44	9998.77
455.62	9884.08
455.81	9902.81
455.99	9923.87
456.17	10113.45
456.36	9914.51
456.54	10265.59
456.73	10104.09
456.91	10406.02
457.09	10452.83
457.28	10413.04
457.46	10349.85
457.64	10436.45
457.83	10621.35
458.01	10157.92
458.19	10672.84
458.38	10434.11
458.56	10736.04
458.74	10527.73
458.93	10429.43
459.11	10586.24
459.29	10810.93
459.48	10712.63
459.66	10815.62
459.84	10778.17
460.03	11070.73
460.21	10911.58
460.39	11007.54
460.57	11014.56
460.76	11035.63
460.94	11208.83
461.12	11044.99
461.31	11253.30
461.49	11248.61
461.67	11295.43
461.85	11513.10
462.04	11421.81
462.22	11726.08
462.40	11524.80
462.59	11494.37
462.77	11403.09
462.95	11730.76
463.13	11501.39
463.32	11384.37
463.50	11700.34
463.68	11793.96
463.86	11918.01
464.05	11583.31
464.23	11740.13
464.41	11772.89
464.59	11632.46
464.78	12049.08
464.96	11873.54
465.14	11510.75
465.32	11913.33
465.50	12238.66
465.69	12161.42
465.87	12119.29
466.05	12128.66
466.23	11929.71
466.41	12306.54
466.60	12407.18
466.78	12161.42
466.96	12386.12
467.14	12170.79
467.32	12411.86
467.51	12395.48
467.69	12126.32
467.87	12493.78
468.05	12786.35
468.23	12458.67
468.41	12231.64
468.60	12608.47
468.78	12828.48
468.96	12379.09
469.14	12697.41
469.32	12971.25
469.50	12786.35
469.69	12980.61
469.87	12889.33
470.05	13142.11
470.23	13219.35
470.41	13266.16
470.59	13088.28
470.77	12870.61
470.95	13099.98
471.14	13614.90
471.32	13186.58
471.50	13542.34
471.68	13359.78
471.86	13635.96
472.04	13745.97
472.22	13921.51
472.40	13706.18
472.58	13813.84
472.77	13834.91
472.95	14307.69
473.13	14614.30
473.31	14050.24
473.49	14237.48
473.67	13942.57
473.85	14193.01
474.03	14658.78
474.21	14651.75
474.39	14717.29
474.57	14787.50
474.75	14998.15
474.93	14827.29
475.12	14890.49
475.30	14794.53
475.48	15000.49
475.66	15056.67
475.84	15197.10
476.02	15503.71
476.20	15143.27
476.38	15676.91
476.56	15857.13
476.74	15861.81
476.92	15683.93
477.10	15730.74
477.28	16063.10
477.46	16280.77
477.64	16095.86
477.82	16489.07
478.00	16830.79
478.18	16772.28
478.36	17074.21
478.54	17198.26
478.72	17029.74
478.90	17282.52
479.08	17493.16
479.26	18052.55
479.44	17537.63
479.62	17858.29
479.80	18082.98
479.98	18031.49
480.16	18263.20
480.34	18146.17
480.52	18525.34
480.70	18874.08
480.88	18366.18
481.06	18625.98
481.24	18841.31
481.41	19183.03
481.59	19271.97
481.77	19316.44
481.95	19290.70
482.13	19611.35
482.31	19513.05
482.49	20177.76
482.67	20112.22
482.85	20238.61
483.03	20622.46
483.21	20767.57
483.39	20826.09
483.57	21174.83
483.74	20954.82
483.92	21205.25
484.10	21092.91
484.28	22064.23
484.46	21912.10
484.64	22235.09
484.82	22033.80
485.00	22485.53
485.18	22792.14
485.35	22834.27
485.53	22572.13
485.71	23201.73
485.89	23175.98
486.07	23520.04
486.25	23105.77
486.43	23487.28
486.61	23906.23
486.78	23960.06
486.96	24142.63
487.14	24748.82
487.32	24210.50
487.50	24922.02
487.68	24924.36
487.85	25207.57
488.03	25429.92
488.21	25879.30
488.39	25734.19
488.57	25776.32
488.75	25898.03
488.92	26085.27
489.10	26696.15
489.28	26785.09
489.46	26941.91
489.64	27065.96
489.81	27611.30
489.99	27751.73
490.17	28018.55
490.35	28156.64
490.53	27852.38
490.70	28535.81
490.88	28245.58
491.06	28673.90
491.24	28603.69
491.41	29050.73
491.59	29446.28
491.77	29060.09
491.95	29408.83
492.13	29869.92
492.30	29785.66
492.48	30022.05
492.66	30377.81
492.84	30218.66
493.01	30726.55
493.19	30436.33
493.37	30874.01
493.54	30906.77
493.72	31281.26
493.90	31356.16
494.08	31828.95
494.25	31782.13
494.43	31679.15
494.61	32006.83
494.79	32308.76
494.96	32294.71
495.14	32725.37
495.32	33062.41
495.49	33022.62
495.67	32898.57
495.85	33509.45
496.02	33472.00
496.20	34017.35
496.38	33673.29
496.55	34029.05
496.73	34576.73
496.91	34167.14
497.09	34415.24
497.26	34892.71
497.44	34742.91
497.62	35234.42
497.79	35585.50
497.97	35424.01
498.14	36034.89
498.32	35791.47
498.50	35573.80
498.67	36257.24
498.85	36526.40
499.03	36676.19
499.20	36311.07
499.38	36851.73
499.56	37453.25
499.73	37453.25
499.91	36994.51
500.08	37717.73
500.26	37331.54
500.44	37757.52
500.61	38171.80
500.79	37347.93
500.97	38174.14
501.14	38258.40
501.32	38106.26
501.49	38361.38
501.67	38494.79
501.84	38768.63
502.02	38679.69
502.20	39103.33
502.37	38948.85
502.55	39173.55
502.72	39194.61
502.90	39459.09
503.07	39681.44
503.25	39433.35
503.43	39358.45
503.60	39992.73
503.78	40060.61
503.95	40076.99
504.13	40570.85
504.30	40500.63
504.48	40313.39
504.65	40392.97
504.83	41188.75
505.01	40875.12
505.18	40851.71
505.36	41345.56
505.53	41605.36
505.71	41504.72
505.88	41375.99
506.06	41216.83
506.23	41549.19
506.41	41698.98
506.58	42071.13
506.76	42040.70
506.93	42330.93
507.11	41867.50
507.28	42822.44
507.46	42677.33
507.63	42906.70
507.81	43136.07
507.98	42831.80
508.16	42913.72
508.33	43480.13
508.50	43405.23
508.68	43344.38
508.85	43828.87
509.03	43732.91
509.20	43908.45
509.38	43742.27
509.55	44130.80
509.73	44608.27
509.90	44233.78
510.08	44306.34
510.25	45151.27
510.42	44718.28
510.60	44931.26
510.77	44947.65
510.95	45261.28
511.12	44978.07
511.30	45123.19
511.47	45603.00
511.64	45315.11
511.82	45720.02
511.99	45633.42
512.17	46101.53
512.34	46225.58
512.51	46176.43
512.69	46050.04
512.86	46602.41
513.04	46579.00
513.21	46244.30
513.38	46653.90
513.56	47058.81
513.73	46658.58
513.90	46892.63
514.08	46579.00
514.25	47569.05
514.43	47136.05
514.60	47079.88
514.77	47295.21
514.95	47566.71
515.12	47313.93
515.29	47522.24
515.47	47819.49
515.64	48184.61
515.81	47309.25
515.99	48245.46
516.16	48362.49
516.33	48444.41
516.51	48498.24
516.68	48446.75
516.85	48453.77
517.03	48952.30
517.20	48830.60
517.37	48903.15
517.54	48701.87
517.72	48828.26
517.89	48790.81
518.06	49188.70
518.24	49181.68
518.41	49261.26
518.58	49244.87
518.75	49331.47
518.93	49530.42
519.10	49443.82
519.27	49621.70
519.45	49647.44
519.62	50035.97
519.79	49703.62
519.96	49783.19
520.14	50162.36
520.31	49977.46
520.48	50220.87
520.65	50127.25
520.83	50417.48
521.00	50578.98
521.17	50611.74
521.34	50672.60
521.52	50733.45
521.69	50852.82
521.86	50843.46
522.03	51171.13
522.20	51264.75
522.38	51531.57
522.55	51206.24
522.72	51339.65
522.89	51337.31
523.07	51517.53
523.24	51405.19
523.41	51892.02
523.58	51248.37
523.75	51697.75
523.92	52130.75
524.10	51934.15
524.27	51690.73
524.44	51962.23
524.61	52002.02
524.78	52062.88
524.96	52332.04
525.13	52126.07
525.30	52090.96
525.47	52287.57
525.64	52474.81
525.81	52388.21
525.98	52580.13
526.16	52584.82
526.33	52601.20
526.50	52879.72
526.67	52582.48
526.84	52765.04
527.01	52669.08
527.18	52523.96
527.36	52900.79
527.53	52933.56
527.70	53308.04
527.87	53481.24
528.04	53085.69
528.21	53202.72
528.38	53425.07
528.55	53682.53
528.72	53488.26
528.89	53382.94
529.07	53462.52
529.24	52994.41
529.41	53600.61
529.58	53708.27
529.75	53684.87
529.92	53771.47
530.09	53909.56
530.26	53972.75
530.43	53944.67
530.60	53645.08
530.77	53818.28
530.94	53947.01
531.11	53867.43
531.28	54026.59
531.46	53984.46
531.63	54316.81
531.80	54178.72
531.97	54368.30
532.14	54485.33
532.31	54443.20
532.48	54831.73
532.65	54609.38
532.82	54403.41
532.99	54494.69
533.16	54522.78
533.33	55145.36
533.50	54859.82
533.67	54611.72
533.84	54564.91
534.01	54995.57
534.18	54824.71
534.35	55157.06
534.52	54855.14
534.69	55072.81
534.86	55306.86
535.03	54932.37
535.20	55180.47
535.37	55482.40
535.54	55114.94
535.71	55072.81
535.88	55461.33
536.05	55547.93
536.22	55330.26
536.38	55405.16
536.55	55573.68
536.72	55550.27
536.89	55531.55
537.06	55302.18
537.23	55693.05
537.40	55426.23
537.57	55571.34
537.74	55744.54
537.91	55896.67
538.08	55781.99
538.25	55653.26
538.42	55758.58
538.59	56123.71
538.75	55838.16
538.92	55948.17
539.09	56161.15
539.26	56161.15
539.43	55945.83
539.60	56088.60
539.77	56114.34
539.94	56404.57
540.11	56161.15
540.28	56413.93
540.44	56346.06
540.61	56446.70
540.78	56133.07
540.95	56495.85
541.12	56095.62
541.29	56231.37
541.46	56425.64
541.62	56144.77
541.79	56800.12
541.96	56327.33
542.13	56460.74
542.30	56545.00
542.47	56605.86
542.63	56846.93
542.80	56816.50
542.97	57066.94
543.14	57228.44
543.31	57024.81
543.48	57137.16
543.64	57293.97
543.81	57499.94
543.98	57223.76
544.15	57190.99
544.32	57345.47
544.48	57453.13
544.65	57209.71
544.82	57401.64
544.99	57265.89
545.16	57516.32
545.32	57237.80
545.49	57478.88
545.66	57298.65
545.83	57371.21
546.00	57432.07
546.16	57631.01
546.33	57401.64
546.50	57286.95
546.67	57570.16
546.83	57396.96
547.00	57822.93
547.17	57633.35
547.34	57666.12
547.50	58071.03
547.67	57954.00
547.84	58010.18
548.00	57841.66
548.17	58176.36
548.34	58176.36
548.51	58237.21
548.67	58103.80
548.84	58274.66
549.01	58017.20
549.18	57996.13
549.34	58157.63
549.51	58333.17
549.68	58197.42
549.84	58323.81
550.01	58387.00
550.18	58101.46
550.34	58410.41
550.51	58391.68
550.68	58197.42
550.84	58094.44
551.01	58529.78
551.18	58426.79
551.34	58560.20
551.51	58616.38
551.68	58684.25
551.84	58590.63
552.01	58475.94
552.18	58478.28
552.34	58443.18
552.51	58831.71
552.68	58300.40
552.84	58473.60
553.01	58747.45
553.18	58805.96
553.34	58728.72
553.51	58609.35
553.67	58768.51
553.84	59000.22
554.01	58906.60
554.17	58623.40
554.34	58848.09
554.51	58906.60
554.67	59110.23
554.84	58876.18
555.00	58855.11
555.17	58911.28
555.33	58820.00
555.50	58504.03
555.67	58953.41
555.83	58719.36
556.00	59112.57
556.16	59381.73
556.33	59180.45
556.50	59178.10
556.66	59257.68
556.83	59096.19
556.99	59309.18
557.16	59381.73
557.32	59505.78
557.49	59522.16
557.65	59334.92
557.82	59449.61
557.98	59419.18
558.15	59346.62
558.32	59379.39
558.48	59437.90
558.65	59451.95
558.81	59409.82
558.98	59208.53
559.14	59468.33
559.31	59442.59
559.47	59676.64
559.64	59840.48
559.80	59641.53
559.97	59681.32
560.13	59442.59
560.30	59395.77
560.46	59765.58
560.63	59861.54
560.79	59735.15
560.96	59786.64
561.12	59777.28
561.29	59737.49
561.45	59859.20
561.61	59791.33
561.78	59819.41
561.94	59817.07
562.11	59709.41
562.27	59788.98
562.44	59929.42
562.60	59962.18
562.77	59969.21
562.93	59746.86
563.10	59767.92
563.26	59718.77
563.42	60221.98
563.59	59831.11
563.75	59934.10
563.92	59994.95
564.08	59901.33
564.24	60025.38
564.41	60147.09
564.57	60119.00
564.74	59987.93
564.90	59945.80
565.07	60058.15
565.23	60016.02
565.39	59987.93
565.56	60170.49
565.72	59962.18
565.88	60074.53
566.05	59758.56
566.21	60048.78
566.38	60334.33
566.54	60243.05
566.70	60189.22
566.87	60102.62
567.03	60161.13
567.19	60526.25
567.36	60205.60
567.52	60140.07
567.68	60425.61
567.85	60238.37
568.01	60399.86
568.17	60083.89
568.34	60303.90
568.50	60360.08
568.66	60207.94
568.83	60420.93
568.99	60350.71
569.15	60348.37
569.32	60299.22
569.48	60254.75
569.64	60575.40
569.81	60395.18
569.97	60434.97
570.13	60355.39
570.30	60456.04
570.46	60552.00
570.62	60654.98
570.78	60418.59
570.95	60430.29
571.11	60666.69
571.27	60065.17
571.43	60411.57
571.60	60573.06
571.76	60456.04
571.92	60594.13
572.09	60484.12
572.25	60514.55
572.41	60477.10
572.57	60549.66
572.74	60650.30
572.90	60533.28
573.06	60638.60
573.22	60664.35
573.38	60516.89
573.55	60542.64
573.71	60594.13
573.87	60605.83
574.03	60247.73
574.20	60734.56
574.36	60420.93
574.52	60722.86
574.68	60701.79
574.84	60699.45
575.01	60697.11
575.17	60619.88
575.33	60528.59
575.49	60381.14
575.65	60605.83
575.82	60757.97
575.98	60640.94
576.14	60879.67
576.30	60760.31
576.46	60697.11
576.62	60959.25
576.79	60800.10
576.95	60622.22
577.11	60853.93
577.27	60706.47
577.43	60605.83
577.59	60561.36
577.75	60624.56
577.92	60582.43
578.08	60664.35
578.24	60853.93
578.40	60924.14
578.56	60896.06
578.72	60846.91
578.88	60849.25
579.04	61111.39
579.21	60755.63
579.37	60977.98
579.53	60879.67
579.69	60470.08
579.85	60746.26
580.01	60701.79
580.17	60741.58
580.33	61006.06
580.49	60811.80
580.65	60985.00
580.82	60938.19
580.98	60874.99
581.14	60654.98
581.30	60825.84
581.46	60715.84
581.62	61078.62
581.78	60561.36
581.94	60757.97
582.10	60807.12
582.26	60952.23
582.42	60821.16
582.58	60877.33
582.74	60889.04
582.90	60917.12
583.06	60912.44
583.22	60748.60
583.38	60952.23
583.54	60987.34
583.70	60797.76
583.86	60945.21
584.02	60743.92
584.18	60982.66
584.34	60865.63
584.50	60961.59
584.66	60903.08
584.82	60690.09
584.98	61066.92
585.14	61111.39
585.30	60893.72
585.46	60903.08
585.62	60781.37
585.78	61153.52
585.94	60762.65
586.10	61003.72
586.26	60877.33
586.42	60987.34
586.58	61132.45
586.74	60914.78
586.90	60825.84
587.06	61113.73
587.22	61144.16
587.38	61116.07
587.54	61209.69
587.70	61207.35
587.86	61015.43
588.02	61013.08
588.18	61113.73
588.34	60800.10
588.49	60825.84
