SpectraSuite Data File
++++++++++++++++++++++++++++++++++++
Date: Fri Oct 25 11:22:29 EDT 2013
User: price-jones
Dark Spectrum Present: No
Reference Spectrum Present: No
Number of Sampled Component Spectra: 1
Spectrometers: USB2+H05261
Integration Time (usec): 100000 (USB2+H05261)
Spectra Averaged: 1 (USB2+H05261)
Boxcar Smoothing: 0 (USB2+H05261)
Correct for Electrical Dark: No (USB2+H05261)
Strobe/Lamp Enabled: No (USB2+H05261)
Correct for Detector Non-linearity: No (USB2+H05261)
Correct for Stray Light: No (USB2+H05261)
Number of Pixels in Processed Spectrum: 2048
>>>>>Begin Processed Spectral Data<<<<<
365.73	168.52
365.92	168.52
366.12	168.52
366.32	110.01
366.52	166.18
366.72	154.48
366.91	91.28
367.11	14.04
367.31	65.54
367.51	135.75
367.70	140.43
367.90	147.45
368.10	105.32
368.30	98.30
368.49	154.48
368.69	142.77
368.89	156.82
369.09	194.26
369.28	107.66
369.48	95.96
369.68	105.32
369.87	117.03
370.07	241.08
370.27	201.29
370.47	292.57
370.66	615.56
370.86	575.77
371.06	552.37
371.25	669.39
371.45	716.20
371.65	617.90
371.84	662.37
372.04	671.73
372.24	748.97
372.44	716.20
372.63	744.29
372.83	734.93
373.03	725.57
373.22	751.31
373.42	753.65
373.62	739.61
373.81	739.61
374.01	791.10
374.21	856.64
374.40	875.36
374.60	905.79
374.79	802.80
374.99	802.80
375.19	788.76
375.38	866.00
375.58	901.11
375.78	833.23
375.97	884.72
376.17	912.81
376.37	910.47
376.56	854.30
376.76	875.36
376.95	795.78
377.15	908.13
377.35	887.06
377.54	924.51
377.74	898.77
377.93	884.72
378.13	919.83
378.33	968.98
378.52	971.32
378.72	933.87
378.91	875.36
379.11	954.94
379.31	910.47
379.50	1006.43
379.70	910.47
379.89	971.32
380.09	873.02
380.28	922.17
380.48	929.19
380.68	999.41
380.87	1046.22
381.07	1107.07
381.26	1102.39
381.46	1015.79
381.65	1083.67
381.85	1006.43
382.04	971.32
382.24	1039.20
382.43	1146.86
382.63	1041.54
382.83	1095.37
383.02	1027.50
383.22	1118.78
383.41	1123.46
383.61	1111.75
383.80	1100.05
384.00	1088.35
384.19	1048.56
384.39	1151.54
384.58	1149.20
384.78	1135.16
384.97	1060.26
385.17	1165.59
385.36	1135.16
385.56	1104.73
385.75	1221.76
385.95	1217.08
386.14	1219.42
386.34	1238.14
386.53	1151.54
386.72	1200.69
386.92	1275.59
387.11	1315.38
387.31	1259.21
387.50	1203.04
387.70	1238.14
387.89	1338.79
388.09	1299.00
388.28	1357.51
388.48	1245.16
388.67	1364.53
388.86	1240.48
389.06	1355.17
389.25	1418.36
389.45	1385.60
389.64	1329.42
389.84	1390.28
390.03	1315.38
390.22	1432.41
390.42	1458.15
390.61	1327.08
390.81	1315.38
391.00	1406.66
391.19	1423.05
391.39	1444.11
391.58	1493.26
391.78	1413.68
391.97	1502.62
392.16	1420.71
392.36	1481.56
392.55	1488.58
392.75	1465.18
392.94	1502.62
393.13	1502.62
393.33	1437.09
393.52	1636.03
393.71	1556.46
393.91	1584.54
394.10	1577.52
394.29	1586.88
394.49	1453.47
394.68	1666.46
394.88	1699.23
395.07	1668.80
395.26	1757.74
395.46	1689.87
395.65	1654.76
395.84	1788.17
396.04	1736.68
396.23	1799.87
396.42	1696.89
396.62	1820.94
396.81	1839.66
397.00	1741.36
397.19	1797.53
397.39	1778.81
397.58	1832.64
397.77	1778.81
397.97	1816.26
398.16	1863.07
398.35	2054.99
398.55	1921.58
398.74	1839.66
398.93	1949.67
399.12	1994.14
399.32	1956.69
399.51	1973.07
399.70	1898.17
399.90	1926.26
400.09	2047.97
400.28	1989.46
400.47	2120.53
400.67	2092.44
400.86	2010.52
401.05	2054.99
401.24	2172.02
401.44	2195.42
401.63	2209.47
401.82	2183.72
402.01	2122.87
402.21	2169.68
402.40	2326.49
402.59	2221.17
402.78	2150.95
402.97	2286.70
403.17	2342.88
403.36	2249.25
403.55	2242.23
403.74	2450.54
403.93	2307.77
404.13	2415.43
404.32	2356.92
404.51	2331.17
404.70	2473.95
404.89	2511.39
405.09	2495.01
405.28	2466.92
405.47	2443.52
405.66	2516.08
405.85	2469.27
406.05	2466.92
406.24	2487.99
406.43	2567.57
406.62	2752.47
406.81	2726.72
407.00	2546.50
407.20	2555.86
407.39	2626.08
407.58	2738.43
407.77	2846.09
407.96	2719.70
408.15	2771.19
408.34	2654.17
408.54	2743.11
408.73	2874.18
408.92	2888.22
409.11	2930.35
409.30	2871.84
409.49	2862.48
409.68	3056.74
409.87	2958.44
410.07	3103.55
410.26	2932.69
410.45	2918.65
410.64	3033.33
410.83	3218.24
411.02	3171.43
411.21	3236.96
411.40	3077.80
411.59	3208.87
411.78	3187.81
411.98	3138.66
412.17	3272.07
412.36	3325.90
412.55	3356.33
412.74	3449.95
412.93	3372.71
413.12	3496.76
413.31	3658.26
413.50	3559.95
413.69	3456.97
413.88	3730.81
414.07	3679.32
414.26	3634.85
414.45	3672.30
414.64	3693.37
414.83	3845.50
415.02	3693.37
415.22	3906.35
415.41	3866.56
415.60	3815.07
415.79	3894.65
415.98	3899.33
416.17	3997.64
416.36	3861.88
416.55	4210.62
416.74	4234.03
416.93	4152.11
417.12	4224.67
417.31	4133.39
417.50	4088.92
417.69	4348.72
417.88	4308.93
418.07	4283.18
418.26	4397.87
418.45	4334.67
418.64	4568.73
418.83	4521.92
419.02	4491.49
419.21	4648.30
419.39	4531.28
419.58	4601.49
419.77	4519.57
419.96	4669.37
420.15	4634.26
420.34	4819.16
420.53	4610.86
420.72	4805.12
420.91	4877.68
421.10	4720.86
421.29	4786.40
421.48	4765.33
421.67	4922.15
421.86	4652.98
422.05	4903.42
422.24	4966.62
422.43	4985.34
422.61	4807.46
422.80	5013.43
422.99	4947.89
423.18	4936.19
423.37	5022.79
423.56	5057.90
423.75	4959.60
423.94	4973.64
424.13	4865.97
424.32	4793.42
424.50	5008.75
424.69	5268.55
424.88	5151.52
425.07	4966.62
425.26	4950.23
425.45	5102.37
425.64	4997.04
425.83	5025.13
426.01	5074.28
426.20	5165.56
426.39	5163.22
426.58	5142.16
426.77	5275.57
426.96	5039.17
427.15	5235.78
427.33	5303.65
427.52	5266.21
427.71	5259.18
427.90	5214.71
428.09	5270.89
428.28	5401.96
428.46	5458.13
428.65	5579.84
428.84	5495.58
429.03	5561.11
429.22	5472.17
429.40	5425.36
429.59	5593.88
429.78	5188.97
429.97	5390.25
430.16	5561.11
430.34	5526.00
430.53	5738.99
430.72	5769.42
430.91	5661.76
431.10	5776.44
431.28	5879.43
431.47	6040.92
431.66	5844.32
431.85	5692.18
432.03	6143.91
432.22	6160.29
432.41	5928.58
432.60	5998.79
432.79	5884.11
432.97	6122.84
433.16	6167.31
433.35	6003.47
433.54	6078.37
433.72	6256.25
433.91	6193.06
434.10	6223.48
434.28	6097.10
434.47	6296.04
434.66	6186.04
434.85	6399.02
435.03	6450.52
435.22	6349.87
435.41	6534.78
435.59	6417.75
435.78	6408.39
435.97	6403.71
436.16	6457.54
436.34	6630.74
436.53	6595.63
436.72	6757.13
436.90	6614.35
437.09	6815.64
437.28	6679.89
437.46	6583.93
437.65	6656.48
437.84	6817.98
438.02	6778.19
438.21	6876.49
438.40	6764.15
438.58	7112.89
438.77	7068.42
438.96	7056.72
439.14	7321.20
439.33	7318.86
439.52	7330.56
439.70	7293.11
439.89	7482.69
440.08	7335.24
440.26	7503.76
440.45	7658.23
440.63	7747.17
440.82	7637.17
441.01	7768.24
441.19	7723.77
441.38	7908.67
441.57	7676.96
441.75	7726.11
441.94	7992.93
442.12	8102.93
442.31	7974.21
442.50	8147.40
442.68	8016.33
442.87	8100.59
443.05	8250.39
443.24	8369.76
443.43	8329.97
443.61	8280.82
443.80	8610.83
443.98	8229.32
444.17	7953.14
444.35	8292.52
444.54	8393.16
444.73	8517.21
444.91	8313.58
445.10	8468.06
445.28	8428.27
445.47	8238.69
445.65	8393.16
445.84	8601.47
446.02	8636.58
446.21	8524.23
446.39	8477.42
446.58	8524.23
446.77	8659.98
446.95	8400.18
447.14	8547.64
447.32	8711.47
447.51	8699.77
447.69	8533.59
447.88	8683.39
448.06	8695.09
448.25	8755.94
448.43	8884.67
448.62	8629.56
448.80	8493.80
448.99	8638.92
449.17	8851.91
449.36	8645.94
449.54	8971.27
449.73	9132.77
449.91	9057.87
450.10	9090.64
450.28	9289.59
450.46	9139.79
450.65	9291.93
450.83	9254.48
451.02	8917.44
451.20	9245.12
451.39	9352.78
451.57	9240.44
451.76	9205.33
451.94	9163.20
452.13	9371.50
452.31	9427.68
452.49	9179.58
452.68	9516.62
452.86	9329.38
453.05	9427.68
453.23	9767.06
453.42	9525.98
453.60	9596.20
453.78	9633.64
453.97	9579.81
454.15	9521.30
454.34	9423.00
454.52	9811.53
454.70	9870.04
454.89	9916.85
455.07	10167.29
455.26	9940.26
455.44	9912.17
455.62	10085.37
455.81	10136.86
455.99	10258.57
456.17	10204.74
456.36	10066.64
456.54	10345.17
456.73	10387.30
456.91	10724.33
457.09	10574.54
457.28	10626.03
457.46	10403.68
457.64	10628.37
457.83	10574.54
458.01	10630.71
458.19	10731.36
458.38	10743.06
458.56	10803.91
458.74	10918.60
458.93	11026.26
459.11	10906.90
459.29	10775.83
459.48	11014.56
459.66	10911.58
459.84	11037.97
460.03	11286.06
460.21	11108.18
460.39	11061.37
460.57	11211.17
460.76	11150.31
460.94	11133.93
461.12	11222.87
461.31	11358.62
461.49	11372.66
461.67	11314.15
461.85	11618.42
462.04	11351.60
462.22	11520.12
462.40	11707.36
462.59	11716.72
462.77	11765.87
462.95	11875.88
463.13	11646.51
463.32	11616.08
463.50	12133.34
463.68	11843.11
463.86	11798.64
464.05	11843.11
464.23	11817.36
464.41	11887.58
464.59	11775.24
464.78	12409.52
464.96	12236.32
465.14	12184.83
465.32	12201.21
465.50	12292.49
465.69	12212.92
465.87	12273.77
466.05	12297.17
466.23	12411.86
466.41	12304.20
466.60	12547.61
466.78	12301.86
466.96	12407.18
467.14	12540.59
467.32	12636.55
467.51	12755.92
467.69	12332.28
467.87	12517.18
468.05	12699.75
468.23	12533.57
468.41	12582.72
468.60	12561.66
468.78	12643.57
468.96	12610.81
469.14	13039.12
469.32	13298.92
469.50	12727.83
469.69	13018.06
469.87	13032.10
470.05	13092.96
470.23	13420.63
470.41	13486.17
470.59	13647.66
470.77	13427.65
470.95	13345.73
471.14	13855.97
471.32	13242.75
471.50	13919.17
471.68	13727.24
471.86	13937.89
472.04	14024.49
472.22	14111.09
472.40	14087.68
472.58	14125.13
472.77	14260.88
472.95	14354.51
473.13	14689.20
473.31	14267.91
473.49	14406.00
473.67	14310.04
473.85	14691.54
474.03	15136.24
474.21	14899.85
474.39	14843.68
474.57	14731.33
474.75	15098.80
474.93	15204.12
475.12	15253.27
475.30	15442.85
475.48	15260.29
475.66	15213.48
475.84	15445.20
476.02	15651.16
476.20	15578.61
476.38	15950.75
476.56	16123.95
476.74	16198.85
476.92	16229.27
477.10	15969.48
477.28	16430.56
477.46	16603.76
477.64	16315.87
477.82	16954.84
478.00	17046.12
478.18	16849.52
478.36	17179.53
478.54	17266.13
478.72	17329.33
478.90	17516.57
479.08	17762.33
479.26	18071.28
479.44	17614.87
479.62	18052.55
479.80	18389.59
479.98	18221.07
480.16	18834.29
480.34	18780.46
480.52	18855.36
480.70	18948.98
480.88	18579.17
481.06	18724.29
481.24	19187.71
481.41	19501.34
481.59	19805.61
481.77	19899.23
481.95	19880.51
482.13	19859.45
482.31	20032.65
482.49	20304.15
482.67	20779.28
482.85	20692.68
483.03	21130.36
483.21	21088.23
483.39	21446.33
483.57	21240.36
483.74	21383.13
483.92	21575.06
484.10	21422.92
484.28	21783.37
484.46	22082.95
484.64	22602.55
484.82	22164.87
485.00	22700.86
485.18	23129.17
485.35	23321.10
485.53	23023.85
485.71	23538.77
485.89	23786.86
486.07	23557.49
486.25	23721.33
486.43	23971.77
486.61	24306.46
486.78	24170.71
486.96	24486.68
487.14	25015.65
487.32	24966.49
487.50	25268.42
487.68	25373.75
487.85	25291.83
488.03	25570.35
488.21	26111.02
488.39	26286.56
488.57	26195.28
488.75	26426.99
488.92	26733.60
489.10	26895.10
489.28	26944.25
489.46	27630.02
489.64	27414.69
489.81	27969.40
489.99	27997.49
490.17	28208.14
490.35	28503.04
490.53	28645.82
490.70	28769.86
490.88	28851.78
491.06	29511.81
491.24	29591.39
491.41	29481.39
491.59	29479.05
491.77	29731.83
491.95	29989.28
492.13	30429.30
492.30	30686.76
492.48	30546.33
492.66	30714.85
492.84	30553.35
493.01	30878.69
493.19	30838.90
493.37	31372.54
493.54	31686.17
493.72	31831.29
493.90	31412.33
494.08	32474.93
494.25	32643.45
494.43	32613.02
494.61	32517.06
494.79	32952.40
494.96	32659.84
495.14	33015.60
495.32	33727.12
495.49	33584.35
495.67	33521.15
495.85	33642.86
496.02	34120.33
496.20	34370.77
496.38	34422.26
496.55	34450.35
496.73	35105.70
496.91	34869.30
497.09	35372.52
497.26	35873.39
497.44	35501.25
497.62	35702.53
497.79	36388.31
497.97	35571.46
498.14	36198.73
498.32	37017.91
498.50	36748.75
498.67	36758.11
498.85	36978.12
499.03	37294.10
499.20	36767.48
499.38	37291.76
499.56	37537.51
499.73	37336.23
499.91	37762.20
500.08	38195.20
500.26	37823.06
500.44	38036.05
500.61	38204.56
500.79	38405.85
500.97	38719.48
501.14	39086.95
501.32	39136.10
501.49	38953.54
501.67	39328.02
501.84	39351.43
502.02	39061.20
502.20	39730.59
502.37	39849.96
502.55	39487.18
502.72	40390.62
502.90	40023.16
503.07	40158.91
503.25	40289.98
503.43	40224.45
503.60	40584.89
503.78	40622.34
503.95	40900.86
504.13	41390.03
504.30	41055.34
504.48	41083.42
504.65	41160.66
504.83	41773.88
505.01	41706.01
505.18	41743.45
505.36	41579.62
505.53	41888.57
505.71	41958.78
505.88	42267.73
506.06	41890.91
506.23	42768.61
506.41	42347.31
506.58	42836.48
506.76	42588.39
506.93	42873.93
507.11	42869.25
507.28	43178.20
507.46	43047.13
507.63	43107.99
507.81	44032.50
507.98	43447.36
508.16	43313.95
508.33	44137.82
508.50	44254.85
508.68	44404.64
508.85	44568.48
509.03	43945.90
509.20	44760.40
509.38	44818.92
509.55	45368.94
509.73	45099.78
509.90	45322.13
510.08	45125.53
510.25	44942.97
510.42	45067.02
510.60	45502.35
510.77	45584.27
510.95	45918.97
511.12	45610.02
511.30	45738.75
511.47	46361.33
511.64	46295.80
511.82	46223.24
511.99	46061.74
512.17	46405.80
512.34	46356.65
512.51	47084.56
512.69	46377.72
512.86	47262.44
513.04	47065.83
513.21	47105.62
513.38	47054.13
513.56	47246.05
513.73	47222.65
513.90	47810.12
514.08	47875.66
514.25	47746.93
514.43	47751.61
514.60	48116.73
514.77	47835.87
514.95	48456.11
515.12	48257.17
515.29	48378.87
515.47	48360.15
515.64	48753.36
515.81	48444.41
515.99	48807.19
516.16	48973.37
516.33	48488.88
516.51	49059.97
516.68	48800.17
516.85	49097.42
517.03	49418.07
517.20	49481.27
517.37	49172.31
517.54	49499.99
517.72	49633.40
517.89	49705.96
518.06	50031.29
518.24	49731.70
518.41	49780.85
518.58	49923.63
518.75	49813.62
518.93	49813.62
519.10	49731.70
519.27	50288.75
519.45	50298.11
519.62	50380.03
519.79	50506.42
519.96	50494.72
520.14	50429.18
520.31	50607.06
520.48	51103.26
520.65	51086.87
520.83	50932.40
521.00	51313.90
521.17	51065.81
521.34	51283.48
521.52	51358.38
521.69	51100.92
521.86	51391.14
522.03	51402.85
522.20	51714.14
522.38	51966.91
522.55	52023.09
522.72	51817.12
522.89	51697.75
523.07	52018.41
523.24	51917.76
523.41	52240.76
523.58	52058.20
523.75	52243.10
523.92	52189.27
524.10	52493.54
524.27	52559.07
524.44	52570.77
524.61	52341.40
524.78	52931.22
524.96	52758.02
525.13	52706.52
525.30	52877.38
525.47	52870.36
525.64	52914.83
525.81	52912.49
525.98	53088.03
526.16	52924.19
526.33	52893.77
526.50	53244.85
526.67	53146.54
526.84	53378.26
527.01	53034.20
527.18	53354.85
527.36	53319.74
527.53	53411.02
527.70	53703.59
527.87	53790.19
528.04	53366.55
528.21	53860.41
528.38	53628.69
528.55	53956.37
528.72	53460.18
528.89	53970.41
529.07	53785.51
529.24	53549.12
529.41	54202.13
529.58	53902.54
529.75	53977.43
529.92	54169.36
530.09	54260.64
530.26	54405.75
530.43	54581.29
530.60	54071.06
530.77	54410.43
530.94	54335.54
531.11	54375.33
531.28	54499.37
531.46	54529.80
531.63	54738.11
531.80	54728.75
531.97	54808.32
532.14	54951.10
532.31	54843.43
532.48	54988.55
532.65	54967.48
532.82	54822.37
532.99	55241.32
533.16	55000.25
533.33	55103.23
533.50	55367.71
533.67	55194.51
533.84	54925.35
534.01	55255.37
534.18	55007.27
534.35	55718.79
534.52	55484.74
534.69	55767.94
534.86	55564.32
535.03	55557.30
535.20	55669.64
535.37	55683.69
535.54	55641.56
535.71	55693.05
535.88	55557.30
536.05	55945.83
536.22	55957.53
536.38	55931.78
536.55	56123.71
536.72	55863.91
536.89	55856.88
537.06	55976.25
537.23	56165.84
537.40	56006.68
537.57	55856.88
537.74	56149.45
537.91	56474.79
538.08	56299.25
538.25	56013.70
538.42	56116.68
538.59	56411.59
538.75	56292.22
538.92	56296.91
539.09	56378.82
539.26	56425.64
539.43	56179.88
539.60	56554.36
539.77	56884.38
539.94	56692.46
540.11	56481.81
540.28	56743.95
540.44	56797.78
540.61	56645.65
540.78	56605.86
540.95	56701.82
541.12	56743.95
541.29	56882.04
541.46	56973.32
541.62	56903.10
541.79	56926.51
541.96	56715.86
542.13	56999.07
542.30	57020.13
542.47	57024.81
542.63	57200.35
542.80	57420.36
542.97	57418.02
543.14	57308.02
543.31	57436.75
543.48	57240.14
543.64	57801.87
543.81	57523.35
543.98	57609.95
544.15	57661.44
544.32	57792.51
544.48	58075.71
544.65	57659.10
544.82	57609.95
544.99	57446.11
545.16	57951.66
545.32	57836.98
545.49	58010.18
545.66	58110.82
545.83	57829.96
546.00	57954.00
546.16	58129.54
546.33	57888.47
546.50	57799.53
546.67	57968.05
546.83	57918.90
547.00	58333.17
547.17	58068.69
547.34	58188.06
547.50	58192.74
547.67	58454.88
547.84	58281.68
548.00	58387.00
548.17	58431.47
548.34	58202.10
548.51	58412.75
548.67	58365.94
548.84	58574.25
549.01	58679.57
549.18	58609.35
549.34	58499.35
549.51	58621.06
549.68	58700.64
549.84	58752.13
550.01	58798.94
550.18	58553.18
550.34	58763.83
550.51	58976.82
550.68	58642.12
550.84	58597.65
551.01	58939.37
551.18	58787.24
551.34	58883.20
551.51	58866.81
551.68	58899.58
551.84	58803.62
552.01	58906.60
552.18	59082.14
552.34	58876.18
552.51	58990.86
552.68	59175.76
552.84	58915.96
553.01	59320.88
553.18	59117.25
553.34	59154.70
553.51	58937.03
553.67	59161.72
553.84	59220.23
554.01	59164.06
554.17	59262.36
554.34	59304.49
554.51	59311.52
554.67	59550.25
554.84	59248.32
555.00	59426.20
555.17	59414.50
555.33	59444.93
555.50	59236.62
555.67	59253.00
555.83	59370.03
556.00	59524.50
556.16	59716.43
556.33	59480.03
556.50	59587.70
556.66	59559.61
556.83	59468.33
556.99	59798.35
557.16	59833.46
557.32	59788.98
557.49	59810.05
557.65	59664.94
557.82	59920.05
557.98	59803.03
558.15	59601.74
558.32	59648.55
558.48	59611.10
558.65	59779.62
558.81	59838.14
558.98	59948.14
559.14	59906.01
559.31	60032.40
559.47	60193.90
559.64	59992.61
559.80	60315.61
559.97	60095.60
560.13	59983.25
560.30	60090.91
560.46	59976.23
560.63	60039.42
560.79	60205.60
560.96	60268.79
561.12	60172.83
561.29	60133.04
561.45	60172.83
561.61	60317.95
561.78	59985.59
561.94	60030.06
562.11	59898.99
562.27	60186.88
562.44	60016.02
562.60	60233.69
562.77	60266.45
562.93	60142.41
563.10	60528.59
563.26	60217.30
563.42	60556.68
563.59	60301.56
563.75	60175.17
563.92	60575.40
564.08	60404.55
564.24	60523.91
564.41	60331.99
564.57	60516.89
564.74	60589.45
564.90	60191.56
565.07	60383.48
565.23	60514.55
565.39	60441.99
565.56	60500.51
565.72	60336.67
565.88	60617.53
566.05	60399.86
566.21	60397.52
566.38	60470.08
566.54	60669.03
566.70	60706.47
566.87	60678.39
567.03	60418.59
567.19	60481.78
567.36	60549.66
567.52	60699.45
567.68	60781.37
567.85	60608.17
568.01	60786.05
568.17	60610.51
568.34	60725.20
568.50	60718.18
568.66	60563.70
568.83	60781.37
568.99	60453.70
569.15	60673.71
569.32	60767.33
569.48	60612.85
569.64	60860.95
569.81	60741.58
569.97	60645.62
570.13	60697.11
570.30	60643.28
570.46	60767.33
570.62	60917.12
570.78	60755.63
570.95	60949.89
571.11	60863.29
571.27	60732.22
571.43	60865.63
571.60	61209.69
571.76	60912.44
571.92	60882.02
572.09	60807.12
572.25	60966.27
572.41	60795.42
572.57	60942.87
572.74	61113.73
572.90	60837.54
573.06	60767.33
573.22	60781.37
573.38	61134.79
573.55	60886.70
573.71	61034.15
573.87	61043.51
574.03	60781.37
574.20	60910.10
574.36	60828.18
574.52	60917.12
574.68	61013.08
574.84	61158.20
575.01	60907.76
575.17	61048.19
575.33	60961.59
575.49	60959.25
575.65	61099.68
575.82	61205.01
575.98	61130.11
576.14	61132.45
576.30	61169.90
576.46	60907.76
576.62	60961.59
576.79	61190.97
576.95	60882.02
577.11	61055.21
577.27	61289.27
577.43	61116.07
577.59	61080.96
577.75	60985.00
577.92	60994.36
578.08	61146.50
578.24	61174.58
578.40	61207.35
578.56	61165.22
578.72	61080.96
578.88	61160.54
579.04	61338.42
579.21	61146.50
579.37	61221.39
579.53	61247.14
579.69	60926.49
579.85	61443.74
580.01	61137.13
580.17	61109.05
580.33	61113.73
580.49	61127.77
580.65	61298.63
580.82	60935.85
580.98	60989.68
581.14	61073.94
581.30	61340.76
581.46	61153.52
581.62	61141.81
581.78	61034.15
581.94	61235.44
582.10	61017.77
582.26	61113.73
582.42	61221.39
582.58	61392.25
582.74	61130.11
582.90	61130.11
583.06	61139.47
583.22	61202.67
583.38	61305.65
583.54	61436.72
583.70	61219.05
583.86	61282.25
584.02	61102.03
584.18	61544.39
584.34	61455.45
584.50	61247.14
584.66	61111.39
584.82	61118.41
584.98	61502.26
585.14	61284.59
585.30	61230.75
585.46	61471.83
585.62	61305.65
585.78	61520.98
585.94	61176.92
586.10	61256.50
586.26	61162.88
586.42	61443.74
586.58	61389.91
586.74	61265.86
586.90	61296.29
587.06	61230.75
587.22	61563.11
587.38	61392.25
587.54	61492.89
587.70	61380.55
587.86	61207.35
588.02	61223.73
588.18	61343.10
588.34	61436.72
588.49	61319.70
