SpectraSuite Data File
++++++++++++++++++++++++++++++++++++
Date: Fri Oct 25 10:47:54 EDT 2013
User: price-jones
Dark Spectrum Present: No
Reference Spectrum Present: No
Number of Sampled Component Spectra: 1
Spectrometers: USB2+H05261
Integration Time (usec): 100000 (USB2+H05261)
Spectra Averaged: 1 (USB2+H05261)
Boxcar Smoothing: 0 (USB2+H05261)
Correct for Electrical Dark: No (USB2+H05261)
Strobe/Lamp Enabled: No (USB2+H05261)
Correct for Detector Non-linearity: No (USB2+H05261)
Correct for Stray Light: No (USB2+H05261)
Number of Pixels in Processed Spectrum: 2048
>>>>>Begin Processed Spectral Data<<<<<
365.73	128.73
365.92	128.73
366.12	128.73
366.32	100.64
366.52	46.81
366.72	56.17
366.91	44.47
367.11	37.45
367.31	32.77
367.51	25.75
367.70	21.06
367.90	91.28
368.10	49.15
368.30	28.09
368.49	0.00
368.69	126.39
368.89	70.22
369.09	14.04
369.28	65.54
369.48	37.45
369.68	93.62
369.87	100.64
370.07	117.03
370.27	175.54
370.47	142.77
370.66	430.66
370.86	395.55
371.06	468.11
371.25	390.87
371.45	386.19
371.65	528.96
371.84	475.13
372.04	468.11
372.24	531.30
372.44	447.04
372.63	428.32
372.83	519.60
373.03	507.90
373.22	524.28
373.42	491.51
373.62	561.73
373.81	545.34
374.01	643.65
374.21	589.82
374.40	594.50
374.60	514.92
374.79	561.73
374.99	606.20
375.19	535.98
375.38	573.43
375.58	512.58
375.78	571.09
375.97	538.32
376.17	653.01
376.37	617.90
376.56	540.66
376.76	631.94
376.95	540.66
377.15	648.33
377.35	660.03
377.54	582.79
377.74	631.94
377.93	578.11
378.13	676.41
378.33	657.69
378.52	580.45
378.72	638.97
378.91	692.80
379.11	683.44
379.31	622.58
379.50	653.01
379.70	648.33
379.89	711.52
380.09	713.86
380.28	653.01
380.48	641.31
380.68	657.69
380.87	641.31
381.07	727.91
381.26	662.37
381.46	695.14
381.65	669.39
381.85	676.41
382.04	655.35
382.24	723.23
382.43	683.44
382.63	720.88
382.83	720.88
383.02	732.59
383.22	798.12
383.41	725.57
383.61	788.76
383.80	667.05
384.00	784.08
384.19	770.04
384.39	730.25
384.58	734.93
384.78	816.85
384.97	730.25
385.17	720.88
385.36	716.20
385.56	788.76
385.75	770.04
385.95	741.95
386.14	866.00
386.34	751.31
386.53	807.48
386.72	837.91
386.92	758.33
387.11	877.70
387.31	840.25
387.50	765.36
387.70	800.46
387.89	840.25
388.09	777.06
388.28	732.59
388.48	840.25
388.67	875.36
388.86	912.81
389.06	910.47
389.25	891.74
389.45	849.61
389.64	924.51
389.84	877.70
390.03	896.43
390.22	898.77
390.42	933.87
390.61	898.77
390.81	828.55
391.00	992.39
391.19	985.37
391.39	931.53
391.58	973.66
391.78	926.85
391.97	959.62
392.16	903.45
392.36	990.05
392.55	912.81
392.75	889.40
392.94	1046.22
393.13	945.58
393.33	976.00
393.52	1043.88
393.71	1078.99
393.91	1064.94
394.10	1036.86
394.29	1015.79
394.49	999.41
394.68	1128.14
394.88	1046.22
395.07	1163.25
395.26	1228.78
395.46	1116.44
395.65	1109.41
395.84	1149.20
396.04	1205.38
396.23	1086.01
396.42	1095.37
396.62	1172.61
396.81	1020.47
397.00	1186.65
397.19	1181.97
397.39	1191.33
397.58	1245.16
397.77	1226.44
397.97	1263.89
398.16	1268.57
398.35	1334.11
398.55	1322.40
398.74	1313.04
398.93	1404.32
399.12	1320.06
399.32	1416.02
399.51	1315.38
399.70	1331.76
399.90	1376.24
400.09	1397.30
400.28	1432.41
400.47	1413.68
400.67	1434.75
400.86	1409.00
401.05	1514.33
401.24	1411.34
401.44	1439.43
401.63	1561.14
401.82	1500.28
402.01	1511.99
402.21	1493.26
402.40	1495.60
402.59	1504.96
402.78	1586.88
402.97	1547.09
403.17	1537.73
403.36	1544.75
403.55	1666.46
403.74	1591.56
403.93	1565.82
404.13	1678.16
404.32	1652.42
404.51	1661.78
404.70	1703.91
404.89	1732.00
405.09	1856.04
405.28	1750.72
405.47	1687.53
405.66	1748.38
405.85	1715.61
406.05	1785.83
406.24	1802.21
406.43	1834.98
406.62	1846.68
406.81	1849.02
407.00	1806.89
407.20	1778.81
407.39	1846.68
407.58	2017.54
407.77	2022.22
407.96	1928.60
408.15	1930.94
408.34	1933.28
408.54	2029.24
408.73	2043.29
408.92	1914.56
409.11	2026.90
409.30	2026.90
409.49	2066.69
409.68	2087.76
409.87	2012.86
410.07	2092.44
410.26	2083.08
410.45	2127.55
410.64	2101.80
410.83	2289.04
411.02	2211.81
411.21	2155.63
411.40	2183.72
411.59	2345.22
411.78	2347.56
411.98	2305.43
412.17	2286.70
412.36	2338.20
412.55	2310.11
412.74	2335.85
412.93	2385.01
413.12	2340.54
413.31	2532.46
413.50	2457.56
413.69	2597.99
413.88	2651.83
414.07	2640.12
414.26	2619.06
414.45	2637.78
414.64	2593.31
414.83	2621.40
415.02	2750.13
415.22	2682.25
415.41	2775.88
415.60	2822.69
415.79	2717.36
415.98	2944.39
416.17	2813.32
416.36	2883.54
416.55	2965.46
416.74	2951.42
416.93	2979.50
417.12	3021.63
417.31	2935.03
417.50	3061.42
417.69	3047.38
417.88	3016.95
418.07	2995.89
418.26	3075.46
418.45	2958.44
418.64	3241.64
418.83	3124.62
419.02	3138.66
419.21	3173.77
419.39	3068.44
419.58	3171.43
419.77	3276.75
419.96	3183.13
420.15	3309.52
420.34	3194.83
420.53	3253.34
420.72	3295.47
420.91	3379.73
421.10	3370.37
421.29	3557.61
421.48	3281.43
421.67	3463.99
421.86	3447.61
422.05	3494.42
422.24	3365.69
422.43	3480.38
422.61	3431.23
422.80	3449.95
422.99	3440.59
423.18	3651.24
423.37	3566.98
423.56	3440.59
423.75	3508.46
423.94	3428.88
424.13	3246.32
424.32	3400.80
424.50	3566.98
424.69	3513.14
424.88	3644.21
425.07	3421.86
425.26	3449.95
425.45	3604.42
425.64	3534.21
425.83	3658.26
426.01	3651.24
426.20	3471.01
426.39	3595.06
426.58	3625.49
426.77	3531.87
426.96	3590.38
427.15	3588.04
427.33	3590.38
427.52	3541.23
427.71	3644.21
427.90	3672.30
428.09	3613.79
428.28	3709.75
428.46	3737.84
428.65	3829.12
428.84	3808.05
429.03	3810.39
429.22	3798.69
429.40	3716.77
429.59	3772.94
429.78	3681.66
429.97	3723.79
430.16	3765.92
430.34	3737.84
430.53	3810.39
430.72	3882.95
430.91	3913.38
431.10	3899.33
431.28	3985.93
431.47	4063.17
431.66	4095.94
431.85	4025.72
432.03	3976.57
432.22	4222.33
432.41	4266.80
432.60	4198.92
432.79	4109.98
432.97	4149.77
433.16	4283.18
433.35	4173.18
433.54	4266.80
433.72	4212.96
433.91	4227.01
434.10	4227.01
434.28	4322.97
434.47	4468.08
434.66	4470.42
434.85	4449.36
435.03	4493.83
435.22	4395.53
435.41	4594.47
435.59	4461.06
435.78	4517.23
435.97	4545.32
436.16	4617.88
436.34	4594.47
436.53	4669.37
436.72	4870.65
436.90	4683.41
437.09	4765.33
437.28	4610.86
437.46	4601.49
437.65	4737.24
437.84	4713.84
438.02	4660.01
438.21	4676.39
438.40	4800.44
438.58	4858.95
438.77	4805.12
438.96	4821.50
439.14	5029.81
439.33	4957.25
439.52	5144.50
439.70	5027.47
439.89	5039.17
440.08	5142.16
440.26	5107.05
440.45	5151.52
440.63	5310.68
440.82	5497.92
441.01	5254.50
441.19	5465.15
441.38	5458.13
441.57	5497.92
441.75	5348.12
441.94	5572.82
442.12	5600.90
442.31	5764.74
442.50	5661.76
442.68	5673.46
442.87	5636.01
443.05	5703.89
443.24	5762.40
443.43	5870.06
443.61	5811.55
443.80	5930.92
443.98	5661.76
444.17	5537.71
444.35	5886.45
444.54	5935.60
444.73	5863.04
444.91	5902.83
445.10	5790.49
445.28	5809.21
445.47	5748.36
445.65	5825.59
445.84	5839.64
446.02	5937.94
446.21	5785.80
446.39	6157.95
446.58	5884.11
446.77	5994.11
446.95	5809.21
447.14	6127.52
447.32	6040.92
447.51	5991.77
447.69	6022.20
447.88	6043.26
448.06	5797.51
448.25	5951.98
448.43	6043.26
448.62	6045.60
448.80	6066.67
448.99	6171.99
449.17	6207.10
449.36	6090.07
449.54	6115.82
449.73	6317.11
449.91	6377.96
450.10	6282.00
450.28	6321.79
450.46	6366.26
450.65	6298.38
450.83	6431.79
451.02	6429.45
451.20	6462.22
451.39	6415.41
451.57	6349.87
451.76	6424.77
451.94	6420.09
452.13	6518.39
452.31	6326.47
452.49	6450.52
452.68	6480.94
452.86	6375.62
453.05	6565.20
453.23	6740.74
453.42	6799.26
453.60	6700.95
453.78	6541.80
453.97	6499.67
454.15	6768.83
454.34	6677.55
454.52	6862.45
454.70	6602.65
454.89	6799.26
455.07	6759.47
455.26	6885.86
455.44	6906.92
455.62	6731.38
455.81	7023.95
455.99	6916.28
456.17	7126.93
456.36	6956.07
456.54	6946.71
456.73	7145.66
456.91	7260.34
457.09	7258.00
457.28	7391.41
457.46	7166.72
457.64	7267.36
457.83	7166.72
458.01	7052.03
458.19	7250.98
458.38	7473.33
458.56	7400.77
458.74	7424.18
458.93	7375.03
459.11	7520.14
459.29	7538.87
459.48	7602.06
459.66	7496.74
459.84	7410.14
460.03	7786.96
460.21	7578.65
460.39	7698.02
460.57	7712.07
460.76	7679.30
460.94	7768.24
461.12	7721.43
461.31	7707.38
461.49	7651.21
461.67	7737.81
461.85	7789.30
462.04	7864.20
462.22	8351.03
462.40	7892.29
462.59	7665.25
462.77	8051.44
462.95	8053.78
463.13	7990.59
463.32	7934.42
463.50	7892.29
463.68	7985.91
463.86	8098.25
464.05	8058.46
464.23	7885.26
464.41	8142.72
464.59	7985.91
464.78	8339.33
464.96	8187.19
465.14	8042.08
465.32	8252.73
465.50	8259.75
465.69	8236.35
465.87	8203.58
466.05	8446.99
466.23	8248.05
466.41	8381.46
466.60	8634.24
466.78	8266.77
466.96	8489.12
467.14	8329.97
467.32	8336.99
467.51	8500.83
467.69	8383.80
467.87	8531.25
468.05	8587.43
468.23	8393.16
468.41	8585.08
468.60	8674.03
468.78	8561.68
468.96	8585.08
469.14	8737.22
469.32	8884.67
469.50	8510.19
469.69	8716.16
469.87	8767.65
470.05	8847.22
470.23	8997.02
470.41	8901.06
470.59	9043.83
470.77	9001.70
470.95	9263.84
471.14	9277.88
471.32	9006.38
471.50	9310.65
471.68	9350.44
471.86	9439.38
472.04	9294.27
472.22	9474.49
472.40	9249.80
472.58	9380.87
472.77	9394.91
472.95	9348.10
473.13	9841.95
473.31	9439.38
473.49	9462.79
473.67	9816.21
473.85	9696.84
474.03	9811.53
474.21	9884.08
474.39	10024.51
474.57	9781.10
474.75	10029.20
474.93	10223.46
475.12	10338.15
475.30	10246.87
475.48	10010.47
475.66	10338.15
475.84	10202.40
476.02	10181.33
476.20	10256.23
476.38	10555.82
476.56	10787.53
476.74	10750.08
476.92	10640.08
477.10	10782.85
477.28	10965.41
477.46	10998.18
477.64	11269.68
477.82	11054.35
478.00	11463.94
478.18	11632.46
478.36	11480.33
478.54	11323.51
478.72	11571.61
478.90	11683.95
479.08	11754.17
479.26	11815.02
479.44	11903.96
479.62	11896.94
479.80	12070.14
479.98	12191.85
480.16	12458.67
480.34	12262.07
480.52	12367.39
480.70	12259.73
480.88	12182.49
481.06	12332.28
481.24	12713.79
481.41	12737.20
481.59	13097.64
481.77	13118.70
481.95	13121.04
482.13	13167.85
482.31	13114.02
482.49	13605.53
482.67	13591.49
482.85	13217.01
483.03	13701.50
483.21	13881.72
483.39	13923.85
483.57	13853.63
483.74	14171.94
483.92	14427.06
484.10	14204.71
484.28	14356.85
484.46	14626.01
484.64	14806.23
484.82	14747.72
485.00	14630.69
485.18	15073.05
485.35	15115.18
485.53	14888.15
485.71	15028.58
485.89	15372.64
486.07	15482.64
486.25	15346.89
486.43	15676.91
486.61	16060.76
486.78	15946.07
486.96	16182.46
487.14	15950.75
487.32	16210.55
487.50	16475.03
487.68	16486.73
487.85	16985.27
488.03	16812.07
488.21	17308.26
488.39	16821.43
488.57	17078.89
488.75	17289.54
488.92	17493.16
489.10	17771.69
489.28	17738.92
489.46	17982.34
489.64	17596.15
489.81	18499.59
489.99	18382.57
490.17	18579.17
490.35	18743.01
490.53	18623.64
490.70	18881.10
490.88	18841.31
491.06	19463.90
491.24	19105.79
491.41	19260.27
491.59	19222.82
491.77	19236.86
491.95	19447.51
492.13	19763.48
492.30	19943.70
492.48	19901.58
492.66	19868.81
492.84	20086.48
493.01	19964.77
493.19	20402.45
493.37	20308.83
493.54	20411.81
493.72	20723.10
493.90	20451.60
494.08	20975.88
494.25	21280.15
494.43	21348.03
494.61	21266.11
494.79	21713.15
494.96	21380.79
495.14	21249.72
495.32	21661.66
495.49	21916.78
495.67	21816.13
495.85	21961.25
496.02	22134.45
496.20	22218.71
496.38	22305.31
496.55	22359.14
496.73	22932.57
496.91	22759.37
497.09	22417.65
497.26	22904.48
497.44	23065.98
497.62	23262.58
497.79	23679.20
497.97	23367.91
498.14	23625.37
498.32	23686.22
498.50	23592.60
498.67	24011.56
498.85	24018.58
499.03	24273.70
499.20	23878.15
499.38	24299.44
499.56	24346.25
499.73	24334.55
499.91	24510.09
500.08	24671.59
500.26	24313.48
500.44	24673.93
500.61	24800.32
500.79	24849.47
500.97	24975.86
501.14	25104.59
501.32	25373.75
501.49	25109.27
501.67	25315.23
501.84	25553.97
502.02	25462.69
502.20	25474.39
502.37	25666.31
502.55	25673.34
502.72	26008.03
502.90	25799.73
503.07	25888.67
503.25	26052.50
503.43	26064.21
503.60	25858.24
503.78	26022.08
503.95	26614.23
504.13	26429.33
504.30	26677.43
504.48	26288.90
504.65	26867.01
504.83	26841.26
505.01	26740.62
505.18	26789.77
505.36	27197.02
505.53	26958.29
505.71	27295.33
505.88	27440.44
506.06	27295.33
506.23	27576.19
506.41	27302.35
506.58	28060.68
506.76	27845.35
506.93	27655.77
507.11	27768.12
507.28	27704.92
507.46	27601.94
507.63	28039.62
507.81	28102.81
507.98	27707.26
508.16	28091.11
508.33	28004.51
508.50	28531.13
508.68	28638.80
508.85	28996.90
509.03	28762.84
509.20	29001.58
509.38	28922.00
509.55	29296.49
509.73	29275.42
509.90	29214.57
510.08	29064.77
510.25	29015.62
510.42	29338.62
510.60	29488.41
510.77	29593.73
510.95	29586.71
511.12	29610.12
511.30	29935.45
511.47	30080.56
511.64	29942.47
511.82	29743.53
511.99	30026.73
512.17	30174.19
512.34	30125.04
512.51	30335.68
512.69	30831.88
512.86	30363.77
513.04	30494.84
513.21	30824.86
513.38	30316.96
513.56	30539.31
513.73	30885.71
513.90	30841.24
514.08	30831.88
514.25	30995.71
514.43	30895.07
514.60	30827.20
514.77	31112.74
514.95	31370.20
515.12	31409.99
515.29	31491.91
515.47	31798.52
515.64	32011.51
515.81	31899.16
515.99	31665.11
516.16	31651.06
516.33	31538.72
516.51	31740.00
516.68	31173.60
516.85	31704.90
517.03	31601.91
517.20	32055.98
517.37	32048.96
517.54	32231.52
517.72	32149.60
517.89	32414.08
518.06	32311.10
518.24	32126.19
518.41	32280.67
518.58	32631.75
518.75	32570.90
518.93	33340.93
519.10	32409.40
519.27	32872.82
519.45	33305.82
519.62	33088.15
519.79	33324.55
519.96	33354.97
520.14	33343.27
520.31	33336.25
520.48	33509.45
520.65	33319.87
520.83	33675.63
521.00	34160.12
521.17	33490.73
521.34	33673.29
521.52	34064.16
521.69	33741.16
521.86	34366.09
522.03	34134.37
522.20	34113.31
522.38	34354.38
522.55	33921.38
522.72	34412.90
522.89	33757.55
523.07	34408.22
523.24	34817.81
523.41	34658.65
523.58	34288.85
523.75	34508.86
523.92	34354.38
524.10	34614.18
524.27	34852.92
524.44	34960.58
524.61	34773.34
524.78	35442.73
524.96	35311.66
525.13	35648.70
525.30	35409.96
525.47	36025.53
525.64	35395.92
525.81	35211.02
525.98	35704.87
526.16	35208.68
526.33	35356.13
526.50	35803.17
526.67	35456.78
526.84	35606.57
527.01	35524.65
527.18	35686.15
527.36	36128.51
527.53	35887.43
527.70	35999.78
527.87	36463.21
528.04	36313.41
528.21	36311.07
528.38	36135.53
528.55	36751.09
528.72	36304.05
528.89	36545.12
529.07	36610.66
529.24	36449.16
529.41	36437.46
529.58	36285.33
529.75	36474.91
529.92	36603.64
530.09	36898.55
530.26	36643.43
530.43	37153.66
530.60	36568.53
530.77	36760.45
530.94	37046.00
531.11	36966.42
531.28	37092.81
531.46	37141.96
531.63	37287.07
531.80	37535.17
531.97	37205.16
532.14	37546.87
532.31	37479.00
532.48	37380.70
532.65	37507.08
532.82	37528.15
532.99	37490.70
533.16	37589.00
533.33	37649.86
533.50	37958.81
533.67	37446.23
533.84	37525.81
534.01	37837.10
534.18	37949.45
534.35	38686.71
534.52	37357.29
534.69	38518.20
534.86	37902.64
535.03	37897.95
535.20	38452.66
535.37	38419.89
535.54	38574.37
535.71	38412.87
535.88	38237.33
536.05	38426.92
536.22	38569.69
536.38	38850.55
536.55	38665.65
536.72	38644.59
536.89	38569.69
537.06	38309.89
537.23	38944.17
537.40	38726.50
537.57	38735.87
537.74	39084.61
537.91	39108.01
538.08	39042.48
538.25	38890.34
538.42	38763.95
538.59	38969.92
538.75	38892.68
538.92	38911.41
539.09	39363.13
539.26	39501.22
539.43	38876.30
539.60	39225.04
539.77	39274.19
539.94	38916.09
540.11	39931.88
540.28	39714.21
540.44	39377.17
540.61	39470.79
540.78	39386.54
540.95	39505.90
541.12	39454.41
541.29	39866.34
541.46	39423.98
541.62	39763.36
541.79	39814.85
541.96	39313.98
542.13	39842.94
542.30	40086.36
542.47	40268.92
542.63	40315.73
542.80	39981.03
542.97	40989.80
543.14	40692.55
543.31	40275.94
543.48	40751.07
543.64	40996.82
543.81	40313.39
543.98	40266.58
544.15	40526.38
544.32	40435.10
544.48	41160.66
544.65	40774.47
544.82	41125.55
544.99	40580.21
545.16	41125.55
545.32	40577.87
545.49	41083.42
545.66	41123.21
545.83	41109.17
546.00	41263.64
546.16	41230.88
546.33	41450.89
546.50	40793.20
546.67	41284.71
546.83	40804.90
547.00	41460.25
547.17	41034.27
547.34	41336.20
547.50	41294.07
547.67	41406.42
547.84	41179.39
548.00	41837.08
548.17	41663.88
548.34	41322.16
548.51	41816.01
548.67	41900.27
548.84	41621.75
549.01	41509.40
549.18	41497.70
549.34	41942.40
549.51	41680.26
549.68	42373.06
549.84	41792.61
550.01	41785.58
550.18	41844.10
550.34	42068.79
550.51	42148.37
550.68	41933.04
550.84	41631.11
551.01	42403.49
551.18	42122.62
551.34	42260.71
551.51	42183.48
551.68	41972.83
551.84	42188.16
552.01	42349.65
552.18	41867.50
552.34	41979.85
552.51	42326.25
552.68	42099.22
552.84	42328.59
553.01	43096.28
553.18	42904.36
553.34	42424.55
553.51	42218.58
553.67	42721.80
553.84	42841.17
554.01	42670.31
554.17	42602.43
554.34	42927.77
554.51	42532.22
554.67	42667.97
554.84	43028.41
555.00	42553.28
555.17	42939.47
555.33	43105.65
555.50	42841.17
555.67	43005.00
555.83	42614.13
556.00	43049.47
556.16	42981.60
556.33	42965.21
556.50	43239.06
556.66	43133.73
556.83	42904.36
556.99	43419.28
557.16	43164.16
557.32	43009.68
557.49	43243.74
557.65	42951.17
557.82	42911.38
557.98	43309.27
558.15	43147.78
558.32	43119.69
558.48	43253.10
558.65	43182.88
558.81	43047.13
558.98	43119.69
559.14	43325.66
559.31	43643.97
559.47	43215.65
559.64	44091.01
559.80	43632.27
559.97	43882.70
560.13	43508.22
560.30	43550.35
560.46	43536.30
560.63	43737.59
560.79	43311.61
560.96	44109.74
561.12	43620.56
561.29	43665.03
561.45	43606.52
561.61	43831.21
561.78	43430.98
561.94	43540.99
562.11	43414.60
562.27	43515.24
562.44	43072.88
562.60	43800.79
562.77	44018.46
562.93	43936.54
563.10	43690.78
563.26	43503.54
563.42	43945.90
563.59	44133.14
563.75	43910.79
563.92	43779.72
564.08	44175.27
564.24	43732.91
564.41	43999.73
564.57	43992.71
564.74	44079.31
564.90	44032.50
565.07	43796.10
565.23	44051.22
565.39	43784.40
565.56	44002.07
565.72	43674.40
565.88	43697.80
566.05	44013.77
566.21	44268.89
566.38	43798.44
566.54	43779.72
566.70	44598.91
566.87	44472.52
567.03	44032.50
567.19	44772.11
567.36	44416.35
567.52	44018.46
567.68	44367.20
567.85	43995.05
568.01	44598.91
568.17	44311.02
568.34	44114.42
568.50	44311.02
568.66	44179.95
568.83	44418.69
568.99	43721.21
569.15	43915.47
569.32	44376.56
569.48	43957.60
569.64	44463.16
569.81	44285.28
569.97	44198.68
570.13	44252.51
570.30	44023.14
570.46	44114.42
570.62	44093.35
570.78	44432.73
570.95	44484.22
571.11	44713.59
571.27	44114.42
571.43	44612.95
571.60	44201.02
571.76	44374.22
571.92	44069.95
572.09	44533.37
572.25	44243.15
572.41	44076.97
572.57	43995.05
572.74	45015.52
572.90	44423.37
573.06	44463.16
573.22	44624.65
573.38	44587.21
573.55	44662.10
573.71	44985.10
573.87	44416.35
574.03	44570.82
574.20	44346.13
574.36	44254.85
574.52	44800.19
574.68	44252.51
574.84	44638.70
575.01	44781.47
575.17	44898.50
575.33	44566.14
575.49	44582.52
575.65	44877.43
575.82	44488.90
575.98	44645.72
576.14	44648.06
576.30	44570.82
576.46	44240.81
576.62	44793.17
576.79	44622.31
576.95	44119.10
577.11	44734.66
577.27	44641.04
577.43	44589.55
577.59	44509.97
577.75	44512.31
577.92	44168.25
578.08	44304.00
578.24	44561.46
578.40	44229.10
578.56	44704.23
578.72	44191.65
578.88	44669.12
579.04	44814.24
579.21	44168.25
579.37	44350.81
579.53	44783.81
579.69	44399.96
579.85	44713.59
580.01	44538.05
580.17	44685.51
580.33	45207.45
580.49	44926.58
580.65	44488.90
580.82	44783.81
580.98	44720.62
581.14	44374.22
581.30	44910.20
581.46	44821.26
581.62	44886.79
581.78	44392.94
581.94	44458.48
582.10	44896.16
582.26	44900.84
582.42	44741.68
582.58	44671.46
582.74	45062.33
582.90	44470.18
583.06	45074.04
583.22	44877.43
583.38	45158.30
583.54	45020.20
583.70	44334.43
583.86	45162.98
584.02	44495.92
584.18	44954.67
584.34	44900.84
584.50	44666.78
584.66	44753.38
584.82	44865.73
584.98	44949.99
585.14	44938.29
585.30	44367.20
585.46	44980.42
585.62	44594.23
585.78	44575.50
585.94	44484.22
586.10	44519.33
586.26	44470.18
586.42	45233.19
586.58	44912.54
586.74	44566.14
586.90	44442.09
587.06	44849.35
587.22	44931.26
587.38	44531.03
587.54	44842.32
587.70	44891.48
587.86	44481.88
588.02	44596.57
588.18	45247.24
588.34	45099.78
588.49	45013.18
588.65	44720.62
588.81	44612.95
588.97	44643.38
589.13	45092.76
589.29	44818.92
589.45	44648.06
589.61	44748.70
589.77	44804.88
589.93	44985.10
590.08	45120.85
590.24	44811.90
