SpectraSuite Data File
++++++++++++++++++++++++++++++++++++
Date: Fri Oct 25 11:33:12 EDT 2013
User: price-jones
Dark Spectrum Present: No
Reference Spectrum Present: No
Number of Sampled Component Spectra: 1
Spectrometers: USB2+H05261
Integration Time (usec): 100000 (USB2+H05261)
Spectra Averaged: 1 (USB2+H05261)
Boxcar Smoothing: 0 (USB2+H05261)
Correct for Electrical Dark: No (USB2+H05261)
Strobe/Lamp Enabled: No (USB2+H05261)
Correct for Detector Non-linearity: No (USB2+H05261)
Correct for Stray Light: No (USB2+H05261)
Number of Pixels in Processed Spectrum: 2048
>>>>>Begin Processed Spectral Data<<<<<
365.73	201.29
365.92	201.29
366.12	201.29
366.32	224.69
366.52	145.11
366.72	194.26
366.91	170.86
367.11	117.03
367.31	138.09
367.51	159.16
367.70	140.43
367.90	175.54
368.10	215.33
368.30	142.77
368.49	152.13
368.69	194.26
368.89	208.31
369.09	215.33
369.28	184.90
369.48	208.31
369.68	217.67
369.87	313.63
370.07	280.86
370.27	278.52
370.47	311.29
370.66	489.17
370.86	519.60
371.06	489.17
371.25	557.05
371.45	594.50
371.65	578.11
371.84	535.98
372.04	615.56
372.24	524.28
372.44	608.54
372.63	631.94
372.83	582.79
373.03	571.09
373.22	669.39
373.42	566.41
373.62	638.97
373.81	655.35
374.01	613.22
374.21	573.43
374.40	645.99
374.60	697.48
374.79	594.50
374.99	690.46
375.19	753.65
375.38	653.01
375.58	681.10
375.78	676.41
375.97	648.33
376.17	741.95
376.37	657.69
376.56	741.95
376.76	713.86
376.95	706.84
377.15	660.03
377.35	643.65
377.54	734.93
377.74	674.07
377.93	737.27
378.13	713.86
378.33	720.88
378.52	732.59
378.72	732.59
378.91	739.61
379.11	720.88
379.31	746.63
379.50	786.42
379.70	683.44
379.89	793.44
380.09	706.84
380.28	657.69
380.48	695.14
380.68	692.80
380.87	720.88
381.07	713.86
381.26	784.08
381.46	772.38
381.65	805.14
381.85	856.64
382.04	798.12
382.24	772.38
382.43	748.97
382.63	695.14
382.83	748.97
383.02	866.00
383.22	795.78
383.41	713.86
383.61	828.55
383.80	854.30
384.00	809.83
384.19	837.91
384.39	840.25
384.58	741.95
384.78	870.68
384.97	844.93
385.17	814.51
385.36	828.55
385.56	851.96
385.75	772.38
385.95	858.98
386.14	877.70
386.34	835.57
386.53	943.24
386.72	842.59
386.92	987.71
387.11	940.90
387.31	884.72
387.50	929.19
387.70	917.49
387.89	919.83
388.09	861.32
388.28	997.07
388.48	945.58
388.67	983.02
388.86	976.00
389.06	873.02
389.25	933.87
389.45	987.71
389.64	912.81
389.84	990.05
390.03	919.83
390.22	1046.22
390.42	912.81
390.61	938.55
390.81	924.51
391.00	976.00
391.19	1067.28
391.39	1097.71
391.58	976.00
391.78	1060.26
391.97	1018.13
392.16	1050.90
392.36	1062.60
392.55	1100.05
392.75	1097.71
392.94	1048.56
393.13	1036.86
393.33	1069.62
393.52	1046.22
393.71	1071.97
393.91	1135.16
394.10	1093.03
394.29	1123.46
394.49	1078.99
394.68	1109.41
394.88	1160.91
395.07	1146.86
395.26	1188.99
395.46	1181.97
395.65	1160.91
395.84	1118.78
396.04	1238.14
396.23	1221.76
396.42	1179.63
396.62	1254.53
396.81	1219.42
397.00	1205.38
397.19	1259.21
397.39	1200.69
397.58	1313.04
397.77	1273.25
397.97	1294.32
398.16	1280.27
398.35	1320.06
398.55	1198.35
398.74	1207.72
398.93	1303.68
399.12	1364.53
399.32	1238.14
399.51	1357.51
399.70	1411.34
399.90	1331.76
400.09	1416.02
400.28	1378.58
400.47	1399.64
400.67	1406.66
400.86	1390.28
401.05	1385.60
401.24	1439.43
401.44	1444.11
401.63	1453.47
401.82	1453.47
402.01	1460.49
402.21	1481.56
402.40	1423.05
402.59	1514.33
402.78	1521.35
402.97	1556.46
403.17	1439.43
403.36	1495.60
403.55	1486.24
403.74	1586.88
403.93	1671.14
404.13	1645.40
404.32	1645.40
404.51	1631.35
404.70	1556.46
404.89	1645.40
405.09	1736.68
405.28	1650.08
405.47	1682.85
405.66	1722.63
405.85	1654.76
406.05	1783.49
406.24	1778.81
406.43	1783.49
406.62	1804.55
406.81	1748.38
407.00	1811.57
407.20	1781.15
407.39	1823.28
407.58	1802.21
407.77	1942.64
407.96	1998.82
408.15	1902.86
408.34	1839.66
408.54	2005.84
408.73	1984.77
408.92	1907.54
409.11	2050.31
409.30	2040.95
409.49	2001.16
409.68	2008.18
409.87	2017.54
410.07	2019.88
410.26	2057.33
410.45	1975.41
410.64	2190.74
410.83	2139.25
411.02	2134.57
411.21	2071.37
411.40	2120.53
411.59	2235.21
411.78	2275.00
411.98	2267.98
412.17	2218.83
412.36	2279.68
412.55	2328.83
412.74	2305.43
412.93	2314.79
413.12	2296.07
413.31	2448.20
413.50	2370.96
413.69	2469.27
413.88	2492.67
414.07	2417.77
414.26	2504.37
414.45	2487.99
414.64	2539.48
414.83	2583.95
415.02	2651.83
415.22	2597.99
415.41	2740.77
415.60	2677.57
415.79	2825.03
415.98	2719.70
416.17	2801.62
416.36	2832.05
416.55	2764.17
416.74	2766.51
416.93	2841.41
417.12	2834.39
417.31	2939.71
417.50	2956.10
417.69	3049.72
417.88	2944.39
418.07	2911.63
418.26	3073.12
418.45	2944.39
418.64	2923.33
418.83	3073.12
419.02	2988.86
419.21	3169.09
419.39	3192.49
419.58	3101.21
419.77	3173.77
419.96	3124.62
420.15	3108.23
420.34	3178.45
420.53	3213.56
420.72	3208.87
420.91	3243.98
421.10	3377.39
421.29	3463.99
421.48	3318.88
421.67	3265.05
421.86	3283.77
422.05	3407.82
422.24	3396.12
422.43	3295.47
422.61	3339.94
422.80	3365.69
422.99	3414.84
423.18	3419.52
423.37	3566.98
423.56	3445.27
423.75	3346.97
423.94	3382.07
424.13	3150.36
424.32	3262.71
424.50	3475.70
424.69	3648.90
424.88	3445.27
425.07	3328.24
425.26	3433.57
425.45	3534.21
425.64	3365.69
425.83	3454.63
426.01	3599.74
426.20	3459.31
426.39	3454.63
426.58	3492.08
426.77	3646.55
426.96	3588.04
427.15	3487.40
427.33	3590.38
427.52	3564.64
427.71	3637.19
427.90	3604.42
428.09	3637.19
428.28	3733.15
428.46	3712.09
428.65	3684.00
428.84	3843.16
429.03	3775.28
429.22	3644.21
429.40	3737.84
429.59	3873.59
429.78	3747.20
429.97	3712.09
430.16	3782.31
430.34	3911.04
430.53	3918.06
430.72	3817.41
430.91	3850.18
431.10	3922.74
431.28	3929.76
431.47	4084.23
431.66	3990.61
431.85	3918.06
432.03	4021.04
432.22	4266.80
432.41	4081.89
432.60	4152.11
432.79	4180.20
432.97	4081.89
433.16	4102.96
433.35	4133.39
433.54	4152.11
433.72	4353.40
433.91	4170.83
434.10	4283.18
434.28	4189.56
434.47	4138.07
434.66	4409.57
434.85	4341.69
435.03	4346.37
435.22	4154.45
435.41	4533.62
435.59	4451.70
435.78	4535.96
435.97	4496.17
436.16	4477.44
436.34	4510.21
436.53	4442.34
436.72	4631.92
436.90	4463.40
437.09	4589.79
437.28	4428.29
437.46	4479.79
437.65	4655.33
437.84	4610.86
438.02	4706.82
438.21	4681.07
438.40	4608.51
438.58	4755.97
438.77	4795.76
438.96	4807.46
439.14	4947.89
439.33	4903.42
439.52	5011.09
439.70	4943.21
439.89	4940.87
440.08	5116.41
440.26	4985.34
440.45	4999.38
440.63	5158.54
440.82	5315.36
441.01	5093.01
441.19	5186.63
441.38	5219.39
441.57	5240.46
441.75	5320.04
441.94	5563.45
442.12	5376.21
442.31	5465.15
442.50	5432.38
442.68	5195.99
442.87	5479.19
443.05	5598.56
443.24	5628.99
443.43	5582.18
443.61	5607.92
443.80	5837.30
443.98	5584.52
444.17	5334.08
444.35	5586.86
444.54	5738.99
444.73	5710.91
444.91	5678.14
445.10	5678.14
445.28	5849.00
445.47	5689.84
445.65	5874.74
445.84	5877.09
446.02	5680.48
446.21	5696.86
446.39	5804.53
446.58	5792.83
446.77	5872.40
446.95	5699.20
447.14	5659.42
447.32	5654.73
447.51	5607.92
447.69	5717.93
447.88	5893.47
448.06	5778.78
448.25	5827.93
448.43	5893.47
448.62	5851.34
448.80	5984.75
448.99	5959.00
449.17	5893.47
449.36	5905.17
449.54	5916.87
449.73	6125.18
449.91	6179.01
450.10	6108.80
450.28	6111.14
450.46	6052.63
450.65	6202.42
450.83	6232.85
451.02	6230.51
451.20	6251.57
451.39	6296.04
451.57	6279.66
451.76	6218.80
451.94	6293.70
452.13	6162.63
452.31	6363.92
452.49	6169.65
452.68	6321.79
452.86	6462.22
453.05	6424.77
453.23	6504.35
453.42	6434.13
453.60	6345.19
453.78	6530.09
453.97	6333.49
454.15	6509.03
454.34	6422.43
454.52	6562.86
454.70	6546.48
454.89	6733.72
455.07	6733.72
455.26	6815.64
455.44	6696.27
455.62	6825.00
455.81	6691.59
455.99	6857.77
456.17	6736.06
456.36	6780.53
456.54	6878.83
456.73	6899.90
456.91	7073.10
457.09	7112.89
457.28	7000.54
457.46	7063.74
457.64	7166.72
457.83	7164.38
458.01	7166.72
458.19	7129.27
458.38	7042.67
458.56	7108.21
458.74	7276.73
458.93	7396.09
459.11	7185.44
459.29	7391.41
459.48	7323.54
459.66	7307.15
459.84	7351.62
460.03	7667.60
460.21	7470.99
460.39	7524.82
460.57	7527.16
460.76	7520.14
460.94	7789.30
461.12	7585.68
461.31	7667.60
461.49	7475.67
461.67	7583.34
461.85	7882.92
462.04	7578.65
462.22	8079.53
462.40	7754.19
462.59	7786.96
462.77	7875.90
462.95	8004.63
463.13	7864.20
463.32	7955.48
463.50	7995.27
463.68	8030.38
463.86	8042.08
464.05	8013.99
464.23	7988.25
464.41	8056.12
464.59	7929.74
464.78	8121.66
464.96	8065.49
465.14	7899.31
465.32	8229.32
465.50	8229.32
465.69	8231.66
465.87	8294.86
466.05	8208.26
466.23	8196.56
466.41	8250.39
466.60	8407.20
466.78	8112.30
466.96	8320.60
467.14	8161.45
467.32	8374.44
467.51	8428.27
467.69	8336.99
467.87	8339.33
468.05	8571.04
468.23	8524.23
468.41	8327.63
468.60	8463.38
468.78	8732.54
468.96	8564.02
469.14	8617.85
469.32	8774.67
469.50	8365.07
469.69	8695.09
469.87	8762.97
470.05	8872.97
470.23	8957.23
470.41	8627.21
470.59	9083.62
470.77	8877.65
470.95	9069.58
471.14	9078.94
471.32	8840.20
471.50	9231.07
471.68	9090.64
471.86	9315.33
472.04	9050.85
472.22	9483.85
472.40	9547.05
472.58	9521.30
472.77	9530.66
472.95	9530.66
473.13	9778.76
473.31	9364.48
473.49	9563.43
473.67	9816.21
473.85	9568.11
474.03	9961.32
474.21	9881.74
474.39	9834.93
474.57	9788.12
474.75	9820.89
474.93	9879.40
475.12	9975.36
475.30	10258.57
475.48	9919.19
475.66	9846.63
475.84	10113.45
476.02	10389.64
476.20	10155.58
476.38	10555.82
476.56	10579.22
476.74	10410.70
476.92	10640.08
477.10	10516.03
477.28	10916.26
477.46	10920.94
477.64	10764.12
477.82	11073.07
478.00	11328.19
478.18	11220.53
478.36	11499.05
478.54	11377.34
478.72	11489.69
478.90	11627.78
479.08	11618.42
479.26	11906.31
479.44	11817.36
479.62	11997.59
479.80	11836.09
479.98	12149.72
480.16	12346.33
480.34	12219.94
480.52	12208.23
480.70	12400.16
480.88	12308.88
481.06	12496.12
481.24	12266.75
481.41	12767.62
481.59	13029.76
481.77	13184.24
481.95	13142.11
482.13	13085.94
482.31	13252.11
482.49	13420.63
482.67	13366.80
482.85	13582.13
483.03	13540.00
483.21	13729.58
483.39	14073.64
483.57	13846.61
483.74	13982.36
483.92	14232.80
484.10	13970.66
484.28	14356.85
484.46	14747.72
484.64	14745.38
484.82	14441.11
485.00	14810.91
485.18	15037.94
485.35	15442.85
485.53	15084.75
485.71	15438.17
485.89	15531.80
486.07	15543.50
486.25	15632.44
486.43	15396.04
486.61	16016.29
486.78	16287.79
486.96	16187.14
487.14	16229.27
487.32	16376.73
487.50	16390.77
487.68	16589.72
487.85	16767.60
488.03	16870.58
488.21	16833.13
488.39	17202.94
488.57	17071.87
488.75	17308.26
488.92	17329.33
489.10	17738.92
489.28	17514.23
489.46	17867.65
489.64	18256.18
489.81	18230.43
489.99	18223.41
490.17	18370.86
490.35	18728.97
490.53	18822.59
490.70	18771.10
490.88	18635.35
491.06	18862.38
491.24	19147.92
491.41	19129.20
491.59	19508.37
491.77	19386.66
491.95	19480.28
492.13	19864.13
492.30	19833.70
492.48	19817.32
492.66	20063.07
492.84	19871.15
493.01	20257.34
493.19	20404.79
493.37	20449.26
493.54	20603.74
493.72	20844.81
493.90	20760.55
494.08	21149.08
494.25	21333.98
494.43	21504.84
494.61	21366.75
494.79	21631.23
494.96	21596.12
495.14	21666.34
495.32	21837.20
495.49	22115.72
495.67	21825.50
495.85	21802.09
496.02	22228.07
496.20	22785.12
496.38	22527.66
496.55	22876.40
496.73	23154.92
496.91	22691.49
497.09	23321.10
497.26	23290.67
497.44	23365.57
497.62	23651.11
497.79	23632.39
497.97	23285.99
498.14	23903.89
498.32	23803.25
498.50	23793.89
498.67	24030.28
498.85	23955.38
499.03	24456.26
499.20	24271.36
499.38	24322.85
499.56	24374.34
499.73	24479.66
499.91	25259.06
500.08	24957.13
500.26	24685.63
500.44	25390.13
500.61	25078.84
500.79	24961.81
500.97	25385.45
501.14	25095.22
501.32	25752.91
501.49	25497.80
501.67	25610.14
501.84	26054.84
502.02	26085.27
502.20	25525.88
502.37	26092.29
502.55	26015.05
502.72	26164.85
502.90	26291.24
503.07	26366.13
503.25	26609.55
503.43	26197.62
503.60	26529.97
503.78	26661.04
503.95	26909.14
504.13	26789.77
504.30	27065.96
504.48	27112.77
504.65	27248.52
504.83	27253.20
505.01	27344.48
505.18	27410.01
505.36	27730.67
505.53	27496.61
505.71	27496.61
505.88	27805.56
506.06	27559.81
506.23	27910.89
506.41	27564.49
506.58	27990.47
506.76	28011.53
506.93	28091.11
507.11	28144.94
507.28	28346.23
507.46	28273.67
507.63	28591.98
507.81	28774.55
507.98	28533.47
508.16	28470.28
508.33	28989.88
508.50	29034.35
508.68	29256.70
508.85	29394.79
509.03	28943.06
509.20	29357.34
509.38	29446.28
509.55	29359.68
509.73	29378.40
509.90	30029.07
510.08	29713.10
510.25	29460.32
510.42	29720.12
510.60	30040.78
510.77	29832.47
510.95	30391.86
511.12	30064.18
511.30	30555.69
511.47	30546.33
511.64	30403.56
511.82	30663.36
511.99	30698.47
512.17	30937.20
512.34	30754.64
512.51	31241.47
512.69	30974.65
512.86	31346.79
513.04	31510.63
513.21	31033.16
513.38	31344.45
513.56	31257.85
513.73	31229.77
513.90	31545.74
514.08	31447.44
514.25	32009.17
514.43	31793.84
514.60	31955.33
514.77	31981.08
514.95	31786.82
515.12	31854.69
515.29	31974.06
515.47	32184.71
515.64	32458.55
515.81	32474.93
515.99	32610.68
516.16	33132.62
516.33	32545.15
516.51	32664.52
516.68	32620.05
516.85	32933.68
517.03	33062.41
517.20	33158.37
517.37	32697.28
517.54	33092.83
517.72	33221.56
517.89	33383.06
518.06	33275.40
518.24	33195.82
518.41	32996.87
518.58	33907.34
518.75	33490.73
518.93	34005.64
519.10	33708.40
519.27	33633.50
519.45	33645.20
519.62	34108.63
519.79	33649.88
519.96	34232.68
520.14	34059.48
520.31	33923.72
520.48	34532.26
520.65	34469.07
520.83	34768.66
521.00	34731.21
521.17	34710.14
521.34	34969.94
521.52	34862.28
521.69	35014.41
521.86	35456.78
522.03	35037.82
522.20	34979.31
522.38	35601.89
522.55	35468.48
522.72	35295.28
522.89	35772.75
523.07	35372.52
523.24	35648.70
523.41	35929.56
523.58	35063.57
523.75	35864.03
523.92	35606.57
524.10	35854.67
524.27	36013.82
524.44	36067.66
524.61	35782.11
524.78	36208.09
524.96	36158.94
525.13	36383.63
525.30	36720.66
525.47	36627.04
525.64	36519.38
525.81	36669.17
525.98	36657.47
526.16	36804.92
526.33	36828.33
526.50	36952.38
526.67	36980.46
526.84	37036.64
527.01	36935.99
527.18	36900.89
527.36	36912.59
527.53	37586.66
527.70	37736.46
527.87	37706.03
528.04	37179.41
528.21	37277.71
528.38	37525.81
528.55	37776.25
528.72	37453.25
528.89	37645.18
529.07	37809.01
529.24	37418.14
529.41	37762.20
529.58	38087.54
529.75	37764.54
529.92	37673.26
530.09	38036.05
530.26	37991.58
530.43	38349.68
530.60	37928.38
530.77	38134.35
530.94	38422.23
531.11	38017.32
531.28	38459.68
531.46	38518.20
531.63	38560.33
531.80	38300.53
531.97	38756.93
532.14	38789.70
532.31	38731.18
532.48	38672.67
532.65	38831.83
532.82	38543.94
532.99	38679.69
533.16	39246.10
533.33	39569.10
533.50	39512.92
533.67	39192.27
533.84	38667.99
534.01	39335.04
534.18	39814.85
534.35	39594.84
534.52	39276.53
534.69	40187.00
534.86	39852.30
535.03	39306.96
535.20	39548.03
535.37	39599.52
535.54	39976.35
535.71	39475.48
535.88	39840.60
536.05	39887.41
536.22	39992.73
536.38	40023.16
536.55	39957.63
536.72	40086.36
536.89	40222.11
537.06	39978.69
537.23	40407.01
537.40	40182.32
537.57	40268.92
537.74	40198.70
537.91	40781.49
538.08	40659.79
538.25	39950.60
538.42	40603.61
538.59	40938.31
538.75	40570.85
538.92	41118.53
539.09	41219.17
539.26	40957.03
539.43	41165.34
539.60	40989.80
539.77	41284.71
539.94	41436.84
540.11	40907.88
540.28	40959.38
540.44	41006.19
540.61	41308.11
540.78	41333.86
540.95	41581.96
541.12	41488.34
541.29	41361.95
541.46	41432.16
541.62	41371.31
541.79	41462.59
541.96	41258.96
542.13	41450.89
542.30	41361.95
542.47	41839.42
542.63	42066.45
542.80	41935.38
542.97	42529.87
543.14	42628.18
543.31	42101.56
543.48	42422.21
543.64	42878.61
543.81	42511.15
543.98	41921.34
544.15	42831.80
544.32	42295.82
544.48	42710.10
544.65	42747.54
544.82	42679.67
544.99	42288.80
545.16	42572.00
545.32	42667.97
545.49	42976.92
545.66	43164.16
545.83	43110.33
546.00	43028.41
546.16	42967.55
546.33	42658.60
546.50	42667.97
546.67	43220.33
546.83	42604.77
547.00	43351.40
547.17	43590.14
547.34	42866.91
547.50	43304.59
547.67	43484.81
547.84	43473.11
548.00	44163.57
548.17	44002.07
548.34	43594.82
548.51	43480.13
548.67	43789.08
548.84	43749.29
549.01	43878.02
549.18	43714.19
549.34	43578.43
549.51	44566.14
549.68	44102.71
549.84	43798.44
550.01	44308.68
550.18	43859.30
550.34	43871.00
550.51	43945.90
550.68	44418.69
550.84	43585.46
551.01	44289.96
551.18	44161.23
551.34	43945.90
551.51	43957.60
551.68	44074.63
551.84	44128.46
552.01	44156.55
552.18	44664.44
552.34	44156.55
552.51	44367.20
552.68	44027.82
552.84	44449.11
553.01	44938.29
553.18	44367.20
553.34	44835.30
553.51	44371.88
553.67	44758.06
553.84	44919.56
554.01	44566.14
554.17	44596.57
554.34	44942.97
554.51	44919.56
554.67	44959.35
554.84	44961.69
555.00	44828.28
555.17	45113.83
555.33	45460.23
555.50	45228.51
555.67	44994.46
555.83	45202.77
556.00	44882.11
556.16	45584.27
556.33	45294.05
556.50	45118.51
556.66	45373.63
556.83	44751.04
556.99	45619.38
557.16	45368.94
557.32	45462.57
557.49	45272.98
557.65	45230.85
557.82	45476.61
557.98	45614.70
558.15	45717.68
558.32	45670.87
558.48	45471.93
558.65	45333.84
558.81	45329.16
558.98	45675.55
559.14	45530.44
559.31	45315.11
559.47	45261.28
559.64	45614.70
559.80	45750.45
559.97	45996.21
560.13	45750.45
560.30	46089.83
560.46	46054.72
560.63	45858.12
560.79	46347.29
560.96	46373.03
561.12	46146.00
561.29	46265.37
561.45	46167.07
561.61	46064.08
561.78	46003.23
561.94	46033.66
562.11	46153.02
562.27	46061.74
562.44	45996.21
562.60	46272.39
562.77	46202.18
562.93	46157.70
563.10	46417.50
563.26	46183.45
563.42	46464.32
563.59	46110.89
563.75	46333.24
563.92	46333.24
564.08	46092.17
564.24	46497.08
564.41	46412.82
564.57	46557.94
564.74	46450.27
564.90	46260.69
565.07	46298.14
565.23	46064.08
565.39	46576.66
565.56	46419.84
565.72	46438.57
565.88	46775.61
566.05	46719.43
566.21	46412.82
566.38	46478.36
566.54	46438.57
566.70	46597.73
566.87	46506.44
567.03	46511.13
567.19	46546.23
567.36	46607.09
567.52	46794.33
567.68	46703.05
567.85	47023.70
568.01	46689.01
568.17	46710.07
568.34	47138.39
568.50	47037.75
568.66	46864.55
568.83	46745.18
568.99	46632.83
569.15	46810.71
569.32	46808.37
569.48	47164.14
569.64	46986.25
569.81	47227.33
569.97	47384.15
570.13	47077.54
570.30	46670.28
570.46	47346.70
570.62	47133.71
570.78	46782.63
570.95	46808.37
571.11	47466.06
571.27	47236.69
571.43	46920.72
571.60	47157.11
571.76	46974.55
571.92	47093.92
572.09	47608.84
572.25	47070.51
572.41	46948.81
572.57	47227.33
572.74	47318.61
572.90	47276.48
573.06	47482.45
573.22	47346.70
573.38	47648.63
573.55	47430.96
573.71	47473.09
573.87	47463.72
574.03	47442.66
574.20	47791.40
574.36	47267.12
574.52	47281.16
574.68	47159.45
574.84	47674.37
575.01	47365.42
575.17	47526.92
575.33	47140.73
575.49	47107.96
575.65	47501.17
575.82	47276.48
575.98	47356.06
576.14	47445.00
576.30	47531.60
576.46	47379.46
576.62	47358.40
576.79	47482.45
576.95	47248.39
577.11	47093.92
577.27	47744.59
577.43	47253.08
577.59	47667.35
577.75	47194.56
577.92	47203.92
578.08	47445.00
578.24	47306.91
578.40	47973.96
578.56	47573.73
578.72	47587.77
578.88	47913.11
579.04	47423.93
579.21	47274.14
579.37	47452.02
579.53	47489.47
579.69	47257.76
579.85	47325.63
580.01	47723.52
580.17	47058.81
580.33	47786.72
580.49	47854.59
580.65	47512.88
580.82	47461.38
580.98	47437.98
581.14	47325.63
581.30	47863.96
581.46	47246.05
581.62	47573.73
581.78	47477.77
581.94	47814.80
582.10	47545.64
582.26	47852.25
582.42	47562.03
582.58	47271.80
582.74	47693.10
582.90	47707.14
583.06	48044.18
583.22	47206.26
583.38	48301.64
583.54	47634.58
583.70	47468.40
583.86	47978.64
584.02	47756.29
584.18	48006.73
584.34	47742.25
584.50	48058.22
584.66	48037.16
584.82	48119.07
584.98	48229.08
585.14	47725.86
585.30	47683.73
585.46	47770.33
585.62	47672.03
585.78	47948.21
585.94	47730.54
586.10	48156.52
586.26	47496.49
586.42	47639.26
586.58	48193.97
586.74	47271.80
586.90	47760.97
587.06	47452.02
587.22	47896.72
587.38	47482.45
587.54	48196.31
587.70	47973.96
587.86	48081.63
588.02	48086.31
588.18	47826.51
588.34	48109.71
588.49	47793.74
588.65	47555.00
588.81	48165.88
588.97	47943.53
589.13	47524.58
589.29	47938.85
589.45	48102.69
589.61	48046.52
589.77	48282.91
589.93	47910.77
590.08	47772.67
