SpectraSuite Data File
++++++++++++++++++++++++++++++++++++
Date: Fri Oct 25 11:23:14 EDT 2013
User: price-jones
Dark Spectrum Present: No
Reference Spectrum Present: No
Number of Sampled Component Spectra: 1
Spectrometers: USB2+H05261
Integration Time (usec): 100000 (USB2+H05261)
Spectra Averaged: 1 (USB2+H05261)
Boxcar Smoothing: 0 (USB2+H05261)
Correct for Electrical Dark: No (USB2+H05261)
Strobe/Lamp Enabled: No (USB2+H05261)
Correct for Detector Non-linearity: No (USB2+H05261)
Correct for Stray Light: No (USB2+H05261)
Number of Pixels in Processed Spectrum: 2048
>>>>>Begin Processed Spectral Data<<<<<
365.73	245.76
365.92	245.76
366.12	245.76
366.32	191.92
366.52	173.20
366.72	159.16
366.91	140.43
367.11	119.37
367.31	119.37
367.51	121.71
367.70	203.63
367.90	121.71
368.10	102.98
368.30	203.63
368.49	166.18
368.69	124.05
368.89	128.73
369.09	126.39
369.28	236.39
369.48	100.64
369.68	194.26
369.87	262.14
370.07	229.37
370.27	259.80
370.47	395.55
370.66	554.71
370.86	580.45
371.06	634.29
371.25	669.39
371.45	653.01
371.65	671.73
371.84	683.44
372.04	699.82
372.24	669.39
372.44	770.04
372.63	711.52
372.83	748.97
373.03	720.88
373.22	788.76
373.42	800.46
373.62	753.65
373.81	812.17
374.01	788.76
374.21	842.59
374.40	807.48
374.60	805.14
374.79	844.93
374.99	851.96
375.19	882.38
375.38	835.57
375.58	835.57
375.78	861.32
375.97	854.30
376.17	908.13
376.37	887.06
376.56	915.15
376.76	821.53
376.95	910.47
377.15	938.55
377.35	842.59
377.54	823.87
377.74	926.85
377.93	863.66
378.13	898.77
378.33	985.37
378.52	978.34
378.72	950.26
378.91	994.73
379.11	973.66
379.31	945.58
379.50	891.74
379.70	957.28
379.89	1018.13
380.09	1011.11
380.28	1011.11
380.48	1090.69
380.68	873.02
380.87	1062.60
381.07	1050.90
381.26	1104.73
381.46	1022.81
381.65	1067.28
381.85	1093.03
382.04	1034.52
382.24	1013.45
382.43	1020.47
382.63	980.68
382.83	1020.47
383.02	1013.45
383.22	1074.31
383.41	1102.39
383.61	1057.92
383.80	1097.71
384.00	1083.67
384.19	1083.67
384.39	1043.88
384.58	1167.93
384.78	1083.67
384.97	1118.78
385.17	1146.86
385.36	1160.91
385.56	1158.57
385.75	1163.25
385.95	1151.54
386.14	1249.85
386.34	1193.67
386.53	1170.27
386.72	1217.08
386.92	1273.25
387.11	1256.87
387.31	1245.16
387.50	1275.59
387.70	1306.02
387.89	1331.76
388.09	1287.29
388.28	1357.51
388.48	1329.42
388.67	1310.70
388.86	1270.91
389.06	1324.74
389.25	1341.13
389.45	1444.11
389.64	1320.06
389.84	1394.96
390.03	1441.77
390.22	1327.08
390.42	1254.53
390.61	1411.34
390.81	1366.87
391.00	1329.42
391.19	1432.41
391.39	1488.58
391.58	1434.75
391.78	1434.75
391.97	1413.68
392.16	1401.98
392.36	1540.07
392.55	1544.75
392.75	1614.97
392.94	1568.16
393.13	1671.14
393.33	1476.88
393.52	1589.22
393.71	1682.85
393.91	1598.59
394.10	1497.94
394.29	1659.44
394.49	1584.54
394.68	1643.06
394.88	1621.99
395.07	1617.31
395.26	1645.40
395.46	1762.42
395.65	1678.16
395.84	1783.49
396.04	1827.96
396.23	1790.51
396.42	1750.72
396.62	1804.55
396.81	1842.00
397.00	1671.14
397.19	1839.66
397.39	1858.39
397.58	1799.87
397.77	1792.85
397.97	1930.94
398.16	1837.32
398.35	1881.79
398.55	1973.07
398.74	1944.99
398.93	1944.99
399.12	1961.37
399.32	1959.03
399.51	1928.60
399.70	1888.81
399.90	1996.48
400.09	2024.56
400.28	2148.61
400.47	2150.95
400.67	2113.50
400.86	2132.23
401.05	2122.87
401.24	2162.66
401.44	2146.27
401.63	2214.15
401.82	2265.64
402.01	2139.25
402.21	2214.15
402.40	2300.75
402.59	2239.89
402.78	2211.81
402.97	2228.19
403.17	2251.60
403.36	2242.23
403.55	2340.54
403.74	2413.09
403.93	2354.58
404.13	2321.81
404.32	2387.35
404.51	2303.09
404.70	2448.20
404.89	2424.80
405.09	2548.84
405.28	2450.54
405.47	2473.95
405.66	2593.31
405.85	2511.39
406.05	2443.52
406.24	2612.04
406.43	2593.31
406.62	2623.74
406.81	2761.83
407.00	2551.18
407.20	2682.25
407.39	2651.83
407.58	2682.25
407.77	2818.00
407.96	2792.26
408.15	2846.09
408.34	2663.53
408.54	2881.20
408.73	2796.94
408.92	2750.13
409.11	3045.04
409.30	2988.86
409.49	2839.07
409.68	2909.29
409.87	2899.92
410.07	3019.29
410.26	2981.84
410.45	3002.91
410.64	3035.67
410.83	3199.51
411.02	2911.63
411.21	3194.83
411.40	3105.89
411.59	3206.53
411.78	3131.64
411.98	3213.56
412.17	3302.50
412.36	3302.50
412.55	3461.65
412.74	3515.48
412.93	3461.65
413.12	3419.52
413.31	3471.01
413.50	3494.42
413.69	3417.18
413.88	3522.51
414.07	3618.47
414.26	3822.09
414.45	3714.43
414.64	3812.73
414.83	3889.97
415.02	3754.22
415.22	3768.26
415.41	3936.78
415.60	3829.12
415.79	3887.63
415.98	3920.40
416.17	3904.01
416.36	4058.49
416.55	3978.91
416.74	4114.66
416.93	4105.30
417.12	4138.07
417.31	4212.96
417.50	4042.11
417.69	4161.47
417.88	4360.42
418.07	4304.25
418.26	4313.61
418.45	4311.27
418.64	4610.86
418.83	4425.95
419.02	4517.23
419.21	4430.63
419.39	4566.39
419.58	4535.96
419.77	4514.89
419.96	4573.41
420.15	4802.78
420.34	4542.98
420.53	4657.67
420.72	4737.24
420.91	4573.41
421.10	4805.12
421.29	4767.67
421.48	4648.30
421.67	4767.67
421.86	4786.40
422.05	4910.44
422.24	4882.36
422.43	4952.57
422.61	4940.87
422.80	4999.38
422.99	5055.56
423.18	4929.17
423.37	4957.25
423.56	5043.85
423.75	4940.87
423.94	4816.82
424.13	4634.26
424.32	4603.83
424.50	4997.04
424.69	5144.50
424.88	5064.92
425.07	4929.17
425.26	5029.81
425.45	5167.90
425.64	4954.91
425.83	5252.16
426.01	5184.29
426.20	5153.86
426.39	5186.63
426.58	5179.61
426.77	5188.97
426.96	5195.99
427.15	5160.88
427.33	5341.10
427.52	5207.69
427.71	5348.12
427.90	5247.48
428.09	5322.38
428.28	5287.27
428.46	5399.62
428.65	5369.19
428.84	5591.54
429.03	5514.30
429.22	5392.59
429.40	5554.09
429.59	5481.53
429.78	5310.68
429.97	5252.16
430.16	5722.61
430.34	5617.29
430.53	5816.23
430.72	5762.40
430.91	5710.91
431.10	5626.65
431.28	5764.74
431.47	5774.10
431.66	5956.66
431.85	5841.98
432.03	5977.73
432.22	5874.74
432.41	6066.67
432.60	5951.98
432.79	6202.42
432.97	6092.41
433.16	5959.00
433.35	5928.58
433.54	6211.78
433.72	6225.82
433.91	6122.84
434.10	6249.23
434.28	6064.33
434.47	6253.91
434.66	6267.95
434.85	6377.96
435.03	6310.08
435.22	6338.17
435.41	6619.04
435.59	6422.43
435.78	6422.43
435.97	6317.11
436.16	6586.27
436.34	6394.34
436.53	6612.01
436.72	6799.26
436.90	6534.78
437.09	6787.55
437.28	6525.41
437.46	6619.04
437.65	6663.51
437.84	6724.36
438.02	6963.09
438.21	6740.74
438.40	6778.19
438.58	6981.82
438.77	7105.87
438.96	7150.34
439.14	7204.17
439.33	7192.47
439.52	7318.86
439.70	7258.00
439.89	7304.81
440.08	7318.86
440.26	7227.57
440.45	7463.97
440.63	7297.79
440.82	7424.18
441.01	7520.14
441.19	7489.71
441.38	7765.90
441.57	7889.95
441.75	7829.09
441.94	7974.21
442.12	7995.27
442.31	8049.10
442.50	8238.69
442.68	8180.17
442.87	8175.49
443.05	8222.30
443.24	8446.99
443.43	8030.38
443.61	8301.88
443.80	8411.89
443.98	8203.58
444.17	7983.57
444.35	8205.92
444.54	8444.65
444.73	8327.63
444.91	8442.31
445.10	8435.29
445.28	8571.04
445.47	8369.76
445.65	8437.63
445.84	8542.96
446.02	8805.10
446.21	8416.57
446.39	8557.00
446.58	8671.68
446.77	8573.38
446.95	8283.16
447.14	8491.46
447.32	8538.27
447.51	8514.87
447.69	8549.98
447.88	8622.53
448.06	8599.13
448.25	8568.70
448.43	8863.61
448.62	8690.41
448.80	8624.87
448.99	8638.92
449.17	8844.88
449.36	8697.43
449.54	8933.82
449.73	9238.09
449.91	8917.44
450.10	9018.08
450.28	9167.88
450.46	9167.88
450.65	8924.46
450.83	9165.54
451.02	9034.47
451.20	9165.54
451.39	9135.11
451.57	9369.16
451.76	9123.41
451.94	9151.49
452.13	9256.82
452.31	9312.99
452.49	9205.33
452.68	9305.97
452.86	9404.27
453.05	9675.77
453.23	9657.05
453.42	9460.45
453.60	9460.45
453.78	9479.17
453.97	9586.83
454.15	9633.64
454.34	9497.89
454.52	9727.27
454.70	9638.33
454.89	9846.63
455.07	9832.59
455.26	9867.70
455.44	10097.07
455.62	10017.49
455.81	9980.04
455.99	10230.48
456.17	10108.77
456.36	10059.62
456.54	10216.44
456.73	10431.77
456.91	10562.84
457.09	10279.63
457.28	10700.93
457.46	10417.72
457.64	10562.84
457.83	10555.82
458.01	10387.30
458.19	10754.76
458.38	10670.50
458.56	10829.66
458.74	10836.68
458.93	10801.57
459.11	10684.55
459.29	10693.91
459.48	10979.45
459.66	10815.62
459.84	10920.94
460.03	11257.98
460.21	11262.66
460.39	10920.94
460.57	11035.63
460.76	11171.38
460.94	11133.93
461.12	11201.80
461.31	11255.64
461.49	11206.48
461.67	11288.40
461.85	11337.56
462.04	11735.45
462.22	11651.19
462.40	11669.91
462.59	11403.09
462.77	11662.89
462.95	11606.72
463.13	11688.64
463.32	11688.64
463.50	11793.96
463.68	11922.69
463.86	11934.39
464.05	11758.85
464.23	11749.49
464.41	12100.57
464.59	11688.64
464.78	12037.38
464.96	11983.54
465.14	11960.14
465.32	12264.41
465.50	12098.23
465.69	12201.21
465.87	12519.53
466.05	12205.89
466.23	12231.64
466.41	12627.19
466.60	12690.38
466.78	12049.08
466.96	12311.22
467.14	12194.19
467.32	12414.20
467.51	12659.96
467.69	12376.75
467.87	12615.49
468.05	12666.98
468.23	12421.22
468.41	12580.38
468.60	12781.67
468.78	12912.74
468.96	12599.10
469.14	12755.92
469.32	12882.31
469.50	12851.88
469.69	12987.63
469.87	13144.45
470.05	13231.05
470.23	13390.20
470.41	13193.60
470.59	13404.25
470.77	13214.66
470.95	13282.54
471.14	13640.64
471.32	13270.84
471.50	13572.77
471.68	13657.03
471.86	13949.59
472.04	13965.98
472.22	14139.18
472.40	13858.31
472.58	13954.27
472.77	13944.91
472.95	14410.68
473.13	14546.43
473.31	14155.56
473.49	14424.72
473.67	14218.75
473.85	14436.42
474.03	14747.72
474.21	14766.44
474.39	14626.01
474.57	14881.13
474.75	15094.11
474.93	15026.24
475.12	15021.56
475.30	15323.49
475.48	15229.87
475.66	15164.33
475.84	15101.14
476.02	15492.01
476.20	15396.04
476.38	15721.38
476.56	15946.07
476.74	16269.06
476.92	15850.11
477.10	16039.69
477.28	16262.04
477.46	16308.85
477.64	16292.47
477.82	16718.45
478.00	16947.82
478.18	16828.45
478.36	16971.22
478.54	17390.18
478.72	17530.61
478.90	17532.95
479.08	17668.70
479.26	17759.98
479.44	17902.76
479.62	17980.00
479.80	18153.20
479.98	18361.50
480.16	18677.48
480.34	18319.37
480.52	18831.95
480.70	18845.99
480.88	18588.53
481.06	19012.17
481.24	18958.34
481.41	19264.95
481.59	19257.93
481.77	19613.69
481.95	19627.73
482.13	19761.14
482.31	19831.36
482.49	20355.64
482.67	20175.42
482.85	20711.40
483.03	20547.56
483.21	20957.16
483.39	21289.51
483.57	21050.78
483.74	21458.03
483.92	21380.79
484.10	21614.85
484.28	22132.11
484.46	22249.13
484.64	22345.09
484.82	22010.40
485.00	22511.27
485.18	22965.34
485.35	23412.38
485.53	22817.88
485.71	23358.55
485.89	24002.19
486.07	23449.83
486.25	23480.25
486.43	23770.48
486.61	23992.83
486.78	24006.87
486.96	24402.43
487.14	24907.98
487.32	25050.75
487.50	24989.90
487.68	25219.27
487.85	25661.63
488.03	25605.46
488.21	26183.57
488.39	26125.06
488.57	26211.66
488.75	26370.82
488.92	26445.71
489.10	26719.56
489.28	26883.39
489.46	27248.52
489.64	27168.94
489.81	28121.54
489.99	27606.62
490.17	28343.89
490.35	28725.39
490.53	28458.57
490.70	28622.41
490.88	28489.00
491.06	29226.27
491.24	29090.52
491.41	29373.72
491.59	29317.55
491.77	29666.29
491.95	30118.01
492.13	30162.48
492.30	30368.45
492.48	30253.76
492.66	30497.18
492.84	30817.83
493.01	30796.77
493.19	30923.16
493.37	31449.78
493.54	31498.93
493.72	31786.82
493.90	31538.72
494.08	31990.44
494.25	32659.84
494.43	32496.00
494.61	32701.96
494.79	32531.11
494.96	32914.95
495.14	32708.99
495.32	33521.15
495.49	33565.62
495.67	33537.54
495.85	33954.15
496.02	34117.99
496.20	34300.55
496.38	34682.06
496.55	34405.88
496.73	35225.06
496.91	34932.50
497.09	35428.69
497.26	35454.44
497.44	34932.50
497.62	35433.37
497.79	36318.09
497.97	35803.17
498.14	36030.21
498.32	36570.87
498.50	36184.68
498.67	36928.97
498.85	36746.41
499.03	36814.29
499.20	36687.90
499.38	37420.48
499.56	37336.23
499.73	37139.62
499.91	37586.66
500.08	37806.67
500.26	37720.07
500.44	37968.17
500.61	38464.36
500.79	38160.09
500.97	38270.10
501.14	38951.20
501.32	38515.86
501.49	38632.88
501.67	38993.32
501.84	38941.83
502.02	39199.29
502.20	39185.25
502.37	39388.88
502.55	39459.09
502.72	39983.37
502.90	39793.79
503.07	40067.63
503.25	40285.30
503.43	40121.46
503.60	40395.31
503.78	40730.00
503.95	40540.42
504.13	40828.30
504.30	40942.99
504.48	40540.42
504.65	41322.16
504.83	40865.75
505.01	41558.55
505.18	41390.03
505.36	42237.31
505.53	41553.87
505.71	42155.39
505.88	42141.35
506.06	41591.32
506.23	42520.51
506.41	42066.45
506.58	42359.02
506.76	42206.88
506.93	43033.09
507.11	42543.92
507.28	42593.07
507.46	42808.40
507.63	43274.16
507.81	43239.06
507.98	43192.25
508.16	43416.94
508.33	43899.09
508.50	43821.85
508.68	43608.86
508.85	44245.49
509.03	43985.69
509.20	44442.09
509.38	44832.96
509.55	44760.40
509.73	44837.64
509.90	44886.79
510.08	44926.58
510.25	44786.15
510.42	45202.77
510.60	45560.87
510.77	45471.93
510.95	45586.61
511.12	45261.28
511.30	45560.87
511.47	45881.52
511.64	45914.29
511.82	45628.74
511.99	45773.86
512.17	46525.17
512.34	45942.38
512.51	46440.91
512.69	46539.21
512.86	46897.31
513.04	47042.43
513.21	46873.91
513.38	46993.28
513.56	47452.02
513.73	46827.10
513.90	47302.23
514.08	47636.92
514.25	47342.02
514.43	47786.72
514.60	47360.74
514.77	47660.33
514.95	47992.68
515.12	48233.76
515.29	47285.84
515.47	48165.88
515.64	48472.49
515.81	48186.95
515.99	48486.54
516.16	48886.77
516.33	48753.36
516.51	48917.20
516.68	48584.84
516.85	49001.46
517.03	48947.62
517.20	49219.13
517.37	49254.23
517.54	49385.30
517.72	49059.97
517.89	49191.04
518.06	49422.75
518.24	49727.02
518.41	49509.35
518.58	49600.63
518.75	49523.40
518.93	49773.83
519.10	49455.52
519.27	50155.34
519.45	50232.58
519.62	50127.25
519.79	50417.48
519.96	50190.45
520.14	50616.43
520.31	50454.93
520.48	50494.72
520.65	50614.08
520.83	51023.68
521.00	51327.95
521.17	51004.95
521.34	50813.03
521.52	51105.60
521.69	51140.71
521.86	51185.18
522.03	51241.35
522.20	51714.14
522.38	51737.54
522.55	51323.27
522.72	51943.51
522.89	51639.24
523.07	51786.69
523.24	51690.73
523.41	52009.04
523.58	51812.44
523.75	52299.27
523.92	52123.73
524.10	52540.35
524.27	52411.62
524.44	52203.31
524.61	52449.06
524.78	52530.98
524.96	52624.60
525.13	52552.05
525.30	52626.95
525.47	53254.21
525.64	52638.65
525.81	52776.74
525.98	52914.83
526.16	52636.31
526.33	52664.39
526.50	53155.91
526.67	52949.94
526.84	53235.48
527.01	53303.36
527.18	53298.68
527.36	53113.78
527.53	53537.41
527.70	53558.48
527.87	53904.88
528.04	53485.92
528.21	53609.97
528.38	53759.76
528.55	53907.22
528.72	53654.44
528.89	53595.93
529.07	53600.61
529.24	53633.38
529.41	54089.78
529.58	53722.32
529.75	53717.64
529.92	53829.98
530.09	54195.10
530.26	54403.41
530.43	54384.69
530.60	54007.86
530.77	54485.33
530.94	54480.65
531.11	54244.26
531.28	54213.83
531.46	54363.62
531.63	54447.88
531.80	54419.80
531.97	54710.02
532.14	54972.16
532.31	54873.86
532.48	54770.88
532.65	54873.86
532.82	54843.43
532.99	54946.42
533.16	54834.07
533.33	55075.15
533.50	55117.28
533.67	54976.84
533.84	55086.85
534.01	55171.11
534.18	55238.98
534.35	55561.98
534.52	55107.91
534.69	55480.06
534.86	55643.90
535.03	55236.64
535.20	55569.00
535.37	55569.00
535.54	55639.22
535.71	55356.01
535.88	55662.62
536.05	55777.31
536.22	55789.01
536.38	55929.44
536.55	55641.56
536.72	55884.97
536.89	55662.62
537.06	55845.18
537.23	55948.17
537.40	55854.54
537.57	55962.21
537.74	56156.47
537.91	56147.11
538.08	56427.98
538.25	56189.24
538.42	55936.46
538.59	56287.54
538.75	56074.55
538.92	56437.34
539.09	56535.64
539.26	56313.29
539.43	56381.16
539.60	56360.10
539.77	56411.59
539.94	56736.93
540.11	56825.87
540.28	56736.93
540.44	56591.81
540.61	56463.08
540.78	56788.42
540.95	56591.81
541.12	56664.37
541.29	56760.33
541.46	56715.86
541.62	56992.04
541.79	56999.07
541.96	56757.99
542.13	56942.89
542.30	57099.71
542.47	57022.47
542.63	57036.51
542.80	57202.69
542.97	57144.18
543.14	57497.60
543.31	57495.26
543.48	57392.28
543.64	57755.06
543.81	57331.42
543.98	57347.81
544.15	57638.03
544.32	57474.20
544.48	57591.22
544.65	57464.83
544.82	57687.18
544.99	57579.52
545.16	57663.78
545.32	57556.11
545.49	57888.47
545.66	58028.90
545.83	57890.81
546.00	58003.16
546.16	57673.14
546.33	57759.74
546.50	57771.44
546.67	58059.33
546.83	57687.18
547.00	58059.33
547.17	58071.03
547.34	58059.33
547.50	58190.40
547.67	58326.15
547.84	58176.36
548.00	58141.25
548.17	58279.34
548.34	58316.79
548.51	58323.81
548.67	58604.67
548.84	58436.16
549.01	58370.62
549.18	58293.38
549.34	58440.84
549.51	58396.37
549.68	58663.19
549.84	58321.47
550.01	58649.14
550.18	58557.86
550.34	58569.57
550.51	58611.70
550.68	58508.71
550.84	58405.73
551.01	58962.78
551.18	58651.48
551.34	58482.97
551.51	58836.39
551.68	58897.24
551.84	58763.83
552.01	58567.23
552.18	59051.72
552.34	59044.69
552.51	58995.54
552.68	58527.44
552.84	59028.31
553.01	59185.13
553.18	59051.72
553.34	58890.22
553.51	58820.00
553.67	58934.69
553.84	59126.61
554.01	59068.10
554.17	59072.78
554.34	59278.75
554.51	59077.46
554.67	59348.96
554.84	59257.68
555.00	59112.57
555.17	58871.49
555.33	59442.59
555.50	58997.88
555.67	59353.65
555.83	59182.79
556.00	59215.55
556.16	59604.08
556.33	59564.29
556.50	59323.22
556.66	59695.36
556.83	59297.47
556.99	59711.75
557.16	59856.86
557.32	59592.38
557.49	59803.03
557.65	59547.91
557.82	59599.40
557.98	59700.04
558.15	59669.62
558.32	59657.91
558.48	59578.34
558.65	59653.23
558.81	59664.94
558.98	59891.97
559.14	59688.34
559.31	59817.07
559.47	59863.88
559.64	60074.53
559.80	59807.71
559.97	59819.41
560.13	59800.69
560.30	59957.50
560.46	59920.05
560.63	60011.34
560.79	60088.57
560.96	60109.64
561.12	59959.84
561.29	60142.41
561.45	59992.61
561.61	59866.22
561.78	59931.76
561.94	60009.00
562.11	59985.59
562.27	60081.55
562.44	60126.02
562.60	60294.54
562.77	60294.54
562.93	59861.54
563.10	60287.52
563.26	60100.28
563.42	60369.44
563.59	60339.01
563.75	60233.69
563.92	60301.56
564.08	60191.56
564.24	60315.61
564.41	60339.01
564.57	60374.12
564.74	60374.12
564.90	60388.16
565.07	60465.40
565.23	60278.16
565.39	60378.80
565.56	60484.12
565.72	60240.71
565.88	60659.66
566.05	60320.29
566.21	60355.39
566.38	60133.04
566.54	60301.56
566.70	60580.09
566.87	60346.03
567.03	60327.31
567.19	60701.79
567.36	60566.04
567.52	60456.04
567.68	60640.94
567.85	60573.06
568.01	60800.10
568.17	60683.07
568.34	60537.96
568.50	60587.11
568.66	60432.63
568.83	60603.49
568.99	60481.78
569.15	60559.02
569.32	60575.40
569.48	60643.28
569.64	60584.77
569.81	60722.86
569.97	60364.76
570.13	60638.60
570.30	60502.85
570.46	60631.58
570.62	60809.46
570.78	60612.85
570.95	60694.77
571.11	60858.61
571.27	60479.44
571.43	60720.52
571.60	60699.45
571.76	60959.25
571.92	60837.54
572.09	60647.96
572.25	60839.89
572.41	60729.88
572.57	60694.77
572.74	60919.46
572.90	60718.18
573.06	60821.16
573.22	60846.91
573.38	60903.08
573.55	60985.00
573.71	61006.06
573.87	60926.49
574.03	60977.98
574.20	60921.80
574.36	60818.82
574.52	60884.36
574.68	60935.85
574.84	61092.66
575.01	60764.99
575.17	61139.47
575.33	60757.97
575.49	60690.09
575.65	61062.24
575.82	61036.49
575.98	60924.14
576.14	61080.96
576.30	60992.02
576.46	60975.64
576.62	60940.53
576.79	60903.08
576.95	60874.99
577.11	60856.27
577.27	61008.40
577.43	61003.72
577.59	61003.72
577.75	60914.78
577.92	60970.96
578.08	60954.57
578.24	61139.47
578.40	61277.57
578.56	61221.39
578.72	61104.37
578.88	61263.52
579.04	61041.17
579.21	61052.87
579.37	61167.56
579.53	61087.98
579.69	60947.55
579.85	60886.70
580.01	61214.37
580.17	61050.53
580.33	61073.94
580.49	61277.57
580.65	61202.67
580.82	61132.45
580.98	61013.08
581.14	61141.81
581.30	61174.58
581.46	61111.39
581.62	61277.57
581.78	60980.32
581.94	61116.07
582.10	60818.82
582.26	61006.06
582.42	61151.18
582.58	61268.20
582.74	61020.11
582.90	61207.35
583.06	61029.47
583.22	61031.81
583.38	61083.30
583.54	61087.98
583.70	61268.20
583.86	61132.45
584.02	60970.96
584.18	61235.44
584.34	61155.86
584.50	61137.13
584.66	61207.35
584.82	60963.93
584.98	61338.42
585.14	61212.03
585.30	61050.53
585.46	61179.26
585.62	61123.09
585.78	61165.22
585.94	61113.73
586.10	60980.32
586.26	60994.36
586.42	61193.31
586.58	61095.00
586.74	61207.35
586.90	61291.61
587.06	61228.41
587.22	61513.96
587.38	61464.81
587.54	61298.63
587.70	61455.45
587.86	61284.59
588.02	61329.06
588.18	61385.23
588.34	61347.78
