SpectraSuite Data File
++++++++++++++++++++++++++++++++++++
Date: Fri Oct 25 10:47:19 EDT 2013
User: price-jones
Dark Spectrum Present: No
Reference Spectrum Present: No
Number of Sampled Component Spectra: 1
Spectrometers: USB2+H05261
Integration Time (usec): 100000 (USB2+H05261)
Spectra Averaged: 1 (USB2+H05261)
Boxcar Smoothing: 0 (USB2+H05261)
Correct for Electrical Dark: No (USB2+H05261)
Strobe/Lamp Enabled: No (USB2+H05261)
Correct for Detector Non-linearity: No (USB2+H05261)
Correct for Stray Light: No (USB2+H05261)
Number of Pixels in Processed Spectrum: 2048
>>>>>Begin Processed Spectral Data<<<<<
365.73	145.11
365.92	145.11
366.12	145.11
366.32	110.01
366.52	46.81
366.72	77.24
366.91	21.06
367.11	70.22
367.31	14.04
367.51	18.72
367.70	4.68
367.90	65.54
368.10	72.56
368.30	102.98
368.49	0.00
368.69	93.62
368.89	25.75
369.09	67.88
369.28	112.35
369.48	4.68
369.68	98.30
369.87	128.73
370.07	119.37
370.27	128.73
370.47	163.84
370.66	360.44
370.86	442.36
371.06	526.62
371.25	493.85
371.45	376.83
371.65	416.62
371.84	383.85
372.04	468.11
372.24	479.81
372.44	475.13
372.63	451.72
372.83	454.06
373.03	449.38
373.22	514.92
373.42	545.34
373.62	550.03
373.81	573.43
374.01	547.69
374.21	564.07
374.40	517.26
374.60	489.17
374.79	575.77
374.99	599.18
375.19	585.13
375.38	554.71
375.58	585.13
375.78	580.45
375.97	606.20
376.17	573.43
376.37	519.60
376.56	472.79
376.76	629.60
376.95	582.79
377.15	653.01
377.35	531.30
377.54	615.56
377.74	533.64
377.93	634.29
378.13	631.94
378.33	657.69
378.52	615.56
378.72	575.77
378.91	585.13
379.11	580.45
379.31	601.52
379.50	592.16
379.70	603.86
379.89	594.50
380.09	627.26
380.28	617.90
380.48	631.94
380.68	669.39
380.87	650.67
381.07	685.78
381.26	631.94
381.46	660.03
381.65	610.88
381.85	629.60
382.04	660.03
382.24	634.29
382.43	657.69
382.63	573.43
382.83	697.48
383.02	664.71
383.22	809.83
383.41	716.20
383.61	741.95
383.80	746.63
384.00	674.07
384.19	732.59
384.39	774.72
384.58	744.29
384.78	737.27
384.97	770.04
385.17	746.63
385.36	739.61
385.56	791.10
385.75	734.93
385.95	692.80
386.14	868.34
386.34	716.20
386.53	748.97
386.72	716.20
386.92	842.59
387.11	774.72
387.31	737.27
387.50	748.97
387.70	784.08
387.89	784.08
388.09	868.34
388.28	798.12
388.48	788.76
388.67	854.30
388.86	814.51
389.06	882.38
389.25	840.25
389.45	781.74
389.64	793.44
389.84	929.19
390.03	842.59
390.22	903.45
390.42	1006.43
390.61	873.02
390.81	882.38
391.00	938.55
391.19	938.55
391.39	964.30
391.58	924.51
391.78	924.51
391.97	929.19
392.16	903.45
392.36	968.98
392.55	1029.84
392.75	943.24
392.94	980.68
393.13	952.60
393.33	887.06
393.52	922.17
393.71	1008.77
393.91	1032.18
394.10	964.30
394.29	971.32
394.49	919.83
394.68	1032.18
394.88	1064.94
395.07	1060.26
395.26	1067.28
395.46	1015.79
395.65	1121.12
395.84	1158.57
396.04	1210.06
396.23	1118.78
396.42	1027.50
396.62	1121.12
396.81	1088.35
397.00	1111.75
397.19	1104.73
397.39	1170.27
397.58	1128.14
397.77	1107.07
397.97	1263.89
398.16	1217.08
398.35	1226.44
398.55	1226.44
398.74	1362.19
398.93	1268.57
399.12	1238.14
399.32	1188.99
399.51	1348.15
399.70	1352.83
399.90	1256.87
400.09	1310.70
400.28	1299.00
400.47	1355.17
400.67	1439.43
400.86	1392.62
401.05	1301.34
401.24	1299.00
401.44	1453.47
401.63	1427.73
401.82	1385.60
402.01	1334.11
402.21	1483.90
402.40	1526.03
402.59	1394.96
402.78	1432.41
402.97	1455.81
403.17	1469.86
403.36	1563.48
403.55	1537.73
403.74	1521.35
403.93	1631.35
404.13	1511.99
404.32	1575.18
404.51	1479.22
404.70	1675.82
404.89	1575.18
405.09	1629.01
405.28	1736.68
405.47	1619.65
405.66	1760.08
405.85	1785.83
406.05	1636.03
406.24	1755.40
406.43	1746.04
406.62	1673.48
406.81	1661.78
407.00	1694.55
407.20	1802.21
407.39	1795.19
407.58	1802.21
407.77	1818.60
407.96	1954.35
408.15	1816.26
408.34	1863.07
408.54	1935.62
408.73	1900.52
408.92	1940.30
409.11	1919.24
409.30	2005.84
409.49	1954.35
409.68	2001.16
409.87	1872.43
410.07	2010.52
410.26	1921.58
410.45	2012.86
410.64	2101.80
410.83	2113.50
411.02	2141.59
411.21	2097.12
411.40	2108.82
411.59	2270.32
411.78	2246.91
411.98	2275.00
412.17	2314.79
412.36	2207.13
412.55	2298.41
412.74	2349.90
412.93	2314.79
413.12	2300.75
413.31	2363.94
413.50	2385.01
413.69	2321.81
413.88	2476.29
414.07	2513.74
414.26	2516.08
414.45	2588.63
414.64	2541.82
414.83	2588.63
415.02	2553.52
415.22	2658.85
415.41	2635.44
415.60	2754.81
415.79	2642.46
415.98	2724.38
416.17	2740.77
416.36	2832.05
416.55	2780.56
416.74	2834.39
416.93	2724.38
417.12	2822.69
417.31	2979.50
417.50	2892.90
417.69	2963.12
417.88	2965.46
418.07	2888.22
418.26	3014.61
418.45	3035.67
418.64	3038.02
418.83	2956.10
419.02	2944.39
419.21	3148.02
419.39	3129.30
419.58	3176.11
419.77	2925.67
419.96	3042.70
420.15	3185.47
420.34	3276.75
420.53	3162.06
420.72	3304.84
420.91	3241.64
421.10	3234.62
421.29	3253.34
421.48	3164.40
421.67	3332.92
421.86	3323.56
422.05	3302.50
422.24	3201.85
422.43	3398.46
422.61	3428.88
422.80	3370.37
422.99	3428.88
423.18	3323.56
423.37	3365.69
423.56	3471.01
423.75	3515.48
423.94	3288.45
424.13	3258.03
424.32	3248.66
424.50	3433.57
424.69	3480.38
424.88	3550.59
425.07	3419.52
425.26	3269.73
425.45	3396.12
425.64	3363.35
425.83	3452.29
426.01	3368.03
426.20	3456.97
426.39	3375.05
426.58	3625.49
426.77	3419.52
426.96	3461.65
427.15	3459.31
427.33	3569.32
427.52	3426.54
427.71	3557.61
427.90	3597.40
428.09	3606.77
428.28	3782.31
428.46	3653.58
428.65	3740.18
428.84	3749.54
429.03	3833.80
429.22	3646.55
429.40	3644.21
429.59	3705.07
429.78	3684.00
429.97	3698.05
430.16	3613.79
430.34	3578.68
430.53	3772.94
430.72	3728.47
430.91	3698.05
431.10	3698.05
431.28	4011.68
431.47	3969.55
431.66	4032.74
431.85	3955.51
432.03	4030.40
432.22	4109.98
432.41	3990.61
432.60	4030.40
432.79	4046.79
432.97	3997.64
433.16	4088.92
433.35	4152.11
433.54	4173.18
433.72	3988.27
433.91	4170.83
434.10	4285.52
434.28	4208.28
434.47	4180.20
434.66	4091.26
434.85	4299.56
435.03	4306.59
435.22	4294.88
435.41	4360.42
435.59	4369.78
435.78	4421.27
435.97	4505.53
436.16	4454.04
436.34	4243.39
436.53	4407.23
436.72	4428.29
436.90	4477.44
437.09	4461.06
437.28	4395.53
437.46	4634.26
437.65	4585.11
437.84	4571.07
438.02	4606.17
438.21	4650.64
438.40	4404.89
438.58	4643.62
438.77	4643.62
438.96	4765.33
439.14	4887.04
439.33	4779.37
439.52	4858.95
439.70	4772.35
439.89	4973.64
440.08	4968.96
440.26	4940.87
440.45	5095.35
440.63	5167.90
440.82	5231.10
441.01	5006.41
441.19	5263.86
441.38	5270.89
441.57	5298.97
441.75	5219.39
441.94	5364.51
442.12	5465.15
442.31	5376.21
442.50	5390.25
442.68	5397.28
442.87	5568.13
443.05	5514.30
443.24	5600.90
443.43	5687.50
443.61	5631.33
443.80	5692.18
443.98	5490.90
444.17	5469.83
444.35	5603.24
444.54	5631.33
444.73	5514.30
444.91	5502.60
445.10	5551.75
445.28	5671.12
445.47	5631.33
445.65	5579.84
445.84	5771.76
446.02	5799.85
446.21	5795.17
446.39	5797.51
446.58	5703.89
446.77	5689.84
446.95	5664.10
447.14	5605.58
447.32	5816.23
447.51	5701.54
447.69	5834.96
447.88	5914.53
448.06	5778.78
448.25	5668.78
448.43	5998.79
448.62	5820.91
448.80	5769.42
448.99	5998.79
449.17	6061.99
449.36	5930.92
449.54	6106.46
449.73	6061.99
449.91	6167.31
450.10	6120.50
450.28	6223.48
450.46	6179.01
450.65	6188.38
450.83	6237.53
451.02	6108.80
451.20	6223.48
451.39	6258.59
451.57	6270.30
451.76	6134.54
451.94	6286.68
452.13	6401.37
452.31	6403.71
452.49	6202.42
452.68	6604.99
452.86	6235.19
453.05	6462.22
453.23	6361.58
453.42	6136.88
453.60	6289.02
453.78	6413.07
453.97	6242.21
454.15	6562.86
454.34	6401.37
454.52	6452.86
454.70	6452.86
454.89	6516.05
455.07	6553.50
455.26	6483.28
455.44	6794.58
455.62	6773.51
455.81	6656.48
455.99	6815.64
456.17	6675.21
456.36	6822.66
456.54	6766.49
456.73	6853.09
456.91	7033.31
457.09	7030.97
457.28	6946.71
457.46	7000.54
457.64	7103.53
457.83	7290.77
458.01	6810.96
458.19	7290.77
458.38	7272.04
458.56	7129.27
458.74	7288.43
458.93	7143.32
459.11	7316.51
459.29	7274.38
459.48	7482.69
459.66	7283.75
459.84	7349.28
460.03	7564.61
460.21	7522.48
460.39	7335.24
460.57	7302.47
460.76	7234.60
460.94	7602.06
461.12	7522.48
461.31	7456.95
461.49	7534.18
461.67	7557.59
461.85	7627.81
462.04	7508.44
462.22	8124.00
462.40	7707.38
462.59	7676.96
462.77	7709.72
462.95	7831.43
463.13	7920.37
463.32	7779.94
463.50	7875.90
463.68	7873.56
463.86	7817.39
464.05	7873.56
464.23	7791.64
464.41	8009.31
464.59	7889.95
464.78	7997.61
464.96	7981.23
465.14	8013.99
465.32	7871.22
465.50	8215.28
465.69	8196.56
465.87	8114.64
466.05	8170.81
466.23	8028.04
466.41	8182.51
466.60	8411.89
466.78	7955.48
466.96	8344.01
467.14	7985.91
467.32	8278.47
467.51	8407.20
467.69	8023.36
467.87	8271.45
468.05	8423.59
468.23	8329.97
468.41	8388.48
468.60	8346.35
468.78	8369.76
468.96	8327.63
469.14	8542.96
469.32	8692.75
469.50	8297.20
469.69	8634.24
469.87	8641.26
470.05	8737.22
470.23	8746.58
470.41	8767.65
470.59	8765.31
470.77	8676.37
470.95	8896.38
471.14	9032.13
471.32	8711.47
471.50	9076.60
471.68	8954.89
471.86	8950.21
472.04	9104.68
472.22	9202.99
472.40	9034.47
472.58	9191.28
472.77	9310.65
472.95	9413.63
473.13	9628.96
473.31	9423.00
473.49	9329.38
473.67	9371.50
473.85	9376.19
474.03	9678.12
474.21	9624.28
474.39	9867.70
474.57	9682.80
474.75	9806.84
474.93	9963.66
475.12	9872.38
475.30	9937.91
475.48	9937.91
475.66	10108.77
475.84	9966.00
476.02	9977.70
476.20	10239.84
476.38	10164.95
476.56	10686.89
476.74	10413.04
476.92	10555.82
477.10	10296.02
477.28	10544.11
477.46	10654.12
477.64	10700.93
477.82	10944.34
478.00	11115.20
478.18	10892.85
478.36	11157.33
478.54	11098.82
478.72	11173.72
478.90	11173.72
479.08	11447.56
479.26	11676.93
479.44	11693.32
479.62	11580.97
479.80	11686.29
479.98	11826.73
480.16	12004.61
480.34	11985.88
480.52	11978.86
480.70	12238.66
480.88	12131.00
481.06	12063.12
481.24	12381.43
481.41	12507.82
481.59	12608.47
481.77	12833.16
481.95	12802.73
482.13	12746.56
482.31	12912.74
482.49	13111.68
482.67	13055.51
482.85	13404.25
483.03	13362.12
483.21	13572.77
483.39	13540.00
483.57	13671.07
483.74	13511.91
483.92	14068.96
484.10	14012.79
484.28	14125.13
484.46	14221.10
484.64	14413.02
484.82	14209.39
485.00	14607.28
485.18	14700.90
485.35	14799.21
485.53	14700.90
485.71	14417.70
485.89	15007.52
486.07	15009.86
486.25	15197.10
486.43	15066.03
486.61	15169.01
486.78	15379.66
486.96	15618.39
487.14	15779.89
487.32	15660.52
487.50	15983.52
487.68	16355.66
487.85	16278.43
488.03	16692.70
488.21	16402.47
488.39	16580.36
488.57	16734.83
488.75	16819.09
488.92	17085.91
489.10	17287.20
489.28	17408.90
489.46	17495.50
489.64	17525.93
489.81	17877.01
489.99	17982.34
490.17	17848.93
490.35	18087.66
490.53	18188.30
490.70	18331.08
490.88	18302.99
491.06	18410.65
491.24	18473.85
491.41	18845.99
491.59	18803.86
491.77	18604.92
491.95	18787.48
492.13	19459.21
492.30	19442.83
492.48	19470.92
492.66	19314.10
492.84	19831.36
493.01	19590.28
493.19	20004.56
493.37	19822.00
493.54	20034.99
493.72	20311.17
493.90	20067.75
494.08	20552.24
494.25	20814.38
494.43	20563.95
494.61	20823.75
494.79	20992.26
494.96	21036.74
495.14	20732.47
495.32	21238.02
495.49	21261.43
495.67	21413.56
495.85	21563.36
496.02	21797.41
496.20	21575.06
496.38	21741.24
496.55	22050.19
496.73	22368.50
496.91	22403.61
497.09	22345.09
497.26	22249.13
497.44	22487.87
497.62	22602.55
497.79	22885.76
497.97	23026.19
498.14	22789.80
498.32	22934.91
498.50	23091.73
498.67	23213.43
498.85	23192.37
499.03	23393.65
499.20	23697.92
499.38	23463.87
499.56	23611.32
499.73	24126.24
499.91	23922.62
500.08	24079.43
500.26	23906.23
500.44	24121.56
500.61	24210.50
500.79	24051.34
500.97	24290.08
501.14	24655.20
501.32	24498.39
501.49	24716.06
501.67	24800.32
501.84	24589.67
502.02	24641.16
502.20	24858.83
502.37	25032.03
502.55	24987.56
502.72	25081.18
502.90	25549.29
503.07	25120.97
503.25	25301.19
503.43	25092.88
503.60	25893.35
503.78	25701.42
503.95	25692.06
504.13	25766.96
504.30	26001.01
504.48	25837.17
504.65	26136.76
504.83	26312.30
505.01	26558.06
505.18	26490.18
505.36	26536.99
505.53	26691.47
505.71	26693.81
505.88	26771.05
506.06	26677.43
506.23	26623.59
506.41	26806.16
506.58	27089.36
506.76	27414.69
506.93	27515.34
507.11	27491.93
507.28	27159.58
507.46	27316.39
507.63	27173.62
507.81	27225.11
507.98	27550.45
508.16	27730.67
508.33	27730.67
508.50	27777.48
508.68	28023.23
508.85	28154.30
509.03	27796.20
509.20	28072.39
509.38	28290.06
509.55	28388.36
509.73	29076.48
509.90	28547.51
510.08	28301.76
510.25	28716.03
510.42	28659.86
510.60	28992.22
510.77	28765.18
510.95	29184.14
511.12	28772.21
511.30	29273.08
511.47	29579.69
511.64	29434.58
511.82	29593.73
511.99	29455.64
512.17	29659.27
512.34	29635.86
512.51	29935.45
512.69	30026.73
512.86	29549.26
513.04	30188.23
513.21	29902.68
513.38	30253.76
513.56	29605.44
513.73	29780.98
513.90	30366.11
514.08	30391.86
514.25	31014.44
514.43	30197.59
514.60	30480.80
514.77	30560.37
514.95	30799.11
515.12	30874.01
515.29	30733.57
515.47	30698.47
515.64	31168.91
515.81	31204.02
515.99	30871.67
516.16	31274.24
516.33	31388.92
516.51	31409.99
516.68	31234.45
516.85	31143.17
517.03	31255.51
517.20	31344.45
517.37	31484.89
517.54	31611.28
517.72	31789.16
517.89	31885.12
518.06	31601.91
518.24	31550.42
518.41	31592.55
518.58	31840.65
518.75	32081.72
518.93	31995.12
519.10	31971.72
519.27	32339.18
519.45	32109.81
519.62	32189.39
519.79	32699.62
519.96	32685.58
520.14	32807.29
520.31	32348.54
520.48	32783.88
520.65	32807.29
520.83	33099.86
521.00	32826.01
521.17	33287.10
521.34	33549.24
521.52	33219.22
521.69	33289.44
521.86	33369.02
522.03	33333.91
522.20	33593.71
522.38	33605.41
522.55	33329.23
522.72	33570.30
522.89	33811.38
523.07	34085.22
523.24	33663.93
523.41	34054.79
523.58	33970.54
523.75	34153.10
523.92	34155.44
524.10	34157.78
524.27	34494.82
524.44	34302.89
524.61	34691.42
524.78	34396.51
524.96	34265.44
525.13	34806.11
525.30	34567.37
525.47	34965.26
525.64	34717.17
525.81	34923.13
525.98	34843.56
526.16	34548.65
526.33	34789.72
526.50	35229.74
526.67	34855.26
526.84	34700.78
527.01	34991.01
527.18	34778.02
527.36	35292.94
527.53	35194.64
527.70	35971.69
527.87	35754.02
528.04	35576.14
528.21	35775.09
528.38	35529.33
528.55	35747.00
528.72	35702.53
528.89	36060.63
529.07	35693.17
529.24	35782.11
529.41	35962.33
529.58	36039.57
529.75	36072.34
529.92	36154.26
530.09	36407.03
530.26	35964.67
530.43	36460.87
530.60	36006.80
530.77	36353.20
530.94	36605.98
531.11	36231.49
531.28	36507.68
531.46	36617.68
531.63	36605.98
531.80	36943.02
531.97	36753.43
532.14	36442.14
532.31	36409.37
532.48	36701.94
532.65	36898.55
532.82	36711.30
532.99	37020.25
533.16	36746.41
533.33	37289.42
533.50	37230.90
533.67	37048.34
533.84	36741.73
534.01	37214.52
534.18	37361.97
534.35	37914.34
534.52	37366.65
534.69	37537.51
534.86	37069.40
535.03	37263.67
535.20	37743.48
535.37	37818.38
535.54	38134.35
535.71	37874.55
535.88	38033.71
536.05	37921.36
536.22	37935.40
536.38	38260.74
536.55	38014.98
536.72	38143.71
536.89	37408.78
537.06	37607.73
537.23	38415.21
537.40	38267.76
537.57	38455.00
537.74	38143.71
537.91	38878.64
538.08	38670.33
538.25	38082.86
538.42	38185.84
538.59	38618.84
538.75	38230.31
538.92	39035.45
539.09	38824.81
539.26	38689.06
539.43	38532.24
539.60	39161.84
539.77	38728.84
539.94	38796.72
540.11	38813.10
540.28	38675.01
540.44	38796.72
540.61	39007.37
540.78	38799.06
540.95	39096.31
541.12	39047.16
541.29	38513.52
541.46	38880.98
541.62	38974.60
541.79	39423.98
541.96	39009.71
542.13	39119.71
542.30	39119.71
542.47	39063.54
542.63	39173.55
542.80	39608.89
542.97	39810.17
543.14	39910.82
543.31	39721.23
543.48	39744.64
543.64	40191.68
543.81	40095.72
543.98	39999.76
544.15	39962.31
544.32	40245.51
544.48	40620.00
544.65	40233.81
544.82	40367.22
544.99	40172.96
545.16	40051.25
545.32	40006.78
545.49	40526.38
545.66	40289.98
545.83	40942.99
546.00	40126.14
546.16	40224.45
546.33	40472.54
546.50	39798.47
546.67	40362.54
546.83	40390.62
547.00	40961.72
547.17	40575.53
547.34	40428.07
547.50	40919.59
547.67	40814.26
547.84	40818.94
548.00	40964.06
548.17	41364.29
548.34	41308.11
548.51	41017.89
548.67	41034.27
548.84	41202.79
549.01	40971.08
549.18	40938.31
549.34	41106.83
549.51	41174.70
549.68	41160.66
549.84	41333.86
550.01	41366.63
550.18	41429.82
550.34	41542.17
550.51	41413.44
550.68	41301.09
550.84	40751.07
551.01	41574.94
551.18	41488.34
551.34	41495.36
551.51	41631.11
551.68	41738.77
551.84	41731.75
552.01	41881.55
552.18	41558.55
552.34	41385.35
552.51	42380.08
552.68	41832.39
552.84	41862.82
553.01	41923.68
553.18	41982.19
553.34	41734.09
553.51	41401.74
553.67	42078.15
553.84	42366.04
554.01	42447.96
554.17	42122.62
554.34	42309.86
554.51	42445.62
554.67	42494.77
554.84	42593.07
555.00	42452.64
555.17	42347.31
555.33	42319.23
555.50	42251.35
555.67	42433.91
555.83	42770.95
556.00	42403.49
556.16	42787.33
556.33	42412.85
556.50	42763.93
556.66	42784.99
556.83	42223.26
556.99	42710.10
557.16	42394.12
557.32	42452.64
557.49	42855.21
557.65	42665.63
557.82	42330.93
557.98	42373.06
558.15	42593.07
558.32	42417.53
558.48	42506.47
558.65	43180.54
558.81	42923.08
558.98	42855.21
559.14	42724.14
559.31	42808.40
559.47	42815.42
559.64	42813.08
559.80	43391.19
559.97	43171.18
560.13	43115.01
560.30	42869.25
560.46	43377.15
560.63	43288.21
560.79	43318.64
560.96	43222.67
561.12	42782.65
561.29	43309.27
561.45	42934.79
561.61	42880.95
561.78	43065.86
561.94	42806.06
562.11	43065.86
562.27	43194.59
562.44	42843.51
562.60	43257.78
562.77	43758.66
562.93	43543.33
563.10	43363.11
563.26	43168.84
563.42	43517.58
563.59	43737.59
563.75	43653.33
563.92	43590.14
564.08	43339.70
564.24	43456.73
564.41	43332.68
564.57	43391.19
564.74	43166.50
564.90	43679.08
565.07	43613.54
565.23	43421.62
565.39	43342.04
565.56	43608.86
565.72	43206.29
565.88	43758.66
566.05	43611.20
566.21	43775.04
566.38	42829.46
566.54	43407.58
566.70	43665.03
566.87	43863.98
567.03	43604.18
567.19	43927.17
567.36	44048.88
567.52	43103.31
567.68	43782.06
567.85	43662.69
568.01	43908.45
568.17	44044.20
568.34	44016.11
568.50	43716.53
568.66	43782.06
568.83	43950.58
568.99	43665.03
569.15	43363.11
569.32	43650.99
569.48	43981.01
569.64	43957.60
569.81	43903.77
569.97	43597.16
570.13	43702.48
570.30	43445.02
570.46	43634.61
570.62	43335.02
570.78	43262.46
570.95	43945.90
571.11	43828.87
571.27	43826.53
571.43	43978.67
571.60	44044.20
571.76	43983.35
571.92	43812.49
572.09	43587.80
572.25	43770.36
572.41	43906.11
572.57	43395.87
572.74	44325.07
572.90	44041.86
573.06	44367.20
573.22	43674.40
573.38	43728.23
573.55	43459.07
573.71	44423.37
573.87	44067.61
574.03	43983.35
574.20	43838.23
574.36	43536.30
574.52	44570.82
574.68	44046.54
574.84	43545.67
575.01	44205.70
575.17	44133.14
575.33	43775.04
575.49	43770.36
575.65	44374.22
575.82	44605.93
575.98	44516.99
576.14	44535.71
576.30	43952.92
576.46	44058.24
576.62	43931.86
576.79	43744.61
576.95	43391.19
577.11	44392.94
577.27	43672.06
577.43	44074.63
577.59	44226.76
577.75	43732.91
577.92	44051.22
578.08	43871.00
578.24	44058.24
578.40	44133.14
578.56	44051.22
578.72	44051.22
578.88	44121.44
579.04	44156.55
579.21	43901.43
579.37	44072.29
579.53	44020.80
579.69	44179.95
579.85	44418.69
580.01	44332.09
580.17	44622.31
580.33	44013.77
580.49	44091.01
580.65	43981.01
580.82	44547.42
580.98	44617.63
581.14	43929.51
581.30	44114.42
581.46	44318.04
581.62	44306.34
581.78	44044.20
581.94	44563.80
582.10	44165.91
582.26	44222.08
582.42	44233.78
582.58	43964.62
582.74	44339.11
582.90	44245.49
583.06	44327.41
583.22	44170.59
583.38	44294.64
583.54	44053.56
583.70	44474.86
583.86	43716.53
584.02	43878.02
584.18	44198.68
584.34	43938.88
584.50	44247.83
584.66	44596.57
584.82	44144.84
584.98	44500.61
585.14	43854.62
585.30	43758.66
585.46	44304.00
585.62	43887.39
585.78	44205.70
585.94	43821.85
586.10	44268.89
586.26	44229.10
586.42	44191.65
586.58	44304.00
586.74	44486.56
586.90	44133.14
587.06	44418.69
587.22	44357.83
587.38	43852.28
587.54	44399.96
587.70	44524.01
587.86	44608.27
588.02	44481.88
588.18	44734.66
588.34	44364.85
588.49	44521.67
588.65	44362.51
588.81	43985.69
588.97	44343.79
589.13	43962.28
589.29	44395.28
589.45	44786.15
589.61	44514.65
589.77	44573.16
589.93	44692.53
590.08	44498.26
590.24	44898.50
590.40	44245.49
