SpectraSuite Data File
++++++++++++++++++++++++++++++++++++
Date: Fri Oct 25 11:34:00 EDT 2013
User: price-jones
Dark Spectrum Present: No
Reference Spectrum Present: No
Number of Sampled Component Spectra: 1
Spectrometers: USB2+H05261
Integration Time (usec): 100000 (USB2+H05261)
Spectra Averaged: 1 (USB2+H05261)
Boxcar Smoothing: 0 (USB2+H05261)
Correct for Electrical Dark: No (USB2+H05261)
Strobe/Lamp Enabled: No (USB2+H05261)
Correct for Detector Non-linearity: No (USB2+H05261)
Correct for Stray Light: No (USB2+H05261)
Number of Pixels in Processed Spectrum: 2048
>>>>>Begin Processed Spectral Data<<<<<
365.73	262.14
365.92	262.14
366.12	262.14
366.32	194.26
366.52	175.54
366.72	156.82
366.91	177.88
367.11	177.88
367.31	208.31
367.51	212.99
367.70	215.33
367.90	161.50
368.10	252.78
368.30	149.79
368.49	203.63
368.69	175.54
368.89	163.84
369.09	229.37
369.28	231.71
369.48	191.92
369.68	215.33
369.87	355.76
370.07	180.22
370.27	252.78
370.47	362.78
370.66	496.19
370.86	578.11
371.06	540.66
371.25	526.62
371.45	543.00
371.65	479.81
371.84	510.24
372.04	561.73
372.24	622.58
372.44	608.54
372.63	603.86
372.83	617.90
373.03	615.56
373.22	615.56
373.42	610.88
373.62	613.22
373.81	641.31
374.01	631.94
374.21	657.69
374.40	587.47
374.60	671.73
374.79	606.20
374.99	669.39
375.19	606.20
375.38	730.25
375.58	662.37
375.78	641.31
375.97	685.78
376.17	737.27
376.37	669.39
376.56	683.44
376.76	617.90
376.95	727.91
377.15	706.84
377.35	587.47
377.54	725.57
377.74	676.41
377.93	669.39
378.13	713.86
378.33	751.31
378.52	643.65
378.72	744.29
378.91	683.44
379.11	683.44
379.31	596.84
379.50	690.46
379.70	727.91
379.89	725.57
380.09	793.44
380.28	730.25
380.48	798.12
380.68	697.48
380.87	688.12
381.07	767.70
381.26	784.08
381.46	730.25
381.65	741.95
381.85	816.85
382.04	781.74
382.24	842.59
382.43	727.91
382.63	847.27
382.83	819.19
383.02	835.57
383.22	723.23
383.41	737.27
383.61	805.14
383.80	748.97
384.00	676.41
384.19	798.12
384.39	814.51
384.58	748.97
384.78	851.96
384.97	760.67
385.17	844.93
385.36	861.32
385.56	791.10
385.75	809.83
385.95	777.06
386.14	882.38
386.34	873.02
386.53	863.66
386.72	919.83
386.92	866.00
387.11	990.05
387.31	856.64
387.50	842.59
387.70	917.49
387.89	868.34
388.09	875.36
388.28	964.30
388.48	868.34
388.67	915.15
388.86	964.30
389.06	950.26
389.25	938.55
389.45	971.32
389.64	976.00
389.84	999.41
390.03	1022.81
390.22	1008.77
390.42	903.45
390.61	997.07
390.81	985.37
391.00	1043.88
391.19	1053.24
391.39	1057.92
391.58	1039.20
391.78	990.05
391.97	1006.43
392.16	1036.86
392.36	1097.71
392.55	1109.41
392.75	1050.90
392.94	1097.71
393.13	1025.15
393.33	1090.69
393.52	1064.94
393.71	1198.35
393.91	1015.79
394.10	1050.90
394.29	1125.80
394.49	1086.01
394.68	1041.54
394.88	1107.07
395.07	1097.71
395.26	1149.20
395.46	1181.97
395.65	1212.40
395.84	1142.18
396.04	1196.01
396.23	1160.91
396.42	1151.54
396.62	1256.87
396.81	1224.10
397.00	1128.14
397.19	1207.72
397.39	1226.44
397.58	1254.53
397.77	1266.23
397.97	1160.91
398.16	1207.72
398.35	1249.85
398.55	1226.44
398.74	1306.02
398.93	1242.82
399.12	1317.72
399.32	1200.69
399.51	1327.08
399.70	1387.94
399.90	1277.93
400.09	1336.45
400.28	1481.56
400.47	1334.11
400.67	1404.32
400.86	1327.08
401.05	1284.95
401.24	1350.49
401.44	1437.09
401.63	1378.58
401.82	1434.75
402.01	1584.54
402.21	1469.86
402.40	1556.46
402.59	1561.14
402.78	1451.13
402.97	1509.65
403.17	1526.03
403.36	1582.20
403.55	1556.46
403.74	1596.25
403.93	1673.48
404.13	1568.16
404.32	1612.63
404.51	1638.38
404.70	1661.78
404.89	1654.76
405.09	1626.67
405.28	1636.03
405.47	1666.46
405.66	1689.87
405.85	1722.63
406.05	1732.00
406.24	1668.80
406.43	1699.23
406.62	1708.59
406.81	1837.32
407.00	1774.13
407.20	1839.66
407.39	1792.85
407.58	1797.53
407.77	1760.08
407.96	1825.62
408.15	1898.17
408.34	1809.23
408.54	1905.20
408.73	1923.92
408.92	1933.28
409.11	2017.54
409.30	1895.83
409.49	1888.81
409.68	1975.41
409.87	2078.40
410.07	2057.33
410.26	1982.43
410.45	2141.59
410.64	2062.01
410.83	1973.07
411.02	2071.37
411.21	2101.80
411.40	2026.90
411.59	2136.91
411.78	2139.25
411.98	2127.55
412.17	2282.02
412.36	2118.18
412.55	2260.96
412.74	2387.35
412.93	2310.11
413.12	2246.91
413.31	2499.69
413.50	2373.30
413.69	2377.98
413.88	2523.10
414.07	2352.24
414.26	2293.72
414.45	2457.56
414.64	2544.16
414.83	2590.97
415.02	2480.97
415.22	2588.63
415.41	2703.32
415.60	2759.49
415.79	2764.17
415.98	2745.45
416.17	2616.72
416.36	2605.02
416.55	2628.42
416.74	2794.60
416.93	2869.50
417.12	2836.73
417.31	3021.63
417.50	2796.94
417.69	2843.75
417.88	2920.99
418.07	2899.92
418.26	2988.86
418.45	2937.37
418.64	3014.61
418.83	3019.29
419.02	3045.04
419.21	3166.74
419.39	3176.11
419.58	3101.21
419.77	3073.12
419.96	3030.99
420.15	3023.97
420.34	3150.36
420.53	3178.45
420.72	3215.90
420.91	3251.00
421.10	3213.56
421.29	3286.11
421.48	3208.87
421.67	3201.85
421.86	3267.39
422.05	3351.65
422.24	3178.45
422.43	3368.03
422.61	3314.20
422.80	3351.65
422.99	3218.24
423.18	3456.97
423.37	3499.10
423.56	3393.78
423.75	3384.41
423.94	3391.44
424.13	3049.72
424.32	3260.37
424.50	3445.27
424.69	3358.67
424.88	3412.50
425.07	3349.31
425.26	3370.37
425.45	3356.33
425.64	3302.50
425.83	3288.45
426.01	3447.61
426.20	3499.10
426.39	3414.84
426.58	3463.99
426.77	3377.39
426.96	3548.25
427.15	3527.19
427.33	3590.38
427.52	3508.46
427.71	3471.01
427.90	3578.68
428.09	3681.66
428.28	3585.70
428.46	3672.30
428.65	3524.85
428.84	3681.66
429.03	3716.77
429.22	3543.57
429.40	3684.00
429.59	3686.34
429.78	3566.98
429.97	3555.27
430.16	3672.30
430.34	3770.60
430.53	3929.76
430.72	3824.44
430.91	3805.71
431.10	3829.12
431.28	3763.58
431.47	3918.06
431.66	4086.58
431.85	3843.16
432.03	4016.36
432.22	4042.11
432.41	4070.19
432.60	4025.72
432.79	4002.32
432.97	4009.34
433.16	3997.64
433.35	4021.04
433.54	4070.19
433.72	4133.39
433.91	4177.86
434.10	4053.81
434.28	4032.74
434.47	4166.15
434.66	4131.05
434.85	4290.20
435.03	4105.30
435.22	4156.79
435.41	4484.47
435.59	4386.16
435.78	4397.87
435.97	4285.52
436.16	4381.48
436.34	4269.14
436.53	4332.33
436.72	4393.19
436.90	4458.72
437.09	4423.61
437.28	4404.89
437.46	4407.23
437.65	4533.62
437.84	4648.30
438.02	4557.02
438.21	4468.08
438.40	4505.53
438.58	4748.95
438.77	4688.09
438.96	4617.88
439.14	4798.10
439.33	4882.36
439.52	4987.68
439.70	4945.55
439.89	5027.47
440.08	4865.97
440.26	5013.43
440.45	4830.87
440.63	5125.77
440.82	5149.18
441.01	4971.30
441.19	5114.07
441.38	5263.86
441.57	5186.63
441.75	5329.40
441.94	5240.46
442.12	5341.10
442.31	5420.68
442.50	5369.19
442.68	5313.02
442.87	5413.66
443.05	5535.37
443.24	5446.43
443.43	5497.92
443.61	5488.56
443.80	5572.82
443.98	5575.16
444.17	5313.02
444.35	5483.88
444.54	5724.95
444.73	5495.58
444.91	5526.00
445.10	5486.22
445.28	5404.30
445.47	5593.88
445.65	5383.23
445.84	5579.84
446.02	5652.39
446.21	5586.86
446.39	5657.07
446.58	5699.20
446.77	5731.97
446.95	5563.45
447.14	5694.52
447.32	5884.11
447.51	5664.10
447.69	5556.43
447.88	5664.10
448.06	5673.46
448.25	5696.86
448.43	5867.72
448.62	5738.99
448.80	5614.95
448.99	5860.70
449.17	5825.59
449.36	5813.89
449.54	5872.40
449.73	6045.60
449.91	6113.48
450.10	6143.91
450.28	6005.81
450.46	6148.59
450.65	5956.66
450.83	6036.24
451.02	6022.20
451.20	6120.50
451.39	6211.78
451.57	6143.91
451.76	6113.48
451.94	6012.84
452.13	6296.04
452.31	6146.25
452.49	6141.57
452.68	6335.83
452.86	6169.65
453.05	6228.17
453.23	6193.06
453.42	6399.02
453.60	6239.87
453.78	6305.40
453.97	6111.14
454.15	6422.43
454.34	6406.05
454.52	6567.54
454.70	6349.87
454.89	6392.00
455.07	6450.52
455.26	6492.65
455.44	6761.81
455.62	6747.76
455.81	6635.42
455.99	6506.69
456.17	6590.95
456.36	6539.46
456.54	6717.34
456.73	6890.54
456.91	7033.31
457.09	6981.82
457.28	6895.22
457.46	6920.96
457.64	7023.95
457.83	7007.56
458.01	7105.87
458.19	7185.44
458.38	6855.43
458.56	7066.08
458.74	7103.53
458.93	7052.03
459.11	7206.51
459.29	7173.74
459.48	7105.87
459.66	7232.26
459.84	7206.51
460.03	7342.26
460.21	7297.79
460.39	7148.00
460.57	7391.41
460.76	7311.83
460.94	7473.33
461.12	7386.73
461.31	7377.37
461.49	7318.86
461.67	7164.38
461.85	7564.61
462.04	7571.63
462.22	7915.69
462.40	7602.06
462.59	7756.54
462.77	7499.08
462.95	7669.94
463.13	7667.60
463.32	7747.17
463.50	7810.37
463.68	7948.46
463.86	7625.47
464.05	7658.23
464.23	7658.23
464.41	7850.16
464.59	7744.83
464.78	8086.55
464.96	8028.04
465.14	7812.71
465.32	7988.25
465.50	7967.18
465.69	8028.04
465.87	7854.84
466.05	7896.97
466.23	8074.85
466.41	8121.66
466.60	8390.82
466.78	8046.76
466.96	8088.89
467.14	8102.93
467.32	8018.68
467.51	8416.57
467.69	8142.72
467.87	8271.45
468.05	8306.56
468.23	8346.35
468.41	8336.99
468.60	8454.02
468.78	8376.78
468.96	8479.76
469.14	8524.23
469.32	8561.68
469.50	8308.90
469.69	8514.87
469.87	8451.67
470.05	8688.07
470.23	8594.45
470.41	8594.45
470.59	8758.28
470.77	8669.34
470.95	8819.14
471.14	9020.42
471.32	8809.78
471.50	8758.28
471.68	8842.54
471.86	8842.54
472.04	8767.65
472.22	9029.79
472.40	9006.38
472.58	9015.74
472.77	9179.58
472.95	9193.62
473.13	9476.83
473.31	9186.60
473.49	9528.32
473.67	9217.03
473.85	9327.03
474.03	9699.18
474.21	9912.17
474.39	9738.97
474.57	9664.07
474.75	9682.80
474.93	10054.94
475.12	9694.50
475.30	9771.74
475.48	9954.30
475.66	10122.82
475.84	9830.25
476.02	10209.42
476.20	10038.56
476.38	10340.49
476.56	10483.26
476.74	10389.64
476.92	10431.77
477.10	10406.02
477.28	10518.37
477.46	10438.79
477.64	10523.05
477.82	10682.20
478.00	11030.94
478.18	10965.41
478.36	11110.52
478.54	11297.77
478.72	10946.69
478.90	11279.04
479.08	11272.02
479.26	11712.04
479.44	11569.27
479.62	11676.93
479.80	11698.00
479.98	11784.60
480.16	12121.63
480.34	11726.08
480.52	12161.42
480.70	12147.38
480.88	12042.06
481.06	12243.34
481.24	12255.04
481.41	12519.53
481.59	12486.76
481.77	12784.01
481.95	12819.11
482.13	13008.70
482.31	12781.67
482.49	13088.28
482.67	13097.64
482.85	13107.00
483.03	13437.02
483.21	13532.98
483.39	13579.79
483.57	13563.40
483.74	13806.82
483.92	13898.10
484.10	13832.57
484.28	14513.66
484.46	14319.40
484.64	14436.42
484.82	14384.93
485.00	14410.68
485.18	14668.14
485.35	15005.17
485.53	14562.81
485.71	14686.86
485.89	15225.18
486.07	15066.03
486.25	15103.48
486.43	15337.53
486.61	15161.99
486.78	15346.89
486.96	15786.91
487.14	15901.60
487.32	16100.55
487.50	16224.59
487.68	16212.89
487.85	16393.11
488.03	16744.19
488.21	16865.90
488.39	16568.65
488.57	16886.97
488.75	17032.08
488.92	17205.28
489.10	17352.73
489.28	17102.29
489.46	17537.63
489.64	17554.02
489.81	17905.10
489.99	17933.18
490.17	17968.29
490.35	18342.78
490.53	18424.70
490.70	18366.18
490.88	18398.95
491.06	18583.85
491.24	18579.17
491.41	18682.16
491.59	18988.77
491.77	18843.65
491.95	19152.60
492.13	19281.33
492.30	19365.59
492.48	19381.98
492.66	19580.92
492.84	19552.84
493.01	19761.14
493.19	19541.13
493.37	19859.45
493.54	20180.10
493.72	20231.59
493.90	20329.89
494.08	20355.64
494.25	20842.47
494.43	20666.93
494.61	20861.19
494.79	20847.15
494.96	20875.24
495.14	21153.76
495.32	21287.17
495.49	21238.02
495.67	21521.23
495.85	21802.09
496.02	21806.77
496.20	21972.95
496.38	21933.16
496.55	22106.36
496.73	22546.38
496.91	22122.74
497.09	22562.76
497.26	22651.70
497.44	22682.13
497.62	22766.39
497.79	23143.22
497.97	23014.49
498.14	23417.06
498.32	23154.92
498.50	23323.44
498.67	23821.97
498.85	23716.65
499.03	23789.20
499.20	23552.81
499.38	23850.06
499.56	23964.75
499.73	24210.50
499.91	24294.76
500.08	24386.04
500.26	24020.92
500.44	24395.40
500.61	24470.30
500.79	24746.48
500.97	24482.00
501.14	25008.62
501.32	25137.35
501.49	25172.46
501.67	25219.27
501.84	25729.51
502.02	25228.63
502.20	25209.91
502.37	25486.09
502.55	25357.36
502.72	25933.14
502.90	25603.12
503.07	25516.52
503.25	25893.35
503.43	25724.83
503.60	26134.42
503.78	25830.15
503.95	26281.88
504.13	26712.53
504.30	26387.20
504.48	26471.46
504.65	26253.79
504.83	26820.20
505.01	26829.56
505.18	26565.08
505.36	26717.22
505.53	26871.69
505.71	26932.54
505.88	27021.48
506.06	26768.71
506.23	27330.44
506.41	26909.14
506.58	27454.48
506.76	27197.02
506.93	27718.96
507.11	27168.94
507.28	27697.90
507.46	27632.36
507.63	28105.15
507.81	27899.19
507.98	27576.19
508.16	28238.56
508.33	28201.11
508.50	28383.68
508.68	28294.74
508.85	28591.98
509.03	28320.48
509.20	28851.78
509.38	29149.03
509.55	28823.70
509.73	28919.66
509.90	28926.68
510.08	28786.25
510.25	29188.82
510.42	29125.63
510.60	29472.03
510.77	29673.31
510.95	29708.42
511.12	29355.00
511.30	29965.88
511.47	29579.69
511.64	29846.51
511.82	29692.04
511.99	29759.91
512.17	29766.93
512.34	30010.35
512.51	30340.36
512.69	30490.16
512.86	30773.36
513.04	30319.30
513.21	30675.06
513.38	30546.33
513.56	30656.34
513.73	30930.18
513.90	30864.64
514.08	30789.75
514.25	30937.20
514.43	31213.38
514.60	30962.95
514.77	31510.63
514.95	31349.14
515.12	31409.99
515.29	31417.01
515.47	31674.47
515.64	31569.15
515.81	31342.11
515.99	31496.59
516.16	32151.94
516.33	31960.02
516.51	32306.41
516.68	31442.76
516.85	31730.64
517.03	32301.73
517.20	32376.63
517.37	31782.13
517.54	32390.67
517.72	32716.01
517.89	32889.21
518.06	32458.55
518.24	32701.96
518.41	32744.09
518.58	32807.29
518.75	32643.45
518.93	32917.29
519.10	32690.26
519.27	33188.80
519.45	33273.06
519.62	33041.34
519.79	33448.60
519.96	33251.99
520.14	33722.44
520.31	33244.97
520.48	33120.92
520.65	33804.36
520.83	33413.49
521.00	33928.41
521.17	34279.49
521.34	33916.70
521.52	34036.07
521.69	34012.66
521.86	34394.17
522.03	33935.43
522.20	34092.24
522.38	34403.53
522.55	34574.39
522.72	34546.31
522.89	34651.63
523.07	34881.00
523.24	34682.06
523.41	34948.88
523.58	34810.79
523.75	34525.24
523.92	34857.60
524.10	35058.88
524.27	35196.98
524.44	35115.06
524.61	35351.45
524.78	35655.72
524.96	35363.15
525.13	35325.71
525.30	35632.32
525.47	35789.13
525.64	35625.29
525.81	35622.95
525.98	35721.26
526.16	35683.81
526.33	35601.89
526.50	36250.22
526.67	35854.67
526.84	35779.77
527.01	36144.89
527.18	36196.38
527.36	36404.69
527.53	36168.30
527.70	36526.40
527.87	36596.62
528.04	36783.86
528.21	36273.62
528.38	36795.56
528.55	36938.33
528.72	36793.22
528.89	36542.78
529.07	36622.36
529.24	36828.33
529.41	36692.58
529.58	36828.33
529.75	37130.26
529.92	37017.91
530.09	37062.38
530.26	37340.91
530.43	37378.36
530.60	36601.30
530.77	37289.42
530.94	37067.06
531.11	37221.54
531.28	37364.31
531.46	37352.61
531.63	37455.59
531.80	37684.97
531.97	38080.52
532.14	38169.46
532.31	37792.63
532.48	37935.40
532.65	37862.85
532.82	37677.94
532.99	38209.25
533.16	37872.21
533.33	38363.72
533.50	38064.13
533.67	38160.09
533.84	38323.93
534.01	38515.86
534.18	38293.50
534.35	38696.08
534.52	38653.95
534.69	38653.95
534.86	38419.89
535.03	38698.42
535.20	38773.31
535.37	38946.51
535.54	39129.08
535.71	38843.53
535.88	39147.80
536.05	39124.40
536.22	39512.92
536.38	39058.86
536.55	39136.10
536.72	39154.82
536.89	39218.02
537.06	39215.68
537.23	39365.47
537.40	39358.45
537.57	39042.48
537.74	39452.07
537.91	39332.70
538.08	39309.30
538.25	39321.00
538.42	39253.12
538.59	40027.84
538.75	39498.88
538.92	39309.30
539.09	39934.22
539.26	40161.25
539.43	39749.32
539.60	39915.50
539.77	40224.45
539.94	40432.75
540.11	40102.74
540.28	40353.18
540.44	40243.17
540.61	40315.73
540.78	39873.37
540.95	40142.53
541.12	40135.51
541.29	39976.35
541.46	40091.04
541.62	40535.74
541.79	40725.32
541.96	40367.22
542.13	40364.88
542.30	40608.29
542.47	40692.55
542.63	40568.51
542.80	41067.04
542.97	41462.59
543.14	41394.71
543.31	41151.30
543.48	40877.46
543.64	41757.50
543.81	41729.41
543.98	41507.06
544.15	41263.64
544.32	41495.36
544.48	41832.39
544.65	41677.92
544.82	41827.71
544.99	41385.35
545.16	42054.75
545.32	41841.76
545.49	42103.90
545.66	41933.04
545.83	41631.11
546.00	42312.20
546.16	42171.77
546.33	42040.70
546.50	41385.35
546.67	41963.46
546.83	41504.72
547.00	41944.74
547.17	42054.75
547.34	42321.57
547.50	41872.18
547.67	42997.98
547.84	42249.01
548.00	42359.02
548.17	42476.04
548.34	42518.17
548.51	42602.43
548.67	42972.24
548.84	42658.60
549.01	42628.18
549.18	42522.85
549.34	42777.97
549.51	43166.50
549.68	43180.54
549.84	42738.18
550.01	43070.54
550.18	42670.31
550.34	42979.26
550.51	43107.99
550.68	43152.46
550.84	42567.32
551.01	43152.46
551.18	43138.41
551.34	43440.34
551.51	43215.65
551.68	43487.15
551.84	43430.98
552.01	42658.60
552.18	43210.97
552.34	43281.19
552.51	43578.43
552.68	43154.80
552.84	43559.71
553.01	43257.78
553.18	43428.64
553.34	44086.33
553.51	43878.02
553.67	43718.87
553.84	43878.02
554.01	44027.82
554.17	43669.72
554.34	43969.30
554.51	43529.28
554.67	44353.15
554.84	43793.76
555.00	43995.05
555.17	43718.87
555.33	44570.82
555.50	43653.33
555.67	43873.34
555.83	43611.20
556.00	44247.83
556.16	44128.46
556.33	44116.76
556.50	44245.49
556.66	44184.63
556.83	44088.67
556.99	44428.05
557.16	44385.92
557.32	44306.34
557.49	44570.82
557.65	44835.30
557.82	44491.24
557.98	44694.87
558.15	44531.03
558.32	45050.63
558.48	44341.45
558.65	44589.55
558.81	44924.24
558.98	44774.45
559.14	44545.08
559.31	44722.96
559.47	44837.64
559.64	44676.15
559.80	44573.16
559.97	45127.87
560.13	44727.64
560.30	44739.34
560.46	44690.19
560.63	44877.43
560.79	45130.21
560.96	45062.33
561.12	45343.20
561.29	45233.19
561.45	45092.76
561.61	45265.96
561.78	44861.05
561.94	44800.19
562.11	44971.05
562.27	45460.23
562.44	45106.80
562.60	45123.19
562.77	45556.19
562.93	45373.63
563.10	45652.15
563.26	44854.03
563.42	45427.46
563.59	44854.03
563.75	45284.68
563.92	45296.39
564.08	45427.46
564.24	45698.96
564.41	45031.91
564.57	45755.13
564.74	45469.59
564.90	45703.64
565.07	44980.42
565.23	45275.32
565.39	45738.75
565.56	45614.70
565.72	45050.63
565.88	45591.30
566.05	45483.63
566.21	45525.76
566.38	45347.88
566.54	45612.36
566.70	46092.17
566.87	45771.52
567.03	45736.41
567.19	45364.26
567.36	45649.81
567.52	45684.92
567.68	46192.81
567.85	45818.33
568.01	46138.98
568.17	45532.78
568.34	46096.85
568.50	46131.96
568.66	45420.44
568.83	46277.07
568.99	45855.78
569.15	45504.70
569.32	45940.04
569.48	46244.30
569.64	46258.35
569.81	46185.79
569.97	45764.49
570.13	46244.30
570.30	45766.84
570.46	45766.84
570.62	45930.67
570.78	46045.36
570.95	45872.16
571.11	46227.92
571.27	45975.14
571.43	45799.60
571.60	46174.09
571.76	45963.44
571.92	46248.99
572.09	45853.44
572.25	46202.18
572.41	45858.12
572.57	46490.06
572.74	46534.53
572.90	46150.68
573.06	46546.23
573.22	46391.76
573.38	46017.27
573.55	46375.37
573.71	46696.03
573.87	46740.50
574.03	46422.19
574.20	47117.32
574.36	46422.19
574.52	46258.35
574.68	46096.85
574.84	46550.91
575.01	46380.06
575.17	46532.19
575.33	46232.60
575.49	46602.41
575.65	45989.19
575.82	46403.46
575.98	46204.52
576.14	46878.59
576.30	46461.97
576.46	46485.38
576.62	46529.85
576.79	46363.67
576.95	45705.98
577.11	46536.87
577.27	46232.60
577.43	46426.87
577.59	46286.43
577.75	46511.13
577.92	46555.60
578.08	46543.89
578.24	46291.12
578.40	46927.74
578.56	46527.51
578.72	46749.86
578.88	46487.72
579.04	46445.59
579.21	46637.51
579.37	46588.36
579.53	46801.35
579.69	46653.90
579.85	46213.88
580.01	46506.44
580.17	46312.18
580.33	46124.94
580.49	46595.38
580.65	46777.95
580.82	46581.34
580.98	46726.46
581.14	46298.14
581.30	46478.36
581.46	46260.69
581.62	46653.90
581.78	46389.42
581.94	46501.76
582.10	46492.40
582.26	46878.59
582.42	46677.30
582.58	46576.66
582.74	46700.71
582.90	46279.41
583.06	46691.35
583.22	46494.74
583.38	46536.87
583.54	46827.10
583.70	46387.08
583.86	46761.56
584.02	46972.21
584.18	47079.88
584.34	46876.25
584.50	46628.15
584.66	47220.31
584.82	46759.22
584.98	46569.64
585.14	46609.43
585.30	46511.13
585.46	46724.11
585.62	46600.07
585.78	46829.44
585.94	46169.41
586.10	46621.13
586.26	46494.74
586.42	46574.32
586.58	47054.13
586.74	46593.04
586.90	46476.02
587.06	46553.26
587.22	46841.14
587.38	46450.27
587.54	47131.37
587.70	46787.31
587.86	46658.58
588.02	47030.72
588.18	46560.28
588.34	46944.12
588.49	46766.24
588.65	46593.04
588.81	46960.51
588.97	47107.96
589.13	46791.99
589.29	46925.40
589.45	46871.57
589.61	47136.05
589.77	47026.04
589.93	47096.26
