SpectraSuite Data File
++++++++++++++++++++++++++++++++++++
Date: Fri Oct 25 11:25:44 EDT 2013
User: price-jones
Dark Spectrum Present: No
Reference Spectrum Present: No
Number of Sampled Component Spectra: 1
Spectrometers: USB2+H05261
Integration Time (usec): 100000 (USB2+H05261)
Spectra Averaged: 1 (USB2+H05261)
Boxcar Smoothing: 0 (USB2+H05261)
Correct for Electrical Dark: No (USB2+H05261)
Strobe/Lamp Enabled: No (USB2+H05261)
Correct for Detector Non-linearity: No (USB2+H05261)
Correct for Stray Light: No (USB2+H05261)
Number of Pixels in Processed Spectrum: 2048
>>>>>Begin Processed Spectral Data<<<<<
365.73	212.99
365.92	212.99
366.12	212.99
366.32	124.05
366.52	175.54
366.72	142.77
366.91	159.16
367.11	194.26
367.31	91.28
367.51	175.54
367.70	88.94
367.90	166.18
368.10	149.79
368.30	93.62
368.49	147.45
368.69	138.09
368.89	175.54
369.09	117.03
369.28	222.35
369.48	152.13
369.68	187.24
369.87	161.50
370.07	189.58
370.27	266.82
370.47	299.59
370.66	587.47
370.86	615.56
371.06	755.99
371.25	709.18
371.45	624.92
371.65	723.23
371.84	664.71
372.04	624.92
372.24	746.63
372.44	720.88
372.63	774.72
372.83	713.86
373.03	760.67
373.22	774.72
373.42	739.61
373.62	861.32
373.81	781.74
374.01	791.10
374.21	795.78
374.40	770.04
374.60	894.08
374.79	891.74
374.99	840.25
375.19	807.48
375.38	835.57
375.58	866.00
375.78	835.57
375.97	894.08
376.17	870.68
376.37	826.21
376.56	844.93
376.76	849.61
376.95	866.00
377.15	954.94
377.35	940.90
377.54	959.62
377.74	924.51
377.93	968.98
378.13	887.06
378.33	1008.77
378.52	1004.09
378.72	976.00
378.91	926.85
379.11	954.94
379.31	999.41
379.50	957.28
379.70	952.60
379.89	1027.50
380.09	954.94
380.28	976.00
380.48	945.58
380.68	1034.52
380.87	1050.90
381.07	985.37
381.26	1095.37
381.46	966.64
381.65	992.39
381.85	1022.81
382.04	1029.84
382.24	1029.84
382.43	1022.81
382.63	1069.62
382.83	1027.50
383.02	1081.33
383.22	1151.54
383.41	1116.44
383.61	1097.71
383.80	1156.22
384.00	1144.52
384.19	1034.52
384.39	1121.12
384.58	1104.73
384.78	1221.76
384.97	1165.59
385.17	1116.44
385.36	1188.99
385.56	1174.95
385.75	1238.14
385.95	1217.08
386.14	1231.12
386.34	1233.46
386.53	1256.87
386.72	1177.29
386.92	1242.82
387.11	1214.74
387.31	1266.23
387.50	1308.36
387.70	1212.40
387.89	1245.16
388.09	1327.08
388.28	1231.12
388.48	1306.02
388.67	1317.72
388.86	1348.15
389.06	1366.87
389.25	1371.55
389.45	1362.19
389.64	1212.40
389.84	1306.02
390.03	1324.74
390.22	1327.08
390.42	1380.92
390.61	1380.92
390.81	1345.81
391.00	1392.62
391.19	1458.15
391.39	1416.02
391.58	1448.79
391.78	1427.73
391.97	1479.22
392.16	1432.41
392.36	1556.46
392.55	1540.07
392.75	1495.60
392.94	1497.94
393.13	1612.63
393.33	1528.37
393.52	1600.93
393.71	1603.27
393.91	1474.54
394.10	1596.25
394.29	1593.90
394.49	1617.31
394.68	1570.50
394.88	1706.25
395.07	1710.93
395.26	1687.53
395.46	1659.44
395.65	1720.29
395.84	1771.79
396.04	1853.70
396.23	1732.00
396.42	1682.85
396.62	1844.34
396.81	1849.02
397.00	1732.00
397.19	1921.58
397.39	1839.66
397.58	1863.07
397.77	1708.59
397.97	1816.26
398.16	1797.53
398.35	1942.64
398.55	1830.30
398.74	1830.30
398.93	1891.15
399.12	1919.24
399.32	1935.62
399.51	1919.24
399.70	1923.92
399.90	1914.56
400.09	1966.05
400.28	2045.63
400.47	1991.80
400.67	2045.63
400.86	2099.46
401.05	2073.71
401.24	2052.65
401.44	2059.67
401.63	2104.14
401.82	2097.12
402.01	2097.12
402.21	2153.29
402.40	2249.25
402.59	2087.76
402.78	2275.00
402.97	2200.10
403.17	2340.54
403.36	2282.02
403.55	2307.77
403.74	2392.03
403.93	2380.32
404.13	2326.49
404.32	2370.96
404.51	2321.81
404.70	2506.71
404.89	2385.01
405.09	2469.27
405.28	2548.84
405.47	2539.48
405.66	2502.03
405.85	2513.74
406.05	2593.31
406.24	2502.03
406.43	2523.10
406.62	2693.96
406.81	2647.15
407.00	2649.49
407.20	2525.44
407.39	2597.99
407.58	2574.59
407.77	2724.38
407.96	2668.21
408.15	2703.32
408.34	2766.51
408.54	2808.64
408.73	2738.43
408.92	2733.75
409.11	2778.22
409.30	3061.42
409.49	2967.80
409.68	3115.25
409.87	2949.08
410.07	3040.36
410.26	3049.72
410.45	2967.80
410.64	2965.46
410.83	3056.74
411.02	3028.65
411.21	3248.66
411.40	3192.49
411.59	3145.68
411.78	3365.69
411.98	3180.79
412.17	3321.22
412.36	3236.96
412.55	3293.13
412.74	3274.41
412.93	3314.20
413.12	3386.76
413.31	3632.51
413.50	3545.91
413.69	3492.08
413.88	3562.30
414.07	3639.53
414.26	3616.13
414.45	3751.88
414.64	3698.05
414.83	3674.64
415.02	3768.26
415.22	3808.05
415.41	3770.60
415.60	3829.12
415.79	3974.23
415.98	3915.72
416.17	3953.16
416.36	4021.04
416.55	3915.72
416.74	4084.23
416.93	4142.75
417.12	4098.28
417.31	4063.17
417.50	4212.96
417.69	4348.72
417.88	4236.37
418.07	4210.62
418.26	4320.63
418.45	4395.53
418.64	4449.36
418.83	4358.08
419.02	4346.37
419.21	4496.17
419.39	4489.15
419.58	4493.83
419.77	4493.83
419.96	4571.07
420.15	4547.66
420.34	4498.51
420.53	4505.53
420.72	4674.05
420.91	4702.14
421.10	4685.75
421.29	4688.09
421.48	4667.03
421.67	4692.77
421.86	4823.84
422.05	4847.25
422.24	4603.83
422.43	4746.61
422.61	4786.40
422.80	4938.53
422.99	4924.49
423.18	4966.62
423.37	5055.56
423.56	5078.96
423.75	4943.21
423.94	4753.63
424.13	4617.88
424.32	4713.84
424.50	4985.34
424.69	5151.52
424.88	5069.60
425.07	4985.34
425.26	4868.31
425.45	4809.80
425.64	5013.43
425.83	4823.84
426.01	4901.08
426.20	5043.85
426.39	5076.62
426.58	5050.88
426.77	4959.60
426.96	5214.71
427.15	5137.48
427.33	5259.18
427.52	5137.48
427.71	5364.51
427.90	5139.82
428.09	5249.82
428.28	5476.85
428.46	5254.50
428.65	5298.97
428.84	5392.59
429.03	5593.88
429.22	5392.59
429.40	5500.26
429.59	5685.16
429.78	5425.36
429.97	5298.97
430.16	5507.28
430.34	5533.03
430.53	5699.20
430.72	5713.25
430.91	5710.91
431.10	5781.12
431.28	5767.08
431.47	5666.44
431.66	5764.74
431.85	5640.69
432.03	6054.97
432.22	6038.58
432.41	5886.45
432.60	6047.94
432.79	5802.19
432.97	5860.70
433.16	6087.73
433.35	5839.64
433.54	6061.99
433.72	6118.16
433.91	6059.65
434.10	6125.18
434.28	6101.78
434.47	6155.61
434.66	6183.70
434.85	6214.12
435.03	6392.00
435.22	6253.91
435.41	6457.54
435.59	6403.71
435.78	6487.96
435.97	6560.52
436.16	6342.85
436.34	6509.03
436.53	6438.81
436.72	6712.66
436.90	6612.01
437.09	6604.99
437.28	6509.03
437.46	6541.80
437.65	6560.52
437.84	6782.87
438.02	6801.60
438.21	6764.15
438.40	6754.79
438.58	7087.14
438.77	7002.88
438.96	6963.09
439.14	7108.21
439.33	7143.32
439.52	7159.70
439.70	7211.19
439.89	7290.77
440.08	7492.05
440.26	7485.03
440.45	7499.08
440.63	7342.26
440.82	7751.85
441.01	7592.70
441.19	7655.89
441.38	7742.49
441.57	7740.15
441.75	7866.54
441.94	7962.50
442.12	8098.25
442.31	8009.31
442.50	8021.02
442.68	7889.95
442.87	7857.18
443.05	8035.06
443.24	7920.37
443.43	8142.72
443.61	8222.30
443.80	8224.64
443.98	7974.21
444.17	7936.76
444.35	8257.41
444.54	8217.62
444.73	8283.16
444.91	8301.88
445.10	8393.16
445.28	8402.52
445.47	8248.05
445.65	8266.77
445.84	8306.56
446.02	8362.73
446.21	8446.99
446.39	8346.35
446.58	8475.08
446.77	8573.38
446.95	8355.71
447.14	8444.65
447.32	8606.15
447.51	8479.76
447.69	8187.19
447.88	8477.42
448.06	8451.67
448.25	8498.49
448.43	8322.94
448.62	8465.72
448.80	8620.19
448.99	8688.07
449.17	8657.64
449.36	8681.05
449.54	8917.44
449.73	8837.86
449.91	8922.12
450.10	8910.42
450.28	8940.85
450.46	9004.04
450.65	9036.81
450.83	9202.99
451.02	9069.58
451.20	9387.89
451.39	9076.60
451.57	9064.89
451.76	9137.45
451.94	8947.87
452.13	9254.48
452.31	9327.03
452.49	9188.94
452.68	9420.66
452.86	9317.67
453.05	9462.79
453.23	9523.64
453.42	9514.28
453.60	9364.48
453.78	9359.80
453.97	9418.32
454.15	9619.60
454.34	9455.76
454.52	9528.32
454.70	9781.10
454.89	9643.01
455.07	9542.36
455.26	9643.01
455.44	9912.17
455.62	9865.36
455.81	9900.47
455.99	10052.60
456.17	10141.54
456.36	9935.57
456.54	10246.87
456.73	10178.99
456.91	10420.06
457.09	10347.51
457.28	10562.84
457.46	10387.30
457.64	10434.11
457.83	10527.73
458.01	10501.98
458.19	10651.78
458.38	10583.90
458.56	10626.03
458.74	10586.24
458.93	10633.05
459.11	10611.99
459.29	10897.53
459.48	10925.62
459.66	10654.12
459.84	10881.15
460.03	11002.86
460.21	10911.58
460.39	10930.30
460.57	11002.86
460.76	11110.52
460.94	11066.05
461.12	11367.98
461.31	10963.07
461.49	10895.19
461.67	11049.67
461.85	11506.07
462.04	11208.83
462.22	11606.72
462.40	11672.25
462.59	11609.06
462.77	11613.74
462.95	11808.00
463.13	11445.22
463.32	11524.80
463.50	11489.69
463.68	11932.05
463.86	11810.34
464.05	11836.09
464.23	11665.23
464.41	11939.07
464.59	11641.82
464.78	12035.03
464.96	11960.14
465.14	11845.45
465.32	11953.12
465.50	11955.46
465.69	12255.04
465.87	12035.03
466.05	12063.12
466.23	12177.81
466.41	11899.28
466.60	12299.52
466.78	12131.00
466.96	12107.59
467.14	12119.29
467.32	12446.97
467.51	12554.63
467.69	12006.95
467.87	12533.57
468.05	12610.81
468.23	12622.51
468.41	12512.50
468.60	12395.48
468.78	12854.22
468.96	12535.91
469.14	12938.48
469.32	12964.23
469.50	12688.04
469.69	12872.95
469.87	13067.21
470.05	13160.83
470.23	13376.16
470.41	13085.94
470.59	13422.97
470.77	13071.89
470.95	13359.78
471.14	13474.46
471.32	13053.17
471.50	13514.25
471.68	13462.76
471.86	13713.20
472.04	13624.26
472.22	14017.47
472.40	13720.22
472.58	13713.20
472.77	13848.95
472.95	14235.14
473.13	14398.98
473.31	13858.31
473.49	13951.93
473.67	14146.20
473.85	14356.85
474.03	14420.04
474.21	14682.18
474.39	14590.90
474.57	14492.60
474.75	14813.25
474.93	15061.35
475.12	14768.78
475.30	15089.43
475.48	14977.09
475.66	15288.38
475.84	15066.03
476.02	15414.77
476.20	15363.28
476.38	15679.25
476.56	15927.35
476.74	16425.88
476.92	16137.99
477.10	15733.08
477.28	16126.29
477.46	16051.39
477.64	16315.87
477.82	16549.93
478.00	16922.07
478.18	16547.59
478.36	16592.06
478.54	17116.34
478.72	17041.44
478.90	17261.45
479.08	17483.80
479.26	17738.92
479.44	17493.16
479.62	17900.42
479.80	17944.89
479.98	17998.72
480.16	18473.85
480.34	17996.38
480.52	18485.55
480.70	18754.71
480.88	18420.02
481.06	18499.59
481.24	19110.47
481.41	18841.31
481.59	19339.85
481.77	19587.94
481.95	19531.77
482.13	19531.77
482.31	19730.72
482.49	20489.05
482.67	20170.74
482.85	20367.34
483.03	20262.02
483.21	20908.01
483.39	20992.26
483.57	20772.25
483.74	21603.14
483.92	21188.87
484.10	21226.32
484.28	21404.20
484.46	21792.73
484.64	22391.91
484.82	21881.67
485.00	22225.73
485.18	22735.96
485.35	23073.00
485.53	22799.16
485.71	22939.59
485.89	23374.93
486.07	23541.11
486.25	23213.43
486.43	23410.04
486.61	23896.87
486.78	23882.83
486.96	24130.92
487.14	24650.52
487.32	24219.86
487.50	24746.48
487.68	24947.77
487.85	25280.13
488.03	25855.90
488.21	25710.78
488.39	25509.50
488.57	25876.96
488.75	26176.55
488.92	26581.46
489.10	26731.26
489.28	26749.98
489.46	26995.74
489.64	26916.16
489.81	27402.99
489.99	27728.33
490.17	27938.97
490.35	27896.85
490.53	28449.21
490.70	27988.13
490.88	27917.91
491.06	29165.42
491.24	28840.08
491.41	29146.69
491.59	28900.94
491.77	29240.31
491.95	29855.87
492.13	29495.43
492.30	30265.47
492.48	30134.40
492.66	30604.84
492.84	30148.44
493.01	30675.06
493.19	30759.32
493.37	31192.32
493.54	31133.81
493.72	31459.14
493.90	31679.15
494.08	31751.71
494.25	31960.02
494.43	31910.86
494.61	31906.18
494.79	32439.82
494.96	32341.52
495.14	32893.89
495.32	32943.04
495.49	33357.32
495.67	33254.33
495.85	33249.65
496.02	33532.86
496.20	34160.12
496.38	34045.43
496.55	33921.38
496.73	34991.01
496.91	34590.78
497.09	34356.72
497.26	34756.96
497.44	35185.27
497.62	34815.47
497.79	35583.16
497.97	35335.07
498.14	35573.80
498.32	36137.87
498.50	36058.29
498.67	36357.88
498.85	36425.76
499.03	36664.49
499.20	36411.71
499.38	36582.57
499.56	36973.44
499.73	36737.05
499.91	37001.53
500.08	37455.59
500.26	37516.45
500.44	37617.09
500.61	37647.52
500.79	37195.79
500.97	38146.05
501.14	38698.42
501.32	38508.83
501.49	38295.85
501.67	38499.47
501.84	38806.08
502.02	38672.67
502.20	39019.07
502.37	38960.56
502.55	39269.51
502.72	39508.24
502.90	39501.22
503.07	39166.52
503.25	39880.39
503.43	39564.42
503.60	39873.37
503.78	40271.26
503.95	40144.87
504.13	40285.30
504.30	40500.63
504.48	39842.94
504.65	40477.22
504.83	41151.30
505.01	41163.00
505.18	41106.83
505.36	41797.29
505.53	40905.54
505.71	41357.27
505.88	41839.42
506.06	41097.47
506.23	41801.97
506.41	41593.66
506.58	41736.43
506.76	42422.21
506.93	42518.17
507.11	41921.34
507.28	42403.49
507.46	42424.55
507.63	42611.79
507.81	42965.21
507.98	43086.92
508.16	43590.14
508.33	43578.43
508.50	43566.73
508.68	43730.57
508.85	43658.01
509.03	43765.68
509.20	44060.58
509.38	44622.31
509.55	44128.46
509.73	44587.21
509.90	44509.97
510.08	44327.41
510.25	44657.42
510.42	44559.12
510.60	45020.20
510.77	45057.65
510.95	45528.10
511.12	44987.44
511.30	44898.50
511.47	45422.78
511.64	45357.24
511.82	45745.77
511.99	45556.19
512.17	45701.30
512.34	45626.40
512.51	46036.00
512.69	46000.89
512.86	45860.46
513.04	46443.25
513.21	46480.70
513.38	46637.51
513.56	46499.42
513.73	46506.44
513.90	47037.75
514.08	46920.72
514.25	47564.37
514.43	47103.28
514.60	47313.93
514.77	47585.43
514.95	47709.48
515.12	47288.18
515.29	47445.00
515.47	47770.33
515.64	48519.31
515.81	48261.85
515.99	48184.61
516.16	48341.42
516.33	48444.41
516.51	48573.14
516.68	48051.20
516.85	48507.60
517.03	48804.85
517.20	48318.02
517.37	48800.17
517.54	48994.43
517.72	48722.93
517.89	48861.02
518.06	49223.81
518.24	49177.00
518.41	49055.29
518.58	49382.96
518.75	49069.33
518.93	49579.57
519.10	49380.62
519.27	49610.00
519.45	49457.86
519.62	49677.87
519.79	50157.68
519.96	49935.33
520.14	50028.95
520.31	49944.69
520.48	50370.67
520.65	50234.92
520.83	50373.01
521.00	50548.55
521.17	50490.04
521.34	50171.72
521.52	50471.31
521.69	50700.68
521.86	50916.01
522.03	50820.05
522.20	51529.23
522.38	51255.39
522.55	51447.32
522.72	51103.26
522.89	51370.08
523.07	51711.80
523.24	51192.20
523.41	51641.58
523.58	51290.50
523.75	51672.01
523.92	51697.75
524.10	51824.14
524.27	51751.59
524.44	51702.43
524.61	51807.76
524.78	52086.28
524.96	52229.05
525.13	52416.30
525.30	52093.30
525.47	52793.12
525.64	52505.24
525.81	52961.64
525.98	52743.97
526.16	52610.56
526.33	52493.54
526.50	52973.34
526.67	52715.89
526.84	52982.71
527.01	52561.41
527.18	53228.46
527.36	52734.61
527.53	53020.16
527.70	53343.15
527.87	53200.38
528.04	52926.53
528.21	53345.49
528.38	53411.02
528.55	53654.44
528.72	53364.21
528.89	53448.47
529.07	53294.00
529.24	53153.57
529.41	53621.67
529.58	53616.99
529.75	53806.58
529.92	53848.71
530.09	53408.68
530.26	54152.97
530.43	53804.24
530.60	53673.16
530.77	53663.80
530.94	54014.88
531.11	53991.48
531.28	53876.79
531.46	54019.56
531.63	54344.90
531.80	54293.41
531.97	54426.82
532.14	54382.35
532.31	54361.28
532.48	54494.69
532.65	54597.68
532.82	54288.73
532.99	54639.81
533.16	54642.15
533.33	54955.78
533.50	55199.19
533.67	54770.88
533.84	54520.44
534.01	54822.37
534.18	54614.06
534.35	55128.98
534.52	55105.57
534.69	55217.92
534.86	55398.14
535.03	55028.34
535.20	55075.15
535.37	55243.66
535.54	55449.63
535.71	55356.01
535.88	55157.06
536.05	55128.98
536.22	55487.08
536.38	55604.11
536.55	55388.78
536.72	55423.89
536.89	55241.32
537.06	55671.98
537.23	55686.03
537.40	55690.71
537.57	55505.80
537.74	55569.00
537.91	55945.83
538.08	55765.60
538.25	55351.33
538.42	55700.07
538.59	56030.08
538.75	55868.59
538.92	55856.88
539.09	55908.38
539.26	56119.02
539.43	56093.28
539.60	56104.98
539.77	56299.25
539.94	56320.31
540.11	56353.08
540.28	56514.58
540.44	56491.17
540.61	56301.59
540.78	56123.71
540.95	56528.62
541.12	56378.82
541.29	56236.05
541.46	56430.32
541.62	56488.83
541.79	56622.24
541.96	56406.91
542.13	56727.56
542.30	56772.03
542.47	56769.69
542.63	56952.26
542.80	56657.35
542.97	57097.37
543.14	57125.46
543.31	57268.23
543.48	57045.88
543.64	57471.85
543.81	57422.70
543.98	57340.78
544.15	57167.58
544.32	57268.23
544.48	57429.72
544.65	57373.55
544.82	57209.71
544.99	57167.58
545.16	57401.64
545.32	57401.64
545.49	57621.65
545.66	57588.88
545.83	57464.83
546.00	57736.34
546.16	57558.45
546.33	57495.26
546.50	57436.75
546.67	57542.07
546.83	57443.77
547.00	57860.38
547.17	57696.55
547.34	57577.18
547.50	57797.19
547.67	58017.20
547.84	57907.19
548.00	57982.09
548.17	58239.55
548.34	58117.84
548.51	58089.76
548.67	58192.74
548.84	58159.97
549.01	57815.91
549.18	58209.12
549.34	58244.23
549.51	58251.25
549.68	58401.05
549.84	58405.73
550.01	58305.09
550.18	58190.40
550.34	58415.09
550.51	58248.91
550.68	58354.24
550.84	58234.87
551.01	58550.84
551.18	58342.53
551.34	58305.09
551.51	58820.00
551.68	58410.41
551.84	58637.44
552.01	58347.21
552.18	58412.75
552.34	58405.73
552.51	58555.52
552.68	58394.03
552.84	58639.78
553.01	58894.90
553.18	58471.26
553.34	58679.57
553.51	58798.94
553.67	58768.51
553.84	58838.73
554.01	58887.88
554.17	59000.22
554.34	58918.31
554.51	59098.53
554.67	59028.31
554.84	58892.56
555.00	58944.05
555.17	59135.98
555.33	59182.79
555.50	58899.58
555.67	58983.84
555.83	58908.94
556.00	58944.05
556.16	59309.18
556.33	59072.78
556.50	59220.23
556.66	59468.33
556.83	59082.14
556.99	59428.54
557.16	59470.67
557.32	59601.74
557.49	59634.51
557.65	59227.26
557.82	59421.52
557.98	59316.20
558.15	59578.34
558.32	59402.80
558.48	59442.59
558.65	59393.43
558.81	59473.01
558.98	59337.26
559.14	59585.36
559.31	59728.13
559.47	59580.68
559.64	59760.90
559.80	59798.35
559.97	59678.98
560.13	59587.70
560.30	59700.04
560.46	59873.24
560.63	59774.94
560.79	59686.00
560.96	59936.44
561.12	59583.02
561.29	59650.89
561.45	59739.83
561.61	59714.09
561.78	59821.75
561.94	59487.06
562.11	59821.75
562.27	59938.78
562.44	59831.11
562.60	59985.59
562.77	59994.95
562.93	59737.49
563.10	60170.49
563.26	59831.11
563.42	60198.58
563.59	60111.98
563.75	59980.91
563.92	59875.58
564.08	60093.25
564.24	59983.25
564.41	60058.15
564.57	60264.11
564.74	60214.96
564.90	60041.76
565.07	60203.26
565.23	59950.48
565.39	60009.00
565.56	60032.40
565.72	59927.08
565.88	60406.89
566.05	60030.06
566.21	60210.28
566.38	60182.19
566.54	60088.57
566.70	60240.71
566.87	60514.55
567.03	60041.76
567.19	60189.22
567.36	60186.88
567.52	60219.64
567.68	60556.68
567.85	60369.44
568.01	60280.50
568.17	60210.28
568.34	60537.96
568.50	60247.73
568.66	60439.65
568.83	60275.82
568.99	60182.19
569.15	60292.20
569.32	60191.56
569.48	60292.20
569.64	60523.91
569.81	60458.38
569.97	60327.31
570.13	60535.62
570.30	60243.05
570.46	60523.91
570.62	60523.91
570.78	60484.12
570.95	60409.23
571.11	60537.96
571.27	60343.69
571.43	60680.73
571.60	60556.68
571.76	60666.69
571.92	60570.72
572.09	60596.47
572.25	60594.13
572.41	60460.72
572.57	60509.87
572.74	60699.45
572.90	60437.31
573.06	60706.47
573.22	60528.59
573.38	60654.98
573.55	60477.10
573.71	60884.36
573.87	60596.47
574.03	60479.44
574.20	60867.97
574.36	60397.52
574.52	60676.05
574.68	60636.26
574.84	60678.39
575.01	60851.59
575.17	60673.71
575.33	60554.34
575.49	60701.79
575.65	60701.79
575.82	60757.97
575.98	60685.41
576.14	60961.59
576.30	60804.78
576.46	60659.66
576.62	60767.33
576.79	60638.60
576.95	60666.69
577.11	60837.54
577.27	60828.18
577.43	60776.69
577.59	60666.69
577.75	60673.71
577.92	60559.02
578.08	60657.32
578.24	60786.05
578.40	60999.04
578.56	61020.11
578.72	61062.24
578.88	60832.86
579.04	61155.86
579.21	60732.22
579.37	60989.68
579.53	60903.08
579.69	60498.17
579.85	60694.77
580.01	60711.16
580.17	60460.72
580.33	60865.63
580.49	61183.94
580.65	60830.52
580.82	60753.29
580.98	60739.24
581.14	60842.23
581.30	60807.12
581.46	60931.17
581.62	60856.27
581.78	60633.92
581.94	61048.19
582.10	60767.33
582.26	60926.49
582.42	60900.74
582.58	60788.39
582.74	60884.36
582.90	60699.45
583.06	60891.38
583.22	60821.16
583.38	60886.70
583.54	61006.06
583.70	60928.83
583.86	60959.25
584.02	60818.82
584.18	61045.85
584.34	60842.23
584.50	61066.92
584.66	60786.05
584.82	60863.29
584.98	61102.03
585.14	61113.73
585.30	60942.87
585.46	60989.68
585.62	60959.25
585.78	61003.72
585.94	60996.70
586.10	60919.46
586.26	61055.21
586.42	60966.27
586.58	60940.53
586.74	61006.06
586.90	61062.24
587.06	60977.98
587.22	61155.86
587.38	60942.87
587.54	61148.84
587.70	61228.41
587.86	60856.27
588.02	61020.11
588.18	61132.45
588.34	60912.44
588.49	61069.26
