SpectraSuite Data File
++++++++++++++++++++++++++++++++++++
Date: Fri Oct 25 11:33:57 EDT 2013
User: price-jones
Dark Spectrum Present: No
Reference Spectrum Present: No
Number of Sampled Component Spectra: 1
Spectrometers: USB2+H05261
Integration Time (usec): 100000 (USB2+H05261)
Spectra Averaged: 1 (USB2+H05261)
Boxcar Smoothing: 0 (USB2+H05261)
Correct for Electrical Dark: No (USB2+H05261)
Strobe/Lamp Enabled: No (USB2+H05261)
Correct for Detector Non-linearity: No (USB2+H05261)
Correct for Stray Light: No (USB2+H05261)
Number of Pixels in Processed Spectrum: 2048
>>>>>Begin Processed Spectral Data<<<<<
365.73	234.05
365.92	234.05
366.12	234.05
366.32	177.88
366.52	124.05
366.72	196.60
366.91	180.22
367.11	217.67
367.31	110.01
367.51	140.43
367.70	205.97
367.90	201.29
368.10	215.33
368.30	156.82
368.49	149.79
368.69	135.75
368.89	201.29
369.09	217.67
369.28	189.58
369.48	203.63
369.68	191.92
369.87	248.10
370.07	252.78
370.27	245.76
370.47	299.59
370.66	505.56
370.86	479.81
371.06	566.41
371.25	550.03
371.45	507.90
371.65	545.34
371.84	503.22
372.04	545.34
372.24	557.05
372.44	610.88
372.63	620.24
372.83	559.39
373.03	587.47
373.22	641.31
373.42	636.63
373.62	613.22
373.81	575.77
374.01	657.69
374.21	648.33
374.40	645.99
374.60	671.73
374.79	678.76
374.99	615.56
375.19	624.92
375.38	664.71
375.58	723.23
375.78	664.71
375.97	741.95
376.17	601.52
376.37	648.33
376.56	674.07
376.76	688.12
376.95	669.39
377.15	664.71
377.35	660.03
377.54	718.54
377.74	650.67
377.93	641.31
378.13	629.60
378.33	655.35
378.52	741.95
378.72	704.50
378.91	746.63
379.11	711.52
379.31	671.73
379.50	650.67
379.70	741.95
379.89	826.21
380.09	720.88
380.28	678.76
380.48	681.10
380.68	744.29
380.87	753.65
381.07	685.78
381.26	777.06
381.46	720.88
381.65	720.88
381.85	732.59
382.04	833.23
382.24	772.38
382.43	755.99
382.63	725.57
382.83	809.83
383.02	774.72
383.22	795.78
383.41	858.98
383.61	844.93
383.80	791.10
384.00	807.48
384.19	809.83
384.39	814.51
384.58	793.44
384.78	842.59
384.97	765.36
385.17	819.19
385.36	795.78
385.56	791.10
385.75	826.21
385.95	800.46
386.14	873.02
386.34	870.68
386.53	882.38
386.72	877.70
386.92	912.81
387.11	816.85
387.31	842.59
387.50	823.87
387.70	840.25
387.89	894.08
388.09	800.46
388.28	866.00
388.48	854.30
388.67	821.53
388.86	929.19
389.06	980.68
389.25	950.26
389.45	889.40
389.64	961.96
389.84	1102.39
390.03	952.60
390.22	994.73
390.42	968.98
390.61	908.13
390.81	952.60
391.00	990.05
391.19	954.94
391.39	1053.24
391.58	1048.56
391.78	997.07
391.97	1027.50
392.16	1043.88
392.36	1029.84
392.55	1118.78
392.75	1048.56
392.94	1060.26
393.13	973.66
393.33	1100.05
393.52	1163.25
393.71	1076.65
393.91	1067.28
394.10	1025.15
394.29	1104.73
394.49	1064.94
394.68	1069.62
394.88	1163.25
395.07	1118.78
395.26	1210.06
395.46	1212.40
395.65	1181.97
395.84	1151.54
396.04	1207.72
396.23	1186.65
396.42	1137.50
396.62	1228.78
396.81	1172.61
397.00	1217.08
397.19	1156.22
397.39	1184.31
397.58	1196.01
397.77	1226.44
397.97	1224.10
398.16	1205.38
398.35	1167.93
398.55	1289.64
398.74	1191.33
398.93	1313.04
399.12	1235.80
399.32	1289.64
399.51	1273.25
399.70	1303.68
399.90	1371.55
400.09	1357.51
400.28	1334.11
400.47	1394.96
400.67	1439.43
400.86	1460.49
401.05	1404.32
401.24	1383.26
401.44	1507.30
401.63	1455.81
401.82	1317.72
402.01	1488.58
402.21	1411.34
402.40	1465.18
402.59	1437.09
402.78	1504.96
402.97	1474.54
403.17	1458.15
403.36	1547.09
403.55	1549.43
403.74	1603.27
403.93	1657.10
404.13	1556.46
404.32	1533.05
404.51	1671.14
404.70	1715.61
404.89	1701.57
405.09	1802.21
405.28	1612.63
405.47	1605.61
405.66	1645.40
405.85	1617.31
406.05	1741.36
406.24	1762.42
406.43	1713.27
406.62	1802.21
406.81	1865.41
407.00	1853.70
407.20	1762.42
407.39	1722.63
407.58	1760.08
407.77	1837.32
407.96	1827.96
408.15	1928.60
408.34	1879.45
408.54	1886.47
408.73	1909.88
408.92	1858.39
409.11	1921.58
409.30	2031.58
409.49	1973.07
409.68	1921.58
409.87	1888.81
410.07	2064.35
410.26	2090.10
410.45	2054.99
410.64	2139.25
410.83	2115.84
411.02	2097.12
411.21	2148.61
411.40	2176.70
411.59	2183.72
411.78	2118.18
411.98	2085.42
412.17	2251.60
412.36	2284.36
412.55	2321.81
412.74	2279.68
412.93	2312.45
413.12	2380.32
413.31	2466.92
413.50	2415.43
413.69	2338.20
413.88	2485.65
414.07	2282.02
414.26	2551.18
414.45	2511.39
414.64	2504.37
414.83	2511.39
415.02	2469.27
415.22	2745.45
415.41	2602.68
415.60	2583.95
415.79	2628.42
415.98	2558.21
416.17	2696.30
416.36	2717.36
416.55	2593.31
416.74	2892.90
416.93	2803.96
417.12	2761.83
417.31	2911.63
417.50	2930.35
417.69	3052.06
417.88	2953.76
418.07	2836.73
418.26	3052.06
418.45	3016.95
418.64	3136.32
418.83	2963.12
419.02	3070.78
419.21	3098.87
419.39	3049.72
419.58	2998.23
419.77	3087.17
419.96	3164.40
420.15	3166.74
420.34	3201.85
420.53	3141.00
420.72	3206.53
420.91	3145.68
421.10	3309.52
421.29	3262.71
421.48	3279.09
421.67	3185.47
421.86	3335.26
422.05	3286.11
422.24	3309.52
422.43	3190.15
422.61	3281.43
422.80	3405.48
422.99	3400.80
423.18	3346.97
423.37	3393.78
423.56	3351.65
423.75	3321.22
423.94	3309.52
424.13	3173.77
424.32	3379.73
424.50	3400.80
424.69	3361.01
424.88	3393.78
425.07	3552.93
425.26	3349.31
425.45	3456.97
425.64	3356.33
425.83	3353.99
426.01	3459.31
426.20	3513.14
426.39	3471.01
426.58	3463.99
426.77	3428.88
426.96	3463.99
427.15	3564.64
427.33	3555.27
427.52	3417.18
427.71	3599.74
427.90	3623.15
428.09	3634.85
428.28	3709.75
428.46	3712.09
428.65	3721.45
428.84	3765.92
429.03	3721.45
429.22	3775.28
429.40	3861.88
429.59	3700.39
429.78	3712.09
429.97	3674.64
430.16	3737.84
430.34	3735.50
430.53	3847.84
430.72	3822.09
430.91	3747.20
431.10	3805.71
431.28	3798.69
431.47	3894.65
431.66	3985.93
431.85	3887.63
432.03	3932.10
432.22	4037.42
432.41	4049.13
432.60	4091.26
432.79	4128.70
432.97	4091.26
433.16	4072.53
433.35	3985.93
433.54	4208.28
433.72	4025.72
433.91	4102.96
434.10	4093.60
434.28	4187.22
434.47	4215.30
434.66	4243.39
434.85	4348.72
435.03	4257.43
435.22	4322.97
435.41	4393.19
435.59	4369.78
435.78	4526.60
435.97	4311.27
436.16	4243.39
436.34	4440.00
436.53	4372.12
436.72	4575.75
436.90	4355.74
437.09	4503.19
437.28	4381.48
437.46	4564.04
437.65	4468.08
437.84	4477.44
438.02	4650.64
438.21	4657.67
438.40	4514.89
438.58	4645.96
438.77	4671.71
438.96	4706.82
439.14	5004.07
439.33	4908.10
439.52	4922.15
439.70	4702.14
439.89	4807.46
440.08	4842.57
440.26	4882.36
440.45	5060.24
440.63	5193.65
440.82	5111.73
441.01	5018.11
441.19	5165.56
441.38	5174.92
441.57	5142.16
441.75	5219.39
441.94	5277.91
442.12	5366.85
442.31	5427.70
442.50	5509.62
442.68	5460.47
442.87	5350.46
443.05	5329.40
443.24	5530.69
443.43	5385.57
443.61	5451.11
443.80	5678.14
443.98	5490.90
444.17	5308.34
444.35	5341.10
444.54	5610.26
444.73	5556.43
444.91	5689.84
445.10	5682.82
445.28	5753.04
445.47	5603.24
445.65	5664.10
445.84	5535.37
446.02	5685.16
446.21	5528.35
446.39	5813.89
446.58	5717.93
446.77	5500.26
446.95	5542.39
447.14	5720.27
447.32	5750.70
447.51	5657.07
447.69	5746.02
447.88	5652.39
448.06	5727.29
448.25	5605.58
448.43	5652.39
448.62	5783.46
448.80	5795.17
448.99	5820.91
449.17	5699.20
449.36	5703.89
449.54	5870.06
449.73	5970.71
449.91	6031.56
450.10	6122.84
450.28	6141.57
450.46	6052.63
450.65	6230.51
450.83	6101.78
451.02	6050.28
451.20	6218.80
451.39	6104.12
451.57	6113.48
451.76	6047.94
451.94	6176.67
452.13	6223.48
452.31	6312.42
452.49	6024.54
452.68	6296.04
452.86	6171.99
453.05	6242.21
453.23	6289.02
453.42	6342.85
453.60	6242.21
453.78	6312.42
453.97	6551.16
454.15	6363.92
454.34	6354.55
454.52	6464.56
454.70	6384.98
454.89	6579.25
455.07	6572.22
455.26	6551.16
455.44	6579.25
455.62	6633.08
455.81	6773.51
455.99	6586.27
456.17	6670.53
456.36	6754.79
456.54	6764.15
456.73	6792.23
456.91	7009.90
457.09	6967.77
457.28	7068.42
457.46	6869.47
457.64	6869.47
457.83	6918.62
458.01	6885.86
458.19	6951.39
458.38	6970.12
458.56	7063.74
458.74	6988.84
458.93	7084.80
459.11	7012.24
459.29	7117.57
459.48	6927.99
459.66	7316.51
459.84	7220.55
460.03	7295.45
460.21	7253.32
460.39	7260.34
460.57	7339.92
460.76	7431.20
460.94	7487.37
461.12	7309.49
461.31	7513.12
461.49	7463.97
461.67	7370.35
461.85	7606.74
462.04	7562.27
462.22	7967.18
462.40	7674.62
462.59	7719.09
462.77	7658.23
462.95	7737.81
463.13	7712.07
463.32	7733.13
463.50	7903.99
463.68	7831.43
463.86	7920.37
464.05	7747.17
464.23	7786.96
464.41	7915.69
464.59	7751.85
464.78	7967.18
464.96	8088.89
465.14	7875.90
465.32	7782.28
465.50	8060.80
465.69	8168.47
465.87	8028.04
466.05	7838.45
466.23	7960.16
466.41	8070.17
466.60	8280.82
466.78	8226.98
466.96	8051.44
467.14	8194.22
467.32	8154.43
467.51	8173.15
467.69	8065.49
467.87	8112.30
468.05	8425.93
468.23	8219.96
468.41	8269.11
468.60	8280.82
468.78	8451.67
468.96	8255.07
469.14	8393.16
469.32	8425.93
469.50	8292.52
469.69	8699.77
469.87	8744.24
470.05	8730.20
470.23	8655.30
470.41	8807.44
470.59	8814.46
470.77	8692.75
470.95	8950.21
471.14	8837.86
471.32	8578.06
471.50	8947.87
471.68	8826.16
471.86	8823.82
472.04	8835.52
472.22	9081.28
472.40	8973.61
472.58	9160.86
472.77	9245.12
472.95	9207.67
473.13	9689.82
473.31	9123.41
473.49	9312.99
473.67	9214.69
473.85	9362.14
474.03	9729.61
474.21	9565.77
474.39	9680.46
474.57	9706.20
474.75	9678.12
474.93	9755.35
475.12	9720.24
475.30	10064.30
475.48	9980.04
475.66	9984.73
475.84	10092.39
476.02	10083.03
476.20	9966.00
476.38	10296.02
476.56	10548.79
476.74	10513.69
476.92	10281.97
477.10	10221.12
477.28	10752.42
477.46	10548.79
477.64	10633.05
477.82	10796.89
478.00	11009.88
478.18	11014.56
478.36	11405.43
478.54	11110.52
478.72	11309.47
478.90	11159.67
479.08	11262.66
479.26	11726.08
479.44	11461.60
479.62	11541.18
479.80	11674.59
479.98	11815.02
480.16	11962.48
480.34	11861.84
480.52	12224.62
480.70	12524.21
480.88	11943.75
481.06	12142.70
481.24	12262.07
481.41	12306.54
481.59	12933.80
481.77	12674.00
481.95	12795.71
482.13	12910.40
482.31	12706.77
482.49	13064.87
482.67	13130.41
482.85	13181.90
483.03	13453.40
483.21	13570.43
483.39	13650.00
483.57	13717.88
483.74	13973.00
483.92	13926.19
484.10	13713.20
484.28	14235.14
484.46	14368.55
484.64	14752.40
484.82	14071.30
485.00	14450.47
485.18	14846.02
485.35	15297.74
485.53	15070.71
485.71	15028.58
485.89	15396.04
486.07	15190.08
486.25	15068.37
486.43	15290.72
486.61	15639.46
486.78	15707.34
486.96	15639.46
487.14	15946.07
487.32	15845.43
487.50	16329.92
487.68	16353.32
487.85	16299.49
488.03	16755.90
488.21	16776.96
488.39	16662.27
488.57	16849.52
488.75	16798.02
488.92	17057.82
489.10	17383.16
489.28	17544.66
489.46	17528.27
489.64	17673.39
489.81	17991.70
489.99	17827.86
490.17	17968.29
490.35	18171.92
490.53	18565.13
490.70	18511.30
490.88	18417.68
491.06	18778.12
491.24	18869.40
491.41	18913.87
491.59	19136.22
491.77	18981.74
491.95	19140.90
492.13	19529.43
492.30	19468.58
492.48	19585.60
492.66	19981.15
492.84	19683.91
493.01	19763.48
493.19	19988.18
493.37	20100.52
493.54	20058.39
493.72	20456.28
493.90	20484.37
494.08	20531.18
494.25	20919.71
494.43	20779.28
494.61	20744.17
494.79	21153.76
494.96	20706.72
495.14	21163.12
495.32	21598.46
495.49	21694.43
495.67	21837.20
495.85	21631.23
496.02	22085.30
496.20	22068.91
496.38	22125.08
496.55	21965.93
496.73	22410.63
496.91	22707.88
497.09	22728.94
497.26	22967.68
497.44	22574.47
497.62	22782.77
497.79	23117.47
497.97	22998.10
498.14	23370.25
498.32	23105.77
498.50	23489.62
498.67	23690.90
498.85	23482.59
499.03	23676.86
499.20	23658.14
499.38	23843.04
499.56	23988.15
499.73	24259.65
499.91	24257.31
500.08	24790.95
500.26	24257.31
500.44	24790.95
500.61	24786.27
500.79	24666.91
500.97	24765.21
501.14	25202.89
501.32	25123.31
501.49	25106.93
501.67	25563.33
501.84	25050.75
502.02	25219.27
502.20	25369.07
502.37	25032.03
502.55	24978.20
502.72	25724.83
502.90	25539.93
503.07	25570.35
503.25	26106.34
503.43	25607.80
503.60	25914.41
503.78	25989.31
503.95	25860.58
504.13	26305.28
504.30	26251.45
504.48	26630.62
504.65	26426.99
504.83	26602.53
505.01	26639.98
505.18	26778.07
505.36	26969.99
505.53	27091.70
505.71	27154.90
505.88	27400.65
506.06	27433.42
506.23	27438.10
506.41	27365.54
506.58	27484.91
506.76	27695.56
506.93	27962.38
507.11	27564.49
507.28	27871.10
507.46	27728.33
507.63	27948.34
507.81	28184.73
507.98	27854.72
508.16	27817.27
508.33	28100.47
508.50	28463.25
508.68	28446.87
508.85	28819.02
509.03	28379.00
509.20	28716.03
509.38	29181.80
509.55	29195.84
509.73	29172.44
509.90	28793.27
510.08	28875.19
510.25	29200.52
510.42	29326.91
510.60	29355.00
510.77	29757.57
510.95	29591.39
511.12	29490.75
511.30	29670.97
511.47	29603.10
511.64	29481.39
511.82	30415.26
511.99	29788.00
512.17	29965.88
512.34	30022.05
512.51	30525.27
512.69	30529.95
512.86	30511.22
513.04	30485.48
513.21	30508.88
513.38	31028.48
513.56	30642.29
513.73	30586.12
513.90	30881.03
514.08	30658.68
514.25	31161.89
514.43	31309.35
514.60	31587.87
514.77	31433.39
514.95	31189.98
515.12	31297.64
515.29	31440.42
515.47	31463.82
515.64	31718.94
515.81	31550.42
515.99	31833.63
516.16	31784.48
516.33	32158.96
516.51	32051.30
516.68	32306.41
516.85	32011.51
517.03	31974.06
517.20	32528.77
517.37	32687.92
517.54	32432.80
517.72	32622.39
517.89	32493.66
518.06	32678.56
518.24	32205.77
518.41	32814.31
518.58	32594.30
518.75	32535.79
518.93	32856.44
519.10	32751.12
519.27	32706.65
519.45	33069.43
519.62	33010.92
519.79	33464.98
519.96	33387.74
520.14	33500.09
520.31	33558.60
520.48	33500.09
520.65	33792.65
520.83	34396.51
521.00	34370.77
521.17	33869.89
521.34	34143.74
521.52	34237.36
521.69	33708.40
521.86	34569.71
522.03	34204.59
522.20	34562.69
522.38	34532.26
522.55	34686.74
522.72	34576.73
522.89	34873.98
523.07	35304.64
523.24	34857.60
523.41	34918.45
523.58	34604.82
523.75	35194.64
523.92	34696.10
524.10	35442.73
524.27	35243.79
524.44	35424.01
524.61	35938.93
524.78	35566.78
524.96	35386.56
525.13	35374.86
525.30	35562.10
525.47	35892.12
525.64	35800.83
525.81	35999.78
525.98	36123.83
526.16	35817.22
526.33	36044.25
526.50	36102.76
526.67	35803.17
526.84	36201.07
527.01	36084.04
527.18	36079.36
527.36	36624.70
527.53	36910.25
527.70	36610.66
527.87	36208.09
528.04	36442.14
528.21	36467.89
528.38	36357.88
528.55	36730.03
528.72	36573.21
528.89	36327.45
529.07	36620.02
529.24	37027.28
529.41	37090.47
529.58	37132.60
529.75	37247.29
529.92	37134.94
530.09	37104.51
530.26	37015.57
530.43	37460.27
530.60	37029.62
530.77	37043.66
530.94	37612.41
531.11	37441.55
531.28	38050.09
531.46	37097.49
531.63	37539.85
531.80	37567.94
531.97	37811.35
532.14	37717.73
532.31	37832.42
532.48	37926.04
532.65	38419.89
532.82	38143.71
532.99	37972.85
533.16	38047.75
533.33	38635.22
533.50	38160.09
533.67	38466.70
533.84	38230.31
534.01	38356.70
534.18	38260.74
534.35	38930.13
534.52	38735.87
534.69	38785.02
534.86	39229.72
535.03	38377.76
535.20	38707.78
535.37	38857.57
535.54	38813.10
535.71	38733.53
535.88	38810.76
536.05	38986.30
536.22	39082.27
536.38	39021.41
536.55	39159.50
536.72	39033.11
536.89	39058.86
537.06	39281.21
537.23	39938.90
537.40	39131.42
537.57	39529.31
537.74	39089.29
537.91	39496.54
538.08	39559.73
538.25	39384.19
538.42	39639.31
538.59	40425.73
538.75	39622.93
538.92	40039.54
539.09	39969.33
539.26	39723.57
539.43	40135.51
539.60	39833.58
539.77	39847.62
539.94	40701.92
540.11	40451.48
540.28	40395.31
540.44	40280.62
540.61	40491.27
540.78	40287.64
540.95	40664.47
541.12	40119.12
541.29	40266.58
541.46	40664.47
541.62	40575.53
541.79	40987.46
541.96	40357.86
542.13	40158.91
542.30	40428.07
542.47	40816.60
542.63	40968.74
542.80	41067.04
542.97	41350.24
543.14	41240.24
543.31	41167.68
543.48	41146.62
543.64	41853.46
543.81	41975.17
543.98	41439.18
544.15	41581.96
544.32	41694.30
544.48	42033.68
544.65	41764.52
544.82	42237.31
544.99	41745.80
545.16	41858.14
545.32	41680.26
545.49	42323.91
545.66	42164.75
545.83	42216.24
546.00	42621.16
546.16	42237.31
546.33	41790.27
546.50	41652.17
546.67	41923.68
546.83	41549.19
547.00	41993.89
547.17	42351.99
547.34	41956.44
547.50	42094.53
547.67	42806.06
547.84	42429.23
548.00	42946.49
548.17	42775.63
548.34	43217.99
548.51	42511.15
548.67	42525.19
548.84	42710.10
549.01	42988.62
549.18	42693.71
549.34	42703.07
549.51	43096.28
549.68	43049.47
549.84	42684.35
550.01	42787.33
550.18	42560.30
550.34	43215.65
550.51	42855.21
550.68	43313.95
550.84	42756.91
551.01	43201.61
551.18	43061.18
551.34	43161.82
551.51	43349.06
551.68	43178.20
551.84	43501.20
552.01	43337.36
552.18	43220.33
552.34	43667.37
552.51	43604.18
552.68	43115.01
552.84	43267.14
553.01	43873.34
553.18	43604.18
553.34	43688.44
553.51	43402.89
553.67	43786.74
553.84	44079.31
554.01	44140.16
554.17	43908.45
554.34	44208.04
554.51	43934.20
554.67	44224.42
554.84	43908.45
555.00	44135.48
555.17	43873.34
555.33	43992.71
555.50	44158.89
555.67	44423.37
555.83	44369.54
556.00	44217.40
556.16	44973.39
556.33	44446.77
556.50	44332.09
556.66	44917.22
556.83	44002.07
556.99	44610.61
557.16	44619.97
557.32	44652.74
557.49	44390.60
557.65	44299.32
557.82	44435.07
557.98	44414.01
558.15	44341.45
558.32	45022.54
558.48	44357.83
558.65	44694.87
558.81	44844.66
558.98	44282.94
559.14	44374.22
559.31	44594.23
559.47	44811.90
559.64	44692.53
559.80	44905.52
559.97	45027.23
560.13	44718.28
560.30	44645.72
560.46	45102.12
560.63	45041.27
560.79	44910.20
560.96	45460.23
561.12	44947.65
561.29	45219.15
561.45	45038.93
561.61	45003.82
561.78	45191.06
561.94	45167.66
562.11	45090.42
562.27	45280.00
562.44	44903.18
562.60	45474.27
562.77	45188.72
562.93	45249.58
563.10	45233.19
563.26	45333.84
563.42	45460.23
563.59	45296.39
563.75	45198.09
563.92	45694.28
564.08	45029.57
564.24	45787.90
564.41	45815.99
564.57	45378.31
564.74	45764.49
564.90	45684.92
565.07	45422.78
565.23	45469.59
565.39	45361.92
565.56	45750.45
565.72	45680.24
565.88	45581.93
566.05	45462.57
566.21	45918.97
566.38	45624.06
566.54	46043.02
566.70	45904.93
566.87	45752.79
567.03	45542.14
567.19	45518.74
567.36	45909.61
567.52	45645.13
567.68	46003.23
567.85	45947.06
568.01	46136.64
568.17	46190.47
568.34	46298.14
568.50	45965.78
568.66	45911.95
568.83	46010.25
568.99	45853.44
569.15	45965.78
569.32	45675.55
569.48	45904.93
569.64	46373.03
569.81	46270.05
569.97	46183.45
570.13	45975.14
570.30	46129.62
570.46	46244.30
570.62	46265.37
570.78	45825.35
570.95	46103.87
571.11	45968.12
571.27	45984.51
571.43	45610.02
571.60	46195.15
571.76	45869.82
571.92	46347.29
572.09	46412.82
572.25	46050.04
572.41	46010.25
572.57	46190.47
572.74	46656.24
572.90	46410.48
573.06	46017.27
573.22	46735.82
573.38	46801.35
573.55	46298.14
573.71	46974.55
573.87	46813.05
574.03	46674.96
574.20	46567.30
574.36	46754.54
574.52	46583.68
574.68	46330.90
574.84	46459.63
575.01	46740.50
575.17	46244.30
575.33	46464.32
575.49	46026.63
575.65	46681.98
575.82	46756.88
575.98	46148.34
576.14	46525.17
576.30	46904.34
576.46	46457.29
576.62	46597.73
576.79	46363.67
576.95	46328.56
577.11	46036.00
577.27	46330.90
577.43	46366.01
577.59	46377.72
577.75	46120.26
577.92	46337.93
578.08	46284.09
578.24	46667.94
578.40	46464.32
578.56	46953.49
578.72	46817.74
578.88	46424.53
579.04	46658.58
579.21	46672.62
579.37	46490.06
579.53	46997.96
579.69	46801.35
579.85	46590.70
580.01	46658.58
580.17	46436.23
580.33	46993.28
580.49	46183.45
580.65	46574.32
580.82	46761.56
580.98	46820.08
581.14	46490.06
581.30	46841.14
581.46	46440.91
581.62	46569.64
581.78	46426.87
581.94	46457.29
582.10	46965.19
582.26	46791.99
582.42	46976.89
582.58	46916.04
582.74	46885.61
582.90	47124.35
583.06	47037.75
583.22	47035.41
583.38	47007.32
583.54	47082.22
583.70	46637.51
583.86	46611.77
584.02	46857.52
584.18	47122.01
584.34	46726.46
584.50	46932.42
584.66	47229.67
584.82	46911.36
584.98	47313.93
585.14	47309.25
585.30	46663.26
585.46	47119.66
585.62	46904.34
585.78	46696.03
585.94	46721.77
586.10	47243.71
586.26	46693.69
586.42	46808.37
586.58	46960.51
586.74	46665.60
586.90	46806.03
587.06	46635.17
587.22	46934.76
587.38	46586.02
587.54	47234.35
587.70	46997.96
587.86	46791.99
588.02	46988.60
588.18	46981.57
588.34	46927.74
588.49	47180.52
588.65	46997.96
588.81	47241.37
588.97	46597.73
589.13	46953.49
589.29	46944.12
589.45	47257.76
589.61	47250.74
589.77	47299.89
589.93	46866.89
590.08	47660.33
