SpectraSuite Data File
++++++++++++++++++++++++++++++++++++
Date: Fri Oct 25 11:26:05 EDT 2013
User: price-jones
Dark Spectrum Present: No
Reference Spectrum Present: No
Number of Sampled Component Spectra: 1
Spectrometers: USB2+H05261
Integration Time (usec): 100000 (USB2+H05261)
Spectra Averaged: 1 (USB2+H05261)
Boxcar Smoothing: 0 (USB2+H05261)
Correct for Electrical Dark: No (USB2+H05261)
Strobe/Lamp Enabled: No (USB2+H05261)
Correct for Detector Non-linearity: No (USB2+H05261)
Correct for Stray Light: No (USB2+H05261)
Number of Pixels in Processed Spectrum: 2048
>>>>>Begin Processed Spectral Data<<<<<
365.73	287.89
365.92	287.89
366.12	287.89
366.32	227.03
366.52	135.75
366.72	152.13
366.91	67.88
367.11	180.22
367.31	133.41
367.51	117.03
367.70	114.69
367.90	205.97
368.10	126.39
368.30	180.22
368.49	180.22
368.69	140.43
368.89	220.01
369.09	100.64
369.28	168.52
369.48	154.48
369.68	187.24
369.87	198.95
370.07	149.79
370.27	227.03
370.47	301.93
370.66	545.34
370.86	613.22
371.06	601.52
371.25	720.88
371.45	657.69
371.65	695.14
371.84	720.88
372.04	681.10
372.24	664.71
372.44	648.33
372.63	739.61
372.83	704.50
373.03	732.59
373.22	793.44
373.42	791.10
373.62	734.93
373.81	788.76
374.01	807.48
374.21	763.01
374.40	807.48
374.60	809.83
374.79	793.44
374.99	809.83
375.19	807.48
375.38	851.96
375.58	765.36
375.78	901.11
375.97	856.64
376.17	866.00
376.37	866.00
376.56	866.00
376.76	912.81
376.95	826.21
377.15	922.17
377.35	938.55
377.54	875.36
377.74	917.49
377.93	933.87
378.13	973.66
378.33	931.53
378.52	866.00
378.72	1027.50
378.91	983.02
379.11	875.36
379.31	908.13
379.50	952.60
379.70	945.58
379.89	964.30
380.09	957.28
380.28	922.17
380.48	1053.24
380.68	966.64
380.87	985.37
381.07	1020.47
381.26	1039.20
381.46	978.34
381.65	966.64
381.85	1132.82
382.04	1060.26
382.24	1057.92
382.43	1067.28
382.63	1001.75
382.83	1083.67
383.02	1132.82
383.22	1165.59
383.41	1132.82
383.61	1097.71
383.80	1109.41
384.00	1123.46
384.19	1069.62
384.39	1132.82
384.58	1088.35
384.78	1149.20
384.97	1214.74
385.17	1170.27
385.36	1165.59
385.56	1231.12
385.75	1114.10
385.95	1219.42
386.14	1226.44
386.34	1221.76
386.53	1235.80
386.72	1146.86
386.92	1275.59
387.11	1245.16
387.31	1263.89
387.50	1240.48
387.70	1146.86
387.89	1226.44
388.09	1296.66
388.28	1277.93
388.48	1226.44
388.67	1362.19
388.86	1317.72
389.06	1369.21
389.25	1313.04
389.45	1437.09
389.64	1394.96
389.84	1423.05
390.03	1350.49
390.22	1401.98
390.42	1406.66
390.61	1366.87
390.81	1373.89
391.00	1481.56
391.19	1451.13
391.39	1530.71
391.58	1448.79
391.78	1509.65
391.97	1434.75
392.16	1446.45
392.36	1472.20
392.55	1497.94
392.75	1533.05
392.94	1533.05
393.13	1537.73
393.33	1610.29
393.52	1495.60
393.71	1579.86
393.91	1584.54
394.10	1549.43
394.29	1596.25
394.49	1612.63
394.68	1680.50
394.88	1614.97
395.07	1586.88
395.26	1668.80
395.46	1638.38
395.65	1781.15
395.84	1750.72
396.04	1830.30
396.23	1724.97
396.42	1746.04
396.62	1727.32
396.81	1818.60
397.00	1846.68
397.19	1734.34
397.39	1839.66
397.58	1863.07
397.77	1795.19
397.97	1823.28
398.16	1860.73
398.35	1940.30
398.55	1853.70
398.74	1973.07
398.93	1930.94
399.12	1891.15
399.32	1853.70
399.51	1949.67
399.70	2012.86
399.90	2010.52
400.09	2024.56
400.28	2036.27
400.47	1961.37
400.67	2162.66
400.86	2113.50
401.05	2129.89
401.24	2087.76
401.44	2157.97
401.63	2080.74
401.82	2113.50
402.01	2148.61
402.21	2076.06
402.40	2132.23
402.59	2165.00
402.78	2197.76
402.97	2132.23
403.17	2167.34
403.36	2256.28
403.55	2225.85
403.74	2321.81
403.93	2310.11
404.13	2303.09
404.32	2300.75
404.51	2401.39
404.70	2401.39
404.89	2361.60
405.09	2495.01
405.28	2441.18
405.47	2436.50
405.66	2452.88
405.85	2511.39
406.05	2661.19
406.24	2473.95
406.43	2537.14
406.62	2588.63
406.81	2731.41
407.00	2597.99
407.20	2499.69
407.39	2527.78
407.58	2799.28
407.77	2731.41
407.96	2722.04
408.15	2726.72
408.34	2710.34
408.54	2740.77
408.73	2576.93
408.92	2679.91
409.11	2764.17
409.30	2885.88
409.49	2848.43
409.68	2864.82
409.87	2904.60
410.07	2946.73
410.26	3000.57
410.45	2965.46
410.64	2946.73
410.83	2981.84
411.02	3045.04
411.21	3152.70
411.40	3119.93
411.59	3124.62
411.78	3213.56
411.98	3258.03
412.17	3246.32
412.36	3379.73
412.55	3309.52
412.74	3435.91
412.93	3440.59
413.12	3267.39
413.31	3487.40
413.50	3400.80
413.69	3492.08
413.88	3595.06
414.07	3531.87
414.26	3637.19
414.45	3606.77
414.64	3754.22
414.83	3744.86
415.02	3810.39
415.22	3934.44
415.41	3824.44
415.60	3744.86
415.79	4025.72
415.98	4035.08
416.17	3892.31
416.36	3857.20
416.55	3969.55
416.74	3976.57
416.93	4063.17
417.12	4117.00
417.31	4177.86
417.50	4189.56
417.69	4299.56
417.88	4367.44
418.07	4414.25
418.26	4318.29
418.45	4255.09
418.64	4409.57
418.83	4386.16
419.02	4454.04
419.21	4512.55
419.39	4545.32
419.58	4418.93
419.77	4510.21
419.96	4430.63
420.15	4540.64
420.34	4533.62
420.53	4540.64
420.72	4655.33
420.91	4599.15
421.10	4620.22
421.29	4889.38
421.48	4828.53
421.67	4751.29
421.86	4952.57
422.05	4849.59
422.24	4762.99
422.43	4884.70
422.61	4821.50
422.80	4887.04
422.99	4816.82
423.18	4894.06
423.37	4961.94
423.56	4887.04
423.75	5018.11
423.94	4844.91
424.13	4566.39
424.32	4702.14
424.50	4997.04
424.69	5018.11
424.88	5022.79
425.07	4887.04
425.26	4730.22
425.45	4837.89
425.64	4814.48
425.83	4873.00
426.01	4975.98
426.20	5057.90
426.39	5050.88
426.58	5001.72
426.77	5090.67
426.96	5048.54
427.15	5041.51
427.33	5137.48
427.52	5156.20
427.71	5254.50
427.90	5109.39
428.09	5139.82
428.28	5448.77
428.46	5364.51
428.65	5273.23
428.84	5359.83
429.03	5535.37
429.22	5181.95
429.40	5430.04
429.59	5493.24
429.78	5308.34
429.97	5303.65
430.16	5568.13
430.34	5516.64
430.53	5577.50
430.72	5626.65
430.91	5621.97
431.10	5556.43
431.28	5748.36
431.47	5675.80
431.66	5881.77
431.85	5879.43
432.03	5947.30
432.22	6104.12
432.41	5823.25
432.60	5928.58
432.79	6024.54
432.97	5806.87
433.16	6047.94
433.35	5909.85
433.54	6104.12
433.72	6129.86
433.91	5912.19
434.10	6209.44
434.28	6122.84
434.47	6127.52
434.66	6190.72
434.85	6345.19
435.03	6235.19
435.22	6197.74
435.41	6502.01
435.59	6277.32
435.78	6427.11
435.97	6476.26
436.16	6448.18
436.34	6457.54
436.53	6464.56
436.72	6520.73
436.90	6553.50
437.09	6792.23
437.28	6487.96
437.46	6452.86
437.65	6712.66
437.84	6787.55
438.02	6771.17
438.21	6635.42
438.40	6768.83
438.58	7021.61
438.77	6836.70
438.96	6808.62
439.14	7052.03
439.33	7129.27
439.52	7185.44
439.70	7190.13
439.89	7272.04
440.08	7262.68
440.26	7400.77
440.45	7323.54
440.63	7372.69
440.82	7578.65
441.01	7480.35
441.19	7527.16
441.38	7576.31
441.57	7789.30
441.75	7749.51
441.94	7957.82
442.12	8039.74
442.31	7740.15
442.50	7971.86
442.68	8098.25
442.87	7925.05
443.05	8152.09
443.24	8107.62
443.43	8093.57
443.61	8194.22
443.80	8212.94
443.98	7920.37
444.17	7789.30
444.35	8248.05
444.54	8320.60
444.73	8168.47
444.91	8336.99
445.10	8503.17
445.28	8327.63
445.47	8226.98
445.65	8313.58
445.84	8397.84
446.02	8596.79
446.21	8400.18
446.39	8400.18
446.58	8388.48
446.77	8505.51
446.95	8212.94
447.14	8205.92
447.32	8580.40
447.51	8430.61
447.69	8360.39
447.88	8542.96
448.06	8257.41
448.25	8491.46
448.43	8510.19
448.62	8678.71
448.80	8629.56
448.99	8561.68
449.17	8723.18
449.36	8538.27
449.54	8849.57
449.73	8933.82
449.91	8922.12
450.10	9149.15
450.28	8931.48
450.46	9011.06
450.65	8926.80
450.83	8898.72
451.02	8861.27
451.20	9170.22
451.39	9146.81
451.57	9064.89
451.76	9233.41
451.94	9233.41
452.13	9284.91
452.31	9170.22
452.49	9048.51
452.68	9387.89
452.86	9217.03
453.05	9413.63
453.23	9413.63
453.42	9224.05
453.60	9369.16
453.78	9664.07
453.97	9430.02
454.15	9397.25
454.34	9247.46
454.52	9778.76
454.70	9563.43
454.89	9577.47
455.07	9968.34
455.26	9790.46
455.44	9982.38
455.62	9839.61
455.81	9757.69
455.99	9891.10
456.17	9907.49
456.36	10047.92
456.54	10176.65
456.73	10242.18
456.91	10410.70
457.09	10370.91
457.28	10338.15
457.46	10363.89
457.64	10473.90
457.83	10635.39
458.01	10296.02
458.19	10799.23
458.38	10647.10
458.56	10642.42
458.74	10937.32
458.93	10644.76
459.11	10707.95
459.29	10583.90
459.48	10729.02
459.66	10698.59
459.84	10965.41
460.03	11077.76
460.21	11040.31
460.39	10878.81
460.57	10916.26
460.76	10925.62
460.94	11119.89
461.12	11070.73
461.31	11260.32
461.49	11215.85
461.67	11066.05
461.85	11236.91
462.04	11201.80
462.22	11550.54
462.40	11571.61
462.59	11562.25
462.77	11318.83
462.95	11503.73
463.13	11672.25
463.32	11454.58
463.50	11723.74
463.68	11653.53
463.86	11716.72
464.05	11587.99
464.23	11784.60
464.41	11655.87
464.59	11545.86
464.78	12315.90
464.96	11918.01
465.14	11889.92
465.32	12145.04
465.50	12250.36
465.69	12191.85
465.87	12123.98
466.05	12114.61
466.23	12184.83
466.41	12278.45
466.60	12437.61
466.78	12187.17
466.96	12187.17
467.14	12346.33
467.32	12269.09
467.51	12573.36
467.69	12065.46
467.87	12517.18
468.05	12720.81
468.23	12442.29
468.41	12313.56
468.60	12697.41
468.78	12730.17
468.96	12613.15
469.14	12657.62
469.32	12769.96
469.50	12699.75
469.69	12884.65
469.87	13029.76
470.05	12996.99
470.23	13261.48
470.41	13165.51
470.59	13425.31
470.77	13060.19
470.95	13158.49
471.14	13495.53
471.32	12912.74
471.50	13476.80
471.68	13497.87
471.86	13528.30
472.04	13722.56
472.22	14008.11
472.40	13614.90
472.58	14047.90
472.77	14008.11
472.95	14181.31
473.13	14455.15
473.31	13832.57
473.49	14068.96
473.67	13947.25
473.85	14232.80
474.03	14572.18
474.21	14590.90
474.39	14656.43
474.57	14747.72
474.75	14721.97
474.93	14946.66
475.12	14689.20
475.30	15035.60
475.48	14918.57
475.66	15152.63
475.84	15136.24
476.02	15332.85
476.20	15264.97
476.38	15349.23
476.56	16023.31
476.74	15964.79
476.92	15831.38
477.10	15597.33
477.28	15843.09
477.46	16009.26
477.64	16126.29
477.82	16624.83
478.00	16830.79
478.18	16580.36
478.36	16748.87
478.54	16908.03
478.72	16875.26
478.90	17448.69
479.08	17434.65
479.26	17769.35
479.44	17928.50
479.62	17687.43
479.80	17748.28
479.98	18118.09
480.16	18326.39
480.34	18471.51
480.52	18576.83
480.70	18328.74
480.88	18436.40
481.06	18918.55
481.24	18511.30
481.41	19115.16
481.59	19524.75
481.77	19192.39
481.95	19328.14
482.13	19763.48
482.31	19510.71
482.49	20060.73
482.67	20046.69
482.85	20409.47
483.03	20425.86
483.21	20664.59
483.39	20659.91
483.57	21020.35
483.74	20893.96
483.92	21097.59
484.10	21202.91
484.28	21474.42
484.46	21940.18
484.64	22125.08
484.82	21654.64
485.00	22288.92
485.18	22438.72
485.35	22820.22
485.53	22941.93
485.71	22848.31
485.89	23344.50
486.07	23337.48
486.25	23618.35
486.43	23290.67
486.61	24013.90
486.78	24023.26
486.96	24102.84
487.14	24334.55
487.32	24414.13
487.50	24748.82
487.68	24882.24
487.85	25172.46
488.03	25422.90
488.21	25556.31
488.39	25549.29
488.57	25715.47
488.75	25785.68
488.92	26111.02
489.10	26677.43
489.28	26911.48
489.46	26892.76
489.64	26869.35
489.81	27786.84
489.99	27679.18
490.17	27550.45
490.35	28114.52
490.53	27730.67
490.70	28259.63
490.88	28308.78
491.06	28989.88
491.24	28315.80
491.41	28678.58
491.59	29284.78
491.77	28975.83
491.95	29167.76
492.13	29488.41
492.30	30024.39
492.48	29677.99
492.66	30071.20
492.84	30108.65
493.01	30586.12
493.19	30380.15
493.37	30588.46
493.54	30944.22
493.72	31309.35
493.90	31222.75
494.08	31519.99
494.25	31864.05
494.43	31952.99
494.61	32105.13
494.79	32470.25
494.96	32126.19
495.14	32430.46
495.32	33188.80
495.49	32973.47
495.67	32943.04
495.85	33228.59
496.02	34174.16
496.20	34005.64
496.38	33865.21
496.55	33649.88
496.73	34899.73
496.91	34026.71
497.09	34691.42
497.26	34857.60
497.44	34604.82
497.62	35412.31
497.79	35386.56
497.97	35370.18
498.14	35875.73
498.32	35744.66
498.50	35936.59
498.67	36629.38
498.85	36219.79
499.03	36067.66
499.20	36381.29
499.38	36744.07
499.56	36493.63
499.73	36975.78
499.91	36753.43
500.08	37439.21
500.26	37368.99
500.44	37521.13
500.61	38061.79
500.79	37581.98
500.97	37766.88
501.14	38548.62
501.32	38424.57
501.49	38347.34
501.67	38609.48
501.84	38562.67
502.02	39063.54
502.20	38565.01
502.37	39232.06
502.55	39084.61
502.72	39365.47
502.90	39285.89
503.07	39388.88
503.25	39868.69
503.43	39643.99
503.60	40025.50
503.78	39910.82
503.95	40051.25
504.13	40301.68
504.30	40311.05
504.48	40292.32
504.65	40320.41
504.83	41048.32
505.01	41188.75
505.18	41081.08
505.36	41256.62
505.53	40935.97
505.71	41027.25
505.88	41661.54
506.06	41132.57
506.23	41991.55
506.41	41502.38
506.58	41570.25
506.76	42155.39
506.93	42553.28
507.11	42321.57
507.28	42766.27
507.46	42480.72
507.63	43019.05
507.81	43386.51
507.98	42658.60
508.16	43079.90
508.33	43353.74
508.50	43129.05
508.68	43388.85
508.85	43672.06
509.03	43714.19
509.20	43407.58
509.38	44442.09
509.55	44538.05
509.73	44406.98
509.90	44282.94
510.08	44559.12
510.25	44772.11
510.42	44732.32
510.60	44933.60
510.77	44896.16
510.95	45453.20
511.12	45177.02
511.30	44842.32
511.47	45610.02
511.64	45488.31
511.82	45464.91
511.99	45511.72
512.17	45710.66
512.34	45373.63
512.51	46059.40
512.69	46270.05
512.86	46225.58
513.04	46328.56
513.21	46124.94
513.38	46799.01
513.56	47210.95
513.73	46546.23
513.90	47016.68
514.08	46471.34
514.25	47000.30
514.43	47306.91
514.60	47365.42
514.77	47435.64
514.95	47051.79
515.12	47576.07
515.29	47358.40
515.47	47501.17
515.64	47943.53
515.81	48058.22
515.99	48193.97
516.16	48435.05
516.33	48320.36
516.51	48711.23
516.68	48011.41
516.85	48636.33
517.03	48690.16
517.20	48671.44
517.37	48804.85
517.54	48622.29
517.72	48727.61
517.89	48786.13
518.06	49027.20
518.24	49123.16
518.41	49088.06
518.58	49024.86
518.75	49247.21
518.93	49104.44
519.10	49294.02
519.27	49223.81
519.45	49624.04
519.62	49595.95
519.79	49944.69
519.96	49851.07
520.14	49631.06
520.31	49848.73
520.48	50382.37
520.65	50160.02
520.83	50630.47
521.00	50335.56
521.17	50436.20
521.34	50457.27
521.52	50569.61
521.69	50597.70
521.86	50590.68
522.03	50859.84
522.20	51159.43
522.38	51299.86
522.55	51360.72
522.72	51047.08
522.89	51091.55
523.07	51693.07
523.24	51449.66
523.41	51838.18
523.58	51611.15
523.75	51952.87
523.92	51835.84
524.10	51777.33
524.27	51920.10
524.44	51372.42
524.61	51948.19
524.78	51885.00
524.96	52137.77
525.13	51957.55
525.30	52135.43
525.47	52540.35
525.64	52229.05
525.81	52629.29
525.98	52591.84
526.16	51992.66
526.33	52839.93
526.50	52601.20
526.67	52467.79
526.84	52711.20
527.01	52846.96
527.18	52673.76
527.36	52662.05
527.53	52931.22
527.70	53134.84
527.87	52992.07
528.04	52750.99
528.21	53059.94
528.38	53242.51
528.55	53577.20
528.72	53289.32
528.89	53139.52
529.07	53389.96
529.24	53361.87
529.41	53595.93
529.58	53422.73
529.75	53343.15
529.92	53691.89
530.09	53705.93
530.26	53661.46
530.43	53986.80
530.60	53408.68
530.77	53509.33
530.94	53909.56
531.11	53621.67
531.28	54188.08
531.46	53996.16
531.63	54323.83
531.80	54274.68
531.97	54251.28
532.14	54122.55
532.31	54138.93
532.48	54253.62
532.65	54485.33
532.82	54286.39
532.99	54543.84
533.16	54424.48
533.33	54443.20
533.50	54810.67
533.67	54869.18
533.84	54480.65
534.01	54796.62
534.18	54581.29
534.35	55150.04
534.52	54986.21
534.69	54908.97
534.86	55117.28
535.03	54960.46
535.20	55150.04
535.37	55306.86
535.54	55295.16
535.71	55269.41
535.88	55157.06
536.05	55458.99
536.22	55496.44
536.38	55444.95
536.55	55636.87
536.72	55370.05
536.89	55367.71
537.06	55714.11
537.23	55622.83
537.40	55451.97
537.57	55573.68
537.74	55538.57
537.91	55662.62
538.08	55749.22
538.25	55763.26
538.42	55798.37
538.59	55903.70
538.75	55517.51
538.92	56081.58
539.09	56076.90
539.26	55880.29
539.43	55964.55
539.60	56184.56
539.77	55891.99
539.94	56310.95
540.11	56310.95
540.28	56207.97
540.44	56259.46
540.61	56278.18
540.78	56088.60
540.95	56236.05
541.12	56409.25
541.29	56189.24
541.46	56423.29
541.62	56643.30
541.79	56652.67
541.96	56315.63
542.13	56631.60
542.30	56685.43
542.47	56598.83
542.63	56720.54
542.80	56837.57
542.97	57052.90
543.14	57062.26
543.31	57006.09
543.48	56893.74
543.64	57499.94
543.81	57179.29
543.98	57378.23
544.15	57088.01
544.32	57427.38
544.48	57378.23
544.65	57268.23
544.82	57256.53
544.99	57261.21
545.16	57434.41
545.32	57153.54
545.49	57647.39
545.66	57668.46
545.83	57188.65
546.00	57675.48
546.16	57528.03
546.33	57462.49
546.50	57244.82
546.67	57759.74
546.83	57268.23
547.00	57635.69
547.17	57481.22
547.34	57434.41
547.50	57848.68
547.67	58071.03
547.84	57687.18
548.00	58089.76
548.17	58085.07
548.34	57801.87
548.51	58188.06
548.67	58288.70
548.84	58136.57
549.01	57939.96
549.18	57961.03
549.34	58099.12
549.51	58052.31
549.68	58188.06
549.84	58223.17
550.01	58361.26
550.18	58176.36
550.34	58117.84
550.51	58536.80
550.68	58309.77
550.84	57918.90
551.01	58379.98
551.18	58305.09
551.34	58431.47
551.51	58637.44
551.68	58464.24
551.84	58632.76
552.01	58150.61
552.18	58473.60
552.34	58415.09
552.51	58630.42
552.68	58447.86
552.84	58588.29
553.01	58639.78
553.18	58763.83
553.34	58904.26
553.51	58773.19
553.67	58740.42
553.84	58733.40
554.01	58831.71
554.17	58845.75
554.34	58876.18
554.51	58960.44
554.67	59035.33
554.84	58852.77
555.00	58780.21
555.17	58939.37
555.33	59000.22
555.50	58789.58
555.67	58885.54
555.83	58747.45
556.00	59082.14
556.16	59215.55
556.33	59187.47
556.50	59241.30
556.66	59150.02
556.83	58997.88
556.99	59234.28
557.16	59262.36
557.32	59346.62
557.49	59573.66
557.65	59311.52
557.82	59274.07
557.98	59327.90
558.15	59276.41
558.32	59447.27
558.48	59302.15
558.65	59440.24
558.81	59508.12
558.98	59215.55
559.14	59519.82
559.31	59461.31
559.47	59468.33
559.64	59753.88
559.80	59444.93
559.97	59494.08
560.13	59395.77
560.30	59491.74
560.46	59615.79
560.63	59746.86
560.79	59758.56
560.96	59845.16
561.12	59796.01
561.29	59709.41
561.45	59660.26
561.61	59725.79
561.78	59590.04
561.94	59547.91
562.11	59756.22
562.27	59578.34
562.44	59786.64
562.60	60182.19
562.77	60041.76
562.93	59711.75
563.10	60067.51
563.26	59903.67
563.42	59994.95
563.59	59840.48
563.75	59737.49
563.92	59957.50
564.08	59814.73
564.24	60006.65
564.41	60086.23
564.57	59931.76
564.74	60065.17
564.90	59796.01
565.07	60037.08
565.23	60294.54
565.39	60062.83
565.56	60039.42
565.72	59997.29
565.88	59990.27
566.05	59957.50
566.21	60060.49
566.38	60032.40
566.54	60168.15
566.70	60444.33
566.87	60193.90
567.03	60006.65
567.19	60250.07
567.36	60315.61
567.52	60030.06
567.68	60299.22
567.85	60243.05
568.01	60331.99
568.17	60205.60
568.34	60224.32
568.50	60264.11
568.66	60123.68
568.83	60418.59
568.99	60175.17
569.15	60310.92
569.32	60266.45
569.48	60275.82
569.64	60207.94
569.81	60111.98
569.97	60093.25
570.13	60388.16
570.30	60331.99
570.46	60378.80
570.62	60416.25
570.78	60341.35
570.95	60381.14
571.11	60610.51
571.27	60238.37
571.43	60404.55
571.60	60519.23
571.76	60481.78
571.92	60418.59
572.09	60463.06
572.25	60285.18
572.41	60357.74
572.57	60587.11
572.74	60788.39
572.90	60219.64
573.06	60402.21
573.22	60430.29
573.38	60348.37
573.55	60573.06
573.71	60622.22
573.87	60704.13
574.03	60514.55
574.20	60725.20
574.36	60463.06
574.52	60650.30
574.68	60350.71
574.84	60687.75
575.01	60650.30
575.17	60788.39
575.33	60486.46
575.49	60711.16
575.65	60832.86
575.82	60650.30
575.98	60601.15
576.14	60931.17
576.30	60823.50
576.46	60743.92
576.62	60516.89
576.79	60685.41
576.95	60493.49
577.11	60680.73
577.27	60865.63
577.43	60750.94
577.59	60526.25
577.75	60835.20
577.92	60458.38
578.08	60456.04
578.24	60533.28
578.40	60867.97
578.56	60973.30
578.72	60844.57
578.88	60921.80
579.04	60982.66
579.21	60779.03
579.37	60959.25
579.53	60781.37
579.69	60528.59
579.85	60491.15
580.01	60708.82
580.17	60650.30
580.33	60870.31
580.49	60856.27
580.65	60713.50
580.82	60898.40
580.98	60757.97
581.14	60685.41
581.30	60729.88
581.46	60776.69
581.62	60814.14
581.78	60638.60
581.94	60781.37
582.10	60884.36
582.26	60898.40
582.42	60769.67
582.58	60935.85
582.74	60818.82
582.90	60804.78
583.06	60802.44
583.22	60762.65
583.38	60732.22
583.54	60865.63
583.70	60949.89
583.86	61001.38
584.02	60940.53
584.18	60811.80
584.34	60781.37
584.50	60903.08
584.66	60727.54
584.82	60757.97
584.98	60996.70
585.14	61027.13
585.30	60949.89
585.46	61104.37
585.62	60837.54
585.78	61123.09
585.94	60640.94
586.10	60804.78
586.26	61015.43
586.42	60835.20
586.58	61031.81
586.74	60851.59
586.90	60961.59
587.06	61006.06
587.22	61003.72
587.38	60996.70
587.54	61151.18
587.70	61085.64
587.86	61017.77
588.02	60921.80
588.18	61015.43
588.34	60935.85
588.49	60903.08
