SpectraSuite Data File
++++++++++++++++++++++++++++++++++++
Date: Fri Oct 25 10:44:40 EDT 2013
User: price-jones
Dark Spectrum Present: No
Reference Spectrum Present: No
Number of Sampled Component Spectra: 1
Spectrometers: USB2+H05261
Integration Time (usec): 100000 (USB2+H05261)
Spectra Averaged: 1 (USB2+H05261)
Boxcar Smoothing: 0 (USB2+H05261)
Correct for Electrical Dark: No (USB2+H05261)
Strobe/Lamp Enabled: No (USB2+H05261)
Correct for Detector Non-linearity: No (USB2+H05261)
Correct for Stray Light: No (USB2+H05261)
Number of Pixels in Processed Spectrum: 2048
>>>>>Begin Processed Spectral Data<<<<<
365.73	154.48
365.92	154.48
366.12	154.48
366.32	14.04
366.52	39.79
366.72	121.71
366.91	23.41
367.11	51.49
367.31	30.43
367.51	14.04
367.70	30.43
367.90	77.24
368.10	4.68
368.30	23.41
368.49	65.54
368.69	56.17
368.89	46.81
369.09	11.70
369.28	35.11
369.48	39.79
369.68	63.19
369.87	28.09
370.07	84.26
370.27	124.05
370.47	208.31
370.66	397.89
370.86	421.30
371.06	397.89
371.25	482.15
371.45	353.42
371.65	442.36
371.84	383.85
372.04	463.43
372.24	500.87
372.44	430.66
372.63	500.87
372.83	524.28
373.03	475.13
373.22	463.43
373.42	496.19
373.62	477.47
373.81	486.83
374.01	454.06
374.21	535.98
374.40	528.96
374.60	561.73
374.79	519.60
374.99	528.96
375.19	578.11
375.38	540.66
375.58	552.37
375.78	575.77
375.97	564.07
376.17	564.07
376.37	528.96
376.56	624.92
376.76	564.07
376.95	557.05
377.15	535.98
377.35	533.64
377.54	606.20
377.74	531.30
377.93	559.39
378.13	596.84
378.33	629.60
378.52	653.01
378.72	587.47
378.91	624.92
379.11	568.75
379.31	512.58
379.50	575.77
379.70	601.52
379.89	596.84
380.09	608.54
380.28	582.79
380.48	634.29
380.68	641.31
380.87	685.78
381.07	734.93
381.26	641.31
381.46	624.92
381.65	723.23
381.85	601.52
382.04	676.41
382.24	744.29
382.43	704.50
382.63	613.22
382.83	685.78
383.02	676.41
383.22	758.33
383.41	704.50
383.61	631.94
383.80	795.78
384.00	725.57
384.19	650.67
384.39	695.14
384.58	727.91
384.78	770.04
384.97	711.52
385.17	772.38
385.36	723.23
385.56	692.80
385.75	713.86
385.95	788.76
386.14	800.46
386.34	784.08
386.53	753.65
386.72	837.91
386.92	884.72
387.11	791.10
387.31	805.14
387.50	730.25
387.70	765.36
387.89	798.12
388.09	840.25
388.28	716.20
388.48	779.40
388.67	896.43
388.86	889.40
389.06	866.00
389.25	870.68
389.45	868.34
389.64	891.74
389.84	994.73
390.03	903.45
390.22	952.60
390.42	947.92
390.61	884.72
390.81	877.70
391.00	1029.84
391.19	882.38
391.39	1027.50
391.58	894.08
391.78	947.92
391.97	978.34
392.16	922.17
392.36	1001.75
392.55	896.43
392.75	976.00
392.94	866.00
393.13	926.85
393.33	952.60
393.52	924.51
393.71	1039.20
393.91	1006.43
394.10	1067.28
394.29	1062.60
394.49	1041.54
394.68	1093.03
394.88	1050.90
395.07	1123.46
395.26	1095.37
395.46	1076.65
395.65	1090.69
395.84	1053.24
396.04	1137.50
396.23	1071.97
396.42	1104.73
396.62	1116.44
396.81	1107.07
397.00	1050.90
397.19	1149.20
397.39	1240.48
397.58	1151.54
397.77	1128.14
397.97	1214.74
398.16	1254.53
398.35	1296.66
398.55	1322.40
398.74	1221.76
398.93	1362.19
399.12	1355.17
399.32	1315.38
399.51	1352.83
399.70	1387.94
399.90	1390.28
400.09	1380.92
400.28	1394.96
400.47	1420.71
400.67	1401.98
400.86	1341.13
401.05	1460.49
401.24	1490.92
401.44	1596.25
401.63	1469.86
401.82	1488.58
402.01	1446.45
402.21	1483.90
402.40	1528.37
402.59	1439.43
402.78	1575.18
402.97	1547.09
403.17	1633.69
403.36	1579.86
403.55	1549.43
403.74	1664.12
403.93	1621.99
404.13	1657.10
404.32	1687.53
404.51	1722.63
404.70	1593.90
404.89	1626.67
405.09	1729.66
405.28	1741.36
405.47	1741.36
405.66	1708.59
405.85	1809.23
406.05	1703.91
406.24	1692.21
406.43	1884.13
406.62	1844.34
406.81	1846.68
407.00	1886.47
407.20	1762.42
407.39	1898.17
407.58	1830.30
407.77	1839.66
407.96	1923.92
408.15	1907.54
408.34	1905.20
408.54	1970.73
408.73	1900.52
408.92	1970.73
409.11	2036.27
409.30	2017.54
409.49	1975.41
409.68	2003.50
409.87	2101.80
410.07	2085.42
410.26	2045.63
410.45	2176.70
410.64	2190.74
410.83	2209.47
411.02	2298.41
411.21	2209.47
411.40	2153.29
411.59	2265.64
411.78	2275.00
411.98	2160.31
412.17	2293.72
412.36	2251.60
412.55	2382.67
412.74	2377.98
412.93	2394.37
413.12	2345.22
413.31	2530.12
413.50	2434.16
413.69	2490.33
413.88	2572.25
414.07	2551.18
414.26	2558.21
414.45	2619.06
414.64	2506.71
414.83	2621.40
415.02	2712.68
415.22	2740.77
415.41	2902.26
415.60	2818.00
415.79	2761.83
415.98	2806.30
416.17	2862.48
416.36	2803.96
416.55	2928.01
416.74	2876.52
416.93	2871.84
417.12	2822.69
417.31	2869.50
417.50	2935.03
417.69	3019.29
417.88	3026.31
418.07	3028.65
418.26	3129.30
418.45	2977.16
418.64	3194.83
418.83	3201.85
419.02	3138.66
419.21	3136.32
419.39	3241.64
419.58	3187.81
419.77	3089.51
419.96	3197.17
420.15	3351.65
420.34	3241.64
420.53	3384.41
420.72	3400.80
420.91	3403.14
421.10	3335.26
421.29	3405.48
421.48	3428.88
421.67	3440.59
421.86	3438.25
422.05	3403.14
422.24	3414.84
422.43	3419.52
422.61	3475.70
422.80	3419.52
422.99	3433.57
423.18	3625.49
423.37	3452.29
423.56	3625.49
423.75	3574.00
423.94	3438.25
424.13	3197.17
424.32	3377.39
424.50	3585.70
424.69	3562.30
424.88	3604.42
425.07	3616.13
425.26	3564.64
425.45	3414.84
425.64	3410.16
425.83	3557.61
426.01	3590.38
426.20	3538.89
426.39	3698.05
426.58	3562.30
426.77	3524.85
426.96	3684.00
427.15	3492.08
427.33	3531.87
427.52	3623.15
427.71	3616.13
427.90	3595.06
428.09	3646.55
428.28	3756.56
428.46	3831.46
428.65	3784.65
428.84	3742.52
429.03	3857.20
429.22	3698.05
429.40	3857.20
429.59	3777.62
429.78	3698.05
429.97	3590.38
430.16	3693.37
430.34	3723.79
430.53	3815.07
430.72	3850.18
430.91	3770.60
431.10	3847.84
431.28	4131.05
431.47	4091.26
431.66	4182.54
431.85	4016.36
432.03	4227.01
432.22	4315.95
432.41	4107.64
432.60	4262.12
432.79	4177.86
432.97	4215.30
433.16	4194.24
433.35	4109.98
433.54	4299.56
433.72	4278.50
433.91	4287.86
434.10	4177.86
434.28	4367.44
434.47	4322.97
434.66	4517.23
434.85	4334.67
435.03	4545.32
435.22	4526.60
435.41	4664.69
435.59	4512.55
435.78	4638.94
435.97	4575.75
436.16	4535.96
436.34	4561.70
436.53	4650.64
436.72	4592.13
436.90	4622.56
437.09	4608.51
437.28	4524.26
437.46	4699.80
437.65	4788.74
437.84	4608.51
438.02	4755.97
438.21	4664.69
438.40	4690.43
438.58	4685.75
438.77	4880.02
438.96	4791.08
439.14	4896.40
439.33	4903.42
439.52	5043.85
439.70	4978.32
439.89	5001.72
440.08	5095.35
440.26	5167.90
440.45	5107.05
440.63	5242.80
440.82	5378.55
441.01	5427.70
441.19	5284.93
441.38	5301.31
441.57	5561.11
441.75	5444.09
441.94	5472.17
442.12	5631.33
442.31	5643.03
442.50	5582.18
442.68	5724.95
442.87	5488.56
443.05	5736.65
443.24	5790.49
443.43	5706.23
443.61	5757.72
443.80	5863.04
443.98	5851.34
444.17	5631.33
444.35	5809.21
444.54	5942.62
444.73	5860.70
444.91	5776.44
445.10	5689.84
445.28	5781.12
445.47	5825.59
445.65	5909.85
445.84	5870.06
446.02	5830.27
446.21	5846.66
446.39	5720.27
446.58	5823.25
446.77	5844.32
446.95	5867.72
447.14	5879.43
447.32	5926.24
447.51	5937.94
447.69	5851.34
447.88	5940.28
448.06	6073.69
448.25	5921.56
448.43	6050.28
448.62	6076.03
448.80	5940.28
448.99	6083.05
449.17	6160.29
449.36	5991.77
449.54	6235.19
449.73	6356.90
449.91	6326.47
450.10	6305.40
450.28	6345.19
450.46	6328.81
450.65	6417.75
450.83	6457.54
451.02	6424.77
451.20	6445.84
451.39	6153.27
451.57	6361.58
451.76	6384.98
451.94	6333.49
452.13	6427.11
452.31	6410.73
452.49	6387.32
452.68	6506.69
452.86	6427.11
453.05	6464.56
453.23	6668.19
453.42	6574.56
453.60	6675.21
453.78	6656.48
453.97	6581.59
454.15	6583.93
454.34	6518.39
454.52	6700.95
454.70	6644.78
454.89	6668.19
455.07	6878.83
455.26	6813.30
455.44	6890.54
455.62	6939.69
455.81	6834.36
455.99	6920.96
456.17	6974.80
456.36	7089.48
456.54	6841.39
456.73	6951.39
456.91	7255.66
457.09	7307.15
457.28	7417.16
457.46	7169.06
457.64	7183.10
457.83	7222.89
458.01	7138.63
458.19	7375.03
458.38	7442.90
458.56	7405.46
458.74	7459.29
458.93	7424.18
459.11	7400.77
459.29	7510.78
459.48	7520.14
459.66	7489.71
459.84	7468.65
460.03	7660.57
460.21	7681.64
460.39	7709.72
460.57	7520.14
460.76	7669.94
460.94	7730.79
461.12	7772.92
461.31	7709.72
461.49	7625.47
461.67	7639.51
461.85	8109.96
462.04	7882.92
462.22	7992.93
462.40	7988.25
462.59	7843.14
462.77	7793.98
462.95	8016.33
463.13	7854.84
463.32	8044.42
463.50	8107.62
463.68	8077.19
463.86	8028.04
464.05	8163.79
464.23	7946.12
464.41	8112.30
464.59	8063.15
464.78	8166.13
464.96	8194.22
465.14	8044.42
465.32	8196.56
465.50	8219.96
465.69	8346.35
465.87	8159.11
466.05	8196.56
466.23	8142.72
466.41	8336.99
466.60	8418.91
466.78	8081.87
466.96	8329.97
467.14	8355.71
467.32	8535.93
467.51	8496.14
467.69	8318.26
467.87	8437.63
468.05	8636.58
468.23	8376.78
468.41	8521.89
468.60	8795.73
468.78	8659.98
468.96	8500.83
469.14	8631.90
469.32	8835.52
469.50	8489.12
469.69	8915.10
469.87	8744.24
470.05	8910.42
470.23	8896.38
470.41	8889.35
470.59	8924.46
470.77	8872.97
470.95	8762.97
471.14	9071.92
471.32	9050.85
471.50	9118.73
471.68	9341.08
471.86	9205.33
472.04	9432.36
472.22	9446.40
472.40	9083.62
472.58	9312.99
472.77	9408.95
472.95	9371.50
473.13	9867.70
473.31	9294.27
473.49	9404.27
473.67	9568.11
473.85	9708.54
474.03	9893.44
474.21	9846.63
474.39	9734.29
474.57	10059.62
474.75	10176.65
474.93	10099.41
475.12	10223.46
475.30	10193.03
475.48	10113.45
475.66	10317.08
475.84	10108.77
476.02	10487.94
476.20	10382.62
476.38	10429.43
476.56	10895.19
476.74	10738.38
476.92	10682.20
477.10	10801.57
477.28	10902.22
477.46	10892.85
477.64	10839.02
477.82	11059.03
478.00	11389.05
478.18	11199.46
478.36	11414.79
478.54	11424.15
478.72	11417.13
478.90	11714.38
479.08	11658.21
479.26	12051.42
479.44	11756.51
479.62	11723.74
479.80	11939.07
479.98	11983.54
480.16	12250.36
480.34	12241.00
480.52	12505.48
480.70	12388.46
480.88	12222.28
481.06	12571.02
481.24	12489.10
481.41	12915.08
481.59	13074.23
481.77	12833.16
481.95	12865.92
482.13	13275.52
482.31	13205.30
482.49	13645.32
482.67	13270.84
482.85	13577.45
483.03	13776.39
483.21	13858.31
483.39	13937.89
483.57	13923.85
483.74	14001.08
483.92	14417.70
484.10	14120.45
484.28	14249.18
484.46	14501.96
484.64	14864.74
484.82	14417.70
485.00	14972.41
485.18	14988.79
485.35	15002.83
485.53	14923.26
485.71	14801.55
485.89	15239.23
486.07	15073.05
486.25	15267.31
486.43	15646.48
486.61	15688.61
486.78	15707.34
486.96	15936.71
487.14	16297.15
487.32	16098.20
487.50	16067.78
487.68	16505.46
487.85	16791.00
488.03	16669.30
488.21	16809.73
488.39	16793.34
488.57	16910.37
488.75	17235.70
488.92	17577.42
489.10	17755.30
489.28	17448.69
489.46	17860.63
489.64	17916.80
489.81	18279.58
489.99	18487.89
490.17	18225.75
490.35	18609.60
490.53	18501.93
490.70	18483.21
490.88	18637.69
491.06	18927.91
491.24	18979.40
491.41	19000.47
491.59	19047.28
491.77	19140.90
491.95	19405.38
492.13	19627.73
492.30	19899.23
492.48	19894.55
492.66	19901.58
492.84	19674.54
493.01	20187.12
493.19	19868.81
493.37	19887.53
493.54	20343.94
493.72	20690.34
493.90	20685.65
494.08	20856.51
494.25	20893.96
494.43	21193.55
494.61	21392.50
494.79	21303.56
494.96	21446.33
495.14	21647.61
495.32	21448.67
495.49	21738.90
495.67	21692.08
495.85	22317.01
496.02	22040.82
496.20	22026.78
496.38	22333.39
496.55	22424.67
496.73	22712.56
496.91	22637.66
497.09	22878.74
497.26	22766.39
497.44	23098.75
497.62	23330.46
497.79	23522.38
497.97	23218.11
498.14	23129.17
498.32	23349.18
498.50	23648.77
498.67	24060.71
498.85	23555.15
499.03	23927.30
499.20	23866.44
499.38	24341.57
499.56	23906.23
499.73	24182.42
499.91	24105.18
500.08	24423.49
500.26	23967.09
500.44	24386.04
500.61	24718.40
500.79	24648.18
500.97	24692.65
501.14	24933.73
501.32	25008.62
501.49	25008.62
501.67	24879.89
501.84	25088.20
502.02	25378.43
502.20	25034.37
502.37	25671.00
502.55	25249.70
502.72	25736.53
502.90	25720.15
503.07	25741.21
503.25	25984.63
503.43	25752.91
503.60	25979.95
503.78	25914.41
503.95	26108.68
504.13	26295.92
504.30	26249.11
504.48	26263.15
504.65	26581.46
504.83	26686.79
505.01	26827.22
505.18	26775.73
505.36	27131.49
505.53	26892.76
505.71	27166.60
505.88	27222.77
506.06	27108.08
506.23	27035.53
506.41	27363.20
506.58	27112.77
506.76	27548.11
506.93	27843.01
507.11	27854.72
507.28	27754.07
507.46	27552.79
507.63	28128.56
507.81	28056.00
507.98	27632.36
508.16	28093.45
508.33	28084.09
508.50	28283.03
508.68	28828.38
508.85	28811.99
509.03	28737.10
509.20	28662.20
509.38	28793.27
509.55	28676.24
509.73	28917.32
509.90	28924.34
510.08	28924.34
510.25	29282.44
510.42	29034.35
510.60	29366.70
510.77	29736.51
510.95	29523.52
511.12	29092.86
511.30	29729.48
511.47	29759.91
511.64	29837.15
511.82	29982.26
511.99	29612.46
512.17	30082.91
512.34	30099.29
512.51	29521.18
512.69	30040.78
512.86	30359.09
513.04	30604.84
513.21	30560.37
513.38	30333.34
513.56	30438.67
513.73	30022.05
513.90	30522.93
514.08	30382.49
514.25	30782.73
514.43	31028.48
514.60	31035.50
514.77	30747.62
514.95	31480.21
515.12	31108.06
515.29	31101.04
515.47	31676.81
515.64	31550.42
515.81	31466.16
515.99	31360.84
516.16	31456.80
516.33	31466.16
516.51	31791.50
516.68	31644.04
516.85	31087.00
517.03	31550.42
517.20	31608.93
517.37	31674.47
517.54	31922.57
517.72	32130.87
517.89	32135.56
518.06	32020.87
518.24	31992.78
518.41	32156.62
518.58	31786.82
518.75	32135.56
518.93	32568.55
519.10	32442.17
519.27	32673.88
519.45	32374.29
519.62	32685.58
519.79	32669.20
519.96	32615.37
520.14	33228.59
520.31	32591.96
520.48	33378.38
520.65	33226.24
520.83	33532.86
521.00	33153.69
521.17	33301.14
521.34	33369.02
521.52	33479.02
521.69	33722.44
521.86	33855.85
522.03	33598.39
522.20	33605.41
522.38	34085.22
522.55	34141.39
522.72	33738.82
522.89	33900.32
523.07	34237.36
523.24	34267.78
523.41	34359.06
523.58	33916.70
523.75	34309.91
523.92	34913.77
524.10	34644.61
524.27	34611.84
524.44	34646.95
524.61	34740.57
524.78	34852.92
524.96	35126.76
525.13	34944.20
525.30	35271.87
525.47	35374.86
525.64	35206.34
525.81	35473.16
525.98	35393.58
526.16	35178.25
526.33	35154.85
526.50	35129.10
526.67	34693.76
526.84	35112.72
527.01	35332.73
527.18	35295.28
527.36	35604.23
527.53	35508.27
527.70	35716.58
527.87	36163.62
528.04	35770.41
528.21	36013.82
528.38	36020.84
528.55	36603.64
528.72	36100.42
528.89	36325.11
529.07	36226.81
529.24	36037.23
529.41	36318.09
529.58	36353.20
529.75	36081.70
529.92	36421.08
530.09	36423.42
530.26	36793.22
530.43	36648.11
530.60	36786.20
530.77	36425.76
530.94	36713.64
531.11	36631.72
531.28	36739.39
531.46	37046.00
531.63	36879.82
531.80	36809.61
531.97	36886.84
532.14	37289.42
532.31	36898.55
532.48	36961.74
532.65	37247.29
532.82	37479.00
532.99	37261.33
533.16	36978.12
533.33	37699.01
533.50	37968.17
533.67	37490.70
533.84	37392.40
534.01	37677.94
534.18	37783.27
534.35	37516.45
534.52	37874.55
534.69	37998.60
534.86	38117.96
535.03	37691.99
535.20	38258.40
535.37	38621.18
535.54	38188.18
535.71	38043.07
535.88	38047.75
536.05	38054.77
536.22	38347.34
536.38	38419.89
536.55	38277.12
536.72	38562.67
536.89	38024.34
537.06	38373.08
537.23	38209.25
537.40	38457.34
537.57	38337.98
537.74	38635.22
537.91	39145.46
538.08	38539.26
538.25	38415.21
538.42	38534.58
538.59	39213.34
538.75	38576.71
538.92	38464.36
539.09	39044.82
539.26	39033.11
539.43	38850.55
539.60	39054.18
539.77	38675.01
539.94	39213.34
540.11	38632.88
540.28	39086.95
540.44	39253.12
540.61	38845.87
540.78	39225.04
540.95	38782.68
541.12	39082.27
541.29	39115.03
541.46	38927.79
541.62	39367.81
541.79	39573.78
541.96	38955.88
542.13	39482.50
542.30	39641.65
542.47	39658.04
542.63	39812.51
542.80	40013.80
542.97	40217.43
543.14	40673.83
543.31	40170.61
543.48	40098.06
543.64	40531.06
543.81	40573.19
543.98	40388.28
544.15	40308.71
544.32	40531.06
544.48	40989.80
544.65	40545.10
544.82	40631.70
544.99	40818.94
545.16	40547.44
545.32	40603.61
545.49	40886.82
545.66	41043.63
545.83	40982.78
546.00	40971.08
546.16	40355.52
546.33	40540.42
546.50	40652.76
546.67	40645.74
546.83	40275.94
547.00	40627.02
547.17	40795.54
547.34	41050.66
547.50	40769.79
547.67	41226.20
547.84	41500.04
548.00	41364.29
548.17	41366.63
548.34	41228.54
548.51	40924.27
548.67	41415.78
548.84	41666.22
549.01	41490.68
549.18	41851.12
549.34	41347.90
549.51	41694.30
549.68	41785.58
549.84	41338.54
550.01	41603.02
550.18	41392.37
550.34	41619.41
550.51	41729.41
550.68	41577.28
550.84	41298.75
551.01	42110.92
551.18	41647.49
551.34	41907.29
551.51	41799.63
551.68	42169.43
551.84	41888.57
552.01	42129.64
552.18	41844.10
552.34	41560.89
552.51	42253.69
552.68	42356.67
552.84	41956.44
553.01	42155.39
553.18	42487.74
553.34	42110.92
553.51	42026.66
553.67	42031.34
553.84	42459.66
554.01	41862.82
554.17	42452.64
554.34	42359.02
554.51	42288.80
554.67	42635.20
554.84	42443.27
555.00	42295.82
555.17	42094.53
555.33	42738.18
555.50	42122.62
555.67	42363.70
555.83	42796.70
556.00	42698.39
556.16	42679.67
556.33	42389.44
556.50	42497.11
556.66	43000.32
556.83	42616.47
556.99	42906.70
557.16	43044.79
557.32	42864.57
557.49	42703.07
557.65	42405.83
557.82	42543.92
557.98	42529.87
558.15	42579.03
558.32	42864.57
558.48	43086.92
558.65	42754.57
558.81	42483.06
558.98	43019.05
559.14	42871.59
559.31	42623.50
559.47	43122.03
559.64	43185.22
559.80	43508.22
559.97	43337.36
560.13	43239.06
560.30	42766.27
560.46	43168.84
560.63	43320.98
560.79	43178.20
560.96	43058.84
561.12	43550.35
561.29	43199.27
561.45	43035.43
561.61	43407.58
561.78	43133.73
561.94	42871.59
562.11	43107.99
562.27	43332.68
562.44	43119.69
562.60	43482.47
562.77	43391.19
562.93	43522.26
563.10	43473.11
563.26	43173.52
563.42	43629.93
563.59	43112.67
563.75	43299.91
563.92	43641.63
564.08	44058.24
564.24	43988.03
564.41	43882.70
564.57	43533.96
564.74	43405.23
564.90	43901.43
565.07	43821.85
565.23	43611.20
565.39	43742.27
565.56	43533.96
565.72	43704.82
565.88	43957.60
566.05	43777.38
566.21	43470.77
566.38	43562.05
566.54	44395.28
566.70	44034.84
566.87	44009.09
567.03	43531.62
567.19	44502.95
567.36	43718.87
567.52	43950.58
567.68	43966.96
567.85	43842.92
568.01	43735.25
568.17	43920.15
568.34	43672.06
568.50	43805.47
568.66	44170.59
568.83	44266.55
568.99	43557.37
569.15	43721.21
569.32	43990.37
569.48	43323.32
569.64	43873.34
569.81	44076.97
569.97	44130.80
570.13	43564.39
570.30	43606.52
570.46	43817.17
570.62	43070.54
570.78	44048.88
570.95	43988.03
571.11	43786.74
571.27	43676.74
571.43	43889.73
571.60	43948.24
571.76	44100.37
571.92	43826.53
572.09	43962.28
572.25	44025.48
572.41	43849.94
572.57	44271.23
572.74	44194.00
572.90	43838.23
573.06	44308.68
573.22	44168.25
573.38	43880.36
573.55	43770.36
573.71	43936.54
573.87	44044.20
574.03	43847.60
574.20	44465.50
574.36	43906.11
574.52	43997.39
574.68	44278.25
574.84	44332.09
575.01	44011.43
575.17	43959.94
575.33	43753.97
575.49	43826.53
575.65	44252.51
575.82	43985.69
575.98	44027.82
576.14	44481.88
576.30	44313.36
576.46	44177.61
576.62	43639.29
576.79	43814.83
576.95	43611.20
577.11	44444.43
577.27	43903.77
577.43	44294.64
577.59	44156.55
577.75	44112.08
577.92	43807.81
578.08	43936.54
578.24	44062.93
578.40	44268.89
578.56	43906.11
578.72	44076.97
578.88	44360.17
579.04	44294.64
579.21	44053.56
579.37	44119.10
579.53	44502.95
579.69	43868.66
579.85	44147.18
580.01	44437.41
580.17	44041.86
580.33	44402.30
580.49	44165.91
580.65	44634.02
580.82	44231.44
580.98	44355.49
581.14	43948.24
581.30	44322.72
581.46	44636.36
581.62	44587.21
581.78	44383.58
581.94	44493.58
582.10	44058.24
582.26	44137.82
582.42	44009.09
582.58	44376.56
582.74	44376.56
582.90	44325.07
583.06	44390.60
583.22	44381.24
583.38	44673.81
583.54	44315.70
583.70	44547.42
583.86	44271.23
584.02	43826.53
584.18	44069.95
584.34	44191.65
584.50	44271.23
584.66	43952.92
584.82	43990.37
584.98	44760.40
585.14	44662.10
585.30	44231.44
585.46	44388.26
585.62	44280.60
585.78	44280.60
585.94	43791.42
586.10	44566.14
586.26	44252.51
586.42	44219.74
586.58	44823.60
586.74	44357.83
586.90	44086.33
587.06	44257.19
587.22	44236.12
587.38	43840.57
587.54	44044.20
587.70	44589.55
587.86	44535.71
588.02	44177.61
588.18	44367.20
588.34	43950.58
588.49	43945.90
588.65	44102.71
588.81	44133.14
588.97	44346.13
589.13	43981.01
589.29	44294.64
589.45	43964.62
589.61	44385.92
589.77	44451.45
589.93	44844.66
590.08	44713.59
590.24	44783.81
