SpectraSuite Data File
++++++++++++++++++++++++++++++++++++
Date: Fri Oct 25 11:33:40 EDT 2013
User: price-jones
Dark Spectrum Present: No
Reference Spectrum Present: No
Number of Sampled Component Spectra: 1
Spectrometers: USB2+H05261
Integration Time (usec): 100000 (USB2+H05261)
Spectra Averaged: 1 (USB2+H05261)
Boxcar Smoothing: 0 (USB2+H05261)
Correct for Electrical Dark: No (USB2+H05261)
Strobe/Lamp Enabled: No (USB2+H05261)
Correct for Detector Non-linearity: No (USB2+H05261)
Correct for Stray Light: No (USB2+H05261)
Number of Pixels in Processed Spectrum: 2048
>>>>>Begin Processed Spectral Data<<<<<
365.73	320.65
365.92	320.65
366.12	320.65
366.32	222.35
366.52	98.30
366.72	198.95
366.91	131.07
367.11	147.45
367.31	147.45
367.51	149.79
367.70	138.09
367.90	166.18
368.10	114.69
368.30	187.24
368.49	128.73
368.69	170.86
368.89	145.11
369.09	210.65
369.28	234.05
369.48	159.16
369.68	194.26
369.87	257.46
370.07	187.24
370.27	205.97
370.47	290.23
370.66	496.19
370.86	458.74
371.06	496.19
371.25	472.79
371.45	535.98
371.65	528.96
371.84	526.62
372.04	489.17
372.24	603.86
372.44	552.37
372.63	568.75
372.83	510.24
373.03	601.52
373.22	594.50
373.42	629.60
373.62	627.26
373.81	631.94
374.01	636.63
374.21	636.63
374.40	631.94
374.60	667.05
374.79	624.92
374.99	653.01
375.19	690.46
375.38	676.41
375.58	697.48
375.78	676.41
375.97	683.44
376.17	685.78
376.37	758.33
376.56	676.41
376.76	737.27
376.95	664.71
377.15	660.03
377.35	695.14
377.54	655.35
377.74	629.60
377.93	697.48
378.13	660.03
378.33	725.57
378.52	725.57
378.72	772.38
378.91	699.82
379.11	692.80
379.31	709.18
379.50	755.99
379.70	826.21
379.89	653.01
380.09	697.48
380.28	643.65
380.48	760.67
380.68	688.12
380.87	767.70
381.07	819.19
381.26	802.80
381.46	713.86
381.65	821.53
381.85	798.12
382.04	784.08
382.24	760.67
382.43	805.14
382.63	774.72
382.83	814.51
383.02	833.23
383.22	861.32
383.41	793.44
383.61	826.21
383.80	819.19
384.00	816.85
384.19	896.43
384.39	840.25
384.58	821.53
384.78	788.76
384.97	763.01
385.17	866.00
385.36	866.00
385.56	849.61
385.75	868.34
385.95	861.32
386.14	880.04
386.34	866.00
386.53	837.91
386.72	816.85
386.92	945.58
387.11	868.34
387.31	868.34
387.50	849.61
387.70	800.46
387.89	856.64
388.09	933.87
388.28	866.00
388.48	912.81
388.67	992.39
388.86	924.51
389.06	924.51
389.25	954.94
389.45	877.70
389.64	978.34
389.84	992.39
390.03	919.83
390.22	971.32
390.42	931.53
390.61	980.68
390.81	994.73
391.00	1006.43
391.19	985.37
391.39	1013.45
391.58	971.32
391.78	992.39
391.97	990.05
392.16	980.68
392.36	1132.82
392.55	1086.01
392.75	994.73
392.94	1022.81
393.13	987.71
393.33	1071.97
393.52	1064.94
393.71	1083.67
393.91	1071.97
394.10	1069.62
394.29	1062.60
394.49	1132.82
394.68	1181.97
394.88	1076.65
395.07	1153.88
395.26	1174.95
395.46	1109.41
395.65	1177.29
395.84	1200.69
396.04	1245.16
396.23	1275.59
396.42	1277.93
396.62	1313.04
396.81	1263.89
397.00	1167.93
397.19	1174.95
397.39	1188.99
397.58	1224.10
397.77	1219.42
397.97	1245.16
398.16	1334.11
398.35	1369.21
398.55	1306.02
398.74	1235.80
398.93	1369.21
399.12	1357.51
399.32	1394.96
399.51	1263.89
399.70	1371.55
399.90	1317.72
400.09	1397.30
400.28	1430.07
400.47	1418.36
400.67	1394.96
400.86	1397.30
401.05	1458.15
401.24	1397.30
401.44	1418.36
401.63	1502.62
401.82	1434.75
402.01	1479.22
402.21	1479.22
402.40	1486.24
402.59	1481.56
402.78	1519.01
402.97	1483.90
403.17	1521.35
403.36	1516.67
403.55	1598.59
403.74	1664.12
403.93	1607.95
404.13	1624.33
404.32	1692.21
404.51	1612.63
404.70	1640.72
404.89	1579.86
405.09	1701.57
405.28	1661.78
405.47	1696.89
405.66	1661.78
405.85	1682.85
406.05	1820.94
406.24	1804.55
406.43	1764.76
406.62	1732.00
406.81	1846.68
407.00	1811.57
407.20	1746.04
407.39	1863.07
407.58	1858.39
407.77	1893.49
407.96	1914.56
408.15	1905.20
408.34	1842.00
408.54	1968.39
408.73	2005.84
408.92	1968.39
409.11	1973.07
409.30	2085.42
409.49	1991.80
409.68	1961.37
409.87	2062.01
410.07	2062.01
410.26	2054.99
410.45	2033.93
410.64	1977.75
410.83	2085.42
411.02	2218.83
411.21	2132.23
411.40	2090.10
411.59	2090.10
411.78	2324.15
411.98	2277.34
412.17	2183.72
412.36	2319.47
412.55	2399.05
412.74	2333.51
412.93	2286.70
413.12	2235.21
413.31	2324.15
413.50	2321.81
413.69	2445.86
413.88	2424.80
414.07	2469.27
414.26	2502.03
414.45	2558.21
414.64	2504.37
414.83	2495.01
415.02	2597.99
415.22	2654.17
415.41	2626.08
415.60	2612.04
415.79	2684.59
415.98	2700.98
416.17	2715.02
416.36	2677.57
416.55	2787.58
416.74	2750.13
416.93	2736.09
417.12	2892.90
417.31	2869.50
417.50	2883.54
417.69	2883.54
417.88	3054.40
418.07	2946.73
418.26	2932.69
418.45	3016.95
418.64	3152.70
418.83	3030.99
419.02	3222.92
419.21	3133.98
419.39	3045.04
419.58	3033.33
419.77	3007.59
419.96	3101.21
420.15	3251.00
420.34	3126.96
420.53	3157.38
420.72	3302.50
420.91	3258.03
421.10	3229.94
421.29	3253.34
421.48	3243.98
421.67	3199.51
421.86	3255.69
422.05	3274.41
422.24	3311.86
422.43	3368.03
422.61	3283.77
422.80	3449.95
422.99	3356.33
423.18	3426.54
423.37	3538.89
423.56	3496.76
423.75	3419.52
423.94	3339.94
424.13	3269.73
424.32	3358.67
424.50	3386.76
424.69	3583.36
424.88	3440.59
425.07	3475.70
425.26	3346.97
425.45	3382.07
425.64	3569.32
425.83	3527.19
426.01	3559.95
426.20	3396.12
426.39	3438.25
426.58	3419.52
426.77	3456.97
426.96	3538.89
427.15	3604.42
427.33	3646.55
427.52	3585.70
427.71	3655.92
427.90	3536.55
428.09	3510.80
428.28	3632.51
428.46	3634.85
428.65	3609.11
428.84	3768.26
429.03	3817.41
429.22	3604.42
429.40	3775.28
429.59	3744.86
429.78	3674.64
429.97	3684.00
430.16	3815.07
430.34	3882.95
430.53	3976.57
430.72	3889.97
430.91	3918.06
431.10	3845.50
431.28	4004.66
431.47	3794.01
431.66	3999.98
431.85	3889.97
432.03	4011.68
432.22	4156.79
432.41	4203.60
432.60	4168.49
432.79	4208.28
432.97	4191.90
433.16	4128.70
433.35	4095.94
433.54	4215.30
433.72	4163.81
433.91	4198.92
434.10	4227.01
434.28	4107.64
434.47	4325.31
434.66	4348.72
434.85	4353.40
435.03	4372.12
435.22	4257.43
435.41	4550.00
435.59	4325.31
435.78	4409.57
435.97	4397.87
436.16	4418.93
436.34	4456.38
436.53	4510.21
436.72	4613.20
436.90	4421.27
437.09	4678.73
437.28	4432.97
437.46	4533.62
437.65	4585.11
437.84	4709.16
438.02	4540.64
438.21	4645.96
438.40	4772.35
438.58	4737.24
438.77	4945.55
438.96	4704.48
439.14	4819.16
439.33	4903.42
439.52	4753.63
439.70	4933.85
439.89	5153.86
440.08	5102.37
440.26	5034.49
440.45	5004.07
440.63	5135.14
440.82	5076.62
441.01	5135.14
441.19	5233.44
441.38	5200.67
441.57	5324.72
441.75	5221.74
441.94	5448.77
442.12	5317.70
442.31	5387.91
442.50	5577.50
442.68	5355.15
442.87	5472.17
443.05	5582.18
443.24	5612.60
443.43	5345.78
443.61	5493.24
443.80	5937.94
443.98	5493.24
444.17	5289.61
444.35	5521.32
444.54	5748.36
444.73	5638.35
444.91	5584.52
445.10	5614.95
445.28	5717.93
445.47	5668.78
445.65	5849.00
445.84	5750.70
446.02	5675.80
446.21	5610.26
446.39	5591.54
446.58	5682.82
446.77	5746.02
446.95	5715.59
447.14	5743.67
447.32	5746.02
447.51	5947.30
447.69	5659.42
447.88	5767.08
448.06	5696.86
448.25	5809.21
448.43	5898.15
448.62	5844.32
448.80	5921.56
448.99	5781.12
449.17	5802.19
449.36	5837.30
449.54	5963.68
449.73	6143.91
449.91	6153.27
450.10	6064.33
450.28	6169.65
450.46	6284.34
450.65	6141.57
450.83	6190.72
451.02	5930.92
451.20	6225.82
451.39	6214.12
451.57	6263.27
451.76	6272.64
451.94	6274.98
452.13	6237.53
452.31	6207.10
452.49	6188.38
452.68	6216.46
452.86	6366.26
453.05	6396.68
453.23	6375.62
453.42	6267.95
453.60	6326.47
453.78	6509.03
453.97	6417.75
454.15	6502.01
454.34	6333.49
454.52	6551.16
454.70	6537.12
454.89	6658.82
455.07	6651.80
455.26	6640.10
455.44	6764.15
455.62	6661.16
455.81	6649.46
455.99	6726.70
456.17	6820.32
456.36	6909.26
456.54	6913.94
456.73	6911.60
456.91	7030.97
457.09	7049.69
457.28	7227.57
457.46	6935.01
457.64	7204.17
457.83	7232.26
458.01	7063.74
458.19	7243.96
458.38	7281.41
458.56	7014.59
458.74	7108.21
458.93	7330.56
459.11	7330.56
459.29	7304.81
459.48	7300.13
459.66	7236.94
459.84	7353.96
460.03	7571.63
460.21	7349.28
460.39	7325.88
460.57	7414.82
460.76	7531.84
460.94	7461.63
461.12	7527.16
461.31	7602.06
461.49	7569.29
461.67	7515.46
461.85	7737.81
462.04	7639.51
462.22	8018.68
462.40	7747.17
462.59	7810.37
462.77	7583.34
462.95	7943.78
463.13	7754.19
463.32	7786.96
463.50	7889.95
463.68	7838.45
463.86	8088.89
464.05	7922.71
464.23	7864.20
464.41	7962.50
464.59	7936.76
464.78	8074.85
464.96	8217.62
465.14	7889.95
465.32	8191.88
465.50	8147.40
465.69	8112.30
465.87	7999.95
466.05	8182.51
466.23	7927.39
466.41	8297.20
466.60	8276.13
466.78	8173.15
466.96	8353.37
467.14	8276.13
467.32	8306.56
467.51	8521.89
467.69	8273.79
467.87	8285.50
468.05	8482.10
468.23	8430.61
468.41	8367.42
468.60	8402.52
468.78	8486.78
468.96	8489.12
469.14	8383.80
469.32	8786.37
469.50	8545.30
469.69	8592.11
469.87	8650.62
470.05	8898.72
470.23	8936.17
470.41	8940.85
470.59	8985.32
470.77	8826.16
470.95	8938.51
471.14	9015.74
471.32	8931.48
471.50	9186.60
471.68	9198.31
471.86	9167.88
472.04	9057.87
472.22	9301.29
472.40	9074.26
472.58	9254.48
472.77	9341.08
472.95	9245.12
473.13	9621.94
473.31	9366.82
473.49	9554.07
473.67	9427.68
473.85	9439.38
474.03	9729.61
474.21	9603.22
474.39	9776.42
474.57	9912.17
474.75	9767.06
474.93	10153.24
475.12	10040.90
475.30	10211.76
475.48	10047.92
475.66	10256.23
475.84	10108.77
476.02	10214.10
476.20	10232.82
476.38	10438.79
476.56	10649.44
476.74	10595.61
476.92	10441.13
477.10	10438.79
477.28	10703.27
477.46	10832.00
477.64	10944.34
477.82	10764.12
478.00	11382.03
478.18	11290.74
478.36	11105.84
478.54	11367.98
478.72	11335.21
478.90	11520.12
479.08	11676.93
479.26	11756.51
479.44	11639.48
479.62	11899.28
479.80	11960.14
479.98	12032.69
480.16	12159.08
480.34	12081.85
480.52	12262.07
480.70	12517.18
480.88	12210.57
481.06	12299.52
481.24	12400.16
481.41	12390.80
481.59	12732.51
481.77	12929.12
481.95	13048.49
482.13	13053.17
482.31	12936.14
482.49	13537.66
482.67	13294.24
482.85	13621.92
483.03	13591.49
483.21	13797.46
483.39	13652.34
483.57	13462.76
483.74	13956.61
483.92	14094.71
484.10	13947.25
484.28	14239.82
484.46	14401.32
484.64	14637.71
484.82	14464.51
485.00	14590.90
485.18	15023.90
485.35	14923.26
485.53	14972.41
485.71	15192.42
485.89	15447.54
486.07	15250.93
486.25	15515.41
486.43	15836.06
486.61	15463.92
486.78	15707.34
486.96	16046.71
487.14	16257.36
487.32	16173.10
487.50	16175.44
487.68	16711.42
487.85	16854.20
488.03	17092.93
488.21	17090.59
488.39	17216.98
488.57	16943.14
488.75	17034.42
488.92	17205.28
489.10	17614.87
489.28	17434.65
489.46	17963.61
489.64	17617.21
489.81	18249.16
489.99	18073.62
490.17	18649.39
490.35	18455.12
490.53	18368.52
490.70	18677.48
490.88	18595.56
491.06	19051.96
491.24	18876.42
491.41	18871.74
491.59	19552.84
491.77	18991.11
491.95	19391.34
492.13	19470.92
492.30	19789.23
492.48	19660.50
492.66	19999.88
492.84	19962.43
493.01	20222.23
493.19	20027.96
493.37	20212.87
493.54	20325.21
493.72	20849.49
493.90	20486.71
494.08	20634.16
494.25	20999.29
494.43	21128.02
494.61	21102.27
494.79	21240.36
494.96	21462.71
495.14	21575.06
495.32	21774.00
495.49	21598.46
495.67	22008.06
495.85	21792.73
496.02	21977.63
496.20	22398.93
496.38	22293.60
496.55	22466.80
496.73	22843.63
496.91	22843.63
497.09	23047.26
497.26	22855.33
497.44	22902.14
497.62	23145.56
497.79	23388.97
497.97	23271.95
498.14	23847.72
498.32	23943.68
498.50	24041.98
498.67	24123.90
498.85	24238.59
499.03	23981.13
499.20	24348.59
499.38	24374.34
499.56	24400.08
499.73	24900.96
499.91	24411.79
500.08	24577.97
500.26	24737.12
500.44	24800.32
500.61	24739.46
500.79	24919.68
500.97	24950.11
501.14	25546.95
501.32	25355.02
501.49	25090.54
501.67	25418.22
501.84	25458.01
502.02	25542.27
502.20	25493.12
502.37	26003.35
502.55	25813.77
502.72	25584.40
502.90	25811.43
503.07	26136.76
503.25	26174.21
503.43	26394.22
503.60	26724.24
503.78	26548.70
503.95	26834.24
504.13	26541.68
504.30	26632.96
504.48	26766.37
504.65	26670.40
504.83	27222.77
505.01	27232.13
505.18	27243.84
505.36	27201.71
505.53	27517.68
505.71	27615.98
505.88	27819.61
506.06	27016.80
506.23	27782.16
506.41	27424.06
506.58	27592.58
506.76	27955.36
506.93	28002.17
507.11	28224.52
507.28	28507.72
507.46	28287.71
507.63	28140.26
507.81	28379.00
507.98	28374.31
508.16	28861.15
508.33	28599.01
508.50	28943.06
508.68	28528.79
508.85	28954.77
509.03	29064.77
509.20	29106.90
509.38	29427.56
509.55	29261.38
509.73	29516.50
509.90	29549.26
510.08	29565.65
510.25	29991.62
510.42	29846.51
510.60	29771.61
510.77	29614.80
510.95	30525.27
511.12	30181.21
511.30	29958.86
511.47	30265.47
511.64	29961.20
511.82	30813.15
511.99	30110.99
512.17	30342.70
512.34	30457.39
512.51	30857.62
512.69	30969.97
512.86	30728.89
513.04	31260.20
513.21	31187.64
513.38	31257.85
513.56	31503.61
513.73	31136.15
513.90	31435.74
514.08	31290.62
514.25	31578.51
514.43	31824.26
514.60	31716.60
514.77	31765.75
514.95	31452.12
515.12	31814.90
515.29	31842.99
515.47	32201.09
515.64	32053.64
515.81	31826.60
515.99	32240.88
516.16	32437.48
516.33	32510.04
516.51	32849.42
516.68	32465.57
516.85	32463.23
517.03	32673.88
517.20	32802.61
517.37	33165.39
517.54	32683.24
517.72	32746.44
517.89	32996.87
518.06	33158.37
518.24	32826.01
518.41	33242.63
518.58	33139.65
518.75	33422.85
518.93	33408.81
519.10	33516.47
519.27	33930.75
519.45	33841.81
519.62	33703.71
519.79	33951.81
519.96	33916.70
520.14	34066.50
520.31	34279.49
520.48	33937.77
520.65	34068.84
520.83	34237.36
521.00	34457.37
521.17	34389.49
521.34	34899.73
521.52	34677.38
521.69	34660.99
521.86	34660.99
522.03	34555.67
522.20	34946.54
522.38	35447.41
522.55	34815.47
522.72	34735.89
522.89	35051.86
523.07	35515.29
523.24	35597.21
523.41	35641.68
523.58	35269.53
523.75	35683.81
523.92	35704.87
524.10	35629.98
524.27	35534.01
524.44	35828.92
524.61	36023.19
524.78	35805.52
524.96	36032.55
525.13	36165.96
525.30	36400.01
525.47	36201.07
525.64	35915.52
525.81	36594.28
525.98	36666.83
526.16	36772.16
526.33	36486.61
526.50	36622.36
526.67	36346.18
526.84	36715.98
527.01	36804.92
527.18	37081.11
527.36	36673.85
527.53	37209.84
527.70	37600.71
527.87	37376.01
528.04	37186.43
528.21	37230.90
528.38	37361.97
528.55	37481.34
528.72	37046.00
528.89	37361.97
529.07	37394.74
529.24	37310.48
529.41	37996.26
529.58	37617.09
529.75	37301.12
529.92	37837.10
530.09	37546.87
530.26	37619.43
530.43	37940.08
530.60	37455.59
530.77	37640.50
530.94	38117.96
531.11	37970.51
531.28	38146.05
531.46	38302.87
531.63	38274.78
531.80	38202.22
531.97	38384.79
532.14	38565.01
532.31	38560.33
532.48	38576.71
532.65	38424.57
532.82	38604.80
532.99	38728.84
533.16	38883.32
533.33	38979.28
533.50	39026.09
533.67	38960.56
533.84	38656.29
534.01	39302.28
534.18	39037.80
534.35	39868.69
534.52	38979.28
534.69	39267.17
534.86	39620.59
535.03	39529.31
535.20	39255.46
535.37	39868.69
535.54	40048.91
535.71	39690.80
535.88	39842.94
536.05	39473.13
536.22	39929.54
536.38	39737.62
536.55	39803.15
536.72	39943.58
536.89	39735.27
537.06	40009.12
537.23	40219.77
537.40	39576.12
537.57	39576.12
537.74	39871.03
537.91	40112.10
538.08	39859.32
538.25	39803.15
538.42	40428.07
538.59	40493.61
538.75	40318.07
538.92	40718.30
539.09	40561.48
539.26	40261.90
539.43	40732.34
539.60	40603.61
539.77	40807.24
539.94	40924.27
540.11	40596.59
540.28	41090.44
540.44	40697.24
540.61	40760.43
540.78	41041.29
540.95	40741.71
541.12	40753.41
541.29	41020.23
541.46	41319.82
541.62	41333.86
541.79	41663.88
541.96	40882.14
542.13	41097.47
542.30	41469.61
542.47	41715.37
542.63	41394.71
542.80	41825.37
542.97	41443.87
543.14	41968.15
543.31	42117.94
543.48	41888.57
543.64	42557.96
543.81	42302.84
543.98	42005.59
544.15	42134.32
544.32	42040.70
544.48	42445.62
544.65	42036.02
544.82	42251.35
544.99	42220.92
545.16	42426.89
545.32	41848.78
545.49	42714.78
545.66	42822.44
545.83	42471.36
546.00	42871.59
546.16	43079.90
546.33	42667.97
546.50	42148.37
546.67	42733.50
546.83	42291.14
547.00	42703.07
547.17	42761.59
547.34	42885.64
547.50	43185.22
547.67	43005.00
547.84	42838.83
548.00	42955.85
548.17	43243.74
548.34	43704.82
548.51	43379.49
548.67	43112.67
548.84	43328.00
549.01	43381.83
549.18	43672.06
549.34	43325.66
549.51	43278.85
549.68	43426.30
549.84	43370.13
550.01	43349.06
550.18	43477.79
550.34	43765.68
550.51	43739.93
550.68	43873.34
550.84	43571.41
551.01	43835.89
551.18	43707.16
551.34	44254.85
551.51	44154.21
551.68	44083.99
551.84	43826.53
552.01	43943.56
552.18	44182.29
552.34	43971.64
552.51	43782.06
552.68	44100.37
552.84	44343.79
553.01	44144.84
553.18	44137.82
553.34	44486.56
553.51	44486.56
553.67	44254.85
553.84	44641.04
554.01	44470.18
554.17	44439.75
554.34	44519.33
554.51	44999.14
554.67	44828.28
554.84	44774.45
555.00	44650.40
555.17	44650.40
555.33	44708.91
555.50	44919.56
555.67	44563.80
555.83	44868.07
556.00	44779.13
556.16	45301.07
556.33	45081.06
556.50	44818.92
556.66	44959.35
556.83	44671.46
556.99	45422.78
557.16	45144.25
557.32	45205.11
557.49	45462.57
557.65	45153.62
557.82	45298.73
557.98	45083.40
558.15	45291.71
558.32	45581.93
558.48	45043.61
558.65	45268.30
558.81	45064.67
558.98	45441.50
559.14	45432.14
559.31	45434.48
559.47	45511.72
559.64	45298.73
559.80	45425.12
559.97	45752.79
560.13	45404.05
560.30	45492.99
560.46	46120.26
560.63	45434.48
560.79	46195.15
560.96	45944.72
561.12	46017.27
561.29	46066.42
561.45	45827.69
561.61	45815.99
561.78	45909.61
561.94	45820.67
562.11	46071.10
562.27	45705.98
562.44	45450.86
562.60	46178.77
562.77	45893.22
562.93	45914.29
563.10	46300.48
563.26	45970.46
563.42	46291.12
563.59	45708.32
563.75	46373.03
563.92	45933.01
564.08	45666.19
564.24	46628.15
564.41	46120.26
564.57	46401.12
564.74	46220.90
564.90	46232.60
565.07	46171.75
565.23	46017.27
565.39	46454.95
565.56	46564.96
565.72	46185.79
565.88	45961.10
566.05	46164.73
566.21	46576.66
566.38	46064.08
566.54	46312.18
566.70	46323.88
566.87	46646.88
567.03	46024.29
567.19	46642.20
567.36	46490.06
567.52	46508.79
567.68	46476.02
567.85	46614.11
568.01	46960.51
568.17	46120.26
568.34	47178.18
568.50	46003.23
568.66	46286.43
568.83	46782.63
568.99	46649.22
569.15	46637.51
569.32	46595.38
569.48	46714.75
569.64	46887.95
569.81	46733.48
569.97	46831.78
570.13	47136.05
570.30	46272.39
570.46	46714.75
570.62	46738.16
570.78	46677.30
570.95	46871.57
571.11	47107.96
571.27	46967.53
571.43	47009.66
571.60	46616.45
571.76	46663.26
571.92	46508.79
572.09	46415.16
572.25	46632.83
572.41	46485.38
572.57	46520.49
572.74	47007.32
572.90	47131.37
573.06	46780.29
573.22	47140.73
573.38	46932.42
573.55	47236.69
573.71	47812.46
573.87	47239.03
574.03	47051.79
574.20	47426.28
574.36	47522.24
574.52	47037.75
574.68	47051.79
574.84	47288.18
575.01	47232.01
575.17	47227.33
575.33	47288.18
575.49	46869.23
575.65	47056.47
575.82	47168.82
575.98	47079.88
576.14	47049.45
576.30	47232.01
576.46	47021.36
576.62	47358.40
576.79	46983.91
576.95	46976.89
577.11	47159.45
577.27	46698.37
577.43	47402.87
577.59	47356.06
577.75	47021.36
577.92	47292.86
578.08	47105.62
578.24	47033.07
578.40	47459.04
578.56	47393.51
578.72	47154.77
578.88	47068.17
579.04	47611.18
579.21	46810.71
579.37	47236.69
579.53	47929.49
579.69	47019.02
579.85	46918.38
580.01	47203.92
580.17	47288.18
580.33	47435.64
580.49	47604.16
580.65	47578.41
580.82	46962.85
580.98	47173.50
581.14	46848.16
581.30	47395.85
581.46	47461.38
581.62	47072.85
581.78	47019.02
581.94	47639.26
582.10	47655.65
582.26	47386.49
582.42	47295.21
582.58	47531.60
582.74	47529.26
582.90	47224.99
583.06	47309.25
583.22	47196.90
583.38	47320.95
583.54	47393.51
583.70	47636.92
583.86	47550.32
584.02	47339.68
584.18	47725.86
584.34	47510.53
584.50	47777.36
584.66	47665.01
584.82	47613.52
584.98	47732.89
585.14	47679.05
585.30	47452.02
585.46	47435.64
585.62	47117.32
585.78	47545.64
585.94	47171.16
586.10	47943.53
586.26	47440.32
586.42	47583.09
586.58	47489.47
586.74	47281.16
586.90	47782.04
587.06	47381.80
587.22	47437.98
587.38	47159.45
587.54	47702.46
587.70	47859.27
587.86	47707.14
588.02	47461.38
588.18	47868.64
588.34	47419.25
588.49	47447.34
588.65	47667.35
588.81	47683.73
588.97	47580.75
589.13	47370.10
589.29	47906.08
589.45	48231.42
589.61	47849.91
589.77	47927.15
589.93	47817.14
590.08	47775.02
