SpectraSuite Data File
++++++++++++++++++++++++++++++++++++
Date: Fri Oct 25 11:34:09 EDT 2013
User: price-jones
Dark Spectrum Present: No
Reference Spectrum Present: No
Number of Sampled Component Spectra: 1
Spectrometers: USB2+H05261
Integration Time (usec): 100000 (USB2+H05261)
Spectra Averaged: 1 (USB2+H05261)
Boxcar Smoothing: 0 (USB2+H05261)
Correct for Electrical Dark: No (USB2+H05261)
Strobe/Lamp Enabled: No (USB2+H05261)
Correct for Detector Non-linearity: No (USB2+H05261)
Correct for Stray Light: No (USB2+H05261)
Number of Pixels in Processed Spectrum: 2048
>>>>>Begin Processed Spectral Data<<<<<
365.73	290.23
365.92	290.23
366.12	290.23
366.32	184.90
366.52	182.56
366.72	170.86
366.91	145.11
367.11	224.69
367.31	154.48
367.51	161.50
367.70	95.96
367.90	177.88
368.10	198.95
368.30	236.39
368.49	149.79
368.69	194.26
368.89	140.43
369.09	203.63
369.28	313.63
369.48	175.54
369.68	229.37
369.87	266.82
370.07	229.37
370.27	341.72
370.47	388.53
370.66	500.87
370.86	491.51
371.06	543.00
371.25	580.45
371.45	559.39
371.65	645.99
371.84	573.43
372.04	610.88
372.24	568.75
372.44	589.82
372.63	589.82
372.83	594.50
373.03	655.35
373.22	533.64
373.42	622.58
373.62	582.79
373.81	606.20
374.01	599.18
374.21	676.41
374.40	676.41
374.60	671.73
374.79	580.45
374.99	653.01
375.19	685.78
375.38	627.26
375.58	592.16
375.78	657.69
375.97	685.78
376.17	746.63
376.37	629.60
376.56	709.18
376.76	653.01
376.95	634.29
377.15	629.60
377.35	727.91
377.54	711.52
377.74	650.67
377.93	723.23
378.13	688.12
378.33	725.57
378.52	746.63
378.72	681.10
378.91	718.54
379.11	678.76
379.31	699.82
379.50	704.50
379.70	746.63
379.89	713.86
380.09	667.05
380.28	786.42
380.48	746.63
380.68	723.23
380.87	779.40
381.07	711.52
381.26	734.93
381.46	781.74
381.65	737.27
381.85	676.41
382.04	751.31
382.24	779.40
382.43	791.10
382.63	755.99
382.83	727.91
383.02	800.46
383.22	781.74
383.41	755.99
383.61	866.00
383.80	758.33
384.00	802.80
384.19	847.27
384.39	800.46
384.58	800.46
384.78	844.93
384.97	795.78
385.17	830.89
385.36	835.57
385.56	786.42
385.75	732.59
385.95	741.95
386.14	896.43
386.34	835.57
386.53	784.08
386.72	840.25
386.92	847.27
387.11	884.72
387.31	903.45
387.50	884.72
387.70	856.64
387.89	863.66
388.09	847.27
388.28	823.87
388.48	945.58
388.67	882.38
388.86	910.47
389.06	917.49
389.25	819.19
389.45	950.26
389.64	856.64
389.84	952.60
390.03	891.74
390.22	973.66
390.42	936.21
390.61	952.60
390.81	961.96
391.00	1015.79
391.19	1006.43
391.39	987.71
391.58	1050.90
391.78	980.68
391.97	952.60
392.16	992.39
392.36	1013.45
392.55	971.32
392.75	1013.45
392.94	1015.79
393.13	992.39
393.33	1048.56
393.52	999.41
393.71	1025.15
393.91	1097.71
394.10	1146.86
394.29	997.07
394.49	1029.84
394.68	1076.65
394.88	1116.44
395.07	1125.80
395.26	1116.44
395.46	1107.07
395.65	1125.80
395.84	1172.61
396.04	1221.76
396.23	1200.69
396.42	1097.71
396.62	1212.40
396.81	1221.76
397.00	1160.91
397.19	1160.91
397.39	1261.55
397.58	1231.12
397.77	1207.72
397.97	1287.29
398.16	1177.29
398.35	1287.29
398.55	1327.08
398.74	1221.76
398.93	1390.28
399.12	1282.61
399.32	1240.48
399.51	1343.47
399.70	1320.06
399.90	1345.81
400.09	1401.98
400.28	1371.55
400.47	1359.85
400.67	1380.92
400.86	1411.34
401.05	1411.34
401.24	1364.53
401.44	1430.07
401.63	1350.49
401.82	1423.05
402.01	1336.45
402.21	1390.28
402.40	1387.94
402.59	1432.41
402.78	1409.00
402.97	1493.26
403.17	1558.80
403.36	1528.37
403.55	1554.12
403.74	1488.58
403.93	1575.18
404.13	1586.88
404.32	1584.54
404.51	1533.05
404.70	1507.30
404.89	1558.80
405.09	1664.12
405.28	1558.80
405.47	1643.06
405.66	1689.87
405.85	1666.46
406.05	1673.48
406.24	1657.10
406.43	1736.68
406.62	1785.83
406.81	1813.92
407.00	1694.55
407.20	1680.50
407.39	1710.93
407.58	1748.38
407.77	1792.85
407.96	1724.97
408.15	1846.68
408.34	1893.49
408.54	1804.55
408.73	1905.20
408.92	1977.75
409.11	2045.63
409.30	1905.20
409.49	1870.09
409.68	1846.68
409.87	2010.52
410.07	2052.65
410.26	2057.33
410.45	1987.11
410.64	1996.48
410.83	2012.86
411.02	2059.67
411.21	2115.84
411.40	2092.44
411.59	2155.63
411.78	2066.69
411.98	2155.63
412.17	2167.34
412.36	2113.50
412.55	2214.15
412.74	2223.51
412.93	2300.75
413.12	2246.91
413.31	2354.58
413.50	2352.24
413.69	2300.75
413.88	2422.45
414.07	2408.41
414.26	2396.71
414.45	2361.60
414.64	2368.62
414.83	2527.78
415.02	2572.25
415.22	2546.50
415.41	2635.44
415.60	2693.96
415.79	2637.78
415.98	2705.66
416.17	2616.72
416.36	2644.81
416.55	2649.49
416.74	2703.32
416.93	2684.59
417.12	2747.79
417.31	2731.41
417.50	2672.89
417.69	2885.88
417.88	2862.48
418.07	2913.97
418.26	2995.89
418.45	2881.20
418.64	3110.57
418.83	3059.08
419.02	2925.67
419.21	3028.65
419.39	3049.72
419.58	3066.10
419.77	3030.99
419.96	3115.25
420.15	3145.68
420.34	3005.25
420.53	3052.06
420.72	3260.37
420.91	3070.78
421.10	3164.40
421.29	3229.94
421.48	3227.60
421.67	3180.79
421.86	3155.04
422.05	3201.85
422.24	3129.30
422.43	3192.49
422.61	3384.41
422.80	3452.29
422.99	3304.84
423.18	3279.09
423.37	3208.87
423.56	3332.92
423.75	3330.58
423.94	3155.04
424.13	3138.66
424.32	3225.26
424.50	3375.05
424.69	3494.42
424.88	3449.95
425.07	3344.63
425.26	3421.86
425.45	3426.54
425.64	3269.73
425.83	3356.33
426.01	3463.99
426.20	3499.10
426.39	3487.40
426.58	3384.41
426.77	3372.71
426.96	3559.95
427.15	3393.78
427.33	3492.08
427.52	3356.33
427.71	3506.12
427.90	3676.98
428.09	3618.47
428.28	3583.36
428.46	3616.13
428.65	3639.53
428.84	3634.85
429.03	3611.45
429.22	3538.89
429.40	3665.28
429.59	3866.56
429.78	3538.89
429.97	3606.77
430.16	3627.83
430.34	3864.22
430.53	3770.60
430.72	3747.20
430.91	3843.16
431.10	3740.18
431.28	3817.41
431.47	3911.04
431.66	4018.70
431.85	3932.10
432.03	3990.61
432.22	4037.42
432.41	3995.29
432.60	3978.91
432.79	3922.74
432.97	4084.23
433.16	4032.74
433.35	3892.31
433.54	3978.91
433.72	4049.13
433.91	4138.07
434.10	3990.61
434.28	3843.16
434.47	4147.43
434.66	4217.65
434.85	4196.58
435.03	4100.62
435.22	4163.81
435.41	4393.19
435.59	4231.69
435.78	4294.88
435.97	4299.56
436.16	4102.96
436.34	4231.69
436.53	4318.29
436.72	4376.80
436.90	4210.62
437.09	4454.04
437.28	4353.40
437.46	4395.53
437.65	4475.10
437.84	4571.07
438.02	4510.21
438.21	4498.51
438.40	4458.72
438.58	4475.10
438.77	4683.41
438.96	4566.39
439.14	4599.15
439.33	4641.28
439.52	4812.14
439.70	4821.50
439.89	4898.74
440.08	4894.06
440.26	4887.04
440.45	4772.35
440.63	4889.38
440.82	4959.60
441.01	4990.02
441.19	5078.96
441.38	5029.81
441.57	5142.16
441.75	5203.01
441.94	5247.48
442.12	5191.31
442.31	5345.78
442.50	5172.58
442.68	5228.76
442.87	5394.93
443.05	5394.93
443.24	5392.59
443.43	5163.22
443.61	5416.00
443.80	5444.09
443.98	5179.61
444.17	5219.39
444.35	5430.04
444.54	5584.52
444.73	5345.78
444.91	5497.92
445.10	5448.77
445.28	5460.47
445.47	5383.23
445.65	5343.44
445.84	5713.25
446.02	5748.36
446.21	5556.43
446.39	5556.43
446.58	5614.95
446.77	5535.37
446.95	5399.62
447.14	5610.26
447.32	5579.84
447.51	5722.61
447.69	5621.97
447.88	5727.29
448.06	5692.18
448.25	5621.97
448.43	5582.18
448.62	5561.11
448.80	5568.13
448.99	5666.44
449.17	5893.47
449.36	5593.88
449.54	5785.80
449.73	5980.07
449.91	5928.58
450.10	5823.25
450.28	5872.40
450.46	6101.78
450.65	6108.80
450.83	6054.97
451.02	6036.24
451.20	6017.52
451.39	5926.24
451.57	6012.84
451.76	5975.39
451.94	5973.05
452.13	6033.90
452.31	6101.78
452.49	5991.77
452.68	6043.26
452.86	6157.95
453.05	6129.86
453.23	6244.55
453.42	6232.85
453.60	6050.28
453.78	6265.61
453.97	6221.14
454.15	6157.95
454.34	6148.59
454.52	6296.04
454.70	6319.45
454.89	6349.87
455.07	6338.17
455.26	6448.18
455.44	6733.72
455.62	6537.12
455.81	6583.93
455.99	6581.59
456.17	6682.23
456.36	6635.42
456.54	6780.53
456.73	6670.53
456.91	6881.18
457.09	6906.92
457.28	6853.09
457.46	6787.55
457.64	6855.43
457.83	7007.56
458.01	6799.26
458.19	7096.50
458.38	6939.69
458.56	6970.12
458.74	7061.40
458.93	7063.74
459.11	6960.75
459.29	7225.23
459.48	7105.87
459.66	7159.70
459.84	7328.22
460.03	7236.94
460.21	7208.85
460.39	7105.87
460.57	7342.26
460.76	7140.97
460.94	7302.47
461.12	7314.17
461.31	7393.75
461.49	7358.64
461.67	7323.54
461.85	7592.70
462.04	7424.18
462.22	7845.48
462.40	7571.63
462.59	7606.74
462.77	7541.21
462.95	7726.11
463.13	7550.57
463.32	7552.91
463.50	7707.38
463.68	7803.35
463.86	7714.41
464.05	7559.93
464.23	7775.26
464.41	7646.53
464.59	7793.98
464.78	7967.18
464.96	7805.69
465.14	7751.85
465.32	7950.80
465.50	7791.64
465.69	7868.88
465.87	7808.03
466.05	7878.24
466.23	8035.06
466.41	7894.63
466.60	7948.46
466.78	8004.63
466.96	7906.33
467.14	8140.38
467.32	7868.88
467.51	8205.92
467.69	7831.43
467.87	8131.02
468.05	8234.00
468.23	8124.00
468.41	8147.40
468.60	8255.07
468.78	8248.05
468.96	8161.45
469.14	8255.07
469.32	8432.95
469.50	8243.37
469.69	8381.46
469.87	8390.82
470.05	8381.46
470.23	8667.00
470.41	8454.02
470.59	8650.62
470.77	8479.76
470.95	8643.60
471.14	8671.68
471.32	8557.00
471.50	8737.22
471.68	9022.77
471.86	8671.68
472.04	9095.32
472.22	8975.95
472.40	8924.46
472.58	8950.21
472.77	8994.68
472.95	9153.84
473.13	9387.89
473.31	9118.73
473.49	9057.87
473.67	9151.49
473.85	9289.59
474.03	9521.30
474.21	9298.95
474.39	9542.36
474.57	9575.13
474.75	9369.16
474.93	9528.32
475.12	9783.44
475.30	9750.67
475.48	9497.89
475.66	9720.24
475.84	9738.97
476.02	9933.23
476.20	9970.68
476.38	10022.17
476.56	10436.45
476.74	10148.56
476.92	10186.01
477.10	10239.84
477.28	10497.30
477.46	10429.43
477.64	10263.25
477.82	10621.35
478.00	10628.37
478.18	10567.52
478.36	10827.32
478.54	10775.83
478.72	11047.33
478.90	11272.02
479.08	11300.11
479.26	11431.18
479.44	11531.82
479.62	11442.88
479.80	11480.33
479.98	11812.68
480.16	11896.94
480.34	11822.05
480.52	11941.41
480.70	11829.07
480.88	11761.19
481.06	11941.41
481.24	12126.32
481.41	12297.17
481.59	12205.89
481.77	12423.56
481.95	12484.42
482.13	12856.56
482.31	12538.25
482.49	13123.38
482.67	13013.38
482.85	13214.66
483.03	13219.35
483.21	13397.23
483.39	13593.83
483.57	13249.77
483.74	13516.59
483.92	13275.52
484.10	13591.49
484.28	13921.51
484.46	13792.78
484.64	14209.39
484.82	13998.74
485.00	14183.65
485.18	14534.73
485.35	14710.27
485.53	14499.62
485.71	14485.58
485.89	14855.38
486.07	14862.40
486.25	15159.65
486.43	15143.27
486.61	15166.67
486.78	15417.11
486.96	15318.81
487.14	15695.63
487.32	15850.11
487.50	15824.36
487.68	15995.22
487.85	16142.67
488.03	16311.19
488.21	16601.42
488.39	16479.71
488.57	16695.04
488.75	16716.11
488.92	16971.22
489.10	16931.44
489.28	16922.07
489.46	17085.91
489.64	17149.11
489.81	17628.92
489.99	17245.07
490.17	17696.79
490.35	17795.09
490.53	17994.04
490.70	18274.90
490.88	18136.81
491.06	18410.65
491.24	18181.28
491.41	18373.21
491.59	18579.17
491.77	18700.88
491.95	18934.93
492.13	19145.58
492.30	19386.66
492.48	19138.56
492.66	19103.45
492.84	19337.51
493.01	19639.44
493.19	19538.79
493.37	19763.48
493.54	19690.93
493.72	19922.64
493.90	20163.72
494.08	20177.76
494.25	20280.74
494.43	20613.10
494.61	20657.57
494.79	20528.84
494.96	20610.76
495.14	20762.89
495.32	21029.71
495.49	21359.73
495.67	21235.68
495.85	21528.25
496.02	21369.09
496.20	21521.23
496.38	21453.35
496.55	21816.13
496.73	22258.49
496.91	22068.91
497.09	22160.19
497.26	22370.84
497.44	22169.55
497.62	22272.54
497.79	22567.45
497.97	22654.05
498.14	22712.56
498.32	22815.54
498.50	22792.14
498.67	23157.26
498.85	23190.03
499.03	23424.08
499.20	23360.89
499.38	23367.91
499.56	23311.74
499.73	23674.52
499.91	24002.19
500.08	24079.43
500.26	23697.92
500.44	23871.12
500.61	24140.29
500.79	23985.81
500.97	24231.57
501.14	24903.30
501.32	24697.33
501.49	24367.32
501.67	24491.37
501.84	24999.26
502.02	24676.27
502.20	24709.04
502.37	25046.07
502.55	24676.27
502.72	25097.56
502.90	25202.89
503.07	25373.75
503.25	24828.40
503.43	25385.45
503.60	25603.12
503.78	25762.28
503.95	25523.54
504.13	25722.49
504.30	26113.36
504.48	25942.50
504.65	25778.66
504.83	26057.18
505.01	26434.01
505.18	26230.38
505.36	26375.50
505.53	26038.46
505.71	26604.87
505.88	26698.49
506.06	26719.56
506.23	27061.27
506.41	26785.09
506.58	27108.08
506.76	26995.74
506.93	26724.24
507.11	27096.38
507.28	27421.72
507.46	27449.80
507.63	27412.35
507.81	27536.40
507.98	27431.08
508.16	27522.36
508.33	27655.77
508.50	27800.88
508.68	27793.86
508.85	28343.89
509.03	27789.18
509.20	28446.87
509.38	28446.87
509.55	28474.96
509.73	28545.17
509.90	28173.03
510.08	28428.15
510.25	28786.25
510.42	28512.41
510.60	28889.23
510.77	28758.16
510.95	29275.42
511.12	28966.47
511.30	28961.79
511.47	28889.23
511.64	29284.78
511.82	29827.79
511.99	29385.43
512.17	29839.49
512.34	29277.76
512.51	29940.13
512.69	29905.02
512.86	30038.44
513.04	29940.13
513.21	30181.21
513.38	30073.54
513.56	30338.02
513.73	29912.05
513.90	30347.39
514.08	30478.46
514.25	30625.91
514.43	30405.90
514.60	30321.64
514.77	30450.37
514.95	30808.47
515.12	30377.81
515.29	31056.57
515.47	31330.41
515.64	31173.60
515.81	31000.40
515.99	31323.39
516.16	31349.14
516.33	31426.37
516.51	31496.59
516.68	31424.03
516.85	31655.75
517.03	31709.58
517.20	31601.91
517.37	31798.52
517.54	31634.68
517.72	31819.58
517.89	31981.08
518.06	32343.86
518.24	32067.68
518.41	32465.57
518.58	32247.90
518.75	32229.18
518.93	32456.21
519.10	32189.39
519.27	32341.52
519.45	32669.20
519.62	32561.53
519.79	32390.67
519.96	33111.56
520.14	32891.55
520.31	32744.09
520.48	33081.13
520.65	32961.76
520.83	33511.79
521.00	33532.86
521.17	32980.49
521.34	33373.70
521.52	33741.16
521.69	33528.17
521.86	33954.15
522.03	33961.17
522.20	34092.24
522.38	34382.47
522.55	34106.29
522.72	33783.29
522.89	33858.19
523.07	34038.41
523.24	34260.76
523.41	34256.08
523.58	33979.90
523.75	34204.59
523.92	34373.11
524.10	34543.97
524.27	34492.47
524.44	34663.33
524.61	34871.64
524.78	34663.33
524.96	34848.24
525.13	35117.40
525.30	35246.13
525.47	35089.31
525.64	34609.50
525.81	35398.26
525.98	35314.00
526.16	35344.43
526.33	35667.42
526.50	35309.32
526.67	35152.51
526.84	35463.80
527.01	35714.23
527.18	35747.00
527.36	35732.96
527.53	35749.34
527.70	36259.58
527.87	36243.20
528.04	36027.87
528.21	35913.18
528.38	36332.14
528.55	35847.64
528.72	36151.91
528.89	36264.26
529.07	35648.70
529.24	36105.10
529.41	36233.83
529.58	36727.69
529.75	36510.02
529.92	36727.69
530.09	36470.23
530.26	36744.07
530.43	36627.04
530.60	36407.03
530.77	36804.92
530.94	36643.43
531.11	36418.74
531.28	36556.83
531.46	36790.88
531.63	37584.32
531.80	36762.79
531.97	37418.14
532.14	37462.61
532.31	36994.51
532.48	37661.56
532.65	37584.32
532.82	37500.06
532.99	37729.44
533.16	37574.96
533.33	37937.74
533.50	37385.38
533.67	37811.35
533.84	37621.77
534.01	37301.12
534.18	38003.28
534.35	38438.62
534.52	37635.81
534.69	38387.13
534.86	38387.13
535.03	37706.03
535.20	37886.25
535.37	38653.95
535.54	38424.57
535.71	38389.47
535.88	38377.76
536.05	39065.88
536.22	38581.39
536.38	38759.27
536.55	38178.82
536.72	38429.26
536.89	38607.14
537.06	38862.26
537.23	38955.88
537.40	38597.77
537.57	38443.30
537.74	38810.76
537.91	39143.12
538.08	38880.98
538.25	38909.07
538.42	39002.69
538.59	39377.17
538.75	38927.79
538.92	39225.04
539.09	39325.68
539.26	39445.05
539.43	38993.32
539.60	39571.44
539.77	39367.81
539.94	39367.81
540.11	39489.52
540.28	39564.42
540.44	39688.46
540.61	39498.88
540.78	39688.46
540.95	39875.71
541.12	39660.38
541.29	39824.22
541.46	39990.39
541.62	39873.37
541.79	40076.99
541.96	39812.51
542.13	39700.17
542.30	40201.04
542.47	40219.77
542.63	40121.46
542.80	40968.74
542.97	40935.97
543.14	40301.68
543.31	40385.94
543.48	40788.52
543.64	40793.20
543.81	40739.36
543.98	40708.94
544.15	40734.68
544.32	40912.56
544.48	41155.98
544.65	41148.96
544.82	41191.09
544.99	41029.59
545.16	40994.48
545.32	41163.00
545.49	41446.21
545.66	41642.81
545.83	41191.09
546.00	41230.88
546.16	41771.54
546.33	41333.86
546.50	41214.49
546.67	41656.85
546.83	41198.11
547.00	41216.83
547.17	41132.57
547.34	41500.04
547.50	41713.03
547.67	41965.81
547.84	41546.85
548.00	41937.72
548.17	42157.73
548.34	42036.02
548.51	42101.56
548.67	42253.69
548.84	42122.62
549.01	41855.80
549.18	41797.29
549.34	42202.20
549.51	42204.54
549.68	42052.41
549.84	42515.83
550.01	42223.26
550.18	42115.60
550.34	42382.42
550.51	42506.47
550.68	42696.05
550.84	42103.90
551.01	42698.39
551.18	42614.13
551.34	42504.13
551.51	42658.60
551.68	42267.73
551.84	42810.74
552.01	42464.34
552.18	42731.16
552.34	42623.50
552.51	42866.91
552.68	42939.47
552.84	42628.18
553.01	43021.39
553.18	42820.10
553.34	42899.68
553.51	42972.24
553.67	43428.64
553.84	43386.51
554.01	43040.11
554.17	43098.62
554.34	43452.05
554.51	43058.84
554.67	43400.55
554.84	43246.08
555.00	43189.91
555.17	43416.94
555.33	43606.52
555.50	43325.66
555.67	43430.98
555.83	43566.73
556.00	43538.65
556.16	43716.53
556.33	43728.23
556.50	43791.42
556.66	43367.79
556.83	43208.63
556.99	43992.71
557.16	44074.63
557.32	43833.55
557.49	43761.00
557.65	43353.74
557.82	43503.54
557.98	43557.37
558.15	43636.95
558.32	43931.86
558.48	43793.76
558.65	43899.09
558.81	44217.40
558.98	43798.44
559.14	43959.94
559.31	44151.87
559.47	43550.35
559.64	43948.24
559.80	43889.73
559.97	44292.30
560.13	44182.29
560.30	44498.26
560.46	44514.65
560.63	44608.27
560.79	44378.90
560.96	44575.50
561.12	44360.17
561.29	44444.43
561.45	44315.70
561.61	44250.17
561.78	44217.40
561.94	44081.65
562.11	44779.13
562.27	44472.52
562.44	44259.53
562.60	44641.04
562.77	44603.59
562.93	44500.61
563.10	44547.42
563.26	44772.11
563.42	45132.55
563.59	44655.08
563.75	44521.67
563.92	44446.77
564.08	44762.75
564.24	44549.76
564.41	44552.10
564.57	44964.03
564.74	44741.68
564.90	44556.78
565.07	44947.65
565.23	44470.18
565.39	44788.49
565.56	45401.71
565.72	44856.37
565.88	44900.84
566.05	44790.83
566.21	44734.66
566.38	45083.40
566.54	45015.52
566.70	45202.77
566.87	45059.99
567.03	44800.19
567.19	45272.98
567.36	45146.59
567.52	45088.08
567.68	45282.34
567.85	44994.46
568.01	45146.59
568.17	44996.80
568.34	45574.91
568.50	45579.59
568.66	44652.74
568.83	44959.35
568.99	45282.34
569.15	45113.83
569.32	45272.98
569.48	45099.78
569.64	45422.78
569.81	45422.78
569.97	44924.24
570.13	45528.10
570.30	45312.77
570.46	45057.65
570.62	45684.92
570.78	45745.77
570.95	45251.92
571.11	45883.86
571.27	45324.47
571.43	45502.35
571.60	45478.95
571.76	45731.73
571.92	45050.63
572.09	45610.02
572.25	45429.80
572.41	45476.61
572.57	45511.72
572.74	46031.32
572.90	45268.30
573.06	45977.48
573.22	45977.48
573.38	45954.08
573.55	45155.96
573.71	46124.94
573.87	45794.92
574.03	45787.90
574.20	45701.30
574.36	45745.77
574.52	45815.99
574.68	45769.18
574.84	45691.94
575.01	45951.74
575.17	45764.49
575.33	45804.28
575.49	45476.61
575.65	46038.34
575.82	46141.32
575.98	45343.20
576.14	46220.90
576.30	45930.67
576.46	45668.53
576.62	45301.07
576.79	45769.18
576.95	45181.70
577.11	45673.21
577.27	45916.63
577.43	45998.55
577.59	45710.66
577.75	45579.59
577.92	45551.51
578.08	45649.81
578.24	45542.14
578.40	46302.82
578.56	45804.28
578.72	45799.60
578.88	45862.80
579.04	46227.92
579.21	45689.60
579.37	45577.25
579.53	46052.38
579.69	45848.75
579.85	45666.19
580.01	45925.99
580.17	45813.65
580.33	46129.62
580.49	45893.22
580.65	45890.88
580.82	46206.86
580.98	45684.92
581.14	45516.40
581.30	45705.98
581.46	46031.32
581.62	46075.79
581.78	45523.42
581.94	46260.69
582.10	45773.86
582.26	46340.27
582.42	46057.06
582.58	45907.27
582.74	45982.16
582.90	46012.59
583.06	46335.59
583.22	46108.55
583.38	46028.98
583.54	46073.45
583.70	45888.54
583.86	45815.99
584.02	45727.05
584.18	45752.79
584.34	46529.85
584.50	46138.98
584.66	46403.46
584.82	46337.93
584.98	46234.94
585.14	46218.56
585.30	45818.33
585.46	46211.54
585.62	45890.88
585.78	45989.19
585.94	45940.04
586.10	46108.55
586.26	45830.03
586.42	46089.83
586.58	45956.42
586.74	45818.33
586.90	46248.99
587.06	45989.19
587.22	46351.97
587.38	46213.88
587.54	46033.66
587.70	46349.63
587.86	46061.74
588.02	46014.93
588.18	46375.37
588.34	46244.30
588.49	46593.04
588.65	46258.35
588.81	46483.04
588.97	46815.40
589.13	46115.58
589.29	46043.02
589.45	46721.77
589.61	46237.28
589.77	46471.34
589.93	46071.10
590.08	46951.15
