SpectraSuite Data File
++++++++++++++++++++++++++++++++++++
Date: Fri Oct 25 11:33:59 EDT 2013
User: price-jones
Dark Spectrum Present: No
Reference Spectrum Present: No
Number of Sampled Component Spectra: 1
Spectrometers: USB2+H05261
Integration Time (usec): 100000 (USB2+H05261)
Spectra Averaged: 1 (USB2+H05261)
Boxcar Smoothing: 0 (USB2+H05261)
Correct for Electrical Dark: No (USB2+H05261)
Strobe/Lamp Enabled: No (USB2+H05261)
Correct for Detector Non-linearity: No (USB2+H05261)
Correct for Stray Light: No (USB2+H05261)
Number of Pixels in Processed Spectrum: 2048
>>>>>Begin Processed Spectral Data<<<<<
365.73	278.52
365.92	278.52
366.12	278.52
366.32	220.01
366.52	180.22
366.72	212.99
366.91	224.69
367.11	201.29
367.31	156.82
367.51	154.48
367.70	161.50
367.90	114.69
368.10	163.84
368.30	187.24
368.49	46.81
368.69	203.63
368.89	140.43
369.09	140.43
369.28	238.73
369.48	182.56
369.68	320.65
369.87	243.42
370.07	238.73
370.27	299.59
370.47	330.02
370.66	472.79
370.86	496.19
371.06	624.92
371.25	603.86
371.45	557.05
371.65	554.71
371.84	503.22
372.04	571.09
372.24	592.16
372.44	641.31
372.63	582.79
372.83	573.43
373.03	578.11
373.22	545.34
373.42	660.03
373.62	641.31
373.81	660.03
374.01	645.99
374.21	660.03
374.40	587.47
374.60	622.58
374.79	636.63
374.99	702.16
375.19	636.63
375.38	645.99
375.58	592.16
375.78	704.50
375.97	779.40
376.17	706.84
376.37	669.39
376.56	702.16
376.76	681.10
376.95	643.65
377.15	720.88
377.35	727.91
377.54	688.12
377.74	725.57
377.93	732.59
378.13	664.71
378.33	734.93
378.52	699.82
378.72	753.65
378.91	704.50
379.11	791.10
379.31	645.99
379.50	732.59
379.70	720.88
379.89	690.46
380.09	671.73
380.28	711.52
380.48	641.31
380.68	809.83
380.87	676.41
381.07	751.31
381.26	784.08
381.46	741.95
381.65	793.44
381.85	795.78
382.04	795.78
382.24	791.10
382.43	779.40
382.63	765.36
382.83	861.32
383.02	814.51
383.22	851.96
383.41	833.23
383.61	833.23
383.80	844.93
384.00	873.02
384.19	840.25
384.39	840.25
384.58	798.12
384.78	795.78
384.97	770.04
385.17	793.44
385.36	903.45
385.56	784.08
385.75	842.59
385.95	814.51
386.14	875.36
386.34	908.13
386.53	791.10
386.72	882.38
386.92	933.87
387.11	912.81
387.31	908.13
387.50	854.30
387.70	901.11
387.89	814.51
388.09	877.70
388.28	807.48
388.48	854.30
388.67	973.66
388.86	931.53
389.06	915.15
389.25	910.47
389.45	943.24
389.64	912.81
389.84	896.43
390.03	903.45
390.22	964.30
390.42	905.79
390.61	961.96
390.81	901.11
391.00	926.85
391.19	1050.90
391.39	940.90
391.58	1015.79
391.78	980.68
391.97	1011.11
392.16	1004.09
392.36	1046.22
392.55	1067.28
392.75	1064.94
392.94	1055.58
393.13	1043.88
393.33	997.07
393.52	1050.90
393.71	1139.84
393.91	1128.14
394.10	971.32
394.29	1086.01
394.49	1015.79
394.68	1060.26
394.88	1121.12
395.07	1081.33
395.26	1153.88
395.46	1071.97
395.65	1170.27
395.84	1172.61
396.04	1210.06
396.23	1186.65
396.42	1247.51
396.62	1188.99
396.81	1238.14
397.00	1123.46
397.19	1261.55
397.39	1196.01
397.58	1228.78
397.77	1252.19
397.97	1252.19
398.16	1284.95
398.35	1242.82
398.55	1291.98
398.74	1327.08
398.93	1355.17
399.12	1324.74
399.32	1322.40
399.51	1322.40
399.70	1383.26
399.90	1275.59
400.09	1259.21
400.28	1411.34
400.47	1334.11
400.67	1409.00
400.86	1284.95
401.05	1413.68
401.24	1390.28
401.44	1387.94
401.63	1406.66
401.82	1369.21
402.01	1371.55
402.21	1507.30
402.40	1472.20
402.59	1399.64
402.78	1451.13
402.97	1526.03
403.17	1476.88
403.36	1465.18
403.55	1565.82
403.74	1575.18
403.93	1521.35
404.13	1509.65
404.32	1671.14
404.51	1607.95
404.70	1605.61
404.89	1565.82
405.09	1650.08
405.28	1703.91
405.47	1685.19
405.66	1600.93
405.85	1657.10
406.05	1675.82
406.24	1661.78
406.43	1753.06
406.62	1837.32
406.81	1809.23
407.00	1757.74
407.20	1795.19
407.39	1741.36
407.58	1783.49
407.77	1797.53
407.96	1893.49
408.15	1799.87
408.34	1863.07
408.54	1877.11
408.73	1790.51
408.92	1937.96
409.11	1863.07
409.30	2078.40
409.49	2057.33
409.68	2118.18
409.87	2134.57
410.07	2012.86
410.26	1996.48
410.45	2150.95
410.64	2050.31
410.83	2066.69
411.02	2022.22
411.21	2157.97
411.40	2043.29
411.59	2197.76
411.78	2197.76
411.98	2160.31
412.17	2172.02
412.36	2286.70
412.55	2282.02
412.74	2298.41
412.93	2321.81
413.12	2214.15
413.31	2267.98
413.50	2354.58
413.69	2420.11
413.88	2513.74
414.07	2452.88
414.26	2499.69
414.45	2464.58
414.64	2520.76
414.83	2605.02
415.02	2579.27
415.22	2583.95
415.41	2675.23
415.60	2537.14
415.79	2539.48
415.98	2733.75
416.17	2661.19
416.36	2597.99
416.55	2654.17
416.74	2726.72
416.93	2906.95
417.12	2813.32
417.31	2799.28
417.50	2794.60
417.69	2932.69
417.88	2902.26
418.07	2918.65
418.26	2949.08
418.45	2874.18
418.64	2956.10
418.83	3056.74
419.02	3016.95
419.21	3117.59
419.39	3080.14
419.58	3115.25
419.77	3021.63
419.96	3075.46
420.15	3131.64
420.34	3169.09
420.53	3094.19
420.72	3227.60
420.91	3110.57
421.10	3176.11
421.29	3325.90
421.48	3183.13
421.67	3185.47
421.86	3300.16
422.05	3304.84
422.24	3220.58
422.43	3253.34
422.61	3379.73
422.80	3358.67
422.99	3337.60
423.18	3398.46
423.37	3346.97
423.56	3288.45
423.75	3440.59
423.94	3307.18
424.13	3157.38
424.32	3241.64
424.50	3442.93
424.69	3461.65
424.88	3454.63
425.07	3496.76
425.26	3428.88
425.45	3480.38
425.64	3471.01
425.83	3433.57
426.01	3410.16
426.20	3459.31
426.39	3328.24
426.58	3414.84
426.77	3529.53
426.96	3496.76
427.15	3496.76
427.33	3517.83
427.52	3545.91
427.71	3625.49
427.90	3602.08
428.09	3564.64
428.28	3632.51
428.46	3581.02
428.65	3625.49
428.84	3679.32
429.03	3737.84
429.22	3604.42
429.40	3658.26
429.59	3719.11
429.78	3616.13
429.97	3662.94
430.16	3861.88
430.34	3953.16
430.53	3737.84
430.72	3857.20
430.91	3882.95
431.10	3744.86
431.28	3899.33
431.47	3805.71
431.66	3901.67
431.85	3904.01
432.03	3896.99
432.22	4007.00
432.41	4084.23
432.60	4032.74
432.79	4067.85
432.97	3988.27
433.16	4046.79
433.35	4161.47
433.54	3992.95
433.72	4142.75
433.91	4128.70
434.10	4173.18
434.28	4107.64
434.47	4222.33
434.66	4248.07
434.85	4353.40
435.03	4257.43
435.22	4236.37
435.41	4423.61
435.59	4496.17
435.78	4430.63
435.97	4404.89
436.16	4320.63
436.34	4315.95
436.53	4339.35
436.72	4498.51
436.90	4358.08
437.09	4444.68
437.28	4341.69
437.46	4409.57
437.65	4461.06
437.84	4512.55
438.02	4580.43
438.21	4709.16
438.40	4402.55
438.58	4737.24
438.77	4858.95
438.96	4723.20
439.14	4734.90
439.33	4774.69
439.52	5022.79
439.70	4800.44
439.89	4938.53
440.08	4990.02
440.26	5069.60
440.45	4898.74
440.63	5109.39
440.82	5240.46
441.01	5167.90
441.19	5090.67
441.38	5165.56
441.57	5298.97
441.75	5095.35
441.94	5364.51
442.12	5387.91
442.31	5369.19
442.50	5348.12
442.68	5427.70
442.87	5441.75
443.05	5453.45
443.24	5467.49
443.43	5444.09
443.61	5544.73
443.80	5572.82
443.98	5392.59
444.17	5259.18
444.35	5476.85
444.54	5607.92
444.73	5643.03
444.91	5584.52
445.10	5605.58
445.28	5530.69
445.47	5638.35
445.65	5738.99
445.84	5741.33
446.02	5678.14
446.21	5526.00
446.39	5596.22
446.58	5797.51
446.77	5783.46
446.95	5717.93
447.14	5748.36
447.32	5741.33
447.51	5598.56
447.69	5610.26
447.88	5610.26
448.06	5689.84
448.25	5659.42
448.43	5659.42
448.62	5722.61
448.80	5687.50
448.99	5841.98
449.17	5874.74
449.36	5724.95
449.54	5966.03
449.73	5919.21
449.91	6054.97
450.10	5874.74
450.28	6127.52
450.46	6092.41
450.65	6066.67
450.83	6099.44
451.02	5970.71
451.20	6008.16
451.39	6188.38
451.57	6129.86
451.76	6113.48
451.94	6223.48
452.13	6176.67
452.31	6094.76
452.49	6171.99
452.68	6132.20
452.86	6347.53
453.05	6270.30
453.23	6253.91
453.42	6277.32
453.60	6242.21
453.78	6492.65
453.97	6345.19
454.15	6361.58
454.34	6480.94
454.52	6321.79
454.70	6473.92
454.89	6555.84
455.07	6434.13
455.26	6562.86
455.44	6558.18
455.62	6534.78
455.81	6621.38
455.99	6686.91
456.17	6801.60
456.36	6642.44
456.54	6827.34
456.73	6722.02
456.91	6991.18
457.09	6817.98
457.28	7176.08
457.46	6993.52
457.64	7091.82
457.83	6878.83
458.01	7021.61
458.19	7194.81
458.38	6995.86
458.56	7157.36
458.74	7133.95
458.93	7098.84
459.11	7162.04
459.29	7066.08
459.48	7225.23
459.66	7199.49
459.84	7391.41
460.03	7407.80
460.21	7349.28
460.39	7372.69
460.57	7265.02
460.76	7274.38
460.94	7442.90
461.12	7410.14
461.31	7513.12
461.49	7241.62
461.67	7548.23
461.85	7709.72
462.04	7438.22
462.22	8002.29
462.40	7634.83
462.59	7698.02
462.77	7723.77
462.95	7765.90
463.13	7768.24
463.32	7707.38
463.50	7688.66
463.68	7709.72
463.86	7829.09
464.05	7801.01
464.23	7557.59
464.41	7719.09
464.59	7662.91
464.78	8128.68
464.96	7819.73
465.14	7765.90
465.32	8114.64
465.50	7985.91
465.69	8226.98
465.87	7927.39
466.05	7941.44
466.23	7964.84
466.41	8147.40
466.60	8231.66
466.78	7967.18
466.96	8226.98
467.14	8173.15
467.32	8182.51
467.51	8446.99
467.69	8030.38
467.87	8212.94
468.05	8116.98
468.23	8238.69
468.41	8116.98
468.60	8304.22
468.78	8552.32
468.96	8351.03
469.14	8540.61
469.32	8409.54
469.50	8369.76
469.69	8650.62
469.87	8463.38
470.05	8704.45
470.23	8786.37
470.41	8662.32
470.59	8589.77
470.77	8800.41
470.95	8720.84
471.14	8856.59
471.32	8664.66
471.50	8959.57
471.68	8718.50
471.86	8828.50
472.04	9055.53
472.22	9039.15
472.40	8856.59
472.58	9294.27
472.77	9114.05
472.95	9404.27
473.13	9568.11
473.31	9217.03
473.49	9401.93
473.67	9254.48
473.85	9329.38
474.03	9654.71
474.21	9612.58
474.39	9619.60
474.57	9717.90
474.75	9680.46
474.93	9811.53
475.12	9554.07
475.30	10122.82
475.48	9827.91
475.66	10129.84
475.84	9844.29
476.02	10054.94
476.20	10150.90
476.38	10326.44
476.56	10434.11
476.74	10230.48
476.92	10457.51
477.10	10480.92
477.28	10553.48
477.46	10593.26
477.64	10731.36
477.82	10733.70
478.00	11052.01
478.18	10972.43
478.36	11070.73
478.54	11164.36
478.72	11372.66
478.90	11225.21
479.08	11735.45
479.26	11676.93
479.44	11433.52
479.62	11808.00
479.80	11833.75
479.98	11784.60
480.16	12011.63
480.34	11892.26
480.52	12116.95
480.70	12063.12
480.88	12049.08
481.06	12336.96
481.24	12463.35
481.41	12400.16
481.59	12559.31
481.77	12475.06
481.95	12856.56
482.13	13004.02
482.31	12987.63
482.49	13032.10
482.67	13083.59
482.85	13317.65
483.03	13401.91
483.21	13589.15
483.39	13750.65
483.57	13738.94
483.74	14038.53
483.92	13855.97
484.10	13741.29
484.28	14127.47
484.46	14347.48
484.64	14431.74
484.82	14345.14
485.00	14450.47
485.18	14808.57
485.35	14895.17
485.53	14682.18
485.71	14817.93
485.89	15227.53
486.07	15143.27
486.25	15407.75
486.43	15213.48
486.61	15639.46
486.78	15742.44
486.96	15786.91
487.14	16020.97
487.32	15953.09
487.50	16140.33
487.68	16414.18
487.85	16524.18
488.03	16418.86
488.21	16563.97
488.39	16882.28
488.57	16877.60
488.75	16772.28
488.92	17282.52
489.10	17422.95
489.28	17289.54
489.46	17724.88
489.64	17324.65
489.81	17589.13
489.99	18019.78
490.17	17912.12
490.35	18146.17
490.53	18328.74
490.70	18424.70
490.88	18370.86
491.06	18637.69
491.24	18773.44
491.41	18745.35
491.59	18864.72
491.77	18841.31
491.95	19026.21
492.13	19318.78
492.30	19403.04
492.48	19683.91
492.66	19861.79
492.84	19707.31
493.01	19620.71
493.19	19983.49
493.37	19978.81
493.54	19976.47
493.72	20561.61
493.90	20130.95
494.08	20664.59
494.25	20563.95
494.43	20805.02
494.61	20816.72
494.79	20884.60
494.96	21029.71
495.14	21282.49
495.32	21528.25
495.49	21331.64
495.67	21675.70
495.85	22038.48
496.02	21972.95
496.20	22118.06
496.38	21991.67
496.55	22075.93
496.73	22799.16
496.91	22417.65
497.09	22459.78
497.26	22546.38
497.44	22583.83
497.62	22864.69
497.79	23201.73
497.97	22717.24
498.14	23433.44
498.32	23686.22
498.50	23403.02
498.67	23665.16
498.85	23484.94
499.03	23836.02
499.20	23737.71
499.38	23983.47
499.56	24215.18
499.73	24121.56
499.91	23985.81
500.08	24245.61
500.26	24416.47
500.44	24535.84
500.61	24505.41
500.79	24430.51
500.97	24713.72
501.14	25343.32
501.32	25074.16
501.49	25362.04
501.67	25298.85
501.84	25252.04
502.02	25254.38
502.20	25191.19
502.37	25532.90
502.55	25345.66
502.72	25734.19
502.90	25621.84
503.07	25886.32
503.25	25624.18
503.43	25603.12
503.60	26015.05
503.78	26361.45
503.95	26398.90
504.13	26693.81
504.30	26307.62
504.48	26183.57
504.65	26686.79
504.83	26593.17
505.01	26754.66
505.18	26890.41
505.36	27232.13
505.53	26639.98
505.71	27098.72
505.88	27133.83
506.06	26927.86
506.23	27115.11
506.41	27337.46
506.58	27428.74
506.76	27651.09
506.93	27379.59
507.11	27489.59
507.28	27606.62
507.46	27793.86
507.63	28053.66
507.81	28004.51
507.98	27887.48
508.16	28240.90
508.33	28402.40
508.50	28477.30
508.68	28718.37
508.85	28446.87
509.03	28566.24
509.20	28802.63
509.38	29046.05
509.55	29434.58
509.73	28678.58
509.90	29277.76
510.08	29029.66
510.25	29259.04
510.42	28947.75
510.60	29291.80
510.77	29827.79
510.95	29521.18
511.12	29663.95
511.30	29392.45
511.47	29926.09
511.64	29792.68
511.82	29876.94
511.99	30075.88
512.17	30286.53
512.34	29979.92
512.51	30529.95
512.69	30607.19
512.86	30249.08
513.04	30492.50
513.21	30768.68
513.38	30874.01
513.56	30569.74
513.73	30796.77
513.90	30913.80
514.08	30668.04
514.25	31246.15
514.43	31236.79
514.60	31131.47
514.77	31545.74
514.95	31665.11
515.12	31653.40
515.29	31328.07
515.47	31569.15
515.64	31845.33
515.81	31737.66
515.99	31936.61
516.16	32109.81
516.33	31824.26
516.51	32081.72
516.68	31889.80
516.85	32254.92
517.03	32126.19
517.20	32620.05
517.37	32334.50
517.54	32350.88
517.72	32149.60
517.89	32446.85
518.06	32627.07
518.24	32882.19
518.41	32264.28
518.58	32680.90
518.75	32477.27
518.93	33109.22
519.10	32994.53
519.27	33394.76
519.45	33167.73
519.62	33532.86
519.79	33399.44
519.96	33268.37
520.14	33755.21
520.31	33333.91
520.48	34115.65
520.65	33574.98
520.83	34096.92
521.00	34389.49
521.17	33675.63
521.34	34424.60
521.52	34050.11
521.69	33816.06
521.86	34075.86
522.03	34398.85
522.20	34218.63
522.38	34635.25
522.55	34323.96
522.72	34508.86
522.89	34593.12
523.07	34714.83
523.24	35075.27
523.41	35035.48
523.58	35112.72
523.75	35037.82
523.92	35108.04
524.10	35175.91
524.27	35419.33
524.44	35306.98
524.61	35234.42
524.78	35484.86
524.96	35548.06
525.13	35634.66
525.30	35761.05
525.47	35824.24
525.64	35632.32
525.81	35814.88
525.98	36077.02
526.16	35917.86
526.33	36046.59
526.50	36503.00
526.67	35688.49
526.84	36364.90
527.01	36135.53
527.18	36105.10
527.36	36737.05
527.53	36306.39
527.70	37141.96
527.87	36893.86
528.04	36584.91
528.21	36573.21
528.38	36680.88
528.55	36889.18
528.72	36840.03
528.89	36671.51
529.07	36786.20
529.24	36818.97
529.41	36982.80
529.58	37207.50
529.75	37160.69
529.92	37153.66
530.09	37376.01
530.26	37493.04
530.43	37425.17
530.60	37132.60
530.77	37565.60
530.94	37560.92
531.11	37205.16
531.28	36950.04
531.46	37619.43
531.63	38087.54
531.80	37710.71
531.97	37694.33
532.14	38026.68
532.31	37553.90
532.48	37919.02
532.65	37951.79
532.82	38007.96
532.99	38457.34
533.16	37565.60
533.33	37989.24
533.50	38417.55
533.67	38230.31
533.84	37806.67
534.01	38321.59
534.18	38199.88
534.35	38590.75
534.52	38829.49
534.69	39285.89
534.86	39110.35
535.03	38471.39
535.20	39093.97
535.37	39096.31
535.54	39061.20
535.71	38944.17
535.88	39641.65
536.05	39014.39
536.22	39173.55
536.38	39548.03
536.55	38775.66
536.72	39613.57
536.89	39054.18
537.06	39208.65
537.23	39447.39
537.40	38820.13
537.57	39660.38
537.74	39569.10
537.91	39669.74
538.08	39489.52
538.25	39358.45
538.42	39250.78
538.59	39957.63
538.75	39533.99
538.92	39681.44
539.09	40112.10
539.26	40268.92
539.43	40048.91
539.60	39931.88
539.77	40212.74
539.94	40587.23
540.11	40584.89
540.28	40470.20
540.44	40676.17
540.61	40212.74
540.78	40320.41
540.95	40198.70
541.12	40339.13
541.29	40107.42
541.46	40678.51
541.62	40706.60
541.79	40662.13
541.96	40479.57
542.13	40233.81
542.30	40390.62
542.47	41057.68
542.63	41088.10
542.80	40751.07
542.97	41574.94
543.14	41153.64
543.31	41242.58
543.48	41088.10
543.64	41619.41
543.81	41607.70
543.98	41383.01
544.15	41474.29
544.32	41691.96
544.48	42040.70
544.65	41897.93
544.82	41984.53
544.99	41834.74
545.16	41900.27
545.32	42092.19
545.49	42316.89
545.66	42394.12
545.83	41926.02
546.00	42536.90
546.16	42281.78
546.33	42066.45
546.50	41581.96
546.67	42237.31
546.83	41708.35
547.00	41717.71
547.17	41722.39
547.34	41979.85
547.50	42359.02
547.67	42834.14
547.84	42887.98
548.00	42866.91
548.17	42724.14
548.34	42602.43
548.51	42864.57
548.67	42976.92
548.84	43037.77
549.01	43100.97
549.18	42625.84
549.34	42691.37
549.51	43194.59
549.68	42892.66
549.84	42705.41
550.01	43447.36
550.18	42944.15
550.34	42904.36
550.51	43140.75
550.68	43335.02
550.84	43037.77
551.01	43217.99
551.18	42927.77
551.34	42962.87
551.51	43274.16
551.68	43440.34
551.84	43157.14
552.01	42993.30
552.18	43220.33
552.34	43082.24
552.51	43070.54
552.68	43573.75
552.84	43620.56
553.01	43519.92
553.18	43856.96
553.34	43473.11
553.51	43468.43
553.67	43852.28
553.84	44046.54
554.01	43768.02
554.17	43489.49
554.34	43992.71
554.51	43995.05
554.67	44580.18
554.84	44282.94
555.00	44119.10
555.17	43910.79
555.33	44507.63
555.50	43810.15
555.67	44194.00
555.83	44332.09
556.00	44591.89
556.16	44802.53
556.33	44240.81
556.50	44388.26
556.66	43955.26
556.83	44238.47
556.99	44591.89
557.16	44931.26
557.32	44662.10
557.49	44772.11
557.65	44154.21
557.82	44992.12
557.98	44624.65
558.15	44369.54
558.32	44474.86
558.48	44835.30
558.65	44655.08
558.81	44549.76
558.98	45022.54
559.14	44678.49
559.31	44851.69
559.47	44708.91
559.64	44968.71
559.80	44842.32
559.97	45109.14
560.13	44793.17
560.30	44781.47
560.46	45139.57
560.63	44776.79
560.79	45254.26
560.96	45144.25
561.12	45249.58
561.29	45537.46
561.45	45364.26
561.61	45034.25
561.78	44872.75
561.94	44928.92
562.11	45092.76
562.27	45453.20
562.44	45551.51
562.60	45322.13
562.77	45354.90
562.93	45212.13
563.10	45675.55
563.26	45764.49
563.42	45705.98
563.59	45794.92
563.75	45392.35
563.92	45368.94
564.08	44949.99
564.24	45413.41
564.41	45551.51
564.57	45319.79
564.74	45474.27
564.90	45703.64
565.07	45481.29
565.23	45605.34
565.39	45521.08
565.56	45638.11
565.72	46031.32
565.88	45668.53
566.05	45298.73
566.21	45876.84
566.38	45588.95
566.54	45930.67
566.70	45975.14
566.87	45631.08
567.03	45764.49
567.19	45918.97
567.36	45867.48
567.52	45579.59
567.68	45991.53
567.85	46293.46
568.01	45741.09
568.17	45993.87
568.34	46206.86
568.50	46461.97
568.66	45560.87
568.83	45581.93
568.99	46021.95
569.15	46354.31
569.32	45778.54
569.48	45942.38
569.64	46660.92
569.81	46307.50
569.97	46096.85
570.13	46174.09
570.30	45584.27
570.46	46251.33
570.62	46050.04
570.78	46291.12
570.95	46417.50
571.11	46050.04
571.27	46382.40
571.43	46333.24
571.60	46052.38
571.76	45991.53
571.92	46415.16
572.09	45783.22
572.25	46026.63
572.41	45907.27
572.57	46522.83
572.74	46401.12
572.90	46028.98
573.06	46164.73
573.22	46059.40
573.38	46506.44
573.55	46454.95
573.71	46649.22
573.87	46618.79
574.03	46380.06
574.20	46761.56
574.36	46560.28
574.52	46499.42
574.68	46351.97
574.84	46848.16
575.01	46902.00
575.17	46724.11
575.33	46653.90
575.49	46398.78
575.65	46548.57
575.82	46298.14
575.98	46218.56
576.14	46726.46
576.30	46396.44
576.46	46459.63
576.62	46478.36
576.79	46696.03
576.95	46031.32
577.11	46223.24
577.27	46574.32
577.43	46443.25
577.59	46185.79
577.75	46567.30
577.92	46511.13
578.08	46244.30
578.24	46625.81
578.40	46567.30
578.56	46941.78
578.72	46670.28
578.88	46878.59
579.04	46450.27
579.21	46419.84
579.37	46553.26
579.53	47016.68
579.69	46380.06
579.85	46485.38
580.01	46490.06
580.17	46279.41
580.33	46752.20
580.49	46799.01
580.65	47026.04
580.82	47004.98
580.98	46358.99
581.14	46689.01
581.30	46995.62
581.46	46864.55
581.62	46497.08
581.78	46529.85
581.94	46869.23
582.10	46391.76
582.26	46546.23
582.42	46494.74
582.58	46461.97
582.74	46651.56
582.90	46955.83
583.06	46906.68
583.22	46581.34
583.38	46756.88
583.54	46550.91
583.70	46541.55
583.86	46859.87
584.02	46527.51
584.18	47072.85
584.34	46784.97
584.50	46710.07
584.66	46520.49
584.82	46990.94
584.98	47498.83
585.14	47117.32
585.30	46630.49
585.46	46995.62
585.62	46958.17
585.78	46773.27
585.94	46934.76
586.10	46583.68
586.26	46763.90
586.42	46719.43
586.58	46958.17
586.74	46808.37
586.90	46791.99
587.06	46621.13
587.22	46869.23
587.38	46621.13
587.54	47227.33
587.70	47054.13
587.86	46930.08
588.02	46735.82
588.18	47023.70
588.34	46731.14
588.49	46728.80
588.65	46836.46
588.81	47063.49
588.97	47353.72
589.13	46981.57
589.29	46815.40
589.45	47295.21
589.61	47356.06
589.77	47285.84
589.93	47325.63
590.08	47136.05
