SpectraSuite Data File
++++++++++++++++++++++++++++++++++++
Date: Fri Oct 25 11:33:33 EDT 2013
User: price-jones
Dark Spectrum Present: No
Reference Spectrum Present: No
Number of Sampled Component Spectra: 1
Spectrometers: USB2+H05261
Integration Time (usec): 100000 (USB2+H05261)
Spectra Averaged: 1 (USB2+H05261)
Boxcar Smoothing: 0 (USB2+H05261)
Correct for Electrical Dark: No (USB2+H05261)
Strobe/Lamp Enabled: No (USB2+H05261)
Correct for Detector Non-linearity: No (USB2+H05261)
Correct for Stray Light: No (USB2+H05261)
Number of Pixels in Processed Spectrum: 2048
>>>>>Begin Processed Spectral Data<<<<<
365.73	229.37
365.92	229.37
366.12	229.37
366.32	177.88
366.52	166.18
366.72	220.01
366.91	175.54
367.11	173.20
367.31	196.60
367.51	231.71
367.70	191.92
367.90	191.92
368.10	217.67
368.30	191.92
368.49	152.13
368.69	142.77
368.89	215.33
369.09	257.46
369.28	184.90
369.48	194.26
369.68	255.12
369.87	208.31
370.07	285.55
370.27	191.92
370.47	355.76
370.66	500.87
370.86	500.87
371.06	531.30
371.25	571.09
371.45	575.77
371.65	596.84
371.84	465.77
372.04	561.73
372.24	688.12
372.44	528.96
372.63	669.39
372.83	470.45
373.03	592.16
373.22	573.43
373.42	671.73
373.62	636.63
373.81	636.63
374.01	608.54
374.21	676.41
374.40	620.24
374.60	624.92
374.79	606.20
374.99	660.03
375.19	667.05
375.38	662.37
375.58	706.84
375.78	676.41
375.97	622.58
376.17	676.41
376.37	688.12
376.56	713.86
376.76	578.11
376.95	664.71
377.15	669.39
377.35	739.61
377.54	720.88
377.74	718.54
377.93	650.67
378.13	664.71
378.33	702.16
378.52	674.07
378.72	688.12
378.91	744.29
379.11	683.44
379.31	669.39
379.50	664.71
379.70	758.33
379.89	772.38
380.09	760.67
380.28	758.33
380.48	699.82
380.68	653.01
380.87	648.33
381.07	734.93
381.26	760.67
381.46	781.74
381.65	814.51
381.85	737.27
382.04	774.72
382.24	788.76
382.43	807.48
382.63	791.10
382.83	800.46
383.02	851.96
383.22	870.68
383.41	809.83
383.61	875.36
383.80	823.87
384.00	777.06
384.19	833.23
384.39	823.87
384.58	837.91
384.78	763.01
384.97	861.32
385.17	795.78
385.36	847.27
385.56	854.30
385.75	847.27
385.95	896.43
386.14	835.57
386.34	858.98
386.53	800.46
386.72	812.17
386.92	978.34
387.11	964.30
387.31	880.04
387.50	931.53
387.70	919.83
387.89	880.04
388.09	940.90
388.28	950.26
388.48	877.70
388.67	922.17
388.86	983.02
389.06	983.02
389.25	924.51
389.45	896.43
389.64	980.68
389.84	952.60
390.03	1022.81
390.22	924.51
390.42	919.83
390.61	954.94
390.81	922.17
391.00	866.00
391.19	950.26
391.39	997.07
391.58	1013.45
391.78	968.98
391.97	1034.52
392.16	999.41
392.36	1022.81
392.55	1088.35
392.75	1025.15
392.94	1062.60
393.13	1083.67
393.33	1090.69
393.52	1046.22
393.71	1095.37
393.91	1111.75
394.10	1074.31
394.29	1076.65
394.49	1036.86
394.68	1041.54
394.88	1151.54
395.07	1043.88
395.26	1217.08
395.46	1125.80
395.65	1135.16
395.84	1100.05
396.04	1277.93
396.23	1219.42
396.42	1149.20
396.62	1203.04
396.81	1282.61
397.00	1219.42
397.19	1193.67
397.39	1188.99
397.58	1310.70
397.77	1210.06
397.97	1263.89
398.16	1284.95
398.35	1259.21
398.55	1217.08
398.74	1296.66
398.93	1394.96
399.12	1341.13
399.32	1249.85
399.51	1266.23
399.70	1390.28
399.90	1308.36
400.09	1362.19
400.28	1420.71
400.47	1324.74
400.67	1420.71
400.86	1401.98
401.05	1394.96
401.24	1404.32
401.44	1336.45
401.63	1465.18
401.82	1409.00
402.01	1514.33
402.21	1511.99
402.40	1451.13
402.59	1542.41
402.78	1502.62
402.97	1469.86
403.17	1577.52
403.36	1521.35
403.55	1535.39
403.74	1526.03
403.93	1617.31
404.13	1582.20
404.32	1561.14
404.51	1652.42
404.70	1666.46
404.89	1664.12
405.09	1673.48
405.28	1577.52
405.47	1586.88
405.66	1701.57
405.85	1650.08
406.05	1668.80
406.24	1736.68
406.43	1778.81
406.62	1837.32
406.81	1816.26
407.00	1755.40
407.20	1720.29
407.39	1858.39
407.58	1790.51
407.77	1849.02
407.96	1916.90
408.15	1909.88
408.34	1813.92
408.54	2026.90
408.73	1849.02
408.92	1926.26
409.11	1909.88
409.30	1954.35
409.49	2022.22
409.68	2036.27
409.87	2066.69
410.07	2036.27
410.26	2125.21
410.45	2090.10
410.64	2225.85
410.83	2073.71
411.02	2162.66
411.21	2267.98
411.40	2211.81
411.59	2122.87
411.78	2239.89
411.98	2246.91
412.17	2232.87
412.36	2373.30
412.55	2300.75
412.74	2272.66
412.93	2408.41
413.12	2317.13
413.31	2408.41
413.50	2366.28
413.69	2413.09
413.88	2605.02
414.07	2462.24
414.26	2572.25
414.45	2583.95
414.64	2539.48
414.83	2600.34
415.02	2569.91
415.22	2495.01
415.41	2689.28
415.60	2686.94
415.79	2649.49
415.98	2675.23
416.17	2656.51
416.36	2792.26
416.55	2757.15
416.74	2703.32
416.93	2836.73
417.12	2857.79
417.31	2871.84
417.50	2909.29
417.69	2986.52
417.88	2946.73
418.07	2913.97
418.26	2972.48
418.45	2981.84
418.64	2981.84
418.83	2958.44
419.02	2946.73
419.21	3021.63
419.39	3073.12
419.58	3012.27
419.77	2923.33
419.96	3183.13
420.15	3183.13
420.34	3243.98
420.53	3141.00
420.72	3143.34
420.91	3225.26
421.10	3173.77
421.29	3197.17
421.48	3267.39
421.67	3337.60
421.86	3321.22
422.05	3269.73
422.24	3246.32
422.43	3389.10
422.61	3384.41
422.80	3342.28
422.99	3358.67
423.18	3410.16
423.37	3452.29
423.56	3405.48
423.75	3410.16
423.94	3323.56
424.13	3162.06
424.32	3239.30
424.50	3417.18
424.69	3473.36
424.88	3531.87
425.07	3307.18
425.26	3321.22
425.45	3494.42
425.64	3456.97
425.83	3403.14
426.01	3609.11
426.20	3566.98
426.39	3463.99
426.58	3466.33
426.77	3534.21
426.96	3471.01
427.15	3513.14
427.33	3515.48
427.52	3634.85
427.71	3665.28
427.90	3583.36
428.09	3627.83
428.28	3648.90
428.46	3676.98
428.65	3641.87
428.84	3779.97
429.03	3812.73
429.22	3691.02
429.40	3522.51
429.59	3801.03
429.78	3691.02
429.97	3644.21
430.16	3801.03
430.34	3768.26
430.53	3852.52
430.72	3941.46
430.91	3794.01
431.10	3997.64
431.28	3845.50
431.47	3957.85
431.66	3974.23
431.85	3946.14
432.03	4138.07
432.22	4159.13
432.41	4173.18
432.60	3953.16
432.79	4014.02
432.97	4109.98
433.16	4149.77
433.35	4032.74
433.54	4353.40
433.72	4285.52
433.91	4166.15
434.10	4210.62
434.28	4112.32
434.47	4280.84
434.66	4278.50
434.85	4124.02
435.03	4292.54
435.22	4271.48
435.41	4409.57
435.59	4404.89
435.78	4372.12
435.97	4454.04
436.16	4418.93
436.34	4449.36
436.53	4402.55
436.72	4538.30
436.90	4301.90
437.09	4477.44
437.28	4414.25
437.46	4571.07
437.65	4561.70
437.84	4603.83
438.02	4582.77
438.21	4725.54
438.40	4538.30
438.58	4830.87
438.77	4891.72
438.96	4823.84
439.14	4807.46
439.33	4702.14
439.52	4891.72
439.70	4933.85
439.89	5004.07
440.08	5027.47
440.26	5207.69
440.45	5055.56
440.63	5095.35
440.82	5298.97
441.01	5179.61
441.19	5268.55
441.38	5247.48
441.57	5343.44
441.75	5252.16
441.94	5369.19
442.12	5324.72
442.31	5385.57
442.50	5394.93
442.68	5441.75
442.87	5441.75
443.05	5572.82
443.24	5612.60
443.43	5483.88
443.61	5734.31
443.80	5738.99
443.98	5596.22
444.17	5446.43
444.35	5455.79
444.54	5682.82
444.73	5619.63
444.91	5661.76
445.10	5762.40
445.28	5701.54
445.47	5596.22
445.65	5619.63
445.84	5753.04
446.02	5727.29
446.21	5841.98
446.39	5713.25
446.58	5799.85
446.77	5783.46
446.95	5659.42
447.14	5692.18
447.32	5837.30
447.51	5652.39
447.69	5963.68
447.88	5767.08
448.06	5832.62
448.25	5884.11
448.43	5767.08
448.62	5783.46
448.80	5881.77
448.99	5753.04
449.17	5898.15
449.36	5762.40
449.54	5916.87
449.73	6047.94
449.91	6258.59
450.10	6003.47
450.28	6127.52
450.46	6235.19
450.65	6061.99
450.83	6354.55
451.02	6153.27
451.20	6059.65
451.39	6195.40
451.57	6347.53
451.76	6195.40
451.94	6279.66
452.13	6202.42
452.31	6265.61
452.49	6380.30
452.68	6197.74
452.86	6256.25
453.05	6403.71
453.23	6523.07
453.42	6366.26
453.60	6239.87
453.78	6380.30
453.97	6480.94
454.15	6523.07
454.34	6312.42
454.52	6511.37
454.70	6569.88
454.89	6551.16
455.07	6609.67
455.26	6553.50
455.44	6572.22
455.62	6696.27
455.81	6595.63
455.99	6761.81
456.17	6670.53
456.36	6794.58
456.54	6832.02
456.73	6939.69
456.91	7019.27
457.09	7052.03
457.28	7234.60
457.46	6984.16
457.64	7059.06
457.83	7042.67
458.01	7042.67
458.19	7131.61
458.38	7129.27
458.56	7213.53
458.74	7162.04
458.93	7180.76
459.11	7250.98
459.29	7246.30
459.48	7304.81
459.66	7267.36
459.84	7255.66
460.03	7454.61
460.21	7410.14
460.39	7302.47
460.57	7515.46
460.76	7541.21
460.94	7470.99
461.12	7440.56
461.31	7630.15
461.49	7400.77
461.67	7573.97
461.85	7754.19
462.04	7595.04
462.22	8124.00
462.40	7726.11
462.59	7719.09
462.77	7747.17
462.95	7653.55
463.13	7782.28
463.32	7765.90
463.50	7875.90
463.68	7939.10
463.86	7967.18
464.05	7768.24
464.23	7925.05
464.41	7943.78
464.59	7896.97
464.78	8140.38
464.96	8039.74
465.14	7866.54
465.32	8156.77
465.50	8182.51
465.69	8182.51
465.87	8100.59
466.05	8168.47
466.23	8243.37
466.41	8168.47
466.60	8439.97
466.78	8131.02
466.96	8056.12
467.14	8231.66
467.32	8212.94
467.51	8557.00
467.69	8175.49
467.87	8283.16
468.05	8287.84
468.23	8299.54
468.41	8243.37
468.60	8498.49
468.78	8538.27
468.96	8386.14
469.14	8547.64
469.32	8603.81
469.50	8374.44
469.69	8690.41
469.87	8695.09
470.05	8692.75
470.23	8695.09
470.41	8814.46
470.59	8851.91
470.77	8894.04
470.95	8959.57
471.14	8990.00
471.32	9104.68
471.50	9027.45
471.68	9090.64
471.86	9130.43
472.04	9352.78
472.22	9247.46
472.40	8924.46
472.58	9156.18
472.77	9399.59
472.95	9612.58
473.13	9631.30
473.31	9301.29
473.49	9263.84
473.67	9317.67
473.85	9563.43
474.03	9383.21
474.21	9497.89
474.39	9912.17
474.57	9944.94
474.75	9998.77
474.93	10024.51
475.12	9788.12
475.30	9853.66
475.48	9797.48
475.66	10064.30
475.84	10012.81
476.02	10134.52
476.20	10022.17
476.38	10424.75
476.56	10342.83
476.74	10422.41
476.92	10408.36
477.10	10619.01
477.28	10871.79
477.46	10721.99
477.64	10764.12
477.82	10911.58
478.00	11272.02
478.18	11136.27
478.36	11297.77
478.54	11279.04
478.72	11442.88
478.90	11569.27
479.08	11482.67
479.26	11728.42
479.44	11658.21
479.62	11630.12
479.80	11730.76
479.98	12161.42
480.16	12297.17
480.34	12056.10
480.52	12358.03
480.70	12245.68
480.88	12233.98
481.06	12423.56
481.24	12287.81
481.41	12655.28
481.59	12910.40
481.77	13064.87
481.95	12842.52
482.13	13060.19
482.31	13083.59
482.49	13401.91
482.67	13303.60
482.85	13451.06
483.03	13673.41
483.21	13657.03
483.39	13715.54
483.57	13820.86
483.74	14321.74
483.92	14146.20
484.10	13778.73
484.28	14480.89
484.46	14560.47
484.64	14714.95
484.82	14494.94
485.00	14759.42
485.18	14972.41
485.35	15297.74
485.53	15002.83
485.71	15286.04
485.89	15719.04
486.07	15194.76
486.25	15506.05
486.43	15742.44
486.61	15644.14
486.78	15817.34
486.96	15716.70
487.14	15976.50
487.32	16123.95
487.50	16362.69
487.68	16540.57
487.85	16585.04
488.03	16758.24
488.21	17142.08
488.39	16945.48
488.57	17060.16
488.75	17102.29
488.92	17682.75
489.10	17378.48
489.28	17329.33
489.46	17809.14
489.64	17675.73
489.81	18038.51
489.99	18324.05
490.17	18368.52
490.35	18401.29
490.53	18628.32
490.70	18836.63
490.88	18677.48
491.06	19042.60
491.24	19000.47
491.41	19229.84
491.59	19164.31
491.77	19587.94
491.95	19288.35
492.13	19655.82
492.30	19716.67
492.48	19683.91
492.66	20086.48
492.84	20175.42
493.01	20226.91
493.19	19868.81
493.37	20367.34
493.54	20407.13
493.72	20498.41
493.90	20723.10
494.08	20884.60
494.25	20994.61
494.43	21064.82
494.61	21221.64
494.79	21041.42
494.96	21214.62
495.14	21256.75
495.32	21699.11
495.49	21841.88
495.67	21717.83
495.85	21923.80
496.02	22246.79
496.20	22293.60
496.38	22277.22
496.55	22214.02
496.73	22836.61
496.91	22838.95
497.09	22665.75
497.26	23033.21
497.44	22675.11
497.62	23197.05
497.79	23644.09
497.97	23166.62
498.14	23658.14
498.32	23723.67
498.50	23896.87
498.67	24081.77
498.85	24056.03
499.03	23901.55
499.20	24224.54
499.38	24065.39
499.56	24437.53
499.73	24599.03
499.91	24467.96
500.08	24734.78
500.26	24367.32
500.44	24952.45
500.61	24814.36
500.79	24706.70
500.97	25010.96
501.14	25139.69
501.32	25326.94
501.49	25256.72
501.67	25509.50
501.84	25776.32
502.02	25502.48
502.20	25460.35
502.37	25647.59
502.55	25837.17
502.72	25743.55
502.90	25942.50
503.07	25713.13
503.25	26005.69
503.43	26068.89
503.60	26419.97
503.78	26621.25
503.95	26309.96
504.13	26696.15
504.30	26782.75
504.48	26642.32
504.65	26834.24
504.83	26654.02
505.01	26993.40
505.18	27269.58
505.36	27513.00
505.53	27297.67
505.71	27690.88
505.88	27260.22
506.06	27688.54
506.23	27468.53
506.41	27747.05
506.58	27702.58
506.76	27920.25
506.93	28196.43
507.11	27873.44
507.28	28079.41
507.46	28175.37
507.63	28498.36
507.81	28486.66
507.98	28556.88
508.16	28201.11
508.33	28507.72
508.50	28587.30
508.68	28807.31
508.85	29046.05
509.03	28952.43
509.20	29167.76
509.38	29219.25
509.55	29284.78
509.73	29301.17
509.90	29387.77
510.08	29268.40
510.25	29598.41
510.42	29575.01
510.60	29717.78
510.77	29654.59
510.95	30171.85
511.12	29764.59
511.30	29977.58
511.47	29926.09
511.64	30265.47
511.82	30588.46
511.99	30445.69
512.17	30438.67
512.34	30471.43
512.51	30834.22
512.69	30883.37
512.86	31091.68
513.04	30972.31
513.21	30834.22
513.38	31370.20
513.56	31335.09
513.73	31311.69
513.90	31014.44
514.08	31117.42
514.25	31503.61
514.43	31630.00
514.60	31761.07
514.77	31756.39
514.95	31749.37
515.12	31681.49
515.29	31786.82
515.47	32201.09
515.64	32112.15
515.81	31983.42
515.99	32367.27
516.16	32481.95
516.33	32070.02
516.51	32215.13
516.68	32725.37
516.85	32865.80
517.03	32947.72
517.20	33008.58
517.37	32737.07
517.54	32687.92
517.72	33015.60
517.89	32985.17
518.06	32985.17
518.24	33149.01
518.41	33071.77
518.58	32776.86
518.75	32816.65
518.93	33392.42
519.10	33165.39
519.27	33263.69
519.45	33593.71
519.62	33450.94
519.79	33684.99
519.96	33926.07
520.14	33937.77
520.31	33776.27
520.48	33813.72
520.65	34110.97
520.83	34464.39
521.00	34342.68
521.17	34183.52
521.34	34323.96
521.52	34455.03
521.69	34295.87
521.86	34920.79
522.03	34714.83
522.20	34651.63
522.38	34675.04
522.55	35428.69
522.72	35171.23
522.89	35309.32
523.07	35772.75
523.24	35201.66
523.41	35709.55
523.58	35543.38
523.75	35323.36
523.92	35358.47
524.10	35665.08
524.27	35440.39
524.44	35714.23
524.61	35838.28
524.78	35875.73
524.96	36013.82
525.13	36334.48
525.30	36081.70
525.47	36163.62
525.64	36020.84
525.81	36020.84
525.98	36273.62
526.16	36259.58
526.33	36055.95
526.50	36528.74
526.67	36395.33
526.84	36671.51
527.01	36566.19
527.18	36917.27
527.36	36332.14
527.53	36842.37
527.70	37298.78
527.87	36985.15
528.04	37118.56
528.21	37137.28
528.38	37361.97
528.55	37146.64
528.72	37247.29
528.89	37338.57
529.07	37053.02
529.24	36987.49
529.41	37242.60
529.58	37799.65
529.75	37556.24
529.92	37766.88
530.09	37591.34
530.26	37797.31
530.43	37806.67
530.60	37434.53
530.77	38050.09
530.94	38361.38
531.11	37809.01
531.28	38253.72
531.46	37794.97
531.63	38136.69
531.80	37839.44
531.97	38824.81
532.14	38328.61
532.31	38185.84
532.48	38314.57
532.65	38632.88
532.82	38550.96
532.99	38728.84
533.16	38342.66
533.33	38768.63
533.50	38955.88
533.67	38785.02
533.84	38534.58
534.01	38932.47
534.18	38906.73
534.35	39756.34
534.52	39271.85
534.69	39482.50
534.86	39517.60
535.03	39077.58
535.20	39445.05
535.37	39491.86
535.54	39206.31
535.71	39196.95
535.88	39803.15
536.05	39466.11
536.22	39978.69
536.38	39786.77
536.55	39566.76
536.72	39707.19
536.89	39332.70
537.06	40069.97
537.23	40121.46
537.40	40046.57
537.57	40205.72
537.74	39840.60
537.91	40554.46
538.08	40013.80
538.25	39695.49
538.42	39983.37
538.59	40168.27
538.75	40140.19
538.92	40507.65
539.09	40961.72
539.26	40360.20
539.43	40439.78
539.60	40720.64
539.77	40830.65
539.94	40926.61
540.11	40816.60
540.28	40488.93
540.44	41022.57
540.61	40851.71
540.78	40886.82
540.95	40517.01
541.12	40355.52
541.29	40779.15
541.46	40889.16
541.62	40921.93
541.79	41373.65
541.96	41275.35
542.13	41041.29
542.30	41350.24
542.47	41062.36
542.63	41247.26
542.80	41619.41
542.97	41706.01
543.14	42246.67
543.31	41951.76
543.48	41504.72
543.64	42012.62
543.81	41804.31
543.98	42239.65
544.15	41785.58
544.32	42239.65
544.48	42007.94
544.65	42155.39
544.82	42539.24
544.99	41797.29
545.16	42202.20
545.32	41975.17
545.49	42305.18
545.66	42513.49
545.83	42632.86
546.00	42635.20
546.16	42438.59
546.33	42604.77
546.50	42553.28
546.67	42665.63
546.83	42506.47
547.00	42721.80
547.17	42504.13
547.34	42602.43
547.50	42515.83
547.67	43124.37
547.84	42838.83
548.00	43201.61
548.17	42887.98
548.34	43358.42
548.51	43164.16
548.67	43363.11
548.84	43325.66
549.01	43323.32
549.18	43136.07
549.34	43360.76
549.51	43391.19
549.68	43618.22
549.84	43482.47
550.01	43871.00
550.18	43288.21
550.34	43793.76
550.51	43903.77
550.68	44285.28
550.84	43770.36
551.01	43634.61
551.18	43452.05
551.34	43573.75
551.51	43826.53
551.68	43997.39
551.84	43861.64
552.01	43662.69
552.18	43744.61
552.34	43414.60
552.51	44065.27
552.68	43508.22
552.84	44498.26
553.01	44467.84
553.18	44226.76
553.34	44402.30
553.51	44348.47
553.67	43650.99
553.84	44353.15
554.01	44123.78
554.17	44575.50
554.34	44210.38
554.51	44406.98
554.67	44425.71
554.84	44383.58
555.00	44910.20
555.17	44755.72
555.33	44341.45
555.50	44734.66
555.67	44577.84
555.83	44575.50
556.00	44755.72
556.16	45272.98
556.33	44762.75
556.50	44837.64
556.66	45219.15
556.83	44781.47
556.99	44947.65
557.16	45041.27
557.32	44954.67
557.49	45275.32
557.65	44931.26
557.82	45268.30
557.98	45003.82
558.15	45181.70
558.32	45331.50
558.48	45170.00
558.65	45188.72
558.81	45202.77
558.98	45158.30
559.14	44802.53
559.31	44816.58
559.47	45111.49
559.64	45579.59
559.80	45310.43
559.97	45663.85
560.13	45366.60
560.30	45226.17
560.46	45689.60
560.63	45132.55
560.79	46124.94
560.96	45546.82
561.12	45584.27
561.29	45738.75
561.45	45715.34
561.61	45961.10
561.78	45326.81
561.94	45212.13
562.11	45481.29
562.27	45769.18
562.44	45670.87
562.60	45961.10
562.77	45907.27
562.93	45879.18
563.10	46223.24
563.26	45806.62
563.42	46401.12
563.59	45876.84
563.75	46007.91
563.92	45874.50
564.08	46033.66
564.24	46045.36
564.41	46078.13
564.57	45965.78
564.74	46382.40
564.90	45792.58
565.07	46103.87
565.23	45846.41
565.39	45956.42
565.56	46387.08
565.72	46054.72
565.88	45921.31
566.05	46555.60
566.21	46267.71
566.38	45963.44
566.54	46293.46
566.70	46387.08
566.87	46333.24
567.03	45701.30
567.19	46794.33
567.36	46256.01
567.52	46593.04
567.68	46307.50
567.85	46408.14
568.01	46443.25
568.17	46487.72
568.34	46625.81
568.50	46319.20
568.66	46539.21
568.83	46307.50
568.99	46431.55
569.15	46789.65
569.32	46541.55
569.48	46770.93
569.64	46909.02
569.81	46813.05
569.97	46754.54
570.13	46941.78
570.30	46309.84
570.46	46850.50
570.62	46492.40
570.78	46564.96
570.95	46454.95
571.11	47007.32
571.27	46256.01
571.43	46588.36
571.60	47075.19
571.76	46567.30
571.92	47028.38
572.09	46639.86
572.25	46719.43
572.41	46337.93
572.57	46553.26
572.74	47168.82
572.90	46913.70
573.06	46843.48
573.22	47173.50
573.38	47437.98
573.55	46717.09
573.71	47494.15
573.87	47175.84
574.03	46862.21
574.20	47047.11
574.36	46845.82
574.52	47260.10
574.68	46618.79
574.84	46806.03
575.01	46841.14
575.17	47178.18
575.33	46997.96
575.49	46972.21
575.65	46997.96
575.82	47035.41
575.98	46674.96
576.14	47327.97
576.30	47182.86
576.46	46824.76
576.62	46995.62
576.79	47002.64
576.95	46665.60
577.11	46506.44
577.27	46925.40
577.43	46958.17
577.59	46958.17
577.75	46831.78
577.92	46784.97
578.08	46761.56
578.24	47290.52
578.40	47119.66
578.56	47049.45
578.72	47086.90
578.88	47178.18
579.04	47079.88
579.21	46894.97
579.37	47056.47
579.53	47182.86
579.69	46944.12
579.85	46946.47
580.01	46803.69
580.17	47367.76
580.33	47475.43
580.49	47255.42
580.65	47262.44
580.82	47363.08
580.98	47044.77
581.14	46656.24
581.30	47147.75
581.46	46939.44
581.62	47334.99
581.78	47049.45
581.94	47192.22
582.10	46930.08
582.26	47585.43
582.42	47323.29
582.58	47552.66
582.74	47566.71
582.90	47152.43
583.06	47367.76
583.22	47414.57
583.38	47482.45
583.54	47239.03
583.70	47051.79
583.86	47613.52
584.02	47578.41
584.18	47732.89
584.34	47625.22
584.50	47618.20
584.66	47482.45
584.82	47449.68
584.98	47468.40
585.14	47498.83
585.30	47313.93
585.46	47620.54
585.62	47709.48
585.78	47634.58
585.94	47344.36
586.10	47290.52
586.26	46983.91
586.42	47543.30
586.58	47508.19
586.74	47543.30
586.90	47206.26
587.06	47086.90
587.22	47508.19
587.38	47140.73
587.54	47770.33
587.70	47739.91
587.86	47395.85
588.02	46932.42
588.18	47271.80
588.34	47381.80
588.49	47384.15
588.65	46775.61
588.81	47721.18
588.97	47466.06
589.13	47313.93
589.29	47498.83
589.45	47910.77
589.61	47447.34
589.77	47597.13
589.93	47547.98
590.08	47573.73
