SpectraSuite Data File
++++++++++++++++++++++++++++++++++++
Date: Fri Oct 25 11:25:01 EDT 2013
User: price-jones
Dark Spectrum Present: No
Reference Spectrum Present: No
Number of Sampled Component Spectra: 1
Spectrometers: USB2+H05261
Integration Time (usec): 100000 (USB2+H05261)
Spectra Averaged: 1 (USB2+H05261)
Boxcar Smoothing: 0 (USB2+H05261)
Correct for Electrical Dark: No (USB2+H05261)
Strobe/Lamp Enabled: No (USB2+H05261)
Correct for Detector Non-linearity: No (USB2+H05261)
Correct for Stray Light: No (USB2+H05261)
Number of Pixels in Processed Spectrum: 2048
>>>>>Begin Processed Spectral Data<<<<<
365.73	175.54
365.92	175.54
366.12	175.54
366.32	88.94
366.52	161.50
366.72	201.29
366.91	138.09
367.11	112.35
367.31	168.52
367.51	23.41
367.70	128.73
367.90	166.18
368.10	135.75
368.30	102.98
368.49	72.56
368.69	173.20
368.89	105.32
369.09	170.86
369.28	145.11
369.48	149.79
369.68	170.86
369.87	215.33
370.07	210.65
370.27	311.29
370.47	318.31
370.66	580.45
370.86	636.63
371.06	674.07
371.25	730.25
371.45	692.80
371.65	692.80
371.84	674.07
372.04	671.73
372.24	741.95
372.44	753.65
372.63	814.51
372.83	730.25
373.03	753.65
373.22	751.31
373.42	795.78
373.62	802.80
373.81	847.27
374.01	856.64
374.21	765.36
374.40	781.74
374.60	889.40
374.79	777.06
374.99	826.21
375.19	901.11
375.38	844.93
375.58	917.49
375.78	898.77
375.97	875.36
376.17	931.53
376.37	877.70
376.56	809.83
376.76	858.98
376.95	919.83
377.15	912.81
377.35	847.27
377.54	922.17
377.74	830.89
377.93	856.64
378.13	894.08
378.33	905.79
378.52	938.55
378.72	924.51
378.91	957.28
379.11	919.83
379.31	938.55
379.50	931.53
379.70	1053.24
379.89	966.64
380.09	994.73
380.28	1015.79
380.48	1001.75
380.68	950.26
380.87	919.83
381.07	957.28
381.26	1008.77
381.46	1062.60
381.65	1060.26
381.85	994.73
382.04	1064.94
382.24	994.73
382.43	1025.15
382.63	1093.03
382.83	1090.69
383.02	1144.52
383.22	1118.78
383.41	1015.79
383.61	1139.84
383.80	1121.12
384.00	1196.01
384.19	1142.18
384.39	1172.61
384.58	1186.65
384.78	1114.10
384.97	1160.91
385.17	1196.01
385.36	1165.59
385.56	1142.18
385.75	1135.16
385.95	1137.50
386.14	1156.22
386.34	1135.16
386.53	1238.14
386.72	1212.40
386.92	1231.12
387.11	1277.93
387.31	1217.08
387.50	1249.85
387.70	1179.63
387.89	1371.55
388.09	1235.80
388.28	1181.97
388.48	1315.38
388.67	1341.13
388.86	1416.02
389.06	1291.98
389.25	1275.59
389.45	1336.45
389.64	1359.85
389.84	1430.07
390.03	1376.24
390.22	1341.13
390.42	1336.45
390.61	1437.09
390.81	1411.34
391.00	1404.32
391.19	1500.28
391.39	1369.21
391.58	1568.16
391.78	1533.05
391.97	1481.56
392.16	1462.83
392.36	1493.26
392.55	1563.48
392.75	1486.24
392.94	1495.60
393.13	1434.75
393.33	1629.01
393.52	1551.78
393.71	1502.62
393.91	1682.85
394.10	1640.72
394.29	1732.00
394.49	1591.56
394.68	1701.57
394.88	1678.16
395.07	1650.08
395.26	1678.16
395.46	1652.42
395.65	1743.70
395.84	1746.04
396.04	1811.57
396.23	1741.36
396.42	1764.76
396.62	1849.02
396.81	1802.21
397.00	1732.00
397.19	1884.13
397.39	1790.51
397.58	1813.92
397.77	1715.61
397.97	1757.74
398.16	1884.13
398.35	1895.83
398.55	1865.41
398.74	1989.46
398.93	2040.95
399.12	1832.64
399.32	1804.55
399.51	1877.11
399.70	1987.11
399.90	2024.56
400.09	2085.42
400.28	2038.61
400.47	2097.12
400.67	2099.46
400.86	2031.58
401.05	2022.22
401.24	2038.61
401.44	2076.06
401.63	2118.18
401.82	2150.95
402.01	2052.65
402.21	2106.48
402.40	2120.53
402.59	2214.15
402.78	2242.23
402.97	2181.38
403.17	2235.21
403.36	2258.62
403.55	2347.56
403.74	2385.01
403.93	2377.98
404.13	2289.04
404.32	2326.49
404.51	2310.11
404.70	2464.58
404.89	2406.07
405.09	2495.01
405.28	2492.67
405.47	2436.50
405.66	2466.92
405.85	2413.09
406.05	2520.76
406.24	2464.58
406.43	2705.66
406.62	2621.40
406.81	2679.91
407.00	2626.08
407.20	2628.42
407.39	2710.34
407.58	2775.88
407.77	2752.47
407.96	2843.75
408.15	2708.00
408.34	2715.02
408.54	2916.31
408.73	2869.50
408.92	2848.43
409.11	2892.90
409.30	2920.99
409.49	2878.86
409.68	2904.60
409.87	2928.01
410.07	2895.24
410.26	3002.91
410.45	2981.84
410.64	3045.04
410.83	3016.95
411.02	3026.31
411.21	3220.58
411.40	3087.17
411.59	3335.26
411.78	3197.17
411.98	3110.57
412.17	3368.03
412.36	3309.52
412.55	3304.84
412.74	3279.09
412.93	3368.03
413.12	3421.86
413.31	3576.34
413.50	3482.72
413.69	3447.61
413.88	3564.64
414.07	3487.40
414.26	3513.14
414.45	3756.56
414.64	3583.36
414.83	3742.52
415.02	3763.58
415.22	3889.97
415.41	3929.76
415.60	3707.41
415.79	3875.93
415.98	3981.25
416.17	3840.82
416.36	3887.63
416.55	4021.04
416.74	3922.74
416.93	4107.64
417.12	4007.00
417.31	4135.73
417.50	4217.65
417.69	4243.39
417.88	4231.69
418.07	4215.30
418.26	4257.43
418.45	4257.43
418.64	4545.32
418.83	4311.27
419.02	4383.82
419.21	4620.22
419.39	4362.76
419.58	4397.87
419.77	4547.66
419.96	4580.43
420.15	4681.07
420.34	4603.83
420.53	4643.62
420.72	4662.35
420.91	4634.26
421.10	4652.98
421.29	4706.82
421.48	4631.92
421.67	4765.33
421.86	4762.99
422.05	4760.65
422.24	4858.95
422.43	4922.15
422.61	4884.70
422.80	4933.85
422.99	4903.42
423.18	5057.90
423.37	4952.57
423.56	4980.66
423.75	4858.95
423.94	4835.55
424.13	4692.77
424.32	4781.71
424.50	5078.96
424.69	5097.69
424.88	5064.92
425.07	4910.44
425.26	4929.17
425.45	5109.39
425.64	4992.36
425.83	4997.04
426.01	5069.60
426.20	4922.15
426.39	5060.24
426.58	5036.83
426.77	5078.96
426.96	5090.67
427.15	5064.92
427.33	5195.99
427.52	5039.17
427.71	5177.26
427.90	5308.34
428.09	5355.15
428.28	5476.85
428.46	5163.22
428.65	5259.18
428.84	5493.24
429.03	5518.98
429.22	5188.97
429.40	5465.15
429.59	5521.32
429.78	5224.08
429.97	5195.99
430.16	5549.41
430.34	5586.86
430.53	5694.52
430.72	5593.88
430.91	5614.95
431.10	5769.42
431.28	5898.15
431.47	5767.08
431.66	5870.06
431.85	5748.36
432.03	5856.02
432.22	5919.21
432.41	5940.28
432.60	5947.30
432.79	5994.11
432.97	6047.94
433.16	6003.47
433.35	5884.11
433.54	5954.32
433.72	6167.31
433.91	6059.65
434.10	6228.17
434.28	6132.20
434.47	6188.38
434.66	6258.59
434.85	6207.10
435.03	6134.54
435.22	6312.42
435.41	6476.26
435.59	6239.87
435.78	6436.47
435.97	6429.45
436.16	6356.90
436.34	6476.26
436.53	6352.21
436.72	6668.19
436.90	6314.77
437.09	6663.51
437.28	6377.96
437.46	6537.12
437.65	6457.54
437.84	6817.98
438.02	6696.27
438.21	6679.89
438.40	6698.61
438.58	7000.54
438.77	7045.01
438.96	6909.26
439.14	7089.48
439.33	7063.74
439.52	7056.72
439.70	7098.84
439.89	7232.26
440.08	7485.03
440.26	7255.66
440.45	7365.67
440.63	7358.64
440.82	7566.95
441.01	7501.42
441.19	7831.43
441.38	7709.72
441.57	7611.42
441.75	7925.05
441.94	7960.16
442.12	7939.10
442.31	7868.88
442.50	7920.37
442.68	7995.27
442.87	8215.28
443.05	8215.28
443.24	8138.04
443.43	8030.38
443.61	8170.81
443.80	8306.56
443.98	8039.74
444.17	7927.39
444.35	8224.64
444.54	8273.79
444.73	8379.12
444.91	8334.65
445.10	8484.44
445.28	8341.67
445.47	8163.79
445.65	8418.91
445.84	8390.82
446.02	8411.89
446.21	8353.37
446.39	8353.37
446.58	8339.33
446.77	8395.50
446.95	8245.71
447.14	8336.99
447.32	8498.49
447.51	8463.38
447.69	8500.83
447.88	8655.30
448.06	8510.19
448.25	8549.98
448.43	8454.02
448.62	8828.50
448.80	8482.10
448.99	8575.72
449.17	8669.34
449.36	8648.28
449.54	8753.60
449.73	8830.84
449.91	9207.67
450.10	8777.01
450.28	9039.15
450.46	8887.01
450.65	9034.47
450.83	8950.21
451.02	9076.60
451.20	9102.34
451.39	9041.49
451.57	9202.99
451.76	9053.19
451.94	9137.45
452.13	9397.25
452.31	9181.92
452.49	9013.40
452.68	9242.78
452.86	9273.20
453.05	9408.95
453.23	9184.26
453.42	9392.57
453.60	9181.92
453.78	9202.99
453.97	9369.16
454.15	9650.03
454.34	9387.89
454.52	9495.55
454.70	9694.50
454.89	9661.73
455.07	9664.07
455.26	9692.16
455.44	9935.57
455.62	9844.29
455.81	9813.87
455.99	9886.42
456.17	9860.68
456.36	10008.13
456.54	10204.74
456.73	10406.02
456.91	10359.21
457.09	10567.52
457.28	10532.41
457.46	10518.37
457.64	10565.18
457.83	10415.38
458.01	10340.49
458.19	10509.01
458.38	10649.44
458.56	10583.90
458.74	10775.83
458.93	10668.16
459.11	10862.43
459.29	10579.22
459.48	10576.88
459.66	10806.25
459.84	10878.81
460.03	11250.96
460.21	10930.30
460.39	10897.53
460.57	10874.13
460.76	10918.60
460.94	11169.04
461.12	11014.56
461.31	11080.10
461.49	11030.94
461.67	11108.18
461.85	11506.07
462.04	11356.28
462.22	11772.89
462.40	11531.82
462.59	11548.20
462.77	11548.20
462.95	11651.19
463.13	11576.29
463.32	11667.57
463.50	11723.74
463.68	11644.17
463.86	12037.38
464.05	11679.27
464.23	11571.61
464.41	11637.14
464.59	11545.86
464.78	11925.03
464.96	12039.72
465.14	11763.53
465.32	11903.96
465.50	11878.22
465.69	12180.15
465.87	12194.19
466.05	12067.80
466.23	12182.49
466.41	12280.79
466.60	12353.35
466.78	12119.29
466.96	12191.85
467.14	12374.41
467.32	12301.86
467.51	12322.92
467.69	12163.76
467.87	12098.23
468.05	12404.84
468.23	12346.33
468.41	12596.76
468.60	12521.87
468.78	12936.14
468.96	12432.93
469.14	12788.69
469.32	13081.25
469.50	12482.08
469.69	13172.54
469.87	13240.41
470.05	13036.78
470.23	12896.35
470.41	13310.63
470.59	13308.29
470.77	13046.15
470.95	13221.69
471.14	13659.37
471.32	13200.62
471.50	13532.98
471.68	13565.74
471.86	13572.77
472.04	13621.92
472.22	13984.70
472.40	13980.02
472.58	13668.73
472.77	13886.40
472.95	13951.93
473.13	14398.98
473.31	14146.20
473.49	14160.24
473.67	14120.45
473.85	14185.99
474.03	14600.26
474.21	14319.40
474.39	14684.52
474.57	14719.63
474.75	14899.85
474.93	14745.38
475.12	14775.80
475.30	14881.13
475.48	15026.24
475.66	15199.44
475.84	15157.31
476.02	15262.63
476.20	15314.13
476.38	15674.57
476.56	16109.91
476.74	15733.08
476.92	15690.95
477.10	15695.63
477.28	16074.80
477.46	15950.75
477.64	16388.43
477.82	16205.87
478.00	16802.71
478.18	16898.67
478.36	16882.28
478.54	16922.07
478.72	16943.14
478.90	17334.01
479.08	17406.56
479.26	17619.55
479.44	18019.78
479.62	17722.54
479.80	18192.98
479.98	18078.30
480.16	18412.99
480.34	18387.25
480.52	18787.48
480.70	18684.50
480.88	18328.74
481.06	18843.65
481.24	18698.54
481.41	18904.51
481.59	18895.14
481.77	19550.49
481.95	19550.49
482.13	19517.73
482.31	19838.38
482.49	20191.80
482.67	20166.06
482.85	20098.18
483.03	20341.60
483.21	20868.22
483.39	20695.02
483.57	20905.66
483.74	21214.62
483.92	21226.32
484.10	21212.28
484.28	21455.69
484.46	21804.43
484.64	22232.75
484.82	21764.64
485.00	22361.48
485.18	22801.50
485.35	22677.45
485.53	23005.13
485.71	22965.34
485.89	23166.62
486.07	23138.54
486.25	23634.73
486.43	23601.96
486.61	23817.29
486.78	24259.65
486.96	24030.28
487.14	24526.47
487.32	24474.98
487.50	24512.43
487.68	24854.15
487.85	25195.87
488.03	25383.11
488.21	25734.19
488.39	25874.62
488.57	26015.05
488.75	25998.67
488.92	26558.06
489.10	26691.47
489.28	26429.33
489.46	27166.60
489.64	27122.13
489.81	28020.89
489.99	27618.32
490.17	27730.67
490.35	28074.73
490.53	28025.57
490.70	28245.58
490.88	27789.18
491.06	28453.89
491.24	28833.06
491.41	29174.78
491.59	29385.43
491.77	29205.20
491.95	29329.25
492.13	29984.60
492.30	30064.18
492.48	29933.11
492.66	30017.37
492.84	30345.05
493.01	30745.28
493.19	30675.06
493.37	30995.71
493.54	31087.00
493.72	31447.44
493.90	31281.26
494.08	31765.75
494.25	31648.72
494.43	31622.98
494.61	32573.24
494.79	32254.92
494.96	32437.48
495.14	32783.88
495.32	32992.19
495.49	33090.49
495.67	32884.53
495.85	33787.97
496.02	34120.33
496.20	33839.47
496.38	33759.89
496.55	34022.03
496.73	34338.00
496.91	34595.46
497.09	34763.98
497.26	34911.43
497.44	34829.51
497.62	34944.20
497.79	35442.73
497.97	35346.77
498.14	36072.34
498.32	36231.49
498.50	36006.80
498.67	36423.42
498.85	36102.76
499.03	36711.30
499.20	36720.66
499.38	36786.20
499.56	36891.52
499.73	37050.68
499.91	36943.02
500.08	37237.92
500.26	37296.44
500.44	37734.12
500.61	37731.78
500.79	37469.64
500.97	38218.61
501.14	38958.22
501.32	38920.77
501.49	38188.18
501.67	38581.39
501.84	38888.00
502.02	38990.98
502.20	38958.22
502.37	39512.92
502.55	39030.77
502.72	39218.02
502.90	39339.72
503.07	39093.97
503.25	40100.40
503.43	39707.19
503.60	40350.84
503.78	40116.78
503.95	40292.32
504.13	40629.36
504.30	40748.73
504.48	40655.11
504.65	40486.59
504.83	41144.28
505.01	41649.83
505.18	41038.95
505.36	41502.38
505.53	41109.17
505.71	41640.47
505.88	41752.82
506.06	41097.47
506.23	41827.71
506.41	41785.58
506.58	41846.44
506.76	41979.85
506.93	42202.20
507.11	42291.14
507.28	42312.20
507.46	42712.44
507.63	42595.41
507.81	42997.98
507.98	43016.71
508.16	42983.94
508.33	42976.92
508.50	43833.55
508.68	43526.94
508.85	43803.13
509.03	43498.86
509.20	44074.63
509.38	43903.77
509.55	43798.44
509.73	44325.07
509.90	44292.30
510.08	44158.89
510.25	44505.29
510.42	44605.93
510.60	45471.93
510.77	44877.43
510.95	45598.32
511.12	45235.53
511.30	45317.45
511.47	45202.77
511.64	45567.89
511.82	46024.29
511.99	45741.09
512.17	45909.61
512.34	46000.89
512.51	46356.65
512.69	46080.47
512.86	46138.98
513.04	46876.25
513.21	46635.17
513.38	46712.41
513.56	46883.27
513.73	46632.83
513.90	47187.54
514.08	46937.10
514.25	47131.37
514.43	47304.57
514.60	47217.97
514.77	47407.55
514.95	47800.76
515.12	47302.23
515.29	47430.96
515.47	47885.02
515.64	47847.57
515.81	47784.38
515.99	48198.65
516.16	48285.25
516.33	48119.07
516.51	48554.41
516.68	48425.68
516.85	48624.63
517.03	48779.10
517.20	48835.28
517.37	49024.86
517.54	48685.48
517.72	48697.19
517.89	48924.22
518.06	48931.24
518.24	49097.42
518.41	48956.99
518.58	49340.83
518.75	49102.10
518.93	49408.71
519.10	49394.67
519.27	49593.61
519.45	49771.49
519.62	49947.03
519.79	49947.03
519.96	50078.10
520.14	49647.44
520.31	50197.47
520.48	50394.07
520.65	50190.45
520.83	50525.14
521.00	50644.51
521.17	50361.31
521.34	50586.00
521.52	50834.10
521.69	50852.82
521.86	50546.21
522.03	51026.02
522.20	51248.37
522.38	51388.80
522.55	51365.40
522.72	51161.77
522.89	51452.00
523.07	51714.14
523.24	51136.02
523.41	51529.23
523.58	51334.97
523.75	51648.60
523.92	51800.74
524.10	52027.77
524.27	52163.52
524.44	51840.53
524.61	51971.60
524.78	52126.07
524.96	51950.53
525.13	52259.48
525.30	51987.98
525.47	52275.87
525.64	52257.14
525.81	52648.01
525.98	52549.71
526.16	52474.81
526.33	52760.36
526.50	52966.32
526.67	52348.42
526.84	52985.05
527.01	52917.17
527.18	52931.22
527.36	53036.54
527.53	53148.88
527.70	53116.12
527.87	53195.70
528.04	53043.56
528.21	53448.47
528.38	53104.41
528.55	53485.92
528.72	53076.33
528.89	53298.68
529.07	53378.26
529.24	53092.71
529.41	53708.27
529.58	53488.26
529.75	53745.72
529.92	53612.31
530.09	53951.69
530.26	53654.44
530.43	53829.98
530.60	53675.51
530.77	54106.16
530.94	53956.37
531.11	53841.68
531.28	54136.59
531.46	53808.92
531.63	54216.17
531.80	53822.96
531.97	54286.39
532.14	54372.99
532.31	54461.93
532.48	54335.54
532.65	54475.97
532.82	54160.00
532.99	54532.14
533.16	54635.13
533.33	54637.47
533.50	54639.81
533.67	54674.91
533.84	54674.91
534.01	54787.26
534.18	54698.32
534.35	55058.76
534.52	54990.89
534.69	55140.68
534.86	55210.90
535.03	55128.98
535.20	55208.56
535.37	55285.79
535.54	55409.84
535.71	55096.21
535.88	55283.45
536.05	55547.93
536.22	55498.78
536.38	55767.94
536.55	55550.27
536.72	55517.51
536.89	55388.78
537.06	55679.00
537.23	55702.41
537.40	55536.23
537.57	55707.09
537.74	55608.79
537.91	55819.44
538.08	55833.48
538.25	55611.13
538.42	55945.83
538.59	56067.53
538.75	55969.23
538.92	56109.66
539.09	56119.02
539.26	56072.21
539.43	56086.26
539.60	56037.11
539.77	56425.64
539.94	56332.01
540.11	56303.93
540.28	56034.77
540.44	56617.56
540.61	56463.08
540.78	56395.21
540.95	56320.31
541.12	56207.97
541.29	56554.36
541.46	56479.47
541.62	56472.45
541.79	56545.00
541.96	56369.46
542.13	56507.55
542.30	56633.94
542.47	56807.14
542.63	56877.36
542.80	56952.26
542.97	56898.42
543.14	57006.09
543.31	57024.81
543.48	57095.03
543.64	57425.04
543.81	57322.06
543.98	57286.95
544.15	57172.27
544.32	57441.43
544.48	57453.13
544.65	57368.87
544.82	57427.38
544.99	57111.41
545.16	57471.85
545.32	57277.59
545.49	57759.74
545.66	57649.74
545.83	57614.63
546.00	57708.25
546.16	57577.18
546.33	57511.64
546.50	57394.62
546.67	57560.79
546.83	57600.58
547.00	57820.59
547.17	57635.69
547.34	57813.57
547.50	58014.86
547.67	58094.44
547.84	57977.41
548.00	58078.05
548.17	58087.42
548.34	58035.92
548.51	58155.29
548.67	58281.68
548.84	58136.57
549.01	58003.16
549.18	58047.63
549.34	58169.33
549.51	58358.92
549.68	58319.13
549.84	58010.18
550.01	58269.98
550.18	58115.50
550.34	58433.81
550.51	58485.31
550.68	58553.18
550.84	58302.74
551.01	58478.28
551.18	58424.45
551.34	58401.05
551.51	58576.59
551.68	58492.33
551.84	58363.60
552.01	58534.46
552.18	58602.33
552.34	58424.45
552.51	58829.37
552.68	58518.07
552.84	58431.47
553.01	58815.32
553.18	58607.01
553.34	58805.96
553.51	58649.14
553.67	58585.95
553.84	58871.49
554.01	58829.37
554.17	58756.81
554.34	58834.05
554.51	58864.47
554.67	59040.01
554.84	59175.76
555.00	58803.62
555.17	58857.45
555.33	59117.25
555.50	58726.38
555.67	58777.87
555.83	59096.19
556.00	58997.88
556.16	59393.43
556.33	59091.51
556.50	59147.68
556.66	59253.00
556.83	59145.34
556.99	59510.46
557.16	59442.59
557.32	59353.65
557.49	59561.95
557.65	59276.41
557.82	59454.29
557.98	59316.20
558.15	59346.62
558.32	59437.90
558.48	59547.91
558.65	59210.87
558.81	59430.88
558.98	59508.12
559.14	59316.20
559.31	59456.63
559.47	59529.19
559.64	59674.30
559.80	59695.36
559.97	59458.97
560.13	59458.97
560.30	59686.00
560.46	59709.41
560.63	59798.35
560.79	59810.05
560.96	59803.03
561.12	59662.60
561.29	59924.74
561.45	59669.62
561.61	59721.11
561.78	59760.90
561.94	59840.48
562.11	59831.11
562.27	59760.90
562.44	59955.16
562.60	59788.98
562.77	60100.28
562.93	59889.63
563.10	60062.83
563.26	59819.41
563.42	60009.00
563.59	60016.02
563.75	59784.30
563.92	59936.44
564.08	59938.78
564.24	59978.57
564.41	60093.25
564.57	60074.53
564.74	60128.36
564.90	60055.81
565.07	59936.44
565.23	59948.14
565.39	60090.91
565.56	60165.81
565.72	60109.64
565.88	59826.43
566.05	59987.93
566.21	60037.08
566.38	60191.56
566.54	60264.11
566.70	60292.20
566.87	60449.02
567.03	59978.57
567.19	60186.88
567.36	60301.56
567.52	60299.22
567.68	60472.42
567.85	60217.30
568.01	60364.76
568.17	60360.08
568.34	60388.16
568.50	60172.83
568.66	60088.57
568.83	60327.31
568.99	60348.37
569.15	60243.05
569.32	60416.25
569.48	60432.63
569.64	60371.78
569.81	60317.95
569.97	60193.90
570.13	60306.24
570.30	60299.22
570.46	60432.63
570.62	60509.87
570.78	60502.85
570.95	60528.59
571.11	60594.13
571.27	60544.98
571.43	60542.64
571.60	60519.23
571.76	60432.63
571.92	60521.57
572.09	60488.80
572.25	60472.42
572.41	60385.82
572.57	60643.28
572.74	60533.28
572.90	60519.23
573.06	60720.52
573.22	60570.72
573.38	60676.05
573.55	60493.49
573.71	60788.39
573.87	60537.96
574.03	60465.40
574.20	60619.88
574.36	60362.42
574.52	60886.70
574.68	60519.23
574.84	60626.90
575.01	60910.10
575.17	60582.43
575.33	60699.45
575.49	60516.89
575.65	60598.81
575.82	60903.08
575.98	60837.54
576.14	61111.39
576.30	60907.76
576.46	60610.51
576.62	60729.88
576.79	60722.86
576.95	60591.79
577.11	60762.65
577.27	60795.42
577.43	60903.08
577.59	60612.85
577.75	60699.45
577.92	60687.75
578.08	60725.20
578.24	60818.82
578.40	60935.85
578.56	60970.96
578.72	60832.86
578.88	60867.97
579.04	60889.04
579.21	60802.44
579.37	60872.65
579.53	60882.02
579.69	60718.18
579.85	60498.17
580.01	60807.12
580.17	60870.31
580.33	60844.57
580.49	60903.08
580.65	60774.35
580.82	60982.66
580.98	60725.20
581.14	60788.39
581.30	60816.48
581.46	60764.99
581.62	61017.77
581.78	60594.13
581.94	60750.94
582.10	60591.79
582.26	60736.90
582.42	60678.39
582.58	60802.44
582.74	60687.75
582.90	60816.48
583.06	60853.93
583.22	60650.30
583.38	60975.64
583.54	61027.13
583.70	60704.13
583.86	60945.21
584.02	60853.93
584.18	60912.44
584.34	61031.81
584.50	61087.98
584.66	60762.65
584.82	60865.63
584.98	61015.43
585.14	61216.71
585.30	60926.49
585.46	61010.74
585.62	60821.16
585.78	61071.60
585.94	60788.39
586.10	60764.99
586.26	61090.32
586.42	60823.50
586.58	61118.41
586.74	61097.34
586.90	60994.36
587.06	60743.92
587.22	61151.18
587.38	60940.53
587.54	61109.05
587.70	61202.67
587.86	61155.86
588.02	60954.57
588.18	61104.37
588.34	60790.73
588.49	61153.52
