SpectraSuite Data File
++++++++++++++++++++++++++++++++++++
Date: Fri Oct 25 11:25:22 EDT 2013
User: price-jones
Dark Spectrum Present: No
Reference Spectrum Present: No
Number of Sampled Component Spectra: 1
Spectrometers: USB2+H05261
Integration Time (usec): 100000 (USB2+H05261)
Spectra Averaged: 1 (USB2+H05261)
Boxcar Smoothing: 0 (USB2+H05261)
Correct for Electrical Dark: No (USB2+H05261)
Strobe/Lamp Enabled: No (USB2+H05261)
Correct for Detector Non-linearity: No (USB2+H05261)
Correct for Stray Light: No (USB2+H05261)
Number of Pixels in Processed Spectrum: 2048
>>>>>Begin Processed Spectral Data<<<<<
365.73	187.24
365.92	187.24
366.12	187.24
366.32	140.43
366.52	166.18
366.72	182.56
366.91	121.71
367.11	135.75
367.31	110.01
367.51	149.79
367.70	196.60
367.90	128.73
368.10	131.07
368.30	140.43
368.49	14.04
368.69	173.20
368.89	170.86
369.09	159.16
369.28	250.44
369.48	131.07
369.68	205.97
369.87	210.65
370.07	201.29
370.27	205.97
370.47	322.99
370.66	564.07
370.86	692.80
371.06	660.03
371.25	685.78
371.45	674.07
371.65	660.03
371.84	627.26
372.04	737.27
372.24	777.06
372.44	727.91
372.63	716.20
372.83	660.03
373.03	737.27
373.22	723.23
373.42	699.82
373.62	805.14
373.81	779.40
374.01	720.88
374.21	807.48
374.40	718.54
374.60	791.10
374.79	844.93
374.99	758.33
375.19	851.96
375.38	924.51
375.58	800.46
375.78	856.64
375.97	830.89
376.17	922.17
376.37	816.85
376.56	894.08
376.76	889.40
376.95	833.23
377.15	858.98
377.35	919.83
377.54	915.15
377.74	908.13
377.93	912.81
378.13	877.70
378.33	973.66
378.52	954.94
378.72	931.53
378.91	1050.90
379.11	976.00
379.31	964.30
379.50	912.81
379.70	1004.09
379.89	961.96
380.09	936.21
380.28	957.28
380.48	1041.54
380.68	957.28
380.87	943.24
381.07	1001.75
381.26	1027.50
381.46	959.62
381.65	1008.77
381.85	987.71
382.04	1095.37
382.24	1004.09
382.43	1004.09
382.63	987.71
382.83	1104.73
383.02	1034.52
383.22	1128.14
383.41	1071.97
383.61	1015.79
383.80	1177.29
384.00	1149.20
384.19	1076.65
384.39	1139.84
384.58	1226.44
384.78	1149.20
384.97	1156.22
385.17	1104.73
385.36	1226.44
385.56	1186.65
385.75	1224.10
385.95	1114.10
386.14	1121.12
386.34	1114.10
386.53	1128.14
386.72	1228.78
386.92	1345.81
387.11	1329.42
387.31	1123.46
387.50	1193.67
387.70	1331.76
387.89	1247.51
388.09	1151.54
388.28	1352.83
388.48	1256.87
388.67	1282.61
388.86	1259.21
389.06	1322.40
389.25	1350.49
389.45	1378.58
389.64	1390.28
389.84	1352.83
390.03	1350.49
390.22	1439.43
390.42	1394.96
390.61	1427.73
390.81	1394.96
391.00	1336.45
391.19	1411.34
391.39	1460.49
391.58	1472.20
391.78	1373.89
391.97	1479.22
392.16	1348.15
392.36	1455.81
392.55	1509.65
392.75	1488.58
392.94	1565.82
393.13	1533.05
393.33	1390.28
393.52	1572.84
393.71	1661.78
393.91	1577.52
394.10	1572.84
394.29	1645.40
394.49	1605.61
394.68	1584.54
394.88	1547.09
395.07	1774.13
395.26	1682.85
395.46	1577.52
395.65	1645.40
395.84	1741.36
396.04	1739.02
396.23	1720.29
396.42	1741.36
396.62	1886.47
396.81	1790.51
397.00	1717.95
397.19	1757.74
397.39	1872.43
397.58	1858.39
397.77	1914.56
397.97	1823.28
398.16	1774.13
398.35	1888.81
398.55	1832.64
398.74	1902.86
398.93	1994.14
399.12	1877.11
399.32	1905.20
399.51	1914.56
399.70	1973.07
399.90	1919.24
400.09	1923.92
400.28	2033.93
400.47	1989.46
400.67	2047.97
400.86	2078.40
401.05	2104.14
401.24	2221.17
401.44	2160.31
401.63	2218.83
401.82	2188.40
402.01	2094.78
402.21	2092.44
402.40	2232.87
402.59	2244.57
402.78	2165.00
402.97	2277.34
403.17	2237.55
403.36	2230.53
403.55	2272.66
403.74	2218.83
403.93	2401.39
404.13	2342.88
404.32	2359.26
404.51	2410.75
404.70	2438.84
404.89	2394.37
405.09	2466.92
405.28	2487.99
405.47	2492.67
405.66	2567.57
405.85	2499.69
406.05	2471.61
406.24	2583.95
406.43	2520.76
406.62	2626.08
406.81	2722.04
407.00	2616.72
407.20	2478.63
407.39	2621.40
407.58	2761.83
407.77	2759.49
407.96	2796.94
408.15	2780.56
408.34	2766.51
408.54	2801.62
408.73	2899.92
408.92	2827.37
409.11	2904.60
409.30	2998.23
409.49	2806.30
409.68	2916.31
409.87	2808.64
410.07	2937.37
410.26	2963.12
410.45	2958.44
410.64	3052.06
410.83	3056.74
411.02	3094.19
411.21	3166.74
411.40	3150.36
411.59	3068.44
411.78	3166.74
411.98	3094.19
412.17	3300.16
412.36	3241.64
412.55	3290.79
412.74	3300.16
412.93	3361.01
413.12	3445.27
413.31	3653.58
413.50	3447.61
413.69	3485.06
413.88	3424.20
414.07	3562.30
414.26	3534.21
414.45	3543.57
414.64	3644.21
414.83	3681.66
415.02	3829.12
415.22	3925.08
415.41	3833.80
415.60	3782.31
415.79	3911.04
415.98	3840.82
416.17	4011.68
416.36	3983.59
416.55	4030.40
416.74	3971.89
416.93	3971.89
417.12	4021.04
417.31	4168.49
417.50	4170.83
417.69	4306.59
417.88	4241.05
418.07	4222.33
418.26	4252.75
418.45	4365.10
418.64	4390.84
418.83	4362.76
419.02	4395.53
419.21	4496.17
419.39	4465.74
419.58	4468.08
419.77	4531.28
419.96	4725.54
420.15	4606.17
420.34	4676.39
420.53	4514.89
420.72	4634.26
420.91	4652.98
421.10	4683.41
421.29	4856.61
421.48	4718.52
421.67	4830.87
421.86	4709.16
422.05	4699.80
422.24	4812.14
422.43	4980.66
422.61	4926.83
422.80	4851.93
422.99	4760.65
423.18	4770.01
423.37	4933.85
423.56	4837.89
423.75	4912.78
423.94	4746.61
424.13	4528.94
424.32	4788.74
424.50	5001.72
424.69	5076.62
424.88	4952.57
425.07	4905.76
425.26	4847.25
425.45	4847.25
425.64	4894.06
425.83	5011.09
426.01	4978.32
426.20	5050.88
426.39	5018.11
426.58	5029.81
426.77	5252.16
426.96	5116.41
427.15	5107.05
427.33	5184.29
427.52	5071.94
427.71	5184.29
427.90	5242.80
428.09	5207.69
428.28	5369.19
428.46	5186.63
428.65	5294.29
428.84	5474.51
429.03	5493.24
429.22	5366.85
429.40	5322.38
429.59	5418.34
429.78	5378.55
429.97	5177.26
430.16	5366.85
430.34	5584.52
430.53	5760.06
430.72	5617.29
430.91	5561.11
431.10	5526.00
431.28	5708.57
431.47	5837.30
431.66	5837.30
431.85	5738.99
432.03	5970.71
432.22	5996.45
432.41	5795.17
432.60	5877.09
432.79	6040.92
432.97	6036.24
433.16	5989.43
433.35	5804.53
433.54	5966.03
433.72	6094.76
433.91	6132.20
434.10	6092.41
434.28	6085.39
434.47	6118.16
434.66	6162.63
434.85	6434.13
435.03	6307.74
435.22	6438.81
435.41	6656.48
435.59	6518.39
435.78	6455.20
435.97	6429.45
436.16	6331.15
436.34	6387.32
436.53	6502.01
436.72	6633.08
436.90	6431.79
437.09	6654.14
437.28	6459.88
437.46	6499.67
437.65	6602.65
437.84	6817.98
438.02	6595.63
438.21	6759.47
438.40	6649.46
438.58	6998.20
438.77	6972.46
438.96	6890.54
439.14	6960.75
439.33	7075.44
439.52	7073.10
439.70	7049.69
439.89	7325.88
440.08	7541.21
440.26	7304.81
440.45	7496.74
440.63	7393.75
440.82	7660.57
441.01	7590.36
441.19	7592.70
441.38	7681.64
441.57	7681.64
441.75	7833.77
441.94	7833.77
442.12	7826.75
442.31	8056.12
442.50	7941.44
442.68	8021.02
442.87	8056.12
443.05	8030.38
443.24	8219.96
443.43	8243.37
443.61	8102.93
443.80	8369.76
443.98	8114.64
444.17	7730.79
444.35	8245.71
444.54	8390.82
444.73	8086.55
444.91	8170.81
445.10	8386.14
445.28	8327.63
445.47	8360.39
445.65	8395.50
445.84	8475.08
446.02	8479.76
446.21	8294.86
446.39	8329.97
446.58	8547.64
446.77	8578.06
446.95	8217.62
447.14	8603.81
447.32	8683.39
447.51	8573.38
447.69	8482.10
447.88	8531.25
448.06	8503.17
448.25	8559.34
448.43	8503.17
448.62	8564.02
448.80	8470.40
448.99	8629.56
449.17	8788.71
449.36	8580.40
449.54	8929.14
449.73	8929.14
449.91	9001.70
450.10	8875.31
450.28	9188.94
450.46	9050.85
450.65	9123.41
450.83	9064.89
451.02	9100.00
451.20	9179.58
451.39	8990.00
451.57	9111.71
451.76	8987.66
451.94	9270.86
452.13	9104.68
452.31	9041.49
452.49	9027.45
452.68	9373.85
452.86	9301.29
453.05	9383.21
453.23	9437.04
453.42	9362.14
453.60	9427.68
453.78	9458.10
453.97	9338.74
454.15	9500.23
454.34	9430.02
454.52	9572.79
454.70	9687.48
454.89	9755.35
455.07	9745.99
455.26	9851.31
455.44	9970.68
455.62	9956.64
455.81	10005.79
455.99	10003.45
456.17	10059.62
456.36	9994.09
456.54	10024.51
456.73	10080.69
456.91	10445.81
457.09	10476.24
457.28	10705.61
457.46	10188.35
457.64	10443.47
457.83	10420.06
458.01	10272.61
458.19	10619.01
458.38	10511.35
458.56	10698.59
458.74	10586.24
458.93	10679.86
459.11	10761.78
459.29	10611.99
459.48	10780.51
459.66	10984.13
459.84	11042.65
460.03	10986.47
460.21	11239.25
460.39	11232.23
460.57	10981.79
460.76	10995.84
460.94	11066.05
461.12	11199.46
461.31	11213.51
461.49	11218.19
461.67	11152.65
461.85	11440.54
462.04	11204.14
462.22	11833.75
462.40	11604.38
462.59	11389.05
462.77	11332.87
462.95	11644.17
463.13	11499.05
463.32	11475.65
463.50	11709.70
463.68	11698.00
463.86	11737.79
464.05	11609.06
464.23	11646.51
464.41	11690.98
464.59	11550.54
464.78	11815.02
464.96	11871.20
465.14	11782.26
465.32	11866.52
465.50	11983.54
465.69	12044.40
465.87	12009.29
466.05	12119.29
466.23	12086.53
466.41	12329.94
466.60	12147.38
466.78	12184.83
466.96	12208.23
467.14	12299.52
467.32	12044.40
467.51	12241.00
467.69	12156.74
467.87	12409.52
468.05	12395.48
468.23	12491.44
468.41	12175.47
468.60	12432.93
468.78	12699.75
468.96	12662.30
469.14	12793.37
469.32	12978.27
469.50	12746.56
469.69	12908.05
469.87	13090.62
470.05	13013.38
470.23	13088.28
470.41	12868.27
470.59	13453.40
470.77	13359.78
470.95	13085.94
471.14	13544.68
471.32	13034.44
471.50	13514.25
471.68	13593.83
471.86	13357.44
472.04	13678.09
472.22	13926.19
472.40	13783.41
472.58	13760.01
472.77	14052.58
472.95	13998.74
473.13	14846.02
473.31	14054.92
473.49	14036.19
473.67	14204.71
473.85	14223.44
474.03	14586.22
474.21	14796.87
474.39	14567.49
474.57	14604.94
474.75	14953.68
474.93	14649.41
475.12	14817.93
475.30	14972.41
475.48	14944.32
475.66	15211.14
475.84	15213.48
476.02	15374.98
476.20	15218.16
476.38	15470.94
476.56	16046.71
476.74	15964.79
476.92	15819.68
477.10	15742.44
477.28	16140.33
477.46	16187.14
477.64	16592.06
477.82	16648.23
478.00	16725.47
478.18	16460.99
478.36	16627.17
478.54	17252.09
478.72	16985.27
478.90	17301.24
479.08	17542.32
479.26	17610.19
479.44	17884.03
479.62	17671.04
479.80	17759.98
479.98	18024.47
480.16	18293.63
480.34	18504.28
480.52	18813.23
480.70	18518.32
480.88	18452.78
481.06	18764.07
481.24	18771.10
481.41	19007.49
481.59	19363.25
481.77	19129.20
481.95	19309.42
482.13	19679.22
482.31	19417.08
482.49	20245.63
482.67	19864.13
482.85	20191.80
483.03	20297.13
483.21	20453.94
483.39	21006.31
483.57	20573.31
483.74	21128.02
483.92	21383.13
484.10	21158.44
484.28	21516.54
484.46	21603.14
484.64	22164.87
484.82	22008.06
485.00	22288.92
485.18	22705.54
485.35	22934.91
485.53	22403.61
485.71	22717.24
485.89	23325.78
486.07	23054.28
486.25	23379.61
486.43	23583.24
486.61	23861.76
486.78	23756.44
486.96	24418.81
487.14	24402.43
487.32	24493.71
487.50	24704.35
487.68	25202.89
487.85	25195.87
488.03	25727.17
488.21	25666.31
488.39	25687.38
488.57	25991.65
488.75	25963.56
488.92	26768.71
489.10	26565.08
489.28	26562.74
489.46	27255.54
489.64	26796.79
489.81	27344.48
489.99	27197.02
490.17	27639.39
490.35	27931.95
490.53	28292.40
490.70	28067.70
490.88	28037.28
491.06	28386.02
491.24	28678.58
491.41	28765.18
491.59	29069.45
491.77	28914.98
491.95	29544.58
492.13	29446.28
492.30	29734.17
492.48	29392.45
492.66	30094.61
492.84	30101.63
493.01	30609.53
493.19	30422.28
493.37	30731.23
493.54	31122.10
493.72	31388.92
493.90	31323.39
494.08	31386.58
494.25	31534.04
494.43	32018.53
494.61	31903.84
494.79	32130.87
494.96	32442.17
495.14	32760.48
495.32	33434.55
495.49	32989.85
495.67	32727.71
495.85	33270.72
496.02	33509.45
496.20	33542.22
496.38	34047.77
496.55	33734.14
496.73	34705.46
496.91	34410.56
497.09	34712.49
497.26	34747.59
497.44	34415.24
497.62	35323.36
497.79	35393.58
497.97	35314.00
498.14	35644.02
498.32	35969.35
498.50	36208.09
498.67	36229.15
498.85	36332.14
499.03	36456.18
499.20	36786.20
499.38	36755.77
499.56	37427.51
499.73	36858.76
499.91	37439.21
500.08	37134.94
500.26	37340.91
500.44	37186.43
500.61	37837.10
500.79	37415.80
500.97	37839.44
501.14	38370.74
501.32	38260.74
501.49	38476.07
501.67	38541.60
501.84	39330.36
502.02	38670.33
502.20	38595.43
502.37	38700.76
502.55	39126.74
502.72	39683.78
502.90	39592.50
503.07	39416.96
503.25	39732.93
503.43	39517.60
503.60	39854.64
503.78	40041.88
503.95	40268.92
504.13	40645.74
504.30	40573.19
504.48	40437.44
504.65	40472.54
504.83	41113.85
505.01	40954.69
505.18	41109.17
505.36	41186.41
505.53	41378.33
505.71	41085.76
505.88	41298.75
506.06	41205.13
506.23	41624.09
506.41	41390.03
506.58	41799.63
506.76	41816.01
506.93	42312.20
507.11	42330.93
507.28	42616.47
507.46	42707.76
507.63	42873.93
507.81	42742.86
507.98	42670.31
508.16	42628.18
508.33	42918.40
508.50	43587.80
508.68	43136.07
508.85	43540.99
509.03	43700.14
509.20	43728.23
509.38	44196.34
509.55	43978.67
509.73	44306.34
509.90	44793.17
510.08	44313.36
510.25	44701.89
510.42	44479.54
510.60	44744.02
510.77	44842.32
510.95	45631.08
511.12	44938.29
511.30	44940.63
511.47	45406.39
511.64	45663.85
511.82	45170.00
511.99	45202.77
512.17	45876.84
512.34	45404.05
512.51	46141.32
512.69	45844.07
512.86	45979.82
513.04	46583.68
513.21	46087.49
513.38	46562.62
513.56	46681.98
513.73	46403.46
513.90	46817.74
514.08	46684.33
514.25	47316.27
514.43	46696.03
514.60	47257.76
514.77	47377.12
514.95	47269.46
515.12	46960.51
515.29	47320.95
515.47	47758.63
515.64	47999.71
515.81	47746.93
515.99	48231.42
516.16	48311.00
516.33	47969.28
516.51	48748.68
516.68	47983.32
516.85	48369.51
517.03	48767.40
517.20	48516.96
517.37	48498.24
517.54	48399.94
517.72	48690.16
517.89	49095.08
518.06	49326.79
518.24	49322.11
518.41	49277.64
518.58	49453.18
518.75	49151.25
518.93	49279.98
519.10	49357.22
519.27	49521.05
519.45	49621.70
519.62	49822.98
519.79	49801.92
519.96	50038.31
520.14	50014.91
520.31	49970.44
520.48	50380.03
520.65	50183.43
520.83	50368.33
521.00	50688.98
521.17	50174.06
521.34	50223.22
521.52	51028.36
521.69	50466.63
521.86	51131.34
522.03	50494.72
522.20	50937.08
522.38	51503.49
522.55	50995.59
522.72	51145.39
522.89	50941.76
523.07	51599.45
523.24	51253.05
523.41	51379.44
523.58	51334.97
523.75	51540.94
523.92	51435.61
524.10	51885.00
524.27	51899.04
524.44	51515.19
524.61	51608.81
524.78	52259.48
524.96	51821.80
525.13	52156.50
525.30	52289.91
525.47	52322.68
525.64	52126.07
525.81	52470.13
525.98	52664.39
526.16	52622.26
526.33	52669.08
526.50	52949.94
526.67	52645.67
526.84	53059.94
527.01	52722.91
527.18	52552.05
527.36	52832.91
527.53	53062.29
527.70	53237.83
527.87	53298.68
528.04	52924.19
528.21	53352.51
528.38	53202.72
528.55	53645.08
528.72	53195.70
528.89	53413.37
529.07	53209.74
529.24	53375.92
529.41	53565.50
529.58	53294.00
529.75	53373.58
529.92	53834.66
530.09	53609.97
530.26	53727.00
530.43	53867.43
530.60	53558.48
530.77	53778.49
530.94	53904.88
531.11	53961.05
531.28	54117.87
531.46	53837.00
531.63	53998.50
531.80	54298.09
531.97	54316.81
532.14	54167.02
532.31	54244.26
532.48	54326.17
532.65	54452.56
532.82	54372.99
532.99	54485.33
533.16	54387.03
533.33	54747.47
533.50	55040.04
533.67	54714.70
533.84	54358.94
534.01	54691.30
534.18	54691.30
534.35	55203.88
534.52	54644.49
534.69	55054.08
534.86	55199.19
535.03	54927.69
535.20	55126.64
535.37	55281.11
535.54	54976.84
535.71	55119.62
535.88	55327.92
536.05	55325.58
536.22	55580.70
536.38	55519.85
536.55	55543.25
536.72	55416.86
536.89	55533.89
537.06	55583.04
537.23	55681.34
537.40	55250.69
537.57	55632.19
537.74	55739.86
537.91	55765.60
538.08	55798.37
538.25	55508.14
538.42	55786.67
538.59	55884.97
538.75	55908.38
538.92	56107.32
539.09	56030.08
539.26	55854.54
539.43	56095.62
539.60	56140.09
539.77	56165.84
539.94	56294.56
540.11	56374.14
540.28	56119.02
540.44	56259.46
540.61	56346.06
540.78	56324.99
540.95	56381.16
541.12	56381.16
541.29	56413.93
541.46	56430.32
541.62	56734.59
541.79	56545.00
541.96	56285.20
542.13	56299.25
542.30	56498.19
542.47	56516.92
542.63	56938.21
542.80	56781.40
542.97	57050.56
543.14	57085.67
543.31	57078.64
543.48	57109.07
543.64	57373.55
543.81	57066.94
543.98	57092.69
544.15	57172.27
544.32	57190.99
544.48	57523.35
544.65	57198.01
544.82	57506.96
544.99	57066.94
545.16	57303.34
545.32	57291.63
545.49	57406.32
545.66	57724.63
545.83	57722.29
546.00	57822.93
546.16	57495.26
546.33	57476.54
546.50	57394.62
546.67	57457.81
546.83	57286.95
547.00	57488.24
547.17	57647.39
547.34	57710.59
547.50	57631.01
547.67	57975.07
547.84	58066.35
548.00	57963.37
548.17	57733.99
548.34	57977.41
548.51	57965.71
548.67	58007.84
548.84	58143.59
549.01	58124.86
549.18	57867.40
549.34	58190.40
549.51	58239.55
549.68	58279.34
549.84	58253.59
550.01	58281.68
550.18	58181.04
550.34	58286.36
550.51	58370.62
550.68	58464.24
550.84	58450.20
551.01	58473.60
551.18	58255.93
551.34	58204.44
551.51	58534.46
551.68	58522.76
551.84	58646.80
552.01	58288.70
552.18	58520.41
552.34	58454.88
552.51	58541.48
552.68	58199.76
552.84	58192.74
553.01	58770.85
553.18	58782.55
553.34	58820.00
553.51	58625.74
553.67	58674.89
553.84	58815.32
554.01	58904.26
554.17	58707.66
554.34	58794.26
554.51	58784.90
554.67	58944.05
554.84	59084.48
555.00	58791.92
555.17	59068.10
555.33	58990.86
555.50	58866.81
555.67	58752.13
555.83	59035.33
556.00	59089.16
556.16	59274.07
556.33	59110.23
556.50	59224.92
556.66	59370.03
556.83	58934.69
556.99	59465.99
557.16	59494.08
557.32	59559.61
557.49	59395.77
557.65	59243.64
557.82	59325.56
557.98	59032.99
558.15	59437.90
558.32	59496.42
558.48	59250.66
558.65	59295.13
558.81	59386.41
558.98	59414.50
559.14	59482.37
559.31	59498.76
559.47	59501.10
559.64	59381.73
559.80	59578.34
559.97	59606.42
560.13	59540.89
560.30	59465.99
560.46	59664.94
560.63	59788.98
560.79	59793.67
560.96	59686.00
561.12	59810.05
561.29	59655.57
561.45	59533.87
561.61	59590.04
561.78	59702.38
561.94	59550.25
562.11	59770.26
562.27	59838.14
562.44	59896.65
562.60	60030.06
562.77	59831.11
562.93	59735.15
563.10	59856.86
563.26	59849.84
563.42	60135.38
563.59	59920.05
563.75	59880.27
563.92	59924.74
564.08	59779.62
564.24	60214.96
564.41	60062.83
564.57	60196.24
564.74	59903.67
564.90	60030.06
565.07	60055.81
565.23	59887.29
565.39	59945.80
565.56	59976.23
565.72	59964.52
565.88	60158.79
566.05	60067.51
566.21	60060.49
566.38	60037.08
566.54	60044.10
566.70	60287.52
566.87	60441.99
567.03	60109.64
567.19	60205.60
567.36	60275.82
567.52	60097.94
567.68	60430.29
567.85	60479.44
568.01	60285.18
568.17	60196.24
568.34	60280.50
568.50	60243.05
568.66	60191.56
568.83	60268.79
568.99	60179.85
569.15	60444.33
569.32	60095.60
569.48	60301.56
569.64	60439.65
569.81	60240.71
569.97	60451.36
570.13	60385.82
570.30	60175.17
570.46	60491.15
570.62	60133.04
570.78	60427.95
570.95	60161.13
571.11	60266.45
571.27	60301.56
571.43	60542.64
571.60	60575.40
571.76	60507.53
571.92	60479.44
572.09	60507.53
572.25	60535.62
572.41	60346.03
572.57	60360.08
572.74	60687.75
572.90	60554.34
573.06	60479.44
573.22	60507.53
573.38	60535.62
573.55	60523.91
573.71	60809.46
573.87	60720.52
574.03	60301.56
574.20	60507.53
574.36	60516.89
574.52	60772.01
574.68	60350.71
574.84	60575.40
575.01	60676.05
575.17	60554.34
575.33	60743.92
575.49	60528.59
575.65	60664.35
575.82	60722.86
575.98	60561.36
576.14	60896.06
576.30	60762.65
576.46	60439.65
576.62	60591.79
576.79	60664.35
576.95	60514.55
577.11	60767.33
577.27	60867.97
577.43	60722.86
577.59	60619.88
577.75	60371.78
577.92	60640.94
578.08	60610.51
578.24	60718.18
578.40	60898.40
578.56	60856.27
578.72	60603.49
578.88	60963.93
579.04	60865.63
579.21	60776.69
579.37	60729.88
579.53	60647.96
579.69	60612.85
579.85	60755.63
580.01	60825.84
580.17	60512.21
580.33	60889.04
580.49	60802.44
580.65	60870.31
580.82	60659.66
580.98	60610.51
581.14	60638.60
581.30	60858.61
581.46	60559.02
581.62	61003.72
581.78	60804.78
581.94	60767.33
582.10	60814.14
582.26	60814.14
582.42	60729.88
582.58	60753.29
582.74	60793.07
582.90	60912.44
583.06	60870.31
583.22	60568.38
583.38	60788.39
583.54	61006.06
583.70	60830.52
583.86	60940.53
584.02	60914.78
584.18	60846.91
584.34	60914.78
584.50	61003.72
584.66	60732.22
584.82	60926.49
584.98	60940.53
585.14	60947.55
585.30	60846.91
585.46	60811.80
585.62	60849.25
585.78	61097.34
585.94	60776.69
586.10	61034.15
586.26	61008.40
586.42	60994.36
586.58	61048.19
586.74	60919.46
586.90	60804.78
587.06	61073.94
587.22	61008.40
587.38	60839.89
587.54	61125.43
587.70	61043.51
587.86	60879.67
588.02	60896.06
588.18	61130.11
588.34	60865.63
588.49	61137.13
