SpectraSuite Data File
++++++++++++++++++++++++++++++++++++
Date: Fri Oct 25 11:33:44 EDT 2013
User: price-jones
Dark Spectrum Present: No
Reference Spectrum Present: No
Number of Sampled Component Spectra: 1
Spectrometers: USB2+H05261
Integration Time (usec): 100000 (USB2+H05261)
Spectra Averaged: 1 (USB2+H05261)
Boxcar Smoothing: 0 (USB2+H05261)
Correct for Electrical Dark: No (USB2+H05261)
Strobe/Lamp Enabled: No (USB2+H05261)
Correct for Detector Non-linearity: No (USB2+H05261)
Correct for Stray Light: No (USB2+H05261)
Number of Pixels in Processed Spectrum: 2048
>>>>>Begin Processed Spectral Data<<<<<
365.73	262.14
365.92	262.14
366.12	262.14
366.32	166.18
366.52	170.86
366.72	224.69
366.91	133.41
367.11	170.86
367.31	182.56
367.51	135.75
367.70	142.77
367.90	236.39
368.10	191.92
368.30	156.82
368.49	180.22
368.69	229.37
368.89	138.09
369.09	191.92
369.28	283.20
369.48	220.01
369.68	334.70
369.87	208.31
370.07	250.44
370.27	306.61
370.47	374.49
370.66	423.64
370.86	486.83
371.06	524.28
371.25	564.07
371.45	475.13
371.65	573.43
371.84	566.41
372.04	554.71
372.24	622.58
372.44	613.22
372.63	575.77
372.83	540.66
373.03	631.94
373.22	603.86
373.42	613.22
373.62	685.78
373.81	564.07
374.01	645.99
374.21	650.67
374.40	653.01
374.60	681.10
374.79	669.39
374.99	692.80
375.19	620.24
375.38	594.50
375.58	650.67
375.78	688.12
375.97	727.91
376.17	634.29
376.37	753.65
376.56	718.54
376.76	695.14
376.95	723.23
377.15	741.95
377.35	695.14
377.54	734.93
377.74	655.35
377.93	702.16
378.13	690.46
378.33	744.29
378.52	706.84
378.72	697.48
378.91	711.52
379.11	812.17
379.31	706.84
379.50	606.20
379.70	826.21
379.89	758.33
380.09	718.54
380.28	741.95
380.48	650.67
380.68	837.91
380.87	814.51
381.07	699.82
381.26	709.18
381.46	767.70
381.65	772.38
381.85	723.23
382.04	777.06
382.24	772.38
382.43	793.44
382.63	826.21
382.83	777.06
383.02	816.85
383.22	826.21
383.41	746.63
383.61	823.87
383.80	858.98
384.00	795.78
384.19	807.48
384.39	793.44
384.58	884.72
384.78	870.68
384.97	781.74
385.17	837.91
385.36	873.02
385.56	741.95
385.75	858.98
385.95	903.45
386.14	826.21
386.34	875.36
386.53	812.17
386.72	812.17
386.92	905.79
387.11	912.81
387.31	983.02
387.50	856.64
387.70	868.34
387.89	887.06
388.09	856.64
388.28	861.32
388.48	868.34
388.67	999.41
388.86	926.85
389.06	910.47
389.25	983.02
389.45	884.72
389.64	938.55
389.84	980.68
390.03	1011.11
390.22	999.41
390.42	952.60
390.61	966.64
390.81	1020.47
391.00	971.32
391.19	1043.88
391.39	931.53
391.58	1050.90
391.78	947.92
391.97	1053.24
392.16	1011.11
392.36	990.05
392.55	1083.67
392.75	1057.92
392.94	1071.97
393.13	1060.26
393.33	1027.50
393.52	1053.24
393.71	1200.69
393.91	1121.12
394.10	1046.22
394.29	1118.78
394.49	1100.05
394.68	1081.33
394.88	1172.61
395.07	1100.05
395.26	1210.06
395.46	1184.31
395.65	1217.08
395.84	1205.38
396.04	1233.46
396.23	1219.42
396.42	1259.21
396.62	1203.04
396.81	1224.10
397.00	1228.78
397.19	1235.80
397.39	1233.46
397.58	1207.72
397.77	1240.48
397.97	1291.98
398.16	1214.74
398.35	1355.17
398.55	1256.87
398.74	1310.70
398.93	1301.34
399.12	1301.34
399.32	1327.08
399.51	1357.51
399.70	1444.11
399.90	1357.51
400.09	1336.45
400.28	1359.85
400.47	1343.47
400.67	1313.04
400.86	1359.85
401.05	1423.05
401.24	1472.20
401.44	1380.92
401.63	1387.94
401.82	1458.15
402.01	1406.66
402.21	1409.00
402.40	1460.49
402.59	1486.24
402.78	1490.92
402.97	1558.80
403.17	1678.16
403.36	1584.54
403.55	1519.01
403.74	1612.63
403.93	1586.88
404.13	1605.61
404.32	1624.33
404.51	1579.86
404.70	1650.08
404.89	1682.85
405.09	1673.48
405.28	1785.83
405.47	1650.08
405.66	1729.66
405.85	1717.95
406.05	1806.89
406.24	1781.15
406.43	1762.42
406.62	1708.59
406.81	1858.39
407.00	1734.34
407.20	1863.07
407.39	1755.40
407.58	1748.38
407.77	1872.43
407.96	1914.56
408.15	1891.15
408.34	1870.09
408.54	2036.27
408.73	1947.33
408.92	1940.30
409.11	1975.41
409.30	1966.05
409.49	2015.20
409.68	1919.24
409.87	2017.54
410.07	2090.10
410.26	2085.42
410.45	2113.50
410.64	2071.37
410.83	2150.95
411.02	2169.68
411.21	2111.16
411.40	2333.51
411.59	2120.53
411.78	2202.44
411.98	2167.34
412.17	2216.49
412.36	2239.89
412.55	2349.90
412.74	2340.54
412.93	2410.75
413.12	2377.98
413.31	2389.69
413.50	2427.14
413.69	2471.61
413.88	2553.52
414.07	2462.24
414.26	2551.18
414.45	2539.48
414.64	2499.69
414.83	2502.03
415.02	2663.53
415.22	2712.68
415.41	2670.55
415.60	2665.87
415.79	2712.68
415.98	2705.66
416.17	2708.00
416.36	2677.57
416.55	2715.02
416.74	2738.43
416.93	2743.11
417.12	2808.64
417.31	2892.90
417.50	2916.31
417.69	2960.78
417.88	2979.50
418.07	2981.84
418.26	2981.84
418.45	2981.84
418.64	3155.04
418.83	3087.17
419.02	3059.08
419.21	3077.80
419.39	3117.59
419.58	3073.12
419.77	3143.34
419.96	3141.00
420.15	3152.70
420.34	3246.32
420.53	3150.36
420.72	3208.87
420.91	3180.79
421.10	3236.96
421.29	3251.00
421.48	3171.43
421.67	3265.05
421.86	3176.11
422.05	3300.16
422.24	3246.32
422.43	3403.14
422.61	3314.20
422.80	3407.82
422.99	3428.88
423.18	3414.84
423.37	3473.36
423.56	3379.73
423.75	3435.91
423.94	3365.69
424.13	3173.77
424.32	3281.43
424.50	3445.27
424.69	3536.55
424.88	3428.88
425.07	3435.91
425.26	3339.94
425.45	3503.78
425.64	3456.97
425.83	3487.40
426.01	3421.86
426.20	3389.10
426.39	3398.46
426.58	3571.66
426.77	3485.06
426.96	3487.40
427.15	3510.80
427.33	3485.06
427.52	3632.51
427.71	3576.34
427.90	3578.68
428.09	3604.42
428.28	3775.28
428.46	3716.77
428.65	3756.56
428.84	3840.82
429.03	3768.26
429.22	3695.71
429.40	3838.48
429.59	3744.86
429.78	3777.62
429.97	3681.66
430.16	3761.24
430.34	3822.09
430.53	3896.99
430.72	3920.40
430.91	3922.74
431.10	3824.44
431.28	3901.67
431.47	4063.17
431.66	3981.25
431.85	4025.72
432.03	4056.15
432.22	4105.30
432.41	4175.52
432.60	4126.36
432.79	4023.38
432.97	4154.45
433.16	4142.75
433.35	4107.64
433.54	4170.83
433.72	4234.03
433.91	4234.03
434.10	4245.73
434.28	4093.60
434.47	4365.10
434.66	4360.42
434.85	4215.30
435.03	4269.14
435.22	4386.16
435.41	4372.12
435.59	4465.74
435.78	4542.98
435.97	4423.61
436.16	4404.89
436.34	4404.89
436.53	4505.53
436.72	4585.11
436.90	4404.89
437.09	4519.57
437.28	4432.97
437.46	4493.83
437.65	4533.62
437.84	4608.51
438.02	4713.84
438.21	4622.56
438.40	4531.28
438.58	4601.49
438.77	4723.20
438.96	4774.69
439.14	4849.59
439.33	4952.57
439.52	4940.87
439.70	4987.68
439.89	5001.72
440.08	5093.01
440.26	5041.51
440.45	4985.34
440.63	5041.51
440.82	5228.76
441.01	4903.42
441.19	5177.26
441.38	5249.82
441.57	5221.74
441.75	5423.02
441.94	5371.53
442.12	5460.47
442.31	5434.72
442.50	5390.25
442.68	5359.83
442.87	5600.90
443.05	5549.41
443.24	5416.00
443.43	5472.17
443.61	5607.92
443.80	5603.24
443.98	5462.81
444.17	5373.87
444.35	5568.13
444.54	5680.48
444.73	5720.27
444.91	5610.26
445.10	5902.83
445.28	5785.80
445.47	5668.78
445.65	5626.65
445.84	5785.80
446.02	5790.49
446.21	5841.98
446.39	5790.49
446.58	5713.25
446.77	5680.48
446.95	5628.99
447.14	5764.74
447.32	5767.08
447.51	5650.05
447.69	5767.08
447.88	5778.78
448.06	5837.30
448.25	5844.32
448.43	5839.64
448.62	5767.08
448.80	5724.95
448.99	5849.00
449.17	5867.72
449.36	5919.21
449.54	5949.64
449.73	6047.94
449.91	6183.70
450.10	6017.52
450.28	6033.90
450.46	6193.06
450.65	6176.67
450.83	6319.45
451.02	6146.25
451.20	6162.63
451.39	6244.55
451.57	6188.38
451.76	6239.87
451.94	6050.28
452.13	6274.98
452.31	6279.66
452.49	6188.38
452.68	6492.65
452.86	6291.36
453.05	6459.88
453.23	6462.22
453.42	6340.51
453.60	6235.19
453.78	6455.20
453.97	6384.98
454.15	6511.37
454.34	6436.47
454.52	6544.14
454.70	6621.38
454.89	6420.09
455.07	6717.34
455.26	6724.36
455.44	6726.70
455.62	6750.10
455.81	6693.93
455.99	6825.00
456.17	6895.22
456.36	6733.72
456.54	6939.69
456.73	6829.68
456.91	6902.24
457.09	7075.44
457.28	7096.50
457.46	7002.88
457.64	7166.72
457.83	7171.40
458.01	7052.03
458.19	7211.19
458.38	7143.32
458.56	7222.89
458.74	7005.22
458.93	7155.02
459.11	7265.02
459.29	7358.64
459.48	7466.31
459.66	7047.35
459.84	7241.62
460.03	7365.67
460.21	7325.88
460.39	7403.11
460.57	7609.08
460.76	7611.42
460.94	7410.14
461.12	7564.61
461.31	7529.50
461.49	7468.65
461.67	7616.10
461.85	7611.42
462.04	7573.97
462.22	7943.78
462.40	7770.58
462.59	7744.83
462.77	7805.69
462.95	7939.10
463.13	7705.04
463.32	7786.96
463.50	7758.88
463.68	7772.92
463.86	8035.06
464.05	7688.66
464.23	7927.39
464.41	7889.95
464.59	7824.41
464.78	8126.34
464.96	7936.76
465.14	8067.83
465.32	8004.63
465.50	8292.52
465.69	8269.11
465.87	7950.80
466.05	8210.60
466.23	8234.00
466.41	8187.19
466.60	8482.10
466.78	8112.30
466.96	8290.18
467.14	8205.92
467.32	8362.73
467.51	8430.61
467.69	8273.79
467.87	8175.49
468.05	8458.70
468.23	8217.62
468.41	8187.19
468.60	8531.25
468.78	8470.40
468.96	8528.91
469.14	8514.87
469.32	8659.98
469.50	8587.43
469.69	8872.97
469.87	8919.78
470.05	8755.94
470.23	9018.08
470.41	8641.26
470.59	8997.02
470.77	8898.72
470.95	8863.61
471.14	8961.91
471.32	8910.42
471.50	9406.61
471.68	9149.15
471.86	9118.73
472.04	9242.78
472.22	9387.89
472.40	9053.19
472.58	9289.59
472.77	9317.67
472.95	9378.53
473.13	9774.08
473.31	9458.10
473.49	9507.26
473.67	9446.40
473.85	9621.94
474.03	9806.84
474.21	9856.00
474.39	9982.38
474.57	9584.49
474.75	9827.91
474.93	9935.57
475.12	9937.91
475.30	10146.22
475.48	10230.48
475.66	10106.43
475.84	10225.80
476.02	10214.10
476.20	10267.93
476.38	10492.62
476.56	10494.96
476.74	10553.48
476.92	10637.73
477.10	10520.71
477.28	10623.69
477.46	10623.69
477.64	10817.96
477.82	11119.89
478.00	11442.88
478.18	11225.21
478.36	11314.15
478.54	11344.58
478.72	11166.70
478.90	11730.76
479.08	11613.74
479.26	11634.80
479.44	11658.21
479.62	11955.46
479.80	11665.23
479.98	12072.48
480.16	12294.83
480.34	12138.02
480.52	12196.53
480.70	12292.49
480.88	12334.62
481.06	12355.69
481.24	12453.99
481.41	12594.42
481.59	12706.77
481.77	12966.57
481.95	13090.62
482.13	13097.64
482.31	12716.13
482.49	13263.82
482.67	13483.83
482.85	13343.39
483.03	13429.99
483.21	13848.95
483.39	13804.48
483.57	13916.83
483.74	14050.24
483.92	14003.43
484.10	14183.65
484.28	14476.21
484.46	14366.21
484.64	14764.10
484.82	14581.54
485.00	14698.56
485.18	14934.96
485.35	15126.88
485.53	15112.84
485.71	15218.16
485.89	15503.71
486.07	15304.76
486.25	15489.67
486.43	15536.48
486.61	15611.37
486.78	15763.51
486.96	15960.11
487.14	16276.09
487.32	16112.25
487.50	16191.83
487.68	16203.53
487.85	16594.40
488.03	16730.15
488.21	17259.11
488.39	16840.15
488.57	17228.68
488.75	17165.49
488.92	17331.67
489.10	17539.97
489.28	17745.94
489.46	17638.28
489.64	17837.22
489.81	18270.22
489.99	18146.17
490.17	18293.63
490.35	18321.71
490.53	18628.32
490.70	18745.35
490.88	18956.00
491.06	18920.89
491.24	19208.78
491.41	19126.86
491.59	19321.12
491.77	19096.43
491.95	19360.91
492.13	19311.76
492.30	19714.33
492.48	19955.41
492.66	19955.41
492.84	20112.22
493.01	20152.01
493.19	20215.21
493.37	20512.46
493.54	20741.83
493.72	20739.49
493.90	20821.41
494.08	20805.02
494.25	20795.66
494.43	21027.37
494.61	20996.95
494.79	21333.98
494.96	21373.77
495.14	21678.04
495.32	21418.24
495.49	21642.93
495.67	21631.23
495.85	21888.69
496.02	22036.14
496.20	22368.50
496.38	22375.52
496.55	22609.58
496.73	22899.80
496.91	22438.72
497.09	22766.39
497.26	23110.45
497.44	23152.58
497.62	23349.18
497.79	23351.52
497.97	23461.53
498.14	23508.34
498.32	23754.10
498.50	24072.41
498.67	23847.72
498.85	23683.88
499.03	24166.03
499.20	24154.33
499.38	24240.93
499.56	24409.45
499.73	24898.62
499.91	24596.69
500.08	24910.32
500.26	24730.10
500.44	24926.71
500.61	25186.50
500.79	24870.53
500.97	25149.06
501.14	25465.03
501.32	25539.93
501.49	25259.06
501.67	25240.34
501.84	25663.97
502.02	25729.51
502.20	25488.43
502.37	25701.42
502.55	25846.54
502.72	25902.71
502.90	25984.63
503.07	25516.52
503.25	25949.52
503.43	26183.57
503.60	26417.63
503.78	26560.40
503.95	26768.71
504.13	26710.19
504.30	26492.52
504.48	27068.30
504.65	26534.65
504.83	27192.34
505.01	27288.31
505.18	26925.52
505.36	27335.12
505.53	27321.07
505.71	27438.10
505.88	27857.06
506.06	27229.79
506.23	27751.73
506.41	27943.66
506.58	27913.23
506.76	27758.75
506.93	28247.93
507.11	28013.87
507.28	28283.03
507.46	28144.94
507.63	28425.81
507.81	28659.86
507.98	28411.76
508.16	28629.43
508.33	28830.72
508.50	29034.35
508.68	28875.19
508.85	29097.54
509.03	29139.67
509.20	28996.90
509.38	29310.53
509.55	29296.49
509.73	29376.06
509.90	29369.04
510.08	29109.24
510.25	29289.46
510.42	29874.60
510.60	29935.45
510.77	30284.19
510.95	29982.26
511.12	29940.13
511.30	30125.04
511.47	29907.37
511.64	30118.01
511.82	30391.86
511.99	30169.51
512.17	30710.17
512.34	30698.47
512.51	30911.46
512.69	31005.08
512.86	30808.47
513.04	30986.35
513.21	30939.54
513.38	31379.56
513.56	30986.35
513.73	30909.11
513.90	31302.32
514.08	30986.35
514.25	31545.74
514.43	31747.03
514.60	31417.01
514.77	31800.86
514.95	31711.92
515.12	31688.51
515.29	31782.13
515.47	32121.51
515.64	32126.19
515.81	32156.62
515.99	32306.41
516.16	32634.09
516.33	32353.23
516.51	32566.21
516.68	32395.35
516.85	32320.46
517.03	32854.10
517.20	32835.38
517.37	32409.40
517.54	33017.94
517.72	32788.56
517.89	32999.21
518.06	33116.24
518.24	33130.28
518.41	33186.46
518.58	33200.50
518.75	33383.06
518.93	33755.21
519.10	33483.70
519.27	33392.42
519.45	33439.23
519.62	33757.55
519.79	33773.93
519.96	34040.75
520.14	33846.49
520.31	33696.69
520.48	33619.46
520.65	33951.81
520.83	34513.54
521.00	34621.20
521.17	34539.29
521.34	34410.56
521.52	34459.71
521.69	34700.78
521.86	34864.62
522.03	35077.61
522.20	34724.19
522.38	34834.19
522.55	35002.71
522.72	34857.60
522.89	35309.32
523.07	35557.42
523.24	35480.18
523.41	35519.97
523.58	35222.72
523.75	35758.70
523.92	35718.92
524.10	35487.20
524.27	35892.12
524.44	35852.33
524.61	36306.39
524.78	35974.03
524.96	36133.19
525.13	35978.72
525.30	35864.03
525.47	36201.07
525.64	36121.49
525.81	36512.36
525.98	36601.30
526.16	36444.48
526.33	36215.11
526.50	36825.99
526.67	36519.38
526.84	36715.98
527.01	36451.50
527.18	36720.66
527.36	36662.15
527.53	36833.01
527.70	37661.56
527.87	37380.70
528.04	36975.78
528.21	36987.49
528.38	37408.78
528.55	37516.45
528.72	36966.42
528.89	37635.81
529.07	37090.47
529.24	37378.36
529.41	37759.86
529.58	37696.67
529.75	37397.08
529.92	37649.86
530.09	37804.33
530.26	37785.61
530.43	38108.60
530.60	37476.66
530.77	37837.10
530.94	37820.72
531.11	37848.80
531.28	37963.49
531.46	38108.60
531.63	38361.38
531.80	38160.09
531.97	38431.60
532.14	38487.77
532.31	38635.22
532.48	38789.70
532.65	38703.10
532.82	38546.28
532.99	38703.10
533.16	38581.39
533.33	39161.84
533.50	38855.23
533.67	38873.96
533.84	38253.72
534.01	39019.07
534.18	39019.07
534.35	39482.50
534.52	38822.47
534.69	39157.16
534.86	39093.97
535.03	39636.97
535.20	39651.02
535.37	39257.81
535.54	39576.12
535.71	39526.97
535.88	39578.46
536.05	39892.09
536.22	40102.74
536.38	39620.59
536.55	40133.17
536.72	39440.37
536.89	39599.52
537.06	39728.25
537.23	40285.30
537.40	40041.88
537.57	40098.06
537.74	39981.03
537.91	40467.86
538.08	39885.07
538.25	39791.45
538.42	40273.60
538.59	40395.31
538.75	40233.81
538.92	40332.11
539.09	40727.66
539.26	40636.38
539.43	40739.36
539.60	40917.25
539.77	40751.07
539.94	40627.02
540.11	40390.62
540.28	40673.83
540.44	40591.91
540.61	40577.87
540.78	40975.76
540.95	40837.67
541.12	40870.43
541.29	41130.23
541.46	41071.72
541.62	41270.67
541.79	41383.01
541.96	40823.62
542.13	41247.26
542.30	41074.06
542.47	41214.49
542.63	41649.83
542.80	41722.39
542.97	41993.89
543.14	41783.24
543.31	41834.74
543.48	42293.48
543.64	42216.24
543.81	42192.84
543.98	42417.53
544.15	42164.75
544.32	42045.38
544.48	42632.86
544.65	42260.71
544.82	42609.45
544.99	42265.39
545.16	42120.28
545.32	42686.69
545.49	42618.81
545.66	42787.33
545.83	42504.13
546.00	42543.92
546.16	42717.12
546.33	42780.31
546.50	42136.66
546.67	42895.00
546.83	42197.52
547.00	42962.87
547.17	42902.02
547.34	43075.22
547.50	42981.60
547.67	43402.89
547.84	42745.20
548.00	42897.34
548.17	43393.53
548.34	42972.24
548.51	43367.79
548.67	43636.95
548.84	43292.89
549.01	43274.16
549.18	43239.06
549.34	43634.61
549.51	43707.16
549.68	43653.33
549.84	43150.12
550.01	43416.94
550.18	43484.81
550.34	43433.32
550.51	43749.29
550.68	43775.04
550.84	43569.07
551.01	43845.26
551.18	43943.56
551.34	43957.60
551.51	44147.18
551.68	43819.51
551.84	43746.95
552.01	43842.92
552.18	43988.03
552.34	44194.00
552.51	44238.47
552.68	43540.99
552.84	44137.82
553.01	44561.46
553.18	44041.86
553.34	44186.97
553.51	44224.42
553.67	44231.44
553.84	44589.55
554.01	44608.27
554.17	44580.18
554.34	44636.36
554.51	44535.71
554.67	44444.43
554.84	44325.07
555.00	44280.60
555.17	44369.54
555.33	44964.03
555.50	44591.89
555.67	44783.81
555.83	44439.75
556.00	44854.03
556.16	45188.72
556.33	45404.05
556.50	44999.14
556.66	45081.06
556.83	44907.86
556.99	45240.21
557.16	45263.62
557.32	45219.15
557.49	45015.52
557.65	45052.97
557.82	45303.41
557.98	45390.01
558.15	45408.73
558.32	45677.90
558.48	44720.62
558.65	45523.42
558.81	45413.41
558.98	45200.43
559.14	45371.28
559.31	45441.50
559.47	45593.64
559.64	44966.37
559.80	45317.45
559.97	45904.93
560.13	45418.10
560.30	45162.98
560.46	45958.76
560.63	45689.60
560.79	46131.96
560.96	45528.10
561.12	45617.04
561.29	45865.14
561.45	46092.17
561.61	45907.27
561.78	45769.18
561.94	45450.86
562.11	45500.01
562.27	45675.55
562.44	45771.52
562.60	45928.33
562.77	45619.38
562.93	45769.18
563.10	45921.31
563.26	45766.84
563.42	46534.53
563.59	45750.45
563.75	45661.51
563.92	45832.37
564.08	45869.82
564.24	46108.55
564.41	45867.48
564.57	45972.80
564.74	46387.08
564.90	46153.02
565.07	46092.17
565.23	46150.68
565.39	46007.91
565.56	46373.03
565.72	46424.53
565.88	46270.05
566.05	46143.66
566.21	46445.59
566.38	46382.40
566.54	46129.62
566.70	46490.06
566.87	46169.41
567.03	46382.40
567.19	46529.85
567.36	46469.00
567.52	46897.31
567.68	46815.40
567.85	46536.87
568.01	46232.60
568.17	46625.81
568.34	46560.28
568.50	46539.21
568.66	46188.13
568.83	46686.67
568.99	46344.95
569.15	46665.60
569.32	46349.63
569.48	46541.55
569.64	46658.58
569.81	46564.96
569.97	46483.04
570.13	46714.75
570.30	46522.83
570.46	46923.06
570.62	46958.17
570.78	46738.16
570.95	46801.35
571.11	47203.92
571.27	46623.47
571.43	46621.13
571.60	46848.16
571.76	47107.96
571.92	46422.19
572.09	46909.02
572.25	46681.98
572.41	46588.36
572.57	47009.66
572.74	47210.95
572.90	46794.33
573.06	47349.04
573.22	46930.08
573.38	47192.22
573.55	47304.57
573.71	47241.37
573.87	47210.95
574.03	46623.47
574.20	46937.10
574.36	46838.80
574.52	47047.11
574.68	47117.32
574.84	47086.90
575.01	47250.74
575.17	47194.56
575.33	47112.64
575.49	47189.88
575.65	47435.64
575.82	47164.14
575.98	46927.74
576.14	47339.68
576.30	47533.94
576.46	47201.58
576.62	47250.74
576.79	47194.56
576.95	46838.80
577.11	46937.10
577.27	47063.49
577.43	47681.39
577.59	47452.02
577.75	46958.17
577.92	46981.57
578.08	47042.43
578.24	47466.06
578.40	47229.67
578.56	47154.77
578.72	47508.19
578.88	47021.36
579.04	47107.96
579.21	47250.74
579.37	47047.11
579.53	47180.52
579.69	47182.86
579.85	46827.10
580.01	47168.82
580.17	47063.49
580.33	47498.83
580.49	47573.73
580.65	47419.25
580.82	47351.38
580.98	47419.25
581.14	46721.77
581.30	47674.37
581.46	47585.43
581.62	47278.82
581.78	47119.66
581.94	47304.57
582.10	47234.35
582.26	47260.10
582.42	47381.80
582.58	47358.40
582.74	47395.85
582.90	47564.37
583.06	47491.81
583.22	47363.08
583.38	47505.85
583.54	47742.25
583.70	47405.21
583.86	47723.52
584.02	47089.24
584.18	47400.53
584.34	47585.43
584.50	47885.02
584.66	47585.43
584.82	47650.97
584.98	47547.98
585.14	47679.05
585.30	47241.37
585.46	47421.59
585.62	47459.04
585.78	47744.59
585.94	47625.22
586.10	47606.50
586.26	47129.03
586.42	47295.21
586.58	47746.93
586.74	47657.99
586.90	47475.43
587.06	47086.90
587.22	47779.70
587.38	47634.58
587.54	47718.84
587.70	48266.53
587.86	47721.18
588.02	47292.86
588.18	47772.67
588.34	47601.82
588.49	47320.95
588.65	47524.58
588.81	47515.22
588.97	47814.80
589.13	47782.04
589.29	47758.63
589.45	47550.32
589.61	47655.65
589.77	48039.50
589.93	47594.79
590.08	47459.04
