SpectraSuite Data File
++++++++++++++++++++++++++++++++++++
Date: Fri Oct 25 10:47:04 EDT 2013
User: price-jones
Dark Spectrum Present: No
Reference Spectrum Present: No
Number of Sampled Component Spectra: 1
Spectrometers: USB2+H05261
Integration Time (usec): 100000 (USB2+H05261)
Spectra Averaged: 1 (USB2+H05261)
Boxcar Smoothing: 0 (USB2+H05261)
Correct for Electrical Dark: No (USB2+H05261)
Strobe/Lamp Enabled: No (USB2+H05261)
Correct for Detector Non-linearity: No (USB2+H05261)
Correct for Stray Light: No (USB2+H05261)
Number of Pixels in Processed Spectrum: 2048
>>>>>Begin Processed Spectral Data<<<<<
365.73	152.13
365.92	152.13
366.12	152.13
366.32	67.88
366.52	124.05
366.72	81.92
366.91	46.81
367.11	81.92
367.31	44.47
367.51	74.90
367.70	0.00
367.90	74.90
368.10	60.85
368.30	46.81
368.49	16.38
368.69	93.62
368.89	63.19
369.09	51.49
369.28	74.90
369.48	56.17
369.68	0.00
369.87	91.28
370.07	91.28
370.27	163.84
370.47	208.31
370.66	397.89
370.86	337.04
371.06	454.06
371.25	449.38
371.45	423.64
371.65	423.64
371.84	484.49
372.04	496.19
372.24	498.53
372.44	435.34
372.63	491.51
372.83	601.52
373.03	416.62
373.22	449.38
373.42	531.30
373.62	552.37
373.81	568.75
374.01	578.11
374.21	580.45
374.40	482.15
374.60	517.26
374.79	540.66
374.99	599.18
375.19	538.32
375.38	519.60
375.58	547.69
375.78	610.88
375.97	531.30
376.17	561.73
376.37	575.77
376.56	587.47
376.76	589.82
376.95	704.50
377.15	620.24
377.35	727.91
377.54	641.31
377.74	571.09
377.93	594.50
378.13	606.20
378.33	571.09
378.52	554.71
378.72	620.24
378.91	594.50
379.11	615.56
379.31	655.35
379.50	622.58
379.70	678.76
379.89	660.03
380.09	664.71
380.28	629.60
380.48	636.63
380.68	720.88
380.87	648.33
381.07	631.94
381.26	606.20
381.46	580.45
381.65	627.26
381.85	627.26
382.04	667.05
382.24	643.65
382.43	627.26
382.63	723.23
382.83	692.80
383.02	730.25
383.22	774.72
383.41	704.50
383.61	739.61
383.80	744.29
384.00	720.88
384.19	688.12
384.39	767.70
384.58	739.61
384.78	772.38
384.97	800.46
385.17	791.10
385.36	777.06
385.56	702.16
385.75	711.52
385.95	821.53
386.14	774.72
386.34	828.55
386.53	828.55
386.72	800.46
386.92	788.76
387.11	730.25
387.31	823.87
387.50	781.74
387.70	760.67
387.89	760.67
388.09	758.33
388.28	830.89
388.48	858.98
388.67	781.74
388.86	814.51
389.06	971.32
389.25	880.04
389.45	936.21
389.64	954.94
389.84	873.02
390.03	903.45
390.22	894.08
390.42	926.85
390.61	915.15
390.81	957.28
391.00	1011.11
391.19	968.98
391.39	950.26
391.58	884.72
391.78	973.66
391.97	947.92
392.16	1006.43
392.36	1025.15
392.55	1008.77
392.75	849.61
392.94	952.60
393.13	938.55
393.33	931.53
393.52	926.85
393.71	1102.39
393.91	1083.67
394.10	1020.47
394.29	1203.04
394.49	1034.52
394.68	1142.18
394.88	1149.20
395.07	1071.97
395.26	1097.71
395.46	1130.48
395.65	1170.27
395.84	1128.14
396.04	1196.01
396.23	1095.37
396.42	1214.74
396.62	1057.92
396.81	1086.01
397.00	1132.82
397.19	1207.72
397.39	1235.80
397.58	1238.14
397.77	1242.82
397.97	1259.21
398.16	1200.69
398.35	1156.22
398.55	1301.34
398.74	1343.47
398.93	1355.17
399.12	1327.08
399.32	1348.15
399.51	1284.95
399.70	1378.58
399.90	1322.40
400.09	1479.22
400.28	1376.24
400.47	1500.28
400.67	1565.82
400.86	1540.07
401.05	1500.28
401.24	1483.90
401.44	1495.60
401.63	1511.99
401.82	1542.41
402.01	1495.60
402.21	1411.34
402.40	1540.07
402.59	1509.65
402.78	1565.82
402.97	1570.50
403.17	1633.69
403.36	1579.86
403.55	1680.50
403.74	1743.70
403.93	1750.72
404.13	1734.34
404.32	1715.61
404.51	1603.27
404.70	1673.48
404.89	1629.01
405.09	1891.15
405.28	1743.70
405.47	1753.06
405.66	1680.50
405.85	1715.61
406.05	1804.55
406.24	1792.85
406.43	1926.26
406.62	1762.42
406.81	1919.24
407.00	1895.83
407.20	1764.76
407.39	1837.32
407.58	1834.98
407.77	1998.82
407.96	1996.48
408.15	1994.14
408.34	2026.90
408.54	2092.44
408.73	2073.71
408.92	2179.04
409.11	2101.80
409.30	2064.35
409.49	1952.01
409.68	2101.80
409.87	2066.69
410.07	2085.42
410.26	2169.68
410.45	2148.61
410.64	2111.16
410.83	2275.00
411.02	2272.66
411.21	2331.17
411.40	2246.91
411.59	2321.81
411.78	2228.19
411.98	2387.35
412.17	2417.77
412.36	2462.24
412.55	2478.63
412.74	2443.52
412.93	2541.82
413.12	2389.69
413.31	2553.52
413.50	2567.57
413.69	2607.36
413.88	2537.14
414.07	2595.65
414.26	2621.40
414.45	2726.72
414.64	2567.57
414.83	2799.28
415.02	2743.11
415.22	2754.81
415.41	2916.31
415.60	2848.43
415.79	2876.52
415.98	2935.03
416.17	2995.89
416.36	3007.59
416.55	2911.63
416.74	2951.42
416.93	2928.01
417.12	2986.52
417.31	3035.67
417.50	3030.99
417.69	3061.42
417.88	3061.42
418.07	3068.44
418.26	3115.25
418.45	3033.33
418.64	3325.90
418.83	3290.79
419.02	3112.91
419.21	3265.05
419.39	3281.43
419.58	3222.92
419.77	3119.93
419.96	3318.88
420.15	3424.20
420.34	3213.56
420.53	3400.80
420.72	3379.73
420.91	3400.80
421.10	3417.18
421.29	3576.34
421.48	3428.88
421.67	3536.55
421.86	3414.84
422.05	3524.85
422.24	3412.50
422.43	3473.36
422.61	3592.72
422.80	3517.83
422.99	3550.59
423.18	3576.34
423.37	3569.32
423.56	3679.32
423.75	3557.61
423.94	3494.42
424.13	3288.45
424.32	3515.48
424.50	3496.76
424.69	3655.92
424.88	3634.85
425.07	3531.87
425.26	3485.06
425.45	3515.48
425.64	3627.83
425.83	3571.66
426.01	3726.13
426.20	3662.94
426.39	3803.37
426.58	3574.00
426.77	3578.68
426.96	3714.43
427.15	3613.79
427.33	3801.03
427.52	3742.52
427.71	3808.05
427.90	3920.40
428.09	3789.33
428.28	3819.75
428.46	3843.16
428.65	3817.41
428.84	3969.55
429.03	3999.98
429.22	3737.84
429.40	3861.88
429.59	3845.50
429.78	3716.77
429.97	3707.41
430.16	3866.56
430.34	3845.50
430.53	3908.69
430.72	4044.45
430.91	3868.91
431.10	3908.69
431.28	4152.11
431.47	4227.01
431.66	4257.43
431.85	4109.98
432.03	4191.90
432.22	4292.54
432.41	4259.78
432.60	4219.99
432.79	4397.87
432.97	4435.32
433.16	4360.42
433.35	4142.75
433.54	4353.40
433.72	4337.01
433.91	4292.54
434.10	4257.43
434.28	4491.49
434.47	4575.75
434.66	4519.57
434.85	4512.55
435.03	4568.73
435.22	4493.83
435.41	4641.28
435.59	4704.48
435.78	4631.92
435.97	4798.10
436.16	4638.94
436.34	4596.81
436.53	4741.93
436.72	4739.58
436.90	4610.86
437.09	4755.97
437.28	4746.61
437.46	4648.30
437.65	4699.80
437.84	4882.36
438.02	4793.42
438.21	4840.23
438.40	4638.94
438.58	4896.40
438.77	5029.81
438.96	4828.53
439.14	5064.92
439.33	5142.16
439.52	5261.52
439.70	5043.85
439.89	5069.60
440.08	5210.03
440.26	5219.39
440.45	5114.07
440.63	5399.62
440.82	5406.64
441.01	5518.98
441.19	5507.28
441.38	5329.40
441.57	5549.41
441.75	5577.50
441.94	5849.00
442.12	5755.38
442.31	5701.54
442.50	5633.67
442.68	5680.48
442.87	5797.51
443.05	5673.46
443.24	5961.34
443.43	5858.36
443.61	5905.17
443.80	5970.71
443.98	5760.06
444.17	5713.25
444.35	5874.74
444.54	5926.24
444.73	5825.59
444.91	6099.44
445.10	5996.45
445.28	5874.74
445.47	5638.35
445.65	5788.14
445.84	6026.88
446.02	6113.48
446.21	6036.24
446.39	5966.03
446.58	6015.18
446.77	6064.33
446.95	5959.00
447.14	5933.26
447.32	6059.65
447.51	6026.88
447.69	5961.34
447.88	6127.52
448.06	5937.94
448.25	5987.09
448.43	6146.25
448.62	6237.53
448.80	6052.63
448.99	6129.86
449.17	6197.74
449.36	6239.87
449.54	6380.30
449.73	6246.89
449.91	6492.65
450.10	6471.58
450.28	6562.86
450.46	6558.18
450.65	6483.28
450.83	6621.38
451.02	6712.66
451.20	6464.56
451.39	6607.33
451.57	6581.59
451.76	6609.67
451.94	6548.82
452.13	6490.31
452.31	6682.23
452.49	6544.14
452.68	6609.67
452.86	6717.34
453.05	6693.93
453.23	6600.31
453.42	6703.29
453.60	6817.98
453.78	6853.09
453.97	6593.29
454.15	6836.70
454.34	6649.46
454.52	6848.41
454.70	6963.09
454.89	6848.41
455.07	6832.02
455.26	6897.56
455.44	7133.95
455.62	7126.93
455.81	7211.19
455.99	7000.54
456.17	7096.50
456.36	7028.63
456.54	7316.51
456.73	7236.94
456.91	7431.20
457.09	7478.01
457.28	7459.29
457.46	7234.60
457.64	7398.43
457.83	7391.41
458.01	7508.44
458.19	7576.31
458.38	7566.95
458.56	7494.40
458.74	7447.58
458.93	7536.52
459.11	7623.12
459.29	7541.21
459.48	7548.23
459.66	7506.10
459.84	7653.55
460.03	7822.07
460.21	7681.64
460.39	7875.90
460.57	7691.00
460.76	7812.71
460.94	7826.75
461.12	7861.86
461.31	7967.18
461.49	7775.26
461.67	7896.97
461.85	8058.46
462.04	7950.80
462.22	8439.97
462.40	8290.18
462.59	8198.90
462.77	8252.73
462.95	8397.84
463.13	8280.82
463.32	8238.69
463.50	8131.02
463.68	8217.62
463.86	8124.00
464.05	8091.23
464.23	8454.02
464.41	8430.61
464.59	8177.83
464.78	8327.63
464.96	8259.75
465.14	8304.22
465.32	8493.80
465.50	8365.07
465.69	8461.04
465.87	8601.47
466.05	8461.04
466.23	8322.94
466.41	8418.91
466.60	8702.11
466.78	8203.58
466.96	8557.00
467.14	8566.36
467.32	8688.07
467.51	8592.11
467.69	8388.48
467.87	8657.64
468.05	8734.88
468.23	8456.36
468.41	8617.85
468.60	8791.05
468.78	8826.16
468.96	8507.85
469.14	8894.04
469.32	8959.57
469.50	8704.45
469.69	8863.61
469.87	9123.41
470.05	9011.06
470.23	9034.47
470.41	9001.70
470.59	9071.92
470.77	8952.55
470.95	9221.71
471.14	9390.23
471.32	9174.90
471.50	9584.49
471.68	9635.99
471.86	9495.55
472.04	9366.82
472.22	9844.29
472.40	9558.75
472.58	9488.53
472.77	9809.19
472.95	9898.13
473.13	10064.30
473.31	9687.48
473.49	9516.62
473.67	9867.70
473.85	9727.27
474.03	10132.18
474.21	10101.75
474.39	10274.95
474.57	10106.43
474.75	10242.18
474.93	10600.29
475.12	10274.95
475.30	10235.16
475.48	10384.96
475.66	10462.19
475.84	10382.62
476.02	10567.52
476.20	10429.43
476.38	10719.65
476.56	11126.91
476.74	10808.59
476.92	10892.85
477.10	10824.98
477.28	11143.29
477.46	10892.85
477.64	11225.21
477.82	11442.88
478.00	11454.58
478.18	11676.93
478.36	11506.07
478.54	11590.33
478.72	11953.12
478.90	11941.41
479.08	11950.78
479.26	12135.68
479.44	12002.27
479.62	12023.33
479.80	12351.01
479.98	12250.36
480.16	12554.63
480.34	12606.13
480.52	12739.54
480.70	12606.13
480.88	12585.06
481.06	12835.50
481.24	12704.43
481.41	13315.31
481.59	13392.55
481.77	13397.23
481.95	13207.64
482.13	13429.99
482.31	13657.03
482.49	13858.31
482.67	13558.72
482.85	13965.98
483.03	14097.05
483.21	14120.45
483.39	14476.21
483.57	14221.10
483.74	14490.26
483.92	14452.81
484.10	14401.32
484.28	14691.54
484.46	15042.62
484.64	15384.34
484.82	14757.08
485.00	15059.01
485.18	15215.82
485.35	15218.16
485.53	15396.04
485.71	15337.53
485.89	15538.82
486.07	15377.32
486.25	15126.88
486.43	15789.25
486.61	15927.35
486.78	16152.04
486.96	16278.43
487.14	16255.02
487.32	16655.25
487.50	16758.24
487.68	16933.78
487.85	17245.07
488.03	17214.64
488.21	17270.81
488.39	17081.23
488.57	17310.60
488.75	17324.65
488.92	17715.51
489.10	18078.30
489.28	17965.95
489.46	18246.82
489.64	17912.12
489.81	18340.44
489.99	18679.82
490.17	18794.50
490.35	19058.98
490.53	18675.13
490.70	19019.19
490.88	18906.85
491.06	19440.49
491.24	19152.60
491.41	19187.71
491.59	19515.39
491.77	19330.48
491.95	19660.50
492.13	20065.41
492.30	20070.09
492.48	20301.81
492.66	20444.58
492.84	20170.74
493.01	20938.43
493.19	20599.05
493.37	20580.33
493.54	20872.90
493.72	20959.50
493.90	21062.48
494.08	21179.51
494.25	21411.22
494.43	21413.56
494.61	21785.71
494.79	21762.30
494.96	21778.68
495.14	21738.90
495.32	21921.46
495.49	22321.69
495.67	22237.43
495.85	22565.10
496.02	22342.75
496.20	22398.93
496.38	22731.28
496.55	22745.33
496.73	23255.56
496.91	23012.15
497.09	23281.31
497.26	23339.82
497.44	23445.15
497.62	23253.22
497.79	23508.34
497.97	23473.23
498.14	23943.68
498.32	23564.51
498.50	24320.51
498.67	24137.94
498.85	24081.77
499.03	24903.30
499.20	24573.28
499.38	24563.92
499.56	24828.40
499.73	24662.22
499.91	25113.95
500.08	24814.36
500.26	24765.21
500.44	24809.68
500.61	25167.78
500.79	24872.87
500.97	25200.55
501.14	25326.94
501.32	25720.15
501.49	25486.09
501.67	25504.82
501.84	25928.45
502.02	25919.09
502.20	26232.72
502.37	26195.28
502.55	26408.26
502.72	26171.87
502.90	26347.41
503.07	26445.71
503.25	26199.96
503.43	26209.32
503.60	26850.63
503.78	26387.20
503.95	26827.22
504.13	26604.87
504.30	26890.41
504.48	26785.09
504.65	27330.44
504.83	27005.10
505.01	27138.51
505.18	27133.83
505.36	27882.80
505.53	27571.51
505.71	27927.27
505.88	27857.06
506.06	27491.93
506.23	27758.75
506.41	27931.95
506.58	28189.41
506.76	27803.22
506.93	28196.43
507.11	28376.66
507.28	28276.01
507.46	28093.45
507.63	28449.21
507.81	28374.31
507.98	28219.84
508.16	28875.19
508.33	28416.44
508.50	28884.55
508.68	29099.88
508.85	29654.59
509.03	29366.70
509.20	29326.91
509.38	29338.62
509.55	29390.11
509.73	29230.95
509.90	29575.01
510.08	29788.00
510.25	29422.87
510.42	29806.72
510.60	29734.17
510.77	29890.98
510.95	30136.74
511.12	29956.52
511.30	30118.01
511.47	30410.58
511.64	30401.22
511.82	30534.63
511.99	30190.57
512.17	30562.72
512.34	30508.88
512.51	30651.66
512.69	31239.13
512.86	30824.86
513.04	30920.82
513.21	30829.54
513.38	31157.21
513.56	31129.12
513.73	30906.77
513.90	31143.17
514.08	31330.41
514.25	31110.40
514.43	31391.26
514.60	31365.52
514.77	31213.38
514.95	31707.24
515.12	31580.85
515.29	32084.06
515.47	31854.69
515.64	32254.92
515.81	32055.98
515.99	31681.49
516.16	31763.41
516.33	32355.57
516.51	32297.05
516.68	31796.18
516.85	31777.45
517.03	32280.67
517.20	32098.11
517.37	32545.15
517.54	32547.49
517.72	32666.86
517.89	32510.04
518.06	32641.11
518.24	32765.16
518.41	32348.54
518.58	32680.90
518.75	32800.27
518.93	33106.88
519.10	32985.17
519.27	33329.23
519.45	33457.96
519.62	33518.81
519.79	33713.08
519.96	33500.09
520.14	33752.87
520.31	33251.99
520.48	33731.80
520.65	33764.57
520.83	34153.10
521.00	33811.38
521.17	33544.56
521.34	34223.31
521.52	34155.44
521.69	34270.12
521.86	34478.43
522.03	34607.16
522.20	34298.21
522.38	34649.29
522.55	34724.19
522.72	34637.59
522.89	34712.49
523.07	34670.36
523.24	34693.76
523.41	34965.26
523.58	34967.60
523.75	35131.44
523.92	34983.99
524.10	35211.02
524.27	34948.88
524.44	35555.08
524.61	35468.48
524.78	35402.94
524.96	35618.27
525.13	35737.64
525.30	35639.34
525.47	36147.23
525.64	35908.50
525.81	35807.86
525.98	36060.63
526.16	35854.67
526.33	35412.31
526.50	35899.14
526.67	35819.56
526.84	35367.84
527.01	35599.55
527.18	36367.24
527.36	36582.57
527.53	35899.14
527.70	36725.35
527.87	36510.02
528.04	36282.98
528.21	36460.87
528.38	36713.64
528.55	36608.32
528.72	36840.03
528.89	37535.17
529.07	37181.75
529.24	36542.78
529.41	36519.38
529.58	36837.69
529.75	36954.72
529.92	37448.57
530.09	37570.28
530.26	37408.78
530.43	37240.26
530.60	36898.55
530.77	37282.39
530.94	37268.35
531.11	37298.78
531.28	37642.84
531.46	37521.13
531.63	37619.43
531.80	37565.60
531.97	37617.09
532.14	37811.35
532.31	37570.28
532.48	37708.37
532.65	37841.78
532.82	37804.33
532.99	38202.22
533.16	37755.18
533.33	37827.74
533.50	38162.43
533.67	38340.32
533.84	37984.55
534.01	37860.51
534.18	38382.45
534.35	38401.17
534.52	38361.38
534.69	38602.46
534.86	38478.41
535.03	38192.86
535.20	38696.08
535.37	39182.91
535.54	38869.28
535.71	38845.87
535.88	38665.65
536.05	38440.96
536.22	38899.70
536.38	39035.45
536.55	38953.54
536.72	38560.33
536.89	38925.45
537.06	39023.75
537.23	39009.71
537.40	38890.34
537.57	39498.88
537.74	38838.85
537.91	39407.60
538.08	39690.80
538.25	39171.21
538.42	39276.53
538.59	39562.08
538.75	39000.35
538.92	39447.39
539.09	39335.04
539.26	39468.45
539.43	39665.06
539.60	39892.09
539.77	39627.61
539.94	40250.19
540.11	39423.98
540.28	39941.24
540.44	39655.70
540.61	39931.88
540.78	39849.96
540.95	39440.37
541.12	40039.54
541.29	39746.98
541.46	40357.86
541.62	39812.51
541.79	40109.76
541.96	39770.38
542.13	40292.32
542.30	40144.87
542.47	40346.15
542.63	39835.92
542.80	40320.41
542.97	40987.46
543.14	40669.15
543.31	41109.17
543.48	40957.03
543.64	41123.21
543.81	41588.98
543.98	41277.69
544.15	40957.03
544.32	41378.33
544.48	41404.08
544.65	40938.31
544.82	41397.06
544.99	40971.08
545.16	41031.93
545.32	41055.34
545.49	41373.65
545.66	41373.65
545.83	41404.08
546.00	41748.14
546.16	41439.18
546.33	41432.16
546.50	40980.44
546.67	41446.21
546.83	41275.35
547.00	41820.69
547.17	41184.07
547.34	41280.03
547.50	41785.58
547.67	41486.00
547.84	42190.50
548.00	42021.98
548.17	42136.66
548.34	42064.11
548.51	42075.81
548.67	42447.96
548.84	42019.64
549.01	42216.24
549.18	41560.89
549.34	42218.58
549.51	42267.73
549.68	42417.53
549.84	42653.92
550.01	42279.44
550.18	41986.87
550.34	42195.18
550.51	42089.85
550.68	42462.00
550.84	41832.39
551.01	42342.63
551.18	42401.14
551.34	42466.68
551.51	42234.97
551.68	42263.05
551.84	42440.93
552.01	42394.12
552.18	42866.91
552.34	42122.62
552.51	42630.52
552.68	43143.09
552.84	42871.59
553.01	43115.01
553.18	42749.88
553.34	43033.09
553.51	42766.27
553.67	42824.78
553.84	43344.38
554.01	43515.24
554.17	43349.06
554.34	43070.54
554.51	43232.04
554.67	43440.34
554.84	43047.13
555.00	43215.65
555.17	42927.77
555.33	43250.76
555.50	42958.19
555.67	43643.97
555.83	43508.22
556.00	43021.39
556.16	43688.44
556.33	43604.18
556.50	43276.51
556.66	43636.95
556.83	43615.88
556.99	43599.50
557.16	43981.01
557.32	43430.98
557.49	43606.52
557.65	43201.61
557.82	43243.74
557.98	43526.94
558.15	43540.99
558.32	43768.02
558.48	43775.04
558.65	43604.18
558.81	43597.16
558.98	43798.44
559.14	43765.68
559.31	43501.20
559.47	43555.03
559.64	43959.94
559.80	43983.35
559.97	44011.43
560.13	43454.39
560.30	43803.13
560.46	43604.18
560.63	43856.96
560.79	43861.64
560.96	44563.80
561.12	43669.72
561.29	44100.37
561.45	43927.17
561.61	44027.82
561.78	43871.00
561.94	43648.65
562.11	43894.41
562.27	43997.39
562.44	43929.51
562.60	44465.50
562.77	44472.52
562.93	44186.97
563.10	44306.34
563.26	43784.40
563.42	44521.67
563.59	43833.55
563.75	43971.64
563.92	44243.15
564.08	44196.34
564.24	44788.49
564.41	44608.27
564.57	44722.96
564.74	44545.08
564.90	44381.24
565.07	44201.02
565.23	44421.03
565.39	43969.30
565.56	44456.14
565.72	44194.00
565.88	44271.23
566.05	44521.67
566.21	44404.64
566.38	44076.97
566.54	44388.26
566.70	44119.10
566.87	44987.44
567.03	44568.48
567.19	44917.22
567.36	44741.68
567.52	44467.84
567.68	44678.49
567.85	44264.21
568.01	44727.64
568.17	44479.54
568.34	44870.41
568.50	44767.43
568.66	44664.44
568.83	45052.97
568.99	44423.37
569.15	44425.71
569.32	44329.75
569.48	44217.40
569.64	44692.53
569.81	44409.32
569.97	44378.90
570.13	44624.65
570.30	44414.01
570.46	44002.07
570.62	44257.19
570.78	44093.35
570.95	44531.03
571.11	44704.23
571.27	44327.41
571.43	44336.77
571.60	44732.32
571.76	44811.90
571.92	44453.79
572.09	44610.61
572.25	44811.90
572.41	44746.36
572.57	44856.37
572.74	44996.80
572.90	45062.33
573.06	44715.93
573.22	44566.14
573.38	44861.05
573.55	44781.47
573.71	44996.80
573.87	44626.99
574.03	44259.53
574.20	44765.09
574.36	44463.16
574.52	45038.93
574.68	44573.16
574.84	44769.77
575.01	44847.00
575.17	44416.35
575.33	44521.67
575.49	44844.66
575.65	45287.03
575.82	44835.30
575.98	44858.71
576.14	45301.07
576.30	44720.62
576.46	44708.91
576.62	44921.90
576.79	44383.58
576.95	44760.40
577.11	44781.47
577.27	45162.98
577.43	45052.97
577.59	44978.07
577.75	45001.48
577.92	44605.93
578.08	44720.62
578.24	44636.36
578.40	45186.38
578.56	45233.19
578.72	44882.11
578.88	44741.68
579.04	44973.39
579.21	44849.35
579.37	44516.99
579.53	44961.69
579.69	44980.42
579.85	44809.56
580.01	44800.19
580.17	44884.45
580.33	45359.58
580.49	45116.17
580.65	44772.11
580.82	45319.79
580.98	45078.72
581.14	44816.58
581.30	44762.75
581.46	45207.45
581.62	44783.81
581.78	44917.22
581.94	45268.30
582.10	45074.04
582.26	45244.90
582.42	45045.95
582.58	44992.12
582.74	44774.45
582.90	44634.02
583.06	44957.01
583.22	44978.07
583.38	44907.86
583.54	44891.48
583.70	44800.19
583.86	45158.30
584.02	44535.71
584.18	44940.63
584.34	45275.32
584.50	45186.38
584.66	45371.28
584.82	44900.84
584.98	45427.46
585.14	45368.94
585.30	44659.76
585.46	45071.70
585.62	44882.11
585.78	45074.04
585.94	44472.52
586.10	45214.47
586.26	45228.51
586.42	45209.79
586.58	45340.86
586.74	44891.48
586.90	45031.91
587.06	45247.24
587.22	45106.80
587.38	44870.41
587.54	45600.66
587.70	45258.94
587.86	45177.02
588.02	44715.93
588.18	45593.64
588.34	45097.44
588.49	44278.25
588.65	44842.32
588.81	44460.82
588.97	44744.02
589.13	44985.10
589.29	44800.19
589.45	45074.04
589.61	44835.30
589.77	45289.37
589.93	45684.92
590.08	45525.76
590.24	45230.85
