SpectraSuite Data File
++++++++++++++++++++++++++++++++++++
Date: Fri Oct 25 11:33:14 EDT 2013
User: price-jones
Dark Spectrum Present: No
Reference Spectrum Present: No
Number of Sampled Component Spectra: 1
Spectrometers: USB2+H05261
Integration Time (usec): 100000 (USB2+H05261)
Spectra Averaged: 1 (USB2+H05261)
Boxcar Smoothing: 0 (USB2+H05261)
Correct for Electrical Dark: No (USB2+H05261)
Strobe/Lamp Enabled: No (USB2+H05261)
Correct for Detector Non-linearity: No (USB2+H05261)
Correct for Stray Light: No (USB2+H05261)
Number of Pixels in Processed Spectrum: 2048
>>>>>Begin Processed Spectral Data<<<<<
365.73	283.20
365.92	283.20
366.12	283.20
366.32	175.54
366.52	189.58
366.72	196.60
366.91	234.05
367.11	177.88
367.31	203.63
367.51	168.52
367.70	131.07
367.90	191.92
368.10	156.82
368.30	212.99
368.49	117.03
368.69	231.71
368.89	128.73
369.09	161.50
369.28	210.65
369.48	184.90
369.68	229.37
369.87	290.23
370.07	243.42
370.27	250.44
370.47	285.55
370.66	496.19
370.86	496.19
371.06	547.69
371.25	592.16
371.45	528.96
371.65	554.71
371.84	505.56
372.04	526.62
372.24	599.18
372.44	629.60
372.63	662.37
372.83	603.86
373.03	552.37
373.22	599.18
373.42	627.26
373.62	582.79
373.81	695.14
374.01	627.26
374.21	585.13
374.40	606.20
374.60	678.76
374.79	655.35
374.99	657.69
375.19	603.86
375.38	709.18
375.58	678.76
375.78	671.73
375.97	699.82
376.17	716.20
376.37	681.10
376.56	678.76
376.76	660.03
376.95	669.39
377.15	641.31
377.35	645.99
377.54	681.10
377.74	716.20
377.93	711.52
378.13	660.03
378.33	620.24
378.52	655.35
378.72	767.70
378.91	699.82
379.11	695.14
379.31	699.82
379.50	660.03
379.70	648.33
379.89	695.14
380.09	809.83
380.28	746.63
380.48	748.97
380.68	709.18
380.87	697.48
381.07	690.46
381.26	905.79
381.46	734.93
381.65	770.04
381.85	819.19
382.04	798.12
382.24	751.31
382.43	802.80
382.63	798.12
382.83	809.83
383.02	807.48
383.22	737.27
383.41	784.08
383.61	730.25
383.80	844.93
384.00	821.53
384.19	753.65
384.39	777.06
384.58	807.48
384.78	858.98
384.97	891.74
385.17	795.78
385.36	866.00
385.56	821.53
385.75	856.64
385.95	730.25
386.14	877.70
386.34	774.72
386.53	830.89
386.72	884.72
386.92	959.62
387.11	826.21
387.31	812.17
387.50	854.30
387.70	875.36
387.89	922.17
388.09	833.23
388.28	917.49
388.48	931.53
388.67	966.64
388.86	898.77
389.06	957.28
389.25	910.47
389.45	929.19
389.64	903.45
389.84	924.51
390.03	968.98
390.22	1004.09
390.42	954.94
390.61	926.85
390.81	931.53
391.00	987.71
391.19	1074.31
391.39	983.02
391.58	971.32
391.78	1055.58
391.97	1137.50
392.16	968.98
392.36	1104.73
392.55	1104.73
392.75	1062.60
392.94	1114.10
393.13	1036.86
393.33	1032.18
393.52	1123.46
393.71	1132.82
393.91	1104.73
394.10	1102.39
394.29	1121.12
394.49	1102.39
394.68	1167.93
394.88	1226.44
395.07	1125.80
395.26	1151.54
395.46	1144.52
395.65	1139.84
395.84	1158.57
396.04	1291.98
396.23	1158.57
396.42	1186.65
396.62	1228.78
396.81	1294.32
397.00	1207.72
397.19	1233.46
397.39	1203.04
397.58	1231.12
397.77	1315.38
397.97	1282.61
398.16	1160.91
398.35	1387.94
398.55	1270.91
398.74	1404.32
398.93	1411.34
399.12	1203.04
399.32	1200.69
399.51	1362.19
399.70	1357.51
399.90	1301.34
400.09	1432.41
400.28	1301.34
400.47	1301.34
400.67	1427.73
400.86	1406.66
401.05	1444.11
401.24	1465.18
401.44	1446.45
401.63	1479.22
401.82	1434.75
402.01	1423.05
402.21	1453.47
402.40	1502.62
402.59	1439.43
402.78	1416.02
402.97	1423.05
403.17	1502.62
403.36	1554.12
403.55	1558.80
403.74	1598.59
403.93	1631.35
404.13	1640.72
404.32	1523.69
404.51	1694.55
404.70	1652.42
404.89	1708.59
405.09	1640.72
405.28	1689.87
405.47	1680.50
405.66	1729.66
405.85	1671.14
406.05	1755.40
406.24	1703.91
406.43	1816.26
406.62	1776.47
406.81	1825.62
407.00	1809.23
407.20	1818.60
407.39	1832.64
407.58	1846.68
407.77	1895.83
407.96	1895.83
408.15	1881.79
408.34	1872.43
408.54	1837.32
408.73	1916.90
408.92	2005.84
409.11	1989.46
409.30	1998.82
409.49	1980.09
409.68	1935.62
409.87	1872.43
410.07	2064.35
410.26	2146.27
410.45	2148.61
410.64	2040.95
410.83	2125.21
411.02	2073.71
411.21	2125.21
411.40	2193.08
411.59	2258.62
411.78	2223.51
411.98	2127.55
412.17	2305.43
412.36	2246.91
412.55	2338.20
412.74	2349.90
412.93	2352.24
413.12	2366.28
413.31	2443.52
413.50	2375.64
413.69	2441.18
413.88	2495.01
414.07	2406.07
414.26	2464.58
414.45	2534.80
414.64	2525.44
414.83	2544.16
415.02	2516.08
415.22	2684.59
415.41	2813.32
415.60	2661.19
415.79	2691.62
415.98	2675.23
416.17	2810.98
416.36	2679.91
416.55	2684.59
416.74	2775.88
416.93	2785.24
417.12	2820.35
417.31	2890.56
417.50	2803.96
417.69	3014.61
417.88	2963.12
418.07	2963.12
418.26	2923.33
418.45	2979.50
418.64	3030.99
418.83	3084.83
419.02	3159.72
419.21	3133.98
419.39	3206.53
419.58	3098.87
419.77	3080.14
419.96	3047.38
420.15	3187.81
420.34	3206.53
420.53	3211.22
420.72	3332.92
420.91	3197.17
421.10	3180.79
421.29	3398.46
421.48	3206.53
421.67	3225.26
421.86	3288.45
422.05	3274.41
422.24	3391.44
422.43	3400.80
422.61	3485.06
422.80	3342.28
422.99	3396.12
423.18	3421.86
423.37	3386.76
423.56	3349.31
423.75	3248.66
423.94	3314.20
424.13	3234.62
424.32	3206.53
424.50	3335.26
424.69	3325.90
424.88	3485.06
425.07	3393.78
425.26	3316.54
425.45	3574.00
425.64	3562.30
425.83	3545.91
426.01	3459.31
426.20	3545.91
426.39	3513.14
426.58	3475.70
426.77	3403.14
426.96	3569.32
427.15	3492.08
427.33	3712.09
427.52	3557.61
427.71	3674.64
427.90	3655.92
428.09	3770.60
428.28	3658.26
428.46	3758.90
428.65	3751.88
428.84	3889.97
429.03	3850.18
429.22	3639.53
429.40	3662.94
429.59	3709.75
429.78	3730.81
429.97	3681.66
430.16	3815.07
430.34	3925.08
430.53	3794.01
430.72	3775.28
430.91	3904.01
431.10	3871.25
431.28	3957.85
431.47	4023.38
431.66	4042.11
431.85	3878.27
432.03	4072.53
432.22	4163.81
432.41	4070.19
432.60	3974.23
432.79	4058.49
432.97	4149.77
433.16	4210.62
433.35	4109.98
433.54	4175.52
433.72	4395.53
433.91	4161.47
434.10	4037.42
434.28	4234.03
434.47	4210.62
434.66	4280.84
434.85	4418.93
435.03	4222.33
435.22	4320.63
435.41	4491.49
435.59	4428.29
435.78	4540.64
435.97	4468.08
436.16	4395.53
436.34	4444.68
436.53	4442.34
436.72	4610.86
436.90	4526.60
437.09	4491.49
437.28	4486.81
437.46	4660.01
437.65	4587.45
437.84	4582.77
438.02	4671.71
438.21	4592.13
438.40	4571.07
438.58	4695.11
438.77	4894.06
438.96	4770.01
439.14	4973.64
439.33	4833.21
439.52	4901.08
439.70	4922.15
439.89	5027.47
440.08	5104.71
440.26	4830.87
440.45	5050.88
440.63	5013.43
440.82	5008.75
441.01	5060.24
441.19	5256.84
441.38	5193.65
441.57	5331.74
441.75	5310.68
441.94	5547.07
442.12	5411.32
442.31	5425.36
442.50	5451.11
442.68	5423.02
442.87	5504.94
443.05	5547.07
443.24	5500.26
443.43	5654.73
443.61	5722.61
443.80	5729.63
443.98	5535.37
444.17	5575.16
444.35	5556.43
444.54	5727.29
444.73	5729.63
444.91	5689.84
445.10	5661.76
445.28	5652.39
445.47	5540.05
445.65	5530.69
445.84	5774.10
446.02	5750.70
446.21	5827.93
446.39	5682.82
446.58	5912.19
446.77	5666.44
446.95	5818.57
447.14	5781.12
447.32	5886.45
447.51	5802.19
447.69	5991.77
447.88	5593.88
448.06	5832.62
448.25	5841.98
448.43	5914.53
448.62	5930.92
448.80	5860.70
448.99	5870.06
449.17	6043.26
449.36	5959.00
449.54	5966.03
449.73	6026.88
449.91	6335.83
450.10	6244.55
450.28	5982.41
450.46	6384.98
450.65	6291.36
450.83	6160.29
451.02	6181.35
451.20	6169.65
451.39	6366.26
451.57	6279.66
451.76	6169.65
451.94	6150.93
452.13	6354.55
452.31	6291.36
452.49	6218.80
452.68	6408.39
452.86	6349.87
453.05	6389.66
453.23	6401.37
453.42	6258.59
453.60	6356.90
453.78	6478.60
453.97	6537.12
454.15	6551.16
454.34	6291.36
454.52	6661.16
454.70	6471.58
454.89	6399.02
455.07	6628.40
455.26	6689.25
455.44	6825.00
455.62	6647.12
455.81	6590.95
455.99	6839.05
456.17	6827.34
456.36	6857.77
456.54	7005.22
456.73	6766.49
456.91	6963.09
457.09	6984.16
457.28	7199.49
457.46	7012.24
457.64	7087.14
457.83	7136.29
458.01	7136.29
458.19	7218.21
458.38	7117.57
458.56	7185.44
458.74	7346.94
458.93	7335.24
459.11	7293.11
459.29	7379.71
459.48	7426.52
459.66	7414.82
459.84	7405.46
460.03	7405.46
460.21	7421.84
460.39	7396.09
460.57	7529.50
460.76	7531.84
460.94	7487.37
461.12	7627.81
461.31	7548.23
461.49	7470.99
461.67	7658.23
461.85	7709.72
462.04	7627.81
462.22	8018.68
462.40	7686.32
462.59	7873.56
462.77	7887.61
462.95	7852.50
463.13	7866.54
463.32	7906.33
463.50	7932.08
463.68	7915.69
463.86	7971.86
464.05	7843.14
464.23	7887.61
464.41	8063.15
464.59	7829.09
464.78	8058.46
464.96	8095.91
465.14	8215.28
465.32	8060.80
465.50	8376.78
465.69	8212.94
465.87	8278.47
466.05	8234.00
466.23	8491.46
466.41	8458.70
466.60	8367.42
466.78	8198.90
466.96	8133.36
467.14	8056.12
467.32	8381.46
467.51	8430.61
467.69	8231.66
467.87	8320.60
468.05	8519.55
468.23	8458.70
468.41	8264.43
468.60	8498.49
468.78	8692.75
468.96	8533.59
469.14	8482.10
469.32	8805.10
469.50	8299.54
469.69	8739.56
469.87	8826.16
470.05	8774.67
470.23	8887.01
470.41	8840.20
470.59	8968.93
470.77	8931.48
470.95	8961.91
471.14	9043.83
471.32	8758.28
471.50	9228.73
471.68	9163.20
471.86	9104.68
472.04	9153.84
472.22	9490.87
472.40	9144.47
472.58	9242.78
472.77	9193.62
472.95	9437.04
473.13	9745.99
473.31	9310.65
473.49	9657.05
473.67	9591.52
473.85	9589.17
474.03	9753.01
474.21	9818.55
474.39	9909.83
474.57	9961.32
474.75	10094.73
474.93	10068.98
475.12	10094.73
475.30	9919.19
475.48	10010.47
475.66	10148.56
475.84	10108.77
476.02	10396.66
476.20	10258.57
476.38	10305.38
476.56	10785.19
476.74	10665.82
476.92	10487.94
477.10	10356.87
477.28	10740.72
477.46	10721.99
477.64	10946.69
477.82	11304.79
478.00	11339.90
478.18	11178.40
478.36	11194.78
478.54	11393.73
478.72	11466.28
478.90	11742.47
479.08	11651.19
479.26	11676.93
479.44	11674.59
479.62	11714.38
479.80	12084.19
479.98	12170.79
480.16	12231.64
480.34	12222.28
480.52	12458.67
480.70	12510.16
480.88	12437.61
481.06	12374.41
481.24	12493.78
481.41	12688.04
481.59	12882.31
481.77	12847.20
481.95	12870.61
482.13	13118.70
482.31	12989.97
482.49	13444.04
482.67	13156.15
482.85	13619.58
483.03	13509.57
483.21	14083.00
483.39	14038.53
483.57	13855.97
483.74	14218.75
483.92	14207.05
484.10	14038.53
484.28	14377.91
484.46	14696.22
484.64	14757.08
484.82	14560.47
485.00	14759.42
485.18	14888.15
485.35	15257.95
485.53	14934.96
485.71	15166.67
485.89	15552.86
486.07	15515.41
486.25	15665.21
486.43	15749.46
486.61	16013.95
486.78	15943.73
486.96	16173.10
487.14	16105.23
487.32	16358.00
487.50	16468.01
487.68	16491.41
487.85	16919.73
488.03	16943.14
488.21	17209.96
488.39	17114.00
488.57	17373.80
488.75	17420.61
488.92	17486.14
489.10	17692.11
489.28	18120.43
489.46	17884.03
489.64	17982.34
489.81	18188.30
489.99	18249.16
490.17	18370.86
490.35	18574.49
490.53	18801.52
490.70	18965.36
490.88	18700.88
491.06	18993.45
491.24	19157.28
491.41	18958.34
491.59	19161.97
491.77	19379.64
491.95	19339.85
492.13	19800.93
492.30	19782.21
492.48	19681.56
492.66	19992.86
492.84	19894.55
493.01	20147.33
493.19	20266.70
493.37	20556.93
493.54	20884.60
493.72	20685.65
493.90	20350.96
494.08	20776.94
494.25	21156.10
494.43	21172.49
494.61	21465.05
494.79	21462.71
494.96	21408.88
495.14	21518.89
495.32	22251.47
495.49	21699.11
495.67	22003.38
495.85	22120.40
496.02	22125.08
496.20	22459.78
496.38	22546.38
496.55	22628.30
496.73	23119.81
496.91	22911.50
497.09	23208.75
497.26	23330.46
497.44	23110.45
497.62	23370.25
497.79	23887.51
497.97	23475.57
498.14	23550.47
498.32	23875.80
498.50	23910.91
498.67	24100.50
498.85	24130.92
499.03	24151.99
499.20	24395.40
499.38	24304.12
499.56	24552.22
499.73	24655.20
499.91	24886.92
500.08	25078.84
500.26	24823.72
500.44	25013.31
500.61	24910.32
500.79	24725.42
500.97	25102.25
501.14	25612.48
501.32	25287.15
501.49	25631.21
501.67	25575.03
501.84	26129.74
502.02	25640.57
502.20	25284.81
502.37	26265.49
502.55	25797.38
502.72	26300.60
502.90	25860.58
503.07	26218.68
503.25	26441.03
503.43	26214.00
503.60	26579.12
503.78	26677.43
503.95	26761.69
504.13	26600.19
504.30	26845.94
504.48	26977.01
504.65	27283.62
504.83	27253.20
505.01	27524.70
505.18	27473.21
505.36	27892.16
505.53	27344.48
505.71	27679.18
505.88	27821.95
506.06	27513.00
506.23	28147.28
506.41	27807.90
506.58	27880.46
506.76	28051.32
506.93	28634.11
507.11	28280.69
507.28	28437.51
507.46	28140.26
507.63	28477.30
507.81	29188.82
507.98	28620.07
508.16	28819.02
508.33	28753.48
508.50	29146.69
508.68	29013.28
508.85	29181.80
509.03	29301.17
509.20	29326.91
509.38	29638.20
509.55	29443.94
509.73	29483.73
509.90	29968.22
510.08	29668.63
510.25	29727.14
510.42	29888.64
510.60	29991.62
510.77	30396.54
510.95	30253.76
511.12	30059.50
511.30	30221.00
511.47	30305.26
511.64	30490.16
511.82	30553.35
511.99	30284.19
512.17	30600.16
512.34	30476.12
512.51	30801.45
512.69	31332.75
512.86	31110.40
513.04	31491.91
513.21	31213.38
513.38	31374.88
513.56	31360.84
513.73	31356.16
513.90	31632.34
514.08	31208.70
514.25	31583.19
514.43	31882.78
514.60	32048.96
514.77	31899.16
514.95	32268.97
515.12	31992.78
515.29	32095.77
515.47	32381.31
515.64	32547.49
515.81	32046.62
515.99	32390.67
516.16	32409.40
516.33	32720.69
516.51	32584.94
516.68	32652.81
516.85	33076.45
517.03	32851.76
517.20	32882.19
517.37	32900.91
517.54	32999.21
517.72	33146.67
517.89	33280.08
518.06	33310.50
518.24	33469.66
518.41	33259.01
518.58	33567.96
518.75	33429.87
518.93	33902.66
519.10	33280.08
519.27	33773.93
519.45	33490.73
519.62	33965.85
519.79	33823.08
519.96	34082.88
520.14	33921.38
520.31	34087.56
520.48	34478.43
520.65	34190.55
520.83	34658.65
521.00	34539.29
521.17	34155.44
521.34	34518.22
521.52	34895.05
521.69	34862.28
521.86	35035.48
522.03	35304.64
522.20	35262.51
522.38	35044.84
522.55	35651.04
522.72	34995.69
522.89	35454.44
523.07	35655.72
523.24	35531.67
523.41	35828.92
523.58	35515.29
523.75	35868.71
523.92	35627.63
524.10	35634.66
524.27	35648.70
524.44	35838.28
524.61	36161.28
524.78	36072.34
524.96	36631.72
525.13	36383.63
525.30	36804.92
525.47	36538.10
525.64	36350.86
525.81	36594.28
525.98	36456.18
526.16	36620.02
526.33	36397.67
526.50	36996.85
526.67	36879.82
526.84	37003.87
527.01	36774.50
527.18	36804.92
527.36	37249.63
527.53	37013.23
527.70	37256.65
527.87	37216.86
528.04	37401.76
528.21	37694.33
528.38	37680.28
528.55	37876.89
528.72	37427.51
528.89	37443.89
529.07	37841.78
529.24	37670.92
529.41	38218.61
529.58	37963.49
529.75	37640.50
529.92	38071.15
530.09	37993.92
530.26	38057.11
530.43	37801.99
530.60	37914.34
530.77	38122.65
530.94	38314.57
531.11	37710.71
531.28	38092.22
531.46	38576.71
531.63	38532.24
531.80	38419.89
531.97	38717.14
532.14	38684.37
532.31	38562.67
532.48	38873.96
532.65	39210.99
532.82	38611.82
532.99	39021.41
533.16	38719.48
533.33	39138.44
533.50	39026.09
533.67	39140.78
533.84	38850.55
534.01	39225.04
534.18	38998.01
534.35	39686.12
534.52	39154.82
534.69	39732.93
534.86	39828.90
535.03	39688.46
535.20	40119.12
535.37	39557.39
535.54	40261.90
535.71	39721.23
535.88	39735.27
536.05	39627.61
536.22	40107.42
536.38	39496.54
536.55	39927.20
536.72	39665.06
536.89	39866.34
537.06	40238.49
537.23	40367.22
537.40	39906.13
537.57	40271.26
537.74	40399.99
537.91	40505.31
538.08	40584.89
538.25	40425.73
538.42	40500.63
538.59	40470.20
538.75	40760.43
538.92	40861.07
539.09	40837.67
539.26	40891.50
539.43	41111.51
539.60	40481.91
539.77	40648.08
539.94	41083.42
540.11	41226.20
540.28	41315.14
540.44	41303.43
540.61	41172.36
540.78	40947.67
540.95	41408.76
541.12	41024.91
541.29	41120.87
541.46	41446.21
541.62	41603.02
541.79	41486.00
541.96	41031.93
542.13	41462.59
542.30	41832.39
542.47	41542.17
542.63	41771.54
542.80	41827.71
542.97	42021.98
543.14	42263.05
543.31	42211.56
543.48	41890.91
543.64	42525.19
543.81	42478.38
543.98	42171.77
544.15	42249.01
544.32	42836.48
544.48	42499.45
544.65	42553.28
544.82	42209.22
544.99	42731.16
545.16	42337.95
545.32	42543.92
545.49	42831.80
545.66	42717.12
545.83	43005.00
546.00	42885.64
546.16	42920.74
546.33	42967.55
546.50	42773.29
546.67	43030.75
546.83	42454.98
547.00	42586.05
547.17	43035.43
547.34	43107.99
547.50	42990.96
547.67	43426.30
547.84	43524.60
548.00	43494.18
548.17	43461.41
548.34	43379.49
548.51	43578.43
548.67	43498.86
548.84	43269.48
549.01	43615.88
549.18	43559.71
549.34	43812.49
549.51	43737.59
549.68	43653.33
549.84	43945.90
550.01	44083.99
550.18	43777.38
550.34	44250.17
550.51	44208.04
550.68	44570.82
550.84	43709.50
551.01	44156.55
551.18	43908.45
551.34	43515.24
551.51	44268.89
551.68	44069.95
551.84	44329.75
552.01	44397.62
552.18	44648.06
552.34	44030.16
552.51	44423.37
552.68	44067.61
552.84	43990.37
553.01	44598.91
553.18	44196.34
553.34	44044.20
553.51	44552.10
553.67	44619.97
553.84	44772.11
554.01	44980.42
554.17	44542.74
554.34	44980.42
554.51	44659.76
554.67	45008.50
554.84	45235.53
555.00	44949.99
555.17	44886.79
555.33	44868.07
555.50	45125.53
555.67	44699.55
555.83	45045.95
556.00	45289.37
556.16	45551.51
556.33	45474.27
556.50	45439.16
556.66	45553.85
556.83	44795.51
556.99	45495.33
557.16	45361.92
557.32	45322.13
557.49	45523.42
557.65	45312.77
557.82	45640.45
557.98	45745.77
558.15	45200.43
558.32	45933.01
558.48	45574.91
558.65	45713.00
558.81	45794.92
558.98	45607.68
559.14	45006.16
559.31	45179.36
559.47	45687.26
559.64	45865.14
559.80	45406.39
559.97	45879.18
560.13	45598.32
560.30	45567.89
560.46	45923.65
560.63	46127.28
560.79	46188.13
560.96	45984.51
561.12	45963.44
561.29	45677.90
561.45	46124.94
561.61	45783.22
561.78	46127.28
561.94	46138.98
562.11	46330.90
562.27	45820.67
562.44	45771.52
562.60	46387.08
562.77	45654.49
562.93	46038.34
563.10	46349.63
563.26	46195.15
563.42	46478.36
563.59	45956.42
563.75	46382.40
563.92	46340.27
564.08	45780.88
564.24	46211.54
564.41	46115.58
564.57	46300.48
564.74	46742.84
564.90	46124.94
565.07	46466.66
565.23	46508.79
565.39	45993.87
565.56	46391.76
565.72	46260.69
565.88	46312.18
566.05	46719.43
566.21	46511.13
566.38	46256.01
566.54	46553.26
566.70	46939.44
566.87	46902.00
567.03	46649.22
567.19	47220.31
567.36	46181.11
567.52	46724.11
567.68	47075.19
567.85	46965.19
568.01	47000.30
568.17	46309.84
568.34	46827.10
568.50	46960.51
568.66	46361.33
568.83	46960.51
568.99	46574.32
569.15	46869.23
569.32	46452.61
569.48	46995.62
569.64	47178.18
569.81	47180.52
569.97	46967.53
570.13	46885.61
570.30	46508.79
570.46	46972.21
570.62	46759.22
570.78	46878.59
570.95	46660.92
571.11	47398.19
571.27	46939.44
571.43	46777.95
571.60	46663.26
571.76	47175.84
571.92	46700.71
572.09	47129.03
572.25	47262.44
572.41	46979.23
572.57	46897.31
572.74	47501.17
572.90	47409.89
573.06	47164.14
573.22	47351.38
573.38	47309.25
573.55	47459.04
573.71	47234.35
573.87	47250.74
574.03	47182.86
574.20	47295.21
574.36	47571.39
574.52	47290.52
574.68	47157.11
574.84	47821.83
575.01	47569.05
575.17	47374.78
575.33	47517.56
575.49	47323.29
575.65	47580.75
575.82	47248.39
575.98	47386.49
576.14	47501.17
576.30	47681.39
576.46	47388.83
576.62	47452.02
576.79	47688.42
576.95	47386.49
577.11	47122.01
577.27	47606.50
577.43	47540.96
577.59	47253.08
577.75	47505.85
577.92	47028.38
578.08	47550.32
578.24	47400.53
578.40	47805.44
578.56	47466.06
578.72	47194.56
578.88	47618.20
579.04	47672.03
579.21	47655.65
579.37	47672.03
579.53	47466.06
579.69	47306.91
579.85	47332.65
580.01	47604.16
580.17	47419.25
580.33	47856.93
580.49	47356.06
580.65	47271.80
580.82	47648.63
580.98	47306.91
581.14	46969.87
581.30	48119.07
581.46	47587.77
581.62	47208.61
581.78	47657.99
581.94	47409.89
582.10	47540.96
582.26	47966.94
582.42	47346.70
582.58	47777.36
582.74	48072.26
582.90	47789.06
583.06	48034.81
583.22	47510.53
583.38	47875.66
583.54	47751.61
583.70	47847.57
583.86	47583.09
584.02	47227.33
584.18	47856.93
584.34	47983.32
584.50	47805.44
584.66	47709.48
584.82	47730.54
584.98	47976.30
585.14	47569.05
585.30	47590.11
585.46	47648.63
585.62	47889.70
585.78	47934.17
585.94	46955.83
586.10	47899.06
586.26	47318.61
586.42	47639.26
586.58	47908.43
586.74	47688.42
586.90	47470.75
587.06	47702.46
587.22	47686.07
587.38	47508.19
587.54	47800.76
587.70	48098.01
587.86	48004.39
588.02	47978.64
588.18	47571.39
588.34	47838.21
588.49	47737.57
588.65	47629.90
588.81	48002.05
588.97	47885.02
589.13	47992.68
589.29	47681.39
589.45	48067.58
589.61	47978.64
589.77	48149.50
589.93	48083.97
