SpectraSuite Data File
++++++++++++++++++++++++++++++++++++
Date: Fri Oct 25 11:33:21 EDT 2013
User: price-jones
Dark Spectrum Present: No
Reference Spectrum Present: No
Number of Sampled Component Spectra: 1
Spectrometers: USB2+H05261
Integration Time (usec): 100000 (USB2+H05261)
Spectra Averaged: 1 (USB2+H05261)
Boxcar Smoothing: 0 (USB2+H05261)
Correct for Electrical Dark: No (USB2+H05261)
Strobe/Lamp Enabled: No (USB2+H05261)
Correct for Detector Non-linearity: No (USB2+H05261)
Correct for Stray Light: No (USB2+H05261)
Number of Pixels in Processed Spectrum: 2048
>>>>>Begin Processed Spectral Data<<<<<
365.73	285.55
365.92	285.55
366.12	285.55
366.32	184.90
366.52	133.41
366.72	166.18
366.91	173.20
367.11	168.52
367.31	121.71
367.51	154.48
367.70	166.18
367.90	145.11
368.10	201.29
368.30	166.18
368.49	126.39
368.69	170.86
368.89	187.24
369.09	191.92
369.28	138.09
369.48	227.03
369.68	266.82
369.87	196.60
370.07	201.29
370.27	322.99
370.47	306.61
370.66	486.83
370.86	472.79
371.06	557.05
371.25	561.73
371.45	538.32
371.65	540.66
371.84	559.39
372.04	568.75
372.24	573.43
372.44	627.26
372.63	566.41
372.83	573.43
373.03	643.65
373.22	634.29
373.42	580.45
373.62	655.35
373.81	657.69
374.01	695.14
374.21	517.26
374.40	571.09
374.60	660.03
374.79	634.29
374.99	669.39
375.19	664.71
375.38	648.33
375.58	599.18
375.78	645.99
375.97	660.03
376.17	751.31
376.37	624.92
376.56	636.63
376.76	608.54
376.95	650.67
377.15	657.69
377.35	706.84
377.54	716.20
377.74	709.18
377.93	760.67
378.13	725.57
378.33	678.76
378.52	800.46
378.72	777.06
378.91	727.91
379.11	671.73
379.31	638.97
379.50	744.29
379.70	617.90
379.89	692.80
380.09	709.18
380.28	706.84
380.48	718.54
380.68	772.38
380.87	744.29
381.07	692.80
381.26	772.38
381.46	748.97
381.65	807.48
381.85	770.04
382.04	751.31
382.24	777.06
382.43	704.50
382.63	755.99
382.83	821.53
383.02	732.59
383.22	751.31
383.41	767.70
383.61	821.53
383.80	840.25
384.00	786.42
384.19	793.44
384.39	823.87
384.58	835.57
384.78	786.42
384.97	868.34
385.17	781.74
385.36	856.64
385.56	882.38
385.75	795.78
385.95	866.00
386.14	898.77
386.34	805.14
386.53	861.32
386.72	898.77
386.92	849.61
387.11	823.87
387.31	908.13
387.50	861.32
387.70	784.08
387.89	912.81
388.09	908.13
388.28	887.06
388.48	976.00
388.67	966.64
388.86	952.60
389.06	940.90
389.25	1004.09
389.45	1011.11
389.64	971.32
389.84	997.07
390.03	926.85
390.22	957.28
390.42	1069.62
390.61	971.32
390.81	1018.13
391.00	1027.50
391.19	978.34
391.39	973.66
391.58	1006.43
391.78	1020.47
391.97	987.71
392.16	1020.47
392.36	1046.22
392.55	1041.54
392.75	1078.99
392.94	1074.31
393.13	1076.65
393.33	1062.60
393.52	1081.33
393.71	1100.05
393.91	1118.78
394.10	1046.22
394.29	1130.48
394.49	1114.10
394.68	1088.35
394.88	1118.78
395.07	1123.46
395.26	1163.25
395.46	1149.20
395.65	1053.24
395.84	1153.88
396.04	1256.87
396.23	1142.18
396.42	1228.78
396.62	1212.40
396.81	1287.29
397.00	1221.76
397.19	1242.82
397.39	1296.66
397.58	1219.42
397.77	1275.59
397.97	1350.49
398.16	1303.68
398.35	1221.76
398.55	1394.96
398.74	1320.06
398.93	1245.16
399.12	1233.46
399.32	1273.25
399.51	1291.98
399.70	1441.77
399.90	1217.08
400.09	1399.64
400.28	1380.92
400.47	1399.64
400.67	1519.01
400.86	1336.45
401.05	1313.04
401.24	1418.36
401.44	1516.67
401.63	1467.52
401.82	1448.79
402.01	1472.20
402.21	1544.75
402.40	1493.26
402.59	1511.99
402.78	1488.58
402.97	1572.84
403.17	1626.67
403.36	1561.14
403.55	1636.03
403.74	1598.59
403.93	1521.35
404.13	1614.97
404.32	1537.73
404.51	1526.03
404.70	1678.16
404.89	1596.25
405.09	1743.70
405.28	1713.27
405.47	1685.19
405.66	1741.36
405.85	1741.36
406.05	1727.32
406.24	1736.68
406.43	1694.55
406.62	1802.21
406.81	1813.92
407.00	1727.32
407.20	1703.91
407.39	1839.66
407.58	1881.79
407.77	1827.96
407.96	1879.45
408.15	1970.73
408.34	1881.79
408.54	1949.67
408.73	2026.90
408.92	1877.11
409.11	1996.48
409.30	2167.34
409.49	1996.48
409.68	1970.73
409.87	2085.42
410.07	1989.46
410.26	2071.37
410.45	2047.97
410.64	2136.91
410.83	2125.21
411.02	2150.95
411.21	2214.15
411.40	2195.42
411.59	2223.51
411.78	2139.25
411.98	2207.13
412.17	2291.38
412.36	2331.17
412.55	2370.96
412.74	2293.72
412.93	2387.35
413.12	2275.00
413.31	2415.43
413.50	2450.54
413.69	2363.94
413.88	2495.01
414.07	2452.88
414.26	2401.39
414.45	2541.82
414.64	2459.90
414.83	2565.23
415.02	2471.61
415.22	2691.62
415.41	2780.56
415.60	2637.78
415.79	2764.17
415.98	2579.27
416.17	2827.37
416.36	2862.48
416.55	2808.64
416.74	2717.36
416.93	2731.41
417.12	2810.98
417.31	2832.05
417.50	2967.80
417.69	2937.37
417.88	2909.29
418.07	2988.86
418.26	2974.82
418.45	2972.48
418.64	3178.45
418.83	2995.89
419.02	3105.89
419.21	3091.85
419.39	3070.78
419.58	3066.10
419.77	3068.44
419.96	3131.64
420.15	3136.32
420.34	3267.39
420.53	3255.69
420.72	3190.15
420.91	3208.87
421.10	3300.16
421.29	3304.84
421.48	3197.17
421.67	3253.34
421.86	3318.88
422.05	3276.75
422.24	3321.22
422.43	3361.01
422.61	3513.14
422.80	3485.06
422.99	3414.84
423.18	3346.97
423.37	3438.25
423.56	3414.84
423.75	3375.05
423.94	3368.03
424.13	3318.88
424.32	3382.07
424.50	3543.57
424.69	3485.06
424.88	3508.46
425.07	3529.53
425.26	3489.74
425.45	3419.52
425.64	3478.04
425.83	3475.70
426.01	3461.65
426.20	3524.85
426.39	3506.12
426.58	3435.91
426.77	3496.76
426.96	3569.32
427.15	3585.70
427.33	3609.11
427.52	3508.46
427.71	3688.68
427.90	3651.24
428.09	3637.19
428.28	3651.24
428.46	3686.34
428.65	3744.86
428.84	3754.22
429.03	3843.16
429.22	3744.86
429.40	3747.20
429.59	3763.58
429.78	3742.52
429.97	3618.47
430.16	3864.22
430.34	3889.97
430.53	3833.80
430.72	4030.40
430.91	3927.42
431.10	3974.23
431.28	3836.14
431.47	4058.49
431.66	4070.19
431.85	4084.23
432.03	4032.74
432.22	3936.78
432.41	4124.02
432.60	4007.00
432.79	4128.70
432.97	4070.19
433.16	4184.88
433.35	4070.19
433.54	4222.33
433.72	4318.29
433.91	4229.35
434.10	4273.82
434.28	4154.45
434.47	4163.81
434.66	4341.69
434.85	4290.20
435.03	4313.61
435.22	4411.91
435.41	4442.34
435.59	4477.44
435.78	4353.40
435.97	4447.02
436.16	4477.44
436.34	4332.33
436.53	4517.23
436.72	4681.07
436.90	4535.96
437.09	4573.41
437.28	4404.89
437.46	4559.36
437.65	4664.69
437.84	4568.73
438.02	4575.75
438.21	4627.24
438.40	4610.86
438.58	4725.54
438.77	4891.72
438.96	4645.96
439.14	4943.21
439.33	4805.12
439.52	4865.97
439.70	5116.41
439.89	5095.35
440.08	5095.35
440.26	5046.20
440.45	5156.20
440.63	5015.77
440.82	5322.38
441.01	5235.78
441.19	5158.54
441.38	5308.34
441.57	5261.52
441.75	5439.40
441.94	5413.66
442.12	5380.89
442.31	5472.17
442.50	5390.25
442.68	5385.57
442.87	5558.77
443.05	5596.22
443.24	5565.79
443.43	5579.84
443.61	5575.16
443.80	5827.93
443.98	5612.60
444.17	5247.48
444.35	5495.58
444.54	5792.83
444.73	5631.33
444.91	5638.35
445.10	5692.18
445.28	5631.33
445.47	5612.60
445.65	5706.23
445.84	5741.33
446.02	5884.11
446.21	5685.16
446.39	5701.54
446.58	5870.06
446.77	5867.72
446.95	5542.39
447.14	5682.82
447.32	5947.30
447.51	5762.40
447.69	5790.49
447.88	5811.55
448.06	5771.76
448.25	5743.67
448.43	5919.21
448.62	5816.23
448.80	5846.66
448.99	5888.79
449.17	5944.96
449.36	5898.15
449.54	6120.50
449.73	6022.20
449.91	6052.63
450.10	6045.60
450.28	6363.92
450.46	6368.60
450.65	6092.41
450.83	6277.32
451.02	6094.76
451.20	6211.78
451.39	6225.82
451.57	6319.45
451.76	6225.82
451.94	6333.49
452.13	6274.98
452.31	6305.40
452.49	6200.08
452.68	6347.53
452.86	6338.17
453.05	6394.34
453.23	6399.02
453.42	6305.40
453.60	6422.43
453.78	6392.00
453.97	6293.70
454.15	6558.18
454.34	6497.33
454.52	6595.63
454.70	6471.58
454.89	6586.27
455.07	6626.06
455.26	6677.55
455.44	6724.36
455.62	6684.57
455.81	6651.80
455.99	6693.93
456.17	6761.81
456.36	6696.27
456.54	6885.86
456.73	7014.59
456.91	7241.62
457.09	7040.33
457.28	7325.88
457.46	7028.63
457.64	7098.84
457.83	7166.72
458.01	7049.69
458.19	7368.01
458.38	7325.88
458.56	7410.14
458.74	7330.56
458.93	7342.26
459.11	7269.70
459.29	7176.08
459.48	7164.38
459.66	7265.02
459.84	7487.37
460.03	7639.51
460.21	7456.95
460.39	7391.41
460.57	7473.33
460.76	7744.83
460.94	7318.86
461.12	7508.44
461.31	7456.95
461.49	7482.69
461.67	7646.53
461.85	7665.25
462.04	7543.55
462.22	8084.21
462.40	7737.81
462.59	7843.14
462.77	7602.06
462.95	7906.33
463.13	7810.37
463.32	7925.05
463.50	8077.19
463.68	7894.63
463.86	7997.61
464.05	7943.78
464.23	7946.12
464.41	8102.93
464.59	7915.69
464.78	8180.17
464.96	8250.39
465.14	8070.17
465.32	8126.34
465.50	8226.98
465.69	8367.42
465.87	8210.60
466.05	8187.19
466.23	8344.01
466.41	8285.50
466.60	8482.10
466.78	8180.17
466.96	8465.72
467.14	8276.13
467.32	8334.65
467.51	8521.89
467.69	8018.68
467.87	8493.80
468.05	8554.66
468.23	8557.00
468.41	8482.10
468.60	8699.77
468.78	8498.49
468.96	8395.50
469.14	8484.44
469.32	8662.32
469.50	8461.04
469.69	8957.23
469.87	8552.32
470.05	8624.87
470.23	8599.13
470.41	8730.20
470.59	8863.61
470.77	8903.40
470.95	8901.06
471.14	9132.77
471.32	9001.70
471.50	9111.71
471.68	9039.15
471.86	9083.62
472.04	9238.09
472.22	9247.46
472.40	9001.70
472.58	9095.32
472.77	9221.71
472.95	9390.23
473.13	9736.63
473.31	9626.62
473.49	9586.83
473.67	9504.92
473.85	9589.17
474.03	9701.52
474.21	9738.97
474.39	9944.94
474.57	9902.81
474.75	9851.31
474.93	10153.24
475.12	10043.24
475.30	9944.94
475.48	10019.83
475.66	10183.67
475.84	10005.79
476.02	10326.44
476.20	10235.16
476.38	10569.86
476.56	10480.92
476.74	10736.04
476.92	10476.24
477.10	10326.44
477.28	10883.49
477.46	10789.87
477.64	10958.39
477.82	11005.20
478.00	11255.64
478.18	11140.95
478.36	11435.86
478.54	11435.86
478.72	11489.69
478.90	11421.81
479.08	11590.33
479.26	11735.45
479.44	11543.52
479.62	11838.43
479.80	12147.38
479.98	12166.10
480.16	12325.26
480.34	12025.67
480.52	12299.52
480.70	12421.22
480.88	12271.43
481.06	12549.95
481.24	12556.97
481.41	12652.94
481.59	12994.65
481.77	12840.18
481.95	13214.66
482.13	13048.49
482.31	13034.44
482.49	13324.67
482.67	13317.65
482.85	13493.19
483.03	13886.40
483.21	13874.70
483.39	13809.16
483.57	13752.99
483.74	14171.94
483.92	13984.70
484.10	14125.13
484.28	14476.21
484.46	14675.16
484.64	14965.39
484.82	14586.22
485.00	14970.07
485.18	15049.64
485.35	15190.08
485.53	15016.88
485.71	15300.08
485.89	15325.83
486.07	15580.95
486.25	15803.30
486.43	15641.80
486.61	15714.36
486.78	15756.49
486.96	16002.24
487.14	16217.57
487.32	16468.01
487.50	16329.92
487.68	16765.26
487.85	16662.27
488.03	16718.45
488.21	16912.71
488.39	17121.02
488.57	17022.72
488.75	17568.06
488.92	17570.40
489.10	17631.26
489.28	17673.39
489.46	17982.34
489.64	17877.01
489.81	18071.28
489.99	18511.30
490.17	18342.78
490.35	18792.16
490.53	18410.65
490.70	19000.47
490.88	18860.04
491.06	18803.86
491.24	19213.46
491.41	19168.99
491.59	19159.63
491.77	19405.38
491.95	19300.06
492.13	19786.89
492.30	19594.96
492.48	19653.48
492.66	20046.69
492.84	20294.79
493.01	20383.73
493.19	20456.28
493.37	20552.24
493.54	20407.13
493.72	20982.90
493.90	20861.19
494.08	21198.23
494.25	21174.83
494.43	20905.66
494.61	21553.99
494.79	21331.64
494.96	21195.89
495.14	21654.64
495.32	21933.16
495.49	21860.60
495.67	22274.88
495.85	22045.51
496.02	22108.70
496.20	22256.15
496.38	22600.21
496.55	22401.27
496.73	23393.65
496.91	22981.72
497.09	23129.17
497.26	23080.02
497.44	23164.28
497.62	23667.50
497.79	23601.96
497.97	23267.27
498.14	23683.88
498.32	24027.94
498.50	24168.37
498.67	24177.73
498.85	24044.32
499.03	24489.03
499.20	24208.16
499.38	24386.04
499.56	24531.15
499.73	24861.17
499.91	24514.77
500.08	25032.03
500.26	24624.78
500.44	25116.29
500.61	25156.08
500.79	25125.65
500.97	25205.23
501.14	25682.70
501.32	25575.03
501.49	25486.09
501.67	25310.55
501.84	26005.69
502.02	25858.24
502.20	25984.63
502.37	25741.21
502.55	26033.78
502.72	25970.58
502.90	26235.06
503.07	26129.74
503.25	26228.04
503.43	26251.45
503.60	26218.68
503.78	27044.89
503.95	26705.51
504.13	26366.13
504.30	27175.96
504.48	26836.58
504.65	27253.20
504.83	27576.19
505.01	27529.38
505.18	27332.78
505.36	27435.76
505.53	27311.71
505.71	27990.47
505.88	27632.36
506.06	27372.57
506.23	27723.65
506.41	27690.88
506.58	27590.24
506.76	27946.00
506.93	28423.47
507.11	27845.35
507.28	28451.55
507.46	28325.16
507.63	28624.75
507.81	28615.39
507.98	28458.57
508.16	29001.58
508.33	28650.50
508.50	28727.74
508.68	29158.39
508.85	29109.24
509.03	28826.04
509.20	29315.21
509.38	29958.86
509.55	29575.01
509.73	29432.24
509.90	29656.93
510.08	29401.81
510.25	29685.01
510.42	29862.90
510.60	29970.56
510.77	30120.35
510.95	30642.29
511.12	30274.83
511.30	29914.39
511.47	30174.19
511.64	30293.55
511.82	30815.49
511.99	30614.21
512.17	30845.92
512.34	30527.61
512.51	31204.02
512.69	30962.95
512.86	31229.77
513.04	31557.44
513.21	30944.22
513.38	31147.85
513.56	31082.31
513.73	31002.74
513.90	31440.42
514.08	31414.67
514.25	31730.64
514.43	31782.13
514.60	31880.44
514.77	31805.54
514.95	31931.93
515.12	32039.59
515.29	31803.20
515.47	32449.19
515.64	32334.50
515.81	32205.77
515.99	32631.75
516.16	32671.54
516.33	32425.78
516.51	32547.49
516.68	32938.36
516.85	32409.40
517.03	33134.96
517.20	33191.14
517.37	32694.94
517.54	33567.96
517.72	33027.30
517.89	32903.25
518.06	33179.43
518.24	33479.02
518.41	33397.10
518.58	33359.66
518.75	33394.76
518.93	33766.91
519.10	33663.93
519.27	33628.82
519.45	33912.02
519.62	33717.76
519.79	33811.38
519.96	33991.60
520.14	34155.44
520.31	34448.00
520.48	34377.79
520.65	34719.51
520.83	34614.18
521.00	34607.16
521.17	34445.66
521.34	34859.94
521.52	35009.73
521.69	35019.10
521.86	34897.39
522.03	35082.29
522.20	35103.35
522.38	35330.39
522.55	34965.26
522.72	35084.63
522.89	35386.56
523.07	35651.04
523.24	35519.97
523.41	35644.02
523.58	35196.98
523.75	35770.41
523.92	35758.70
524.10	35625.29
524.27	35681.47
524.44	35688.49
524.61	36376.61
524.78	36170.64
524.96	36285.33
525.13	36282.98
525.30	36657.47
525.47	36514.70
525.64	36943.02
525.81	36645.77
525.98	36734.71
526.16	36425.76
526.33	36704.28
526.50	36924.29
526.67	36793.22
526.84	36861.10
527.01	36584.91
527.18	36823.65
527.36	37069.40
527.53	37001.53
527.70	37801.99
527.87	37373.67
528.04	37280.05
528.21	37556.24
528.38	37013.23
528.55	37160.69
528.72	37579.64
528.89	37886.25
529.07	37537.51
529.24	37343.25
529.41	37727.10
529.58	38057.11
529.75	38012.64
529.92	37886.25
530.09	37673.26
530.26	38150.73
530.43	37839.44
530.60	37787.95
530.77	37904.98
530.94	38548.62
531.11	38132.01
531.28	37916.68
531.46	38227.97
531.63	38595.43
531.80	38417.55
531.97	38780.34
532.14	38462.02
532.31	38422.23
532.48	38878.64
532.65	38747.57
532.82	38752.25
532.99	39225.04
533.16	38892.68
533.33	39360.79
533.50	39189.93
533.67	39049.50
533.84	38789.70
534.01	39157.16
534.18	39166.52
534.35	39730.59
534.52	39550.37
534.69	39344.41
534.86	39662.72
535.03	39321.00
535.20	39693.15
535.37	39688.46
535.54	40238.49
535.71	39842.94
535.88	40165.93
536.05	40147.21
536.22	39796.13
536.38	39817.19
536.55	40123.80
536.72	40156.57
536.89	40039.54
537.06	40163.59
537.23	40266.58
537.40	40072.31
537.57	40369.56
537.74	39924.86
537.91	40631.70
538.08	40046.57
538.25	39952.94
538.42	40161.25
538.59	40634.04
538.75	40718.30
538.92	40842.35
539.09	41099.81
539.26	40498.29
539.43	40650.42
539.60	41244.92
539.77	41043.63
539.94	41514.08
540.11	41081.08
540.28	40971.08
540.44	40968.74
540.61	41329.18
540.78	41097.47
540.95	41294.07
541.12	41177.04
541.29	41106.83
541.46	41275.35
541.62	41268.33
541.79	41752.82
541.96	41256.62
542.13	41020.23
542.30	41036.61
542.47	41638.13
542.63	41471.95
542.80	41794.95
542.97	42239.65
543.14	42396.46
543.31	42019.64
543.48	41928.36
543.64	42621.16
543.81	42019.64
543.98	42609.45
544.15	41785.58
544.32	42204.54
544.48	43072.88
544.65	42731.16
544.82	42972.24
544.99	42384.76
545.16	42639.88
545.32	42370.72
545.49	43033.09
545.66	43044.79
545.83	42696.05
546.00	43283.53
546.16	43012.02
546.33	42684.35
546.50	43061.18
546.67	42899.68
546.83	42611.79
547.00	42611.79
547.17	43143.09
547.34	43075.22
547.50	42869.25
547.67	43276.51
547.84	43014.37
548.00	43210.97
548.17	43669.72
548.34	43320.98
548.51	43800.79
548.67	43325.66
548.84	43641.63
549.01	43409.92
549.18	43819.51
549.34	43934.20
549.51	43906.11
549.68	43800.79
549.84	43892.07
550.01	43658.01
550.18	43009.68
550.34	43892.07
550.51	44147.18
550.68	43793.76
550.84	43716.53
551.01	44638.70
551.18	44222.08
551.34	43899.09
551.51	44603.59
551.68	44334.43
551.84	44332.09
552.01	43959.94
552.18	43807.81
552.34	44584.86
552.51	44257.19
552.68	43950.58
552.84	44432.73
553.01	44737.00
553.18	44463.16
553.34	44673.81
553.51	44428.05
553.67	44594.23
553.84	44907.86
554.01	44624.65
554.17	44830.62
554.34	44547.42
554.51	44935.95
554.67	44935.95
554.84	45144.25
555.00	44779.13
555.17	44729.98
555.33	44912.54
555.50	45099.78
555.67	45343.20
555.83	45151.27
556.00	45109.14
556.16	45668.53
556.33	44872.75
556.50	44921.90
556.66	45270.64
556.83	44847.00
556.99	45368.94
557.16	45408.73
557.32	45420.44
557.49	45553.85
557.65	45303.41
557.82	45972.80
557.98	45432.14
558.15	45572.57
558.32	45687.26
558.48	45659.17
558.65	45467.25
558.81	46153.02
558.98	45258.94
559.14	45359.58
559.31	45647.47
559.47	45408.73
559.64	45525.76
559.80	45488.31
559.97	45755.13
560.13	45750.45
560.30	45511.72
560.46	46138.98
560.63	45993.87
560.79	45989.19
560.96	46307.50
561.12	46202.18
561.29	45965.78
561.45	46361.33
561.61	45848.75
561.78	45867.48
561.94	46026.63
562.11	45614.70
562.27	45923.65
562.44	45862.80
562.60	46054.72
562.77	46148.34
562.93	46031.32
563.10	46167.07
563.26	46323.88
563.42	46784.97
563.59	46225.58
563.75	46281.75
563.92	46047.70
564.08	46401.12
564.24	46366.01
564.41	46351.97
564.57	46164.73
564.74	46581.34
564.90	46204.52
565.07	46429.21
565.23	46024.29
565.39	46490.06
565.56	46279.41
565.72	46148.34
565.88	46564.96
566.05	46408.14
566.21	46604.75
566.38	46604.75
566.54	46398.78
566.70	46784.97
566.87	46705.39
567.03	46403.46
567.19	47281.16
567.36	46698.37
567.52	46752.20
567.68	47014.34
567.85	46925.40
568.01	47002.64
568.17	46808.37
568.34	46955.83
568.50	47019.02
568.66	46550.91
568.83	47091.58
568.99	46850.50
569.15	46607.09
569.32	46925.40
569.48	46532.19
569.64	46827.10
569.81	47222.65
569.97	46902.00
570.13	46696.03
570.30	46983.91
570.46	46749.86
570.62	46997.96
570.78	47576.07
570.95	46960.51
571.11	47040.09
571.27	46660.92
571.43	46768.58
571.60	47175.84
571.76	46780.29
571.92	46923.06
572.09	47035.41
572.25	46906.68
572.41	46621.13
572.57	47084.56
572.74	47234.35
572.90	47323.29
573.06	47447.34
573.22	46972.21
573.38	47512.88
573.55	46789.65
573.71	47620.54
573.87	47756.29
574.03	47065.83
574.20	47562.03
574.36	47267.12
574.52	47505.85
574.68	47297.55
574.84	47494.15
575.01	47587.77
575.17	47157.11
575.33	46953.49
575.49	47086.90
575.65	47552.66
575.82	47550.32
575.98	46894.97
576.14	47234.35
576.30	47257.76
576.46	47292.86
576.62	46948.81
576.79	47526.92
576.95	46857.52
577.11	47143.07
577.27	47084.56
577.43	47283.50
577.59	47477.77
577.75	46834.12
577.92	47213.29
578.08	47122.01
578.24	47391.17
578.40	47786.72
578.56	47550.32
578.72	47407.55
578.88	47751.61
579.04	47725.86
579.21	47304.57
579.37	47543.30
579.53	47784.38
579.69	47194.56
579.85	47454.36
580.01	47845.23
580.17	47199.24
580.33	47999.71
580.49	47693.10
580.65	47576.07
580.82	47632.24
580.98	47852.25
581.14	47103.28
581.30	47407.55
581.46	47725.86
581.62	47400.53
581.78	47681.39
581.94	47767.99
582.10	47597.13
582.26	48065.24
582.42	47725.86
582.58	47332.65
582.74	47667.35
582.90	47196.90
583.06	47859.27
583.22	47339.68
583.38	47849.91
583.54	47547.98
583.70	47910.77
583.86	47559.69
584.02	47697.78
584.18	47800.76
584.34	47826.51
584.50	47920.13
584.66	48247.80
584.82	47990.34
584.98	47929.49
585.14	47805.44
585.30	47374.78
585.46	47765.65
585.62	47327.97
585.78	47835.87
585.94	47538.62
586.10	47861.61
586.26	47746.93
586.42	47622.88
586.58	47789.06
586.74	47920.13
586.90	47407.55
587.06	47807.78
587.22	47627.56
587.38	48105.03
587.54	47917.79
587.70	47882.68
587.86	47704.80
588.02	47510.53
588.18	47945.87
588.34	47957.58
588.49	47861.61
588.65	47845.23
588.81	47936.51
588.97	47519.90
589.13	47526.92
589.29	47861.61
589.45	48568.46
589.61	47929.49
589.77	48404.62
589.93	47646.29
