SpectraSuite Data File
++++++++++++++++++++++++++++++++++++
Date: Fri Oct 25 11:24:04 EDT 2013
User: price-jones
Dark Spectrum Present: No
Reference Spectrum Present: No
Number of Sampled Component Spectra: 1
Spectrometers: USB2+H05261
Integration Time (usec): 100000 (USB2+H05261)
Spectra Averaged: 1 (USB2+H05261)
Boxcar Smoothing: 0 (USB2+H05261)
Correct for Electrical Dark: No (USB2+H05261)
Strobe/Lamp Enabled: No (USB2+H05261)
Correct for Detector Non-linearity: No (USB2+H05261)
Correct for Stray Light: No (USB2+H05261)
Number of Pixels in Processed Spectrum: 2048
>>>>>Begin Processed Spectral Data<<<<<
365.73	229.37
365.92	229.37
366.12	229.37
366.32	114.69
366.52	187.24
366.72	184.90
366.91	124.05
367.11	147.45
367.31	107.66
367.51	93.62
367.70	119.37
367.90	231.71
368.10	145.11
368.30	112.35
368.49	166.18
368.69	138.09
368.89	198.95
369.09	168.52
369.28	191.92
369.48	201.29
369.68	149.79
369.87	182.56
370.07	173.20
370.27	248.10
370.47	290.23
370.66	587.47
370.86	681.10
371.06	709.18
371.25	650.67
371.45	704.50
371.65	655.35
371.84	636.63
372.04	723.23
372.24	671.73
372.44	760.67
372.63	732.59
372.83	730.25
373.03	753.65
373.22	777.06
373.42	751.31
373.62	772.38
373.81	765.36
374.01	842.59
374.21	835.57
374.40	880.04
374.60	795.78
374.79	837.91
374.99	866.00
375.19	912.81
375.38	802.80
375.58	842.59
375.78	898.77
375.97	889.40
376.17	922.17
376.37	875.36
376.56	858.98
376.76	835.57
376.95	889.40
377.15	950.26
377.35	908.13
377.54	819.19
377.74	835.57
377.93	851.96
378.13	929.19
378.33	987.71
378.52	894.08
378.72	901.11
378.91	936.21
379.11	912.81
379.31	875.36
379.50	983.02
379.70	968.98
379.89	1032.18
380.09	1018.13
380.28	903.45
380.48	917.49
380.68	957.28
380.87	971.32
381.07	990.05
381.26	997.07
381.46	954.94
381.65	1013.45
381.85	990.05
382.04	1069.62
382.24	1067.28
382.43	1048.56
382.63	983.02
382.83	1027.50
383.02	1188.99
383.22	1163.25
383.41	1172.61
383.61	1114.10
383.80	1076.65
384.00	1100.05
384.19	1048.56
384.39	1163.25
384.58	1057.92
384.78	1132.82
384.97	1135.16
385.17	1184.31
385.36	1179.63
385.56	1121.12
385.75	1198.35
385.95	1114.10
386.14	1188.99
386.34	1144.52
386.53	1170.27
386.72	1268.57
386.92	1327.08
387.11	1217.08
387.31	1287.29
387.50	1224.10
387.70	1235.80
387.89	1214.74
388.09	1188.99
388.28	1245.16
388.48	1174.95
388.67	1303.68
388.86	1334.11
389.06	1401.98
389.25	1331.76
389.45	1341.13
389.64	1268.57
389.84	1369.21
390.03	1390.28
390.22	1317.72
390.42	1406.66
390.61	1420.71
390.81	1406.66
391.00	1378.58
391.19	1465.18
391.39	1444.11
391.58	1558.80
391.78	1568.16
391.97	1469.86
392.16	1451.13
392.36	1509.65
392.55	1469.86
392.75	1591.56
392.94	1502.62
393.13	1507.30
393.33	1572.84
393.52	1490.92
393.71	1680.50
393.91	1488.58
394.10	1596.25
394.29	1600.93
394.49	1685.19
394.68	1542.41
394.88	1600.93
395.07	1778.81
395.26	1638.38
395.46	1680.50
395.65	1664.12
395.84	1671.14
396.04	1778.81
396.23	1727.32
396.42	1769.44
396.62	1799.87
396.81	1809.23
397.00	1727.32
397.19	1788.17
397.39	1799.87
397.58	1799.87
397.77	1724.97
397.97	1802.21
398.16	1748.38
398.35	1818.60
398.55	1891.15
398.74	1863.07
398.93	2008.18
399.12	1968.39
399.32	1914.56
399.51	1935.62
399.70	1956.69
399.90	2012.86
400.09	1984.77
400.28	2085.42
400.47	2097.12
400.67	2157.97
400.86	2101.80
401.05	2099.46
401.24	2001.16
401.44	2146.27
401.63	2214.15
401.82	2090.10
402.01	2125.21
402.21	2099.46
402.40	2244.57
402.59	2263.30
402.78	2176.70
402.97	2251.60
403.17	2230.53
403.36	2310.11
403.55	2272.66
403.74	2424.80
403.93	2429.48
404.13	2413.09
404.32	2356.92
404.51	2387.35
404.70	2443.52
404.89	2476.29
405.09	2438.84
405.28	2473.95
405.47	2448.20
405.66	2595.65
405.85	2539.48
406.05	2523.10
406.24	2586.29
406.43	2614.38
406.62	2633.10
406.81	2651.83
407.00	2588.63
407.20	2607.36
407.39	2656.51
407.58	2715.02
407.77	2635.44
407.96	2733.75
408.15	2712.68
408.34	2738.43
408.54	2619.06
408.73	2794.60
408.92	2733.75
409.11	2803.96
409.30	2885.88
409.49	2881.20
409.68	2909.29
409.87	2876.52
410.07	3007.59
410.26	2928.01
410.45	2963.12
410.64	3012.27
410.83	3087.17
411.02	3129.30
411.21	3075.46
411.40	3159.72
411.59	3213.56
411.78	3288.45
411.98	3267.39
412.17	3248.66
412.36	3384.41
412.55	3325.90
412.74	3316.54
412.93	3527.19
413.12	3377.39
413.31	3597.40
413.50	3365.69
413.69	3520.17
413.88	3693.37
414.07	3686.34
414.26	3634.85
414.45	3637.19
414.64	3808.05
414.83	3751.88
415.02	3838.48
415.22	3852.52
415.41	3978.91
415.60	3906.35
415.79	4042.11
415.98	3995.29
416.17	4004.66
416.36	3962.53
416.55	4053.81
416.74	4070.19
416.93	3880.61
417.12	4224.67
417.31	4135.73
417.50	4058.49
417.69	4362.76
417.88	4315.95
418.07	4383.82
418.26	4322.97
418.45	4456.38
418.64	4493.83
418.83	4339.35
419.02	4503.19
419.21	4681.07
419.39	4411.91
419.58	4528.94
419.77	4615.54
419.96	4608.51
420.15	4589.79
420.34	4606.17
420.53	4566.39
420.72	4723.20
420.91	4746.61
421.10	4880.02
421.29	4765.33
421.48	4730.22
421.67	4681.07
421.86	4770.01
422.05	4772.35
422.24	4819.16
422.43	4901.08
422.61	4880.02
422.80	5060.24
422.99	4910.44
423.18	5013.43
423.37	5111.73
423.56	4786.40
423.75	4884.70
423.94	4770.01
424.13	4765.33
424.32	4814.48
424.50	5027.47
424.69	5135.14
424.88	5055.56
425.07	5116.41
425.26	4936.19
425.45	4924.49
425.64	5039.17
425.83	4781.71
426.01	4952.57
426.20	4975.98
426.39	4992.36
426.58	4903.42
426.77	5104.71
426.96	5172.58
427.15	5060.24
427.33	5205.35
427.52	5167.90
427.71	5256.84
427.90	5268.55
428.09	5313.02
428.28	5423.02
428.46	5362.17
428.65	5352.81
428.84	5614.95
429.03	5636.01
429.22	5418.34
429.40	5390.25
429.59	5584.52
429.78	5458.13
429.97	5273.23
430.16	5504.94
430.34	5645.37
430.53	5738.99
430.72	5664.10
430.91	5696.86
431.10	5640.69
431.28	5884.11
431.47	5743.67
431.66	5877.09
431.85	5811.55
432.03	5881.77
432.22	5778.78
432.41	5956.66
432.60	5914.53
432.79	5977.73
432.97	5959.00
433.16	5947.30
433.35	6019.86
433.54	6132.20
433.72	6033.90
433.91	6195.40
434.10	6162.63
434.28	5989.43
434.47	6167.31
434.66	6230.51
434.85	6455.20
435.03	6401.37
435.22	6312.42
435.41	6399.02
435.59	6415.41
435.78	6541.80
435.97	6663.51
436.16	6518.39
436.34	6480.94
436.53	6710.32
436.72	6567.54
436.90	6443.49
437.09	6752.45
437.28	6539.46
437.46	6600.31
437.65	6766.49
437.84	6874.15
438.02	6651.80
438.21	6794.58
438.40	6736.06
438.58	7246.30
438.77	7075.44
438.96	7124.59
439.14	7084.80
439.33	7274.38
439.52	7192.47
439.70	7227.57
439.89	7346.94
440.08	7323.54
440.26	7438.22
440.45	7389.07
440.63	7335.24
440.82	7681.64
441.01	7531.84
441.19	7674.62
441.38	7887.61
441.57	7854.84
441.75	7737.81
441.94	7878.24
442.12	7981.23
442.31	8053.78
442.50	7981.23
442.68	8112.30
442.87	8107.62
443.05	8175.49
443.24	8238.69
443.43	7981.23
443.61	8191.88
443.80	8439.97
443.98	8044.42
444.17	7793.98
444.35	8351.03
444.54	8603.81
444.73	8344.01
444.91	8318.26
445.10	8360.39
445.28	8416.57
445.47	8454.02
445.65	8468.06
445.84	8674.03
446.02	8395.50
446.21	8437.63
446.39	8461.04
446.58	8704.45
446.77	8449.33
446.95	8304.22
447.14	8308.90
447.32	8482.10
447.51	8580.40
447.69	8685.73
447.88	8603.81
448.06	8505.51
448.25	8542.96
448.43	8678.71
448.62	8547.64
448.80	8844.88
448.99	8674.03
449.17	8725.52
449.36	8784.03
449.54	8851.91
449.73	9020.42
449.91	8999.36
450.10	9001.70
450.28	9004.04
450.46	9172.56
450.65	9050.85
450.83	9090.64
451.02	8950.21
451.20	9308.31
451.39	9366.82
451.57	9235.75
451.76	9046.17
451.94	9345.76
452.13	9303.63
452.31	9430.02
452.49	9184.26
452.68	9446.40
452.86	9390.23
453.05	9420.66
453.23	9462.79
453.42	9348.10
453.60	9425.34
453.78	9387.89
453.97	9469.81
454.15	9626.62
454.34	9486.19
454.52	9675.77
454.70	9743.65
454.89	9650.03
455.07	9811.53
455.26	9788.12
455.44	9919.19
455.62	10057.28
455.81	9916.85
455.99	10052.60
456.17	10202.40
456.36	10178.99
456.54	10162.61
456.73	10263.25
456.91	10289.00
457.09	10356.87
457.28	10485.60
457.46	10286.65
457.64	10731.36
457.83	10366.23
458.01	10438.79
458.19	10546.45
458.38	10574.54
458.56	10485.60
458.74	10738.38
458.93	10750.08
459.11	10705.61
459.29	10824.98
459.48	10867.11
459.66	10871.79
459.84	10782.85
460.03	11115.20
460.21	10916.26
460.39	10934.98
460.57	10988.82
460.76	10953.71
460.94	11215.85
461.12	11199.46
461.31	11035.63
461.49	11239.25
461.67	11056.69
461.85	11595.01
462.04	11279.04
462.22	11590.33
462.40	11613.74
462.59	11634.80
462.77	11487.35
462.95	11492.03
463.13	11587.99
463.32	11627.78
463.50	11737.79
463.68	11822.05
463.86	11981.20
464.05	11662.89
464.23	11815.02
464.41	11981.20
464.59	11896.94
464.78	12205.89
464.96	12063.12
465.14	11882.90
465.32	12142.70
465.50	11913.33
465.69	12369.73
465.87	12203.55
466.05	12294.83
466.23	12051.42
466.41	12533.57
466.60	12566.34
466.78	12346.33
466.96	12180.15
467.14	12262.07
467.32	12409.52
467.51	12507.82
467.69	12299.52
467.87	12465.69
468.05	12774.64
468.23	12315.90
468.41	12620.17
468.60	12737.20
468.78	12776.98
468.96	12489.10
469.14	12643.57
469.32	13114.02
469.50	12856.56
469.69	12889.33
469.87	13090.62
470.05	13207.64
470.23	12966.57
470.41	13050.83
470.59	13355.10
470.77	13270.84
470.95	13397.23
471.14	13610.22
471.32	13200.62
471.50	13544.68
471.68	13357.44
471.86	13621.92
472.04	13748.31
472.22	14143.86
472.40	13696.82
472.58	13834.91
472.77	14129.81
472.95	14164.92
473.13	14754.74
473.31	14211.73
473.49	14239.82
473.67	14209.39
473.85	14415.36
474.03	14700.90
474.21	14712.61
474.39	14890.49
474.57	14750.06
474.75	14913.89
474.93	15059.01
475.12	15133.90
475.30	15068.37
475.48	14862.40
475.66	15300.08
475.84	15225.18
476.02	15620.74
476.20	15520.09
476.38	15704.99
476.56	16098.20
476.74	15906.28
476.92	15955.43
477.10	15742.44
477.28	15985.86
477.46	16219.91
477.64	16542.91
477.82	16533.54
478.00	17048.46
478.18	16823.77
478.36	17092.93
478.54	17153.79
478.72	17207.62
478.90	17376.14
479.08	17736.58
479.26	17811.48
479.44	17671.04
479.62	18003.40
479.80	17895.74
479.98	18317.03
480.16	18705.56
480.34	18476.19
480.52	18834.29
480.70	18588.53
480.88	18366.18
481.06	18857.70
481.24	18956.00
481.41	19054.30
481.59	19403.04
481.77	19571.56
481.95	19524.75
482.13	19866.47
482.31	19997.54
482.49	20215.21
482.67	20255.00
482.85	20613.10
483.03	20634.16
483.21	20779.28
483.39	21139.72
483.57	20837.79
483.74	21160.78
483.92	21495.48
484.10	21397.18
484.28	21895.71
484.46	21909.75
484.64	22548.72
484.82	22136.79
485.00	22548.72
485.18	22845.97
485.35	22932.57
485.53	23009.81
485.71	23103.43
485.89	23222.80
486.07	23747.08
486.25	23613.66
486.43	23931.98
486.61	24205.82
486.78	24130.92
486.96	24210.50
487.14	24704.35
487.32	24879.89
487.50	25481.41
487.68	25305.87
487.85	25553.97
488.03	25654.61
488.21	25825.47
488.39	25785.68
488.57	26426.99
488.75	26422.31
488.92	26700.83
489.10	27096.38
489.28	26714.87
489.46	27421.72
489.64	27332.78
489.81	27543.42
489.99	27615.98
490.17	27798.54
490.35	28072.39
490.53	27981.10
490.70	28584.96
490.88	28568.58
491.06	28879.87
491.24	29010.94
491.41	29125.63
491.59	29303.51
491.77	29495.43
491.95	29827.79
492.13	30230.36
492.30	30099.29
492.48	30291.21
492.66	30466.75
492.84	30295.89
493.01	30766.34
493.19	30499.52
493.37	31482.55
493.54	30953.58
493.72	31920.23
493.90	31454.46
494.08	31936.61
494.25	32114.49
494.43	32130.87
494.61	32456.21
494.79	32671.54
494.96	32371.95
495.14	32779.20
495.32	33397.10
495.49	33221.56
495.67	33654.56
495.85	33635.84
496.02	33617.11
496.20	34110.97
496.38	34134.37
496.55	34384.81
496.73	34850.58
496.91	34628.23
497.09	35281.24
497.26	35122.08
497.44	34660.99
497.62	35571.46
497.79	36278.30
497.97	35723.60
498.14	36240.86
498.32	36418.74
498.50	36229.15
498.67	36456.18
498.85	36746.41
499.03	36842.37
499.20	36711.30
499.38	37251.97
499.56	37277.71
499.73	37340.91
499.91	37586.66
500.08	38132.01
500.26	37514.11
500.44	37984.55
500.61	38143.71
500.79	38117.96
500.97	38565.01
501.14	38906.73
501.32	38986.30
501.49	38770.97
501.67	38705.44
501.84	39110.35
502.02	39068.22
502.20	39487.18
502.37	39882.73
502.55	39360.79
502.72	39721.23
502.90	39377.17
503.07	39569.10
503.25	39847.62
503.43	40231.47
503.60	40664.47
503.78	40079.33
503.95	40737.02
504.13	40713.62
504.30	40582.55
504.48	40722.98
504.65	40814.26
504.83	41544.51
505.01	41624.09
505.18	41069.38
505.36	41666.22
505.53	41544.51
505.71	42190.50
505.88	42068.79
506.06	41619.41
506.23	42342.63
506.41	42401.14
506.58	42160.07
506.76	41998.57
506.93	42810.74
507.11	42787.33
507.28	43189.91
507.46	43367.79
507.63	42986.28
507.81	43318.64
507.98	42775.63
508.16	43267.14
508.33	43768.02
508.50	43723.55
508.68	44086.33
508.85	44060.58
509.03	44238.47
509.20	44350.81
509.38	44591.89
509.55	44329.75
509.73	44666.78
509.90	44917.22
510.08	44776.79
510.25	44898.50
510.42	44755.72
510.60	45153.62
510.77	45165.32
510.95	45638.11
511.12	45179.36
511.30	45375.97
511.47	45825.35
511.64	45680.24
511.82	46504.10
511.99	45979.82
512.17	46220.90
512.34	46028.98
512.51	46887.95
512.69	46546.23
512.86	46342.61
513.04	46576.66
513.21	46735.82
513.38	46913.70
513.56	47171.16
513.73	46672.62
513.90	47091.58
514.08	46916.04
514.25	47316.27
514.43	47686.07
514.60	47824.17
514.77	47775.02
514.95	48076.94
515.12	47547.98
515.29	47679.05
515.47	48456.11
515.64	48484.20
515.81	48535.69
515.99	48163.54
516.16	48570.80
516.33	48449.09
516.51	48861.02
516.68	48708.89
516.85	48423.34
517.03	49006.14
517.20	49130.19
517.37	49375.94
517.54	49118.48
517.72	49205.08
517.89	49275.30
518.06	49373.60
518.24	49563.18
518.41	49022.52
518.58	49401.69
518.75	49488.29
518.93	49738.72
519.10	49497.65
519.27	49815.96
519.45	50042.99
519.62	50122.57
519.79	50246.62
519.96	49900.22
520.14	50106.19
520.31	50248.96
520.48	50719.41
520.65	50733.45
520.83	50953.46
521.00	50976.87
521.17	50637.49
521.34	51014.32
521.52	51330.29
521.69	50951.12
521.86	51246.03
522.03	51454.34
522.20	51269.43
522.38	51601.79
522.55	51693.07
522.72	51426.25
522.89	51339.65
523.07	51987.98
523.24	51585.41
523.41	51849.89
523.58	51814.78
523.75	51943.51
523.92	52088.62
524.10	52102.67
524.27	52119.05
524.44	52165.86
524.61	51835.84
524.78	52416.30
524.96	52404.59
525.13	52516.94
525.30	52402.25
525.47	52413.96
525.64	51964.57
525.81	52830.57
525.98	52671.42
526.16	52472.47
526.33	52842.27
526.50	53116.12
526.67	53003.77
526.84	53052.92
527.01	53055.26
527.18	53226.12
527.36	53169.95
527.53	53132.50
527.70	53820.62
527.87	53408.68
528.04	53544.44
528.21	53626.35
528.38	53436.77
528.55	53511.67
528.72	53588.91
528.89	53427.41
529.07	53673.16
529.24	53497.62
529.41	53808.92
529.58	53778.49
529.75	53755.08
529.92	53951.69
530.09	53928.28
530.26	54064.03
530.43	54138.93
530.60	53895.52
530.77	54064.03
530.94	54071.06
531.11	54113.19
531.28	54246.60
531.46	54295.75
531.63	54721.72
531.80	54581.29
531.97	54656.19
532.14	54508.74
532.31	54684.28
532.48	54567.25
532.65	54857.48
532.82	54541.50
532.99	54986.21
533.16	54691.30
533.33	54775.56
533.50	55077.49
533.67	55238.98
533.84	54939.39
534.01	55091.53
534.18	55093.87
534.35	55189.83
534.52	55299.84
534.69	55363.03
534.86	55400.48
535.03	55178.13
535.20	55140.68
535.37	55299.84
535.54	55735.18
535.71	55346.65
535.88	55475.38
536.05	55573.68
536.22	55777.31
536.38	55781.99
536.55	55772.63
536.72	55943.48
536.89	55824.12
537.06	55679.00
537.23	55777.31
537.40	55674.32
537.57	55842.84
537.74	56067.53
537.91	56186.90
538.08	56076.90
538.25	55791.35
538.42	55983.27
538.59	56222.01
538.75	56004.34
538.92	56151.79
539.09	56341.38
539.26	56135.41
539.43	56280.52
539.60	56191.58
539.77	56214.99
539.94	56935.87
540.11	56463.08
540.28	56537.98
540.44	56615.22
540.61	56687.78
540.78	56650.33
540.95	56456.06
541.12	56601.18
541.29	56582.45
541.46	56811.82
541.62	56748.63
541.79	56856.29
541.96	56346.06
542.13	56601.18
542.30	56844.59
542.47	56945.23
542.63	56917.15
542.80	57109.07
542.97	57291.63
543.14	57216.74
543.31	57350.15
543.48	57560.79
543.64	57666.12
543.81	57663.78
543.98	57579.52
544.15	57598.24
544.32	57462.49
544.48	57738.68
544.65	57415.68
544.82	57626.33
544.99	57247.16
545.16	57574.84
545.32	57560.79
545.49	57813.57
545.66	57965.71
545.83	57853.36
546.00	57724.63
546.16	57986.77
546.33	57495.26
546.50	57577.18
546.67	57794.85
546.83	57483.56
547.00	57996.13
547.17	57998.48
547.34	57949.32
547.50	58003.16
547.67	58101.46
547.84	58220.83
548.00	58281.68
548.17	58185.72
548.34	58307.43
548.51	58515.73
548.67	58475.94
548.84	58375.30
549.01	58101.46
549.18	58300.40
549.34	58485.31
549.51	58592.97
549.68	58597.65
549.84	58667.87
550.01	58557.86
550.18	58459.56
550.34	58454.88
550.51	58431.47
550.68	58539.14
550.84	58314.45
551.01	58794.26
551.18	58482.97
551.34	58801.28
551.51	58644.46
551.68	58583.61
551.84	58632.76
552.01	58653.82
552.18	58777.87
552.34	58721.70
552.51	58864.47
552.68	58841.07
552.84	58550.84
553.01	59065.76
553.18	59000.22
553.34	59049.38
553.51	58944.05
553.67	58768.51
553.84	59084.48
554.01	59077.46
554.17	59168.74
554.34	59238.96
554.51	59480.03
554.67	59040.01
554.84	59112.57
555.00	59185.13
555.17	59105.55
555.33	59133.63
555.50	59004.91
555.67	59196.83
555.83	59096.19
556.00	59292.79
556.16	59456.63
556.33	59344.28
556.50	59332.58
556.66	59442.59
556.83	59339.60
556.99	59505.78
557.16	59526.84
557.32	59449.61
557.49	59737.49
557.65	59409.82
557.82	59510.46
557.98	59590.04
558.15	59353.65
558.32	59559.61
558.48	59458.97
558.65	59587.70
558.81	59484.72
558.98	59709.41
559.14	59613.44
559.31	59639.19
559.47	59929.42
559.64	59831.11
559.80	59714.09
559.97	60058.15
560.13	59798.35
560.30	59756.22
560.46	59985.59
560.63	59793.67
560.79	59765.58
560.96	59817.07
561.12	59917.71
561.29	59877.93
561.45	60032.40
561.61	59852.18
561.78	59903.67
561.94	59938.78
562.11	59669.62
562.27	60177.51
562.44	60266.45
562.60	60011.34
562.77	60062.83
562.93	59803.03
563.10	60275.82
563.26	59927.08
563.42	60411.57
563.59	60142.41
563.75	60224.32
563.92	60128.36
564.08	60018.36
564.24	60369.44
564.41	60200.92
564.57	60348.37
564.74	60252.41
564.90	60196.24
565.07	60259.43
565.23	60339.01
565.39	60423.27
565.56	60182.19
565.72	60245.39
565.88	60357.74
566.05	60331.99
566.21	60231.35
566.38	60299.22
566.54	60376.46
566.70	60470.08
566.87	60514.55
567.03	60186.88
567.19	60605.83
567.36	60374.12
567.52	60402.21
567.68	60697.11
567.85	60329.65
568.01	60528.59
568.17	60446.68
568.34	60652.64
568.50	60458.38
568.66	60608.17
568.83	60556.68
568.99	60392.84
569.15	60683.07
569.32	60500.51
569.48	60470.08
569.64	60781.37
569.81	60533.28
569.97	60465.40
570.13	60519.23
570.30	60594.13
570.46	60638.60
570.62	60612.85
570.78	60512.21
570.95	60374.12
571.11	60563.70
571.27	60514.55
571.43	60711.16
571.60	60802.44
571.76	60575.40
571.92	60753.29
572.09	60640.94
572.25	60575.40
572.41	60556.68
572.57	60853.93
572.74	60832.86
572.90	60814.14
573.06	60636.26
573.22	60605.83
573.38	60867.97
573.55	60699.45
573.71	60809.46
573.87	60631.58
574.03	60846.91
574.20	60739.24
574.36	60701.79
574.52	60877.33
574.68	60900.74
574.84	60879.67
575.01	60977.98
575.17	60608.17
575.33	60704.13
575.49	60713.50
575.65	60779.03
575.82	60828.18
575.98	60933.51
576.14	60970.96
576.30	60816.48
576.46	60837.54
576.62	60935.85
576.79	60853.93
576.95	60617.53
577.11	60975.64
577.27	60970.96
577.43	61052.87
577.59	60741.58
577.75	60933.51
577.92	60825.84
578.08	60898.40
578.24	60940.53
578.40	61073.94
578.56	61181.60
578.72	60884.36
578.88	60938.19
579.04	61197.99
579.21	60926.49
579.37	60982.66
579.53	61190.97
579.69	60882.02
579.85	60919.46
580.01	60963.93
580.17	60741.58
580.33	60992.02
580.49	61057.56
580.65	60963.93
580.82	60956.91
580.98	60746.26
581.14	60748.60
581.30	60973.30
581.46	60989.68
581.62	61076.28
581.78	61066.92
581.94	61055.21
582.10	61059.90
582.26	60973.30
582.42	61006.06
582.58	61020.11
582.74	61209.69
582.90	61085.64
583.06	61059.90
583.22	60921.80
583.38	61179.26
583.54	61090.32
583.70	61293.95
583.86	61031.81
584.02	60884.36
584.18	61130.11
584.34	61055.21
584.50	61052.87
584.66	61064.58
584.82	60877.33
584.98	61228.41
585.14	61116.07
585.30	61029.47
585.46	61195.65
585.62	61162.88
585.78	61181.60
585.94	60992.02
586.10	61174.58
586.26	61212.03
586.42	61172.24
586.58	61396.93
586.74	61200.33
586.90	61118.41
587.06	60980.32
587.22	61212.03
587.38	61116.07
587.54	61141.81
587.70	61216.71
587.86	61305.65
588.02	61237.78
588.18	61233.10
588.34	61176.92
588.49	61219.05
