SpectraSuite Data File
++++++++++++++++++++++++++++++++++++
Date: Fri Oct 25 11:25:28 EDT 2013
User: price-jones
Dark Spectrum Present: No
Reference Spectrum Present: No
Number of Sampled Component Spectra: 1
Spectrometers: USB2+H05261
Integration Time (usec): 100000 (USB2+H05261)
Spectra Averaged: 1 (USB2+H05261)
Boxcar Smoothing: 0 (USB2+H05261)
Correct for Electrical Dark: No (USB2+H05261)
Strobe/Lamp Enabled: No (USB2+H05261)
Correct for Detector Non-linearity: No (USB2+H05261)
Correct for Stray Light: No (USB2+H05261)
Number of Pixels in Processed Spectrum: 2048
>>>>>Begin Processed Spectral Data<<<<<
365.73	217.67
365.92	217.67
366.12	217.67
366.32	152.13
366.52	124.05
366.72	168.52
366.91	149.79
367.11	156.82
367.31	121.71
367.51	163.84
367.70	105.32
367.90	102.98
368.10	166.18
368.30	93.62
368.49	156.82
368.69	140.43
368.89	217.67
369.09	145.11
369.28	161.50
369.48	203.63
369.68	285.55
369.87	220.01
370.07	184.90
370.27	255.12
370.47	390.87
370.66	564.07
370.86	641.31
371.06	751.31
371.25	690.46
371.45	709.18
371.65	741.95
371.84	741.95
372.04	774.72
372.24	751.31
372.44	795.78
372.63	753.65
372.83	725.57
373.03	727.91
373.22	720.88
373.42	842.59
373.62	770.04
373.81	802.80
374.01	791.10
374.21	774.72
374.40	851.96
374.60	823.87
374.79	816.85
374.99	910.47
375.19	880.04
375.38	774.72
375.58	833.23
375.78	891.74
375.97	830.89
376.17	849.61
376.37	809.83
376.56	823.87
376.76	870.68
376.95	898.77
377.15	833.23
377.35	940.90
377.54	954.94
377.74	919.83
377.93	891.74
378.13	971.32
378.33	807.48
378.52	880.04
378.72	940.90
378.91	1001.75
379.11	1006.43
379.31	912.81
379.50	964.30
379.70	980.68
379.89	929.19
380.09	952.60
380.28	943.24
380.48	931.53
380.68	992.39
380.87	1004.09
381.07	952.60
381.26	994.73
381.46	1011.11
381.65	985.37
381.85	997.07
382.04	1067.28
382.24	1039.20
382.43	1088.35
382.63	1144.52
382.83	1057.92
383.02	1086.01
383.22	1109.41
383.41	1029.84
383.61	1107.07
383.80	1135.16
384.00	1158.57
384.19	1142.18
384.39	1128.14
384.58	1198.35
384.78	1207.72
384.97	1181.97
385.17	1224.10
385.36	1151.54
385.56	1263.89
385.75	1153.88
385.95	1203.04
386.14	1224.10
386.34	1184.31
386.53	1177.29
386.72	1188.99
386.92	1193.67
387.11	1207.72
387.31	1273.25
387.50	1123.46
387.70	1231.12
387.89	1238.14
388.09	1221.76
388.28	1235.80
388.48	1263.89
388.67	1266.23
388.86	1270.91
389.06	1294.32
389.25	1366.87
389.45	1336.45
389.64	1345.81
389.84	1404.32
390.03	1411.34
390.22	1315.38
390.42	1350.49
390.61	1348.15
390.81	1331.76
391.00	1465.18
391.19	1451.13
391.39	1460.49
391.58	1397.30
391.78	1462.83
391.97	1500.28
392.16	1455.81
392.36	1511.99
392.55	1430.07
392.75	1526.03
392.94	1533.05
393.13	1486.24
393.33	1493.26
393.52	1514.33
393.71	1586.88
393.91	1619.65
394.10	1500.28
394.29	1591.56
394.49	1610.29
394.68	1568.16
394.88	1638.38
395.07	1636.03
395.26	1643.06
395.46	1678.16
395.65	1699.23
395.84	1713.27
396.04	1724.97
396.23	1804.55
396.42	1764.76
396.62	1715.61
396.81	1792.85
397.00	1720.29
397.19	1844.34
397.39	1900.52
397.58	1790.51
397.77	1764.76
397.97	1877.11
398.16	1837.32
398.35	1764.76
398.55	1769.44
398.74	1879.45
398.93	1952.01
399.12	1891.15
399.32	1930.94
399.51	1933.28
399.70	1966.05
399.90	1879.45
400.09	1832.64
400.28	2043.29
400.47	2092.44
400.67	2101.80
400.86	2050.31
401.05	2076.06
401.24	2083.08
401.44	2193.08
401.63	2136.91
401.82	2141.59
402.01	2167.34
402.21	2169.68
402.40	2265.64
402.59	2153.29
402.78	2174.36
402.97	2181.38
403.17	2200.10
403.36	2263.30
403.55	2296.07
403.74	2284.36
403.93	2244.57
404.13	2275.00
404.32	2457.56
404.51	2368.62
404.70	2396.71
404.89	2377.98
405.09	2476.29
405.28	2478.63
405.47	2485.65
405.66	2445.86
405.85	2473.95
406.05	2464.58
406.24	2593.31
406.43	2555.86
406.62	2635.44
406.81	2597.99
407.00	2546.50
407.20	2572.25
407.39	2595.65
407.58	2590.97
407.77	2696.30
407.96	2686.94
408.15	2731.41
408.34	2588.63
408.54	2806.30
408.73	2715.02
408.92	2810.98
409.11	2787.58
409.30	2885.88
409.49	2876.52
409.68	2937.37
409.87	2902.26
410.07	2960.78
410.26	3019.29
410.45	3002.91
410.64	2993.55
410.83	2988.86
411.02	3122.27
411.21	3192.49
411.40	3054.40
411.59	3225.26
411.78	3206.53
411.98	3194.83
412.17	3204.19
412.36	3314.20
412.55	3318.88
412.74	3295.47
412.93	3328.24
413.12	3225.26
413.31	3578.68
413.50	3342.28
413.69	3471.01
413.88	3639.53
414.07	3646.55
414.26	3389.10
414.45	3522.51
414.64	3531.87
414.83	3700.39
415.02	3695.71
415.22	3775.28
415.41	3786.99
415.60	3808.05
415.79	3887.63
415.98	4021.04
416.17	3899.33
416.36	3943.80
416.55	3934.44
416.74	4072.53
416.93	3969.55
417.12	4086.58
417.31	4264.46
417.50	4175.52
417.69	4311.27
417.88	4227.01
418.07	4208.28
418.26	4173.18
418.45	4278.50
418.64	4547.66
418.83	4456.38
419.02	4423.61
419.21	4491.49
419.39	4475.10
419.58	4475.10
419.77	4458.72
419.96	4528.94
420.15	4521.92
420.34	4519.57
420.53	4580.43
420.72	4674.05
420.91	4550.00
421.10	4643.62
421.29	4744.27
421.48	4681.07
421.67	4709.16
421.86	4767.67
422.05	4777.03
422.24	4800.44
422.43	4699.80
422.61	4849.59
422.80	4870.65
422.99	5139.82
423.18	4966.62
423.37	4908.10
423.56	4793.42
423.75	4760.65
423.94	4718.52
424.13	4648.30
424.32	4664.69
424.50	4980.66
424.69	4978.32
424.88	5088.32
425.07	4849.59
425.26	4999.38
425.45	4854.27
425.64	5008.75
425.83	4943.21
426.01	5125.77
426.20	4793.42
426.39	4924.49
426.58	5074.28
426.77	5001.72
426.96	5057.90
427.15	5128.11
427.33	5104.71
427.52	5181.95
427.71	5156.20
427.90	5186.63
428.09	5320.04
428.28	5413.66
428.46	5254.50
428.65	5334.08
428.84	5448.77
429.03	5348.12
429.22	5490.90
429.40	5399.62
429.59	5607.92
429.78	5305.99
429.97	5277.91
430.16	5380.89
430.34	5650.05
430.53	5474.51
430.72	5493.24
430.91	5638.35
431.10	5507.28
431.28	5795.17
431.47	5715.59
431.66	5902.83
431.85	5785.80
432.03	5954.32
432.22	5996.45
432.41	5849.00
432.60	5886.45
432.79	6038.58
432.97	6052.63
433.16	5966.03
433.35	6033.90
433.54	6003.47
433.72	6188.38
433.91	6015.18
434.10	6033.90
434.28	6061.99
434.47	6253.91
434.66	6127.52
434.85	6209.44
435.03	6293.70
435.22	6363.92
435.41	6401.37
435.59	6317.11
435.78	6448.18
435.97	6504.35
436.16	6333.49
436.34	6445.84
436.53	6319.45
436.72	6586.27
436.90	6331.15
437.09	6719.68
437.28	6394.34
437.46	6504.35
437.65	6448.18
437.84	6684.57
438.02	6670.53
438.21	6668.19
438.40	6555.84
438.58	6897.56
438.77	6927.99
438.96	6972.46
439.14	7098.84
439.33	7110.55
439.52	7075.44
439.70	7131.61
439.89	7213.53
440.08	7166.72
440.26	7119.91
440.45	7293.11
440.63	7314.17
440.82	7470.99
441.01	7616.10
441.19	7496.74
441.38	7602.06
441.57	7681.64
441.75	7681.64
441.94	7948.46
442.12	7939.10
442.31	7934.42
442.50	7864.20
442.68	7843.14
442.87	7850.16
443.05	8065.49
443.24	8131.02
443.43	8114.64
443.61	8166.13
443.80	8304.22
443.98	8006.97
444.17	7838.45
444.35	8189.53
444.54	8397.84
444.73	8308.90
444.91	8432.95
445.10	8184.85
445.28	8224.64
445.47	7939.10
445.65	8154.43
445.84	8294.86
446.02	8311.24
446.21	8285.50
446.39	8238.69
446.58	8336.99
446.77	8716.16
446.95	8102.93
447.14	8393.16
447.32	8594.45
447.51	8287.84
447.69	8325.29
447.88	8404.86
448.06	8339.33
448.25	8456.36
448.43	8503.17
448.62	8535.93
448.80	8390.82
448.99	8535.93
449.17	8826.16
449.36	8514.87
449.54	8929.14
449.73	8882.33
449.91	8966.59
450.10	8746.58
450.28	8994.68
450.46	9011.06
450.65	8954.89
450.83	8952.55
451.02	9198.31
451.20	9184.26
451.39	9200.65
451.57	9256.82
451.76	9032.13
451.94	8961.91
452.13	9430.02
452.31	9214.69
452.49	8926.80
452.68	9156.18
452.86	9174.90
453.05	9109.36
453.23	9376.19
453.42	9287.25
453.60	9146.81
453.78	9547.05
453.97	9448.74
454.15	9458.10
454.34	9446.40
454.52	9554.07
454.70	9584.49
454.89	9577.47
455.07	9813.87
455.26	9860.68
455.44	9893.44
455.62	9930.89
455.81	9832.59
455.99	9895.78
456.17	10057.28
456.36	9900.47
456.54	10223.46
456.73	10267.93
456.91	10373.25
457.09	10338.15
457.28	10546.45
457.46	10396.66
457.64	10396.66
457.83	10616.67
458.01	10326.44
458.19	10640.08
458.38	10602.63
458.56	10544.11
458.74	10569.86
458.93	10668.16
459.11	10785.19
459.29	10635.39
459.48	10619.01
459.66	10841.36
459.84	10682.20
460.03	11145.63
460.21	10902.22
460.39	10920.94
460.57	10857.75
460.76	10944.34
460.94	11321.17
461.12	11037.97
461.31	11059.03
461.49	11339.90
461.67	11119.89
461.85	11330.53
462.04	11192.44
462.22	11501.39
462.40	11367.98
462.59	11377.34
462.77	11396.07
462.95	11243.93
463.13	11445.22
463.32	11375.00
463.50	11693.32
463.68	11709.70
463.86	11609.06
464.05	11541.18
464.23	11730.76
464.41	11929.71
464.59	11609.06
464.78	12119.29
464.96	11915.67
465.14	11822.05
465.32	12009.29
465.50	12070.14
465.69	11964.82
465.87	12042.06
466.05	12140.36
466.23	11906.31
466.41	12252.70
466.60	12182.49
466.78	11976.52
466.96	12128.66
467.14	12397.82
467.32	12580.38
467.51	12521.87
467.69	12072.48
467.87	12266.75
468.05	12362.71
468.23	12156.74
468.41	12383.77
468.60	12575.70
468.78	12638.89
468.96	12643.57
469.14	12856.56
469.32	12957.21
469.50	12528.89
469.69	12699.75
469.87	12957.21
470.05	12987.63
470.23	13102.32
470.41	13109.34
470.59	13121.04
470.77	12947.84
470.95	13057.85
471.14	13408.93
471.32	13064.87
471.50	13476.80
471.68	13668.73
471.86	13582.13
472.04	13657.03
472.22	14162.58
472.40	13490.85
472.58	13949.59
472.77	13879.38
472.95	14052.58
473.13	14452.81
473.31	14026.83
473.49	14113.43
473.67	14078.32
473.85	14288.97
474.03	14621.33
474.21	14604.94
474.39	14637.71
474.57	14675.16
474.75	14909.21
474.93	14839.00
475.12	15014.54
475.30	15190.08
475.48	14927.94
475.66	14913.89
475.84	15068.37
476.02	15297.74
476.20	15171.35
476.38	15396.04
476.56	15943.73
476.74	15569.24
476.92	15903.94
477.10	15669.89
477.28	16299.49
477.46	15887.56
477.64	16133.31
477.82	16720.79
478.00	16849.52
478.18	16809.73
478.36	16776.96
478.54	17128.04
478.72	17193.58
478.90	17362.09
479.08	17544.66
479.26	17486.14
479.44	17731.90
479.62	17926.16
479.80	18092.34
479.98	17972.97
480.16	18403.63
480.34	18155.54
480.52	18420.02
480.70	18300.65
480.88	18272.56
481.06	18558.11
481.24	18668.11
481.41	18637.69
481.59	19328.14
481.77	19543.47
481.95	19424.11
482.13	19456.87
482.31	19470.92
482.49	20442.24
482.67	19943.70
482.85	20224.57
483.03	20285.42
483.21	20957.16
483.39	20975.88
483.57	20624.80
483.74	21158.44
483.92	20858.85
484.10	20980.56
484.28	21729.53
484.46	21839.54
484.64	22125.08
484.82	21673.36
485.00	22043.17
485.18	22457.44
485.35	22682.13
485.53	22396.59
485.71	23058.96
485.89	23494.30
486.07	23082.36
486.25	23431.10
486.43	23220.45
486.61	23571.54
486.78	24016.24
486.96	24240.93
487.14	24709.04
487.32	24294.76
487.50	24503.07
487.68	24765.21
487.85	24964.15
488.03	25165.44
488.21	25603.12
488.39	25731.85
488.57	26047.82
488.75	25935.48
488.92	26136.76
489.10	26118.04
489.28	26354.43
489.46	26639.98
489.64	26766.37
489.81	27470.87
489.99	27482.57
490.17	27491.93
490.35	28030.26
490.53	28114.52
490.70	27955.36
490.88	28046.64
491.06	28634.11
491.24	28835.40
491.41	29104.56
491.59	28823.70
491.77	29404.15
491.95	29443.94
492.13	29579.69
492.30	29900.34
492.48	29900.34
492.66	30188.23
492.84	30218.66
493.01	30450.37
493.19	30979.33
493.37	30934.86
493.54	30876.35
493.72	31112.74
493.90	31323.39
494.08	31735.32
494.25	32130.87
494.43	31662.77
494.61	32123.85
494.79	31943.63
494.96	32858.78
495.14	32744.09
495.32	33076.45
495.49	32708.99
495.67	32950.06
495.85	33144.33
496.02	33532.86
496.20	33958.83
496.38	34000.96
496.55	33738.82
496.73	34607.16
496.91	33977.56
497.09	35040.16
497.26	34834.19
497.44	34525.24
497.62	35105.70
497.79	35545.72
497.97	35517.63
498.14	35765.73
498.32	35613.59
498.50	35817.22
498.67	36261.92
498.85	35981.06
499.03	36524.06
499.20	36268.94
499.38	36708.96
499.56	36627.04
499.73	37001.53
499.91	36985.15
500.08	37361.97
500.26	37055.36
500.44	37474.32
500.61	37954.13
500.79	37820.72
500.97	37916.68
501.14	38485.43
501.32	38438.62
501.49	38190.52
501.67	38330.95
501.84	38785.02
502.02	38557.99
502.20	38700.76
502.37	39056.52
502.55	39110.35
502.72	39309.30
502.90	39393.56
503.07	39370.15
503.25	39992.73
503.43	39372.49
503.60	40119.12
503.78	39966.99
503.95	39915.50
504.13	40320.41
504.30	40240.83
504.48	40182.32
504.65	40863.41
504.83	40620.00
505.01	41481.31
505.18	40727.66
505.36	41415.78
505.53	40727.66
505.71	41825.37
505.88	41500.04
506.06	41212.15
506.23	42003.25
506.41	41680.26
506.58	41982.19
506.76	42012.62
506.93	42267.73
507.11	42398.80
507.28	42300.50
507.46	42373.06
507.63	42541.58
507.81	43014.37
507.98	42679.67
508.16	42658.60
508.33	43309.27
508.50	43215.65
508.68	43203.95
508.85	43505.88
509.03	43793.76
509.20	43852.28
509.38	43920.15
509.55	44196.34
509.73	44062.93
509.90	44339.11
510.08	44287.62
510.25	44048.88
510.42	44652.74
510.60	44758.06
510.77	44877.43
510.95	44844.66
511.12	45223.83
511.30	44942.97
511.47	45340.86
511.64	45411.07
511.82	45387.67
511.99	45617.04
512.17	45586.61
512.34	45244.90
512.51	45874.50
512.69	46078.13
512.86	45963.44
513.04	46546.23
513.21	46689.01
513.38	46370.69
513.56	46754.54
513.73	46256.01
513.90	46649.22
514.08	46527.51
514.25	47150.09
514.43	46806.03
514.60	47262.44
514.77	46997.96
514.95	47433.30
515.12	47327.97
515.29	47201.58
515.47	47590.11
515.64	47707.14
515.81	47599.47
515.99	47938.85
516.16	48301.64
516.33	48182.27
516.51	48172.91
516.68	48383.55
516.85	48193.97
517.03	48617.61
517.20	48505.26
517.37	48343.77
517.54	48500.58
517.72	48542.71
517.89	48744.00
518.06	49081.03
518.24	49399.35
518.41	49237.85
518.58	49607.65
518.75	49312.75
518.93	48987.41
519.10	49284.66
519.27	49553.82
519.45	49088.06
519.62	49717.66
519.79	49837.03
519.96	49607.65
520.14	49806.60
520.31	50059.38
520.48	50174.06
520.65	50024.27
520.83	50335.56
521.00	50501.74
521.17	50220.87
521.34	50316.84
521.52	50679.62
521.69	50513.44
521.86	50473.65
522.03	50691.32
522.20	51126.66
522.38	51068.15
522.55	51557.32
522.72	51035.38
522.89	51306.88
523.07	51229.65
523.24	51189.86
523.41	51320.93
523.58	51185.18
523.75	51475.40
523.92	51763.29
524.10	51632.22
524.27	51562.00
524.44	51950.53
524.61	51810.10
524.78	52196.29
524.96	52004.36
525.13	52123.73
525.30	52266.50
525.47	52444.38
525.64	52296.93
525.81	52343.74
525.98	52528.64
526.16	52315.65
526.33	52371.83
526.50	52598.86
526.67	52444.38
526.84	52772.06
527.01	52746.31
527.18	52652.69
527.36	52900.79
527.53	52568.43
527.70	53413.37
527.87	53268.25
528.04	53003.77
528.21	53200.38
528.38	52966.32
528.55	53474.22
528.72	53312.72
528.89	53277.61
529.07	53148.88
529.24	53396.98
529.41	53399.32
529.58	53579.54
529.75	53329.11
529.92	53488.26
530.09	53673.16
530.26	53731.68
530.43	53783.17
530.60	53673.16
530.77	53813.60
530.94	54040.63
531.11	53778.49
531.28	53783.17
531.46	53874.45
531.63	53799.55
531.80	53743.38
531.97	54211.49
532.14	54262.98
532.31	54174.04
532.48	54468.95
532.65	54447.88
532.82	54438.52
532.99	54536.82
533.16	54412.77
533.33	54553.21
533.50	54850.45
533.67	54532.14
533.84	54705.34
534.01	54387.03
534.18	54791.94
534.35	54976.84
534.52	54784.92
534.69	54773.22
534.86	55243.66
535.03	54923.01
535.20	55178.13
535.37	55119.62
535.54	55269.41
535.71	55042.38
535.88	55150.04
536.05	55297.50
536.22	55292.82
536.38	55353.67
536.55	55529.21
536.72	55316.22
536.89	55224.94
537.06	55557.30
537.23	55807.73
537.40	55632.19
537.57	55704.75
537.74	55435.59
537.91	55934.12
538.08	55561.98
538.25	55599.43
538.42	55690.71
538.59	55931.78
538.75	55554.96
538.92	56053.49
539.09	55887.31
539.26	55985.61
539.43	55812.41
539.60	55966.89
539.77	56048.81
539.94	56093.28
540.11	56137.75
540.28	56186.90
540.44	56313.29
540.61	56339.04
540.78	56030.08
540.95	56360.10
541.12	56247.75
541.29	56360.10
541.46	56313.29
541.62	56460.74
541.79	56453.72
541.96	56435.00
542.13	56388.19
542.30	56519.26
542.47	56610.54
542.63	56640.96
542.80	56711.18
542.97	56996.73
543.14	56818.84
543.31	56949.92
543.48	57116.09
543.64	57188.65
543.81	57399.30
543.98	57242.48
544.15	57190.99
544.32	57368.87
544.48	57478.88
544.65	57198.01
544.82	57125.46
544.99	57036.51
545.16	57322.06
545.32	57303.34
545.49	57495.26
545.66	57677.82
545.83	57415.68
546.00	57708.25
546.16	57357.17
546.33	57368.87
546.50	57602.92
546.67	57710.59
546.83	57151.20
547.00	57616.97
547.17	57567.82
547.34	57879.11
547.50	57719.95
547.67	57855.70
547.84	57785.49
548.00	57764.42
548.17	57780.81
548.34	57865.06
548.51	58092.10
548.67	58052.31
548.84	57991.45
549.01	57764.42
549.18	57923.58
549.34	57956.35
549.51	58092.10
549.68	57986.77
549.84	57872.09
550.01	58220.83
550.18	58092.10
550.34	58265.30
550.51	58307.43
550.68	58031.24
550.84	57991.45
551.01	58415.09
551.18	58195.08
551.34	58244.23
551.51	58597.65
551.68	58508.71
551.84	58181.04
552.01	58244.23
552.18	58443.18
552.34	58354.24
552.51	58623.40
552.68	58412.75
552.84	58410.41
553.01	58820.00
553.18	58855.11
553.34	58677.23
553.51	58698.30
553.67	58710.00
553.84	59093.85
554.01	58820.00
554.17	58831.71
554.34	58820.00
554.51	58784.90
554.67	58859.79
554.84	58967.46
555.00	58714.68
555.17	58815.32
555.33	58906.60
555.50	58574.25
555.67	58838.73
555.83	58812.98
556.00	59002.56
556.16	59288.11
556.33	59105.55
556.50	58908.94
556.66	59152.36
556.83	58913.62
556.99	59222.58
557.16	59260.02
557.32	59281.09
557.49	59473.01
557.65	59068.10
557.82	59063.42
557.98	59103.21
558.15	59100.87
558.32	59243.64
558.48	59213.21
558.65	59119.59
558.81	59344.28
558.98	59465.99
559.14	59393.43
559.31	59559.61
559.47	59379.39
559.64	59393.43
559.80	59585.36
559.97	59505.78
560.13	59477.69
560.30	59540.89
560.46	59592.38
560.63	59531.53
560.79	59643.87
560.96	59693.02
561.12	59707.07
561.29	59718.77
561.45	59590.04
561.61	59683.66
561.78	59632.17
561.94	59664.94
562.11	59508.12
562.27	59873.24
562.44	59859.20
562.60	59929.42
562.77	59812.39
562.93	59601.74
563.10	59870.90
563.26	59854.52
563.42	59884.95
563.59	59667.28
563.75	59695.36
563.92	59941.12
564.08	59781.96
564.24	60027.72
564.41	60175.17
564.57	60020.70
564.74	60013.68
564.90	59959.84
565.07	60004.31
565.23	59908.35
565.39	59952.82
565.56	59901.33
565.72	59859.20
565.88	60058.15
566.05	59999.63
566.21	60013.68
566.38	60123.68
566.54	60109.64
566.70	60193.90
566.87	60334.33
567.03	60041.76
567.19	60135.38
567.36	60130.70
567.52	60236.03
567.68	60369.44
567.85	60315.61
568.01	60406.89
568.17	60041.76
568.34	60341.35
568.50	60207.94
568.66	60177.51
568.83	60065.17
568.99	60055.81
569.15	60371.78
569.32	60310.92
569.48	60278.16
569.64	60385.82
569.81	60310.92
569.97	60133.04
570.13	60243.05
570.30	60317.95
570.46	60320.29
570.62	60416.25
570.78	60362.42
570.95	60362.42
571.11	60467.74
571.27	60226.66
571.43	60430.29
571.60	60467.74
571.76	60367.10
571.92	60451.36
572.09	60552.00
572.25	60374.12
572.41	60411.57
572.57	60219.64
572.74	60580.09
572.90	60324.97
573.06	60423.27
573.22	60465.40
573.38	60327.31
573.55	60491.15
573.71	60666.69
573.87	60823.50
574.03	60512.21
574.20	60566.04
574.36	60561.36
574.52	60596.47
574.68	60650.30
574.84	60617.53
575.01	60514.55
575.17	60488.80
575.33	60346.03
575.49	60413.91
575.65	60561.36
575.82	60544.98
575.98	60860.95
576.14	60769.67
576.30	60636.26
576.46	60390.50
576.62	60727.54
576.79	60603.49
576.95	60512.21
577.11	60673.71
577.27	60980.32
577.43	60732.22
577.59	60563.70
577.75	60654.98
577.92	60547.32
578.08	60699.45
578.24	60851.59
578.40	60488.80
578.56	60992.02
578.72	60945.21
578.88	60924.14
579.04	60966.27
579.21	60811.80
579.37	60954.57
579.53	60800.10
579.69	60533.28
579.85	60727.54
580.01	60699.45
580.17	60617.53
580.33	60664.35
580.49	60720.52
580.65	60694.77
580.82	60779.03
580.98	60676.05
581.14	60683.07
581.30	60783.71
581.46	60652.64
581.62	60654.98
581.78	60643.28
581.94	60825.84
582.10	60821.16
582.26	60732.22
582.42	60666.69
582.58	60963.93
582.74	60917.12
582.90	60772.01
583.06	61017.77
583.22	60676.05
583.38	60928.83
583.54	60863.29
583.70	60750.94
583.86	60851.59
584.02	60779.03
584.18	61078.62
584.34	60772.01
584.50	60889.04
584.66	60790.73
584.82	60617.53
584.98	60935.85
585.14	60856.27
585.30	60753.29
585.46	60809.46
585.62	61034.15
585.78	60912.44
585.94	60676.05
586.10	60842.23
586.26	60947.55
586.42	61003.72
586.58	60956.91
586.74	61043.51
586.90	60846.91
587.06	60858.61
587.22	60952.23
587.38	60985.00
587.54	61015.43
587.70	61160.54
587.86	60924.14
588.02	60860.95
588.18	61057.56
588.34	60811.80
588.49	60800.10
