SpectraSuite Data File
++++++++++++++++++++++++++++++++++++
Date: Fri Oct 25 11:33:10 EDT 2013
User: price-jones
Dark Spectrum Present: No
Reference Spectrum Present: No
Number of Sampled Component Spectra: 1
Spectrometers: USB2+H05261
Integration Time (usec): 100000 (USB2+H05261)
Spectra Averaged: 1 (USB2+H05261)
Boxcar Smoothing: 0 (USB2+H05261)
Correct for Electrical Dark: No (USB2+H05261)
Strobe/Lamp Enabled: No (USB2+H05261)
Correct for Detector Non-linearity: No (USB2+H05261)
Correct for Stray Light: No (USB2+H05261)
Number of Pixels in Processed Spectrum: 2048
>>>>>Begin Processed Spectral Data<<<<<
365.73	311.29
365.92	311.29
366.12	311.29
366.32	294.91
366.52	212.99
366.72	166.18
366.91	187.24
367.11	177.88
367.31	159.16
367.51	154.48
367.70	187.24
367.90	163.84
368.10	161.50
368.30	166.18
368.49	180.22
368.69	292.57
368.89	196.60
369.09	196.60
369.28	252.78
369.48	203.63
369.68	205.97
369.87	264.48
370.07	259.80
370.27	327.68
370.47	311.29
370.66	472.79
370.86	477.47
371.06	557.05
371.25	552.37
371.45	559.39
371.65	589.82
371.84	561.73
372.04	594.50
372.24	521.94
372.44	608.54
372.63	585.13
372.83	573.43
373.03	568.75
373.22	587.47
373.42	622.58
373.62	582.79
373.81	641.31
374.01	645.99
374.21	580.45
374.40	631.94
374.60	540.66
374.79	608.54
374.99	669.39
375.19	636.63
375.38	645.99
375.58	610.88
375.78	634.29
375.97	720.88
376.17	688.12
376.37	608.54
376.56	674.07
376.76	683.44
376.95	634.29
377.15	683.44
377.35	699.82
377.54	697.48
377.74	585.13
377.93	685.78
378.13	704.50
378.33	711.52
378.52	734.93
378.72	723.23
378.91	641.31
379.11	676.41
379.31	732.59
379.50	678.76
379.70	685.78
379.89	784.08
380.09	674.07
380.28	744.29
380.48	732.59
380.68	795.78
380.87	765.36
381.07	699.82
381.26	809.83
381.46	739.61
381.65	734.93
381.85	739.61
382.04	793.44
382.24	828.55
382.43	772.38
382.63	784.08
382.83	727.91
383.02	819.19
383.22	748.97
383.41	786.42
383.61	751.31
383.80	849.61
384.00	784.08
384.19	711.52
384.39	842.59
384.58	849.61
384.78	896.43
384.97	786.42
385.17	774.72
385.36	798.12
385.56	720.88
385.75	866.00
385.95	800.46
386.14	800.46
386.34	856.64
386.53	833.23
386.72	866.00
386.92	940.90
387.11	910.47
387.31	826.21
387.50	826.21
387.70	915.15
387.89	957.28
388.09	903.45
388.28	903.45
388.48	922.17
388.67	898.77
388.86	912.81
389.06	954.94
389.25	947.92
389.45	978.34
389.64	997.07
389.84	978.34
390.03	917.49
390.22	1001.75
390.42	926.85
390.61	1032.18
390.81	1104.73
391.00	1086.01
391.19	1076.65
391.39	990.05
391.58	1001.75
391.78	976.00
391.97	1078.99
392.16	1034.52
392.36	1013.45
392.55	1034.52
392.75	1081.33
392.94	1015.79
393.13	1041.54
393.33	1062.60
393.52	1116.44
393.71	1107.07
393.91	1203.04
394.10	1097.71
394.29	1144.52
394.49	1121.12
394.68	1158.57
394.88	1088.35
395.07	1151.54
395.26	1090.69
395.46	1090.69
395.65	1214.74
395.84	1261.55
396.04	1212.40
396.23	1313.04
396.42	1177.29
396.62	1170.27
396.81	1273.25
397.00	1210.06
397.19	1219.42
397.39	1303.68
397.58	1224.10
397.77	1235.80
397.97	1231.12
398.16	1277.93
398.35	1252.19
398.55	1240.48
398.74	1275.59
398.93	1303.68
399.12	1320.06
399.32	1249.85
399.51	1273.25
399.70	1359.85
399.90	1362.19
400.09	1380.92
400.28	1371.55
400.47	1348.15
400.67	1401.98
400.86	1317.72
401.05	1390.28
401.24	1366.87
401.44	1423.05
401.63	1348.15
401.82	1451.13
402.01	1409.00
402.21	1390.28
402.40	1397.30
402.59	1453.47
402.78	1657.10
402.97	1528.37
403.17	1504.96
403.36	1537.73
403.55	1504.96
403.74	1577.52
403.93	1577.52
404.13	1675.82
404.32	1617.31
404.51	1659.44
404.70	1575.18
404.89	1664.12
405.09	1757.74
405.28	1675.82
405.47	1633.69
405.66	1708.59
405.85	1785.83
406.05	1701.57
406.24	1713.27
406.43	1739.02
406.62	1785.83
406.81	1755.40
407.00	1682.85
407.20	1755.40
407.39	1755.40
407.58	1893.49
407.77	1907.54
407.96	1928.60
408.15	1827.96
408.34	1804.55
408.54	1820.94
408.73	1844.34
408.92	1891.15
409.11	2026.90
409.30	1867.75
409.49	1961.37
409.68	1930.94
409.87	2036.27
410.07	1949.67
410.26	2090.10
410.45	2090.10
410.64	2080.74
410.83	2125.21
411.02	2165.00
411.21	2054.99
411.40	2120.53
411.59	2157.97
411.78	2150.95
411.98	2179.04
412.17	2342.88
412.36	2211.81
412.55	2300.75
412.74	2310.11
412.93	2312.45
413.12	2368.62
413.31	2452.88
413.50	2340.54
413.69	2399.05
413.88	2406.07
414.07	2373.30
414.26	2495.01
414.45	2441.18
414.64	2401.39
414.83	2626.08
415.02	2726.72
415.22	2703.32
415.41	2724.38
415.60	2593.31
415.79	2747.79
415.98	2696.30
416.17	2785.24
416.36	2738.43
416.55	2740.77
416.74	2834.39
416.93	2946.73
417.12	2778.22
417.31	2913.97
417.50	2773.53
417.69	3030.99
417.88	2829.71
418.07	2897.58
418.26	3047.38
418.45	2977.16
418.64	2998.23
418.83	3150.36
419.02	3038.02
419.21	3169.09
419.39	3194.83
419.58	3152.70
419.77	3131.64
419.96	3183.13
420.15	3124.62
420.34	3274.41
420.53	3255.69
420.72	3351.65
420.91	3187.81
421.10	3318.88
421.29	3325.90
421.48	3126.96
421.67	3288.45
421.86	3311.86
422.05	3501.44
422.24	3361.01
422.43	3351.65
422.61	3213.56
422.80	3433.57
422.99	3398.46
423.18	3370.37
423.37	3454.63
423.56	3459.31
423.75	3353.99
423.94	3325.90
424.13	3119.93
424.32	3272.07
424.50	3468.67
424.69	3536.55
424.88	3449.95
425.07	3531.87
425.26	3410.16
425.45	3499.10
425.64	3267.39
425.83	3510.80
426.01	3517.83
426.20	3534.21
426.39	3545.91
426.58	3480.38
426.77	3492.08
426.96	3588.04
427.15	3480.38
427.33	3566.98
427.52	3524.85
427.71	3576.34
427.90	3555.27
428.09	3627.83
428.28	3665.28
428.46	3723.79
428.65	3751.88
428.84	3831.46
429.03	3810.39
429.22	3604.42
429.40	3669.96
429.59	3831.46
429.78	3578.68
429.97	3716.77
430.16	3864.22
430.34	3758.90
430.53	4044.45
430.72	3864.22
430.91	3765.92
431.10	3899.33
431.28	3939.12
431.47	4133.39
431.66	3988.27
431.85	3943.80
432.03	3936.78
432.22	4117.00
432.41	4102.96
432.60	4095.94
432.79	4067.85
432.97	4145.09
433.16	4184.88
433.35	4077.21
433.54	4147.43
433.72	4182.54
433.91	4156.79
434.10	4252.75
434.28	4187.22
434.47	4252.75
434.66	4280.84
434.85	4304.25
435.03	4573.41
435.22	4327.65
435.41	4421.27
435.59	4276.16
435.78	4381.48
435.97	4381.48
436.16	4404.89
436.34	4559.36
436.53	4435.32
436.72	4503.19
436.90	4365.10
437.09	4475.10
437.28	4421.27
437.46	4550.00
437.65	4580.43
437.84	4566.39
438.02	4608.51
438.21	4557.02
438.40	4662.35
438.58	4847.25
438.77	4737.24
438.96	4774.69
439.14	4992.36
439.33	5046.20
439.52	4875.34
439.70	4812.14
439.89	5104.71
440.08	5088.32
440.26	5027.47
440.45	4992.36
440.63	5020.45
440.82	5167.90
441.01	5111.73
441.19	5221.74
441.38	5195.99
441.57	5376.21
441.75	5357.49
441.94	5434.72
442.12	5268.55
442.31	5383.23
442.50	5294.29
442.68	5540.05
442.87	5434.72
443.05	5582.18
443.24	5418.34
443.43	5614.95
443.61	5610.26
443.80	5619.63
443.98	5710.91
444.17	5348.12
444.35	5556.43
444.54	5720.27
444.73	5643.03
444.91	5753.04
445.10	5769.42
445.28	5706.23
445.47	5769.42
445.65	5832.62
445.84	5785.80
446.02	5708.57
446.21	5680.48
446.39	5673.46
446.58	5724.95
446.77	5755.38
446.95	5603.24
447.14	5664.10
447.32	5720.27
447.51	5820.91
447.69	5788.14
447.88	5757.72
448.06	5788.14
448.25	5825.59
448.43	5825.59
448.62	5937.94
448.80	5820.91
448.99	5933.26
449.17	5987.09
449.36	5858.36
449.54	6087.73
449.73	6038.58
449.91	6033.90
450.10	5907.51
450.28	6050.28
450.46	6223.48
450.65	6289.02
450.83	6099.44
451.02	6176.67
451.20	6193.06
451.39	6111.14
451.57	6143.91
451.76	6174.33
451.94	6293.70
452.13	6370.94
452.31	6406.05
452.49	6361.58
452.68	6314.77
452.86	6296.04
453.05	6574.56
453.23	6354.55
453.42	6410.73
453.60	6441.15
453.78	6551.16
453.97	6415.41
454.15	6408.39
454.34	6349.87
454.52	6703.29
454.70	6401.37
454.89	6637.76
455.07	6637.76
455.26	6537.12
455.44	6757.13
455.62	6733.72
455.81	6651.80
455.99	6970.12
456.17	6698.61
456.36	6705.63
456.54	6963.09
456.73	6817.98
456.91	7094.16
457.09	7391.41
457.28	7215.87
457.46	7103.53
457.64	7112.89
457.83	7155.02
458.01	7047.35
458.19	7229.91
458.38	7239.28
458.56	7272.04
458.74	7372.69
458.93	7232.26
459.11	7339.92
459.29	7222.89
459.48	7187.79
459.66	7386.73
459.84	7531.84
460.03	7470.99
460.21	7456.95
460.39	7412.48
460.57	7599.72
460.76	7452.27
460.94	7618.44
461.12	7407.80
461.31	7506.10
461.49	7618.44
461.67	7555.25
461.85	7674.62
462.04	7719.09
462.22	8138.04
462.40	7887.61
462.59	7751.85
462.77	7866.54
462.95	7920.37
463.13	7847.82
463.32	7960.16
463.50	7920.37
463.68	7772.92
463.86	7962.50
464.05	7896.97
464.23	7948.46
464.41	8128.68
464.59	7925.05
464.78	8278.47
464.96	8067.83
465.14	8028.04
465.32	7960.16
465.50	8133.36
465.69	8142.72
465.87	8278.47
466.05	8145.06
466.23	8231.66
466.41	8088.89
466.60	8311.24
466.78	8189.53
466.96	8067.83
467.14	8074.85
467.32	8252.73
467.51	8503.17
467.69	8369.76
467.87	8358.05
468.05	8500.83
468.23	8404.86
468.41	8397.84
468.60	8514.87
468.78	8755.94
468.96	8482.10
469.14	8716.16
469.32	8676.37
469.50	8564.02
469.69	8894.04
469.87	8809.78
470.05	8840.20
470.23	8826.16
470.41	8856.59
470.59	8798.07
470.77	8744.24
470.95	8975.95
471.14	9004.04
471.32	8894.04
471.50	8926.80
471.68	9235.75
471.86	9142.13
472.04	9202.99
472.22	9427.68
472.40	9137.45
472.58	9430.02
472.77	9315.33
472.95	9174.90
473.13	9856.00
473.31	9266.18
473.49	9544.70
473.67	9345.76
473.85	9638.33
474.03	9912.17
474.21	9734.29
474.39	9905.15
474.57	9834.93
474.75	9860.68
474.93	10010.47
475.12	9940.26
475.30	10242.18
475.48	10312.40
475.66	10064.30
475.84	9989.41
476.02	10249.21
476.20	10186.01
476.38	10328.78
476.56	10611.99
476.74	10368.57
476.92	10499.64
477.10	10497.30
477.28	10586.24
477.46	10808.59
477.64	10906.90
477.82	11026.26
478.00	11400.75
478.18	11157.33
478.36	11117.54
478.54	11613.74
478.72	11267.34
478.90	11681.61
479.08	11536.50
479.26	11681.61
479.44	11595.01
479.62	11740.13
479.80	12063.12
479.98	11817.36
480.16	12393.14
480.34	12109.93
480.52	12212.92
480.70	12549.95
480.88	12411.86
481.06	12594.42
481.24	12725.49
481.41	12858.90
481.59	12758.26
481.77	12971.25
481.95	13081.25
482.13	13029.76
482.31	12931.46
482.49	13383.18
482.67	13366.80
482.85	13420.63
483.03	13729.58
483.21	13617.24
483.39	13809.16
483.57	13778.73
483.74	14141.52
483.92	13989.38
484.10	14068.96
484.28	14445.79
484.46	14700.90
484.64	14600.26
484.82	14560.47
485.00	14750.06
485.18	14979.43
485.35	15290.72
485.53	14899.85
485.71	15403.07
485.89	15594.99
486.07	15339.87
486.25	15393.70
486.43	15793.94
486.61	15688.61
486.78	16163.74
486.96	16407.16
487.14	16208.21
487.32	16432.90
487.50	16280.77
487.68	16245.66
487.85	16587.38
488.03	16851.86
488.21	17170.17
488.39	17013.35
488.57	17263.79
488.75	17319.96
488.92	17319.96
489.10	17748.28
489.28	17827.86
489.46	17982.34
489.64	18031.49
489.81	18389.59
489.99	18221.07
490.17	18466.83
490.35	18473.85
490.53	18806.20
490.70	19009.83
490.88	18876.42
491.06	18960.68
491.24	18932.59
491.41	19159.63
491.59	19524.75
491.77	19241.54
491.95	19337.51
492.13	19807.95
492.30	19744.76
492.48	19793.91
492.66	20053.71
492.84	19892.21
493.01	20332.23
493.19	20137.97
493.37	20407.13
493.54	20688.00
493.72	20903.32
493.90	20798.00
494.08	20893.96
494.25	21188.87
494.43	21015.67
494.61	21376.11
494.79	21563.36
494.96	21518.89
495.14	21664.00
495.32	21921.46
495.49	21722.51
495.67	21926.14
495.85	21979.97
496.02	22059.55
496.20	22700.86
496.38	22431.69
496.55	22759.37
496.73	23056.62
496.91	22827.24
497.09	23115.13
497.26	23314.08
497.44	23360.89
497.62	23491.96
497.79	23737.71
497.97	23456.85
498.14	23826.65
498.32	23805.59
498.50	23922.62
498.67	24077.09
498.85	24018.58
499.03	24533.50
499.20	24297.10
499.38	24215.18
499.56	24285.40
499.73	24699.67
499.91	24680.95
500.08	24692.65
500.26	24961.81
500.44	24652.86
500.61	25013.31
500.79	24905.64
500.97	25090.54
501.14	25542.27
501.32	25291.83
501.49	25268.42
501.67	25488.43
501.84	25993.99
502.02	25797.38
502.20	25607.80
502.37	26031.44
502.55	25797.38
502.72	26448.05
502.90	26071.23
503.07	25991.65
503.25	26008.03
503.43	26197.62
503.60	26546.36
503.78	26738.28
503.95	26522.95
504.13	26757.00
504.30	26764.03
504.48	26862.33
504.65	27068.30
504.83	27009.78
505.01	27323.41
505.18	27697.90
505.36	27627.68
505.53	27243.84
505.71	27559.81
505.88	27655.77
506.06	27318.73
506.23	27835.99
506.41	27667.47
506.58	27730.67
506.76	27917.91
506.93	28224.52
507.11	28205.80
507.28	28687.95
507.46	28496.02
507.63	28587.30
507.81	28371.97
507.98	28514.75
508.16	29017.96
508.33	28994.56
508.50	29090.52
508.68	29111.58
508.85	29127.97
509.03	28903.28
509.20	29193.50
509.38	29848.85
509.55	29762.25
509.73	29523.52
509.90	29837.15
510.08	29979.92
510.25	29771.61
510.42	29912.05
510.60	30354.41
510.77	30197.59
510.95	30534.63
511.12	30249.08
511.30	30068.86
511.47	30412.92
511.64	30345.05
511.82	30450.37
511.99	30228.02
512.17	30450.37
512.34	30754.64
512.51	30822.51
512.69	30820.17
512.86	31182.96
513.04	31384.24
513.21	31112.74
513.38	31545.74
513.56	31669.79
513.73	31299.98
513.90	31646.38
514.08	31356.16
514.25	32086.40
514.43	31786.82
514.60	32215.13
514.77	32135.56
514.95	32114.49
515.12	31592.55
515.29	31880.44
515.47	32460.89
515.64	32315.78
515.81	32311.10
515.99	32311.10
516.16	32723.03
516.33	32912.61
516.51	32519.40
516.68	32753.46
516.85	32802.61
517.03	32701.96
517.20	32744.09
517.37	32723.03
517.54	33055.39
517.72	33612.43
517.89	33359.66
518.06	33291.78
518.24	33095.18
518.41	33462.64
518.58	33303.48
518.75	33277.74
518.93	33544.56
519.10	33357.32
519.27	33427.53
519.45	33954.15
519.62	34038.41
519.79	34019.69
519.96	34110.97
520.14	34213.95
520.31	34272.46
520.48	34335.66
520.65	34679.72
520.83	34988.67
521.00	34679.72
521.17	34600.14
521.34	34808.45
521.52	34583.76
521.69	34408.22
521.86	34745.25
522.03	35248.47
522.20	34852.92
522.38	35435.71
522.55	35524.65
522.72	35365.49
522.89	35505.93
523.07	35761.05
523.24	35398.26
523.41	35594.87
523.58	35580.82
523.75	36182.34
523.92	35969.35
524.10	35688.49
524.27	36156.60
524.44	36142.55
524.61	36229.15
524.78	35983.40
524.96	36402.35
525.13	35990.42
525.30	36680.88
525.47	36165.96
525.64	36231.49
525.81	36641.09
525.98	36453.84
526.16	36147.23
526.33	36280.64
526.50	36982.80
526.67	36844.71
526.84	37092.81
527.01	36943.02
527.18	36840.03
527.36	37242.60
527.53	37240.26
527.70	37399.42
527.87	37572.62
528.04	37177.07
528.21	37291.76
528.38	37551.56
528.55	37195.79
528.72	37434.53
528.89	37755.18
529.07	37488.36
529.24	37333.89
529.41	38199.88
529.58	37600.71
529.75	37628.79
529.92	37757.52
530.09	37895.61
530.26	37813.70
530.43	38012.64
530.60	37895.61
530.77	38305.21
530.94	38572.03
531.11	37872.21
531.28	38115.62
531.46	37998.60
531.63	38550.96
531.80	38576.71
531.97	38785.02
532.14	38305.21
532.31	38637.56
532.48	38546.28
532.65	38831.83
532.82	39154.82
532.99	39014.39
533.16	38693.74
533.33	38873.96
533.50	39318.66
533.67	38742.89
533.84	38983.96
534.01	39358.45
534.18	38904.38
534.35	39353.77
534.52	39571.44
534.69	39608.89
534.86	39976.35
535.03	39550.37
535.20	39512.92
535.37	39812.51
535.54	39833.58
535.71	39882.73
535.88	39833.58
536.05	39655.70
536.22	40289.98
536.38	40123.80
536.55	39899.11
536.72	40177.64
536.89	40294.66
537.06	40566.16
537.23	40285.30
537.40	40559.14
537.57	40142.53
537.74	40100.40
537.91	40535.74
538.08	40147.21
538.25	40423.39
538.42	40528.72
538.59	40634.04
538.75	40580.21
538.92	41125.55
539.09	40985.12
539.26	40701.92
539.43	40669.15
539.60	41078.74
539.77	40528.72
539.94	41235.56
540.11	41301.09
540.28	40851.71
540.44	41188.75
540.61	41352.58
540.78	41329.18
540.95	41439.18
541.12	41148.96
541.29	41497.70
541.46	41720.05
541.62	41226.20
541.79	41823.03
541.96	41298.75
542.13	41596.00
542.30	41818.35
542.47	41879.21
542.63	41752.82
542.80	42050.06
542.97	41982.19
543.14	42192.84
543.31	42115.60
543.48	42052.41
543.64	42667.97
543.81	42391.78
543.98	42370.72
544.15	41998.57
544.32	42871.59
544.48	42639.88
544.65	42557.96
544.82	42710.10
544.99	42314.55
545.16	42965.21
545.32	42506.47
545.49	43337.36
545.66	43030.75
545.83	43107.99
546.00	43185.22
546.16	43077.56
546.33	43079.90
546.50	42880.95
546.67	43393.53
546.83	42536.90
547.00	42855.21
547.17	43098.62
547.34	43037.77
547.50	43302.25
547.67	43878.02
547.84	43276.51
548.00	43428.64
548.17	43842.92
548.34	43650.99
548.51	43634.61
548.67	43370.13
548.84	43438.00
549.01	43583.12
549.18	43798.44
549.34	44067.61
549.51	44205.70
549.68	43983.35
549.84	43746.95
550.01	43964.62
550.18	43847.60
550.34	44144.84
550.51	43908.45
550.68	44041.86
550.84	43952.92
551.01	43873.34
551.18	44100.37
551.34	43817.17
551.51	43981.01
551.68	44053.56
551.84	43789.08
552.01	44009.09
552.18	44079.31
552.34	44371.88
552.51	44245.49
552.68	44395.28
552.84	44133.14
553.01	44151.87
553.18	44311.02
553.34	44811.90
553.51	44463.16
553.67	44816.58
553.84	44926.58
554.01	45132.55
554.17	45067.02
554.34	45205.11
554.51	45050.63
554.67	44954.67
554.84	45067.02
555.00	44903.18
555.17	45036.59
555.33	45069.36
555.50	44683.17
555.67	44816.58
555.83	45127.87
556.00	44790.83
556.16	45750.45
556.33	45471.93
556.50	45106.80
556.66	45354.90
556.83	44870.41
556.99	45628.74
557.16	45799.60
557.32	45649.81
557.49	45572.57
557.65	45050.63
557.82	45579.59
557.98	45806.62
558.15	45347.88
558.32	45633.42
558.48	45579.59
558.65	45462.57
558.81	45797.26
558.98	45507.04
559.14	45577.25
559.31	45544.48
559.47	45502.35
559.64	45628.74
559.80	45907.27
559.97	45839.39
560.13	45612.36
560.30	45450.86
560.46	46169.41
560.63	46267.71
560.79	46277.07
560.96	46298.14
561.12	46272.39
561.29	46305.16
561.45	46108.55
561.61	45972.80
561.78	46005.57
561.94	45918.97
562.11	45848.75
562.27	46447.93
562.44	46209.20
562.60	46073.45
562.77	46483.04
562.93	46092.17
563.10	46059.40
563.26	46246.65
563.42	46838.80
563.59	46106.21
563.75	46225.58
563.92	46136.64
564.08	46436.23
564.24	46532.19
564.41	46309.84
564.57	46721.77
564.74	46536.87
564.90	46246.65
565.07	46211.54
565.23	46131.96
565.39	46471.34
565.56	46529.85
565.72	46471.34
565.88	46403.46
566.05	46202.18
566.21	46508.79
566.38	46429.21
566.54	46674.96
566.70	46927.74
566.87	46483.04
567.03	46253.67
567.19	46869.23
567.36	46766.24
567.52	46674.96
567.68	47082.22
567.85	46817.74
568.01	47271.80
568.17	46576.66
568.34	47004.98
568.50	46761.56
568.66	46532.19
568.83	46541.55
568.99	46951.15
569.15	46461.97
569.32	46934.76
569.48	46230.26
569.64	47119.66
569.81	46703.05
569.97	46976.89
570.13	47061.15
570.30	46288.77
570.46	46894.97
570.62	46894.97
570.78	47114.98
570.95	46911.36
571.11	47526.92
571.27	46735.82
571.43	47007.32
571.60	46993.28
571.76	47110.30
571.92	46962.85
572.09	47061.15
572.25	46787.31
572.41	47161.79
572.57	47175.84
572.74	47552.66
572.90	47206.26
573.06	47012.00
573.22	47508.19
573.38	47433.30
573.55	47395.85
573.71	47615.86
573.87	47786.72
574.03	47152.43
574.20	47533.94
574.36	47232.01
574.52	47620.54
574.68	47330.31
574.84	47547.98
575.01	47526.92
575.17	47491.81
575.33	47262.44
575.49	47466.06
575.65	47416.91
575.82	47538.62
575.98	47236.69
576.14	47526.92
576.30	47693.10
576.46	47648.63
576.62	47246.05
576.79	47105.62
576.95	47253.08
577.11	47114.98
577.27	47210.95
577.43	47555.00
577.59	47253.08
577.75	47269.46
577.92	47318.61
578.08	47159.45
578.24	47590.11
578.40	48158.86
578.56	47821.83
578.72	47419.25
578.88	47468.40
579.04	47030.72
579.21	47292.86
579.37	47201.58
579.53	47730.54
579.69	47372.44
579.85	47402.87
580.01	47742.25
580.17	47496.49
580.33	47805.44
580.49	47601.82
580.65	47540.96
580.82	47482.45
580.98	47576.07
581.14	47306.91
581.30	47831.19
581.46	47246.05
581.62	46953.49
581.78	47372.44
581.94	47763.31
582.10	47360.74
582.26	47742.25
582.42	47920.13
582.58	47819.49
582.74	47753.95
582.90	47501.17
583.06	47880.34
583.22	47391.17
583.38	47866.30
583.54	47583.09
583.70	47648.63
583.86	47885.02
584.02	47765.65
584.18	47765.65
584.34	47845.23
584.50	48025.45
584.66	47997.37
584.82	47547.98
584.98	47821.83
585.14	47686.07
585.30	47601.82
585.46	47510.53
585.62	47791.40
585.78	47988.00
585.94	47868.64
586.10	47452.02
586.26	47608.84
586.42	47615.86
586.58	47730.54
586.74	47824.17
586.90	47700.12
587.06	47604.16
587.22	47901.40
587.38	48044.18
587.54	47742.25
587.70	48002.05
587.86	47847.57
588.02	47583.09
588.18	47447.34
588.34	47753.95
588.49	47922.47
588.65	47856.93
588.81	47749.27
588.97	47903.74
589.13	48037.16
589.29	47622.88
589.45	48320.36
589.61	48006.73
589.77	47973.96
589.93	48053.54
