SpectraSuite Data File
++++++++++++++++++++++++++++++++++++
Date: Fri Oct 25 11:25:13 EDT 2013
User: price-jones
Dark Spectrum Present: No
Reference Spectrum Present: No
Number of Sampled Component Spectra: 1
Spectrometers: USB2+H05261
Integration Time (usec): 100000 (USB2+H05261)
Spectra Averaged: 1 (USB2+H05261)
Boxcar Smoothing: 0 (USB2+H05261)
Correct for Electrical Dark: No (USB2+H05261)
Strobe/Lamp Enabled: No (USB2+H05261)
Correct for Detector Non-linearity: No (USB2+H05261)
Correct for Stray Light: No (USB2+H05261)
Number of Pixels in Processed Spectrum: 2048
>>>>>Begin Processed Spectral Data<<<<<
365.73	229.37
365.92	229.37
366.12	229.37
366.32	152.13
366.52	147.45
366.72	126.39
366.91	105.32
367.11	180.22
367.31	84.26
367.51	119.37
367.70	107.66
367.90	187.24
368.10	168.52
368.30	152.13
368.49	124.05
368.69	163.84
368.89	175.54
369.09	152.13
369.28	229.37
369.48	168.52
369.68	161.50
369.87	177.88
370.07	189.58
370.27	180.22
370.47	297.25
370.66	641.31
370.86	671.73
371.06	671.73
371.25	620.24
371.45	601.52
371.65	695.14
371.84	727.91
372.04	692.80
372.24	695.14
372.44	711.52
372.63	716.20
372.83	758.33
373.03	753.65
373.22	657.69
373.42	784.08
373.62	805.14
373.81	816.85
374.01	842.59
374.21	868.34
374.40	882.38
374.60	842.59
374.79	795.78
374.99	786.42
375.19	887.06
375.38	882.38
375.58	833.23
375.78	882.38
375.97	861.32
376.17	887.06
376.37	926.85
376.56	805.14
376.76	884.72
376.95	896.43
377.15	870.68
377.35	922.17
377.54	926.85
377.74	945.58
377.93	873.02
378.13	870.68
378.33	891.74
378.52	922.17
378.72	940.90
378.91	924.51
379.11	931.53
379.31	959.62
379.50	954.94
379.70	919.83
379.89	952.60
380.09	877.70
380.28	964.30
380.48	997.07
380.68	952.60
380.87	964.30
381.07	992.39
381.26	990.05
381.46	978.34
381.65	1046.22
381.85	1006.43
382.04	1071.97
382.24	990.05
382.43	1095.37
382.63	992.39
382.83	1064.94
383.02	999.41
383.22	1074.31
383.41	1081.33
383.61	1050.90
383.80	1053.24
384.00	1111.75
384.19	1149.20
384.39	1062.60
384.58	1149.20
384.78	1163.25
384.97	1137.50
385.17	1093.03
385.36	1100.05
385.56	1095.37
385.75	1179.63
385.95	1184.31
386.14	1270.91
386.34	1130.48
386.53	1188.99
386.72	1158.57
386.92	1203.04
387.11	1252.19
387.31	1224.10
387.50	1263.89
387.70	1238.14
387.89	1284.95
388.09	1266.23
388.28	1210.06
388.48	1308.36
388.67	1181.97
388.86	1359.85
389.06	1352.83
389.25	1359.85
389.45	1364.53
389.64	1303.68
389.84	1350.49
390.03	1352.83
390.22	1488.58
390.42	1369.21
390.61	1418.36
390.81	1397.30
391.00	1451.13
391.19	1479.22
391.39	1486.24
391.58	1500.28
391.78	1460.49
391.97	1411.34
392.16	1488.58
392.36	1530.71
392.55	1427.73
392.75	1413.68
392.94	1509.65
393.13	1511.99
393.33	1474.54
393.52	1474.54
393.71	1540.07
393.91	1540.07
394.10	1596.25
394.29	1603.27
394.49	1563.48
394.68	1479.22
394.88	1617.31
395.07	1640.72
395.26	1650.08
395.46	1675.82
395.65	1790.51
395.84	1647.74
396.04	1673.48
396.23	1645.40
396.42	1701.57
396.62	1849.02
396.81	1818.60
397.00	1760.08
397.19	1767.10
397.39	1816.26
397.58	1722.63
397.77	1699.23
397.97	1797.53
398.16	1769.44
398.35	1921.58
398.55	1914.56
398.74	1820.94
398.93	1914.56
399.12	1839.66
399.32	1788.17
399.51	1893.49
399.70	1916.90
399.90	1891.15
400.09	2062.01
400.28	2040.95
400.47	1937.96
400.67	2127.55
400.86	2073.71
401.05	2146.27
401.24	2120.53
401.44	2054.99
401.63	2033.93
401.82	2125.21
402.01	2120.53
402.21	2167.34
402.40	2108.82
402.59	2132.23
402.78	2277.34
402.97	2279.68
403.17	2286.70
403.36	2296.07
403.55	2265.64
403.74	2244.57
403.93	2319.47
404.13	2410.75
404.32	2408.41
404.51	2356.92
404.70	2422.45
404.89	2319.47
405.09	2495.01
405.28	2438.84
405.47	2483.31
405.66	2331.17
405.85	2530.12
406.05	2462.24
406.24	2480.97
406.43	2572.25
406.62	2656.51
406.81	2623.74
407.00	2616.72
407.20	2562.89
407.39	2595.65
407.58	2712.68
407.77	2710.34
407.96	2766.51
408.15	2792.26
408.34	2733.75
408.54	2738.43
408.73	2743.11
408.92	2794.60
409.11	2899.92
409.30	2794.60
409.49	2885.88
409.68	2944.39
409.87	2881.20
410.07	3019.29
410.26	3012.27
410.45	3012.27
410.64	3028.65
410.83	2979.50
411.02	3026.31
411.21	3150.36
411.40	3089.51
411.59	3199.51
411.78	3171.43
411.98	3227.60
412.17	3325.90
412.36	3269.73
412.55	3279.09
412.74	3342.28
412.93	3337.60
413.12	3351.65
413.31	3496.76
413.50	3499.10
413.69	3473.36
413.88	3658.26
414.07	3669.96
414.26	3545.91
414.45	3688.68
414.64	3791.67
414.83	3660.60
415.02	3705.07
415.22	3611.45
415.41	3953.16
415.60	3824.44
415.79	3873.59
415.98	3997.64
416.17	3925.08
416.36	3997.64
416.55	4014.02
416.74	4119.34
416.93	3939.12
417.12	4140.41
417.31	4217.65
417.50	4163.81
417.69	4154.45
417.88	4318.29
418.07	4299.56
418.26	4238.71
418.45	4348.72
418.64	4252.75
418.83	4245.73
419.02	4393.19
419.21	4432.97
419.39	4447.02
419.58	4451.70
419.77	4411.91
419.96	4491.49
420.15	4650.64
420.34	4517.23
420.53	4517.23
420.72	4690.43
420.91	4629.58
421.10	4697.46
421.29	4748.95
421.48	4746.61
421.67	4809.80
421.86	4716.18
422.05	4704.48
422.24	4805.12
422.43	4716.18
422.61	4830.87
422.80	5032.15
422.99	4835.55
423.18	4786.40
423.37	5004.07
423.56	4877.68
423.75	4791.08
423.94	4868.31
424.13	4561.70
424.32	4727.88
424.50	5015.77
424.69	4997.04
424.88	4968.96
425.07	4990.02
425.26	4945.55
425.45	5018.11
425.64	4940.87
425.83	4901.08
426.01	5130.45
426.20	4882.36
426.39	5132.79
426.58	5022.79
426.77	5062.58
426.96	4985.34
427.15	5137.48
427.33	5130.45
427.52	5107.05
427.71	5259.18
427.90	5104.71
428.09	5277.91
428.28	5317.70
428.46	5313.02
428.65	5195.99
428.84	5504.94
429.03	5420.68
429.22	5270.89
429.40	5336.42
429.59	5364.51
429.78	5200.67
429.97	5179.61
430.16	5350.46
430.34	5526.00
430.53	5706.23
430.72	5568.13
430.91	5533.03
431.10	5568.13
431.28	5596.22
431.47	5734.31
431.66	5682.82
431.85	5753.04
432.03	5877.09
432.22	5895.81
432.41	5687.50
432.60	5870.06
432.79	5949.64
432.97	5846.66
433.16	5982.41
433.35	5865.38
433.54	5937.94
433.72	6253.91
433.91	6054.97
434.10	6122.84
434.28	6040.92
434.47	6179.01
434.66	6270.30
434.85	6214.12
435.03	6157.95
435.22	6328.81
435.41	6420.09
435.59	6392.00
435.78	6424.77
435.97	6382.64
436.16	6305.40
436.34	6429.45
436.53	6333.49
436.72	6562.86
436.90	6527.75
437.09	6581.59
437.28	6436.47
437.46	6551.16
437.65	6633.08
437.84	6707.98
438.02	6553.50
438.21	6539.46
438.40	6586.27
438.58	6939.69
438.77	7049.69
438.96	6993.52
439.14	7063.74
439.33	7049.69
439.52	7098.84
439.70	7049.69
439.89	7377.37
440.08	7272.04
440.26	7143.32
440.45	7356.30
440.63	7375.03
440.82	7463.97
441.01	7508.44
441.19	7489.71
441.38	7566.95
441.57	7648.87
441.75	7721.43
441.94	7658.23
442.12	7723.77
442.31	7936.76
442.50	7889.95
442.68	8053.78
442.87	7831.43
443.05	7997.61
443.24	8149.75
443.43	8149.75
443.61	8234.00
443.80	8430.61
443.98	8009.31
444.17	7960.16
444.35	8198.90
444.54	8203.58
444.73	8262.09
444.91	8327.63
445.10	8280.82
445.28	8238.69
445.47	8224.64
445.65	8381.46
445.84	8486.78
446.02	8472.74
446.21	8266.77
446.39	8400.18
446.58	8442.31
446.77	8383.80
446.95	8109.96
447.14	8358.05
447.32	8507.85
447.51	8334.65
447.69	8409.54
447.88	8643.60
448.06	8491.46
448.25	8451.67
448.43	8313.58
448.62	8517.21
448.80	8636.58
448.99	8613.17
449.17	8470.40
449.36	8608.49
449.54	8725.52
449.73	8809.78
449.91	9001.70
450.10	8765.31
450.28	8858.93
450.46	8872.97
450.65	9083.62
450.83	9041.49
451.02	8915.10
451.20	9062.55
451.39	9380.87
451.57	9107.02
451.76	8947.87
451.94	9111.71
452.13	9217.03
452.31	9238.09
452.49	9088.30
452.68	9247.46
452.86	9160.86
453.05	9364.48
453.23	9317.67
453.42	9188.94
453.60	9081.28
453.78	9303.63
453.97	9458.10
454.15	9415.98
454.34	9413.63
454.52	9626.62
454.70	9362.14
454.89	9809.19
455.07	9682.80
455.26	9760.03
455.44	9703.86
455.62	10024.51
455.81	9678.12
455.99	9844.29
456.17	10061.96
456.36	10059.62
456.54	10071.33
456.73	10340.49
456.91	10202.40
457.09	10239.84
457.28	10415.38
457.46	10328.78
457.64	10342.83
457.83	10441.13
458.01	10532.41
458.19	10691.57
458.38	10452.83
458.56	10600.29
458.74	10406.02
458.93	10513.69
459.11	10520.71
459.29	10588.58
459.48	10609.65
459.66	10574.54
459.84	10768.80
460.03	11068.39
460.21	10867.11
460.39	10736.04
460.57	11052.01
460.76	11066.05
460.94	11225.21
461.12	11344.58
461.31	11080.10
461.49	11066.05
461.67	11206.48
461.85	11520.12
462.04	11159.67
462.22	11716.72
462.40	11501.39
462.59	11627.78
462.77	11213.51
462.95	11583.31
463.13	11351.60
463.32	11513.10
463.50	11583.31
463.68	11559.91
463.86	11789.28
464.05	11627.78
464.23	11810.34
464.41	12056.10
464.59	11740.13
464.78	11878.22
464.96	11929.71
465.14	11761.19
465.32	11744.81
465.50	12187.17
465.69	11929.71
465.87	12039.72
466.05	12056.10
466.23	12290.15
466.41	12313.56
466.60	12608.47
466.78	11983.54
466.96	12109.93
467.14	12233.98
467.32	12217.60
467.51	12456.33
467.69	12086.53
467.87	12292.49
468.05	12482.08
468.23	12346.33
468.41	12353.35
468.60	12657.62
468.78	12409.52
468.96	12383.77
469.14	12713.79
469.32	12737.20
469.50	12524.21
469.69	12793.37
469.87	12973.59
470.05	13029.76
470.23	13071.89
470.41	13123.38
470.59	13022.74
470.77	13006.36
470.95	13179.56
471.14	13429.99
471.32	13125.72
471.50	13528.30
471.68	13474.46
471.86	13329.35
472.04	13540.00
472.22	14038.53
472.40	13507.23
472.58	13867.67
472.77	13848.95
472.95	13991.72
473.13	14438.76
473.31	14139.18
473.49	13776.39
473.67	13893.42
473.85	14017.47
474.03	14665.80
474.21	14523.02
474.39	14431.74
474.57	14370.89
474.75	14773.46
474.93	14775.80
475.12	14679.84
475.30	14714.95
475.48	14916.23
475.66	14925.60
475.84	15059.01
476.02	15262.63
476.20	15169.01
476.38	15405.41
476.56	15815.00
476.74	15807.98
476.92	15864.15
477.10	15817.34
477.28	16072.46
477.46	16145.02
477.64	16257.36
477.82	16308.85
478.00	16802.71
478.18	16744.19
478.36	16830.79
478.54	16987.61
478.72	16809.73
478.90	17135.06
479.08	17600.83
479.26	17284.86
479.44	17612.53
479.62	17570.40
479.80	18188.30
479.98	17984.68
480.16	18237.45
480.34	17708.49
480.52	18544.06
480.70	18630.66
480.88	18354.48
481.06	18258.52
481.24	18717.26
481.41	19281.33
481.59	18913.87
481.77	19330.48
481.95	19206.44
482.13	19674.54
482.31	19515.39
482.49	20063.07
482.67	20184.78
482.85	20294.79
483.03	20315.85
483.21	20503.09
483.39	20615.44
483.57	20692.68
483.74	21235.68
483.92	21118.65
484.10	21465.05
484.28	21462.71
484.46	21757.62
484.64	22190.62
484.82	21738.90
485.00	22249.13
485.18	22410.63
485.35	22780.43
485.53	22693.83
485.71	22764.05
485.89	23105.77
486.07	23143.22
486.25	23426.42
486.43	23325.78
486.61	23498.98
486.78	23623.03
486.96	23559.83
487.14	24369.66
487.32	24411.79
487.50	24659.88
487.68	24863.51
487.85	24952.45
488.03	25376.09
488.21	25575.03
488.39	25502.48
488.57	25579.71
488.75	26171.87
488.92	25998.67
489.10	26618.91
489.28	26230.38
489.46	26815.52
489.64	27101.06
489.81	27557.47
489.99	27342.14
490.17	27482.57
490.35	28027.92
490.53	28013.87
490.70	28264.31
490.88	28175.37
491.06	28437.51
491.24	28610.71
491.41	28556.88
491.59	28826.04
491.77	28950.09
491.95	29413.51
492.13	29560.97
492.30	29757.57
492.48	29893.32
492.66	29757.57
492.84	30242.06
493.01	30412.92
493.19	30368.45
493.37	30874.01
493.54	30869.33
493.72	31012.10
493.90	31381.90
494.08	31117.42
494.25	31559.78
494.43	31669.79
494.61	32116.83
494.79	31983.42
494.96	32488.98
495.14	32395.35
495.32	32863.46
495.49	32762.82
495.67	32921.98
495.85	33369.02
496.02	33273.06
496.20	33867.55
496.38	34050.11
496.55	34031.39
496.73	34513.54
496.91	34670.36
497.09	34569.71
497.26	34457.37
497.44	34499.50
497.62	34951.22
497.79	35304.64
497.97	35033.14
498.14	35793.81
498.32	35838.28
498.50	35660.40
498.67	36287.67
498.85	35917.86
499.03	36392.99
499.20	36538.10
499.38	36608.32
499.56	36694.92
499.73	36865.78
499.91	36975.78
500.08	37493.04
500.26	36762.79
500.44	37226.22
500.61	37385.38
500.79	37331.54
500.97	38024.34
501.14	38085.20
501.32	38068.81
501.49	38232.65
501.67	38389.47
501.84	38621.18
502.02	38216.27
502.20	38820.13
502.37	38728.84
502.55	39306.96
502.72	39512.92
502.90	38927.79
503.07	38785.02
503.25	39634.63
503.43	39250.78
503.60	39433.35
503.78	39959.97
503.95	40065.29
504.13	40203.38
504.30	40133.17
504.48	40123.80
504.65	40385.94
504.83	40758.09
505.01	41111.51
505.18	40446.80
505.36	41247.26
505.53	41010.87
505.71	41163.00
505.88	41352.58
506.06	41195.77
506.23	41434.50
506.41	41532.81
506.58	41785.58
506.76	41762.18
506.93	42253.69
507.11	42244.33
507.28	42384.76
507.46	42394.12
507.63	42349.65
507.81	43007.34
507.98	43154.80
508.16	43021.39
508.33	42913.72
508.50	42831.80
508.68	43276.51
508.85	43573.75
509.03	43639.29
509.20	43515.24
509.38	44512.31
509.55	44325.07
509.73	44091.01
509.90	44151.87
510.08	44320.38
510.25	44617.63
510.42	44053.56
510.60	44516.99
510.77	44390.60
510.95	45125.53
511.12	44673.81
511.30	45031.91
511.47	44973.39
511.64	45298.73
511.82	45516.40
511.99	45521.08
512.17	45860.46
512.34	45659.17
512.51	46010.25
512.69	46028.98
512.86	46405.80
513.04	46239.62
513.21	46286.43
513.38	46581.34
513.56	46869.23
513.73	46333.24
513.90	46679.64
514.08	46696.03
514.25	47000.30
514.43	46953.49
514.60	46644.54
514.77	47187.54
514.95	47257.76
515.12	46859.87
515.29	47187.54
515.47	47569.05
515.64	47697.78
515.81	47480.11
515.99	47667.35
516.16	47899.06
516.33	47826.51
516.51	48287.59
516.68	48177.59
516.85	48325.04
517.03	48931.24
517.20	48453.77
517.37	48456.11
517.54	48582.50
517.72	48493.56
517.89	48655.06
518.06	49059.97
518.24	48900.81
518.41	48952.30
518.58	48989.75
518.75	49092.74
518.93	49268.28
519.10	48580.16
519.27	49354.88
519.45	49429.77
519.62	49715.32
519.79	49464.88
519.96	49851.07
520.14	49815.96
520.31	50021.93
520.48	49881.50
520.65	49951.71
520.83	50677.28
521.00	50628.13
521.17	50464.29
521.34	50497.06
521.52	50581.32
521.69	50571.96
521.86	50635.15
522.03	50698.34
522.20	50993.25
522.38	51077.51
522.55	51178.15
522.72	51201.56
522.89	50906.65
523.07	51187.52
523.24	51180.49
523.41	51220.28
523.58	51316.25
523.75	51384.12
523.92	51620.52
524.10	51828.82
524.27	51707.12
524.44	51510.51
524.61	52051.17
524.78	51856.91
524.96	52004.36
525.13	51779.67
525.30	52306.29
525.47	52097.98
525.64	52086.28
525.81	52437.36
525.98	52184.58
526.16	52505.24
526.33	52292.25
526.50	52669.08
526.67	52343.74
526.84	52612.90
527.01	52622.26
527.18	52460.77
527.36	52837.59
527.53	52769.72
527.70	53230.80
527.87	53279.96
528.04	52921.85
528.21	53113.78
528.38	53141.86
528.55	53647.42
528.72	53233.14
528.89	53010.79
529.07	52851.64
529.24	53118.46
529.41	53474.22
529.58	53425.07
529.75	53448.47
529.92	53399.32
530.09	53481.24
530.26	53680.19
530.43	53808.92
530.60	53471.88
530.77	53631.04
530.94	53764.45
531.11	53593.59
531.28	53759.76
531.46	53911.90
531.63	53886.15
531.80	54033.61
531.97	54134.25
532.14	54176.38
532.31	54092.12
532.48	54337.88
532.65	54410.43
532.82	54258.30
532.99	54532.14
533.16	54213.83
533.33	54768.54
533.50	54583.63
533.67	54656.19
533.84	54410.43
534.01	54745.13
534.18	54623.42
534.35	55000.25
534.52	54672.57
534.69	54695.98
534.86	54946.42
535.03	54894.92
535.20	54880.88
535.37	54859.82
535.54	55323.24
535.71	55103.23
535.88	55262.39
536.05	55058.76
536.22	55309.20
536.38	55297.50
536.55	55299.84
536.72	55412.18
536.89	55077.49
537.06	55386.44
537.23	55714.11
537.40	55325.58
537.57	55533.89
537.74	55561.98
537.91	55807.73
538.08	55714.11
538.25	55253.03
538.42	55620.49
538.59	55899.01
538.75	55611.13
538.92	55934.12
539.09	56086.26
539.26	55774.97
539.43	55887.31
539.60	56266.48
539.77	56062.85
539.94	56334.35
540.11	56259.46
540.28	56275.84
540.44	56303.93
540.61	56348.40
540.78	56020.72
540.95	56329.67
541.12	56205.62
541.29	56376.48
541.46	56397.55
541.62	56622.24
541.79	56219.67
541.96	56095.62
542.13	56545.00
542.30	56435.00
542.47	56666.71
542.63	56757.99
542.80	56725.22
542.97	56872.68
543.14	56907.79
543.31	56844.59
543.48	57214.40
543.64	57160.56
543.81	56931.19
543.98	57155.88
544.15	56938.21
544.32	57233.12
544.48	57542.07
544.65	57134.82
544.82	57160.56
544.99	56992.04
545.16	57195.67
545.32	57315.04
545.49	57453.13
545.66	57485.90
545.83	57446.11
546.00	57712.93
546.16	57380.57
546.33	57329.08
546.50	57373.55
546.67	57523.35
546.83	57275.25
547.00	57516.32
547.17	57621.65
547.34	57556.11
547.50	57666.12
547.67	57668.46
547.84	57853.36
548.00	57897.83
548.17	58014.86
548.34	57834.64
548.51	58181.04
548.67	58049.97
548.84	57769.10
549.01	57769.10
549.18	58061.67
549.34	58033.58
549.51	58162.31
549.68	58129.54
549.84	58218.49
550.01	58164.65
550.18	58372.96
550.34	58085.07
550.51	58307.43
550.68	58019.54
550.84	57944.64
551.01	58295.72
551.18	58110.82
551.34	58375.30
551.51	58340.19
551.68	58623.40
551.84	58248.91
552.01	58347.21
552.18	58522.76
552.34	58159.97
552.51	58607.01
552.68	58202.10
552.84	58274.66
553.01	58763.83
553.18	58611.70
553.34	58731.06
553.51	58410.41
553.67	58574.25
553.84	58803.62
554.01	58761.49
554.17	58878.52
554.34	58988.52
554.51	58761.49
554.67	58965.12
554.84	58789.58
555.00	58663.19
555.17	58824.68
555.33	58817.66
555.50	58674.89
555.67	58841.07
555.83	58822.34
556.00	59093.85
556.16	59421.52
556.33	58976.82
556.50	59065.76
556.66	59199.17
556.83	58922.99
556.99	59245.98
557.16	59299.81
557.32	59367.69
557.49	59601.74
557.65	59002.56
557.82	59210.87
557.98	59185.13
558.15	59337.26
558.32	59320.88
558.48	59274.07
558.65	59274.07
558.81	59334.92
558.98	59379.39
559.14	59302.15
559.31	59557.27
559.47	59498.76
559.64	59496.42
559.80	59671.96
559.97	59339.60
560.13	59512.80
560.30	59564.29
560.46	59576.00
560.63	59477.69
560.79	59695.36
560.96	59781.96
561.12	59433.22
561.29	59557.27
561.45	59739.83
561.61	59657.91
561.78	59451.95
561.94	59430.88
562.11	59690.68
562.27	59742.17
562.44	59590.04
562.60	59772.60
562.77	59831.11
562.93	59512.80
563.10	59835.80
563.26	59636.85
563.42	60018.36
563.59	59828.77
563.75	59863.88
563.92	60058.15
564.08	59693.02
564.24	59807.71
564.41	59929.42
564.57	59910.69
564.74	59999.63
564.90	60079.21
565.07	59943.46
565.23	59948.14
565.39	59973.89
565.56	60006.65
565.72	59936.44
565.88	59859.20
566.05	59838.14
566.21	59861.54
566.38	60172.83
566.54	60231.35
566.70	60102.62
566.87	60163.47
567.03	60013.68
567.19	60205.60
567.36	59999.63
567.52	60200.92
567.68	60376.46
567.85	60018.36
568.01	60280.50
568.17	60065.17
568.34	60278.16
568.50	60233.69
568.66	60116.66
568.83	60395.18
568.99	60170.49
569.15	60186.88
569.32	60214.96
569.48	60275.82
569.64	60350.71
569.81	60111.98
569.97	60299.22
570.13	60500.51
570.30	60081.55
570.46	60266.45
570.62	60224.32
570.78	60322.63
570.95	60303.90
571.11	60409.23
571.27	60268.79
571.43	60322.63
571.60	60369.44
571.76	60317.95
571.92	60303.90
572.09	60441.99
572.25	60310.92
572.41	60388.16
572.57	60336.67
572.74	60673.71
572.90	60402.21
573.06	60397.52
573.22	60121.34
573.38	60221.98
573.55	60306.24
573.71	60598.81
573.87	60568.38
574.03	60404.55
574.20	60540.30
574.36	60430.29
574.52	60591.79
574.68	60554.34
574.84	60711.16
575.01	60587.11
575.17	60385.82
575.33	60458.38
575.49	60441.99
575.65	60439.65
575.82	60547.32
575.98	60701.79
576.14	60699.45
576.30	60678.39
576.46	60654.98
576.62	60706.47
576.79	60640.94
576.95	60439.65
577.11	60638.60
577.27	60521.57
577.43	60764.99
577.59	60631.58
577.75	60542.64
577.92	60711.16
578.08	60559.02
578.24	60830.52
578.40	60809.46
578.56	60743.92
578.72	60570.72
578.88	60764.99
579.04	60816.48
579.21	60746.26
579.37	60832.86
579.53	60694.77
579.69	60493.49
579.85	60673.71
580.01	60629.24
580.17	60339.01
580.33	60811.80
580.49	60739.24
580.65	60776.69
580.82	60729.88
580.98	60502.85
581.14	60706.47
581.30	60853.93
581.46	60842.23
581.62	60608.17
581.78	60498.17
581.94	61013.08
582.10	60809.46
582.26	60701.79
582.42	60603.49
582.58	60650.30
582.74	60662.00
582.90	60797.76
583.06	60830.52
583.22	60678.39
583.38	60491.15
583.54	60842.23
583.70	60584.77
583.86	60837.54
584.02	60818.82
584.18	60980.32
584.34	60825.84
584.50	60935.85
584.66	60772.01
584.82	60495.83
584.98	61092.66
585.14	60793.07
585.30	60650.30
585.46	60793.07
585.62	60874.99
585.78	61041.17
585.94	60741.58
586.10	60514.55
586.26	60928.83
586.42	61029.47
586.58	60956.91
586.74	60849.25
586.90	60851.59
587.06	60896.06
587.22	60973.30
587.38	60718.18
587.54	60954.57
587.70	61055.21
587.86	61001.38
588.02	60919.46
588.18	60961.59
588.34	60727.54
588.49	60907.76
