SpectraSuite Data File
++++++++++++++++++++++++++++++++++++
Date: Fri Oct 25 11:34:35 EDT 2013
User: price-jones
Dark Spectrum Present: No
Reference Spectrum Present: No
Number of Sampled Component Spectra: 1
Spectrometers: USB2+H05261
Integration Time (usec): 100000 (USB2+H05261)
Spectra Averaged: 1 (USB2+H05261)
Boxcar Smoothing: 0 (USB2+H05261)
Correct for Electrical Dark: No (USB2+H05261)
Strobe/Lamp Enabled: No (USB2+H05261)
Correct for Detector Non-linearity: No (USB2+H05261)
Correct for Stray Light: No (USB2+H05261)
Number of Pixels in Processed Spectrum: 2048
>>>>>Begin Processed Spectral Data<<<<<
365.73	194.26
365.92	194.26
366.12	194.26
366.32	131.07
366.52	140.43
366.72	142.77
366.91	159.16
367.11	203.63
367.31	166.18
367.51	147.45
367.70	208.31
367.90	205.97
368.10	175.54
368.30	187.24
368.49	210.65
368.69	117.03
368.89	184.90
369.09	161.50
369.28	163.84
369.48	189.58
369.68	205.97
369.87	308.95
370.07	278.52
370.27	318.31
370.47	372.15
370.66	397.89
370.86	496.19
371.06	514.92
371.25	568.75
371.45	528.96
371.65	524.28
371.84	552.37
372.04	559.39
372.24	587.47
372.44	561.73
372.63	528.96
372.83	608.54
373.03	573.43
373.22	566.41
373.42	660.03
373.62	622.58
373.81	599.18
374.01	624.92
374.21	627.26
374.40	676.41
374.60	657.69
374.79	660.03
374.99	685.78
375.19	610.88
375.38	681.10
375.58	657.69
375.78	706.84
375.97	641.31
376.17	676.41
376.37	683.44
376.56	645.99
376.76	669.39
376.95	678.76
377.15	699.82
377.35	699.82
377.54	645.99
377.74	627.26
377.93	676.41
378.13	699.82
378.33	702.16
378.52	725.57
378.72	725.57
378.91	758.33
379.11	688.12
379.31	727.91
379.50	727.91
379.70	779.40
379.89	793.44
380.09	718.54
380.28	678.76
380.48	772.38
380.68	695.14
380.87	716.20
381.07	725.57
381.26	763.01
381.46	678.76
381.65	837.91
381.85	763.01
382.04	795.78
382.24	786.42
382.43	713.86
382.63	784.08
382.83	706.84
383.02	809.83
383.22	844.93
383.41	755.99
383.61	767.70
383.80	737.27
384.00	819.19
384.19	830.89
384.39	847.27
384.58	908.13
384.78	830.89
384.97	847.27
385.17	835.57
385.36	858.98
385.56	812.17
385.75	826.21
385.95	842.59
386.14	863.66
386.34	807.48
386.53	812.17
386.72	765.36
386.92	915.15
387.11	908.13
387.31	856.64
387.50	903.45
387.70	830.89
387.89	910.47
388.09	858.98
388.28	866.00
388.48	763.01
388.67	917.49
388.86	919.83
389.06	863.66
389.25	915.15
389.45	957.28
389.64	851.96
389.84	1008.77
390.03	901.11
390.22	950.26
390.42	954.94
390.61	866.00
390.81	908.13
391.00	954.94
391.19	908.13
391.39	912.81
391.58	917.49
391.78	971.32
391.97	1022.81
392.16	968.98
392.36	1039.20
392.55	1076.65
392.75	1067.28
392.94	1032.18
393.13	1013.45
393.33	954.94
393.52	997.07
393.71	1090.69
393.91	1118.78
394.10	1102.39
394.29	1114.10
394.49	1071.97
394.68	1095.37
394.88	1027.50
395.07	1078.99
395.26	1081.33
395.46	1151.54
395.65	1231.12
395.84	1088.35
396.04	1196.01
396.23	1139.84
396.42	1212.40
396.62	1076.65
396.81	1214.74
397.00	1165.59
397.19	1118.78
397.39	1181.97
397.58	1177.29
397.77	1165.59
397.97	1125.80
398.16	1233.46
398.35	1242.82
398.55	1273.25
398.74	1186.65
398.93	1268.57
399.12	1256.87
399.32	1221.76
399.51	1289.64
399.70	1350.49
399.90	1329.42
400.09	1254.53
400.28	1327.08
400.47	1322.40
400.67	1324.74
400.86	1306.02
401.05	1313.04
401.24	1373.89
401.44	1404.32
401.63	1352.83
401.82	1291.98
402.01	1348.15
402.21	1341.13
402.40	1519.01
402.59	1420.71
402.78	1465.18
402.97	1547.09
403.17	1427.73
403.36	1500.28
403.55	1542.41
403.74	1521.35
403.93	1572.84
404.13	1530.71
404.32	1586.88
404.51	1523.69
404.70	1582.20
404.89	1551.78
405.09	1584.54
405.28	1621.99
405.47	1610.29
405.66	1617.31
405.85	1629.01
406.05	1659.44
406.24	1729.66
406.43	1668.80
406.62	1732.00
406.81	1790.51
407.00	1755.40
407.20	1769.44
407.39	1764.76
407.58	1659.44
407.77	1781.15
407.96	1804.55
408.15	1874.77
408.34	1776.47
408.54	1832.64
408.73	1846.68
408.92	1886.47
409.11	1909.88
409.30	1874.77
409.49	1874.77
409.68	1909.88
409.87	1879.45
410.07	2024.56
410.26	1963.71
410.45	2036.27
410.64	1970.73
410.83	2064.35
411.02	2001.16
411.21	2174.36
411.40	2127.55
411.59	2155.63
411.78	2071.37
411.98	2087.76
412.17	2155.63
412.36	2270.32
412.55	2162.66
412.74	2179.04
412.93	2150.95
413.12	2160.31
413.31	2368.62
413.50	2265.64
413.69	2265.64
413.88	2452.88
414.07	2319.47
414.26	2303.09
414.45	2349.90
414.64	2401.39
414.83	2502.03
415.02	2473.95
415.22	2485.65
415.41	2523.10
415.60	2417.77
415.79	2651.83
415.98	2588.63
416.17	2726.72
416.36	2686.94
416.55	2708.00
416.74	2637.78
416.93	2637.78
417.12	2588.63
417.31	2808.64
417.50	2771.19
417.69	2801.62
417.88	2787.58
418.07	2818.00
418.26	2675.23
418.45	2820.35
418.64	2909.29
418.83	2864.82
419.02	2881.20
419.21	2951.42
419.39	2942.05
419.58	2935.03
419.77	2991.20
419.96	3002.91
420.15	3126.96
420.34	3028.65
420.53	3115.25
420.72	2972.48
420.91	3045.04
421.10	3075.46
421.29	3150.36
421.48	3108.23
421.67	3087.17
421.86	3012.27
422.05	3138.66
422.24	3124.62
422.43	3239.30
422.61	3286.11
422.80	3267.39
422.99	3213.56
423.18	3204.19
423.37	3304.84
423.56	3351.65
423.75	3185.47
423.94	3166.74
424.13	3052.06
424.32	3059.08
424.50	3232.28
424.69	3304.84
424.88	3290.79
425.07	3229.94
425.26	3318.88
425.45	3157.38
425.64	3239.30
425.83	3276.75
426.01	3243.98
426.20	3346.97
426.39	3403.14
426.58	3290.79
426.77	3368.03
426.96	3449.95
427.15	3489.74
427.33	3552.93
427.52	3407.82
427.71	3358.67
427.90	3403.14
428.09	3590.38
428.28	3550.59
428.46	3489.74
428.65	3515.48
428.84	3674.64
429.03	3740.18
429.22	3604.42
429.40	3576.34
429.59	3730.81
429.78	3433.57
429.97	3452.29
430.16	3581.02
430.34	3698.05
430.53	3768.26
430.72	3695.71
430.91	3691.02
431.10	3604.42
431.28	3709.75
431.47	3784.65
431.66	3911.04
431.85	3850.18
432.03	3763.58
432.22	3939.12
432.41	3854.86
432.60	3918.06
432.79	3784.65
432.97	3889.97
433.16	3934.44
433.35	3911.04
433.54	3997.64
433.72	3997.64
433.91	4107.64
434.10	4053.81
434.28	4030.40
434.47	4107.64
434.66	4135.73
434.85	4095.94
435.03	4023.38
435.22	4074.87
435.41	4234.03
435.59	4128.70
435.78	4194.24
435.97	4250.41
436.16	4145.09
436.34	4217.65
436.53	4208.28
436.72	4404.89
436.90	4344.03
437.09	4416.59
437.28	4222.33
437.46	4236.37
437.65	4276.16
437.84	4395.53
438.02	4386.16
438.21	4496.17
438.40	4409.57
438.58	4566.39
438.77	4491.49
438.96	4510.21
439.14	4634.26
439.33	4638.94
439.52	4610.86
439.70	4788.74
439.89	4840.23
440.08	4709.16
440.26	4683.41
440.45	4660.01
440.63	4877.68
440.82	4854.27
441.01	4954.91
441.19	4997.04
441.38	4987.68
441.57	5006.41
441.75	4931.51
441.94	5158.54
442.12	5013.43
442.31	5170.24
442.50	5130.45
442.68	5212.37
442.87	5146.84
443.05	5547.07
443.24	5401.96
443.43	5219.39
443.61	5322.38
443.80	5404.30
443.98	5160.88
444.17	5055.56
444.35	5334.08
444.54	5294.29
444.73	5568.13
444.91	5392.59
445.10	5348.12
445.28	5369.19
445.47	5430.04
445.65	5404.30
445.84	5406.64
446.02	5327.06
446.21	5416.00
446.39	5465.15
446.58	5455.79
446.77	5528.35
446.95	5212.37
447.14	5376.21
447.32	5570.48
447.51	5458.13
447.69	5523.66
447.88	5423.02
448.06	5516.64
448.25	5530.69
448.43	5652.39
448.62	5579.84
448.80	5624.31
448.99	5706.23
449.17	5603.24
449.36	5767.08
449.54	5816.23
449.73	5834.96
449.91	5905.17
450.10	5720.27
450.28	5682.82
450.46	5930.92
450.65	5870.06
450.83	5867.72
451.02	5790.49
451.20	5797.51
451.39	5916.87
451.57	5884.11
451.76	5771.76
451.94	5909.85
452.13	6136.88
452.31	5951.98
452.49	5954.32
452.68	6047.94
452.86	5980.07
453.05	6139.23
453.23	6143.91
453.42	5912.19
453.60	6122.84
453.78	6214.12
453.97	5907.51
454.15	6155.61
454.34	6146.25
454.52	6354.55
454.70	6260.93
454.89	6263.27
455.07	6415.41
455.26	6452.86
455.44	6363.92
455.62	6333.49
455.81	6335.83
455.99	6413.07
456.17	6375.62
456.36	6455.20
456.54	6499.67
456.73	6502.01
456.91	6726.70
457.09	6684.57
457.28	6780.53
457.46	6686.91
457.64	6977.14
457.83	6825.00
458.01	6729.04
458.19	6888.20
458.38	6773.51
458.56	7140.97
458.74	6754.79
458.93	6988.84
459.11	6817.98
459.29	6815.64
459.48	6949.05
459.66	7098.84
459.84	7082.46
460.03	6965.43
460.21	7019.27
460.39	7258.00
460.57	6956.07
460.76	7246.30
460.94	7089.48
461.12	7328.22
461.31	7110.55
461.49	7215.87
461.67	7157.36
461.85	7269.70
462.04	7227.57
462.22	7662.91
462.40	7419.50
462.59	7368.01
462.77	7300.13
462.95	7370.35
463.13	7236.94
463.32	7431.20
463.50	7541.21
463.68	7627.81
463.86	7419.50
464.05	7440.56
464.23	7581.00
464.41	7700.36
464.59	7527.16
464.78	7543.55
464.96	7686.32
465.14	7492.05
465.32	7531.84
465.50	7700.36
465.69	7702.70
465.87	7599.72
466.05	7655.89
466.23	7868.88
466.41	7613.76
466.60	8056.12
466.78	7772.92
466.96	7721.43
467.14	7674.62
467.32	7854.84
467.51	7922.71
467.69	7742.49
467.87	7918.03
468.05	8093.57
468.23	8004.63
468.41	7864.20
468.60	8006.97
468.78	8084.21
468.96	8058.46
469.14	8271.45
469.32	8285.50
469.50	8259.75
469.69	8238.69
469.87	8327.63
470.05	8322.94
470.23	8257.41
470.41	8308.90
470.59	8531.25
470.77	8458.70
470.95	8599.13
471.14	8486.78
471.32	8472.74
471.50	8608.49
471.68	8631.90
471.86	8470.40
472.04	8533.59
472.22	9102.34
472.40	8746.58
472.58	8830.84
472.77	8781.69
472.95	8961.91
473.13	9057.87
473.31	8884.67
473.49	9036.81
473.67	9095.32
473.85	9078.94
474.03	9259.16
474.21	9240.44
474.39	9376.19
474.57	9544.70
474.75	9558.75
474.93	9568.11
475.12	9533.00
475.30	9586.83
475.48	9582.15
475.66	9638.33
475.84	9511.94
476.02	9839.61
476.20	9795.14
476.38	10057.28
476.56	10134.52
476.74	9928.55
476.92	9818.55
477.10	10169.63
477.28	10001.11
477.46	10118.14
477.64	10396.66
477.82	10464.54
478.00	10710.29
478.18	10394.32
478.36	10789.87
478.54	10679.86
478.72	10768.80
478.90	10925.62
479.08	11089.46
479.26	11222.87
479.44	11164.36
479.62	11016.90
479.80	11323.51
479.98	11527.14
480.16	11662.89
480.34	11477.99
480.52	11580.97
480.70	11887.58
480.88	11660.55
481.06	11822.05
481.24	11693.32
481.41	12131.00
481.59	12217.60
481.77	12322.92
481.95	12009.29
482.13	12203.55
482.31	12276.11
482.49	12795.71
482.67	12615.49
482.85	12978.27
483.03	12730.17
483.21	13013.38
483.39	13053.17
483.57	12844.86
483.74	13233.39
483.92	13319.99
484.10	13158.49
484.28	13710.86
484.46	13708.52
484.64	13760.01
484.82	13568.09
485.00	13907.46
485.18	14083.00
485.35	14270.25
485.53	14293.65
485.71	14237.48
485.89	14490.26
486.07	14794.53
486.25	14705.59
486.43	14750.06
486.61	15023.90
486.78	15201.78
486.96	14998.15
487.14	15400.72
487.32	15236.89
487.50	15316.47
487.68	15693.29
487.85	15747.12
488.03	15740.10
488.21	16140.33
488.39	16039.69
488.57	16112.25
488.75	16500.78
488.92	16355.66
489.10	16517.16
489.28	16528.86
489.46	16968.88
489.64	16744.19
489.81	17151.45
489.99	17317.62
490.17	17397.20
490.35	17628.92
490.53	17441.67
490.70	18003.40
490.88	17804.46
491.06	18085.32
491.24	17912.12
491.41	17942.55
491.59	18389.59
491.77	18082.98
491.95	18429.38
492.13	18686.84
492.30	19000.47
492.48	18700.88
492.66	18853.02
492.84	18806.20
493.01	19002.81
493.19	19206.44
493.37	19274.31
493.54	19384.32
493.72	19433.47
493.90	19534.11
494.08	19482.62
494.25	19749.44
494.43	19852.42
494.61	20269.04
494.79	20009.24
494.96	20123.93
495.14	20327.55
495.32	20585.01
495.49	20507.77
495.67	20577.99
495.85	20922.05
496.02	21128.02
496.20	21048.44
496.38	21521.23
496.55	21439.31
496.73	21633.57
496.91	21659.32
497.09	21703.79
497.26	21729.53
497.44	21771.66
497.62	21994.01
497.79	22141.47
497.97	22073.59
498.14	22202.32
498.32	22609.58
498.50	22518.29
498.67	22464.46
498.85	22602.55
499.03	23007.47
499.20	22941.93
499.38	22899.80
499.56	22984.06
499.73	23225.14
499.91	23321.10
500.08	23363.23
500.26	23367.91
500.44	23328.12
500.61	23513.02
500.79	23459.19
500.97	23810.27
501.14	24269.01
501.32	23831.33
501.49	24074.75
501.67	24205.82
501.84	24395.40
502.02	24379.02
502.20	24243.27
502.37	24236.25
502.55	24683.29
502.72	24372.00
502.90	24460.94
503.07	24596.69
503.25	24744.14
503.43	24968.84
503.60	24687.97
503.78	24905.64
503.95	25113.95
504.13	25373.75
504.30	25532.90
504.48	25619.50
504.65	25308.21
504.83	25465.03
505.01	25486.09
505.18	26015.05
505.36	26122.72
505.53	25970.58
505.71	25912.07
505.88	26127.40
506.06	25752.91
506.23	26504.23
506.41	25837.17
506.58	26199.96
506.76	26602.53
506.93	26335.71
507.11	26787.43
507.28	26611.89
507.46	26890.41
507.63	26803.82
507.81	26710.19
507.98	26740.62
508.16	27234.47
508.33	27278.94
508.50	27082.34
508.68	27658.11
508.85	27580.87
509.03	27281.28
509.20	27360.86
509.38	27992.81
509.55	27948.34
509.73	27948.34
509.90	27850.03
510.08	27775.14
510.25	27953.02
510.42	28070.04
510.60	28041.96
510.77	28428.15
510.95	28599.01
511.12	28156.64
511.30	28201.11
511.47	28512.41
511.64	28474.96
511.82	28814.34
511.99	28886.89
512.17	28519.43
512.34	28811.99
512.51	29252.02
512.69	29401.81
512.86	29003.92
513.04	29542.24
513.21	29432.24
513.38	29453.30
513.56	29649.91
513.73	29659.27
513.90	29640.54
514.08	29631.18
514.25	29930.77
514.43	30106.31
514.60	30096.95
514.77	29771.61
514.95	30576.76
515.12	29975.24
515.29	29858.21
515.47	30195.25
515.64	30707.83
515.81	30288.87
515.99	30401.22
516.16	30920.82
516.33	30628.25
516.51	30764.00
516.68	30675.06
516.85	30768.68
517.03	31257.85
517.20	31157.21
517.37	30909.11
517.54	31150.19
517.72	31552.76
517.89	31239.13
518.06	31498.93
518.24	31241.47
518.41	31292.96
518.58	31440.42
518.75	31449.78
518.93	31618.30
519.10	31501.27
519.27	31725.96
519.45	32142.58
519.62	32133.21
519.79	31929.59
519.96	32215.13
520.14	31840.65
520.31	31740.00
520.48	32308.76
520.65	32072.36
520.83	32734.73
521.00	32840.06
521.17	32453.87
521.34	32545.15
521.52	32634.09
521.69	32762.82
521.86	32718.35
522.03	32905.59
522.20	33322.21
522.38	33308.16
522.55	33654.56
522.72	33273.06
522.89	32947.72
523.07	33486.04
523.24	33350.29
523.41	33717.76
523.58	33500.09
523.75	33741.16
523.92	33642.86
524.10	33769.25
524.27	33682.65
524.44	33518.81
524.61	34132.03
524.78	33963.51
524.96	34181.18
525.13	33989.26
525.30	34295.87
525.47	34621.20
525.64	34139.05
525.81	34462.05
525.98	34487.79
526.16	34192.89
526.33	34747.59
526.50	34649.29
526.67	34639.93
526.84	34691.42
527.01	34586.10
527.18	34511.20
527.36	34995.69
527.53	34920.79
527.70	35431.03
527.87	35318.68
528.04	34946.54
528.21	35229.74
528.38	35110.38
528.55	35463.80
528.72	35049.52
528.89	35573.80
529.07	35583.16
529.24	34962.92
529.41	35416.99
529.58	35651.04
529.75	35913.18
529.92	35770.41
530.09	35936.59
530.26	35543.38
530.43	35697.85
530.60	35906.16
530.77	35622.95
530.94	35985.74
531.11	35803.17
531.28	35828.92
531.46	35828.92
531.63	36224.47
531.80	36147.23
531.97	36320.43
532.14	36507.68
532.31	36107.44
532.48	36657.47
532.65	36797.90
532.82	36685.56
532.99	36605.98
533.16	36809.61
533.33	37081.11
533.50	36662.15
533.67	36973.44
533.84	36629.38
534.01	36814.29
534.18	37069.40
534.35	37397.08
534.52	37244.94
534.69	37282.39
534.86	37425.17
535.03	36989.83
535.20	37404.10
535.37	37614.75
535.54	37764.54
535.71	37340.91
535.88	37633.47
536.05	37553.90
536.22	37713.05
536.38	37471.98
536.55	37635.81
536.72	37483.68
536.89	37783.27
537.06	37790.29
537.23	38124.99
537.40	37897.95
537.57	37703.69
537.74	38005.62
537.91	38108.60
538.08	38101.58
538.25	37699.01
538.42	38117.96
538.59	38377.76
538.75	38466.70
538.92	38848.21
539.09	39068.22
539.26	38632.88
539.43	38220.95
539.60	38391.81
539.77	38141.37
539.94	38836.51
540.11	38993.32
540.28	38923.11
540.44	38829.49
540.61	38602.46
540.78	38658.63
540.95	39103.33
541.12	38185.84
541.29	38733.53
541.46	38995.67
541.62	38801.40
541.79	39044.82
541.96	38782.68
542.13	38998.01
542.30	38962.90
542.47	39454.41
542.63	39634.63
542.80	39856.98
542.97	39934.22
543.14	39758.68
543.31	40119.12
543.48	39491.86
543.64	39988.05
543.81	40016.14
543.98	39625.27
544.15	39868.69
544.32	40201.04
544.48	40238.49
544.65	39819.53
544.82	40662.13
544.99	40060.61
545.16	39840.60
545.32	40360.20
545.49	40451.48
545.66	40573.19
545.83	40301.68
546.00	40484.25
546.16	40762.77
546.33	40268.92
546.50	40065.29
546.67	40701.92
546.83	40084.01
547.00	40474.88
547.17	40451.48
547.34	40802.56
547.50	40526.38
547.67	41067.04
547.84	41022.57
548.00	40669.15
548.17	41219.17
548.34	41244.92
548.51	41326.84
548.67	41235.56
548.84	41120.87
549.01	40996.82
549.18	40828.30
549.34	41401.74
549.51	41373.65
549.68	41509.40
549.84	41062.36
550.01	41467.27
550.18	41287.05
550.34	41532.81
550.51	41265.99
550.68	41546.85
550.84	41233.22
551.01	41736.43
551.18	40875.12
551.34	41532.81
551.51	41516.42
551.68	41240.24
551.84	41904.95
552.01	41823.03
552.18	41748.14
552.34	41900.27
552.51	41783.24
552.68	41904.95
552.84	41743.45
553.01	42014.96
553.18	41923.68
553.34	42150.71
553.51	42054.75
553.67	41806.65
553.84	42117.94
554.01	42209.22
554.17	42408.17
554.34	42698.39
554.51	42160.07
554.67	42464.34
554.84	42763.93
555.00	42115.60
555.17	42066.45
555.33	42703.07
555.50	42642.22
555.67	42630.52
555.83	42438.59
556.00	42693.71
556.16	42796.70
556.33	42705.41
556.50	42684.35
556.66	43089.26
556.83	42239.65
556.99	42705.41
557.16	43129.05
557.32	42773.29
557.49	42749.88
557.65	42609.45
557.82	42784.99
557.98	43178.20
558.15	42965.21
558.32	43201.61
558.48	42639.88
558.65	43136.07
558.81	42691.37
558.98	42939.47
559.14	43035.43
559.31	43461.41
559.47	43037.77
559.64	43215.65
559.80	43021.39
559.97	43573.75
560.13	42766.27
560.30	43089.26
560.46	42895.00
560.63	43328.00
560.79	43487.15
560.96	43721.21
561.12	43423.96
561.29	43924.83
561.45	43452.05
561.61	43433.32
561.78	43515.24
561.94	43494.18
562.11	43292.89
562.27	43749.29
562.44	43800.79
562.60	43796.10
562.77	43896.75
562.93	43482.47
563.10	43697.80
563.26	43391.19
563.42	43885.04
563.59	43768.02
563.75	43704.82
563.92	43735.25
564.08	43690.78
564.24	43817.17
564.41	43849.94
564.57	43826.53
564.74	44076.97
564.90	43952.92
565.07	43571.41
565.23	43959.94
565.39	43966.96
565.56	43800.79
565.72	43812.49
565.88	44175.27
566.05	44259.53
566.21	44371.88
566.38	44091.01
566.54	44163.57
566.70	44545.08
566.87	43927.17
567.03	43892.07
567.19	44208.04
567.36	44212.72
567.52	43744.61
567.68	44542.74
567.85	44601.25
568.01	44669.12
568.17	44268.89
568.34	44191.65
568.50	44350.81
568.66	44083.99
568.83	44456.14
568.99	43681.42
569.15	44369.54
569.32	44296.98
569.48	44037.18
569.64	44481.88
569.81	44175.27
569.97	44406.98
570.13	44479.54
570.30	44268.89
570.46	44722.96
570.62	44519.33
570.78	44287.62
570.95	44720.62
571.11	44657.42
571.27	44460.82
571.43	44385.92
571.60	44210.38
571.76	44004.41
571.92	44299.32
572.09	44416.35
572.25	44287.62
572.41	44294.64
572.57	44617.63
572.74	44758.06
572.90	44318.04
573.06	44737.00
573.22	44542.74
573.38	45106.80
573.55	44758.06
573.71	44823.60
573.87	44842.32
574.03	44201.02
574.20	44769.77
574.36	44575.50
574.52	45010.84
574.68	44842.32
574.84	44935.95
575.01	44933.60
575.17	44849.35
575.33	44350.81
575.49	44648.06
575.65	45034.25
575.82	45052.97
575.98	44388.26
576.14	44996.80
576.30	45181.70
576.46	45151.27
576.62	44900.84
576.79	45099.78
576.95	44453.79
577.11	44720.62
577.27	44566.14
577.43	44891.48
577.59	45162.98
577.75	44458.48
577.92	44306.34
578.08	44617.63
578.24	44818.92
578.40	44891.48
578.56	45022.54
578.72	45258.94
578.88	45102.12
579.04	45270.64
579.21	44989.78
579.37	44638.70
579.53	44966.37
579.69	44844.66
579.85	44779.13
580.01	44935.95
580.17	44629.34
580.33	45303.41
580.49	44971.05
580.65	45085.74
580.82	44828.28
580.98	44713.59
581.14	44687.85
581.30	45003.82
581.46	45277.66
581.62	44779.13
581.78	44999.14
581.94	45462.57
582.10	44975.73
582.26	45099.78
582.42	45177.02
582.58	45055.31
582.74	44795.51
582.90	44737.00
583.06	45022.54
583.22	45095.10
583.38	45514.06
583.54	45317.45
583.70	44973.39
583.86	45350.22
584.02	44886.79
584.18	45485.97
584.34	45315.11
584.50	45130.21
584.66	45572.57
584.82	45607.68
584.98	45645.13
585.14	45003.82
585.30	45022.54
585.46	45390.01
585.62	45120.85
585.78	44868.07
585.94	44971.05
586.10	45141.91
586.26	44830.62
586.42	45074.04
586.58	45385.33
586.74	44872.75
586.90	44765.09
587.06	45146.59
587.22	45324.47
587.38	44928.92
587.54	45308.09
587.70	45361.92
587.86	45319.79
588.02	44980.42
588.18	45090.42
588.34	45095.10
588.49	44872.75
588.65	44818.92
588.81	45134.89
588.97	45713.00
589.13	44935.95
589.29	45668.53
589.45	45659.17
589.61	45378.31
589.77	45652.15
589.93	45221.49
590.08	45448.52
