SpectraSuite Data File
++++++++++++++++++++++++++++++++++++
Date: Fri Oct 25 11:25:27 EDT 2013
User: price-jones
Dark Spectrum Present: No
Reference Spectrum Present: No
Number of Sampled Component Spectra: 1
Spectrometers: USB2+H05261
Integration Time (usec): 100000 (USB2+H05261)
Spectra Averaged: 1 (USB2+H05261)
Boxcar Smoothing: 0 (USB2+H05261)
Correct for Electrical Dark: No (USB2+H05261)
Strobe/Lamp Enabled: No (USB2+H05261)
Correct for Detector Non-linearity: No (USB2+H05261)
Correct for Stray Light: No (USB2+H05261)
Number of Pixels in Processed Spectrum: 2048
>>>>>Begin Processed Spectral Data<<<<<
365.73	271.50
365.92	271.50
366.12	271.50
366.32	133.41
366.52	81.92
366.72	147.45
366.91	105.32
367.11	163.84
367.31	121.71
367.51	56.17
367.70	133.41
367.90	145.11
368.10	119.37
368.30	191.92
368.49	105.32
368.69	229.37
368.89	100.64
369.09	117.03
369.28	215.33
369.48	133.41
369.68	161.50
369.87	177.88
370.07	177.88
370.27	234.05
370.47	362.78
370.66	566.41
370.86	660.03
371.06	702.16
371.25	678.76
371.45	683.44
371.65	643.65
371.84	713.86
372.04	655.35
372.24	706.84
372.44	692.80
372.63	786.42
372.83	767.70
373.03	753.65
373.22	781.74
373.42	833.23
373.62	798.12
373.81	802.80
374.01	837.91
374.21	798.12
374.40	697.48
374.60	833.23
374.79	849.61
374.99	807.48
375.19	828.55
375.38	870.68
375.58	847.27
375.78	774.72
375.97	788.76
376.17	884.72
376.37	866.00
376.56	786.42
376.76	765.36
376.95	983.02
377.15	802.80
377.35	877.70
377.54	915.15
377.74	882.38
377.93	880.04
378.13	915.15
378.33	922.17
378.52	889.40
378.72	1018.13
378.91	976.00
379.11	961.96
379.31	933.87
379.50	973.66
379.70	1001.75
379.89	1013.45
380.09	976.00
380.28	922.17
380.48	1027.50
380.68	940.90
380.87	983.02
381.07	950.26
381.26	1088.35
381.46	994.73
381.65	1081.33
381.85	1027.50
382.04	971.32
382.24	1027.50
382.43	1116.44
382.63	1095.37
382.83	1053.24
383.02	1095.37
383.22	1156.22
383.41	1069.62
383.61	1097.71
383.80	1125.80
384.00	1093.03
384.19	1111.75
384.39	1146.86
384.58	1156.22
384.78	1132.82
384.97	1158.57
385.17	1153.88
385.36	1163.25
385.56	1142.18
385.75	1142.18
385.95	1165.59
386.14	1118.78
386.34	1158.57
386.53	1247.51
386.72	1226.44
386.92	1303.68
387.11	1320.06
387.31	1226.44
387.50	1303.68
387.70	1282.61
387.89	1256.87
388.09	1284.95
388.28	1331.76
388.48	1252.19
388.67	1282.61
388.86	1221.76
389.06	1303.68
389.25	1310.70
389.45	1224.10
389.64	1341.13
389.84	1444.11
390.03	1376.24
390.22	1399.64
390.42	1432.41
390.61	1359.85
390.81	1413.68
391.00	1483.90
391.19	1476.88
391.39	1437.09
391.58	1467.52
391.78	1441.77
391.97	1526.03
392.16	1446.45
392.36	1577.52
392.55	1500.28
392.75	1509.65
392.94	1444.11
393.13	1568.16
393.33	1530.71
393.52	1530.71
393.71	1657.10
393.91	1572.84
394.10	1528.37
394.29	1633.69
394.49	1629.01
394.68	1703.91
394.88	1575.18
395.07	1713.27
395.26	1699.23
395.46	1713.27
395.65	1720.29
395.84	1734.34
396.04	1743.70
396.23	1802.21
396.42	1739.02
396.62	1820.94
396.81	1762.42
397.00	1732.00
397.19	1741.36
397.39	1818.60
397.58	1774.13
397.77	1888.81
397.97	1830.30
398.16	1811.57
398.35	1921.58
398.55	1954.35
398.74	1818.60
398.93	1860.73
399.12	1809.23
399.32	1886.47
399.51	1966.05
399.70	1916.90
399.90	1905.20
400.09	2062.01
400.28	1977.75
400.47	2043.29
400.67	1970.73
400.86	2078.40
401.05	1994.14
401.24	1982.43
401.44	2069.03
401.63	2211.81
401.82	2073.71
402.01	2106.48
402.21	2146.27
402.40	2106.48
402.59	2188.40
402.78	2148.61
402.97	2256.28
403.17	2190.74
403.36	2279.68
403.55	2228.19
403.74	2289.04
403.93	2258.62
404.13	2298.41
404.32	2352.24
404.51	2307.77
404.70	2422.45
404.89	2387.35
405.09	2399.05
405.28	2427.14
405.47	2431.82
405.66	2532.46
405.85	2436.50
406.05	2511.39
406.24	2539.48
406.43	2546.50
406.62	2548.84
406.81	2696.30
407.00	2588.63
407.20	2513.74
407.39	2626.08
407.58	2745.45
407.77	2682.25
407.96	2724.38
408.15	2766.51
408.34	2729.06
408.54	2745.45
408.73	2836.73
408.92	2853.11
409.11	2731.41
409.30	2836.73
409.49	2946.73
409.68	2874.18
409.87	2944.39
410.07	2923.33
410.26	2904.60
410.45	2944.39
410.64	2963.12
410.83	2981.84
411.02	3035.67
411.21	3225.26
411.40	3173.77
411.59	3206.53
411.78	3274.41
411.98	3234.62
412.17	3290.79
412.36	3227.60
412.55	3274.41
412.74	3466.33
412.93	3372.71
413.12	3337.60
413.31	3595.06
413.50	3419.52
413.69	3454.63
413.88	3606.77
414.07	3499.10
414.26	3620.81
414.45	3714.43
414.64	3674.64
414.83	3637.19
415.02	3868.91
415.22	3808.05
415.41	3882.95
415.60	3822.09
415.79	3885.29
415.98	4025.72
416.17	3999.98
416.36	3997.64
416.55	3918.06
416.74	4079.55
416.93	3983.59
417.12	4009.34
417.31	4222.33
417.50	4142.75
417.69	4252.75
417.88	4198.92
418.07	4257.43
418.26	4344.03
418.45	4409.57
418.64	4454.04
418.83	4306.59
419.02	4299.56
419.21	4463.40
419.39	4496.17
419.58	4477.44
419.77	4292.54
419.96	4519.57
420.15	4400.21
420.34	4435.32
420.53	4634.26
420.72	4641.28
420.91	4645.96
421.10	4622.56
421.29	4704.48
421.48	4671.71
421.67	4704.48
421.86	4943.21
422.05	4589.79
422.24	4671.71
422.43	4821.50
422.61	4751.29
422.80	4978.32
422.99	4840.23
423.18	4753.63
423.37	4901.08
423.56	4800.44
423.75	4861.29
423.94	4781.71
424.13	4592.13
424.32	4636.60
424.50	4828.53
424.69	5149.18
424.88	4973.64
425.07	5001.72
425.26	4849.59
425.45	4938.53
425.64	4922.15
425.83	4828.53
426.01	5029.81
426.20	4978.32
426.39	4980.66
426.58	4992.36
426.77	5107.05
426.96	5078.96
427.15	5067.26
427.33	5008.75
427.52	5116.41
427.71	5137.48
427.90	5184.29
428.09	5313.02
428.28	5149.18
428.46	5301.31
428.65	5270.89
428.84	5453.45
429.03	5423.02
429.22	5266.21
429.40	5453.45
429.59	5453.45
429.78	5291.95
429.97	5235.78
430.16	5469.83
430.34	5535.37
430.53	5598.56
430.72	5598.56
430.91	5650.05
431.10	5591.54
431.28	5643.03
431.47	5746.02
431.66	5771.76
431.85	5598.56
432.03	5823.25
432.22	5790.49
432.41	5858.36
432.60	6024.54
432.79	5951.98
432.97	5956.66
433.16	5912.19
433.35	5919.21
433.54	6019.86
433.72	5886.45
433.91	6024.54
434.10	6139.23
434.28	5973.05
434.47	6153.27
434.66	6099.44
434.85	6125.18
435.03	6242.21
435.22	6225.82
435.41	6333.49
435.59	6403.71
435.78	6417.75
435.97	6195.40
436.16	6274.98
436.34	6279.66
436.53	6321.79
436.72	6504.35
436.90	6459.88
437.09	6696.27
437.28	6434.13
437.46	6427.11
437.65	6691.59
437.84	6651.80
438.02	6705.63
438.21	6871.81
438.40	6696.27
438.58	6803.94
438.77	7094.16
438.96	6796.92
439.14	7028.63
439.33	7066.08
439.52	7241.62
439.70	7246.30
439.89	7335.24
440.08	7279.07
440.26	7316.51
440.45	7201.83
440.63	7353.96
440.82	7407.80
441.01	7503.76
441.19	7714.41
441.38	7686.32
441.57	7782.28
441.75	7599.72
441.94	7939.10
442.12	7925.05
442.31	7983.57
442.50	8074.85
442.68	7882.92
442.87	7885.26
443.05	8102.93
443.24	8100.59
443.43	8013.99
443.61	8086.55
443.80	8322.94
443.98	7941.44
444.17	7847.82
444.35	8081.87
444.54	8273.79
444.73	8205.92
444.91	8360.39
445.10	8119.32
445.28	8299.54
445.47	8224.64
445.65	8278.47
445.84	8458.70
446.02	8465.72
446.21	8425.93
446.39	8428.27
446.58	8407.20
446.77	8311.24
446.95	8222.30
447.14	8386.14
447.32	8451.67
447.51	8339.33
447.69	8390.82
447.88	8400.18
448.06	8273.79
448.25	8571.04
448.43	8500.83
448.62	8409.54
448.80	8451.67
448.99	8631.90
449.17	8650.62
449.36	8786.37
449.54	8837.86
449.73	8692.75
449.91	8805.10
450.10	8868.29
450.28	9048.51
450.46	9121.07
450.65	8884.67
450.83	8959.57
451.02	8922.12
451.20	8887.01
451.39	9011.06
451.57	8858.93
451.76	8940.85
451.94	8975.95
452.13	9238.09
452.31	9238.09
452.49	9118.73
452.68	9071.92
452.86	9132.77
453.05	9275.54
453.23	9226.39
453.42	9287.25
453.60	9322.35
453.78	9631.30
453.97	9355.12
454.15	9249.80
454.34	9329.38
454.52	9563.43
454.70	9741.31
454.89	9514.28
455.07	9741.31
455.26	9844.29
455.44	9951.96
455.62	9724.93
455.81	9654.71
455.99	9818.55
456.17	9940.26
456.36	9891.10
456.54	10078.35
456.73	10134.52
456.91	10326.44
457.09	10494.96
457.28	10590.92
457.46	10141.54
457.64	10429.43
457.83	10303.04
458.01	10270.27
458.19	10485.60
458.38	10427.09
458.56	10675.18
458.74	10614.33
458.93	10534.75
459.11	10944.34
459.29	10445.81
459.48	10616.67
459.66	10623.69
459.84	10934.98
460.03	10794.55
460.21	11063.71
460.39	10810.93
460.57	10888.17
460.76	10906.90
460.94	10991.16
461.12	11150.31
461.31	11115.20
461.49	10960.73
461.67	11052.01
461.85	11482.67
462.04	11176.06
462.22	11719.06
462.40	11564.59
462.59	11644.17
462.77	11440.54
462.95	11503.73
463.13	11337.56
463.32	11424.15
463.50	11714.38
463.68	11620.76
463.86	11882.90
464.05	11693.32
464.23	11536.50
464.41	11908.65
464.59	11353.94
464.78	11978.86
464.96	11960.14
465.14	11730.76
465.32	11943.75
465.50	12063.12
465.69	12095.89
465.87	11793.96
466.05	12201.21
466.23	12250.36
466.41	12091.21
466.60	12248.02
466.78	12046.74
466.96	12318.24
467.14	11974.18
467.32	12128.66
467.51	12315.90
467.69	11939.07
467.87	12428.24
468.05	12547.61
468.23	12393.14
468.41	12320.58
468.60	12500.80
468.78	12503.14
468.96	12643.57
469.14	12655.28
469.32	12781.67
469.50	12578.04
469.69	12765.28
469.87	12980.61
470.05	12985.29
470.23	13114.02
470.41	13202.96
470.59	13209.98
470.77	12938.48
470.95	13067.21
471.14	13385.52
471.32	12894.01
471.50	13486.17
471.68	13348.08
471.86	13710.86
472.04	13540.00
472.22	13837.25
472.40	13556.38
472.58	13565.74
472.77	13813.84
472.95	14059.60
473.13	14342.80
473.31	13891.08
473.49	14218.75
473.67	13961.30
473.85	14115.77
474.03	14389.61
474.21	14464.51
474.39	14710.27
474.57	14436.42
474.75	14689.20
474.93	14707.93
475.12	14843.68
475.30	14712.61
475.48	15126.88
475.66	15096.46
475.84	15000.49
476.02	15236.89
476.20	15115.18
476.38	15534.14
476.56	15943.73
476.74	15964.79
476.92	15817.34
477.10	15723.72
477.28	16189.49
477.46	15892.24
477.64	16365.03
477.82	16421.20
478.00	16791.00
478.18	16465.67
478.36	16641.21
478.54	16893.99
478.72	17284.86
478.90	17001.65
479.08	17404.22
479.26	17387.84
479.44	17769.35
479.62	17549.34
479.80	17991.70
479.98	18059.57
480.16	18265.54
480.34	18478.53
480.52	18434.06
480.70	18691.52
480.88	18459.81
481.06	18785.14
481.24	18562.79
481.41	18841.31
481.59	19234.52
481.77	19417.08
481.95	19304.74
482.13	19410.06
482.31	19564.54
482.49	20018.60
482.67	19644.12
482.85	20559.27
483.03	20531.18
483.21	20577.99
483.39	20713.74
483.57	20725.44
483.74	21076.52
483.92	21296.53
484.10	20882.26
484.28	21596.12
484.46	22216.36
484.64	22111.04
484.82	21949.54
485.00	22207.00
485.18	22539.36
485.35	23236.84
485.53	22815.54
485.71	23103.43
485.89	23335.14
486.07	22979.38
486.25	23077.68
486.43	23494.30
486.61	23744.73
486.78	23967.09
486.96	23838.36
487.14	23978.79
487.32	24140.29
487.50	24687.97
487.68	25015.65
487.85	24905.64
488.03	24966.49
488.21	25853.56
488.39	25663.97
488.57	25663.97
488.75	26092.29
488.92	26204.64
489.10	26628.27
489.28	26574.44
489.46	26712.53
489.64	26639.98
489.81	27417.04
489.99	27159.58
490.17	27508.32
490.35	27772.80
490.53	27950.68
490.70	28336.87
490.88	28074.73
491.06	28856.46
491.24	28563.90
491.41	28636.45
491.59	29149.03
491.77	28879.87
491.95	29340.96
492.13	29256.70
492.30	29703.74
492.48	30085.25
492.66	29855.87
492.84	30054.82
493.01	30279.51
493.19	30272.49
493.37	30473.78
493.54	30696.13
493.72	31417.01
493.90	31070.61
494.08	31239.13
494.25	31702.56
494.43	31960.02
494.61	32142.58
494.79	31978.74
494.96	32126.19
495.14	32591.96
495.32	33036.66
495.49	33104.54
495.67	33006.23
495.85	33401.79
496.02	33713.08
496.20	33736.48
496.38	33649.88
496.55	33759.89
496.73	34553.33
496.91	34017.35
497.09	34710.14
497.26	34838.87
497.44	34525.24
497.62	35211.02
497.79	35192.30
497.97	35281.24
498.14	35487.20
498.32	36542.78
498.50	35901.48
498.67	36407.03
498.85	35756.36
499.03	36392.99
499.20	36301.71
499.38	36463.21
499.56	37003.87
499.73	36767.48
499.91	37099.83
500.08	37376.01
500.26	37013.23
500.44	37558.58
500.61	37762.20
500.79	37380.70
500.97	37998.60
501.14	38080.52
501.32	38520.54
501.49	38302.87
501.67	38089.88
501.84	38920.77
502.02	38546.28
502.20	38897.36
502.37	38981.62
502.55	39168.87
502.72	39159.50
502.90	39519.95
503.07	38572.03
503.25	39342.06
503.43	39189.93
503.60	39622.93
503.78	40053.59
503.95	39739.96
504.13	40116.78
504.30	40715.96
504.48	40212.74
504.65	40163.59
504.83	40526.38
505.01	41198.11
505.18	41015.55
505.36	41071.72
505.53	40767.45
505.71	41387.69
505.88	41270.67
506.06	41640.47
506.23	41411.10
506.41	41724.73
506.58	41518.76
506.76	41991.55
506.93	41883.89
507.11	42134.32
507.28	42569.66
507.46	42490.09
507.63	42272.42
507.81	43058.84
507.98	42796.70
508.16	42562.64
508.33	43021.39
508.50	42930.11
508.68	43203.95
508.85	43274.16
509.03	43445.02
509.20	43519.92
509.38	43901.43
509.55	44013.77
509.73	43845.26
509.90	44306.34
510.08	44140.16
510.25	44369.54
510.42	44329.75
510.60	44832.96
510.77	44502.95
510.95	45223.83
511.12	44875.09
511.30	44533.37
511.47	45212.13
511.64	45216.81
511.82	44942.97
511.99	45556.19
512.17	45659.17
512.34	45605.34
512.51	45986.85
512.69	46003.23
512.86	45673.21
513.04	46263.03
513.21	46005.57
513.38	46452.61
513.56	46799.01
513.73	46019.61
513.90	46761.56
514.08	46583.68
514.25	47089.24
514.43	47033.07
514.60	47107.96
514.77	47136.05
514.95	47480.11
515.12	47199.24
515.29	47386.49
515.47	47426.28
515.64	48030.13
515.81	47641.60
515.99	47782.04
516.16	47908.43
516.33	47999.71
516.51	48154.18
516.68	48268.87
516.85	48280.57
517.03	48540.37
517.20	48481.86
517.37	48341.42
517.54	48519.31
517.72	48692.50
517.89	48664.42
518.06	48821.23
518.24	48839.96
518.41	49219.13
518.58	48982.73
518.75	49364.24
518.93	49598.29
519.10	49076.35
519.27	49474.24
519.45	49429.77
519.62	49645.10
519.79	49607.65
519.96	49848.73
520.14	50080.44
520.31	49928.31
520.48	50028.95
520.65	50382.37
520.83	50487.70
521.00	50569.61
521.17	50213.85
521.34	50323.86
521.52	50340.24
521.69	50475.99
521.86	50583.66
522.03	51004.95
522.20	50960.48
522.38	51033.04
522.55	50710.05
522.72	51400.50
522.89	51030.70
523.07	51515.19
523.24	51454.34
523.41	51283.48
523.58	51430.93
523.75	51625.20
523.92	51744.56
524.10	51798.40
524.27	51870.95
524.44	51599.45
524.61	52074.58
524.78	51964.57
524.96	52044.15
525.13	52090.96
525.30	52142.45
525.47	52142.45
525.64	52538.01
525.81	52589.50
525.98	52156.50
526.16	52306.29
526.33	52034.79
526.50	52898.45
526.67	52629.29
526.84	52912.49
527.01	52219.69
527.18	52435.02
527.36	52933.56
527.53	52767.38
527.70	53289.32
527.87	53162.93
528.04	53249.53
528.21	53209.74
528.38	53270.59
528.55	53256.55
528.72	53144.20
528.89	53174.63
529.07	53158.25
529.24	53167.61
529.41	53336.13
529.58	53345.49
529.75	53532.73
529.92	53340.81
530.09	53581.88
530.26	53490.60
530.43	54073.40
530.60	53521.03
530.77	53680.19
530.94	54049.99
531.11	53888.49
531.28	53991.48
531.46	53818.28
531.63	54064.03
531.80	53853.39
531.97	54232.55
532.14	54277.02
532.31	54035.95
532.48	54068.72
532.65	54564.91
532.82	54138.93
532.99	54471.29
533.16	54356.60
533.33	54405.75
533.50	54859.82
533.67	54724.07
533.84	54513.42
534.01	54632.78
534.18	54738.11
534.35	55206.22
534.52	54974.50
534.69	54911.31
534.86	55220.26
535.03	54607.04
535.20	55140.68
535.37	55255.37
535.54	55285.79
535.71	55124.30
535.88	55208.56
536.05	55267.07
536.22	55344.31
536.38	55316.22
536.55	55330.26
536.72	55384.10
536.89	55393.46
537.06	55288.13
537.23	55510.49
537.40	55412.18
537.57	55632.19
537.74	55428.57
537.91	56123.71
538.08	55622.83
538.25	55395.80
538.42	55657.94
538.59	56060.51
538.75	55594.74
538.92	56016.04
539.09	56051.15
539.26	55615.81
539.43	55985.61
539.60	56048.81
539.77	55791.35
539.94	56245.41
540.11	56217.33
540.28	56399.89
540.44	56268.82
540.61	56238.39
540.78	56254.78
540.95	56341.38
541.12	56233.71
541.29	56184.56
541.46	56413.93
541.62	56275.84
541.79	56521.60
541.96	56247.75
542.13	56280.52
542.30	56467.76
542.47	56640.96
542.63	56645.65
542.80	56514.58
542.97	56945.23
543.14	57029.49
543.31	57052.90
543.48	56907.79
543.64	57425.04
543.81	57174.61
543.98	57235.46
544.15	56863.32
544.32	57254.18
544.48	57179.29
544.65	57130.14
544.82	57277.59
544.99	56907.79
545.16	57336.10
545.32	57247.16
545.49	57570.16
545.66	57551.43
545.83	57209.71
546.00	57663.78
546.16	57382.91
546.33	57581.86
546.50	57312.70
546.67	57633.35
546.83	57301.00
547.00	57429.72
547.17	57509.30
547.34	57436.75
547.50	57586.54
547.67	57827.62
547.84	57757.40
548.00	57982.09
548.17	57888.47
548.34	58012.52
548.51	57911.88
548.67	57965.71
548.84	58078.05
549.01	57911.88
549.18	58068.69
549.34	57890.81
549.51	58159.97
549.68	58251.25
549.84	58195.08
550.01	58269.98
550.18	58059.33
550.34	58316.79
550.51	58277.00
550.68	58389.34
550.84	58143.59
551.01	58206.78
551.18	58071.03
551.34	58347.21
551.51	58279.34
551.68	58508.71
551.84	58440.84
552.01	58188.06
552.18	58471.26
552.34	58220.83
552.51	58415.09
552.68	58405.73
552.84	58475.94
553.01	58611.70
553.18	58658.51
553.34	58705.32
553.51	58616.38
553.67	58501.69
553.84	58754.47
554.01	58866.81
554.17	58749.79
554.34	58862.13
554.51	58859.79
554.67	58883.20
554.84	58698.30
555.00	58810.64
555.17	58911.28
555.33	58920.65
555.50	58864.47
555.67	58859.79
555.83	59004.91
556.00	58812.98
556.16	59210.87
556.33	59100.87
556.50	58906.60
556.66	59054.06
556.83	58986.18
556.99	59253.00
557.16	59470.67
557.32	59339.60
557.49	59325.56
557.65	59196.83
557.82	59051.72
557.98	59047.04
558.15	59374.71
558.32	59320.88
558.48	59112.57
558.65	59220.23
558.81	59377.05
558.98	59327.90
559.14	59510.46
559.31	59428.54
559.47	59423.86
559.64	59428.54
559.80	59510.46
559.97	59503.44
560.13	59515.14
560.30	59601.74
560.46	59554.93
560.63	59473.01
560.79	59540.89
560.96	59643.87
561.12	59512.80
561.29	59728.13
561.45	59632.17
561.61	59707.07
561.78	59636.85
561.94	59440.24
562.11	59646.21
562.27	59791.33
562.44	59849.84
562.60	59891.97
562.77	59835.80
562.93	59538.55
563.10	59803.03
563.26	59817.07
563.42	60170.49
563.59	59894.31
563.75	59920.05
563.92	60039.42
564.08	59824.09
564.24	59938.78
564.41	59870.90
564.57	59896.65
564.74	60011.34
564.90	59943.46
565.07	59976.23
565.23	59945.80
565.39	59952.82
565.56	60067.51
565.72	59915.37
565.88	59891.97
566.05	59915.37
566.21	59784.30
566.38	60027.72
566.54	60212.62
566.70	60116.66
566.87	60404.55
567.03	59875.58
567.19	60430.29
567.36	60168.15
567.52	60020.70
567.68	60205.60
567.85	60191.56
568.01	60224.32
568.17	60238.37
568.34	60203.26
568.50	60179.85
568.66	60172.83
568.83	60203.26
568.99	60095.60
569.15	60236.03
569.32	60193.90
569.48	60121.34
569.64	60278.16
569.81	60193.90
569.97	60090.91
570.13	60273.48
570.30	60128.36
570.46	60247.73
570.62	60238.37
570.78	60463.06
570.95	60093.25
571.11	60406.89
571.27	60221.98
571.43	60186.88
571.60	60411.57
571.76	60299.22
571.92	60287.52
572.09	60339.01
572.25	60226.66
572.41	60411.57
572.57	60339.01
572.74	60495.83
572.90	60376.46
573.06	60212.62
573.22	60477.10
573.38	60484.12
573.55	60313.26
573.71	60643.28
573.87	60495.83
574.03	60519.23
574.20	60479.44
574.36	60502.85
574.52	60680.73
574.68	60622.22
574.84	60549.66
575.01	60622.22
575.17	60601.15
575.33	60406.89
575.49	60556.68
575.65	60605.83
575.82	60727.54
575.98	60322.63
576.14	60825.84
576.30	60566.04
576.46	60683.07
576.62	60491.15
576.79	60523.91
576.95	60458.38
577.11	60563.70
577.27	60589.45
577.43	60640.94
577.59	60533.28
577.75	60404.55
577.92	60601.15
578.08	60619.88
578.24	60519.23
578.40	60542.64
578.56	60809.46
578.72	60772.01
578.88	60893.72
579.04	60802.44
579.21	60662.00
579.37	60713.50
579.53	60837.54
579.69	60523.91
579.85	60720.52
580.01	60631.58
580.17	60502.85
580.33	60760.31
580.49	60893.72
580.65	60722.86
580.82	60748.60
580.98	60505.19
581.14	60601.15
581.30	60846.91
581.46	60650.30
581.62	60949.89
581.78	60563.70
581.94	60853.93
582.10	60636.26
582.26	60680.73
582.42	60797.76
582.58	60877.33
582.74	60807.12
582.90	60692.43
583.06	60800.10
583.22	60561.36
583.38	60914.78
583.54	60685.41
583.70	60680.73
583.86	60935.85
584.02	60762.65
584.18	61083.30
584.34	60676.05
584.50	60816.48
584.66	60811.80
584.82	60552.00
584.98	61027.13
585.14	60886.70
585.30	60669.03
585.46	60811.80
585.62	60835.20
585.78	60893.72
585.94	60610.51
586.10	60860.95
586.26	60832.86
586.42	61041.17
586.58	60863.29
586.74	60753.29
586.90	60781.37
587.06	60704.13
587.22	61001.38
587.38	60767.33
587.54	60924.14
587.70	60970.96
587.86	60760.31
588.02	60966.27
588.18	61013.08
588.34	60893.72
588.49	60963.93
