SpectraSuite Data File
++++++++++++++++++++++++++++++++++++
Date: Fri Oct 25 10:44:09 EDT 2013
User: price-jones
Dark Spectrum Present: No
Reference Spectrum Present: No
Number of Sampled Component Spectra: 1
Spectrometers: USB2+H05261
Integration Time (usec): 100000 (USB2+H05261)
Spectra Averaged: 1 (USB2+H05261)
Boxcar Smoothing: 0 (USB2+H05261)
Correct for Electrical Dark: No (USB2+H05261)
Strobe/Lamp Enabled: No (USB2+H05261)
Correct for Detector Non-linearity: No (USB2+H05261)
Correct for Stray Light: No (USB2+H05261)
Number of Pixels in Processed Spectrum: 2048
>>>>>Begin Processed Spectral Data<<<<<
365.73	161.50
365.92	161.50
366.12	161.50
366.32	32.77
366.52	67.88
366.72	53.83
366.91	23.41
367.11	0.00
367.31	67.88
367.51	46.81
367.70	32.77
367.90	0.00
368.10	46.81
368.30	37.45
368.49	81.92
368.69	25.75
368.89	67.88
369.09	25.75
369.28	114.69
369.48	91.28
369.68	53.83
369.87	117.03
370.07	117.03
370.27	0.00
370.47	184.90
370.66	404.91
370.86	416.62
371.06	468.11
371.25	514.92
371.45	411.93
371.65	416.62
371.84	428.32
372.04	456.40
372.24	547.69
372.44	482.15
372.63	468.11
372.83	557.05
373.03	500.87
373.22	503.22
373.42	524.28
373.62	442.36
373.81	491.51
374.01	578.11
374.21	519.60
374.40	514.92
374.60	622.58
374.79	631.94
374.99	589.82
375.19	610.88
375.38	538.32
375.58	636.63
375.78	688.12
375.97	603.86
376.17	631.94
376.37	641.31
376.56	603.86
376.76	580.45
376.95	592.16
377.15	636.63
377.35	594.50
377.54	685.78
377.74	685.78
377.93	634.29
378.13	683.44
378.33	669.39
378.52	676.41
378.72	603.86
378.91	741.95
379.11	669.39
379.31	692.80
379.50	629.60
379.70	688.12
379.89	692.80
380.09	653.01
380.28	638.97
380.48	706.84
380.68	704.50
380.87	662.37
381.07	727.91
381.26	667.05
381.46	784.08
381.65	727.91
381.85	716.20
382.04	683.44
382.24	704.50
382.43	650.67
382.63	699.82
382.83	709.18
383.02	692.80
383.22	697.48
383.41	667.05
383.61	660.03
383.80	851.96
384.00	830.89
384.19	795.78
384.39	844.93
384.58	800.46
384.78	812.17
384.97	828.55
385.17	786.42
385.36	746.63
385.56	828.55
385.75	812.17
385.95	809.83
386.14	847.27
386.34	793.44
386.53	793.44
386.72	884.72
386.92	884.72
387.11	901.11
387.31	898.77
387.50	809.83
387.70	905.79
387.89	887.06
388.09	973.66
388.28	898.77
388.48	903.45
388.67	964.30
388.86	905.79
389.06	910.47
389.25	985.37
389.45	959.62
389.64	959.62
389.84	950.26
390.03	1015.79
390.22	1050.90
390.42	903.45
390.61	1008.77
390.81	887.06
391.00	997.07
391.19	1074.31
391.39	884.72
391.58	1064.94
391.78	1067.28
391.97	1088.35
392.16	1001.75
392.36	1001.75
392.55	999.41
392.75	1114.10
392.94	1078.99
393.13	1086.01
393.33	973.66
393.52	1048.56
393.71	1170.27
393.91	1142.18
394.10	1081.33
394.29	1114.10
394.49	1256.87
394.68	1165.59
394.88	1205.38
395.07	1137.50
395.26	1172.61
395.46	1277.93
395.65	1238.14
395.84	1132.82
396.04	1233.46
396.23	1165.59
396.42	1116.44
396.62	1123.46
396.81	1203.04
397.00	1200.69
397.19	1196.01
397.39	1336.45
397.58	1418.36
397.77	1406.66
397.97	1474.54
398.16	1425.39
398.35	1399.64
398.55	1432.41
398.74	1493.26
398.93	1497.94
399.12	1472.20
399.32	1425.39
399.51	1446.45
399.70	1523.69
399.90	1584.54
400.09	1619.65
400.28	1673.48
400.47	1582.20
400.67	1633.69
400.86	1568.16
401.05	1624.33
401.24	1629.01
401.44	1661.78
401.63	1687.53
401.82	1633.69
402.01	1713.27
402.21	1645.40
402.40	1664.12
402.59	1722.63
402.78	1860.73
402.97	1783.49
403.17	1706.25
403.36	1818.60
403.55	1825.62
403.74	1795.19
403.93	1846.68
404.13	1834.98
404.32	1888.81
404.51	1877.11
404.70	1933.28
404.89	1795.19
405.09	1874.77
405.28	1984.77
405.47	1975.41
405.66	1984.77
405.85	1968.39
406.05	1930.94
406.24	2024.56
406.43	2045.63
406.62	2115.84
406.81	2118.18
407.00	2111.16
407.20	2029.24
407.39	2024.56
407.58	2146.27
407.77	2209.47
407.96	2157.97
408.15	2239.89
408.34	2143.93
408.54	2286.70
408.73	2300.75
408.92	2282.02
409.11	2230.53
409.30	2242.23
409.49	2263.30
409.68	2272.66
409.87	2272.66
410.07	2361.60
410.26	2427.14
410.45	2275.00
410.64	2389.69
410.83	2417.77
411.02	2450.54
411.21	2544.16
411.40	2637.78
411.59	2565.23
411.78	2553.52
411.98	2602.68
412.17	2553.52
412.36	2616.72
412.55	2724.38
412.74	2597.99
412.93	2682.25
413.12	2644.81
413.31	2956.10
413.50	2773.53
413.69	2822.69
413.88	2895.24
414.07	2911.63
414.26	2979.50
414.45	2848.43
414.64	2937.37
414.83	2963.12
415.02	3136.32
415.22	3150.36
415.41	3084.83
415.60	3040.36
415.79	3178.45
415.98	3248.66
416.17	3279.09
416.36	3243.98
416.55	3066.10
416.74	3220.58
416.93	3155.04
417.12	3180.79
417.31	3361.01
417.50	3361.01
417.69	3499.10
417.88	3342.28
418.07	3314.20
418.26	3398.46
418.45	3440.59
418.64	3740.18
418.83	3478.04
419.02	3391.44
419.21	3585.70
419.39	3475.70
419.58	3508.46
419.77	3522.51
419.96	3529.53
420.15	3684.00
420.34	3641.87
420.53	3709.75
420.72	3758.90
420.91	3775.28
421.10	3758.90
421.29	3723.79
421.48	3684.00
421.67	3779.97
421.86	3644.21
422.05	3845.50
422.24	3749.54
422.43	3868.91
422.61	3857.20
422.80	3936.78
422.99	3896.99
423.18	3742.52
423.37	3906.35
423.56	3838.48
423.75	3922.74
423.94	3911.04
424.13	3653.58
424.32	3660.60
424.50	3911.04
424.69	3904.01
424.88	4086.58
425.07	3978.91
425.26	3946.14
425.45	3880.61
425.64	4007.00
425.83	3885.29
426.01	4049.13
426.20	3946.14
426.39	3962.53
426.58	3899.33
426.77	3721.45
426.96	3920.40
427.15	4007.00
427.33	3955.51
427.52	3976.57
427.71	4194.24
427.90	4135.73
428.09	4283.18
428.28	4145.09
428.46	4163.81
428.65	4325.31
428.84	4285.52
429.03	4215.30
429.22	4128.70
429.40	4227.01
429.59	4135.73
429.78	3934.44
429.97	3925.08
430.16	4121.68
430.34	4091.26
430.53	4128.70
430.72	4196.58
430.91	4100.62
431.10	4337.01
431.28	4465.74
431.47	4641.28
431.66	4561.70
431.85	4332.33
432.03	4358.08
432.22	4615.54
432.41	4578.09
432.60	4688.09
432.79	4624.90
432.97	4793.42
433.16	4638.94
433.35	4690.43
433.54	4566.39
433.72	4667.03
433.91	4498.51
434.10	4814.48
434.28	4678.73
434.47	4788.74
434.66	4880.02
434.85	4943.21
435.03	4910.44
435.22	4873.00
435.41	5210.03
435.59	5008.75
435.78	5203.01
435.97	5064.92
436.16	4933.85
436.34	4959.60
436.53	5074.28
436.72	5195.99
436.90	5067.26
437.09	5252.16
437.28	5184.29
437.46	5116.41
437.65	5100.03
437.84	5032.15
438.02	5078.96
438.21	5046.20
438.40	5116.41
438.58	5497.92
438.77	5362.17
438.96	5357.49
439.14	5521.32
439.33	5591.54
439.52	5516.64
439.70	5479.19
439.89	5596.22
440.08	5488.56
440.26	5638.35
440.45	5734.31
440.63	5750.70
440.82	5879.43
441.01	5947.30
441.19	5858.36
441.38	5851.34
441.57	6015.18
441.75	6190.72
441.94	6265.61
442.12	6256.25
442.31	6235.19
442.50	6272.64
442.68	6127.52
442.87	6228.17
443.05	6237.53
443.24	6471.58
443.43	6436.47
443.61	6487.96
443.80	6640.10
443.98	6408.39
444.17	6164.97
444.35	6497.33
444.54	6539.46
444.73	6506.69
444.91	6478.60
445.10	6471.58
445.28	6382.64
445.47	6305.40
445.65	6300.72
445.84	6455.20
446.02	6546.48
446.21	6544.14
446.39	6574.56
446.58	6619.04
446.77	6750.10
446.95	6576.91
447.14	6558.18
447.32	6700.95
447.51	6698.61
447.69	6595.63
447.88	6604.99
448.06	6647.12
448.25	6506.69
448.43	6642.44
448.62	6679.89
448.80	6644.78
448.99	6771.17
449.17	6733.72
449.36	6745.42
449.54	6909.26
449.73	7028.63
449.91	6888.20
450.10	6918.62
450.28	7068.42
450.46	7183.10
450.65	7199.49
450.83	7063.74
451.02	7066.08
451.20	7117.57
451.39	7110.55
451.57	7119.91
451.76	6970.12
451.94	7066.08
452.13	7208.85
452.31	6986.50
452.49	7183.10
452.68	7183.10
452.86	7241.62
453.05	7187.79
453.23	7304.81
453.42	7199.49
453.60	7323.54
453.78	7358.64
453.97	7330.56
454.15	7316.51
454.34	7360.98
454.52	7288.43
454.70	7353.96
454.89	7407.80
455.07	7353.96
455.26	7602.06
455.44	7765.90
455.62	7674.62
455.81	7595.04
455.99	7517.80
456.17	7772.92
456.36	7662.91
456.54	7793.98
456.73	7808.03
456.91	7878.24
457.09	7955.48
457.28	8257.41
457.46	8006.97
457.64	8262.09
457.83	8032.72
458.01	7969.52
458.19	8283.16
458.38	8053.78
458.56	8187.19
458.74	8170.81
458.93	8238.69
459.11	8180.17
459.29	8245.71
459.48	8334.65
459.66	8416.57
459.84	8425.93
460.03	8493.80
460.21	8278.47
460.39	8308.90
460.57	8341.67
460.76	8449.33
460.94	8718.50
461.12	8751.26
461.31	8657.64
461.49	8561.68
461.67	8629.56
461.85	8894.04
462.04	8652.96
462.22	8975.95
462.40	8879.99
462.59	8737.22
462.77	8830.84
462.95	8863.61
463.13	8830.84
463.32	8844.88
463.50	8905.74
463.68	8936.17
463.86	8744.24
464.05	8964.25
464.23	8802.75
464.41	9165.54
464.59	8800.41
464.78	9039.15
464.96	8884.67
465.14	9057.87
465.32	9132.77
465.50	9172.56
465.69	9270.86
465.87	9139.79
466.05	9125.75
466.23	8973.61
466.41	9146.81
466.60	9195.96
466.78	9172.56
466.96	9123.41
467.14	9352.78
467.32	9195.96
467.51	9308.31
467.69	9008.72
467.87	9404.27
468.05	9357.46
468.23	9371.50
468.41	9455.76
468.60	9507.26
468.78	9694.50
468.96	9537.68
469.14	9706.20
469.32	9621.94
469.50	9423.00
469.69	9795.14
469.87	9811.53
470.05	9720.24
470.23	9668.75
470.41	9909.83
470.59	9891.10
470.77	9703.86
470.95	9958.98
471.14	10120.48
471.32	9825.57
471.50	10040.90
471.68	10125.16
471.86	10281.97
472.04	10356.87
472.22	10356.87
472.40	10164.95
472.58	10146.22
472.77	10413.04
472.95	10422.41
473.13	10815.62
473.31	10368.57
473.49	10448.15
473.67	10368.57
473.85	10733.70
474.03	10951.37
474.21	10829.66
474.39	10883.49
474.57	10967.75
474.75	11131.59
474.93	11082.44
475.12	10923.28
475.30	11302.45
475.48	11183.08
475.66	11283.72
475.84	11101.16
476.02	11456.92
476.20	11389.05
476.38	11681.61
476.56	11709.70
476.74	11829.07
476.92	11688.64
477.10	11681.61
477.28	11967.16
477.46	11901.62
477.64	12147.38
477.82	12142.70
478.00	12430.59
478.18	12571.02
478.36	12327.60
478.54	12559.31
478.72	12461.01
478.90	12727.83
479.08	13046.15
479.26	12938.48
479.44	12826.14
479.62	13083.59
479.80	13404.25
479.98	13532.98
480.16	13804.48
480.34	13640.64
480.52	13640.64
480.70	13867.67
480.88	13406.59
481.06	13895.76
481.24	13755.33
481.41	13907.46
481.59	14260.88
481.77	14281.95
481.95	14277.27
482.13	14429.40
482.31	14347.48
482.49	14885.81
482.67	14808.57
482.85	14888.15
483.03	15211.14
483.21	15300.08
483.39	15417.11
483.57	15267.31
483.74	15325.83
483.92	15272.00
484.10	15428.81
484.28	15964.79
484.46	15976.50
484.64	16233.96
484.82	16140.33
485.00	15864.15
485.18	16149.70
485.35	16304.17
485.53	16112.25
485.71	16088.84
485.89	16482.05
486.07	16381.41
486.25	16512.48
486.43	16807.39
486.61	17078.89
486.78	17181.87
486.96	17408.90
487.14	17326.99
487.32	17554.02
487.50	17680.41
487.68	17996.38
487.85	18473.85
488.03	18001.06
488.21	18546.40
488.39	18377.89
488.57	18871.74
488.75	18630.66
488.92	18920.89
489.10	19105.79
489.28	19337.51
489.46	19489.64
489.64	19297.72
489.81	20250.32
489.99	20102.86
490.17	19964.77
490.35	20503.09
490.53	20077.12
490.70	20257.34
490.88	20400.11
491.06	20704.38
491.24	20812.04
491.41	20554.58
491.59	20748.85
491.77	20933.75
491.95	20940.77
492.13	20947.79
492.30	21336.32
492.48	21757.62
492.66	21788.05
492.84	21390.16
493.01	22424.67
493.19	21790.39
493.37	22251.47
493.54	22008.06
493.72	22293.60
493.90	22169.55
494.08	23166.62
494.25	23068.32
494.43	22885.76
494.61	23030.87
494.79	23496.64
494.96	23103.43
495.14	23185.35
495.32	23625.37
495.49	23681.54
495.67	23754.10
495.85	24046.66
496.02	24006.87
496.20	24159.01
496.38	24170.71
496.55	24264.33
496.73	25053.09
496.91	25111.61
497.09	24968.84
497.26	24765.21
497.44	24854.15
497.62	24819.04
497.79	25160.76
497.97	25149.06
498.14	25493.12
498.32	25308.21
498.50	25467.37
498.67	26071.23
498.85	26064.21
499.03	26113.36
499.20	26008.03
499.38	25998.67
499.56	26508.91
499.73	26148.46
499.91	26188.25
500.08	26787.43
500.26	25926.11
500.44	26473.80
500.61	26513.59
500.79	26251.45
500.97	26618.91
501.14	26843.60
501.32	26457.42
501.49	27325.75
501.67	27101.06
501.84	27147.87
502.02	27360.86
502.20	27625.34
502.37	27623.00
502.55	27690.88
502.72	27938.97
502.90	27953.02
503.07	28077.07
503.25	28161.33
503.43	27571.51
503.60	27835.99
503.78	27936.63
503.95	28048.98
504.13	28301.76
504.30	28601.35
504.48	28423.47
504.65	28680.92
504.83	28851.78
505.01	29216.91
505.18	28797.95
505.36	29434.58
505.53	29139.67
505.71	29378.40
505.88	29383.09
506.06	29013.28
506.23	29345.64
506.41	29228.61
506.58	29621.82
506.76	29474.37
506.93	29567.99
507.11	29764.59
507.28	29626.50
507.46	30000.99
507.63	29827.79
507.81	30216.32
507.98	30146.10
508.16	30162.48
508.33	30497.18
508.50	30628.25
508.68	30855.28
508.85	31548.08
509.03	30623.57
509.20	31051.89
509.38	31166.57
509.55	31232.11
509.73	30939.54
509.90	31435.74
510.08	31136.15
510.25	31363.18
510.42	31009.76
510.60	31269.56
510.77	31433.39
510.95	31627.66
511.12	31466.16
511.30	31583.19
511.47	32285.35
511.64	32322.80
511.82	32393.01
511.99	31789.16
512.17	32182.37
512.34	32290.03
512.51	31866.39
512.69	32542.81
512.86	32528.77
513.04	32725.37
513.21	32697.28
513.38	32725.37
513.56	32891.55
513.73	32369.61
513.90	33181.77
514.08	32900.91
514.25	33013.26
514.43	32891.55
514.60	33174.75
514.77	33408.81
514.95	33797.34
515.12	33184.12
515.29	33710.74
515.47	34036.07
515.64	33876.91
515.81	33834.78
515.99	33631.16
516.16	33539.88
516.33	33251.99
516.51	33642.86
516.68	33340.93
516.85	33261.35
517.03	33570.30
517.20	33940.11
517.37	34129.69
517.54	34010.32
517.72	33673.29
517.89	33720.10
518.06	34125.01
518.24	33982.24
518.41	34054.79
518.58	34054.79
518.75	34611.84
518.93	34614.18
519.10	34408.22
519.27	35051.86
519.45	35054.20
519.62	34756.96
519.79	35187.61
519.96	35398.26
520.14	35234.42
520.31	34981.65
520.48	34768.66
520.65	35213.36
520.83	35833.60
521.00	36032.55
521.17	35852.33
521.34	35845.30
521.52	35742.32
521.69	36170.64
521.86	35981.06
522.03	36280.64
522.20	36210.43
522.38	36201.07
522.55	35763.39
522.72	36187.02
522.89	36098.08
523.07	36442.14
523.24	36472.57
523.41	36840.03
523.58	36484.27
523.75	37038.98
523.92	37184.09
524.10	37305.80
524.27	37413.46
524.44	37191.11
524.61	37277.71
524.78	37174.73
524.96	37371.33
525.13	37205.16
525.30	37446.23
525.47	37691.99
525.64	37207.50
525.81	37404.10
525.98	37191.11
526.16	37113.87
526.33	36772.16
526.50	37649.86
526.67	37029.62
526.84	37514.11
527.01	37165.37
527.18	37235.58
527.36	37486.02
527.53	38242.01
527.70	38017.32
527.87	38614.16
528.04	38019.66
528.21	38436.28
528.38	38183.50
528.55	38607.14
528.72	38719.48
528.89	38918.43
529.07	38672.67
529.24	38731.18
529.41	38583.73
529.58	38600.12
529.75	39089.29
529.92	38707.78
530.09	38700.76
530.26	38810.76
530.43	38937.15
530.60	39070.56
530.77	38646.93
530.94	39145.46
531.11	39524.63
531.28	39428.66
531.46	39426.32
531.63	39414.62
531.80	39187.59
531.97	39234.40
532.14	39290.57
532.31	39168.87
532.48	39335.04
532.65	39592.50
532.82	39555.05
532.99	39519.95
533.16	39122.05
533.33	40339.13
533.50	39842.94
533.67	40224.45
533.84	39754.00
534.01	39957.63
534.18	39959.97
534.35	40151.89
534.52	39854.64
534.69	40407.01
534.86	40184.66
535.03	40430.41
535.20	40463.18
535.37	40547.44
535.54	40863.41
535.71	40603.61
535.88	40755.75
536.05	40243.17
536.22	40655.11
536.38	40950.01
536.55	40615.32
536.72	40245.51
536.89	40552.12
537.06	40505.31
537.23	41200.45
537.40	41010.87
537.57	41256.62
537.74	41226.20
537.91	41399.40
538.08	41155.98
538.25	40720.64
538.42	41179.39
538.59	41034.27
538.75	40788.52
538.92	40641.06
539.09	41233.22
539.26	41193.43
539.43	40849.37
539.60	41617.07
539.77	41244.92
539.94	41045.97
540.11	41202.79
540.28	41219.17
540.44	41280.03
540.61	41500.04
540.78	41556.21
540.95	41457.91
541.12	41287.05
541.29	41591.32
541.46	41783.24
541.62	41584.30
541.79	42064.11
541.96	41507.06
542.13	41670.90
542.30	41886.23
542.47	41904.95
542.63	41780.90
542.80	41963.46
542.97	42806.06
543.14	42635.20
543.31	42202.20
543.48	42445.62
543.64	42642.22
543.81	43030.75
543.98	42611.79
544.15	42492.43
544.32	42717.12
544.48	43217.99
544.65	42674.99
544.82	42906.70
544.99	42611.79
545.16	43100.97
545.32	42356.67
545.49	43129.05
545.66	43274.16
545.83	43042.45
546.00	43311.61
546.16	43119.69
546.33	42667.97
546.50	42969.90
546.67	43084.58
546.83	42801.38
547.00	43234.38
547.17	42981.60
547.34	43065.86
547.50	43084.58
547.67	43620.56
547.84	43384.17
548.00	43686.10
548.17	43669.72
548.34	43538.65
548.51	43936.54
548.67	43606.52
548.84	43569.07
549.01	43601.84
549.18	43524.60
549.34	43613.54
549.51	43730.57
549.68	44060.58
549.84	43856.96
550.01	44353.15
550.18	43831.21
550.34	44212.72
550.51	43821.85
550.68	43875.68
550.84	43835.89
551.01	44065.27
551.18	43704.82
551.34	44203.36
551.51	44229.10
551.68	44648.06
551.84	44243.15
552.01	44261.87
552.18	43821.85
552.34	43707.16
552.51	44149.53
552.68	44322.72
552.84	44488.90
553.01	44528.69
553.18	43910.79
553.34	44294.64
553.51	44037.18
553.67	44587.21
553.84	44657.42
554.01	45052.97
554.17	44713.59
554.34	44617.63
554.51	44514.65
554.67	44549.76
554.84	44547.42
555.00	44378.90
555.17	44278.25
555.33	44545.08
555.50	44479.54
555.67	44346.13
555.83	44264.21
556.00	44428.05
556.16	45090.42
556.33	44706.57
556.50	44481.88
556.66	44711.25
556.83	44519.33
556.99	44875.09
557.16	44781.47
557.32	44697.21
557.49	45258.94
557.65	44896.16
557.82	45186.38
557.98	45045.95
558.15	45170.00
558.32	45130.21
558.48	45006.16
558.65	44779.13
558.81	44582.52
558.98	44856.37
559.14	44629.34
559.31	45205.11
559.47	44793.17
559.64	45188.72
559.80	45162.98
559.97	45223.83
560.13	44954.67
560.30	45048.29
560.46	45406.39
560.63	45209.79
560.79	45333.84
560.96	45226.17
561.12	45127.87
561.29	45333.84
561.45	45378.31
561.61	45921.31
561.78	45528.10
561.94	44760.40
562.11	45434.48
562.27	45661.51
562.44	45375.97
562.60	45485.97
562.77	45378.31
562.93	45420.44
563.10	45350.22
563.26	45422.78
563.42	45530.44
563.59	45567.89
563.75	45525.76
563.92	45839.39
564.08	45390.01
564.24	45797.26
564.41	45743.43
564.57	45406.39
564.74	45471.93
564.90	45551.51
565.07	45270.64
565.23	45907.27
565.39	45532.78
565.56	45734.07
565.72	45591.30
565.88	45429.80
566.05	45411.07
566.21	45848.75
566.38	45415.76
566.54	45378.31
566.70	45619.38
566.87	45977.48
567.03	45778.54
567.19	46604.75
567.36	45862.80
567.52	45235.53
567.68	46073.45
567.85	45457.88
568.01	45780.88
568.17	45698.96
568.34	46075.79
568.50	46073.45
568.66	45741.09
568.83	45549.17
568.99	45666.19
569.15	45624.06
569.32	45464.91
569.48	45715.34
569.64	45886.20
569.81	46248.99
569.97	45820.67
570.13	45717.68
570.30	45577.25
570.46	45631.08
570.62	45476.61
570.78	45647.47
570.95	45827.69
571.11	45837.05
571.27	46014.93
571.43	45464.91
571.60	46012.59
571.76	45422.78
571.92	46050.04
572.09	45958.76
572.25	45762.15
572.41	45947.06
572.57	46157.70
572.74	46424.53
572.90	46021.95
573.06	45951.74
573.22	45879.18
573.38	45724.71
573.55	45949.40
573.71	45797.26
573.87	45979.82
574.03	45764.49
574.20	45991.53
574.36	46162.39
574.52	45724.71
574.68	45879.18
574.84	45869.82
575.01	45731.73
575.17	45666.19
575.33	45961.10
575.49	46103.87
575.65	45750.45
575.82	46485.38
575.98	45848.75
576.14	46410.48
576.30	46291.12
576.46	46078.13
576.62	45727.05
576.79	46160.05
576.95	45579.59
577.11	46199.83
577.27	45984.51
577.43	45818.33
577.59	46101.53
577.75	45741.09
577.92	45776.20
578.08	45518.74
578.24	45750.45
578.40	46146.00
578.56	45916.63
578.72	46059.40
578.88	46171.75
579.04	46373.03
579.21	46012.59
579.37	46087.49
579.53	46075.79
579.69	46110.89
579.85	46003.23
580.01	45895.56
580.17	45979.82
580.33	46136.64
580.49	46209.20
580.65	46321.54
580.82	45841.73
580.98	46052.38
581.14	45921.31
581.30	46382.40
581.46	46167.07
581.62	46466.66
581.78	46330.90
581.94	45893.22
582.10	46057.06
582.26	46370.69
582.42	46195.15
582.58	45986.85
582.74	46176.43
582.90	46068.76
583.06	46309.84
583.22	46178.77
583.38	46012.59
583.54	46461.97
583.70	46146.00
583.86	46550.91
584.02	46141.32
584.18	46326.22
584.34	45776.20
584.50	45813.65
584.66	45675.55
584.82	45839.39
584.98	46260.69
585.14	45907.27
585.30	45298.73
585.46	46265.37
585.62	46101.53
585.78	45778.54
585.94	45530.44
586.10	45982.16
586.26	45923.65
586.42	46831.78
586.58	46440.91
586.74	45914.29
586.90	46155.36
587.06	46059.40
587.22	45970.46
587.38	45918.97
587.54	46511.13
587.70	46410.48
587.86	46192.81
588.02	45893.22
588.18	46382.40
588.34	46298.14
588.49	45525.76
588.65	45097.44
588.81	45368.94
588.97	45855.78
589.13	45708.32
589.29	45776.20
589.45	45823.01
589.61	45851.09
589.77	46047.70
589.93	46312.18
