SpectraSuite Data File
++++++++++++++++++++++++++++++++++++
Date: Fri Oct 25 11:25:20 EDT 2013
User: price-jones
Dark Spectrum Present: No
Reference Spectrum Present: No
Number of Sampled Component Spectra: 1
Spectrometers: USB2+H05261
Integration Time (usec): 100000 (USB2+H05261)
Spectra Averaged: 1 (USB2+H05261)
Boxcar Smoothing: 0 (USB2+H05261)
Correct for Electrical Dark: No (USB2+H05261)
Strobe/Lamp Enabled: No (USB2+H05261)
Correct for Detector Non-linearity: No (USB2+H05261)
Correct for Stray Light: No (USB2+H05261)
Number of Pixels in Processed Spectrum: 2048
>>>>>Begin Processed Spectral Data<<<<<
365.73	259.80
365.92	259.80
366.12	259.80
366.32	191.92
366.52	168.52
366.72	194.26
366.91	84.26
367.11	152.13
367.31	142.77
367.51	154.48
367.70	114.69
367.90	124.05
368.10	81.92
368.30	74.90
368.49	114.69
368.69	205.97
368.89	152.13
369.09	161.50
369.28	166.18
369.48	135.75
369.68	100.64
369.87	231.71
370.07	175.54
370.27	231.71
370.47	252.78
370.66	540.66
370.86	634.29
371.06	620.24
371.25	657.69
371.45	613.22
371.65	648.33
371.84	657.69
372.04	709.18
372.24	629.60
372.44	627.26
372.63	772.38
372.83	751.31
373.03	725.57
373.22	725.57
373.42	770.04
373.62	772.38
373.81	755.99
374.01	791.10
374.21	835.57
374.40	777.06
374.60	844.93
374.79	798.12
374.99	896.43
375.19	791.10
375.38	793.44
375.58	833.23
375.78	866.00
375.97	858.98
376.17	891.74
376.37	786.42
376.56	842.59
376.76	919.83
376.95	952.60
377.15	877.70
377.35	816.85
377.54	861.32
377.74	894.08
377.93	912.81
378.13	894.08
378.33	910.47
378.52	985.37
378.72	924.51
378.91	931.53
379.11	971.32
379.31	1006.43
379.50	1034.52
379.70	1029.84
379.89	987.71
380.09	952.60
380.28	985.37
380.48	880.04
380.68	992.39
380.87	1022.81
381.07	1076.65
381.26	961.96
381.46	1032.18
381.65	1036.86
381.85	987.71
382.04	1078.99
382.24	987.71
382.43	1083.67
382.63	1032.18
382.83	1057.92
383.02	1160.91
383.22	1144.52
383.41	1046.22
383.61	1071.97
383.80	1053.24
384.00	1076.65
384.19	1181.97
384.39	1111.75
384.58	1158.57
384.78	1172.61
384.97	1102.39
385.17	1116.44
385.36	1158.57
385.56	1158.57
385.75	1184.31
385.95	1247.51
386.14	1221.76
386.34	1156.22
386.53	1184.31
386.72	1158.57
386.92	1210.06
387.11	1259.21
387.31	1303.68
387.50	1259.21
387.70	1308.36
387.89	1256.87
388.09	1179.63
388.28	1317.72
388.48	1231.12
388.67	1210.06
388.86	1399.64
389.06	1334.11
389.25	1322.40
389.45	1235.80
389.64	1313.04
389.84	1420.71
390.03	1334.11
390.22	1411.34
390.42	1420.71
390.61	1385.60
390.81	1334.11
391.00	1455.81
391.19	1465.18
391.39	1453.47
391.58	1409.00
391.78	1460.49
391.97	1495.60
392.16	1507.30
392.36	1603.27
392.55	1533.05
392.75	1495.60
392.94	1582.20
393.13	1591.56
393.33	1409.00
393.52	1511.99
393.71	1671.14
393.91	1530.71
394.10	1556.46
394.29	1523.69
394.49	1593.90
394.68	1638.38
394.88	1675.82
395.07	1652.42
395.26	1540.07
395.46	1668.80
395.65	1701.57
395.84	1603.27
396.04	1668.80
396.23	1755.40
396.42	1820.94
396.62	1762.42
396.81	1664.12
397.00	1757.74
397.19	1832.64
397.39	1832.64
397.58	1760.08
397.77	1776.47
397.97	1792.85
398.16	1891.15
398.35	1816.26
398.55	1767.10
398.74	1867.75
398.93	1907.54
399.12	1926.26
399.32	1891.15
399.51	1912.22
399.70	2038.61
399.90	1933.28
400.09	2057.33
400.28	2022.22
400.47	1968.39
400.67	2104.14
400.86	2087.76
401.05	2031.58
401.24	2094.78
401.44	2087.76
401.63	2169.68
401.82	2043.29
402.01	2176.70
402.21	2087.76
402.40	2214.15
402.59	2246.91
402.78	2221.17
402.97	2195.42
403.17	2324.15
403.36	2296.07
403.55	2256.28
403.74	2319.47
403.93	2331.17
404.13	2349.90
404.32	2370.96
404.51	2389.69
404.70	2427.14
404.89	2347.56
405.09	2511.39
405.28	2469.27
405.47	2413.09
405.66	2473.95
405.85	2523.10
406.05	2464.58
406.24	2492.67
406.43	2588.63
406.62	2602.68
406.81	2656.51
407.00	2602.68
407.20	2541.82
407.39	2569.91
407.58	2740.77
407.77	2548.84
407.96	2696.30
408.15	2715.02
408.34	2799.28
408.54	2754.81
408.73	2768.85
408.92	2794.60
409.11	2888.22
409.30	2853.11
409.49	2750.13
409.68	2883.54
409.87	2857.79
410.07	2904.60
410.26	2841.41
410.45	2995.89
410.64	3141.00
410.83	3103.55
411.02	3012.27
411.21	3136.32
411.40	3101.21
411.59	3192.49
411.78	3162.06
411.98	3087.17
412.17	3269.73
412.36	3206.53
412.55	3150.36
412.74	3449.95
412.93	3346.97
413.12	3293.13
413.31	3506.12
413.50	3365.69
413.69	3375.05
413.88	3424.20
414.07	3588.04
414.26	3674.64
414.45	3552.93
414.64	3660.60
414.83	3606.77
415.02	3742.52
415.22	3728.47
415.41	3824.44
415.60	3777.62
415.79	3969.55
415.98	3786.99
416.17	4004.66
416.36	3939.12
416.55	3866.56
416.74	4117.00
416.93	4140.41
417.12	4208.28
417.31	4072.53
417.50	4065.51
417.69	4198.92
417.88	4140.41
418.07	4250.41
418.26	4250.41
418.45	4201.26
418.64	4465.74
418.83	4269.14
419.02	4360.42
419.21	4470.42
419.39	4360.42
419.58	4449.36
419.77	4381.48
419.96	4599.15
420.15	4582.77
420.34	4571.07
420.53	4496.17
420.72	4713.84
420.91	4610.86
421.10	4613.20
421.29	4770.01
421.48	4648.30
421.67	4688.09
421.86	4678.73
422.05	4664.69
422.24	4819.16
422.43	4664.69
422.61	4863.63
422.80	4842.57
422.99	4819.16
423.18	4851.93
423.37	4945.55
423.56	4950.23
423.75	4983.00
423.94	4821.50
424.13	4528.94
424.32	4552.34
424.50	4971.30
424.69	4936.19
424.88	5041.51
425.07	4985.34
425.26	4851.93
425.45	4950.23
425.64	5034.49
425.83	4851.93
426.01	4971.30
426.20	5011.09
426.39	4943.21
426.58	4924.49
426.77	5060.24
426.96	4975.98
427.15	5210.03
427.33	5275.57
427.52	5118.75
427.71	5170.24
427.90	5111.73
428.09	5081.30
428.28	5296.63
428.46	5341.10
428.65	5359.83
428.84	5458.13
429.03	5497.92
429.22	5305.99
429.40	5544.73
429.59	5518.98
429.78	5221.74
429.97	5336.42
430.16	5486.22
430.34	5619.63
430.53	5547.07
430.72	5692.18
430.91	5465.15
431.10	5582.18
431.28	5650.05
431.47	5596.22
431.66	5863.04
431.85	5753.04
432.03	5682.82
432.22	5895.81
432.41	5874.74
432.60	5874.74
432.79	6069.01
432.97	5919.21
433.16	5879.43
433.35	5858.36
433.54	6104.12
433.72	6047.94
433.91	5966.03
434.10	6104.12
434.28	6026.88
434.47	6139.23
434.66	6267.95
434.85	6127.52
435.03	6347.53
435.22	6218.80
435.41	6480.94
435.59	6333.49
435.78	6363.92
435.97	6403.71
436.16	6492.65
436.34	6544.14
436.53	6581.59
436.72	6567.54
436.90	6338.17
437.09	6642.44
437.28	6509.03
437.46	6658.82
437.65	6630.74
437.84	6815.64
438.02	6658.82
438.21	6614.35
438.40	6534.78
438.58	6869.47
438.77	6883.52
438.96	6965.43
439.14	7063.74
439.33	7056.72
439.52	7070.76
439.70	7208.85
439.89	7190.13
440.08	7255.66
440.26	7297.79
440.45	7360.98
440.63	7456.95
440.82	7321.20
441.01	7419.50
441.19	7534.18
441.38	7625.47
441.57	7700.36
441.75	7751.85
441.94	7812.71
442.12	7894.63
442.31	7873.56
442.50	7913.35
442.68	8028.04
442.87	8147.40
443.05	8128.68
443.24	8191.88
443.43	8128.68
443.61	8044.42
443.80	8222.30
443.98	8088.89
444.17	7815.05
444.35	8154.43
444.54	8411.89
444.73	8299.54
444.91	8114.64
445.10	8292.52
445.28	8248.05
445.47	8252.73
445.65	8283.16
445.84	8351.03
446.02	8554.66
446.21	8402.52
446.39	8273.79
446.58	8549.98
446.77	8294.86
446.95	8065.49
447.14	8421.25
447.32	8524.23
447.51	8386.14
447.69	8358.05
447.88	8538.27
448.06	8327.63
448.25	8388.48
448.43	8554.66
448.62	8374.44
448.80	8416.57
448.99	8648.28
449.17	8458.70
449.36	8339.33
449.54	8992.34
449.73	8784.03
449.91	8571.04
450.10	8812.12
450.28	8985.32
450.46	8840.20
450.65	8987.66
450.83	9039.15
451.02	8816.80
451.20	9043.83
451.39	9121.07
451.57	8987.66
451.76	8952.55
451.94	9254.48
452.13	9355.12
452.31	9177.24
452.49	9289.59
452.68	9135.11
452.86	9343.42
453.05	9273.20
453.23	9469.81
453.42	9415.98
453.60	9226.39
453.78	9617.26
453.97	9291.93
454.15	9228.73
454.34	9289.59
454.52	9617.26
454.70	9685.14
454.89	9699.18
455.07	9682.80
455.26	9806.84
455.44	9795.14
455.62	9776.42
455.81	9710.88
455.99	9703.86
456.17	10017.49
456.36	9813.87
456.54	10106.43
456.73	10094.73
456.91	10394.32
457.09	10284.31
457.28	10445.81
457.46	10242.18
457.64	10731.36
457.83	10417.72
458.01	10473.90
458.19	10506.66
458.38	10485.60
458.56	10422.41
458.74	10544.11
458.93	10541.77
459.11	10623.69
459.29	10649.44
459.48	10597.95
459.66	10604.97
459.84	10768.80
460.03	11084.78
460.21	10871.79
460.39	10930.30
460.57	10806.25
460.76	11021.58
460.94	10899.87
461.12	11014.56
461.31	11117.54
461.49	11124.57
461.67	11218.19
461.85	11492.03
462.04	11147.97
462.22	11726.08
462.40	11375.00
462.59	11487.35
462.77	11494.37
462.95	11503.73
463.13	11447.56
463.32	11283.72
463.50	11775.24
463.68	11653.53
463.86	11784.60
464.05	11557.57
464.23	11527.14
464.41	11770.55
464.59	11218.19
464.78	12100.57
464.96	12128.66
465.14	11707.36
465.32	12006.95
465.50	11864.18
465.69	12025.67
465.87	11777.58
466.05	12156.74
466.23	11864.18
466.41	12114.61
466.60	12257.39
466.78	12152.06
466.96	12187.17
467.14	12079.50
467.32	12390.80
467.51	12236.32
467.69	12133.34
467.87	12395.48
468.05	12606.13
468.23	12308.88
468.41	12280.79
468.60	12222.28
468.78	12545.27
468.96	12271.43
469.14	12479.74
469.32	12872.95
469.50	12650.60
469.69	12844.86
469.87	12849.54
470.05	12966.57
470.23	13184.24
470.41	13071.89
470.59	13259.13
470.77	12910.40
470.95	12964.23
471.14	13502.55
471.32	13022.74
471.50	13509.57
471.68	13359.78
471.86	13748.31
472.04	13755.33
472.22	14150.88
472.40	13694.47
472.58	13722.56
472.77	13610.22
472.95	13891.08
473.13	14391.95
473.31	13874.70
473.49	14178.97
473.67	14113.43
473.85	14279.61
474.03	14413.02
474.21	14693.88
474.39	14504.30
474.57	14553.45
474.75	14668.14
474.93	14895.17
475.12	14761.76
475.30	15009.86
475.48	15229.87
475.66	14939.64
475.84	14916.23
476.02	15157.31
476.20	15183.06
476.38	15613.71
476.56	15903.94
476.74	15712.02
476.92	15697.97
477.10	15510.73
477.28	15868.83
477.46	15974.16
477.64	16203.53
477.82	16332.26
478.00	16699.72
478.18	16540.57
478.36	16709.08
478.54	16982.93
478.72	16699.72
478.90	17378.48
479.08	17493.16
479.26	17692.11
479.44	17589.13
479.62	17797.43
479.80	17654.66
479.98	17858.29
480.16	18335.76
480.34	18052.55
480.52	18204.69
480.70	18658.75
480.88	18560.45
481.06	18663.43
481.24	18719.60
481.41	18834.29
481.59	19211.12
481.77	19264.95
481.95	19377.30
482.13	19522.41
482.31	19524.75
482.49	20093.50
482.67	19913.28
482.85	20350.96
483.03	20369.68
483.21	20650.55
483.39	21067.16
483.57	20737.15
483.74	20999.29
483.92	21177.17
484.10	20879.92
484.28	21717.83
484.46	21804.43
484.64	22389.56
484.82	22111.04
485.00	21785.71
485.18	22408.29
485.35	22782.77
485.53	22431.69
485.71	22750.01
485.89	23396.00
486.07	22984.06
486.25	23328.12
486.43	23580.90
486.61	23655.79
486.78	23597.28
486.96	24154.33
487.14	24336.89
487.32	24388.38
487.50	24807.34
487.68	24863.51
487.85	25149.06
488.03	25282.47
488.21	25717.81
488.39	25462.69
488.57	25663.97
488.75	25954.20
488.92	26515.93
489.10	26476.14
489.28	26199.96
489.46	26796.79
489.64	27208.73
489.81	27522.36
489.99	27585.55
490.17	27674.49
490.35	28208.14
490.53	27896.85
490.70	28051.32
490.88	27960.04
491.06	28294.74
491.24	28884.55
491.41	28769.86
491.59	29041.37
491.77	28938.38
491.95	29584.37
492.13	29493.09
492.30	29694.38
492.48	29488.41
492.66	29923.75
492.84	30265.47
493.01	30602.50
493.19	30352.07
493.37	31215.72
493.54	30773.36
493.72	31243.81
493.90	31110.40
494.08	31630.00
494.25	31725.96
494.43	31622.98
494.61	31990.44
494.79	32264.28
494.96	32180.03
495.14	32575.58
495.32	32786.22
495.49	33048.36
495.67	33125.60
495.85	33392.42
496.02	33319.87
496.20	34019.69
496.38	33813.72
496.55	34080.54
496.73	34749.93
496.91	33797.34
497.09	34466.73
497.26	34616.52
497.44	34440.98
497.62	34707.80
497.79	35559.76
497.97	35061.22
498.14	35637.00
498.32	35653.38
498.50	36137.87
498.67	36016.16
498.85	36474.91
499.03	36378.95
499.20	36765.14
499.38	36503.00
499.56	36767.48
499.73	36580.23
499.91	37099.83
500.08	37469.64
500.26	37303.46
500.44	37156.00
500.61	37787.95
500.79	37352.61
500.97	38169.46
501.14	38071.15
501.32	38436.28
501.49	38359.04
501.67	38328.61
501.84	38665.65
502.02	38749.91
502.20	38546.28
502.37	38941.83
502.55	39030.77
502.72	39124.40
502.90	39367.81
503.07	39103.33
503.25	39349.09
503.43	39604.20
503.60	39880.39
503.78	39545.69
503.95	39861.66
504.13	40245.51
504.30	40353.18
504.48	40240.83
504.65	39845.28
504.83	40802.56
505.01	40861.07
505.18	40776.81
505.36	41652.17
505.53	41048.32
505.71	41141.94
505.88	41504.72
506.06	41237.90
506.23	41689.62
506.41	41361.95
506.58	41731.75
506.76	41553.87
506.93	42127.30
507.11	41937.72
507.28	42609.45
507.46	42382.42
507.63	42988.62
507.81	42852.87
507.98	42504.13
508.16	42831.80
508.33	43117.35
508.50	43356.08
508.68	43150.12
508.85	43014.37
509.03	43430.98
509.20	43583.12
509.38	44112.08
509.55	43753.97
509.73	44240.81
509.90	44177.61
510.08	44186.97
510.25	44140.16
510.42	44463.16
510.60	44346.13
510.77	44912.54
510.95	45071.70
511.12	44884.45
511.30	44854.03
511.47	44898.50
511.64	45467.25
511.82	45935.35
511.99	45663.85
512.17	45268.30
512.34	45591.30
512.51	45853.44
512.69	46080.47
512.86	46213.88
513.04	46244.30
513.21	46010.25
513.38	46614.11
513.56	46363.67
513.73	46749.86
513.90	46508.79
514.08	46281.75
514.25	46698.37
514.43	46672.62
514.60	46794.33
514.77	46770.93
514.95	47501.17
515.12	47192.22
515.29	47124.35
515.47	47693.10
515.64	47873.32
515.81	47737.57
515.99	47852.25
516.16	47971.62
516.33	47716.50
516.51	48315.68
516.68	47938.85
516.85	48093.33
517.03	48549.73
517.20	48491.22
517.37	48727.61
517.54	48275.89
517.72	48294.61
517.89	48699.53
518.06	48715.91
518.24	48912.52
518.41	48912.52
518.58	49120.82
518.75	48580.16
518.93	49298.70
519.10	49031.88
519.27	49640.42
519.45	49275.30
519.62	49560.84
519.79	49734.04
519.96	49752.77
520.14	49808.94
520.31	49581.91
520.48	50349.60
520.65	49895.54
520.83	50211.51
521.00	50279.39
521.17	50298.11
521.34	50199.81
521.52	50794.31
521.69	50602.38
521.86	50796.65
522.03	50670.26
522.20	51133.68
522.38	51103.26
522.55	50983.89
522.72	51140.71
522.89	51192.20
523.07	51409.87
523.24	51405.19
523.41	51632.22
523.58	51072.83
523.75	51517.53
523.92	51536.26
524.10	51653.28
524.27	51569.02
524.44	51793.71
524.61	51737.54
524.78	51861.59
524.96	51784.35
525.13	51966.91
525.30	52168.20
525.47	52341.40
525.64	52222.03
525.81	52268.84
525.98	52666.73
526.16	52353.10
526.33	52474.81
526.50	52669.08
526.67	52502.90
526.84	52683.12
527.01	52446.72
527.18	52814.19
527.36	52893.77
527.53	53120.80
527.70	53263.57
527.87	52945.26
528.04	53081.01
528.21	53139.52
528.38	53282.30
528.55	53167.61
528.72	53172.29
528.89	53244.85
529.07	52982.71
529.24	53296.34
529.41	53691.89
529.58	53420.39
529.75	53698.91
529.92	53801.89
530.09	53427.41
530.26	53771.47
530.43	53757.42
530.60	53521.03
530.77	53712.95
530.94	53986.80
531.11	53879.13
531.28	54096.80
531.46	54117.87
531.63	53900.20
531.80	53991.48
531.97	54080.42
532.14	54052.33
532.31	53970.41
532.48	54351.92
532.65	54403.41
532.82	54354.26
532.99	54335.54
533.16	54316.81
533.33	54482.99
533.50	54557.89
533.67	54658.53
533.84	54583.63
534.01	54878.54
534.18	54630.44
534.35	54944.08
534.52	54993.23
534.69	54972.16
534.86	54820.03
535.03	54813.01
535.20	55016.63
535.37	55084.51
535.54	55150.04
535.71	54976.84
535.88	55257.71
536.05	55304.52
536.22	55379.42
536.38	55297.50
536.55	55482.40
536.72	55477.72
536.89	55290.48
537.06	55360.69
537.23	55585.38
537.40	55262.39
537.57	55475.38
537.74	55372.39
537.91	55559.64
538.08	55821.78
538.25	55634.53
538.42	55870.93
538.59	55868.59
538.75	55772.63
538.92	55709.43
539.09	55966.89
539.26	55854.54
539.43	56102.64
539.60	55971.57
539.77	56119.02
539.94	56266.48
540.11	56233.71
540.28	56121.37
540.44	56238.39
540.61	56128.39
540.78	56172.86
540.95	56233.71
541.12	56156.47
541.29	56172.86
541.46	56257.12
541.62	56200.94
541.79	56512.23
541.96	56348.40
542.13	56376.48
542.30	56404.57
542.47	56601.18
542.63	56502.87
542.80	56980.34
542.97	56985.02
543.14	56914.81
543.31	57088.01
543.48	57041.20
543.64	57176.95
543.81	57181.63
543.98	57181.63
544.15	57228.44
544.32	57357.17
544.48	57462.49
544.65	57120.77
544.82	57368.87
544.99	57050.56
545.16	57244.82
545.32	57153.54
545.49	57333.76
545.66	57340.78
545.83	57329.08
546.00	57506.96
546.16	57357.17
546.33	57453.13
546.50	57186.31
546.67	57205.03
546.83	57247.16
547.00	57752.72
547.17	57471.85
547.34	57567.82
547.50	57897.83
547.67	57680.16
547.84	57743.36
548.00	57893.15
548.17	57902.51
548.34	57836.98
548.51	57961.03
548.67	57895.49
548.84	58052.31
549.01	57986.77
549.18	57954.00
549.34	57923.58
549.51	57879.11
549.68	58150.61
549.84	58321.47
550.01	58192.74
550.18	58094.44
550.34	58328.49
550.51	58230.19
550.68	58277.00
550.84	57956.35
551.01	58335.51
551.18	58251.25
551.34	58274.66
551.51	58419.77
551.68	58375.30
551.84	58333.17
552.01	58220.83
552.18	58389.34
552.34	58277.00
552.51	58560.20
552.68	58464.24
552.84	58382.32
553.01	58597.65
553.18	58749.79
553.34	58630.42
553.51	58433.81
553.67	58548.50
553.84	58820.00
554.01	58834.05
554.17	58812.98
554.34	58974.48
554.51	58824.68
554.67	59079.80
554.84	58789.58
555.00	58815.32
555.17	58660.85
555.33	58979.16
555.50	58855.11
555.67	58728.72
555.83	58710.00
556.00	59054.06
556.16	59243.64
556.33	59128.95
556.50	58864.47
556.66	58986.18
556.83	58965.12
556.99	59407.48
557.16	59217.89
557.32	59372.37
557.49	59489.40
557.65	59185.13
557.82	59140.66
557.98	59283.43
558.15	59100.87
558.32	59274.07
558.48	59105.55
558.65	59363.01
558.81	59355.99
558.98	59475.35
559.14	59166.40
559.31	59274.07
559.47	59564.29
559.64	59325.56
559.80	59374.71
559.97	59355.99
560.13	59608.76
560.30	59440.24
560.46	59653.23
560.63	59604.08
560.79	59585.36
560.96	59671.96
561.12	59480.03
561.29	59711.75
561.45	59416.84
561.61	59547.91
561.78	59711.75
561.94	59456.63
562.11	59587.70
562.27	59639.19
562.44	59707.07
562.60	59732.81
562.77	59625.15
562.93	59538.55
563.10	59861.54
563.26	59760.90
563.42	59992.61
563.59	60004.31
563.75	59714.09
563.92	59882.61
564.08	59929.42
564.24	59887.29
564.41	59826.43
564.57	59994.95
564.74	60016.02
564.90	59920.05
565.07	59934.10
565.23	59863.88
565.39	59849.84
565.56	59866.22
565.72	60069.85
565.88	59992.61
566.05	60020.70
566.21	59774.94
566.38	60072.19
566.54	60142.41
566.70	60287.52
566.87	60236.03
567.03	60243.05
567.19	60156.45
567.36	59985.59
567.52	60123.68
567.68	60463.06
567.85	59957.50
568.01	60229.01
568.17	60074.53
568.34	60392.84
568.50	60018.36
568.66	60086.23
568.83	60149.43
568.99	59992.61
569.15	60165.81
569.32	60196.24
569.48	60140.07
569.64	60296.88
569.81	60275.82
569.97	60137.72
570.13	60268.79
570.30	60135.38
570.46	60306.24
570.62	60381.14
570.78	60336.67
570.95	60315.61
571.11	60544.98
571.27	60154.11
571.43	60308.58
571.60	60465.40
571.76	60456.04
571.92	60395.18
572.09	60418.59
572.25	60362.42
572.41	60247.73
572.57	60346.03
572.74	60477.10
572.90	60416.25
573.06	60603.49
573.22	60451.36
573.38	60533.28
573.55	60292.20
573.71	60425.61
573.87	60411.57
574.03	60339.01
574.20	60624.56
574.36	60264.11
574.52	60430.29
574.68	60519.23
574.84	60519.23
575.01	60479.44
575.17	60434.97
575.33	60343.69
575.49	60423.27
575.65	60563.70
575.82	60420.93
575.98	60502.85
576.14	60767.33
576.30	60633.92
576.46	60437.31
576.62	60418.59
576.79	60416.25
576.95	60327.31
577.11	60552.00
577.27	60699.45
577.43	60650.30
577.59	60624.56
577.75	60458.38
577.92	60456.04
578.08	60552.00
578.24	60364.76
578.40	60720.52
578.56	60720.52
578.72	60732.22
578.88	60781.37
579.04	60755.63
579.21	60804.78
579.37	60954.57
579.53	60701.79
579.69	60402.21
579.85	60582.43
580.01	60500.51
580.17	60439.65
580.33	60601.15
580.49	60867.97
580.65	60849.25
580.82	60650.30
580.98	60526.25
581.14	60654.98
581.30	60790.73
581.46	60694.77
581.62	60865.63
581.78	60678.39
581.94	60800.10
582.10	60797.76
582.26	60757.97
582.42	60507.53
582.58	60659.66
582.74	60701.79
582.90	60757.97
583.06	60683.07
583.22	60568.38
583.38	60711.16
583.54	60828.18
583.70	60608.17
583.86	60935.85
584.02	60750.94
584.18	61057.56
584.34	60804.78
584.50	60753.29
584.66	60830.52
584.82	60654.98
584.98	60804.78
585.14	60849.25
585.30	60687.75
585.46	60867.97
585.62	60776.69
585.78	60914.78
585.94	60547.32
586.10	60945.21
586.26	60985.00
586.42	60757.97
586.58	60926.49
586.74	60954.57
586.90	60856.27
587.06	60762.65
587.22	60968.61
587.38	60977.98
587.54	61003.72
587.70	60924.14
587.86	60989.68
588.02	61034.15
588.18	60898.40
588.34	60893.72
588.49	60926.49
