SpectraSuite Data File
++++++++++++++++++++++++++++++++++++
Date: Fri Oct 25 11:25:59 EDT 2013
User: price-jones
Dark Spectrum Present: No
Reference Spectrum Present: No
Number of Sampled Component Spectra: 1
Spectrometers: USB2+H05261
Integration Time (usec): 100000 (USB2+H05261)
Spectra Averaged: 1 (USB2+H05261)
Boxcar Smoothing: 0 (USB2+H05261)
Correct for Electrical Dark: No (USB2+H05261)
Strobe/Lamp Enabled: No (USB2+H05261)
Correct for Detector Non-linearity: No (USB2+H05261)
Correct for Stray Light: No (USB2+H05261)
Number of Pixels in Processed Spectrum: 2048
>>>>>Begin Processed Spectral Data<<<<<
365.73	238.73
365.92	238.73
366.12	238.73
366.32	154.48
366.52	170.86
366.72	231.71
366.91	159.16
367.11	173.20
367.31	121.71
367.51	112.35
367.70	105.32
367.90	98.30
368.10	159.16
368.30	112.35
368.49	117.03
368.69	184.90
368.89	128.73
369.09	170.86
369.28	175.54
369.48	81.92
369.68	177.88
369.87	140.43
370.07	187.24
370.27	166.18
370.47	273.84
370.66	622.58
370.86	545.34
371.06	664.71
371.25	727.91
371.45	667.05
371.65	613.22
371.84	678.76
372.04	667.05
372.24	751.31
372.44	683.44
372.63	760.67
372.83	772.38
373.03	807.48
373.22	821.53
373.42	732.59
373.62	819.19
373.81	730.25
374.01	770.04
374.21	866.00
374.40	814.51
374.60	786.42
374.79	814.51
374.99	938.55
375.19	812.17
375.38	821.53
375.58	873.02
375.78	828.55
375.97	926.85
376.17	866.00
376.37	903.45
376.56	894.08
376.76	868.34
376.95	889.40
377.15	873.02
377.35	912.81
377.54	1004.09
377.74	964.30
377.93	884.72
378.13	856.64
378.33	985.37
378.52	898.77
378.72	992.39
378.91	954.94
379.11	931.53
379.31	973.66
379.50	997.07
379.70	959.62
379.89	980.68
380.09	976.00
380.28	938.55
380.48	978.34
380.68	945.58
380.87	973.66
381.07	1081.33
381.26	1018.13
381.46	1088.35
381.65	1011.11
381.85	1053.24
382.04	1057.92
382.24	987.71
382.43	1041.54
382.63	1069.62
382.83	1100.05
383.02	1125.80
383.22	1034.52
383.41	1071.97
383.61	1107.07
383.80	1153.88
384.00	1097.71
384.19	1167.93
384.39	1238.14
384.58	1210.06
384.78	1104.73
384.97	1203.04
385.17	1184.31
385.36	1142.18
385.56	1245.16
385.75	1158.57
385.95	1078.99
386.14	1280.27
386.34	1153.88
386.53	1200.69
386.72	1228.78
386.92	1196.01
387.11	1266.23
387.31	1263.89
387.50	1217.08
387.70	1275.59
387.89	1217.08
388.09	1231.12
388.28	1212.40
388.48	1263.89
388.67	1371.55
388.86	1228.78
389.06	1376.24
389.25	1352.83
389.45	1315.38
389.64	1245.16
389.84	1411.34
390.03	1348.15
390.22	1390.28
390.42	1394.96
390.61	1446.45
390.81	1376.24
391.00	1397.30
391.19	1483.90
391.39	1467.52
391.58	1399.64
391.78	1420.71
391.97	1537.73
392.16	1509.65
392.36	1519.01
392.55	1528.37
392.75	1502.62
392.94	1500.28
393.13	1565.82
393.33	1420.71
393.52	1544.75
393.71	1465.18
393.91	1598.59
394.10	1544.75
394.29	1502.62
394.49	1591.56
394.68	1603.27
394.88	1654.76
395.07	1624.33
395.26	1596.25
395.46	1636.03
395.65	1743.70
395.84	1703.91
396.04	1769.44
396.23	1778.81
396.42	1640.72
396.62	1736.68
396.81	1802.21
397.00	1783.49
397.19	1842.00
397.39	1813.92
397.58	1748.38
397.77	1806.89
397.97	1827.96
398.16	1820.94
398.35	1926.26
398.55	1884.13
398.74	1916.90
398.93	1893.49
399.12	1886.47
399.32	1907.54
399.51	1935.62
399.70	2083.08
399.90	2008.18
400.09	1937.96
400.28	1961.37
400.47	2122.87
400.67	2059.67
400.86	2174.36
401.05	2083.08
401.24	2188.40
401.44	2179.04
401.63	2148.61
401.82	2174.36
402.01	2221.17
402.21	2111.16
402.40	2190.74
402.59	2258.62
402.78	2181.38
402.97	2260.96
403.17	2289.04
403.36	2202.44
403.55	2186.06
403.74	2331.17
403.93	2399.05
404.13	2532.46
404.32	2422.45
404.51	2422.45
404.70	2275.00
404.89	2434.16
405.09	2445.86
405.28	2457.56
405.47	2462.24
405.66	2387.35
405.85	2516.08
406.05	2576.93
406.24	2581.61
406.43	2455.22
406.62	2588.63
406.81	2684.59
407.00	2686.94
407.20	2665.87
407.39	2675.23
407.58	2661.19
407.77	2754.81
407.96	2883.54
408.15	2780.56
408.34	2696.30
408.54	2827.37
408.73	2752.47
408.92	2789.92
409.11	2799.28
409.30	2846.09
409.49	2864.82
409.68	2906.95
409.87	3014.61
410.07	3061.42
410.26	3066.10
410.45	2986.52
410.64	3084.83
410.83	3145.68
411.02	3122.27
411.21	3080.14
411.40	3176.11
411.59	3052.06
411.78	3124.62
411.98	3159.72
412.17	3178.45
412.36	3353.99
412.55	3382.07
412.74	3377.39
412.93	3330.58
413.12	3227.60
413.31	3475.70
413.50	3529.53
413.69	3471.01
413.88	3588.04
414.07	3585.70
414.26	3651.24
414.45	3641.87
414.64	3700.39
414.83	3712.09
415.02	3693.37
415.22	3822.09
415.41	3845.50
415.60	3866.56
415.79	3932.10
415.98	3955.51
416.17	4067.85
416.36	3922.74
416.55	4042.11
416.74	4166.15
416.93	4025.72
417.12	4002.32
417.31	4313.61
417.50	4208.28
417.69	4187.22
417.88	4248.07
418.07	4224.67
418.26	4269.14
418.45	4259.78
418.64	4393.19
418.83	4407.23
419.02	4348.72
419.21	4500.85
419.39	4447.02
419.58	4458.72
419.77	4388.50
419.96	4416.59
420.15	4545.32
420.34	4503.19
420.53	4608.51
420.72	4542.98
420.91	4638.94
421.10	4596.81
421.29	4809.80
421.48	4681.07
421.67	4788.74
421.86	4657.67
422.05	4751.29
422.24	4760.65
422.43	4915.12
422.61	4922.15
422.80	4922.15
422.99	4877.68
423.18	5001.72
423.37	5036.83
423.56	4865.97
423.75	4791.08
423.94	4826.18
424.13	4760.65
424.32	4716.18
424.50	4828.53
424.69	5207.69
424.88	5062.58
425.07	4966.62
425.26	4854.27
425.45	5107.05
425.64	4980.66
425.83	4865.97
426.01	5207.69
426.20	5132.79
426.39	5125.77
426.58	4973.64
426.77	5139.82
426.96	5085.98
427.15	5128.11
427.33	5294.29
427.52	5144.50
427.71	5305.99
427.90	5128.11
428.09	5256.84
428.28	5345.78
428.46	5329.40
428.65	5420.68
428.84	5572.82
429.03	5427.70
429.22	5165.56
429.40	5322.38
429.59	5617.29
429.78	5385.57
429.97	5249.82
430.16	5448.77
430.34	5481.53
430.53	5657.07
430.72	5568.13
430.91	5621.97
431.10	5724.95
431.28	5870.06
431.47	5778.78
431.66	5877.09
431.85	5994.11
432.03	6029.22
432.22	5933.26
432.41	5921.56
432.60	5912.19
432.79	6113.48
432.97	6012.84
433.16	5959.00
433.35	6139.23
433.54	5921.56
433.72	6197.74
433.91	6106.46
434.10	6368.60
434.28	6005.81
434.47	6148.59
434.66	6106.46
434.85	6443.49
435.03	6314.77
435.22	6164.97
435.41	6686.91
435.59	6492.65
435.78	6352.21
435.97	6471.58
436.16	6445.84
436.34	6380.30
436.53	6630.74
436.72	6640.10
436.90	6387.32
437.09	6602.65
437.28	6485.62
437.46	6899.90
437.65	6569.88
437.84	6707.98
438.02	6630.74
438.21	6736.06
438.40	6710.32
438.58	6822.66
438.77	7023.95
438.96	6888.20
439.14	7066.08
439.33	7028.63
439.52	7185.44
439.70	7155.02
439.89	7236.94
440.08	7410.14
440.26	7417.16
440.45	7178.42
440.63	7550.57
440.82	7611.42
441.01	7461.63
441.19	7569.29
441.38	7681.64
441.57	7861.86
441.75	7831.43
441.94	7927.39
442.12	7889.95
442.31	7981.23
442.50	7922.71
442.68	7943.78
442.87	8025.70
443.05	8018.68
443.24	8205.92
443.43	8196.56
443.61	8039.74
443.80	8372.10
443.98	8009.31
444.17	7709.72
444.35	8147.40
444.54	8379.12
444.73	8297.20
444.91	8187.19
445.10	8236.35
445.28	8299.54
445.47	8182.51
445.65	8348.69
445.84	8264.43
446.02	8566.36
446.21	8264.43
446.39	8451.67
446.58	8465.72
446.77	8402.52
446.95	8126.34
447.14	8463.38
447.32	8493.80
447.51	8500.83
447.69	8407.20
447.88	8456.36
448.06	8374.44
448.25	8369.76
448.43	8463.38
448.62	8596.79
448.80	8416.57
448.99	8702.11
449.17	8681.05
449.36	8702.11
449.54	8746.58
449.73	8919.78
449.91	8940.85
450.10	8863.61
450.28	9055.53
450.46	9088.30
450.65	9118.73
450.83	9146.81
451.02	9102.34
451.20	9043.83
451.39	9130.43
451.57	9001.70
451.76	9102.34
451.94	9074.26
452.13	9441.72
452.31	9394.91
452.49	9200.65
452.68	9186.60
452.86	9334.06
453.05	9294.27
453.23	9408.95
453.42	9383.21
453.60	9348.10
453.78	9495.55
453.97	9273.20
454.15	9341.08
454.34	9394.91
454.52	9741.31
454.70	9586.83
454.89	9586.83
455.07	9589.17
455.26	9703.86
455.44	9961.32
455.62	9930.89
455.81	9731.95
455.99	9884.08
456.17	10005.79
456.36	9902.81
456.54	10083.03
456.73	10380.28
456.91	10459.85
457.09	10485.60
457.28	10719.65
457.46	10326.44
457.64	10408.36
457.83	10539.43
458.01	10406.02
458.19	10501.98
458.38	10387.30
458.56	10724.33
458.74	10499.64
458.93	10670.50
459.11	10705.61
459.29	10635.39
459.48	10988.82
459.66	10768.80
459.84	10965.41
460.03	11037.97
460.21	10773.49
460.39	10906.90
460.57	11028.60
460.76	10960.73
460.94	11133.93
461.12	11185.42
461.31	11068.39
461.49	11136.27
461.67	11021.58
461.85	11410.11
462.04	11257.98
462.22	11873.54
462.40	11824.39
462.59	11433.52
462.77	11461.60
462.95	11681.61
463.13	11604.38
463.32	11562.25
463.50	11690.98
463.68	11754.17
463.86	12044.40
464.05	11531.82
464.23	11716.72
464.41	12006.95
464.59	11744.81
464.78	12182.49
464.96	11812.68
465.14	11910.99
465.32	12035.03
465.50	12002.27
465.69	12025.67
465.87	12058.44
466.05	12210.57
466.23	12287.81
466.41	12067.80
466.60	12369.73
466.78	12259.73
466.96	12020.99
467.14	12070.14
467.32	12308.88
467.51	12538.25
467.69	12009.29
467.87	12442.29
468.05	12358.03
468.23	12482.08
468.41	12393.14
468.60	12697.41
468.78	12514.84
468.96	12589.74
469.14	12655.28
469.32	12982.95
469.50	12683.36
469.69	12678.68
469.87	13088.28
470.05	13107.00
470.23	12894.01
470.41	13142.11
470.59	13202.96
470.77	13259.13
470.95	13287.22
471.14	13472.12
471.32	13125.72
471.50	13614.90
471.68	13481.49
471.86	13584.47
472.04	13860.65
472.22	13907.46
472.40	13490.85
472.58	13687.45
472.77	13860.65
472.95	13994.06
473.13	14523.02
473.31	14052.58
473.49	14029.17
473.67	14001.08
473.85	14139.18
474.03	14656.43
474.21	14436.42
474.39	14349.82
474.57	14574.52
474.75	14562.81
474.93	14878.79
475.12	14794.53
475.30	15218.16
475.48	14864.74
475.66	15173.69
475.84	14897.51
476.02	15494.35
476.20	15389.02
476.38	15693.29
476.56	16088.84
476.74	15978.84
476.92	15800.96
477.10	15854.79
477.28	15927.35
477.46	15943.73
477.64	16226.93
477.82	16350.98
478.00	16908.03
478.18	16844.84
478.36	16615.46
478.54	17174.85
478.72	17018.04
478.90	17188.89
479.08	17514.23
479.26	17418.27
479.44	17830.20
479.62	17600.83
479.80	18104.04
479.98	18307.67
480.16	18752.37
480.34	18068.94
480.52	18712.58
480.70	18541.72
480.88	18462.15
481.06	18485.55
481.24	18504.28
481.41	19236.86
481.59	18958.34
481.77	19194.73
481.95	19627.73
482.13	19985.83
482.31	19623.05
482.49	20018.60
482.67	20538.20
482.85	20283.08
483.03	20702.04
483.21	20486.71
483.39	20739.49
483.57	20706.72
483.74	21254.40
483.92	21123.33
484.10	21102.27
484.28	21577.40
484.46	21954.22
484.64	22700.86
484.82	22080.61
485.00	22263.18
485.18	22576.81
485.35	23042.57
485.53	22630.64
485.71	22930.23
485.89	23304.71
486.07	23365.57
486.25	23473.23
486.43	23873.46
486.61	23824.31
486.78	23623.03
486.96	24196.46
487.14	24329.87
487.32	24437.53
487.50	24552.22
487.68	24978.20
487.85	25238.00
488.03	25486.09
488.21	26019.74
488.39	25827.81
488.57	25916.75
488.75	26366.13
488.92	26251.45
489.10	26616.57
489.28	26686.79
489.46	27075.32
489.64	26752.32
489.81	27613.64
489.99	27646.41
490.17	27733.01
490.35	28173.03
490.53	28044.30
490.70	28053.66
490.88	28318.14
491.06	28835.40
491.24	28828.38
491.41	29069.45
491.59	29156.05
491.77	29385.43
491.95	29708.42
492.13	29752.89
492.30	29736.51
492.48	30101.63
492.66	30534.63
492.84	30331.00
493.01	30642.29
493.19	30277.17
493.37	30874.01
493.54	30766.34
493.72	31218.07
493.90	31295.30
494.08	31835.97
494.25	31627.66
494.43	32079.38
494.61	32095.77
494.79	32341.52
494.96	32341.52
495.14	32280.67
495.32	32849.42
495.49	33137.30
495.67	33242.63
495.85	33537.54
496.02	33502.43
496.20	34253.74
496.38	33841.81
496.55	34464.39
496.73	34586.10
496.91	34272.46
497.09	34824.83
497.26	34967.60
497.44	34581.42
497.62	34960.58
497.79	35594.87
497.97	35433.37
498.14	35807.86
498.32	36114.47
498.50	35714.23
498.67	36638.75
498.85	36327.45
499.03	36577.89
499.20	36545.12
499.38	36940.68
499.56	37067.06
499.73	37001.53
499.91	37163.03
500.08	37626.45
500.26	37261.33
500.44	37532.83
500.61	37612.41
500.79	37420.48
500.97	37848.80
501.14	38237.33
501.32	38513.52
501.49	38197.54
501.67	38518.20
501.84	38953.54
502.02	38752.25
502.20	38869.28
502.37	38796.72
502.55	39082.27
502.72	39143.12
502.90	39562.08
503.07	39166.52
503.25	39503.56
503.43	39641.65
503.60	39988.05
503.78	40561.48
503.95	40474.88
504.13	40081.67
504.30	40486.59
504.48	40308.71
504.65	40931.29
504.83	40961.72
505.01	41490.68
505.18	40954.69
505.36	41064.70
505.53	41392.37
505.71	41067.04
505.88	41785.58
506.06	41701.32
506.23	41853.46
506.41	41684.94
506.58	42017.30
506.76	42064.11
506.93	42202.20
507.11	42227.95
507.28	42628.18
507.46	42604.77
507.63	42735.84
507.81	43002.66
507.98	42412.85
508.16	43168.84
508.33	43391.19
508.50	43461.41
508.68	43447.36
508.85	43840.57
509.03	43124.37
509.20	43875.68
509.38	44528.69
509.55	44657.42
509.73	44531.03
509.90	44357.83
510.08	44210.38
510.25	44641.04
510.42	44594.23
510.60	44762.75
510.77	44816.58
510.95	45460.23
511.12	44601.25
511.30	44985.10
511.47	45036.59
511.64	45839.39
511.82	45675.55
511.99	45642.79
512.17	45860.46
512.34	45516.40
512.51	46251.33
512.69	46646.88
512.86	46370.69
513.04	46160.05
513.21	46653.90
513.38	46466.66
513.56	46962.85
513.73	46883.27
513.90	47063.49
514.08	46927.74
514.25	46953.49
514.43	46862.21
514.60	47175.84
514.77	46927.74
514.95	47421.59
515.12	47505.85
515.29	47583.09
515.47	47779.70
515.64	47330.31
515.81	47468.40
515.99	47964.60
516.16	48060.56
516.33	47878.00
516.51	48484.20
516.68	48685.48
516.85	48439.73
517.03	48643.35
517.20	49050.61
517.37	48638.67
517.54	48788.47
517.72	49010.82
517.89	48788.47
518.06	49162.95
518.24	49165.29
518.41	48961.67
518.58	49364.24
518.75	49095.08
518.93	49586.59
519.10	49549.14
519.27	49705.96
519.45	49619.36
519.62	50138.96
519.79	49621.70
519.96	49776.17
520.14	50085.12
520.31	50099.17
520.48	50588.34
520.65	50298.11
520.83	50480.67
521.00	50653.87
521.17	50578.98
521.34	50658.56
521.52	50885.59
521.69	50855.16
521.86	50745.15
522.03	51089.21
522.20	50883.25
522.38	51367.74
522.55	51430.93
522.72	51159.43
522.89	51044.74
523.07	51793.71
523.24	51585.41
523.41	51522.21
523.58	51482.42
523.75	51693.07
523.92	51793.71
524.10	51739.88
524.27	51908.40
524.44	52062.88
524.61	51573.70
524.78	52299.27
524.96	51894.36
525.13	52055.85
525.30	52161.18
525.47	52374.17
525.64	52222.03
525.81	52222.03
525.98	52561.41
526.16	52685.46
526.33	52556.73
526.50	53010.79
526.67	52598.86
526.84	52935.90
527.01	52713.55
527.18	52596.52
527.36	52842.27
527.53	53221.44
527.70	53183.99
527.87	53296.34
528.04	53095.05
528.21	53286.98
528.38	53380.60
528.55	53591.25
528.72	53277.61
528.89	53198.04
529.07	53385.28
529.24	53317.40
529.41	53434.43
529.58	53579.54
529.75	53638.06
529.92	53490.60
530.09	53624.01
530.26	53708.27
530.43	54108.50
530.60	53492.94
530.77	53738.70
530.94	54174.04
531.11	54082.76
531.28	54064.03
531.46	54244.26
531.63	54316.81
531.80	54178.72
531.97	54218.51
532.14	54176.38
532.31	54342.56
532.48	54550.87
532.65	54616.40
532.82	54459.58
532.99	54710.02
533.16	54506.40
533.33	54569.59
533.50	54557.89
533.67	54845.77
533.84	54576.61
534.01	54604.70
534.18	54831.73
534.35	55159.41
534.52	55037.70
534.69	55166.43
534.86	55236.64
535.03	55082.17
535.20	55229.62
535.37	55213.24
535.54	55304.52
535.71	55131.32
535.88	55702.41
536.05	55449.63
536.22	55578.36
536.38	55433.25
536.55	55662.62
536.72	55796.03
536.89	55248.35
537.06	55590.06
537.23	55756.24
537.40	55402.82
537.57	55653.26
537.74	55449.63
537.91	55901.36
538.08	55899.01
538.25	55615.81
538.42	55770.28
538.59	56039.45
538.75	55877.95
538.92	56065.19
539.09	55929.44
539.26	56102.64
539.43	56158.81
539.60	56154.13
539.77	56217.33
539.94	56287.54
540.11	56287.54
540.28	56388.19
540.44	56404.57
540.61	56236.05
540.78	56322.65
540.95	56257.12
541.12	56371.80
541.29	56369.46
541.46	56460.74
541.62	56357.76
541.79	56680.75
541.96	56545.00
542.13	56449.04
542.30	56528.62
542.47	56884.38
542.63	56844.59
542.80	56994.39
542.97	56952.26
543.14	57073.96
543.31	57125.46
543.48	57228.44
543.64	57474.20
543.81	57293.97
543.98	57319.72
544.15	57308.02
544.32	57345.47
544.48	57403.98
544.65	57366.53
544.82	57485.90
544.99	57045.88
545.16	57439.09
545.32	57336.10
545.49	57698.89
545.66	57605.26
545.83	57544.41
546.00	57551.43
546.16	57719.95
546.33	57684.84
546.50	57385.25
546.67	57968.05
546.83	57469.51
547.00	57638.03
547.17	57551.43
547.34	57715.27
547.50	58141.25
547.67	57881.45
547.84	57970.39
548.00	57958.69
548.17	58253.59
548.34	58082.73
548.51	58288.70
548.67	58096.78
548.84	57972.73
549.01	58136.57
549.18	57991.45
549.34	58166.99
549.51	58293.38
549.68	58485.31
549.84	58092.10
550.01	58349.56
550.18	58141.25
550.34	58574.25
550.51	58461.90
550.68	58480.63
550.84	58141.25
551.01	58599.99
551.18	58564.88
551.34	58511.05
551.51	58504.03
551.68	58520.41
551.84	58358.92
552.01	58272.32
552.18	58672.55
552.34	58475.94
552.51	58656.17
552.68	58501.69
552.84	58557.86
553.01	58848.09
553.18	58684.25
553.34	58808.30
553.51	58724.04
553.67	58499.35
553.84	59011.93
554.01	59098.53
554.17	58897.24
554.34	58646.80
554.51	59063.42
554.67	58866.81
554.84	58745.11
555.00	58944.05
555.17	58932.35
555.33	59157.04
555.50	59009.59
555.67	58805.96
555.83	59023.63
556.00	59056.40
556.16	59262.36
556.33	59133.63
556.50	59215.55
556.66	59220.23
556.83	59227.26
556.99	59295.13
557.16	59400.46
557.32	59430.88
557.49	59693.02
557.65	59121.93
557.82	59025.97
557.98	59414.50
558.15	59341.94
558.32	59442.59
558.48	59288.11
558.65	59416.84
558.81	59409.82
558.98	59391.09
559.14	59388.75
559.31	59620.47
559.47	59571.32
559.64	59618.13
559.80	59585.36
559.97	59498.76
560.13	59426.20
560.30	59519.82
560.46	59667.28
560.63	59952.82
560.79	59653.23
560.96	59798.35
561.12	59573.66
561.29	59788.98
561.45	59796.01
561.61	59709.41
561.78	59704.73
561.94	59840.48
562.11	59803.03
562.27	59693.02
562.44	59936.44
562.60	59945.80
562.77	59779.62
562.93	59803.03
563.10	59835.80
563.26	59718.77
563.42	60086.23
563.59	59875.58
563.75	59880.27
563.92	60142.41
564.08	59910.69
564.24	59983.25
564.41	60095.60
564.57	60224.32
564.74	60088.57
564.90	60093.25
565.07	60062.83
565.23	60102.62
565.39	59913.03
565.56	59964.52
565.72	59941.12
565.88	60100.28
566.05	59887.29
566.21	60168.15
566.38	60130.70
566.54	60243.05
566.70	60306.24
566.87	60268.79
567.03	60133.04
567.19	60275.82
567.36	60275.82
567.52	60233.69
567.68	60486.46
567.85	60243.05
568.01	60399.86
568.17	60257.09
568.34	60456.04
568.50	60367.10
568.66	60275.82
568.83	60420.93
568.99	60285.18
569.15	60348.37
569.32	60353.05
569.48	60203.26
569.64	60577.75
569.81	60191.56
569.97	60376.46
570.13	60360.08
570.30	60156.45
570.46	60537.96
570.62	60381.14
570.78	60416.25
570.95	60329.65
571.11	60434.97
571.27	60434.97
571.43	60582.43
571.60	60502.85
571.76	60596.47
571.92	60507.53
572.09	60322.63
572.25	60472.42
572.41	60327.31
572.57	60413.91
572.74	60486.46
572.90	60404.55
573.06	60434.97
573.22	60654.98
573.38	60530.93
573.55	60301.56
573.71	60818.82
573.87	60514.55
574.03	60479.44
574.20	60699.45
574.36	60399.86
574.52	60589.45
574.68	60594.13
574.84	60456.04
575.01	60757.97
575.17	60652.64
575.33	60549.66
575.49	60521.57
575.65	60601.15
575.82	60734.56
575.98	60594.13
576.14	60788.39
576.30	60750.94
576.46	60683.07
576.62	60498.17
576.79	60528.59
576.95	60650.30
577.11	60610.51
577.27	60645.62
577.43	60793.07
577.59	60708.82
577.75	60748.60
577.92	60645.62
578.08	60762.65
578.24	60772.01
578.40	60877.33
578.56	60774.35
578.72	60823.50
578.88	60795.42
579.04	60987.34
579.21	60697.11
579.37	60882.02
579.53	60931.17
579.69	60561.36
579.85	60762.65
580.01	60790.73
580.17	60589.45
580.33	60807.12
580.49	60788.39
580.65	60722.86
580.82	60842.23
580.98	60793.07
581.14	60839.89
581.30	60940.53
581.46	60935.85
581.62	60903.08
581.78	60741.58
581.94	60790.73
582.10	60935.85
582.26	60746.26
582.42	60757.97
582.58	61001.38
582.74	60910.10
582.90	60821.16
583.06	60774.35
583.22	60767.33
583.38	60867.97
583.54	60924.14
583.70	60921.80
583.86	60879.67
584.02	60626.90
584.18	61073.94
584.34	60977.98
584.50	60863.29
584.66	60786.05
584.82	60837.54
584.98	61059.90
585.14	60870.31
585.30	60872.65
585.46	61048.19
585.62	60945.21
585.78	61043.51
585.94	60769.67
586.10	60935.85
586.26	60926.49
586.42	61062.24
586.58	61080.96
586.74	60926.49
586.90	60736.90
587.06	60711.16
587.22	60928.83
587.38	60891.38
587.54	61052.87
587.70	61116.07
587.86	60945.21
588.02	61024.79
588.18	61034.15
588.34	61095.00
588.49	60975.64
