SpectraSuite Data File
++++++++++++++++++++++++++++++++++++
Date: Fri Oct 25 10:47:44 EDT 2013
User: price-jones
Dark Spectrum Present: No
Reference Spectrum Present: No
Number of Sampled Component Spectra: 1
Spectrometers: USB2+H05261
Integration Time (usec): 100000 (USB2+H05261)
Spectra Averaged: 1 (USB2+H05261)
Boxcar Smoothing: 0 (USB2+H05261)
Correct for Electrical Dark: No (USB2+H05261)
Strobe/Lamp Enabled: No (USB2+H05261)
Correct for Detector Non-linearity: No (USB2+H05261)
Correct for Stray Light: No (USB2+H05261)
Number of Pixels in Processed Spectrum: 2048
>>>>>Begin Processed Spectral Data<<<<<
365.73	74.90
365.92	74.90
366.12	74.90
366.32	53.83
366.52	37.45
366.72	18.72
366.91	25.75
367.11	51.49
367.31	9.36
367.51	25.75
367.70	53.83
367.90	121.71
368.10	9.36
368.30	56.17
368.49	46.81
368.69	51.49
368.89	0.00
369.09	49.15
369.28	81.92
369.48	138.09
369.68	154.48
369.87	156.82
370.07	25.75
370.27	70.22
370.47	175.54
370.66	351.08
370.86	355.76
371.06	500.87
371.25	519.60
371.45	346.40
371.65	430.66
371.84	451.72
372.04	531.30
372.24	493.85
372.44	505.56
372.63	545.34
372.83	491.51
373.03	496.19
373.22	545.34
373.42	514.92
373.62	500.87
373.81	566.41
374.01	582.79
374.21	631.94
374.40	428.32
374.60	578.11
374.79	589.82
374.99	491.51
375.19	580.45
375.38	550.03
375.58	648.33
375.78	592.16
375.97	580.45
376.17	669.39
376.37	540.66
376.56	617.90
376.76	557.05
376.95	561.73
377.15	585.13
377.35	566.41
377.54	578.11
377.74	538.32
377.93	568.75
378.13	596.84
378.33	660.03
378.52	587.47
378.72	702.16
378.91	671.73
379.11	617.90
379.31	655.35
379.50	643.65
379.70	690.46
379.89	601.52
380.09	608.54
380.28	667.05
380.48	587.47
380.68	657.69
380.87	660.03
381.07	606.20
381.26	711.52
381.46	620.24
381.65	697.48
381.85	660.03
382.04	648.33
382.24	641.31
382.43	688.12
382.63	631.94
382.83	657.69
383.02	753.65
383.22	636.63
383.41	660.03
383.61	674.07
383.80	814.51
384.00	814.51
384.19	702.16
384.39	793.44
384.58	760.67
384.78	779.40
384.97	732.59
385.17	739.61
385.36	734.93
385.56	781.74
385.75	741.95
385.95	751.31
386.14	791.10
386.34	854.30
386.53	840.25
386.72	737.27
386.92	730.25
387.11	821.53
387.31	849.61
387.50	819.19
387.70	760.67
387.89	723.23
388.09	884.72
388.28	812.17
388.48	823.87
388.67	866.00
388.86	863.66
389.06	912.81
389.25	940.90
389.45	1018.13
389.64	826.21
389.84	795.78
390.03	919.83
390.22	858.98
390.42	997.07
390.61	898.77
390.81	880.04
391.00	922.17
391.19	887.06
391.39	945.58
391.58	999.41
391.78	983.02
391.97	966.64
392.16	933.87
392.36	959.62
392.55	1064.94
392.75	1053.24
392.94	1022.81
393.13	966.64
393.33	922.17
393.52	898.77
393.71	1034.52
393.91	992.39
394.10	943.24
394.29	1125.80
394.49	1093.03
394.68	1111.75
394.88	1011.11
395.07	1111.75
395.26	1078.99
395.46	1069.62
395.65	1062.60
395.84	1151.54
396.04	1153.88
396.23	1074.31
396.42	1067.28
396.62	1060.26
396.81	1078.99
397.00	1142.18
397.19	1071.97
397.39	1114.10
397.58	1259.21
397.77	1174.95
397.97	1231.12
398.16	1324.74
398.35	1322.40
398.55	1277.93
398.74	1291.98
398.93	1320.06
399.12	1273.25
399.32	1399.64
399.51	1423.05
399.70	1387.94
399.90	1359.85
400.09	1345.81
400.28	1394.96
400.47	1460.49
400.67	1404.32
400.86	1451.13
401.05	1479.22
401.24	1514.33
401.44	1479.22
401.63	1474.54
401.82	1509.65
402.01	1392.62
402.21	1488.58
402.40	1514.33
402.59	1561.14
402.78	1565.82
402.97	1547.09
403.17	1547.09
403.36	1591.56
403.55	1636.03
403.74	1694.55
403.93	1579.86
404.13	1633.69
404.32	1554.12
404.51	1568.16
404.70	1696.89
404.89	1631.35
405.09	1739.02
405.28	1579.86
405.47	1760.08
405.66	1671.14
405.85	1834.98
406.05	1788.17
406.24	1685.19
406.43	1851.36
406.62	1834.98
406.81	1858.39
407.00	1778.81
407.20	1799.87
407.39	1830.30
407.58	1893.49
407.77	1849.02
407.96	1905.20
408.15	1975.41
408.34	1980.09
408.54	1921.58
408.73	1949.67
408.92	1937.96
409.11	1923.92
409.30	2059.67
409.49	1959.03
409.68	1942.64
409.87	2005.84
410.07	2040.95
410.26	2127.55
410.45	2078.40
410.64	2204.78
410.83	2115.84
411.02	2136.91
411.21	2211.81
411.40	2211.81
411.59	2251.60
411.78	2207.13
411.98	2291.38
412.17	2319.47
412.36	2328.83
412.55	2272.66
412.74	2413.09
412.93	2387.35
413.12	2471.61
413.31	2455.22
413.50	2427.14
413.69	2452.88
413.88	2605.02
414.07	2396.71
414.26	2574.59
414.45	2567.57
414.64	2609.70
414.83	2644.81
415.02	2801.62
415.22	2787.58
415.41	2715.02
415.60	2754.81
415.79	2787.58
415.98	2803.96
416.17	2871.84
416.36	2855.45
416.55	2778.22
416.74	2939.71
416.93	2750.13
417.12	2848.43
417.31	2883.54
417.50	2939.71
417.69	3208.87
417.88	2986.52
418.07	3063.76
418.26	2977.16
418.45	3016.95
418.64	3094.19
418.83	3063.76
419.02	2988.86
419.21	3042.70
419.39	3110.57
419.58	3098.87
419.77	3206.53
419.96	3262.71
420.15	3143.34
420.34	3236.96
420.53	3253.34
420.72	3365.69
420.91	3304.84
421.10	3272.07
421.29	3410.16
421.48	3307.18
421.67	3243.98
421.86	3318.88
422.05	3318.88
422.24	3421.86
422.43	3449.95
422.61	3449.95
422.80	3377.39
422.99	3555.27
423.18	3592.72
423.37	3599.74
423.56	3515.48
423.75	3454.63
423.94	3433.57
424.13	3248.66
424.32	3438.25
424.50	3442.93
424.69	3592.72
424.88	3538.89
425.07	3602.08
425.26	3538.89
425.45	3585.70
425.64	3456.97
425.83	3499.10
426.01	3702.73
426.20	3648.90
426.39	3543.57
426.58	3562.30
426.77	3588.04
426.96	3501.44
427.15	3555.27
427.33	3658.26
427.52	3452.29
427.71	3627.83
427.90	3648.90
428.09	3747.20
428.28	3667.62
428.46	3676.98
428.65	3714.43
428.84	3819.75
429.03	3854.86
429.22	3616.13
429.40	3730.81
429.59	3882.95
429.78	3693.37
429.97	3625.49
430.16	3749.54
430.34	3604.42
430.53	3803.37
430.72	3871.25
430.91	3810.39
431.10	3936.78
431.28	3997.64
431.47	4095.94
431.66	4091.26
431.85	4037.42
432.03	4049.13
432.22	4147.43
432.41	4112.32
432.60	4021.04
432.79	4079.55
432.97	4198.92
433.16	4285.52
433.35	4079.55
433.54	4159.13
433.72	4311.27
433.91	4264.46
434.10	4269.14
434.28	4191.90
434.47	4400.21
434.66	4393.19
434.85	4355.74
435.03	4430.63
435.22	4582.77
435.41	4571.07
435.59	4559.36
435.78	4479.79
435.97	4594.47
436.16	4638.94
436.34	4636.60
436.53	4568.73
436.72	4599.15
436.90	4521.92
437.09	4571.07
437.28	4545.32
437.46	4664.69
437.65	4711.50
437.84	4702.14
438.02	4695.11
438.21	4629.58
438.40	4716.18
438.58	4912.78
438.77	4985.34
438.96	4711.50
439.14	4924.49
439.33	5006.41
439.52	5006.41
439.70	5137.48
439.89	5137.48
440.08	5195.99
440.26	5090.67
440.45	5149.18
440.63	5238.12
440.82	5331.74
441.01	5186.63
441.19	5198.33
441.38	5179.61
441.57	5514.30
441.75	5537.71
441.94	5500.26
442.12	5362.17
442.31	5659.42
442.50	5708.57
442.68	5540.05
442.87	5605.58
443.05	5511.96
443.24	5722.61
443.43	5612.60
443.61	5614.95
443.80	5947.30
443.98	5643.03
444.17	5607.92
444.35	5717.93
444.54	5839.64
444.73	5900.49
444.91	5680.48
445.10	5844.32
445.28	5813.89
445.47	5797.51
445.65	5706.23
445.84	5937.94
446.02	5849.00
446.21	5738.99
446.39	5837.30
446.58	5724.95
446.77	5827.93
446.95	5802.19
447.14	5902.83
447.32	6092.41
447.51	5907.51
447.69	5949.64
447.88	6076.03
448.06	6061.99
448.25	5818.57
448.43	5916.87
448.62	5893.47
448.80	5900.49
448.99	6071.35
449.17	6153.27
449.36	6115.82
449.54	6223.48
449.73	6031.56
449.91	6279.66
450.10	6359.24
450.28	6394.34
450.46	6356.90
450.65	6242.21
450.83	6399.02
451.02	6324.13
451.20	6445.84
451.39	6431.79
451.57	6375.62
451.76	6321.79
451.94	6342.85
452.13	6614.35
452.31	6370.94
452.49	6354.55
452.68	6567.54
452.86	6223.48
453.05	6476.26
453.23	6443.49
453.42	6604.99
453.60	6452.86
453.78	6682.23
453.97	6544.14
454.15	6581.59
454.34	6424.77
454.52	6796.92
454.70	6700.95
454.89	6703.29
455.07	6939.69
455.26	6857.77
455.44	6745.42
455.62	6810.96
455.81	6827.34
455.99	6773.51
456.17	6939.69
456.36	6857.77
456.54	7117.57
456.73	6979.48
456.91	7178.42
457.09	7110.55
457.28	7335.24
457.46	7014.59
457.64	7098.84
457.83	7192.47
458.01	7126.93
458.19	7314.17
458.38	7342.26
458.56	7440.56
458.74	7206.51
458.93	7344.60
459.11	7487.37
459.29	7269.70
459.48	7468.65
459.66	7595.04
459.84	7508.44
460.03	7506.10
460.21	7672.28
460.39	7489.71
460.57	7442.90
460.76	7688.66
460.94	7808.03
461.12	7728.45
461.31	7583.34
461.49	7796.32
461.67	7576.31
461.85	7709.72
462.04	7840.79
462.22	8472.74
462.40	7981.23
462.59	7913.35
462.77	7953.14
462.95	8226.98
463.13	7964.84
463.32	7939.10
463.50	8018.68
463.68	8264.43
463.86	7981.23
464.05	8039.74
464.23	8140.38
464.41	8252.73
464.59	7978.89
464.78	8203.58
464.96	8166.13
465.14	8269.11
465.32	8065.49
465.50	8248.05
465.69	8283.16
465.87	8128.68
466.05	8257.41
466.23	8322.94
466.41	8262.09
466.60	8421.25
466.78	8154.43
466.96	8205.92
467.14	8271.45
467.32	8226.98
467.51	8557.00
467.69	8273.79
467.87	8388.48
468.05	8582.74
468.23	8475.08
468.41	8379.12
468.60	8533.59
468.78	8517.21
468.96	8402.52
469.14	8500.83
469.32	8650.62
469.50	8622.53
469.69	8751.26
469.87	8903.40
470.05	8891.70
470.23	8879.99
470.41	8807.44
470.59	8936.17
470.77	8926.80
470.95	9111.71
471.14	9249.80
471.32	8894.04
471.50	9247.46
471.68	9188.94
471.86	9366.82
472.04	9212.35
472.22	9423.00
472.40	9198.31
472.58	9268.52
472.77	9472.15
472.95	9444.06
473.13	9687.48
473.31	9465.13
473.49	9427.68
473.67	9589.17
473.85	9694.50
474.03	9788.12
474.21	9944.94
474.39	9944.94
474.57	9907.49
474.75	9921.53
474.93	9841.95
475.12	9961.32
475.30	10202.40
475.48	10178.99
475.66	10141.54
475.84	10244.52
476.02	10118.14
476.20	10057.28
476.38	10377.94
476.56	10698.59
476.74	10773.49
476.92	10633.05
477.10	10750.08
477.28	10792.21
477.46	10719.65
477.64	11014.56
477.82	11171.38
478.00	11346.92
478.18	11372.66
478.36	11382.03
478.54	11398.41
478.72	11365.64
478.90	11559.91
479.08	11723.74
479.26	11796.30
479.44	11875.88
479.62	12009.29
479.80	11953.12
479.98	12046.74
480.16	12269.09
480.34	12046.74
480.52	12524.21
480.70	12475.06
480.88	12210.57
481.06	12182.49
481.24	12748.90
481.41	12830.82
481.59	13008.70
481.77	12786.35
481.95	13076.57
482.13	13104.66
482.31	13202.96
482.49	13217.01
482.67	13481.49
482.85	13437.02
483.03	13678.09
483.21	13724.90
483.39	14132.15
483.57	14045.55
483.74	14274.93
483.92	14005.77
484.10	14036.19
484.28	14185.99
484.46	14565.15
484.64	14794.53
484.82	14640.05
485.00	14883.47
485.18	15023.90
485.35	14958.36
485.53	14820.27
485.71	15044.96
485.89	15379.66
486.07	15276.68
486.25	15215.82
486.43	15337.53
486.61	15728.40
486.78	15363.28
486.96	16152.04
487.14	16107.57
487.32	16313.53
487.50	16339.28
487.68	16512.48
487.85	16760.58
488.03	16695.04
488.21	17048.46
488.39	16903.35
488.57	17132.72
488.75	17212.30
488.92	17198.26
489.10	17547.00
489.28	17521.25
489.46	17818.50
489.64	17823.18
489.81	18281.92
489.99	18352.14
490.17	18036.17
490.35	18391.93
490.53	18431.72
490.70	18717.26
490.88	18710.24
491.06	18792.16
491.24	18810.89
491.41	18771.10
491.59	19002.81
491.77	18925.57
491.95	19215.80
492.13	19412.40
492.30	19274.31
492.48	19227.50
492.66	19929.66
492.84	19894.55
493.01	19887.53
493.19	20283.08
493.37	20240.95
493.54	20526.50
493.72	20868.22
493.90	20622.46
494.08	20739.49
494.25	21137.38
494.43	21284.83
494.61	21341.00
494.79	21446.33
494.96	21057.80
495.14	21242.70
495.32	21507.18
495.49	21443.99
495.67	22181.26
495.85	22017.42
496.02	22040.82
496.20	22167.21
496.38	22298.28
496.55	22431.69
496.73	23269.61
496.91	22476.16
497.09	22799.16
497.26	22890.44
497.44	22750.01
497.62	22934.91
497.79	23290.67
497.97	22934.91
498.14	23627.71
498.32	23520.04
498.50	23515.36
498.67	23693.24
498.85	23880.49
499.03	24046.66
499.20	23967.09
499.38	23929.64
499.56	24053.69
499.73	24105.18
499.91	24439.87
500.08	24467.96
500.26	24383.70
500.44	24451.58
500.61	24355.61
500.79	24294.76
500.97	24800.32
501.14	25401.83
501.32	24992.24
501.49	24819.04
501.67	24823.72
501.84	25142.03
502.02	25542.27
502.20	25652.27
502.37	25530.56
502.55	25301.19
502.72	25455.67
502.90	25671.00
503.07	25876.96
503.25	25930.80
503.43	25722.49
503.60	26068.89
503.78	26331.03
503.95	26370.82
504.13	26373.16
504.30	26326.35
504.48	26548.70
504.65	26448.05
504.83	26717.22
505.01	26803.82
505.18	26794.45
505.36	26808.50
505.53	27108.08
505.71	27154.90
505.88	27098.72
506.06	26913.82
506.23	27070.64
506.41	27124.47
506.58	27641.73
506.76	27473.21
506.93	27927.27
507.11	27655.77
507.28	27463.85
507.46	27487.25
507.63	27721.30
507.81	27931.95
507.98	27704.92
508.16	27878.12
508.33	28292.40
508.50	28276.01
508.68	28666.88
508.85	28765.18
509.03	28568.58
509.20	28357.93
509.38	28802.63
509.55	28922.00
509.73	29282.44
509.90	29060.09
510.08	28680.92
510.25	29134.99
510.42	29043.71
510.60	29127.97
510.77	29668.63
510.95	29394.79
511.12	29193.50
511.30	29539.90
511.47	29989.28
511.64	29951.84
511.82	30115.67
511.99	29675.65
512.17	30120.35
512.34	29930.77
512.51	30141.42
512.69	30260.79
512.86	30174.19
513.04	30209.29
513.21	30890.39
513.38	30309.94
513.56	30113.33
513.73	30429.30
513.90	30897.41
514.08	30642.29
514.25	30808.47
514.43	30541.65
514.60	30548.67
514.77	30955.93
514.95	31281.26
515.12	30888.05
515.29	31175.94
515.47	31468.50
515.64	31225.09
515.81	31152.53
515.99	31447.44
516.16	31665.11
516.33	31215.72
516.51	31550.42
516.68	31679.15
516.85	31405.31
517.03	32070.02
517.20	31831.29
517.37	31934.27
517.54	32203.43
517.72	32533.45
517.89	31854.69
518.06	31903.84
518.24	32158.96
518.41	32077.04
518.58	31854.69
518.75	32027.89
518.93	32708.99
519.10	32360.25
519.27	32737.07
519.45	32617.71
519.62	32666.86
519.79	32844.74
519.96	32903.25
520.14	33600.73
520.31	33064.75
520.48	33591.37
520.65	33179.43
520.83	33436.89
521.00	33570.30
521.17	33319.87
521.34	33680.31
521.52	33947.13
521.69	33977.56
521.86	33773.93
522.03	33869.89
522.20	33738.82
522.38	34073.52
522.55	34220.97
522.72	34117.99
522.89	33902.66
523.07	34153.10
523.24	34132.03
523.41	34169.48
523.58	34171.82
523.75	34499.50
523.92	34244.38
524.10	34967.60
524.27	34869.30
524.44	34714.83
524.61	34719.51
524.78	34962.92
524.96	34960.58
525.13	34899.73
525.30	35351.45
525.47	35002.71
525.64	35093.99
525.81	35234.42
525.98	35505.93
526.16	35040.16
526.33	35388.90
526.50	35747.00
526.67	35824.24
526.84	35365.49
527.01	35253.15
527.18	35718.92
527.36	35658.06
527.53	35833.60
527.70	35924.88
527.87	35976.37
528.04	35536.35
528.21	36144.89
528.38	35641.68
528.55	36044.25
528.72	36098.08
528.89	36032.55
529.07	36123.83
529.24	36362.56
529.41	36568.53
529.58	36493.63
529.75	36201.07
529.92	36762.79
530.09	36671.51
530.26	36554.49
530.43	36868.12
530.60	36341.50
530.77	36931.31
530.94	36891.52
531.11	37050.68
531.28	36882.16
531.46	36987.49
531.63	37666.24
531.80	36950.04
531.97	36975.78
532.14	36741.73
532.31	37008.55
532.48	37244.94
532.65	37443.89
532.82	37504.74
532.99	37722.41
533.16	37481.34
533.33	37476.66
533.50	37848.80
533.67	37469.64
533.84	37551.56
534.01	37764.54
534.18	37591.34
534.35	38333.29
534.52	37867.53
534.69	38073.49
534.86	37970.51
535.03	37968.17
535.20	38010.30
535.37	38700.76
535.54	38251.38
535.71	38143.71
535.88	38174.14
536.05	38555.64
536.22	38546.28
536.38	38298.19
536.55	38693.74
536.72	38387.13
536.89	38485.43
537.06	38316.91
537.23	38363.72
537.40	38576.71
537.57	38455.00
537.74	38422.23
537.91	38859.91
538.08	39227.38
538.25	38670.33
538.42	38625.86
538.59	39023.75
538.75	38794.38
538.92	39187.59
539.09	39049.50
539.26	39323.34
539.43	39232.06
539.60	39313.98
539.77	39068.22
539.94	39215.68
540.11	39136.10
540.28	38909.07
540.44	39257.81
540.61	39131.42
540.78	39033.11
540.95	39393.56
541.12	39187.59
541.29	39468.45
541.46	39047.16
541.62	39440.37
541.79	39679.10
541.96	39672.08
542.13	39388.88
542.30	39903.79
542.47	39880.39
542.63	39807.83
542.80	40254.87
542.97	39702.51
543.14	40339.13
543.31	40306.37
543.48	40126.14
543.64	40950.01
543.81	40500.63
543.98	40470.20
544.15	40275.94
544.32	40517.01
544.48	40748.73
544.65	40538.08
544.82	40189.34
544.99	40126.14
545.16	40273.60
545.32	40509.99
545.49	41008.53
545.66	40612.98
545.83	41022.57
546.00	40844.69
546.16	41060.02
546.33	40404.67
546.50	40032.52
546.67	41055.34
546.83	40568.51
547.00	40858.73
547.17	41090.44
547.34	41317.48
547.50	41064.70
547.67	41532.81
547.84	41298.75
548.00	41553.87
548.17	41308.11
548.34	41265.99
548.51	41509.40
548.67	42181.13
548.84	41808.99
549.01	41301.09
549.18	41090.44
549.34	41635.79
549.51	42031.34
549.68	41514.08
549.84	41794.95
550.01	42075.81
550.18	41488.34
550.34	41785.58
550.51	41614.72
550.68	41642.81
550.84	41696.64
551.01	41926.02
551.18	41605.36
551.34	41757.50
551.51	41923.68
551.68	41806.65
551.84	42415.19
552.01	42258.37
552.18	41694.30
552.34	41961.12
552.51	42609.45
552.68	42162.41
552.84	42569.66
553.01	42925.42
553.18	42403.49
553.34	42803.72
553.51	41703.67
553.67	42370.72
553.84	42644.56
554.01	42749.88
554.17	42548.60
554.34	42841.17
554.51	42932.45
554.67	42696.05
554.84	42719.46
555.00	41888.57
555.17	42246.67
555.33	42883.30
555.50	42595.41
555.67	42534.56
555.83	42689.03
556.00	42485.40
556.16	43468.43
556.33	43030.75
556.50	42674.99
556.66	43000.32
556.83	42623.50
556.99	43026.07
557.16	42960.53
557.32	42850.53
557.49	42993.30
557.65	42665.63
557.82	42583.71
557.98	43110.33
558.15	43187.56
558.32	42944.15
558.48	43391.19
558.65	42876.27
558.81	42890.32
558.98	43166.50
559.14	43124.37
559.31	43222.67
559.47	43309.27
559.64	43501.20
559.80	43440.34
559.97	43672.06
560.13	43136.07
560.30	43611.20
560.46	43454.39
560.63	43208.63
560.79	43402.89
560.96	43772.70
561.12	43426.30
561.29	43590.14
561.45	43409.92
561.61	43445.02
561.78	43498.86
561.94	43138.41
562.11	43269.48
562.27	43005.00
562.44	43552.69
562.60	43962.28
562.77	43873.34
562.93	43838.23
563.10	43789.08
563.26	43133.73
563.42	44130.80
563.59	43805.47
563.75	43831.21
563.92	44098.03
564.08	43681.42
564.24	44023.14
564.41	43768.02
564.57	43863.98
564.74	43817.17
564.90	43583.12
565.07	44013.77
565.23	43901.43
565.39	43597.16
565.56	44369.54
565.72	43498.86
565.88	43938.88
566.05	43707.16
566.21	43847.60
566.38	43746.95
566.54	44072.29
566.70	43653.33
566.87	44236.12
567.03	44044.20
567.19	44385.92
567.36	44296.98
567.52	43679.08
567.68	44062.93
567.85	43957.60
568.01	44170.59
568.17	43962.28
568.34	44289.96
568.50	44182.29
568.66	43941.22
568.83	44126.12
568.99	43863.98
569.15	43934.20
569.32	44039.52
569.48	44119.10
569.64	44287.62
569.81	44182.29
569.97	44177.61
570.13	44538.05
570.30	44069.95
570.46	43882.70
570.62	43784.40
570.78	44294.64
570.95	44037.18
571.11	43941.22
571.27	44395.28
571.43	44371.88
571.60	44383.58
571.76	44233.78
571.92	44165.91
572.09	44156.55
572.25	44294.64
572.41	44336.77
572.57	44308.68
572.74	44858.71
572.90	44364.85
573.06	44254.85
573.22	44306.34
573.38	44140.16
573.55	43817.17
573.71	44706.57
573.87	44292.30
574.03	43882.70
574.20	44296.98
574.36	44177.61
574.52	44521.67
574.68	44404.64
574.84	44357.83
575.01	44093.35
575.17	44083.99
575.33	44299.32
575.49	44371.88
575.65	44744.02
575.82	44573.16
575.98	44512.31
576.14	44622.31
576.30	44765.09
576.46	44217.40
576.62	44313.36
576.79	44254.85
576.95	44048.88
577.11	44516.99
577.27	44030.16
577.43	44786.15
577.59	44439.75
577.75	44498.26
577.92	43981.01
578.08	44212.72
578.24	44332.09
578.40	44301.66
578.56	44360.17
578.72	44072.29
578.88	44708.91
579.04	44624.65
579.21	44500.61
579.37	44610.61
579.53	44252.51
579.69	44034.84
579.85	44439.75
580.01	44500.61
580.17	44655.08
580.33	45125.53
580.49	44769.77
580.65	44823.60
580.82	44423.37
580.98	44685.51
581.14	44416.35
581.30	44549.76
581.46	44357.83
581.62	44669.12
581.78	44322.72
581.94	45020.20
582.10	44442.09
582.26	44563.80
582.42	44912.54
582.58	44718.28
582.74	44605.93
582.90	45010.84
583.06	44762.75
583.22	44685.51
583.38	44648.06
583.54	44624.65
583.70	44311.02
583.86	44526.35
584.02	44542.74
584.18	44669.12
584.34	44987.44
584.50	44519.33
584.66	44296.98
584.82	44341.45
584.98	44580.18
585.14	44411.67
585.30	44404.64
585.46	44465.50
585.62	44479.54
585.78	44430.39
585.94	44287.62
586.10	44430.39
586.26	44378.90
586.42	44423.37
586.58	44662.10
586.74	44753.38
586.90	44947.65
587.06	44598.91
587.22	44816.58
587.38	44767.43
587.54	44837.64
587.70	44994.46
587.86	44769.77
588.02	44524.01
588.18	44683.17
588.34	44636.36
588.49	44332.09
588.65	44617.63
588.81	44587.21
588.97	44327.41
589.13	44744.02
589.29	44275.91
589.45	44734.66
589.61	44680.83
589.77	44891.48
589.93	44720.62
590.08	44507.63
590.24	44767.43
590.40	44903.18
