SpectraSuite Data File
++++++++++++++++++++++++++++++++++++
Date: Fri Oct 25 10:44:38 EDT 2013
User: price-jones
Dark Spectrum Present: No
Reference Spectrum Present: No
Number of Sampled Component Spectra: 1
Spectrometers: USB2+H05261
Integration Time (usec): 100000 (USB2+H05261)
Spectra Averaged: 1 (USB2+H05261)
Boxcar Smoothing: 0 (USB2+H05261)
Correct for Electrical Dark: No (USB2+H05261)
Strobe/Lamp Enabled: No (USB2+H05261)
Correct for Detector Non-linearity: No (USB2+H05261)
Correct for Stray Light: No (USB2+H05261)
Number of Pixels in Processed Spectrum: 2048
>>>>>Begin Processed Spectral Data<<<<<
365.73	140.43
365.92	140.43
366.12	140.43
366.32	49.15
366.52	4.68
366.72	93.62
366.91	37.45
367.11	28.09
367.31	28.09
367.51	0.00
367.70	42.13
367.90	28.09
368.10	46.81
368.30	60.85
368.49	11.70
368.69	58.51
368.89	56.17
369.09	37.45
369.28	7.02
369.48	60.85
369.68	56.17
369.87	51.49
370.07	124.05
370.27	124.05
370.47	156.82
370.66	344.06
370.86	330.02
371.06	531.30
371.25	435.34
371.45	315.97
371.65	418.96
371.84	383.85
372.04	411.93
372.24	540.66
372.44	458.74
372.63	475.13
372.83	425.98
373.03	573.43
373.22	458.74
373.42	437.68
373.62	458.74
373.81	486.83
374.01	517.26
374.21	566.41
374.40	500.87
374.60	592.16
374.79	524.28
374.99	512.58
375.19	608.54
375.38	521.94
375.58	571.09
375.78	493.85
375.97	634.29
376.17	578.11
376.37	568.75
376.56	575.77
376.76	594.50
376.95	552.37
377.15	526.62
377.35	531.30
377.54	594.50
377.74	589.82
377.93	685.78
378.13	627.26
378.33	613.22
378.52	557.05
378.72	564.07
378.91	678.76
379.11	704.50
379.31	634.29
379.50	667.05
379.70	610.88
379.89	683.44
380.09	641.31
380.28	582.79
380.48	573.43
380.68	557.05
380.87	566.41
381.07	650.67
381.26	685.78
381.46	681.10
381.65	709.18
381.85	641.31
382.04	660.03
382.24	685.78
382.43	643.65
382.63	643.65
382.83	615.56
383.02	690.46
383.22	730.25
383.41	664.71
383.61	671.73
383.80	578.11
384.00	748.97
384.19	674.07
384.39	695.14
384.58	685.78
384.78	730.25
384.97	725.57
385.17	807.48
385.36	800.46
385.56	734.93
385.75	711.52
385.95	727.91
386.14	723.23
386.34	748.97
386.53	741.95
386.72	781.74
386.92	828.55
387.11	770.04
387.31	746.63
387.50	786.42
387.70	753.65
387.89	763.01
388.09	802.80
388.28	777.06
388.48	781.74
388.67	807.48
388.86	805.14
389.06	912.81
389.25	809.83
389.45	959.62
389.64	896.43
389.84	877.70
390.03	922.17
390.22	931.53
390.42	924.51
390.61	978.34
390.81	931.53
391.00	999.41
391.19	954.94
391.39	926.85
391.58	866.00
391.78	896.43
391.97	896.43
392.16	980.68
392.36	990.05
392.55	976.00
392.75	964.30
392.94	983.02
393.13	985.37
393.33	987.71
393.52	968.98
393.71	880.04
393.91	926.85
394.10	1064.94
394.29	1027.50
394.49	1013.45
394.68	1034.52
394.88	1121.12
395.07	1149.20
395.26	1086.01
395.46	1050.90
395.65	997.07
395.84	1093.03
396.04	1109.41
396.23	1093.03
396.42	1081.33
396.62	1088.35
396.81	1064.94
397.00	1123.46
397.19	1132.82
397.39	1186.65
397.58	1228.78
397.77	1181.97
397.97	1287.29
398.16	1259.21
398.35	1235.80
398.55	1294.32
398.74	1226.44
398.93	1399.64
399.12	1284.95
399.32	1294.32
399.51	1313.04
399.70	1406.66
399.90	1320.06
400.09	1434.75
400.28	1409.00
400.47	1406.66
400.67	1483.90
400.86	1488.58
401.05	1418.36
401.24	1439.43
401.44	1467.52
401.63	1584.54
401.82	1469.86
402.01	1380.92
402.21	1481.56
402.40	1514.33
402.59	1519.01
402.78	1586.88
402.97	1554.12
403.17	1474.54
403.36	1591.56
403.55	1593.90
403.74	1689.87
403.93	1659.44
404.13	1661.78
404.32	1598.59
404.51	1657.10
404.70	1596.25
404.89	1696.89
405.09	1666.46
405.28	1666.46
405.47	1748.38
405.66	1746.04
405.85	1739.02
406.05	1739.02
406.24	1729.66
406.43	1886.47
406.62	1809.23
406.81	1879.45
407.00	1746.04
407.20	1842.00
407.39	1830.30
407.58	1891.15
407.77	1963.71
407.96	1907.54
408.15	1900.52
408.34	1919.24
408.54	2026.90
408.73	1865.41
408.92	1994.14
409.11	1998.82
409.30	1989.46
409.49	2019.88
409.68	1968.39
409.87	2162.66
410.07	2076.06
410.26	2087.76
410.45	2120.53
410.64	2134.57
410.83	2200.10
411.02	2118.18
411.21	2150.95
411.40	2223.51
411.59	2253.94
411.78	2272.66
411.98	2319.47
412.17	2359.26
412.36	2361.60
412.55	2417.77
412.74	2312.45
412.93	2389.69
413.12	2424.80
413.31	2530.12
413.50	2448.20
413.69	2565.23
413.88	2597.99
414.07	2516.08
414.26	2679.91
414.45	2675.23
414.64	2684.59
414.83	2733.75
415.02	2698.64
415.22	2642.46
415.41	2670.55
415.60	2773.53
415.79	2759.49
415.98	2733.75
416.17	2857.79
416.36	2818.00
416.55	2906.95
416.74	2944.39
416.93	2832.05
417.12	2822.69
417.31	2878.86
417.50	2991.20
417.69	3023.97
417.88	3019.29
418.07	2998.23
418.26	3094.19
418.45	3052.06
418.64	3171.43
418.83	3124.62
419.02	3194.83
419.21	3159.72
419.39	3215.90
419.58	3108.23
419.77	3138.66
419.96	3112.91
420.15	3194.83
420.34	3267.39
420.53	3239.30
420.72	3290.79
420.91	3318.88
421.10	3344.63
421.29	3389.10
421.48	3368.03
421.67	3426.54
421.86	3473.36
422.05	3433.57
422.24	3325.90
422.43	3463.99
422.61	3391.44
422.80	3569.32
422.99	3515.48
423.18	3499.10
423.37	3538.89
423.56	3571.66
423.75	3550.59
423.94	3588.04
424.13	3286.11
424.32	3538.89
424.50	3552.93
424.69	3442.93
424.88	3684.00
425.07	3574.00
425.26	3592.72
425.45	3564.64
425.64	3508.46
425.83	3517.83
426.01	3559.95
426.20	3510.80
426.39	3583.36
426.58	3442.93
426.77	3501.44
426.96	3648.90
427.15	3576.34
427.33	3700.39
427.52	3627.83
427.71	3655.92
427.90	3695.71
428.09	3702.73
428.28	3744.86
428.46	3726.13
428.65	3779.97
428.84	3896.99
429.03	3889.97
429.22	3812.73
429.40	3681.66
429.59	3803.37
429.78	3700.39
429.97	3534.21
430.16	3674.64
430.34	3653.58
430.53	3974.23
430.72	4028.06
430.91	3915.72
431.10	4053.81
431.28	4140.41
431.47	4222.33
431.66	4203.60
431.85	4067.85
432.03	4077.21
432.22	4189.56
432.41	4166.15
432.60	4117.00
432.79	4163.81
432.97	4147.43
433.16	4278.50
433.35	4184.88
433.54	4222.33
433.72	4271.48
433.91	4194.24
434.10	4344.03
434.28	4266.80
434.47	4252.75
434.66	4381.48
434.85	4414.25
435.03	4435.32
435.22	4542.98
435.41	4519.57
435.59	4540.64
435.78	4547.66
435.97	4547.66
436.16	4566.39
436.34	4552.34
436.53	4526.60
436.72	4690.43
436.90	4542.98
437.09	4519.57
437.28	4533.62
437.46	4741.93
437.65	4636.60
437.84	4657.67
438.02	4737.24
438.21	4723.20
438.40	4699.80
438.58	4688.09
438.77	4842.57
438.96	4868.31
439.14	5118.75
439.33	4873.00
439.52	5074.28
439.70	4905.76
439.89	5018.11
440.08	5050.88
440.26	5111.73
440.45	4961.94
440.63	5097.69
440.82	5268.55
441.01	5350.46
441.19	5411.32
441.38	5366.85
441.57	5277.91
441.75	5586.86
441.94	5518.98
442.12	5647.71
442.31	5591.54
442.50	5563.45
442.68	5643.03
442.87	5593.88
443.05	5760.06
443.24	5720.27
443.43	5682.82
443.61	5720.27
443.80	5839.64
443.98	5720.27
444.17	5582.18
444.35	5813.89
444.54	5900.49
444.73	5802.19
444.91	5685.16
445.10	5853.68
445.28	5879.43
445.47	5650.05
445.65	5661.76
445.84	5769.42
446.02	5907.51
446.21	5916.87
446.39	5673.46
446.58	5961.34
446.77	5870.06
446.95	5699.20
447.14	5853.68
447.32	5998.79
447.51	5865.38
447.69	5860.70
447.88	6012.84
448.06	5919.21
448.25	5902.83
448.43	5874.74
448.62	5867.72
448.80	6033.90
448.99	6012.84
449.17	5984.75
449.36	5968.37
449.54	6176.67
449.73	6228.17
449.91	6354.55
450.10	6373.28
450.28	6342.85
450.46	6347.53
450.65	6244.55
450.83	6289.02
451.02	6319.45
451.20	6282.00
451.39	6511.37
451.57	6232.85
451.76	6338.17
451.94	6394.34
452.13	6511.37
452.31	6146.25
452.49	6277.32
452.68	6408.39
452.86	6502.01
453.05	6626.06
453.23	6717.34
453.42	6406.05
453.60	6686.91
453.78	6836.70
453.97	6537.12
454.15	6619.04
454.34	6354.55
454.52	6719.68
454.70	6736.06
454.89	6857.77
455.07	6719.68
455.26	6803.94
455.44	6974.80
455.62	6677.55
455.81	6789.89
455.99	6909.26
456.17	7026.29
456.36	7063.74
456.54	7075.44
456.73	7185.44
456.91	7349.28
457.09	7152.68
457.28	7272.04
457.46	7363.33
457.64	7288.43
457.83	7112.89
458.01	7126.93
458.19	7386.73
458.38	7166.72
458.56	7419.50
458.74	7339.92
458.93	7337.58
459.11	7363.33
459.29	7449.93
459.48	7503.76
459.66	7403.11
459.84	7611.42
460.03	7545.89
460.21	7318.86
460.39	7588.02
460.57	7501.42
460.76	7644.19
460.94	7658.23
461.12	7653.55
461.31	7742.49
461.49	7836.11
461.67	7639.51
461.85	7901.65
462.04	7859.52
462.22	7805.69
462.40	7852.50
462.59	7999.95
462.77	7824.41
462.95	7829.09
463.13	8013.99
463.32	8023.36
463.50	8079.53
463.68	7903.99
463.86	8084.21
464.05	7840.79
464.23	8006.97
464.41	8205.92
464.59	7864.20
464.78	8226.98
464.96	8133.36
465.14	8035.06
465.32	8065.49
465.50	8264.43
465.69	8189.53
465.87	8170.81
466.05	8315.92
466.23	8184.85
466.41	8161.45
466.60	8381.46
466.78	8318.26
466.96	8262.09
467.14	8212.94
467.32	8549.98
467.51	8659.98
467.69	8313.58
467.87	8454.02
468.05	8692.75
468.23	8477.42
468.41	8465.72
468.60	8599.13
468.78	8587.43
468.96	8496.14
469.14	8564.02
469.32	9067.24
469.50	8851.91
469.69	8842.54
469.87	8786.37
470.05	8758.28
470.23	8833.18
470.41	8910.42
470.59	8929.14
470.77	9092.98
470.95	8987.66
471.14	9111.71
471.32	8931.48
471.50	9158.52
471.68	9064.89
471.86	9207.67
472.04	9385.55
472.22	9586.83
472.40	9233.41
472.58	9359.80
472.77	9163.20
472.95	9579.81
473.13	9687.48
473.31	9378.53
473.49	9507.26
473.67	9542.36
473.85	9540.02
474.03	9863.02
474.21	9837.27
474.39	10169.63
474.57	9846.63
474.75	9867.70
474.93	10010.47
475.12	10237.50
475.30	10169.63
475.48	10045.58
475.66	10324.10
475.84	10092.39
476.02	10331.12
476.20	10274.95
476.38	10490.28
476.56	10602.63
476.74	10415.38
476.92	10628.37
477.10	10824.98
477.28	10658.80
477.46	10803.91
477.64	10956.05
477.82	11056.69
478.00	11211.17
478.18	11133.93
478.36	11445.22
478.54	11328.19
478.72	11557.57
478.90	11410.11
479.08	11782.26
479.26	11939.07
479.44	11777.58
479.62	11859.49
479.80	11974.18
479.98	11756.51
480.16	12638.89
480.34	12308.88
480.52	12334.62
480.70	12622.51
480.88	12386.12
481.06	12280.79
481.24	12552.29
481.41	12662.30
481.59	12961.89
481.77	13334.03
481.95	13137.43
482.13	13273.18
482.31	13004.02
482.49	13390.20
482.67	13577.45
482.85	13425.31
483.03	13652.34
483.21	13923.85
483.39	13855.97
483.57	13802.14
483.74	13965.98
483.92	14071.30
484.10	13844.27
484.28	14366.21
484.46	14698.56
484.64	14597.92
484.82	14506.64
485.00	14712.61
485.18	14970.07
485.35	14846.02
485.53	14820.27
485.71	15159.65
485.89	15028.58
486.07	15108.16
486.25	15152.63
486.43	15389.02
486.61	15592.65
486.78	15737.76
486.96	15810.32
487.14	15871.17
487.32	16025.65
487.50	16060.76
487.68	16449.28
487.85	16468.01
488.03	16641.21
488.21	16898.67
488.39	17165.49
488.57	17006.33
488.75	16865.90
488.92	17425.29
489.10	17439.33
489.28	17348.05
489.46	17783.39
489.64	17577.42
489.81	18244.48
489.99	18270.22
490.17	18057.23
490.35	18511.30
490.53	18345.12
490.70	18792.16
490.88	18663.43
491.06	18827.27
491.24	19077.71
491.41	19220.48
491.59	19112.81
491.77	19119.84
491.95	19349.21
492.13	19653.48
492.30	19751.78
492.48	19812.63
492.66	19742.42
492.84	20002.22
493.01	20278.40
493.19	20374.36
493.37	20453.94
493.54	20409.47
493.72	20627.14
493.90	20884.60
494.08	20587.35
494.25	21177.17
494.43	20900.98
494.61	21259.09
494.79	21043.76
494.96	21364.41
495.14	21371.43
495.32	21598.46
495.49	21598.46
495.67	21804.43
495.85	21900.39
496.02	22085.30
496.20	22295.94
496.38	22134.45
496.55	22387.22
496.73	22604.89
496.91	22740.64
497.09	22892.78
497.26	22757.03
497.44	22778.09
497.62	22970.02
497.79	23396.00
497.97	23117.47
498.14	23225.14
498.32	23433.44
498.50	23587.92
498.67	23405.36
498.85	23803.25
499.03	23999.85
499.20	23971.77
499.38	23964.75
499.56	24100.50
499.73	24381.36
499.91	23988.15
500.08	24306.46
500.26	24259.65
500.44	24397.74
500.61	24505.41
500.79	24538.18
500.97	24657.54
501.14	25127.99
501.32	25006.28
501.49	24837.76
501.67	24891.60
501.84	25102.25
502.02	25343.32
502.20	25811.43
502.37	25603.12
502.55	25556.31
502.72	25680.36
502.90	26146.12
503.07	25373.75
503.25	25862.92
503.43	25483.75
503.60	25914.41
503.78	25860.58
503.95	25888.67
504.13	26150.81
504.30	26499.55
504.48	26321.66
504.65	26499.55
504.83	26822.54
505.01	26693.81
505.18	26768.71
505.36	26974.67
505.53	26679.77
505.71	27190.00
505.88	27173.62
506.06	26897.44
506.23	27332.78
506.41	26965.31
506.58	27344.48
506.76	27594.92
506.93	27431.08
507.11	27292.99
507.28	27428.74
507.46	27531.72
507.63	27988.13
507.81	28016.21
507.98	27763.43
508.16	27817.27
508.33	28224.52
508.50	28151.96
508.68	28170.69
508.85	28690.29
509.03	28397.72
509.20	28444.53
509.38	28503.04
509.55	28552.20
509.73	28819.02
509.90	28840.08
510.08	29280.10
510.25	28823.70
510.42	29216.91
510.60	29095.20
510.77	29172.44
510.95	29748.21
511.12	29149.03
511.30	29551.60
511.47	29837.15
511.64	29977.58
511.82	29741.19
511.99	29694.38
512.17	30036.09
512.34	29776.30
512.51	29963.54
512.69	30237.38
512.86	30057.16
513.04	30204.61
513.21	30345.05
513.38	30127.38
513.56	30661.02
513.73	30010.35
513.90	30719.53
514.08	30307.60
514.25	30433.99
514.43	30522.93
514.60	31016.78
514.77	30614.21
514.95	31129.12
515.12	31058.91
515.29	30991.03
515.47	31620.64
515.64	31562.12
515.81	31264.88
515.99	31349.14
516.16	31559.78
516.33	30998.06
516.51	31346.79
516.68	30845.92
516.85	31229.77
517.03	31456.80
517.20	31419.35
517.37	31693.19
517.54	31847.67
517.72	31913.20
517.89	31765.75
518.06	31910.86
518.24	31845.33
518.41	31974.06
518.58	32037.25
518.75	32341.52
518.93	32561.53
519.10	32086.40
519.27	32184.71
519.45	32687.92
519.62	32795.59
519.79	32692.60
519.96	32598.98
520.14	33017.94
520.31	32872.82
520.48	33139.65
520.65	32950.06
520.83	33394.76
521.00	33724.78
521.17	33654.56
521.34	33472.00
521.52	33830.10
521.69	33626.48
521.86	33839.47
522.03	33839.47
522.20	33509.45
522.38	33675.63
522.55	34117.99
522.72	33490.73
522.89	34022.03
523.07	34286.51
523.24	33860.53
523.41	34309.91
523.58	34256.08
523.75	34801.43
523.92	34628.23
524.10	34663.33
524.27	34717.17
524.44	34827.17
524.61	34668.02
524.78	35005.05
524.96	34979.31
525.13	34930.16
525.30	34843.56
525.47	35028.46
525.64	34904.41
525.81	34927.81
525.98	35323.36
526.16	35208.68
526.33	34864.62
526.50	35147.82
526.67	35012.07
526.84	35079.95
527.01	35065.91
527.18	35030.80
527.36	35672.10
527.53	35555.08
527.70	35873.39
527.87	35578.48
528.04	35889.77
528.21	35981.06
528.38	35711.89
528.55	36404.69
528.72	36093.40
528.89	36194.04
529.07	36313.41
529.24	35957.65
529.41	35957.65
529.58	36416.40
529.75	35683.81
529.92	36383.63
530.09	36809.61
530.26	36119.15
530.43	36507.68
530.60	36603.64
530.77	36720.66
530.94	36767.48
531.11	36568.53
531.28	36807.26
531.46	37095.15
531.63	37078.77
531.80	36730.03
531.97	36840.03
532.14	36840.03
532.31	36971.10
532.48	37006.21
532.65	36966.42
532.82	37017.91
532.99	37273.03
533.16	37003.87
533.33	37305.80
533.50	37418.14
533.67	37249.63
533.84	37008.55
534.01	37687.31
534.18	37738.80
534.35	37722.41
534.52	38080.52
534.69	37834.76
534.86	38043.07
535.03	37624.11
535.20	38218.61
535.37	37916.68
535.54	38244.35
535.71	37715.39
535.88	38298.19
536.05	37797.31
536.22	38132.01
536.38	38204.56
536.55	37792.63
536.72	38347.34
536.89	37975.19
537.06	37921.36
537.23	38951.20
537.40	38178.82
537.57	38267.76
537.74	38637.56
537.91	38684.37
538.08	38782.68
538.25	38583.73
538.42	38569.69
538.59	38614.16
538.75	38101.58
538.92	38543.94
539.09	39641.65
539.26	38925.45
539.43	38909.07
539.60	38986.30
539.77	38974.60
539.94	38801.40
540.11	38787.36
540.28	39042.48
540.44	38597.77
540.61	39180.57
540.78	38920.77
540.95	39007.37
541.12	39023.75
541.29	39161.84
541.46	39091.63
541.62	39208.65
541.79	39239.08
541.96	39255.46
542.13	39489.52
542.30	39868.69
542.47	39496.54
542.63	39842.94
542.80	39608.89
542.97	40149.55
543.14	40135.51
543.31	39875.71
543.48	40121.46
543.64	40294.66
543.81	40610.64
543.98	40381.26
544.15	40278.28
544.32	40591.91
544.48	40664.47
544.65	40023.16
544.82	40245.51
544.99	40076.99
545.16	40704.26
545.32	40552.12
545.49	41088.10
545.66	40657.45
545.83	40734.68
546.00	40575.53
546.16	40341.47
546.33	40648.08
546.50	40388.28
546.67	40598.93
546.83	40226.79
547.00	40863.41
547.17	40793.20
547.34	40758.09
547.50	40910.22
547.67	41198.11
547.84	41270.67
548.00	41315.14
548.17	41088.10
548.34	41235.56
548.51	41242.58
548.67	41202.79
548.84	41474.29
549.01	40940.65
549.18	41343.22
549.34	41603.02
549.51	41390.03
549.68	41509.40
549.84	41296.41
550.01	41823.03
550.18	41654.51
550.34	41860.48
550.51	41542.17
550.68	41921.34
550.84	41216.83
551.01	41617.07
551.18	41684.94
551.34	41689.62
551.51	42143.69
551.68	41647.49
551.84	41787.92
552.01	41869.84
552.18	41940.06
552.34	41612.38
552.51	42026.66
552.68	42293.48
552.84	42052.41
553.01	42160.07
553.18	42220.92
553.34	42094.53
553.51	41989.21
553.67	41933.04
553.84	42054.75
554.01	42213.90
554.17	42176.45
554.34	42094.53
554.51	42181.13
554.67	42218.58
554.84	42403.49
555.00	42277.10
555.17	42359.02
555.33	42564.98
555.50	42459.66
555.67	42604.77
555.83	42440.93
556.00	42136.66
556.16	42969.90
556.33	42703.07
556.50	42328.59
556.66	42625.84
556.83	42335.61
556.99	42759.25
557.16	43035.43
557.32	42593.07
557.49	42646.90
557.65	42375.40
557.82	42450.30
557.98	43016.71
558.15	42827.12
558.32	42855.21
558.48	42763.93
558.65	42649.24
558.81	42738.18
558.98	42801.38
559.14	42733.50
559.31	42728.82
559.47	43208.63
559.64	43304.59
559.80	43246.08
559.97	43239.06
560.13	42656.26
560.30	42820.10
560.46	43091.60
560.63	43274.16
560.79	43428.64
560.96	43501.20
561.12	43454.39
561.29	43051.81
561.45	43201.61
561.61	43309.27
561.78	42918.40
561.94	43133.73
562.11	42981.60
562.27	43072.88
562.44	43213.31
562.60	43515.24
562.77	43761.00
562.93	42841.17
563.10	43110.33
563.26	42895.00
563.42	43154.80
563.59	43220.33
563.75	43447.36
563.92	43629.93
564.08	43533.96
564.24	43636.95
564.41	43421.62
564.57	43508.22
564.74	43194.59
564.90	43522.26
565.07	43243.74
565.23	43601.84
565.39	43732.91
565.56	43653.33
565.72	43636.95
565.88	43573.75
566.05	43508.22
566.21	43643.97
566.38	43660.35
566.54	43416.94
566.70	43702.48
566.87	43714.19
567.03	43863.98
567.19	44161.23
567.36	43470.77
567.52	43522.26
567.68	43447.36
567.85	43447.36
568.01	43583.12
568.17	43831.21
568.34	44046.54
568.50	43419.28
568.66	44076.97
568.83	43349.06
568.99	43363.11
569.15	43606.52
569.32	43412.26
569.48	43440.34
569.64	43777.38
569.81	43765.68
569.97	43693.12
570.13	43494.18
570.30	43730.57
570.46	43929.51
570.62	43615.88
570.78	43412.26
570.95	43618.22
571.11	44072.29
571.27	43697.80
571.43	43494.18
571.60	43260.12
571.76	43414.60
571.92	44062.93
572.09	43559.71
572.25	43440.34
572.41	43440.34
572.57	43723.55
572.74	44645.72
572.90	44161.23
573.06	43789.08
573.22	43845.26
573.38	44233.78
573.55	43583.12
573.71	44032.50
573.87	43962.28
574.03	43681.42
574.20	44107.40
574.36	44048.88
574.52	44226.76
574.68	43903.77
574.84	44058.24
575.01	44247.83
575.17	44130.80
575.33	43615.88
575.49	44065.27
575.65	44355.49
575.82	43887.39
575.98	43445.02
576.14	44067.61
576.30	44325.07
576.46	44109.74
576.62	43866.32
576.79	44287.62
576.95	43545.67
577.11	44126.12
577.27	44196.34
577.43	44004.41
577.59	43763.34
577.75	44128.46
577.92	43793.76
578.08	43702.48
578.24	43739.93
578.40	44030.16
578.56	44112.08
578.72	43973.98
578.88	44266.55
579.04	44320.38
579.21	43992.71
579.37	44261.87
579.53	43686.10
579.69	43746.95
579.85	44285.28
580.01	43842.92
580.17	44247.83
580.33	44144.84
580.49	43920.15
580.65	44378.90
580.82	44229.10
580.98	43999.73
581.14	44053.56
581.30	44034.84
581.46	43761.00
581.62	44292.30
581.78	44147.18
581.94	44376.56
582.10	43833.55
582.26	44507.63
582.42	44116.76
582.58	44016.11
582.74	43976.33
582.90	44245.49
583.06	44467.84
583.22	44449.11
583.38	44219.74
583.54	44580.18
583.70	44194.00
583.86	44093.35
584.02	43913.13
584.18	44449.11
584.34	44280.60
584.50	44212.72
584.66	43903.77
584.82	43973.98
584.98	44320.38
585.14	44149.53
585.30	44240.81
585.46	44456.14
585.62	44421.03
585.78	44376.56
585.94	43562.05
586.10	44261.87
586.26	44186.97
586.42	44198.68
586.58	44566.14
586.74	44201.02
586.90	44299.32
587.06	44112.08
587.22	44208.04
587.38	43878.02
587.54	44395.28
587.70	44341.45
587.86	44137.82
588.02	44472.52
588.18	44552.10
588.34	43988.03
588.49	43782.06
588.65	44240.81
588.81	43672.06
588.97	44325.07
589.13	43817.17
589.29	44289.96
589.45	44444.43
589.61	44194.00
589.77	44549.76
589.93	44388.26
590.08	44137.82
590.24	44683.17
590.40	44542.74
