SpectraSuite Data File
++++++++++++++++++++++++++++++++++++
Date: Fri Oct 25 11:26:21 EDT 2013
User: price-jones
Dark Spectrum Present: No
Reference Spectrum Present: No
Number of Sampled Component Spectra: 1
Spectrometers: USB2+H05261
Integration Time (usec): 100000 (USB2+H05261)
Spectra Averaged: 1 (USB2+H05261)
Boxcar Smoothing: 0 (USB2+H05261)
Correct for Electrical Dark: No (USB2+H05261)
Strobe/Lamp Enabled: No (USB2+H05261)
Correct for Detector Non-linearity: No (USB2+H05261)
Correct for Stray Light: No (USB2+H05261)
Number of Pixels in Processed Spectrum: 2048
>>>>>Begin Processed Spectral Data<<<<<
365.73	191.92
365.92	191.92
366.12	191.92
366.32	173.20
366.52	107.66
366.72	107.66
366.91	163.84
367.11	133.41
367.31	173.20
367.51	147.45
367.70	166.18
367.90	131.07
368.10	142.77
368.30	170.86
368.49	215.33
368.69	159.16
368.89	161.50
369.09	159.16
369.28	196.60
369.48	182.56
369.68	196.60
369.87	205.97
370.07	194.26
370.27	252.78
370.47	360.44
370.66	585.13
370.86	653.01
371.06	638.97
371.25	723.23
371.45	669.39
371.65	809.83
371.84	662.37
372.04	657.69
372.24	681.10
372.44	774.72
372.63	699.82
372.83	709.18
373.03	786.42
373.22	741.95
373.42	704.50
373.62	697.48
373.81	709.18
374.01	812.17
374.21	842.59
374.40	772.38
374.60	809.83
374.79	819.19
374.99	842.59
375.19	880.04
375.38	854.30
375.58	840.25
375.78	863.66
375.97	840.25
376.17	964.30
376.37	917.49
376.56	877.70
376.76	875.36
376.95	870.68
377.15	858.98
377.35	898.77
377.54	917.49
377.74	936.21
377.93	856.64
378.13	915.15
378.33	919.83
378.52	858.98
378.72	936.21
378.91	994.73
379.11	980.68
379.31	887.06
379.50	966.64
379.70	924.51
379.89	957.28
380.09	1130.48
380.28	1013.45
380.48	1022.81
380.68	1020.47
380.87	976.00
381.07	1083.67
381.26	1107.07
381.46	1032.18
381.65	1015.79
381.85	1041.54
382.04	990.05
382.24	1020.47
382.43	1013.45
382.63	1041.54
382.83	1055.58
383.02	1027.50
383.22	1104.73
383.41	1081.33
383.61	1069.62
383.80	1095.37
384.00	1074.31
384.19	1125.80
384.39	1149.20
384.58	1191.33
384.78	1060.26
384.97	1153.88
385.17	1186.65
385.36	1123.46
385.56	1259.21
385.75	1219.42
385.95	1219.42
386.14	1240.48
386.34	1207.72
386.53	1196.01
386.72	1184.31
386.92	1352.83
387.11	1266.23
387.31	1186.65
387.50	1231.12
387.70	1163.25
387.89	1231.12
388.09	1238.14
388.28	1268.57
388.48	1306.02
388.67	1406.66
388.86	1399.64
389.06	1334.11
389.25	1373.89
389.45	1359.85
389.64	1217.08
389.84	1376.24
390.03	1423.05
390.22	1467.52
390.42	1401.98
390.61	1387.94
390.81	1467.52
391.00	1397.30
391.19	1530.71
391.39	1474.54
391.58	1521.35
391.78	1507.30
391.97	1380.92
392.16	1448.79
392.36	1568.16
392.55	1551.78
392.75	1511.99
392.94	1551.78
393.13	1558.80
393.33	1519.01
393.52	1521.35
393.71	1542.41
393.91	1636.03
394.10	1568.16
394.29	1619.65
394.49	1631.35
394.68	1687.53
394.88	1668.80
395.07	1600.93
395.26	1600.93
395.46	1776.47
395.65	1813.92
395.84	1659.44
396.04	1830.30
396.23	1710.93
396.42	1696.89
396.62	1755.40
396.81	1795.19
397.00	1804.55
397.19	1743.70
397.39	1748.38
397.58	1844.34
397.77	1764.76
397.97	1898.17
398.16	1813.92
398.35	1923.92
398.55	1858.39
398.74	1849.02
398.93	2019.88
399.12	1891.15
399.32	1947.33
399.51	1893.49
399.70	1982.43
399.90	1926.26
400.09	1977.75
400.28	2040.95
400.47	2064.35
400.67	2054.99
400.86	2115.84
401.05	2071.37
401.24	2120.53
401.44	2155.63
401.63	2115.84
401.82	2200.10
402.01	2134.57
402.21	2106.48
402.40	2176.70
402.59	2150.95
402.78	2251.60
402.97	2209.47
403.17	2195.42
403.36	2155.63
403.55	2179.04
403.74	2377.98
403.93	2401.39
404.13	2246.91
404.32	2214.15
404.51	2469.27
404.70	2377.98
404.89	2361.60
405.09	2506.71
405.28	2436.50
405.47	2480.97
405.66	2443.52
405.85	2565.23
406.05	2471.61
406.24	2483.31
406.43	2602.68
406.62	2630.76
406.81	2757.15
407.00	2588.63
407.20	2548.84
407.39	2527.78
407.58	2759.49
407.77	2761.83
407.96	2771.19
408.15	2792.26
408.34	2724.38
408.54	2747.79
408.73	2881.20
408.92	2787.58
409.11	2897.58
409.30	2960.78
409.49	2923.33
409.68	2932.69
409.87	2946.73
410.07	3047.38
410.26	3049.72
410.45	2995.89
410.64	2970.14
410.83	3045.04
411.02	3124.62
411.21	3166.74
411.40	3148.02
411.59	3251.00
411.78	3206.53
411.98	3133.98
412.17	3318.88
412.36	3302.50
412.55	3164.40
412.74	3475.70
412.93	3328.24
413.12	3272.07
413.31	3403.14
413.50	3440.59
413.69	3492.08
413.88	3463.99
414.07	3707.41
414.26	3616.13
414.45	3744.86
414.64	3840.82
414.83	3747.20
415.02	3859.54
415.22	3934.44
415.41	3798.69
415.60	3887.63
415.79	3812.73
415.98	3946.14
416.17	3859.54
416.36	3801.03
416.55	3852.52
416.74	4091.26
416.93	3892.31
417.12	4065.51
417.31	4095.94
417.50	4126.36
417.69	4407.23
417.88	4133.39
418.07	4177.86
418.26	4379.14
418.45	4236.37
418.64	4402.55
418.83	4390.84
419.02	4346.37
419.21	4454.04
419.39	4451.70
419.58	4465.74
419.77	4379.14
419.96	4498.51
420.15	4404.89
420.34	4528.94
420.53	4624.90
420.72	4622.56
420.91	4645.96
421.10	4713.84
421.29	4777.03
421.48	4732.56
421.67	4732.56
421.86	4648.30
422.05	4751.29
422.24	4713.84
422.43	4802.78
422.61	5095.35
422.80	4896.40
422.99	4997.04
423.18	4943.21
423.37	4938.53
423.56	4912.78
423.75	4945.55
423.94	4940.87
424.13	4751.29
424.32	4781.71
424.50	5001.72
424.69	5088.32
424.88	5057.90
425.07	4835.55
425.26	4842.57
425.45	4915.12
425.64	4933.85
425.83	4880.02
426.01	4992.36
426.20	5069.60
426.39	4990.02
426.58	4891.72
426.77	4940.87
426.96	5181.95
427.15	5076.62
427.33	5303.65
427.52	5287.27
427.71	5327.06
427.90	5284.93
428.09	5390.25
428.28	5273.23
428.46	5355.15
428.65	5310.68
428.84	5621.97
429.03	5483.88
429.22	5357.49
429.40	5439.40
429.59	5394.93
429.78	5380.89
429.97	5184.29
430.16	5408.98
430.34	5516.64
430.53	5619.63
430.72	5600.90
430.91	5378.55
431.10	5680.48
431.28	5760.06
431.47	5795.17
431.66	5832.62
431.85	5596.22
432.03	5961.34
432.22	5881.77
432.41	5905.17
432.60	5760.06
432.79	5856.02
432.97	6057.31
433.16	5930.92
433.35	5881.77
433.54	6024.54
433.72	6083.05
433.91	6097.10
434.10	6146.25
434.28	6108.80
434.47	6195.40
434.66	6111.14
434.85	6235.19
435.03	6263.27
435.22	6347.53
435.41	6516.05
435.59	6253.91
435.78	6574.56
435.97	6408.39
436.16	6347.53
436.34	6443.49
436.53	6506.69
436.72	6583.93
436.90	6420.09
437.09	6628.40
437.28	6485.62
437.46	6551.16
437.65	6572.22
437.84	6672.87
438.02	6874.15
438.21	6747.76
438.40	6686.91
438.58	6935.01
438.77	6972.46
438.96	6979.48
439.14	7133.95
439.33	7148.00
439.52	7066.08
439.70	7178.42
439.89	7332.90
440.08	7351.62
440.26	7353.96
440.45	7091.82
440.63	7480.35
440.82	7576.31
441.01	7274.38
441.19	7522.48
441.38	7531.84
441.57	7747.17
441.75	7618.44
441.94	7648.87
442.12	7878.24
442.31	7925.05
442.50	7875.90
442.68	7847.82
442.87	7868.88
443.05	7948.46
443.24	8383.80
443.43	7918.03
443.61	8138.04
443.80	8280.82
443.98	8201.24
444.17	7866.54
444.35	8271.45
444.54	8329.97
444.73	8236.35
444.91	8205.92
445.10	8280.82
445.28	8287.84
445.47	8161.45
445.65	8285.50
445.84	8526.57
446.02	8444.65
446.21	8636.58
446.39	8219.96
446.58	8334.65
446.77	8472.74
446.95	8383.80
447.14	8439.97
447.32	8554.66
447.51	8285.50
447.69	8461.04
447.88	8280.82
448.06	8437.63
448.25	8451.67
448.43	8571.04
448.62	8725.52
448.80	8542.96
448.99	8606.15
449.17	8624.87
449.36	8629.56
449.54	8800.41
449.73	8959.57
449.91	9001.70
450.10	8786.37
450.28	9291.93
450.46	8926.80
450.65	8999.36
450.83	9043.83
451.02	9001.70
451.20	8987.66
451.39	9144.47
451.57	8912.76
451.76	8999.36
451.94	9097.66
452.13	9240.44
452.31	9488.53
452.49	9036.81
452.68	9092.98
452.86	9305.97
453.05	9448.74
453.23	9345.76
453.42	9303.63
453.60	9427.68
453.78	9500.23
453.97	9507.26
454.15	9341.08
454.34	9305.97
454.52	9678.12
454.70	9626.62
454.89	9745.99
455.07	9781.10
455.26	9764.72
455.44	9874.72
455.62	9916.85
455.81	9834.93
455.99	9994.09
456.17	10066.64
456.36	9848.97
456.54	10071.33
456.73	10167.29
456.91	10263.25
457.09	10331.12
457.28	10539.43
457.46	10108.77
457.64	10333.47
457.83	10450.49
458.01	10427.09
458.19	10480.92
458.38	10429.43
458.56	10593.26
458.74	10579.22
458.93	10745.40
459.11	10780.51
459.29	10586.24
459.48	10677.52
459.66	10817.96
459.84	10801.57
460.03	11023.92
460.21	10839.02
460.39	10834.34
460.57	11023.92
460.76	10991.16
460.94	11267.34
461.12	11183.08
461.31	11080.10
461.49	11180.74
461.67	11180.74
461.85	11171.38
462.04	11398.41
462.22	11793.96
462.40	11805.66
462.59	11499.05
462.77	11602.04
462.95	11445.22
463.13	11410.11
463.32	11623.10
463.50	11854.81
463.68	11861.84
463.86	11859.49
464.05	11433.52
464.23	11791.62
464.41	11829.07
464.59	11522.46
464.78	11791.62
464.96	11990.56
465.14	11857.15
465.32	11985.88
465.50	11997.59
465.69	12196.53
465.87	11859.49
466.05	12093.55
466.23	12156.74
466.41	12262.07
466.60	12217.60
466.78	11997.59
466.96	12067.80
467.14	12287.81
467.32	12205.89
467.51	12322.92
467.69	12112.27
467.87	12133.34
468.05	12353.35
468.23	12479.74
468.41	12496.12
468.60	12514.84
468.78	12435.27
468.96	12376.75
469.14	12486.76
469.32	13156.15
469.50	12795.71
469.69	13027.42
469.87	13043.81
470.05	12933.80
470.23	13163.17
470.41	12882.31
470.59	13046.15
470.77	13181.90
470.95	13135.09
471.14	13359.78
471.32	13046.15
471.50	13446.38
471.68	13467.44
471.86	13362.12
472.04	13437.02
472.22	13891.08
472.40	13565.74
472.58	13813.84
472.77	14043.21
472.95	14134.50
473.13	14691.54
473.31	14038.53
473.49	14092.37
473.67	13743.63
473.85	13853.63
474.03	14597.92
474.21	14583.88
474.39	14796.87
474.57	14640.05
474.75	14574.52
474.93	14738.35
475.12	15012.20
475.30	14998.15
475.48	14803.89
475.66	15047.30
475.84	15096.46
476.02	15133.90
476.20	15281.36
476.38	15281.36
476.56	15997.56
476.74	15955.43
476.92	15765.85
477.10	15583.29
477.28	16147.36
477.46	15910.96
477.64	16585.04
477.82	16673.98
478.00	16989.95
478.18	16442.26
478.36	16702.06
478.54	17027.40
478.72	17013.35
478.90	17329.33
479.08	17385.50
479.26	17912.12
479.44	17617.21
479.62	17729.56
479.80	17715.51
479.98	18251.50
480.16	18579.17
480.34	18160.22
480.52	18539.38
480.70	18633.00
480.88	18218.73
481.06	18764.07
481.24	18658.75
481.41	18958.34
481.59	19569.22
481.77	19424.11
481.95	19566.88
482.13	19510.71
482.31	19719.01
482.49	20315.85
482.67	19985.83
482.85	20320.53
483.03	20341.60
483.21	20624.80
483.39	20746.51
483.57	20444.58
483.74	21092.91
483.92	21198.23
484.10	21160.78
484.28	21357.39
484.46	22097.00
484.64	22228.07
484.82	21851.24
485.00	22057.21
485.18	22450.42
485.35	22698.52
485.53	22567.45
485.71	22906.82
485.89	23393.65
486.07	23166.62
486.25	23124.49
486.43	23346.84
486.61	23726.01
486.78	24107.52
486.96	24121.56
487.14	24159.01
487.32	24271.36
487.50	24615.41
487.68	24814.36
487.85	25001.60
488.03	25420.56
488.21	25483.75
488.39	25596.10
488.57	26071.23
488.75	25970.58
488.92	26071.23
489.10	26122.72
489.28	26497.20
489.46	26934.88
489.64	26876.37
489.81	27449.80
489.99	27875.78
490.17	27414.69
490.35	27896.85
490.53	28238.56
490.70	28137.92
490.88	28053.66
491.06	28769.86
491.24	28474.96
491.41	28678.58
491.59	29092.86
491.77	28802.63
491.95	29483.73
492.13	29621.82
492.30	29638.20
492.48	29790.34
492.66	30087.59
492.84	30106.31
493.01	30118.01
493.19	30558.03
493.37	30876.35
493.54	30937.20
493.72	31173.60
493.90	31332.75
494.08	31452.12
494.25	32025.55
494.43	31758.73
494.61	32002.14
494.79	32189.39
494.96	32320.46
495.14	32395.35
495.32	33263.69
495.49	33132.62
495.67	33174.75
495.85	33235.61
496.02	33450.94
496.20	33251.99
496.38	33703.71
496.55	34052.45
496.73	34408.22
496.91	33979.90
497.09	34242.04
497.26	34698.44
497.44	34534.60
497.62	35021.44
497.79	35894.46
497.97	35522.31
498.14	35632.32
498.32	36067.66
498.50	35772.75
498.67	36091.06
498.85	36041.91
499.03	36231.49
499.20	36856.42
499.38	37090.47
499.56	36889.18
499.73	37186.43
499.91	37067.06
500.08	37186.43
500.26	37525.81
500.44	37385.38
500.61	37738.80
500.79	37432.19
500.97	37830.08
501.14	38424.57
501.32	38693.74
501.49	38223.29
501.67	38431.60
501.84	38567.35
502.02	38667.99
502.20	38630.54
502.37	39103.33
502.55	38986.30
502.72	38880.98
502.90	39203.97
503.07	39042.48
503.25	39515.26
503.43	39597.18
503.60	39564.42
503.78	40215.08
503.95	40119.12
504.13	40299.34
504.30	40247.85
504.48	39985.71
504.65	40470.20
504.83	40694.89
505.01	41045.97
505.18	40739.36
505.36	41333.86
505.53	41120.87
505.71	41441.53
505.88	41443.87
506.06	41179.39
506.23	41586.64
506.41	41596.00
506.58	41993.89
506.76	42066.45
506.93	42464.34
507.11	41752.82
507.28	42071.13
507.46	42438.59
507.63	42806.06
507.81	43182.88
507.98	42504.13
508.16	42735.84
508.33	42927.77
508.50	43430.98
508.68	43255.44
508.85	43255.44
509.03	43299.91
509.20	43981.01
509.38	43931.86
509.55	43812.49
509.73	44011.43
509.90	44722.96
510.08	44360.17
510.25	44416.35
510.42	44804.88
510.60	45050.63
510.77	45097.44
510.95	45380.65
511.12	44975.73
511.30	44837.64
511.47	45081.06
511.64	45144.25
511.82	45858.12
511.99	45500.01
512.17	45551.51
512.34	45471.93
512.51	46375.37
512.69	46370.69
512.86	46403.46
513.04	46244.30
513.21	45832.37
513.38	46494.74
513.56	46738.16
513.73	46340.27
513.90	46822.42
514.08	46574.32
514.25	46857.52
514.43	47229.67
514.60	47110.30
514.77	47040.09
514.95	47386.49
515.12	47646.29
515.29	47061.15
515.47	47653.31
515.64	47870.98
515.81	47569.05
515.99	47735.23
516.16	48149.50
516.33	48149.50
516.51	48327.38
516.68	48315.68
516.85	48425.68
517.03	48652.72
517.20	48364.83
517.37	48327.38
517.54	48512.28
517.72	49008.48
517.89	48605.91
518.06	49015.50
518.24	48945.28
518.41	48645.69
518.58	49464.88
518.75	48973.37
518.93	49282.32
519.10	49212.10
519.27	49263.60
519.45	49127.84
519.62	49731.70
519.79	49956.39
519.96	49771.49
520.14	50347.26
520.31	49769.15
520.48	50005.55
520.65	50000.86
520.83	50403.44
521.00	50609.40
521.17	50394.07
521.34	50487.70
521.52	50820.05
521.69	50614.08
521.86	51000.27
522.03	50944.10
522.20	50798.99
522.38	51264.75
522.55	51164.11
522.72	51051.76
522.89	51082.19
523.07	51700.09
523.24	51290.50
523.41	51409.87
523.58	51082.19
523.75	51533.92
523.92	51487.10
524.10	51636.90
524.27	51880.31
524.44	52025.43
524.61	51854.57
524.78	51798.40
524.96	51852.23
525.13	52112.03
525.30	52196.29
525.47	52217.35
525.64	52254.80
525.81	52626.95
525.98	52755.68
526.16	52418.64
526.33	52643.33
526.50	52743.97
526.67	52268.84
526.84	52823.55
527.01	52706.52
527.18	52615.24
527.36	52856.32
527.53	52767.38
527.70	53113.78
527.87	53076.33
528.04	53038.88
528.21	53165.27
528.38	53226.12
528.55	53303.36
528.72	53090.37
528.89	53324.43
529.07	53141.86
529.24	53308.04
529.41	53565.50
529.58	53497.62
529.75	53535.07
529.92	53499.97
530.09	53785.51
530.26	53794.87
530.43	53759.76
530.60	53586.57
530.77	53549.12
530.94	53904.88
531.11	53509.33
531.28	54120.21
531.46	53921.26
531.63	53848.71
531.80	53689.55
531.97	54244.26
532.14	54265.32
532.31	54480.65
532.48	54314.47
532.65	54550.87
532.82	54316.81
532.99	54482.99
533.16	54246.60
533.33	54700.66
533.50	55063.44
533.67	54585.97
533.84	54426.82
534.01	54717.04
534.18	54604.70
534.35	55136.00
534.52	55096.21
534.69	55007.27
534.86	55014.29
535.03	54852.80
535.20	54859.82
535.37	54920.67
535.54	55524.53
535.71	55065.78
535.88	55306.86
536.05	55451.97
536.22	55437.93
536.38	55407.50
536.55	55229.62
536.72	55437.93
536.89	55290.48
537.06	55348.99
537.23	55882.63
537.40	55458.99
537.57	55697.73
537.74	55512.83
537.91	55725.81
538.08	55538.57
538.25	55524.53
538.42	55861.57
538.59	56004.34
538.75	55707.09
538.92	55707.09
539.09	55922.42
539.26	56034.77
539.43	56165.84
539.60	56245.41
539.77	56025.40
539.94	56254.78
540.11	56390.53
540.28	56189.24
540.44	56240.73
540.61	56516.92
540.78	56161.15
540.95	56275.84
541.12	56392.87
541.29	56271.16
541.46	56381.16
541.62	56051.15
541.79	56427.98
541.96	56320.31
542.13	56451.38
542.30	56505.21
542.47	56655.01
542.63	56589.47
542.80	56863.32
542.97	56842.25
543.14	57083.33
543.31	57085.67
543.48	57125.46
543.64	57408.66
543.81	57371.21
543.98	57169.93
544.15	57151.20
544.32	57350.15
544.48	57230.78
544.65	57249.50
544.82	57193.33
544.99	57099.71
545.16	57340.78
545.32	57092.69
545.49	57551.43
545.66	57485.90
545.83	57432.07
546.00	57607.61
546.16	57530.37
546.33	57382.91
546.50	57268.23
546.67	57759.74
546.83	57448.45
547.00	57790.17
547.17	57595.90
547.34	57350.15
547.50	57715.27
547.67	57989.11
547.84	57984.43
548.00	58045.29
548.17	58216.14
548.34	57921.24
548.51	58120.18
548.67	58239.55
548.84	57904.85
549.01	57799.53
549.18	58019.54
549.34	58049.97
549.51	58183.38
549.68	58082.73
549.84	58145.93
550.01	58237.21
550.18	57991.45
550.34	58372.96
550.51	58157.63
550.68	58440.84
550.84	57939.96
551.01	58316.79
551.18	58351.90
551.34	58185.72
551.51	58370.62
551.68	58438.50
551.84	58410.41
552.01	58213.80
552.18	58426.79
552.34	58174.02
552.51	58599.99
552.68	58253.59
552.84	58745.11
553.01	58855.11
553.18	58679.57
553.34	58808.30
553.51	58532.12
553.67	58482.97
553.84	58738.08
554.01	58658.51
554.17	58735.74
554.34	58976.82
554.51	58880.86
554.67	58808.30
554.84	58595.31
555.00	58946.39
555.17	58866.81
555.33	58965.12
555.50	58855.11
555.67	58614.04
555.83	58920.65
556.00	59021.29
556.16	59077.46
556.33	59084.48
556.50	59131.29
556.66	59049.38
556.83	58930.01
556.99	59091.51
557.16	59430.88
557.32	59348.96
557.49	59250.66
557.65	59192.15
557.82	59201.51
557.98	59189.81
558.15	59325.56
558.32	59182.79
558.48	59576.00
558.65	59358.33
558.81	59419.18
558.98	59309.18
559.14	59456.63
559.31	59456.63
559.47	59662.60
559.64	59540.89
559.80	59554.93
559.97	59735.15
560.13	59444.93
560.30	59510.46
560.46	59746.86
560.63	59728.13
560.79	59625.15
560.96	59704.73
561.12	59629.83
561.29	59634.51
561.45	59662.60
561.61	59744.51
561.78	59583.02
561.94	59625.15
562.11	59742.17
562.27	59854.52
562.44	59803.03
562.60	59765.58
562.77	59875.58
562.93	59819.41
563.10	60065.17
563.26	59826.43
563.42	59962.18
563.59	59770.26
563.75	60011.34
563.92	59779.62
564.08	59749.20
564.24	60135.38
564.41	60065.17
564.57	60053.47
564.74	59877.93
564.90	59990.27
565.07	60044.10
565.23	59894.31
565.39	59842.82
565.56	60243.05
565.72	59999.63
565.88	59852.18
566.05	60016.02
566.21	60135.38
566.38	60055.81
566.54	60041.76
566.70	60334.33
566.87	60322.63
567.03	59976.23
567.19	60306.24
567.36	60119.00
567.52	60104.96
567.68	60355.39
567.85	60179.85
568.01	60212.62
568.17	60221.98
568.34	60292.20
568.50	60221.98
568.66	60294.54
568.83	60367.10
568.99	60053.47
569.15	60336.67
569.32	60273.48
569.48	60219.64
569.64	60371.78
569.81	60111.98
569.97	60229.01
570.13	60191.56
570.30	60126.02
570.46	60261.77
570.62	60229.01
570.78	60200.92
570.95	60238.37
571.11	60465.40
571.27	60470.08
571.43	60364.76
571.60	60458.38
571.76	60294.54
571.92	60500.51
572.09	60402.21
572.25	60381.14
572.41	60392.84
572.57	60432.63
572.74	60704.13
572.90	60306.24
573.06	60533.28
573.22	60537.96
573.38	60411.57
573.55	60397.52
573.71	60720.52
573.87	60495.83
574.03	60381.14
574.20	60299.22
574.36	60383.48
574.52	60640.94
574.68	60573.06
574.84	60582.43
575.01	60711.16
575.17	60444.33
575.33	60411.57
575.49	60526.25
575.65	60577.75
575.82	60568.38
575.98	60470.08
576.14	60863.29
576.30	60907.76
576.46	60413.91
576.62	60460.72
576.79	60594.13
576.95	60376.46
577.11	60554.34
577.27	60739.24
577.43	60615.19
577.59	60601.15
577.75	60523.91
577.92	60350.71
578.08	60439.65
578.24	60636.26
578.40	60800.10
578.56	60748.60
578.72	60851.59
578.88	60933.51
579.04	60713.50
579.21	60671.37
579.37	60718.18
579.53	60666.69
579.69	60617.53
579.85	60849.25
580.01	60500.51
580.17	60596.47
580.33	60816.48
580.49	60779.03
580.65	60664.35
580.82	60748.60
580.98	60645.62
581.14	60610.51
581.30	60804.78
581.46	60708.82
581.62	60757.97
581.78	60500.51
581.94	60874.99
582.10	60650.30
582.26	60659.66
582.42	60685.41
582.58	60893.72
582.74	60561.36
582.90	60898.40
583.06	60741.58
583.22	60577.75
583.38	60818.82
583.54	60804.78
583.70	60793.07
583.86	61024.79
584.02	60673.71
584.18	61017.77
584.34	60896.06
584.50	60786.05
584.66	60837.54
584.82	60638.60
584.98	60966.27
585.14	60802.44
585.30	60669.03
585.46	61029.47
585.62	60807.12
585.78	61010.74
585.94	60734.56
586.10	60842.23
586.26	61008.40
586.42	61057.56
586.58	61123.09
586.74	61017.77
586.90	60889.04
587.06	60697.11
587.22	60867.97
587.38	60804.78
587.54	61048.19
587.70	61038.83
587.86	61031.81
588.02	60870.31
588.18	61092.66
588.34	60940.53
588.49	60786.05
