SpectraSuite Data File
++++++++++++++++++++++++++++++++++++
Date: Fri Oct 25 11:25:37 EDT 2013
User: price-jones
Dark Spectrum Present: No
Reference Spectrum Present: No
Number of Sampled Component Spectra: 1
Spectrometers: USB2+H05261
Integration Time (usec): 100000 (USB2+H05261)
Spectra Averaged: 1 (USB2+H05261)
Boxcar Smoothing: 0 (USB2+H05261)
Correct for Electrical Dark: No (USB2+H05261)
Strobe/Lamp Enabled: No (USB2+H05261)
Correct for Detector Non-linearity: No (USB2+H05261)
Correct for Stray Light: No (USB2+H05261)
Number of Pixels in Processed Spectrum: 2048
>>>>>Begin Processed Spectral Data<<<<<
365.73	294.91
365.92	294.91
366.12	294.91
366.32	177.88
366.52	170.86
366.72	114.69
366.91	217.67
367.11	117.03
367.31	86.60
367.51	154.48
367.70	121.71
367.90	229.37
368.10	119.37
368.30	156.82
368.49	131.07
368.69	154.48
368.89	88.94
369.09	166.18
369.28	194.26
369.48	152.13
369.68	145.11
369.87	173.20
370.07	205.97
370.27	231.71
370.47	320.65
370.66	564.07
370.86	524.28
371.06	685.78
371.25	641.31
371.45	678.76
371.65	727.91
371.84	643.65
372.04	774.72
372.24	655.35
372.44	660.03
372.63	734.93
372.83	739.61
373.03	819.19
373.22	812.17
373.42	748.97
373.62	758.33
373.81	753.65
374.01	856.64
374.21	833.23
374.40	847.27
374.60	870.68
374.79	791.10
374.99	866.00
375.19	908.13
375.38	901.11
375.58	856.64
375.78	884.72
375.97	870.68
376.17	856.64
376.37	926.85
376.56	898.77
376.76	910.47
376.95	858.98
377.15	968.98
377.35	887.06
377.54	919.83
377.74	816.85
377.93	915.15
378.13	933.87
378.33	901.11
378.52	884.72
378.72	905.79
378.91	952.60
379.11	943.24
379.31	997.07
379.50	863.66
379.70	929.19
379.89	968.98
380.09	861.32
380.28	1006.43
380.48	980.68
380.68	898.77
380.87	1006.43
381.07	1055.58
381.26	987.71
381.46	1001.75
381.65	1074.31
381.85	1083.67
382.04	1086.01
382.24	1046.22
382.43	1041.54
382.63	1006.43
382.83	1071.97
383.02	1135.16
383.22	1123.46
383.41	1076.65
383.61	1081.33
383.80	1172.61
384.00	1102.39
384.19	1102.39
384.39	1160.91
384.58	1135.16
384.78	1114.10
384.97	1156.22
385.17	1130.48
385.36	1212.40
385.56	1238.14
385.75	1256.87
385.95	1151.54
386.14	1196.01
386.34	1144.52
386.53	1203.04
386.72	1177.29
386.92	1198.35
387.11	1268.57
387.31	1254.53
387.50	1296.66
387.70	1233.46
387.89	1245.16
388.09	1277.93
388.28	1289.64
388.48	1221.76
388.67	1242.82
388.86	1249.85
389.06	1331.76
389.25	1371.55
389.45	1275.59
389.64	1359.85
389.84	1345.81
390.03	1437.09
390.22	1378.58
390.42	1397.30
390.61	1352.83
390.81	1299.00
391.00	1418.36
391.19	1432.41
391.39	1430.07
391.58	1427.73
391.78	1472.20
391.97	1483.90
392.16	1540.07
392.36	1570.50
392.55	1479.22
392.75	1474.54
392.94	1626.67
393.13	1469.86
393.33	1521.35
393.52	1451.13
393.71	1507.30
393.91	1610.29
394.10	1549.43
394.29	1610.29
394.49	1598.59
394.68	1650.08
394.88	1687.53
395.07	1694.55
395.26	1558.80
395.46	1638.38
395.65	1764.76
395.84	1659.44
396.04	1734.34
396.23	1734.34
396.42	1748.38
396.62	1708.59
396.81	1717.95
397.00	1764.76
397.19	1774.13
397.39	1781.15
397.58	1790.51
397.77	1799.87
397.97	1797.53
398.16	1781.15
398.35	1839.66
398.55	1860.73
398.74	1834.98
398.93	1961.37
399.12	1994.14
399.32	1898.17
399.51	1940.30
399.70	1907.54
399.90	1891.15
400.09	2036.27
400.28	2008.18
400.47	2024.56
400.67	2010.52
400.86	2101.80
401.05	2026.90
401.24	2078.40
401.44	2122.87
401.63	2155.63
401.82	2064.35
402.01	2087.76
402.21	2125.21
402.40	2160.31
402.59	2125.21
402.78	2202.44
402.97	2296.07
403.17	2228.19
403.36	2209.47
403.55	2326.49
403.74	2282.02
403.93	2270.32
404.13	2406.07
404.32	2338.20
404.51	2420.11
404.70	2394.37
404.89	2394.37
405.09	2480.97
405.28	2490.33
405.47	2417.77
405.66	2544.16
405.85	2455.22
406.05	2476.29
406.24	2602.68
406.43	2609.70
406.62	2572.25
406.81	2630.76
407.00	2537.14
407.20	2661.19
407.39	2525.44
407.58	2670.55
407.77	2750.13
407.96	2775.88
408.15	2764.17
408.34	2738.43
408.54	2764.17
408.73	2869.50
408.92	2787.58
409.11	2813.32
409.30	2913.97
409.49	2860.13
409.68	2911.63
409.87	2977.16
410.07	2981.84
410.26	3021.63
410.45	2998.23
410.64	3045.04
410.83	3094.19
411.02	3007.59
411.21	3220.58
411.40	3030.99
411.59	3227.60
411.78	3122.27
411.98	3056.74
412.17	3227.60
412.36	3253.34
412.55	3316.54
412.74	3332.92
412.93	3323.56
413.12	3391.44
413.31	3445.27
413.50	3389.10
413.69	3403.14
413.88	3623.15
414.07	3508.46
414.26	3714.43
414.45	3655.92
414.64	3763.58
414.83	3730.81
415.02	3833.80
415.22	3864.22
415.41	3812.73
415.60	3817.41
415.79	3908.69
415.98	4007.00
416.17	3971.89
416.36	3967.21
416.55	3882.95
416.74	4037.42
416.93	4014.02
417.12	4222.33
417.31	4177.86
417.50	4044.45
417.69	4184.88
417.88	4259.78
418.07	4252.75
418.26	4379.14
418.45	4449.36
418.64	4444.68
418.83	4432.97
419.02	4430.63
419.21	4362.76
419.39	4554.68
419.58	4540.64
419.77	4411.91
419.96	4425.95
420.15	4578.09
420.34	4638.94
420.53	4540.64
420.72	4652.98
420.91	4634.26
421.10	4671.71
421.29	4685.75
421.48	4678.73
421.67	4613.20
421.86	4849.59
422.05	4704.48
422.24	4760.65
422.43	4896.40
422.61	4882.36
422.80	4929.17
422.99	4758.31
423.18	4931.51
423.37	5097.69
423.56	5013.43
423.75	4798.10
423.94	4873.00
424.13	4615.54
424.32	4702.14
424.50	5013.43
424.69	5109.39
424.88	4978.32
425.07	4840.23
425.26	4990.02
425.45	5015.77
425.64	4964.28
425.83	4912.78
426.01	5001.72
426.20	5046.20
426.39	5041.51
426.58	4992.36
426.77	5018.11
426.96	5221.74
427.15	5188.97
427.33	5043.85
427.52	5167.90
427.71	5137.48
427.90	5277.91
428.09	5284.93
428.28	5448.77
428.46	5390.25
428.65	5228.76
428.84	5355.15
429.03	5399.62
429.22	5195.99
429.40	5364.51
429.59	5472.17
429.78	5348.12
429.97	5327.06
430.16	5378.55
430.34	5568.13
430.53	5636.01
430.72	5659.42
430.91	5561.11
431.10	5647.71
431.28	5703.89
431.47	5797.51
431.66	5839.64
431.85	5575.16
432.03	5914.53
432.22	6073.69
432.41	6033.90
432.60	5825.59
432.79	5884.11
432.97	5942.62
433.16	6012.84
433.35	6188.38
433.54	6033.90
433.72	6108.80
433.91	6134.54
434.10	6174.33
434.28	6024.54
434.47	6118.16
434.66	6148.59
434.85	6326.47
435.03	6328.81
435.22	6246.89
435.41	6504.35
435.59	6333.49
435.78	6424.77
435.97	6422.43
436.16	6452.86
436.34	6534.78
436.53	6504.35
436.72	6558.18
436.90	6525.41
437.09	6616.69
437.28	6541.80
437.46	6457.54
437.65	6436.47
437.84	6654.14
438.02	6675.21
438.21	6857.77
438.40	6595.63
438.58	7059.06
438.77	6862.45
438.96	6965.43
439.14	7040.33
439.33	7152.68
439.52	7166.72
439.70	7232.26
439.89	7417.16
440.08	7428.86
440.26	7368.01
440.45	7379.71
440.63	7337.58
440.82	7517.80
441.01	7405.46
441.19	7653.55
441.38	7644.19
441.57	7730.79
441.75	7765.90
441.94	7758.88
442.12	7981.23
442.31	7939.10
442.50	7906.33
442.68	8177.83
442.87	7941.44
443.05	8119.32
443.24	8273.79
443.43	8116.98
443.61	8372.10
443.80	8315.92
443.98	7831.43
444.17	7962.50
444.35	8222.30
444.54	8224.64
444.73	8304.22
444.91	8407.20
445.10	8336.99
445.28	8327.63
445.47	8259.75
445.65	8421.25
445.84	8285.50
446.02	8393.16
446.21	8264.43
446.39	8432.95
446.58	8409.54
446.77	8322.94
446.95	8215.28
447.14	8400.18
447.32	8540.61
447.51	8297.20
447.69	8449.33
447.88	8414.23
448.06	8580.40
448.25	8432.95
448.43	8610.83
448.62	8681.05
448.80	8568.70
448.99	8545.30
449.17	8709.13
449.36	8720.84
449.54	8758.28
449.73	9006.38
449.91	8919.78
450.10	8938.51
450.28	8891.70
450.46	8980.64
450.65	8777.01
450.83	8922.12
451.02	8980.64
451.20	9207.67
451.39	9008.72
451.57	9195.96
451.76	8894.04
451.94	9310.65
452.13	9334.06
452.31	9247.46
452.49	9102.34
452.68	9446.40
452.86	9397.25
453.05	9577.47
453.23	9268.52
453.42	9240.44
453.60	9275.54
453.78	9240.44
453.97	9320.01
454.15	9511.94
454.34	9298.95
454.52	9600.88
454.70	9757.69
454.89	9799.82
455.07	10008.13
455.26	9858.34
455.44	10015.15
455.62	9771.74
455.81	9907.49
455.99	9830.25
456.17	10230.48
456.36	10101.75
456.54	10141.54
456.73	10408.36
456.91	10509.01
457.09	10466.88
457.28	10504.32
457.46	10429.43
457.64	10293.68
457.83	10399.00
458.01	10251.55
458.19	10876.47
458.38	10403.68
458.56	10752.42
458.74	10684.55
458.93	10530.07
459.11	10647.10
459.29	10630.71
459.48	10719.65
459.66	10670.50
459.84	10874.13
460.03	11094.14
460.21	10993.50
460.39	10740.72
460.57	11115.20
460.76	11370.32
460.94	11164.36
461.12	11009.88
461.31	11147.97
461.49	11002.86
461.67	11126.91
461.85	11318.83
462.04	11253.30
462.22	11700.34
462.40	11337.56
462.59	11538.84
462.77	11389.05
462.95	11550.54
463.13	11538.84
463.32	11290.74
463.50	11538.84
463.68	11676.93
463.86	11709.70
464.05	11438.20
464.23	11599.70
464.41	11857.15
464.59	11669.91
464.78	12149.72
464.96	12159.08
465.14	11808.00
465.32	11812.68
465.50	12233.98
465.69	12180.15
465.87	12175.47
466.05	12051.42
466.23	11946.09
466.41	12142.70
466.60	12348.67
466.78	12020.99
466.96	12210.57
467.14	12109.93
467.32	12196.53
467.51	12372.07
467.69	12248.02
467.87	12409.52
468.05	12446.97
468.23	12554.63
468.41	12262.07
468.60	12479.74
468.78	12685.70
468.96	12652.94
469.14	12737.20
469.32	12945.50
469.50	12535.91
469.69	12863.58
469.87	13144.45
470.05	13142.11
470.23	13041.46
470.41	12776.98
470.59	13027.42
470.77	13032.10
470.95	13259.13
471.14	13275.52
471.32	13137.43
471.50	13451.06
471.68	13628.94
471.86	13575.11
472.04	13434.68
472.22	13841.93
472.40	13668.73
472.58	13944.91
472.77	13912.14
472.95	13661.71
473.13	14448.13
473.31	14136.84
473.49	14120.45
473.67	14197.69
473.85	14270.25
474.03	14562.81
474.21	14424.72
474.39	14743.03
474.57	14583.88
474.75	14846.02
474.93	14712.61
475.12	14757.08
475.30	15138.58
475.48	14794.53
475.66	14895.17
475.84	15232.21
476.02	15276.68
476.20	15239.23
476.38	15559.88
476.56	15880.53
476.74	15936.71
476.92	15543.50
477.10	15576.27
477.28	16266.72
477.46	16203.53
477.64	16311.19
477.82	16435.24
478.00	16924.41
478.18	16582.70
478.36	16545.25
478.54	17088.25
478.72	17198.26
478.90	17334.01
479.08	17589.13
479.26	17392.52
479.44	17764.67
479.62	17736.58
479.80	18258.52
479.98	17792.75
480.16	18679.82
480.34	18359.16
480.52	18427.04
480.70	18677.48
480.88	18288.95
481.06	18473.85
481.24	18916.21
481.41	18764.07
481.59	19108.13
481.77	19360.91
481.95	19459.21
482.13	19623.05
482.31	19515.39
482.49	20423.51
482.67	20222.23
482.85	20545.22
483.03	20442.24
483.21	20489.05
483.39	20643.52
483.57	20842.47
483.74	21088.23
483.92	21352.71
484.10	21212.28
484.28	21418.24
484.46	21736.56
484.64	22232.75
484.82	21795.07
485.00	22235.09
485.18	22457.44
485.35	22916.19
485.53	22733.62
485.71	22841.29
485.89	23154.92
486.07	23318.76
486.25	23321.10
486.43	23393.65
486.61	23431.10
486.78	24009.22
486.96	24222.20
487.14	24290.08
487.32	24737.12
487.50	24416.47
487.68	24805.00
487.85	24954.79
488.03	25137.35
488.21	25486.09
488.39	25617.16
488.57	26054.84
488.75	25680.36
488.92	26583.80
489.10	26501.89
489.28	26827.22
489.46	27101.06
489.64	26918.50
489.81	27688.54
489.99	27552.79
490.17	27908.55
490.35	28095.79
490.53	28149.62
490.70	28325.16
490.88	28149.62
491.06	28830.72
491.24	28783.91
491.41	29298.83
491.59	29277.76
491.77	28793.27
491.95	29350.32
492.13	29490.75
492.30	29624.16
492.48	30101.63
492.66	30213.98
492.84	30534.63
493.01	30679.74
493.19	30286.53
493.37	30820.17
493.54	31030.82
493.72	31065.93
493.90	30995.71
494.08	31468.50
494.25	31995.12
494.43	32051.30
494.61	31807.88
494.79	32488.98
494.96	32137.90
495.14	32737.07
495.32	33130.28
495.49	33146.67
495.67	32875.16
495.85	33291.78
496.02	33261.35
496.20	34047.77
496.38	33846.49
496.55	33912.02
496.73	34726.53
496.91	34459.71
497.09	34623.54
497.26	34408.22
497.44	35012.07
497.62	35229.74
497.79	35714.23
497.97	35056.54
498.14	36009.14
498.32	35857.01
498.50	35945.95
498.67	36381.29
498.85	36376.61
499.03	36332.14
499.20	36268.94
499.38	36659.81
499.56	37184.09
499.73	36959.40
499.91	37249.63
500.08	37432.19
500.26	37195.79
500.44	37282.39
500.61	37640.50
500.79	37708.37
500.97	38232.65
501.14	38216.27
501.32	38532.24
501.49	38096.90
501.67	38368.40
501.84	38906.73
502.02	38932.47
502.20	38705.44
502.37	39068.22
502.55	39274.19
502.72	39351.43
502.90	39459.09
503.07	39480.16
503.25	39569.10
503.43	39129.08
503.60	39433.35
503.78	40458.50
503.95	40018.48
504.13	40631.70
504.30	40814.26
504.48	40350.84
504.65	40811.92
504.83	40816.60
505.01	41432.16
505.18	41198.11
505.36	41273.01
505.53	41268.33
505.71	41345.56
505.88	41820.69
506.06	41331.52
506.23	42206.88
506.41	41511.74
506.58	41909.63
506.76	42120.28
506.93	42359.02
507.11	41869.84
507.28	42373.06
507.46	42621.16
507.63	42553.28
507.81	42808.40
507.98	42642.22
508.16	43459.07
508.33	43358.42
508.50	43335.02
508.68	43349.06
508.85	43824.19
509.03	43335.02
509.20	43770.36
509.38	44472.52
509.55	44196.34
509.73	44879.77
509.90	44135.48
510.08	44044.20
510.25	44547.42
510.42	44645.72
510.60	44919.56
510.77	45123.19
510.95	45441.50
511.12	44706.57
511.30	45076.38
511.47	45146.59
511.64	45516.40
511.82	45083.40
511.99	45621.72
512.17	45998.55
512.34	45972.80
512.51	46127.28
512.69	46333.24
512.86	46396.44
513.04	46431.55
513.21	45827.69
513.38	46789.65
513.56	46677.30
513.73	46600.07
513.90	46363.67
514.08	46756.88
514.25	46965.19
514.43	47070.51
514.60	47016.68
514.77	47028.38
514.95	47089.24
515.12	47391.17
515.29	47676.71
515.47	47501.17
515.64	48112.05
515.81	47751.61
515.99	47973.96
516.16	48126.10
516.33	48563.78
516.51	48474.84
516.68	48332.06
516.85	48313.34
517.03	49085.72
517.20	48449.09
517.37	48514.62
517.54	48741.66
517.72	48835.28
517.89	49130.19
518.06	48985.07
518.24	49031.88
518.41	49247.21
518.58	49226.15
518.75	49258.91
518.93	49682.55
519.10	49406.37
519.27	49439.14
519.45	49446.16
519.62	49741.06
519.79	50085.12
519.96	49659.15
520.14	49825.32
520.31	49837.03
520.48	50120.23
520.65	50438.54
520.83	50277.05
521.00	50635.15
521.17	50373.01
521.34	50307.47
521.52	50611.74
521.69	50824.73
521.86	50714.73
522.03	51124.32
522.20	51105.60
522.38	51117.30
522.55	51489.45
522.72	51035.38
522.89	50932.40
523.07	51707.12
523.24	51452.00
523.41	51672.01
523.58	51377.10
523.75	51262.41
523.92	51444.98
524.10	51643.92
524.27	51824.14
524.44	51943.51
524.61	51934.15
524.78	51987.98
524.96	51943.51
525.13	52236.08
525.30	52505.24
525.47	52425.66
525.64	52334.38
525.81	52236.08
525.98	52580.13
526.16	52547.37
526.33	52535.66
526.50	52793.12
526.67	52456.09
526.84	52512.26
527.01	52669.08
527.18	52633.97
527.36	52811.85
527.53	53020.16
527.70	53453.15
527.87	53017.82
528.04	53242.51
528.21	53357.19
528.38	53200.38
528.55	53289.32
528.72	53696.57
528.89	53469.54
529.07	53209.74
529.24	53331.45
529.41	53347.83
529.58	53282.30
529.75	53609.97
529.92	53773.81
530.09	53420.39
530.26	53876.79
530.43	53696.57
530.60	53682.53
530.77	53731.68
530.94	53956.37
531.11	53869.77
531.28	54300.43
531.46	54188.08
531.63	54134.25
531.80	54239.57
531.97	54321.49
532.14	54270.00
532.31	54466.61
532.48	54454.90
532.65	54258.30
532.82	54295.75
532.99	54597.68
533.16	54539.16
533.33	54546.18
533.50	54871.52
533.67	54923.01
533.84	54499.37
534.01	54695.98
534.18	54745.13
534.35	55070.46
534.52	54908.97
534.69	54941.74
534.86	55035.36
535.03	55011.95
535.20	55000.25
535.37	55325.58
535.54	55370.05
535.71	55124.30
535.88	55332.60
536.05	55377.08
536.22	55325.58
536.38	55384.10
536.55	55437.93
536.72	55580.70
536.89	55103.23
537.06	55360.69
537.23	55646.24
537.40	55571.34
537.57	55749.22
537.74	55547.93
537.91	55735.18
538.08	55742.20
538.25	55458.99
538.42	55807.73
538.59	55957.53
538.75	55540.91
538.92	55847.52
539.09	56123.71
539.26	56090.94
539.43	55920.08
539.60	56023.06
539.77	55840.50
539.94	56112.00
540.11	56055.83
540.28	56509.89
540.44	56411.59
540.61	56570.75
540.78	56163.50
540.95	56198.60
541.12	56116.68
541.29	56315.63
541.46	56451.38
541.62	56339.04
541.79	56638.62
541.96	56030.08
542.13	56442.02
542.30	56530.96
542.47	56662.03
542.63	57076.30
542.80	56903.10
542.97	56933.53
543.14	57024.81
543.31	57059.92
543.48	56968.64
543.64	57315.04
543.81	57293.97
543.98	57139.50
544.15	57340.78
544.32	57286.95
544.48	57631.01
544.65	57162.90
544.82	56968.64
544.99	57109.07
545.16	57490.58
545.32	57350.15
545.49	57567.82
545.66	57319.72
545.83	57570.16
546.00	57680.16
546.16	57623.99
546.33	57406.32
546.50	57286.95
546.67	57759.74
546.83	57490.58
547.00	57450.79
547.17	57284.61
547.34	57804.21
547.50	57949.32
547.67	58183.38
547.84	57844.00
548.00	57956.35
548.17	58101.46
548.34	58103.80
548.51	58115.50
548.67	58033.58
548.84	57925.92
549.01	57911.88
549.18	57977.41
549.34	58216.14
549.51	58248.91
549.68	58166.99
549.84	58340.19
550.01	58578.93
550.18	58277.00
550.34	58363.60
550.51	58326.15
550.68	58408.07
550.84	58174.02
551.01	58288.70
551.18	58370.62
551.34	58281.68
551.51	58408.07
551.68	58356.58
551.84	58534.46
552.01	58489.99
552.18	58562.54
552.34	58485.31
552.51	58637.44
552.68	58543.82
552.84	58560.20
553.01	58752.13
553.18	58618.72
553.34	58724.04
553.51	58546.16
553.67	58658.51
553.84	58581.27
554.01	58635.10
554.17	58845.75
554.34	58812.98
554.51	58836.39
554.67	59079.80
554.84	59054.06
555.00	58684.25
555.17	58946.39
555.33	58710.00
555.50	58897.24
555.67	58852.77
555.83	58817.66
556.00	58955.75
556.16	59302.15
556.33	59264.70
556.50	59032.99
556.66	59281.09
556.83	58988.52
556.99	59299.81
557.16	59437.90
557.32	59194.49
557.49	59496.42
557.65	59496.42
557.82	59295.13
557.98	59143.00
558.15	59253.00
558.32	59227.26
558.48	59131.29
558.65	59475.35
558.81	59421.52
558.98	59365.35
559.14	59545.57
559.31	59449.61
559.47	59693.02
559.64	59423.86
559.80	59372.37
559.97	59604.08
560.13	59402.80
560.30	59508.12
560.46	59524.50
560.63	59700.04
560.79	59845.16
560.96	59737.49
561.12	59653.23
561.29	59751.54
561.45	59786.64
561.61	59800.69
561.78	59620.47
561.94	59391.09
562.11	59910.69
562.27	59711.75
562.44	59786.64
562.60	59863.88
562.77	59913.03
562.93	59465.99
563.10	60039.42
563.26	59613.44
563.42	60011.34
563.59	59791.33
563.75	59870.90
563.92	59849.84
564.08	59859.20
564.24	60264.11
564.41	60060.49
564.57	60058.15
564.74	59868.56
564.90	59908.35
565.07	60074.53
565.23	60161.13
565.39	59999.63
565.56	60168.15
565.72	60065.17
565.88	60069.85
566.05	60062.83
566.21	59938.78
566.38	60140.07
566.54	60266.45
566.70	60229.01
566.87	60313.26
567.03	60055.81
567.19	60278.16
567.36	60364.76
567.52	60025.38
567.68	60437.31
567.85	60278.16
568.01	60236.03
568.17	60243.05
568.34	60402.21
568.50	60097.94
568.66	60348.37
568.83	60360.08
568.99	60154.11
569.15	60320.29
569.32	60395.18
569.48	60231.35
569.64	60324.97
569.81	60310.92
569.97	60331.99
570.13	60381.14
570.30	60193.90
570.46	60324.97
570.62	60502.85
570.78	60378.80
570.95	60360.08
571.11	60364.76
571.27	60540.30
571.43	60484.12
571.60	60542.64
571.76	60392.84
571.92	60444.33
572.09	60350.71
572.25	60488.80
572.41	60219.64
572.57	60395.18
572.74	60631.58
572.90	60608.17
573.06	60720.52
573.22	60603.49
573.38	60554.34
573.55	60687.75
573.71	60750.94
573.87	60507.53
574.03	60535.62
574.20	60720.52
574.36	60582.43
574.52	60692.43
574.68	60608.17
574.84	60828.18
575.01	60547.32
575.17	60636.26
575.33	60456.04
575.49	60430.29
575.65	60704.13
575.82	60715.84
575.98	60664.35
576.14	60816.48
576.30	60779.03
576.46	60542.64
576.62	60441.99
576.79	60715.84
576.95	60434.97
577.11	60837.54
577.27	60741.58
577.43	60800.10
577.59	60610.51
577.75	60662.00
577.92	60615.19
578.08	60638.60
578.24	60823.50
578.40	60973.30
578.56	60874.99
578.72	60610.51
578.88	60795.42
579.04	60669.03
579.21	60877.33
579.37	60825.84
579.53	60699.45
579.69	60432.63
579.85	60779.03
580.01	60591.79
580.17	60683.07
580.33	60659.66
580.49	60977.98
580.65	61038.83
580.82	60858.61
580.98	60619.88
581.14	60669.03
581.30	60870.31
581.46	60692.43
581.62	60762.65
581.78	60563.70
581.94	60917.12
582.10	60921.80
582.26	60825.84
582.42	60825.84
582.58	60802.44
582.74	60680.73
582.90	60708.82
583.06	61069.26
583.22	60666.69
583.38	60802.44
583.54	60715.84
583.70	60994.36
583.86	60804.78
584.02	60732.22
584.18	61027.13
584.34	60790.73
584.50	61031.81
584.66	60804.78
584.82	60643.28
584.98	61045.85
585.14	60992.02
585.30	61008.40
585.46	60767.33
585.62	60748.60
585.78	60893.72
585.94	60722.86
586.10	60933.51
586.26	60853.93
586.42	61017.77
586.58	61013.08
586.74	60853.93
586.90	60966.27
587.06	60914.78
587.22	60968.61
587.38	60898.40
587.54	61062.24
587.70	61076.28
587.86	61141.81
588.02	60877.33
588.18	61038.83
588.34	60980.32
588.49	61052.87
