SpectraSuite Data File
++++++++++++++++++++++++++++++++++++
Date: Fri Oct 25 11:34:12 EDT 2013
User: price-jones
Dark Spectrum Present: No
Reference Spectrum Present: No
Number of Sampled Component Spectra: 1
Spectrometers: USB2+H05261
Integration Time (usec): 100000 (USB2+H05261)
Spectra Averaged: 1 (USB2+H05261)
Boxcar Smoothing: 0 (USB2+H05261)
Correct for Electrical Dark: No (USB2+H05261)
Strobe/Lamp Enabled: No (USB2+H05261)
Correct for Detector Non-linearity: No (USB2+H05261)
Correct for Stray Light: No (USB2+H05261)
Number of Pixels in Processed Spectrum: 2048
>>>>>Begin Processed Spectral Data<<<<<
365.73	243.42
365.92	243.42
366.12	243.42
366.32	238.73
366.52	126.39
366.72	133.41
366.91	175.54
367.11	231.71
367.31	212.99
367.51	170.86
367.70	259.80
367.90	208.31
368.10	170.86
368.30	177.88
368.49	166.18
368.69	208.31
368.89	271.50
369.09	191.92
369.28	189.58
369.48	210.65
369.68	252.78
369.87	210.65
370.07	252.78
370.27	248.10
370.47	273.84
370.66	493.85
370.86	594.50
371.06	493.85
371.25	568.75
371.45	535.98
371.65	571.09
371.84	533.64
372.04	507.90
372.24	585.13
372.44	575.77
372.63	524.28
372.83	552.37
373.03	624.92
373.22	624.92
373.42	531.30
373.62	566.41
373.81	645.99
374.01	608.54
374.21	538.32
374.40	606.20
374.60	667.05
374.79	662.37
374.99	650.67
375.19	592.16
375.38	643.65
375.58	610.88
375.78	636.63
375.97	697.48
376.17	723.23
376.37	624.92
376.56	671.73
376.76	613.22
376.95	669.39
377.15	723.23
377.35	706.84
377.54	648.33
377.74	606.20
377.93	699.82
378.13	699.82
378.33	744.29
378.52	690.46
378.72	706.84
378.91	681.10
379.11	704.50
379.31	704.50
379.50	674.07
379.70	669.39
379.89	760.67
380.09	657.69
380.28	732.59
380.48	690.46
380.68	730.25
380.87	695.14
381.07	706.84
381.26	809.83
381.46	753.65
381.65	765.36
381.85	802.80
382.04	720.88
382.24	748.97
382.43	784.08
382.63	795.78
382.83	807.48
383.02	795.78
383.22	844.93
383.41	774.72
383.61	842.59
383.80	835.57
384.00	753.65
384.19	793.44
384.39	774.72
384.58	856.64
384.78	772.38
384.97	823.87
385.17	791.10
385.36	858.98
385.56	959.62
385.75	779.40
385.95	823.87
386.14	828.55
386.34	851.96
386.53	940.90
386.72	912.81
386.92	940.90
387.11	898.77
387.31	786.42
387.50	866.00
387.70	870.68
387.89	873.02
388.09	875.36
388.28	929.19
388.48	891.74
388.67	940.90
388.86	936.21
389.06	929.19
389.25	880.04
389.45	924.51
389.64	992.39
389.84	945.58
390.03	938.55
390.22	896.43
390.42	922.17
390.61	901.11
390.81	990.05
391.00	1008.77
391.19	950.26
391.39	978.34
391.58	1039.20
391.78	978.34
391.97	1032.18
392.16	950.26
392.36	1036.86
392.55	1043.88
392.75	1048.56
392.94	1039.20
393.13	1074.31
393.33	992.39
393.52	990.05
393.71	1022.81
393.91	1032.18
394.10	1076.65
394.29	1118.78
394.49	1121.12
394.68	1135.16
394.88	1086.01
395.07	1158.57
395.26	1135.16
395.46	1083.67
395.65	1064.94
395.84	1181.97
396.04	1249.85
396.23	1177.29
396.42	1188.99
396.62	1121.12
396.81	1123.46
397.00	1188.99
397.19	1186.65
397.39	1177.29
397.58	1226.44
397.77	1174.95
397.97	1282.61
398.16	1294.32
398.35	1217.08
398.55	1261.55
398.74	1313.04
398.93	1266.23
399.12	1387.94
399.32	1287.29
399.51	1299.00
399.70	1376.24
399.90	1387.94
400.09	1329.42
400.28	1397.30
400.47	1350.49
400.67	1359.85
400.86	1270.91
401.05	1451.13
401.24	1376.24
401.44	1317.72
401.63	1399.64
401.82	1409.00
402.01	1427.73
402.21	1472.20
402.40	1416.02
402.59	1409.00
402.78	1430.07
402.97	1458.15
403.17	1418.36
403.36	1528.37
403.55	1509.65
403.74	1596.25
403.93	1528.37
404.13	1664.12
404.32	1586.88
404.51	1605.61
404.70	1675.82
404.89	1575.18
405.09	1722.63
405.28	1619.65
405.47	1675.82
405.66	1715.61
405.85	1678.16
406.05	1631.35
406.24	1785.83
406.43	1734.34
406.62	1720.29
406.81	1715.61
407.00	1717.95
407.20	1760.08
407.39	1729.66
407.58	1790.51
407.77	1872.43
407.96	1839.66
408.15	1856.04
408.34	1790.51
408.54	1891.15
408.73	1827.96
408.92	1827.96
409.11	2036.27
409.30	1928.60
409.49	1942.64
409.68	1977.75
409.87	1933.28
410.07	2010.52
410.26	2017.54
410.45	1919.24
410.64	2040.95
410.83	2087.76
411.02	2127.55
411.21	2083.08
411.40	2064.35
411.59	2118.18
411.78	2150.95
411.98	2167.34
412.17	2186.06
412.36	2242.23
412.55	2204.78
412.74	2300.75
412.93	2377.98
413.12	2291.38
413.31	2377.98
413.50	2375.64
413.69	2401.39
413.88	2333.51
414.07	2424.80
414.26	2530.12
414.45	2436.50
414.64	2438.84
414.83	2553.52
415.02	2487.99
415.22	2607.36
415.41	2555.86
415.60	2595.65
415.79	2656.51
415.98	2614.38
416.17	2731.41
416.36	2658.85
416.55	2754.81
416.74	2677.57
416.93	2895.24
417.12	2782.90
417.31	2726.72
417.50	2848.43
417.69	2958.44
417.88	2853.11
418.07	2785.24
418.26	2738.43
418.45	2754.81
418.64	2937.37
418.83	2984.18
419.02	3047.38
419.21	3014.61
419.39	2988.86
419.58	3007.59
419.77	3049.72
419.96	3148.02
420.15	3199.51
420.34	3082.49
420.53	3052.06
420.72	3166.74
420.91	3117.59
421.10	3253.34
421.29	3215.90
421.48	3316.54
421.67	3201.85
421.86	3192.49
422.05	3136.32
422.24	3283.77
422.43	3290.79
422.61	3197.17
422.80	3358.67
422.99	3295.47
423.18	3318.88
423.37	3426.54
423.56	3169.09
423.75	3417.18
423.94	3260.37
424.13	3311.86
424.32	3178.45
424.50	3363.35
424.69	3538.89
424.88	3248.66
425.07	3349.31
425.26	3337.60
425.45	3344.63
425.64	3365.69
425.83	3351.65
426.01	3410.16
426.20	3412.50
426.39	3318.88
426.58	3267.39
426.77	3454.63
426.96	3562.30
427.15	3541.23
427.33	3564.64
427.52	3356.33
427.71	3513.14
427.90	3503.78
428.09	3632.51
428.28	3651.24
428.46	3590.38
428.65	3606.77
428.84	3765.92
429.03	3688.68
429.22	3653.58
429.40	3627.83
429.59	3641.87
429.78	3646.55
429.97	3576.34
430.16	3679.32
430.34	3728.47
430.53	3878.27
430.72	3789.33
430.91	3873.59
431.10	3770.60
431.28	3896.99
431.47	3936.78
431.66	3983.59
431.85	3857.20
432.03	4056.15
432.22	3995.29
432.41	3953.16
432.60	4018.70
432.79	3995.29
432.97	4112.32
433.16	4126.36
433.35	3889.97
433.54	3999.98
433.72	3999.98
433.91	4142.75
434.10	4159.13
434.28	3906.35
434.47	4180.20
434.66	4109.98
434.85	4166.15
435.03	4248.07
435.22	4327.65
435.41	4348.72
435.59	4173.18
435.78	4227.01
435.97	4133.39
436.16	4227.01
436.34	4344.03
436.53	4287.86
436.72	4435.32
436.90	4383.82
437.09	4418.93
437.28	4299.56
437.46	4496.17
437.65	4503.19
437.84	4540.64
438.02	4404.89
438.21	4575.75
438.40	4470.42
438.58	4636.60
438.77	4507.87
438.96	4512.55
439.14	4791.08
439.33	4711.50
439.52	4826.18
439.70	4781.71
439.89	4919.81
440.08	4865.97
440.26	4973.64
440.45	5039.17
440.63	5139.82
440.82	5006.41
441.01	4975.98
441.19	5060.24
441.38	5200.67
441.57	5186.63
441.75	5245.14
441.94	5256.84
442.12	5188.97
442.31	5397.28
442.50	5336.42
442.68	5324.72
442.87	5352.81
443.05	5252.16
443.24	5558.77
443.43	5359.83
443.61	5385.57
443.80	5577.50
443.98	5390.25
444.17	5359.83
444.35	5408.98
444.54	5591.54
444.73	5507.28
444.91	5467.49
445.10	5474.51
445.28	5596.22
445.47	5359.83
445.65	5465.15
445.84	5589.20
446.02	5551.75
446.21	5568.13
446.39	5654.73
446.58	5617.29
446.77	5598.56
446.95	5565.79
447.14	5638.35
447.32	5753.04
447.51	5661.76
447.69	5710.91
447.88	5706.23
448.06	5694.52
448.25	5706.23
448.43	5586.86
448.62	5706.23
448.80	5811.55
448.99	5762.40
449.17	5722.61
449.36	5631.33
449.54	5900.49
449.73	5977.73
449.91	5867.72
450.10	5975.39
450.28	6069.01
450.46	5977.73
450.65	6031.56
450.83	5947.30
451.02	6120.50
451.20	6153.27
451.39	6059.65
451.57	6012.84
451.76	5975.39
451.94	6174.33
452.13	6176.67
452.31	6164.97
452.49	6052.63
452.68	6258.59
452.86	6195.40
453.05	6218.80
453.23	6303.06
453.42	6188.38
453.60	6061.99
453.78	6328.81
453.97	6293.70
454.15	6403.71
454.34	6305.40
454.52	6319.45
454.70	6469.24
454.89	6490.31
455.07	6380.30
455.26	6452.86
455.44	6661.16
455.62	6518.39
455.81	6466.90
455.99	6445.84
456.17	6736.06
456.36	6626.06
456.54	6740.74
456.73	6754.79
456.91	6782.87
457.09	6920.96
457.28	6991.18
457.46	6792.23
457.64	6958.41
457.83	6890.54
458.01	6764.15
458.19	7012.24
458.38	6925.65
458.56	7019.27
458.74	7005.22
458.93	7211.19
459.11	7129.27
459.29	7037.99
459.48	6991.18
459.66	6909.26
459.84	7225.23
460.03	7309.49
460.21	7218.21
460.39	7311.83
460.57	7176.08
460.76	7248.64
460.94	7136.29
461.12	7241.62
461.31	7307.15
461.49	7293.11
461.67	7412.48
461.85	7571.63
462.04	7288.43
462.22	7779.94
462.40	7688.66
462.59	7588.02
462.77	7714.41
462.95	7716.75
463.13	7442.90
463.32	7592.70
463.50	7702.70
463.68	7616.10
463.86	7805.69
464.05	7798.66
464.23	7585.68
464.41	7808.03
464.59	7714.41
464.78	8037.40
464.96	8006.97
465.14	7606.74
465.32	7801.01
465.50	7925.05
465.69	7885.26
465.87	7873.56
466.05	7936.76
466.23	8116.98
466.41	8030.38
466.60	8168.47
466.78	7971.86
466.96	8072.51
467.14	8119.32
467.32	7962.50
467.51	8245.71
467.69	7815.05
467.87	8070.17
468.05	8264.43
468.23	8131.02
468.41	8138.04
468.60	8119.32
468.78	8224.64
468.96	8262.09
469.14	8388.48
469.32	8362.73
469.50	8086.55
469.69	8414.23
469.87	8578.06
470.05	8446.99
470.23	8681.05
470.41	8599.13
470.59	8608.49
470.77	8587.43
470.95	8737.22
471.14	8784.03
471.32	8559.34
471.50	8840.20
471.68	8741.90
471.86	8865.95
472.04	8975.95
472.22	8889.35
472.40	8870.63
472.58	9095.32
472.77	9004.04
472.95	9219.37
473.13	9635.99
473.31	9057.87
473.49	9224.05
473.67	9420.66
473.85	9486.19
474.03	9558.75
474.21	9481.51
474.39	9502.58
474.57	9577.47
474.75	9738.97
474.93	9797.48
475.12	9760.03
475.30	9654.71
475.48	9666.41
475.66	10052.60
475.84	9809.19
476.02	9926.21
476.20	10094.73
476.38	10108.77
476.56	10408.36
476.74	10328.78
476.92	10188.35
477.10	10136.86
477.28	10396.66
477.46	10583.90
477.64	10487.94
477.82	10951.37
478.00	10780.51
478.18	11052.01
478.36	10920.94
478.54	11122.23
478.72	11033.29
478.90	11279.04
479.08	11169.04
479.26	11435.86
479.44	11290.74
479.62	11393.73
479.80	11501.39
479.98	11630.12
480.16	11962.48
480.34	11866.52
480.52	12123.98
480.70	11754.17
480.88	11683.95
481.06	11920.35
481.24	12093.55
481.41	12329.94
481.59	12205.89
481.77	12564.00
481.95	12629.53
482.13	12781.67
482.31	12999.34
482.49	13029.76
482.67	12957.21
482.85	13214.66
483.03	13158.49
483.21	13387.86
483.39	13458.08
483.57	13310.63
483.74	13542.34
483.92	13727.24
484.10	13532.98
484.28	13790.44
484.46	14169.60
484.64	14239.82
484.82	14040.87
485.00	14567.49
485.18	14562.81
485.35	14740.69
485.53	14539.41
485.71	14867.08
485.89	15248.59
486.07	14953.68
486.25	15009.86
486.43	15138.58
486.61	15332.85
486.78	15311.78
486.96	15267.31
487.14	15707.34
487.32	15775.21
487.50	16023.31
487.68	15885.22
487.85	16142.67
488.03	16259.70
488.21	16629.51
488.39	16505.46
488.57	16393.11
488.75	16865.90
488.92	17174.85
489.10	16929.09
489.28	17170.17
489.46	17404.22
489.64	17514.23
489.81	17617.21
489.99	17802.11
490.17	17921.48
490.35	17767.01
490.53	18104.04
490.70	18080.64
490.88	18157.88
491.06	18511.30
491.24	18377.89
491.41	18410.65
491.59	18731.31
491.77	18471.51
491.95	18881.10
492.13	19030.90
492.30	19105.79
492.48	19108.13
492.66	19213.46
492.84	19239.20
493.01	19573.90
493.19	19449.85
493.37	19548.15
493.54	20149.67
493.72	20280.74
493.90	20355.64
494.08	20215.21
494.25	20561.61
494.43	20456.28
494.61	20769.91
494.79	20744.17
494.96	20482.03
495.14	21018.01
495.32	21090.57
495.49	21387.82
495.67	21277.81
495.85	21479.10
496.02	21930.82
496.20	21652.30
496.38	21813.79
496.55	21970.61
496.73	22532.34
496.91	22082.95
497.09	22415.31
497.26	22361.48
497.44	22223.39
497.62	22717.24
497.79	22551.06
497.97	22654.05
498.14	22941.93
498.32	23089.38
498.50	22946.61
498.67	23073.00
498.85	23403.02
499.03	23527.06
499.20	23529.41
499.38	23356.21
499.56	23747.08
499.73	24093.47
499.91	24044.32
500.08	23812.61
500.26	24159.01
500.44	24311.14
500.61	23880.49
500.79	23985.81
500.97	24348.59
501.14	24395.40
501.32	24627.12
501.49	24634.14
501.67	24936.07
501.84	24952.45
502.02	24606.05
502.20	25050.75
502.37	25284.81
502.55	25186.50
502.72	25298.85
502.90	25238.00
503.07	25256.72
503.25	25551.63
503.43	25422.90
503.60	25397.15
503.78	25781.00
503.95	25514.18
504.13	25785.68
504.30	26169.53
504.48	26143.78
504.65	26382.52
504.83	26253.79
505.01	26546.36
505.18	26567.42
505.36	26717.22
505.53	26602.53
505.71	26773.39
505.88	26431.67
506.06	26443.37
506.23	26824.88
506.41	27070.64
506.58	27330.44
506.76	27335.12
506.93	27180.64
507.11	27592.58
507.28	27466.19
507.46	27094.04
507.63	27618.32
507.81	27733.01
507.98	27721.30
508.16	28048.98
508.33	27791.52
508.50	27817.27
508.68	28048.98
508.85	28168.35
509.03	28348.57
509.20	28060.68
509.38	28357.93
509.55	28559.22
509.73	28652.84
509.90	28477.30
510.08	28753.48
510.25	28741.78
510.42	29064.77
510.60	29043.71
510.77	29010.94
510.95	29097.54
511.12	29223.93
511.30	29134.99
511.47	29404.15
511.64	29170.10
511.82	29413.51
511.99	29689.70
512.17	29521.18
512.34	29715.44
512.51	30122.69
512.69	30443.35
512.86	29956.52
513.04	30661.02
513.21	30148.44
513.38	30345.05
513.56	30621.23
513.73	30389.52
513.90	30588.46
514.08	30295.89
514.25	30897.41
514.43	30654.00
514.60	30689.10
514.77	30642.29
514.95	30780.39
515.12	31103.38
515.29	30766.34
515.47	31037.84
515.64	31428.71
515.81	31534.04
515.99	31318.71
516.16	31821.92
516.33	31409.99
516.51	31868.73
516.68	31087.00
516.85	31613.62
517.03	31674.47
517.20	32072.36
517.37	32205.77
517.54	32016.19
517.72	31934.27
517.89	31765.75
518.06	32081.72
518.24	31957.67
518.41	32332.16
518.58	32339.18
518.75	32355.57
518.93	32444.51
519.10	32446.85
519.27	32208.11
519.45	32898.57
519.62	32584.94
519.79	32774.52
519.96	32713.67
520.14	33333.91
520.31	32638.77
520.48	33261.35
520.65	33469.66
520.83	33399.44
521.00	33638.18
521.17	33621.80
521.34	33596.05
521.52	33701.37
521.69	33642.86
521.86	33752.87
522.03	33923.72
522.20	34015.01
522.38	34546.31
522.55	34078.20
522.72	33900.32
522.89	34106.29
523.07	34279.49
523.24	34321.62
523.41	34768.66
523.58	34492.47
523.75	34775.68
523.92	34410.56
524.10	34499.50
524.27	34607.16
524.44	34808.45
524.61	34635.25
524.78	35007.39
524.96	34930.16
525.13	35173.57
525.30	35817.22
525.47	35431.03
525.64	35033.14
525.81	35323.36
525.98	35477.84
526.16	35903.82
526.33	35412.31
526.50	35419.33
526.67	35526.99
526.84	35707.21
527.01	35536.35
527.18	35810.20
527.36	36121.49
527.53	35810.20
527.70	36238.51
527.87	36222.13
528.04	35861.69
528.21	36144.89
528.38	36198.73
528.55	36016.16
528.72	36065.31
528.89	36325.11
529.07	36589.59
529.24	36376.61
529.41	36495.97
529.58	36320.43
529.75	36474.91
529.92	36648.11
530.09	36306.39
530.26	36833.01
530.43	36727.69
530.60	37083.45
530.77	36282.98
530.94	36879.82
531.11	36685.56
531.28	36818.97
531.46	37364.31
531.63	37511.77
531.80	37329.20
531.97	37436.87
532.14	37399.42
532.31	37177.07
532.48	37514.11
532.65	37773.91
532.82	36854.08
532.99	37551.56
533.16	37577.30
533.33	37865.19
533.50	37865.19
533.67	37532.83
533.84	37801.99
534.01	37853.48
534.18	37797.31
534.35	38415.21
534.52	38206.90
534.69	38579.05
534.86	37998.60
535.03	38183.50
535.20	38712.46
535.37	38410.53
535.54	39136.10
535.71	38485.43
535.88	38588.41
536.05	38707.78
536.22	38506.49
536.38	38625.86
536.55	39035.45
536.72	38433.94
536.89	38618.84
537.06	38766.29
537.23	38721.82
537.40	38511.17
537.57	38960.56
537.74	38918.43
537.91	39168.87
538.08	38806.08
538.25	39096.31
538.42	38838.85
538.59	39033.11
538.75	39164.18
538.92	39285.89
539.09	39166.52
539.26	39054.18
539.43	39562.08
539.60	39742.30
539.77	39517.60
539.94	39667.40
540.11	39545.69
540.28	39814.85
540.44	39648.68
540.61	39831.24
540.78	39695.49
540.95	40074.65
541.12	40158.91
541.29	39564.42
541.46	39435.69
541.62	39880.39
541.79	40039.54
541.96	39346.75
542.13	39859.32
542.30	40407.01
542.47	40385.94
542.63	40421.05
542.80	40603.61
542.97	40669.15
543.14	41024.91
543.31	40563.82
543.48	41123.21
543.64	41450.89
543.81	40910.22
543.98	40891.50
544.15	40514.67
544.32	40982.78
544.48	41324.50
544.65	41249.60
544.82	41209.81
544.99	41441.53
545.16	41696.64
545.32	41062.36
545.49	41518.76
545.66	41813.67
545.83	41553.87
546.00	41404.08
546.16	41617.07
546.33	41483.66
546.50	41553.87
546.67	41808.99
546.83	41233.22
547.00	41654.51
547.17	41542.17
547.34	41752.82
547.50	41918.99
547.67	42452.64
547.84	41860.48
548.00	42244.33
548.17	42162.41
548.34	41979.85
548.51	42220.92
548.67	42375.40
548.84	42061.77
549.01	42183.48
549.18	42403.49
549.34	42433.91
549.51	42230.29
549.68	42588.39
549.84	42305.18
550.01	42857.55
550.18	42258.37
550.34	42494.77
550.51	42630.52
550.68	42710.10
550.84	42171.77
551.01	42911.38
551.18	42789.67
551.34	42639.88
551.51	42745.20
551.68	42944.15
551.84	42820.10
552.01	42450.30
552.18	43056.50
552.34	42876.27
552.51	42408.17
552.68	42920.74
552.84	42813.08
553.01	43100.97
553.18	43421.62
553.34	43009.68
553.51	42930.11
553.67	43416.94
553.84	43189.91
554.01	43833.55
554.17	43276.51
554.34	43356.08
554.51	43346.72
554.67	43423.96
554.84	43384.17
555.00	43470.77
555.17	43185.22
555.33	44158.89
555.50	43159.48
555.67	43992.71
555.83	43515.24
556.00	43674.40
556.16	44561.46
556.33	43931.86
556.50	43814.83
556.66	43569.07
556.83	43428.64
556.99	43714.19
557.16	43817.17
557.32	43997.39
557.49	44140.16
557.65	43681.42
557.82	44041.86
557.98	44095.69
558.15	43868.66
558.32	44114.42
558.48	43849.94
558.65	43756.32
558.81	43990.37
558.98	44025.48
559.14	44093.35
559.31	43882.70
559.47	44100.37
559.64	44158.89
559.80	44067.61
559.97	44526.35
560.13	44500.61
560.30	44608.27
560.46	44556.78
560.63	44765.09
560.79	44779.13
560.96	44615.29
561.12	44582.52
561.29	45022.54
561.45	44502.95
561.61	44203.36
561.78	44699.55
561.94	44566.14
562.11	44844.66
562.27	44804.88
562.44	44959.35
562.60	44729.98
562.77	44409.32
562.93	44811.90
563.10	44893.82
563.26	44727.64
563.42	44928.92
563.59	44847.00
563.75	44634.02
563.92	44769.77
564.08	44839.98
564.24	45373.63
564.41	44985.10
564.57	44877.43
564.74	44767.43
564.90	45031.91
565.07	44851.69
565.23	44868.07
565.39	45041.27
565.56	45085.74
565.72	45134.89
565.88	44999.14
566.05	44769.77
566.21	45081.06
566.38	45116.17
566.54	44788.49
566.70	45413.41
566.87	45146.59
567.03	45181.70
567.19	45443.84
567.36	45420.44
567.52	44968.71
567.68	45338.52
567.85	45144.25
568.01	45270.64
568.17	45336.18
568.34	45481.29
568.50	45312.77
568.66	45104.46
568.83	45666.19
568.99	45193.40
569.15	45436.82
569.32	45511.72
569.48	45390.01
569.64	45591.30
569.81	45366.60
569.97	45474.27
570.13	45521.08
570.30	45268.30
570.46	45399.37
570.62	45750.45
570.78	45560.87
570.95	45319.79
571.11	45965.78
571.27	45621.72
571.43	45794.92
571.60	45516.40
571.76	45539.80
571.92	45432.14
572.09	45544.48
572.25	45521.08
572.41	45673.21
572.57	45839.39
572.74	46192.81
572.90	45780.88
573.06	45942.38
573.22	45387.67
573.38	46188.13
573.55	45918.97
573.71	45949.40
573.87	46087.49
574.03	45738.75
574.20	46260.69
574.36	45879.18
574.52	46387.08
574.68	45769.18
574.84	45930.67
575.01	46033.66
575.17	46117.92
575.33	45713.00
575.49	45682.58
575.65	45801.94
575.82	46246.65
575.98	45689.60
576.14	46213.88
576.30	46014.93
576.46	45684.92
576.62	45734.07
576.79	45921.31
576.95	45415.76
577.11	45631.08
577.27	45769.18
577.43	46131.96
577.59	45778.54
577.75	45392.35
577.92	45989.19
578.08	45923.65
578.24	46148.34
578.40	46497.08
578.56	46307.50
578.72	46028.98
578.88	46246.65
579.04	46218.56
579.21	45865.14
579.37	46045.36
579.53	46539.21
579.69	45647.47
579.85	45670.87
580.01	45881.52
580.17	46050.04
580.33	46232.60
580.49	46344.95
580.65	45888.54
580.82	46202.18
580.98	46279.41
581.14	45649.81
581.30	45961.10
581.46	45830.03
581.62	46426.87
581.78	45883.86
581.94	46593.04
582.10	46036.00
582.26	46344.95
582.42	46457.29
582.58	46117.92
582.74	46284.09
582.90	46263.03
583.06	46492.40
583.22	45907.27
583.38	46307.50
583.54	46354.31
583.70	46153.02
583.86	46312.18
584.02	46080.47
584.18	46581.34
584.34	46515.81
584.50	46635.17
584.66	46380.06
584.82	46197.49
584.98	46501.76
585.14	46351.97
585.30	46232.60
585.46	46174.09
585.62	46307.50
585.78	46328.56
585.94	46466.66
586.10	46260.69
586.26	46026.63
586.42	45867.48
586.58	46447.93
586.74	46319.20
586.90	46293.46
587.06	46239.62
587.22	46478.36
587.38	46274.73
587.54	46707.73
587.70	46707.73
587.86	46330.90
588.02	46174.09
588.18	46387.08
588.34	46548.57
588.49	46777.95
588.65	45998.55
588.81	46373.03
588.97	46707.73
589.13	46354.31
589.29	46499.42
589.45	46330.90
589.61	46705.39
589.77	46986.25
589.93	46354.31
590.08	46541.55
