SpectraSuite Data File
++++++++++++++++++++++++++++++++++++
Date: Fri Oct 25 11:23:04 EDT 2013
User: price-jones
Dark Spectrum Present: No
Reference Spectrum Present: No
Number of Sampled Component Spectra: 1
Spectrometers: USB2+H05261
Integration Time (usec): 100000 (USB2+H05261)
Spectra Averaged: 1 (USB2+H05261)
Boxcar Smoothing: 0 (USB2+H05261)
Correct for Electrical Dark: No (USB2+H05261)
Strobe/Lamp Enabled: No (USB2+H05261)
Correct for Detector Non-linearity: No (USB2+H05261)
Correct for Stray Light: No (USB2+H05261)
Number of Pixels in Processed Spectrum: 2048
>>>>>Begin Processed Spectral Data<<<<<
365.73	191.92
365.92	191.92
366.12	191.92
366.32	131.07
366.52	126.39
366.72	105.32
366.91	133.41
367.11	161.50
367.31	119.37
367.51	135.75
367.70	126.39
367.90	173.20
368.10	142.77
368.30	79.58
368.49	159.16
368.69	135.75
368.89	77.24
369.09	93.62
369.28	114.69
369.48	184.90
369.68	145.11
369.87	220.01
370.07	175.54
370.27	201.29
370.47	358.10
370.66	688.12
370.86	634.29
371.06	688.12
371.25	655.35
371.45	676.41
371.65	601.52
371.84	648.33
372.04	704.50
372.24	702.16
372.44	777.06
372.63	833.23
372.83	798.12
373.03	730.25
373.22	767.70
373.42	744.29
373.62	755.99
373.81	812.17
374.01	739.61
374.21	786.42
374.40	835.57
374.60	802.80
374.79	887.06
374.99	753.65
375.19	847.27
375.38	779.40
375.58	814.51
375.78	861.32
375.97	868.34
376.17	863.66
376.37	917.49
376.56	929.19
376.76	835.57
376.95	875.36
377.15	983.02
377.35	849.61
377.54	908.13
377.74	917.49
377.93	814.51
378.13	931.53
378.33	936.21
378.52	861.32
378.72	990.05
378.91	915.15
379.11	896.43
379.31	926.85
379.50	983.02
379.70	1041.54
379.89	903.45
380.09	945.58
380.28	959.62
380.48	922.17
380.68	933.87
380.87	968.98
381.07	1060.26
381.26	1020.47
381.46	936.21
381.65	1050.90
381.85	1025.15
382.04	990.05
382.24	1067.28
382.43	1071.97
382.63	1067.28
382.83	1116.44
383.02	1064.94
383.22	1116.44
383.41	1060.26
383.61	1142.18
383.80	1151.54
384.00	1179.63
384.19	1266.23
384.39	1170.27
384.58	1196.01
384.78	1137.50
384.97	1160.91
385.17	1109.41
385.36	1174.95
385.56	1212.40
385.75	1163.25
385.95	1224.10
386.14	1158.57
386.34	1167.93
386.53	1233.46
386.72	1170.27
386.92	1233.46
387.11	1299.00
387.31	1238.14
387.50	1196.01
387.70	1224.10
387.89	1275.59
388.09	1310.70
388.28	1268.57
388.48	1322.40
388.67	1334.11
388.86	1313.04
389.06	1411.34
389.25	1329.42
389.45	1313.04
389.64	1416.02
389.84	1378.58
390.03	1430.07
390.22	1460.49
390.42	1404.32
390.61	1348.15
390.81	1273.25
391.00	1460.49
391.19	1462.83
391.39	1385.60
391.58	1514.33
391.78	1409.00
391.97	1444.11
392.16	1500.28
392.36	1519.01
392.55	1547.09
392.75	1528.37
392.94	1514.33
393.13	1549.43
393.33	1535.39
393.52	1626.67
393.71	1535.39
393.91	1607.95
394.10	1488.58
394.29	1722.63
394.49	1605.61
394.68	1584.54
394.88	1563.48
395.07	1652.42
395.26	1558.80
395.46	1776.47
395.65	1713.27
395.84	1668.80
396.04	1757.74
396.23	1792.85
396.42	1788.17
396.62	1797.53
396.81	1778.81
397.00	1811.57
397.19	1739.02
397.39	1898.17
397.58	1839.66
397.77	1781.15
397.97	1919.24
398.16	1858.39
398.35	1842.00
398.55	1975.41
398.74	1968.39
398.93	1991.80
399.12	1839.66
399.32	1902.86
399.51	1933.28
399.70	2050.31
399.90	1900.52
400.09	2001.16
400.28	2087.76
400.47	2012.86
400.67	2104.14
400.86	2111.16
401.05	2176.70
401.24	2022.22
401.44	2129.89
401.63	2108.82
401.82	2310.11
402.01	2188.40
402.21	2101.80
402.40	2139.25
402.59	2139.25
402.78	2249.25
402.97	2246.91
403.17	2363.94
403.36	2282.02
403.55	2310.11
403.74	2408.41
403.93	2345.22
404.13	2326.49
404.32	2382.67
404.51	2436.50
404.70	2434.16
404.89	2506.71
405.09	2457.56
405.28	2480.97
405.47	2518.42
405.66	2502.03
405.85	2675.23
406.05	2588.63
406.24	2630.76
406.43	2590.97
406.62	2715.02
406.81	2705.66
407.00	2619.06
407.20	2558.21
407.39	2630.76
407.58	2757.15
407.77	2775.88
407.96	2778.22
408.15	2679.91
408.34	2682.25
408.54	2850.77
408.73	2832.05
408.92	2923.33
409.11	2916.31
409.30	2876.52
409.49	2871.84
409.68	2944.39
409.87	2928.01
410.07	3075.46
410.26	3040.36
410.45	3084.83
410.64	2977.16
410.83	3012.27
411.02	3066.10
411.21	3138.66
411.40	3276.75
411.59	3201.85
411.78	3260.37
411.98	3169.09
412.17	3412.50
412.36	3393.78
412.55	3281.43
412.74	3522.51
412.93	3447.61
413.12	3337.60
413.31	3578.68
413.50	3463.99
413.69	3468.67
413.88	3630.17
414.07	3613.79
414.26	3506.12
414.45	3595.06
414.64	3744.86
414.83	3674.64
415.02	3798.69
415.22	3824.44
415.41	3885.29
415.60	3911.04
415.79	4081.89
415.98	4189.56
416.17	4021.04
416.36	4042.11
416.55	3934.44
416.74	4170.83
416.93	3978.91
417.12	4023.38
417.31	4243.39
417.50	4203.60
417.69	4250.41
417.88	4287.86
418.07	4234.03
418.26	4318.29
418.45	4437.66
418.64	4528.94
418.83	4498.51
419.02	4496.17
419.21	4627.24
419.39	4447.02
419.58	4514.89
419.77	4423.61
419.96	4589.79
420.15	4793.42
420.34	4650.64
420.53	4652.98
420.72	4770.01
420.91	4809.80
421.10	4800.44
421.29	4770.01
421.48	4795.76
421.67	4873.00
421.86	4777.03
422.05	4730.22
422.24	4816.82
422.43	4873.00
422.61	4922.15
422.80	4999.38
422.99	4851.93
423.18	5104.71
423.37	5090.67
423.56	4854.27
423.75	4889.38
423.94	4826.18
424.13	4608.51
424.32	4868.31
424.50	4898.74
424.69	5153.86
424.88	5146.84
425.07	5071.94
425.26	4938.53
425.45	5074.28
425.64	4894.06
425.83	4961.94
426.01	5071.94
426.20	5041.51
426.39	5076.62
426.58	5121.09
426.77	5153.86
426.96	5011.09
427.15	5090.67
427.33	5334.08
427.52	5242.80
427.71	5441.75
427.90	5167.90
428.09	5247.48
428.28	5544.73
428.46	5437.06
428.65	5193.65
428.84	5605.58
429.03	5678.14
429.22	5341.10
429.40	5291.95
429.59	5535.37
429.78	5504.94
429.97	5296.63
430.16	5530.69
430.34	5565.79
430.53	5736.65
430.72	5731.97
430.91	5734.31
431.10	5600.90
431.28	5778.78
431.47	6010.50
431.66	6043.26
431.85	5844.32
432.03	6003.47
432.22	6033.90
432.41	6012.84
432.60	5930.92
432.79	6106.46
432.97	5959.00
433.16	6022.20
433.35	6118.16
433.54	6097.10
433.72	6382.64
433.91	6216.46
434.10	5959.00
434.28	6047.94
434.47	6188.38
434.66	6265.61
434.85	6553.50
435.03	6420.09
435.22	6296.04
435.41	6722.02
435.59	6239.87
435.78	6541.80
435.97	6436.47
436.16	6328.81
436.34	6539.46
436.53	6487.96
436.72	6665.85
436.90	6686.91
437.09	6637.76
437.28	6504.35
437.46	6715.00
437.65	6733.72
437.84	6759.47
438.02	6754.79
438.21	6897.56
438.40	6766.49
438.58	7026.29
438.77	7000.54
438.96	7126.93
439.14	7166.72
439.33	7152.68
439.52	7201.83
439.70	7206.51
439.89	7433.54
440.08	7344.60
440.26	7391.41
440.45	7391.41
440.63	7557.59
440.82	7744.83
441.01	7660.57
441.19	7777.60
441.38	7747.17
441.57	7829.09
441.75	7882.92
441.94	7925.05
442.12	7943.78
442.31	8297.20
442.50	8196.56
442.68	8102.93
442.87	8142.72
443.05	8147.40
443.24	8496.14
443.43	8081.87
443.61	8159.11
443.80	8500.83
443.98	8084.21
444.17	7995.27
444.35	8290.18
444.54	8493.80
444.73	8308.90
444.91	8201.24
445.10	8376.78
445.28	8266.77
445.47	8468.06
445.65	8280.82
445.84	8461.04
446.02	8514.87
446.21	8479.76
446.39	8582.74
446.58	8772.33
446.77	8552.32
446.95	8329.97
447.14	8542.96
447.32	8610.83
447.51	8699.77
447.69	8617.85
447.88	8507.85
448.06	8561.68
448.25	8627.21
448.43	8788.71
448.62	8620.19
448.80	8629.56
448.99	8798.07
449.17	8784.03
449.36	8807.44
449.54	8952.55
449.73	8877.65
449.91	9254.48
450.10	8931.48
450.28	9334.06
450.46	9273.20
450.65	9083.62
450.83	9259.16
451.02	9001.70
451.20	9296.61
451.39	9252.14
451.57	9408.95
451.76	9139.79
451.94	9497.89
452.13	9441.72
452.31	9509.60
452.49	9181.92
452.68	9366.82
452.86	9327.03
453.05	9329.38
453.23	9523.64
453.42	9441.72
453.60	9298.95
453.78	9804.50
453.97	9390.23
454.15	9591.52
454.34	9509.60
454.52	9682.80
454.70	9776.42
454.89	9877.06
455.07	9682.80
455.26	9977.70
455.44	9987.07
455.62	9949.62
455.81	9895.78
455.99	10024.51
456.17	10090.05
456.36	10260.91
456.54	10127.50
456.73	10314.74
456.91	10729.02
457.09	10441.13
457.28	10693.91
457.46	10576.88
457.64	10731.36
457.83	10473.90
458.01	10616.67
458.19	10860.09
458.38	10693.91
458.56	10771.15
458.74	10923.28
458.93	10766.46
459.11	10869.45
459.29	10780.51
459.48	10848.38
459.66	11059.03
459.84	10937.32
460.03	11040.31
460.21	11042.65
460.39	11147.97
460.57	11110.52
460.76	11323.51
460.94	11222.87
461.12	11154.99
461.31	11290.74
461.49	11253.30
461.67	11190.10
461.85	11510.75
462.04	11274.36
462.22	11580.97
462.40	11845.45
462.59	11674.59
462.77	11454.58
462.95	11918.01
463.13	11683.95
463.32	11662.89
463.50	11779.92
463.68	11896.94
463.86	11955.46
464.05	11674.59
464.23	11634.80
464.41	12013.97
464.59	11934.39
464.78	12315.90
464.96	12135.68
465.14	12035.03
465.32	12210.57
465.50	12278.45
465.69	12278.45
465.87	12496.12
466.05	12329.94
466.23	12442.29
466.41	12287.81
466.60	12430.59
466.78	12257.39
466.96	12322.92
467.14	12489.10
467.32	12559.31
467.51	12929.12
467.69	12147.38
467.87	12603.78
468.05	12793.37
468.23	12470.37
468.41	12650.60
468.60	12655.28
468.78	13025.08
468.96	12791.03
469.14	12933.80
469.32	13310.63
469.50	12854.22
469.69	13083.59
469.87	13263.82
470.05	13296.58
470.23	13254.45
470.41	13465.10
470.59	13373.82
470.77	13174.88
470.95	13500.21
471.14	13652.34
471.32	13327.01
471.50	13647.66
471.68	13603.19
471.86	13823.20
472.04	13703.84
472.22	14111.09
472.40	13825.54
472.58	13778.73
472.77	14230.46
472.95	14249.18
473.13	14675.16
473.31	14298.33
473.49	14263.22
473.67	14108.75
473.85	14083.00
474.03	14743.03
474.21	14693.88
474.39	14939.64
474.57	14888.15
474.75	15091.77
474.93	14939.64
475.12	14970.07
475.30	15241.57
475.48	15075.39
475.66	15520.09
475.84	15276.68
476.02	15683.93
476.20	15548.18
476.38	15950.75
476.56	16046.71
476.74	16042.03
476.92	16023.31
477.10	16060.76
477.28	16421.20
477.46	16437.58
477.64	16301.83
477.82	16444.60
478.00	16910.37
478.18	17160.81
478.36	17090.59
478.54	17315.28
478.72	17556.36
478.90	17549.34
479.08	17729.56
479.26	17844.24
479.44	17839.56
479.62	18015.10
479.80	18298.31
479.98	18141.49
480.16	18909.19
480.34	18534.70
480.52	18710.24
480.70	18925.57
480.88	18546.40
481.06	18768.76
481.24	18878.76
481.41	19150.26
481.59	19325.80
481.77	19700.29
481.95	19817.32
482.13	19719.01
482.31	19960.09
482.49	20521.82
482.67	20367.34
482.85	20554.58
483.03	21144.40
483.21	20999.29
483.39	20975.88
483.57	21050.78
483.74	21535.27
483.92	21708.47
484.10	21614.85
484.28	21886.35
484.46	22427.01
484.64	22714.90
484.82	22171.89
485.00	22586.17
485.18	22862.35
485.35	23023.85
485.53	22754.69
485.71	23103.43
485.89	23527.06
486.07	23758.78
486.25	23660.48
486.43	23763.46
486.61	24182.42
486.78	24355.61
486.96	24863.51
487.14	24727.76
487.32	25149.06
487.50	25228.63
487.68	24931.39
487.85	25455.67
488.03	25846.54
488.21	26178.89
488.39	26293.58
488.57	26127.40
488.75	26443.37
488.92	26728.92
489.10	27077.66
489.28	26948.93
489.46	27386.61
489.64	27089.36
489.81	28318.14
489.99	27821.95
490.17	27960.04
490.35	28458.57
490.53	28308.78
490.70	29090.52
490.88	28697.31
491.06	29242.65
491.24	28954.77
491.41	29123.29
491.59	29441.60
491.77	29776.30
491.95	30092.27
492.13	30010.35
492.30	30265.47
492.48	30277.17
492.66	30274.83
492.84	30588.46
493.01	30939.54
493.19	30934.86
493.37	31278.92
493.54	31538.72
493.72	31922.57
493.90	31571.49
494.08	31957.67
494.25	32198.75
494.43	31952.99
494.61	32863.46
494.79	32561.53
494.96	32732.39
495.14	33315.19
495.32	33240.29
495.49	33289.44
495.67	33577.33
495.85	34017.35
496.02	34244.38
496.20	34160.12
496.38	34473.75
496.55	34356.72
496.73	35124.42
496.91	34829.51
497.09	35236.77
497.26	35482.52
497.44	35381.88
497.62	35496.56
497.79	36325.11
497.97	35847.64
498.14	36554.49
498.32	36608.32
498.50	36678.54
498.67	36928.97
498.85	36678.54
499.03	36877.48
499.20	37163.03
499.38	37380.70
499.56	37387.72
499.73	37518.79
499.91	37598.37
500.08	37846.46
500.26	37876.89
500.44	38314.57
500.61	38052.43
500.79	38101.58
500.97	38555.64
501.14	38848.21
501.32	38717.14
501.49	38913.75
501.67	39239.08
501.84	39239.08
502.02	39271.85
502.20	39203.97
502.37	39636.97
502.55	39548.03
502.72	39810.17
502.90	40006.78
503.07	39981.03
503.25	40655.11
503.43	40346.15
503.60	40776.81
503.78	40872.78
503.95	40371.90
504.13	40545.10
504.30	41053.00
504.48	40877.46
504.65	40935.97
504.83	41404.08
505.01	41780.90
505.18	41453.23
505.36	42012.62
505.53	41022.57
505.71	41713.03
505.88	42108.58
506.06	41628.77
506.23	41993.89
506.41	42279.44
506.58	42817.76
506.76	42843.51
506.93	43014.37
507.11	42602.43
507.28	42909.04
507.46	43047.13
507.63	43337.36
507.81	43613.54
507.98	43606.52
508.16	43604.18
508.33	43629.93
508.50	43955.26
508.68	44074.63
508.85	44486.56
509.03	44706.57
509.20	44500.61
509.38	44643.38
509.55	44811.90
509.73	44896.16
509.90	45406.39
510.08	44889.13
510.25	45198.09
510.42	45420.44
510.60	45530.44
510.77	45762.15
510.95	46071.10
511.12	45778.54
511.30	45464.91
511.47	45542.14
511.64	46127.28
511.82	46557.94
511.99	45895.56
512.17	46494.74
512.34	46031.32
512.51	46672.62
512.69	46431.55
512.86	46419.84
513.04	47028.38
513.21	46674.96
513.38	46944.12
513.56	47082.22
513.73	47051.79
513.90	47606.50
514.08	47351.38
514.25	47908.43
514.43	47896.72
514.60	47913.11
514.77	47880.34
514.95	48177.59
515.12	47700.12
515.29	47622.88
515.47	48051.20
515.64	48498.24
515.81	48243.12
515.99	48949.96
516.16	48612.93
516.33	48619.95
516.51	48893.79
516.68	48809.53
516.85	48837.62
517.03	49031.88
517.20	49179.34
517.37	49165.29
517.54	49319.77
517.72	49219.13
517.89	49371.26
518.06	49521.05
518.24	49682.55
518.41	49354.88
518.58	49755.11
518.75	49750.43
518.93	50052.36
519.10	49595.95
519.27	50347.26
519.45	49982.14
519.62	50134.28
519.79	50384.71
519.96	50288.75
520.14	50279.39
520.31	50351.94
520.48	50848.14
520.65	50410.46
520.83	51049.42
521.00	51023.68
521.17	50852.82
521.34	51016.66
521.52	51042.40
521.69	51309.22
521.86	51498.81
522.03	51526.89
522.20	51648.60
522.38	51510.51
522.55	51877.97
522.72	51587.75
522.89	51714.14
523.07	52116.71
523.24	52018.41
523.41	52257.14
523.58	51594.77
523.75	52219.69
523.92	52039.47
524.10	52456.09
524.27	52156.50
524.44	52093.30
524.61	52268.84
524.78	52179.90
524.96	52734.61
525.13	52694.82
525.30	53073.99
525.47	52933.56
525.64	52699.50
525.81	52858.66
525.98	53179.31
526.16	52879.72
526.33	53052.92
526.50	53331.45
526.67	52999.09
526.84	53141.86
527.01	53059.94
527.18	53113.78
527.36	53202.72
527.53	53333.79
527.70	53832.32
527.87	53724.66
528.04	53490.60
528.21	53584.22
528.38	53537.41
528.55	53666.14
528.72	53457.84
528.89	53741.04
529.07	54040.63
529.24	53607.63
529.41	54134.25
529.58	54071.06
529.75	53680.19
529.92	53932.96
530.09	54314.47
530.26	54508.74
530.43	54433.84
530.60	54270.00
530.77	54155.32
530.94	54337.88
531.11	54286.39
531.28	54113.19
531.46	54754.49
531.63	54721.72
531.80	54607.04
531.97	54646.83
532.14	54679.60
532.31	54707.68
532.48	54930.03
532.65	55302.18
532.82	54852.80
532.99	55112.59
533.16	55035.36
533.33	54969.82
533.50	55107.91
533.67	55171.11
533.84	54974.50
534.01	55072.81
534.18	55143.02
534.35	55585.38
534.52	55344.31
534.69	55400.48
534.86	55313.88
535.03	55344.31
535.20	55564.32
535.37	55800.71
535.54	55632.19
535.71	55196.85
535.88	55636.87
536.05	55561.98
536.22	55737.52
536.38	55978.59
536.55	55964.55
536.72	56034.77
536.89	55473.04
537.06	56121.37
537.23	55863.91
537.40	56151.79
537.57	56086.26
537.74	56217.33
537.91	56346.06
538.08	56491.17
538.25	56013.70
538.42	56161.15
538.59	56374.14
538.75	56055.83
538.92	56402.23
539.09	56570.75
539.26	56409.25
539.43	56332.01
539.60	56411.59
539.77	56257.12
539.94	56542.66
540.11	56741.61
540.28	56678.41
540.44	56570.75
540.61	56662.03
540.78	56507.55
540.95	56823.53
541.12	56910.13
541.29	56556.70
541.46	56732.25
541.62	56954.60
541.79	56856.29
541.96	56655.01
542.13	56711.18
542.30	56959.28
542.47	56884.38
542.63	57104.39
542.80	57151.20
542.97	57205.03
543.14	57443.77
543.31	57537.39
543.48	57329.08
543.64	57635.69
543.81	57345.47
543.98	57537.39
544.15	57633.35
544.32	57785.49
544.48	57839.32
544.65	57691.86
544.82	57584.20
544.99	57343.12
545.16	57701.23
545.32	57642.71
545.49	57684.84
545.66	58108.48
545.83	58052.31
546.00	57844.00
546.16	57991.45
546.33	57970.39
546.50	57783.15
546.67	58103.80
546.83	57869.75
547.00	58047.63
547.17	57968.05
547.34	57794.85
547.50	58099.12
547.67	58237.21
547.84	58197.42
548.00	58328.49
548.17	58445.52
548.34	58354.24
548.51	58569.57
548.67	58560.20
548.84	58298.06
549.01	58379.98
549.18	58461.90
549.34	58644.46
549.51	58590.63
549.68	58803.62
549.84	58438.50
550.01	58539.14
550.18	58302.74
550.34	58379.98
550.51	58717.02
550.68	58536.80
550.84	58452.54
551.01	58866.81
551.18	58728.72
551.34	58841.07
551.51	58948.73
551.68	58820.00
551.84	58805.96
552.01	58745.11
552.18	58969.80
552.34	58803.62
552.51	59023.63
552.68	58801.28
552.84	59217.89
553.01	58974.48
553.18	59040.01
553.34	59234.28
553.51	59103.21
553.67	59032.99
553.84	59449.61
554.01	59271.73
554.17	59269.39
554.34	59262.36
554.51	59316.20
554.67	59255.34
554.84	59231.94
555.00	59290.45
555.17	59309.18
555.33	59480.03
555.50	59044.69
555.67	59000.22
555.83	59374.71
556.00	59447.27
556.16	59583.02
556.33	59540.89
556.50	59508.12
556.66	59519.82
556.83	59465.99
556.99	59671.96
557.16	59772.60
557.32	59824.09
557.49	59849.84
557.65	59475.35
557.82	59510.46
557.98	59648.55
558.15	59611.10
558.32	59599.40
558.48	59470.67
558.65	59765.58
558.81	59774.94
558.98	59803.03
559.14	59877.93
559.31	59943.46
559.47	60076.87
559.64	60006.65
559.80	59863.88
559.97	60177.51
560.13	59898.99
560.30	59983.25
560.46	60060.49
560.63	60046.44
560.79	59798.35
560.96	60027.72
561.12	60236.03
561.29	60317.95
561.45	60069.85
561.61	59866.22
561.78	59941.12
561.94	59922.40
562.11	60177.51
562.27	60090.91
562.44	60271.14
562.60	60320.29
562.77	60102.62
562.93	59913.03
563.10	60069.85
563.26	60020.70
563.42	60523.91
563.59	60156.45
563.75	60231.35
563.92	59999.63
564.08	60130.70
564.24	60322.63
564.41	60238.37
564.57	60519.23
564.74	60385.82
564.90	60554.34
565.07	60367.10
565.23	60479.44
565.39	60383.48
565.56	60519.23
565.72	60250.07
565.88	60477.10
566.05	60369.44
566.21	60280.50
566.38	60601.15
566.54	60346.03
566.70	60652.64
566.87	60584.77
567.03	60313.26
567.19	60575.40
567.36	60626.90
567.52	60608.17
567.68	60755.63
567.85	60729.88
568.01	60636.26
568.17	60596.47
568.34	60596.47
568.50	60406.89
568.66	60392.84
568.83	60629.24
568.99	60743.92
569.15	60563.70
569.32	60596.47
569.48	60650.30
569.64	60767.33
569.81	60757.97
569.97	60519.23
570.13	60584.77
570.30	60418.59
570.46	60800.10
570.62	60889.04
570.78	60603.49
570.95	60734.56
571.11	60898.40
571.27	60587.11
571.43	60690.09
571.60	61237.78
571.76	60788.39
571.92	60921.80
572.09	60994.36
572.25	60821.16
572.41	60786.05
572.57	60905.42
572.74	61043.51
572.90	60851.59
573.06	61073.94
573.22	60711.16
573.38	60903.08
573.55	60746.26
573.71	60952.23
573.87	61001.38
574.03	60603.49
574.20	60992.02
574.36	60818.82
574.52	60940.53
574.68	60729.88
574.84	61029.47
575.01	61233.10
575.17	61048.19
575.33	60982.66
575.49	60818.82
575.65	61155.86
575.82	61029.47
575.98	61116.07
576.14	61340.76
576.30	60949.89
576.46	61015.43
576.62	60858.61
576.79	60860.95
576.95	60884.36
577.11	60975.64
577.27	61202.67
577.43	61029.47
577.59	60877.33
577.75	60954.57
577.92	60821.16
578.08	60999.04
578.24	61006.06
578.40	61102.03
578.56	61162.88
578.72	61104.37
578.88	61155.86
579.04	61202.67
579.21	60928.83
579.37	61270.54
579.53	61401.61
579.69	60839.89
579.85	61151.18
580.01	61102.03
580.17	60973.30
580.33	61045.85
580.49	61237.78
580.65	61216.71
580.82	61130.11
580.98	60973.30
581.14	61001.38
581.30	61352.46
581.46	61001.38
581.62	61207.35
581.78	61120.75
581.94	60994.36
582.10	61099.68
582.26	61202.67
582.42	61052.87
582.58	61235.44
582.74	61087.98
582.90	61148.84
583.06	61113.73
583.22	61015.43
583.38	61322.04
583.54	61219.05
583.70	61312.67
583.86	61172.24
584.02	61132.45
584.18	61160.54
584.34	61401.61
584.50	61066.92
584.66	60891.38
584.82	60874.99
584.98	61478.85
585.14	61242.46
585.30	61099.68
585.46	61174.58
585.62	61076.28
585.78	61408.64
585.94	61151.18
586.10	61305.65
586.26	61221.39
586.42	61380.55
586.58	61319.70
586.74	61347.78
586.90	61350.12
587.06	61153.52
587.22	61436.72
587.38	61240.12
587.54	61235.44
587.70	61488.21
587.86	61359.48
588.02	61240.12
588.18	61506.94
588.34	61315.01
588.49	61179.26
