SpectraSuite Data File
++++++++++++++++++++++++++++++++++++
Date: Fri Oct 25 11:26:13 EDT 2013
User: price-jones
Dark Spectrum Present: No
Reference Spectrum Present: No
Number of Sampled Component Spectra: 1
Spectrometers: USB2+H05261
Integration Time (usec): 100000 (USB2+H05261)
Spectra Averaged: 1 (USB2+H05261)
Boxcar Smoothing: 0 (USB2+H05261)
Correct for Electrical Dark: No (USB2+H05261)
Strobe/Lamp Enabled: No (USB2+H05261)
Correct for Detector Non-linearity: No (USB2+H05261)
Correct for Stray Light: No (USB2+H05261)
Number of Pixels in Processed Spectrum: 2048
>>>>>Begin Processed Spectral Data<<<<<
365.73	217.67
365.92	217.67
366.12	217.67
366.32	131.07
366.52	131.07
366.72	173.20
366.91	227.03
367.11	74.90
367.31	154.48
367.51	114.69
367.70	91.28
367.90	166.18
368.10	131.07
368.30	86.60
368.49	74.90
368.69	163.84
368.89	147.45
369.09	110.01
369.28	147.45
369.48	110.01
369.68	180.22
369.87	208.31
370.07	166.18
370.27	227.03
370.47	337.04
370.66	557.05
370.86	671.73
371.06	695.14
371.25	737.27
371.45	667.05
371.65	697.48
371.84	690.46
372.04	702.16
372.24	716.20
372.44	720.88
372.63	699.82
372.83	765.36
373.03	781.74
373.22	777.06
373.42	734.93
373.62	788.76
373.81	833.23
374.01	774.72
374.21	802.80
374.40	737.27
374.60	791.10
374.79	814.51
374.99	849.61
375.19	781.74
375.38	877.70
375.58	863.66
375.78	952.60
375.97	896.43
376.17	898.77
376.37	866.00
376.56	863.66
376.76	861.32
376.95	863.66
377.15	952.60
377.35	922.17
377.54	891.74
377.74	835.57
377.93	922.17
378.13	957.28
378.33	973.66
378.52	912.81
378.72	952.60
378.91	954.94
379.11	835.57
379.31	961.96
379.50	929.19
379.70	999.41
379.89	997.07
380.09	940.90
380.28	997.07
380.48	980.68
380.68	1069.62
380.87	954.94
381.07	1046.22
381.26	1034.52
381.46	1020.47
381.65	1006.43
381.85	966.64
382.04	992.39
382.24	1114.10
382.43	1114.10
382.63	1048.56
382.83	1114.10
383.02	1029.84
383.22	1116.44
383.41	1123.46
383.61	1114.10
383.80	1163.25
384.00	1086.01
384.19	1188.99
384.39	1196.01
384.58	1121.12
384.78	1053.24
384.97	1191.33
385.17	1188.99
385.36	1116.44
385.56	1217.08
385.75	1191.33
385.95	1181.97
386.14	1193.67
386.34	1156.22
386.53	1289.64
386.72	1135.16
386.92	1310.70
387.11	1273.25
387.31	1242.82
387.50	1186.65
387.70	1315.38
387.89	1376.24
388.09	1315.38
388.28	1259.21
388.48	1240.48
388.67	1338.79
388.86	1261.55
389.06	1331.76
389.25	1294.32
389.45	1334.11
389.64	1373.89
389.84	1460.49
390.03	1380.92
390.22	1437.09
390.42	1329.42
390.61	1380.92
390.81	1427.73
391.00	1511.99
391.19	1446.45
391.39	1397.30
391.58	1462.83
391.78	1359.85
391.97	1416.02
392.16	1490.92
392.36	1558.80
392.55	1486.24
392.75	1502.62
392.94	1540.07
393.13	1502.62
393.33	1563.48
393.52	1514.33
393.71	1633.69
393.91	1619.65
394.10	1514.33
394.29	1549.43
394.49	1584.54
394.68	1650.08
394.88	1640.72
395.07	1720.29
395.26	1659.44
395.46	1689.87
395.65	1678.16
395.84	1720.29
396.04	1804.55
396.23	1774.13
396.42	1755.40
396.62	1811.57
396.81	1867.75
397.00	1722.63
397.19	1825.62
397.39	1799.87
397.58	1790.51
397.77	1774.13
397.97	1914.56
398.16	1895.83
398.35	1937.96
398.55	1809.23
398.74	1898.17
398.93	1959.03
399.12	1944.99
399.32	1954.35
399.51	2008.18
399.70	2113.50
399.90	1944.99
400.09	2024.56
400.28	2125.21
400.47	1956.69
400.67	1991.80
400.86	1982.43
401.05	2101.80
401.24	2043.29
401.44	2132.23
401.63	2125.21
401.82	2141.59
402.01	2087.76
402.21	2143.93
402.40	2111.16
402.59	2197.76
402.78	2146.27
402.97	2085.42
403.17	2284.36
403.36	2139.25
403.55	2251.60
403.74	2289.04
403.93	2445.86
404.13	2296.07
404.32	2326.49
404.51	2298.41
404.70	2345.22
404.89	2352.24
405.09	2389.69
405.28	2459.90
405.47	2424.80
405.66	2527.78
405.85	2427.14
406.05	2518.42
406.24	2649.49
406.43	2495.01
406.62	2558.21
406.81	2633.10
407.00	2534.80
407.20	2520.76
407.39	2733.75
407.58	2724.38
407.77	2726.72
407.96	2733.75
408.15	2696.30
408.34	2803.96
408.54	2778.22
408.73	2853.11
408.92	2818.00
409.11	2890.56
409.30	2885.88
409.49	2942.05
409.68	2958.44
409.87	2918.65
410.07	2930.35
410.26	3101.21
410.45	2993.55
410.64	3054.40
410.83	3028.65
411.02	3103.55
411.21	3180.79
411.40	2984.18
411.59	3311.86
411.78	3220.58
411.98	3255.69
412.17	3243.98
412.36	3260.37
412.55	3307.18
412.74	3433.57
412.93	3384.41
413.12	3417.18
413.31	3440.59
413.50	3309.52
413.69	3506.12
413.88	3627.83
414.07	3529.53
414.26	3667.62
414.45	3733.15
414.64	3660.60
414.83	3723.79
415.02	3691.02
415.22	3714.43
415.41	3754.22
415.60	3829.12
415.79	3861.88
415.98	3943.80
416.17	3904.01
416.36	4004.66
416.55	3925.08
416.74	3988.27
416.93	4023.38
417.12	4028.06
417.31	4133.39
417.50	4196.58
417.69	4266.80
417.88	4283.18
418.07	4177.86
418.26	4224.67
418.45	4280.84
418.64	4510.21
418.83	4341.69
419.02	4456.38
419.21	4383.82
419.39	4465.74
419.58	4409.57
419.77	4393.19
419.96	4482.13
420.15	4552.34
420.34	4475.10
420.53	4669.37
420.72	4599.15
420.91	4753.63
421.10	4683.41
421.29	4767.67
421.48	4662.35
421.67	4894.06
421.86	4685.75
422.05	4702.14
422.24	4706.82
422.43	4905.76
422.61	4894.06
422.80	4910.44
422.99	4903.42
423.18	4915.12
423.37	4992.36
423.56	4985.34
423.75	4940.87
423.94	4765.33
424.13	4660.01
424.32	4821.50
424.50	4891.72
424.69	5067.26
424.88	4868.31
425.07	4924.49
425.26	4898.74
425.45	4943.21
425.64	4912.78
425.83	4985.34
426.01	4961.94
426.20	4940.87
426.39	5085.98
426.58	5020.45
426.77	4849.59
426.96	5207.69
427.15	5102.37
427.33	5111.73
427.52	5048.54
427.71	5022.79
427.90	5221.74
428.09	5336.42
428.28	5444.09
428.46	5303.65
428.65	5144.50
428.84	5376.21
429.03	5516.64
429.22	5348.12
429.40	5563.45
429.59	5383.23
429.78	5313.02
429.97	5289.61
430.16	5355.15
430.34	5565.79
430.53	5425.36
430.72	5706.23
430.91	5643.03
431.10	5509.62
431.28	5619.63
431.47	5783.46
431.66	5776.44
431.85	5802.19
432.03	5991.77
432.22	5905.17
432.41	5994.11
432.60	6024.54
432.79	5872.40
432.97	5919.21
433.16	5970.71
433.35	5966.03
433.54	5961.34
433.72	6076.03
433.91	6160.29
434.10	6059.65
434.28	5984.75
434.47	6115.82
434.66	6289.02
434.85	6462.22
435.03	6317.11
435.22	6228.17
435.41	6333.49
435.59	6422.43
435.78	6291.36
435.97	6504.35
436.16	6331.15
436.34	6314.77
436.53	6504.35
436.72	6548.82
436.90	6406.05
437.09	6551.16
437.28	6305.40
437.46	6518.39
437.65	6506.69
437.84	6513.71
438.02	6750.10
438.21	6715.00
438.40	6548.82
438.58	7009.90
438.77	6787.55
438.96	6754.79
439.14	7059.06
439.33	6911.60
439.52	7030.97
439.70	7110.55
439.89	7314.17
440.08	7358.64
440.26	7304.81
440.45	7300.13
440.63	7531.84
440.82	7578.65
441.01	7576.31
441.19	7681.64
441.38	7838.45
441.57	7681.64
441.75	7815.05
441.94	8021.02
442.12	7719.09
442.31	7878.24
442.50	8208.26
442.68	8065.49
442.87	7943.78
443.05	8074.85
443.24	8308.90
443.43	8109.96
443.61	8025.70
443.80	8446.99
443.98	8095.91
444.17	7911.01
444.35	8294.86
444.54	8215.28
444.73	8201.24
444.91	8264.43
445.10	8250.39
445.28	8432.95
445.47	8217.62
445.65	8449.33
445.84	8292.52
446.02	8367.42
446.21	8325.29
446.39	8269.11
446.58	8367.42
446.77	8266.77
446.95	8238.69
447.14	8320.60
447.32	8477.42
447.51	8521.89
447.69	8439.97
447.88	8400.18
448.06	8402.52
448.25	8498.49
448.43	8482.10
448.62	8491.46
448.80	8671.68
448.99	8533.59
449.17	8636.58
449.36	8587.43
449.54	8870.63
449.73	8758.28
449.91	8858.93
450.10	8805.10
450.28	8865.95
450.46	9137.45
450.65	8901.06
450.83	8985.32
451.02	9036.81
451.20	9224.05
451.39	9224.05
451.57	9022.77
451.76	8894.04
451.94	9322.35
452.13	9399.59
452.31	9221.71
452.49	9125.75
452.68	9334.06
452.86	9334.06
453.05	9488.53
453.23	9427.68
453.42	9348.10
453.60	9125.75
453.78	9434.70
453.97	9523.64
454.15	9240.44
454.34	9689.82
454.52	9603.22
454.70	9699.18
454.89	9792.80
455.07	9813.87
455.26	10005.79
455.44	9947.28
455.62	10012.81
455.81	9898.13
455.99	10076.01
456.17	9778.76
456.36	10024.51
456.54	10181.33
456.73	10253.89
456.91	10457.51
457.09	10293.68
457.28	10469.22
457.46	10284.31
457.64	10431.77
457.83	10448.15
458.01	10420.06
458.19	10628.37
458.38	10443.47
458.56	10558.16
458.74	10604.97
458.93	10593.26
459.11	10752.42
459.29	10750.08
459.48	10874.13
459.66	10801.57
459.84	10930.30
460.03	10864.77
460.21	10970.09
460.39	10909.24
460.57	11070.73
460.76	11059.03
460.94	10986.47
461.12	11176.06
461.31	11197.12
461.49	11014.56
461.67	11164.36
461.85	11267.34
462.04	11300.11
462.22	11761.19
462.40	11377.34
462.59	11375.00
462.77	11421.81
462.95	11611.40
463.13	11538.84
463.32	11548.20
463.50	11768.21
463.68	11744.81
463.86	11843.11
464.05	11555.22
464.23	11620.76
464.41	11796.30
464.59	11754.17
464.78	12032.69
464.96	12140.36
465.14	11719.06
465.32	11981.20
465.50	11934.39
465.69	11941.41
465.87	12131.00
466.05	12004.61
466.23	12191.85
466.41	11903.96
466.60	12231.64
466.78	12166.10
466.96	12292.49
467.14	12315.90
467.32	12409.52
467.51	12545.27
467.69	11990.56
467.87	12156.74
468.05	12549.95
468.23	12215.26
468.41	12343.99
468.60	12622.51
468.78	12683.36
468.96	12348.67
469.14	12805.07
469.32	12760.60
469.50	12564.00
469.69	12861.24
469.87	13041.46
470.05	13137.43
470.23	13008.70
470.41	13247.43
470.59	13200.62
470.77	12741.88
470.95	13322.33
471.14	13561.06
471.32	13205.30
471.50	13694.47
471.68	13439.36
471.86	13563.40
472.04	13561.06
472.22	13862.99
472.40	13673.41
472.58	13619.58
472.77	13877.04
472.95	13830.23
473.13	14504.30
473.31	13940.23
473.49	14083.00
473.67	14097.05
473.85	14272.59
474.03	14452.81
474.21	14478.55
474.39	14661.12
474.57	14703.25
474.75	14703.25
474.93	14970.07
475.12	14895.17
475.30	15096.46
475.48	14925.60
475.66	15133.90
475.84	14949.00
476.02	15353.91
476.20	15410.09
476.38	15517.75
476.56	15786.91
476.74	15733.08
476.92	15721.38
477.10	15676.91
477.28	15824.36
477.46	15852.45
477.64	16334.60
477.82	16386.09
478.00	16980.59
478.18	16615.46
478.36	16636.53
478.54	16996.97
478.72	16957.18
478.90	17137.40
479.08	17415.93
479.26	17671.04
479.44	17291.88
479.62	17633.60
479.80	17806.80
479.98	18026.81
480.16	18506.62
480.34	18125.11
480.52	18649.39
480.70	18408.31
480.88	18183.62
481.06	18705.56
481.24	18731.31
481.41	19091.75
481.59	19417.08
481.77	19330.48
481.95	19501.34
482.13	19534.11
482.31	19267.29
482.49	20175.42
482.67	20276.06
482.85	20510.11
483.03	20774.60
483.21	20418.83
483.39	20758.21
483.57	20322.87
483.74	21001.63
483.92	21095.25
484.10	21282.49
484.28	21504.84
484.46	21935.50
484.64	22293.60
484.82	22010.40
485.00	22389.56
485.18	22480.85
485.35	22616.60
485.53	22789.80
485.71	22955.97
485.89	23611.32
486.07	23073.00
486.25	23304.71
486.43	23489.62
486.61	24098.16
486.78	24121.56
486.96	24173.05
487.14	24496.05
487.32	24269.01
487.50	24610.73
487.68	24510.09
487.85	25186.50
488.03	25214.59
488.21	26141.44
488.39	25553.97
488.57	26101.65
488.75	25844.20
488.92	26075.91
489.10	26560.40
489.28	26668.06
489.46	26843.60
489.64	26852.97
489.81	27358.52
489.99	27496.61
490.17	27831.31
490.35	28187.07
490.53	27955.36
490.70	28556.88
490.88	28217.50
491.06	28460.91
491.24	28613.05
491.41	29055.41
491.59	29228.61
491.77	29149.03
491.95	29429.90
492.13	29659.27
492.30	29331.59
492.48	29923.75
492.66	30134.40
492.84	30242.06
493.01	30504.20
493.19	30321.64
493.37	30988.69
493.54	30962.95
493.72	31218.07
493.90	31264.88
494.08	31484.89
494.25	31875.76
494.43	32147.26
494.61	32105.13
494.79	32165.98
494.96	32334.50
495.14	32439.82
495.32	33259.01
495.49	32713.67
495.67	33469.66
495.85	33263.69
496.02	33436.89
496.20	33944.79
496.38	34150.76
496.55	33743.50
496.73	34518.22
496.91	34494.82
497.09	34768.66
497.26	34600.14
497.44	34782.70
497.62	35089.31
497.79	35459.12
497.97	35297.62
498.14	35442.73
498.32	35875.73
498.50	36027.87
498.67	36144.89
498.85	36250.22
499.03	36322.77
499.20	36704.28
499.38	36507.68
499.56	37067.06
499.73	36451.50
499.91	36833.01
500.08	37008.55
500.26	37041.32
500.44	37677.94
500.61	37614.75
500.79	37530.49
500.97	38096.90
501.14	38412.87
501.32	38389.47
501.49	38459.68
501.67	38890.34
501.84	38478.41
502.02	38492.45
502.20	38902.04
502.37	38986.30
502.55	39180.57
502.72	39292.91
502.90	39400.58
503.07	39241.42
503.25	39503.56
503.43	39545.69
503.60	39974.01
503.78	39913.16
503.95	40161.25
504.13	40414.03
504.30	40147.21
504.48	40191.68
504.65	40531.06
504.83	40706.60
505.01	41649.83
505.18	40884.48
505.36	41420.46
505.53	40840.01
505.71	41170.02
505.88	41521.10
506.06	40942.99
506.23	41673.24
506.41	41855.80
506.58	41621.75
506.76	42012.62
506.93	42157.73
507.11	42244.33
507.28	42398.80
507.46	42375.40
507.63	42918.40
507.81	43187.56
507.98	42962.87
508.16	42728.82
508.33	43077.56
508.50	43501.20
508.68	43779.72
508.85	43714.19
509.03	43435.66
509.20	43693.12
509.38	44156.55
509.55	43936.54
509.73	43917.81
509.90	44257.19
510.08	44257.19
510.25	44039.52
510.42	44201.02
510.60	44718.28
510.77	45024.89
510.95	45418.10
511.12	44935.95
511.30	44896.16
511.47	45336.18
511.64	45155.96
511.82	45500.01
511.99	45418.10
512.17	45766.84
512.34	45715.34
512.51	46155.36
512.69	46183.45
512.86	46073.45
513.04	46361.33
513.21	46396.44
513.38	46600.07
513.56	46749.86
513.73	46665.60
513.90	46426.87
514.08	46717.09
514.25	46822.42
514.43	47033.07
514.60	47065.83
514.77	47051.79
514.95	47222.65
515.12	47201.58
515.29	47695.44
515.47	47765.65
515.64	47845.23
515.81	47686.07
515.99	47665.01
516.16	48381.21
516.33	47988.00
516.51	48245.46
516.68	48383.55
516.85	48086.31
517.03	48603.56
517.20	48729.95
517.37	48390.58
517.54	48884.43
517.72	48608.25
517.89	48788.47
518.06	48891.45
518.24	49013.16
518.41	49088.06
518.58	49310.41
518.75	48858.68
518.93	49624.04
519.10	49310.41
519.27	49200.40
519.45	49638.08
519.62	49890.86
519.79	49661.49
519.96	49832.35
520.14	50000.86
520.31	49881.50
520.48	49897.88
520.65	49979.80
520.83	50473.65
521.00	50443.23
521.17	50398.76
521.34	50796.65
521.52	50574.30
521.69	50487.70
521.86	50773.24
522.03	50817.71
522.20	50908.99
522.38	51377.10
522.55	51011.98
522.72	51063.47
522.89	51267.09
523.07	51316.25
523.24	51346.67
523.41	51547.96
523.58	51093.89
523.75	51487.10
523.92	51803.08
524.10	51643.92
524.27	51723.50
524.44	51737.54
524.61	51627.54
524.78	51868.61
524.96	51969.26
525.13	52336.72
525.30	52200.97
525.47	52266.50
525.64	52212.67
525.81	52528.64
525.98	52458.43
526.16	52458.43
526.33	52245.44
526.50	52811.85
526.67	52435.02
526.84	52762.70
527.01	52612.90
527.18	52830.57
527.36	52818.87
527.53	52868.02
527.70	53263.57
527.87	53043.56
528.04	53214.42
528.21	53113.78
528.38	53127.82
528.55	53542.10
528.72	53235.48
528.89	53303.36
529.07	53324.43
529.24	53059.94
529.41	53474.22
529.58	53666.14
529.75	53275.27
529.92	53668.48
530.09	53609.97
530.26	53663.80
530.43	53743.38
530.60	53518.69
530.77	53539.75
530.94	53832.32
531.11	53851.05
531.28	54040.63
531.46	53911.90
531.63	53986.80
531.80	54223.19
531.97	54183.40
532.14	54232.55
532.31	54305.11
532.48	54178.72
532.65	54651.51
532.82	54326.17
532.99	54511.08
533.16	54480.65
533.33	54508.74
533.50	54557.89
533.67	54501.71
533.84	54426.82
534.01	54546.18
534.18	54550.87
534.35	55285.79
534.52	55145.36
534.69	55168.77
534.86	54979.18
535.03	55082.17
535.20	54997.91
535.37	55311.54
535.54	55292.82
535.71	54948.76
535.88	55274.09
536.05	55412.18
536.22	55203.88
536.38	55571.34
536.55	55379.42
536.72	55299.84
536.89	55143.02
537.06	55590.06
537.23	55447.29
537.40	55283.45
537.57	55697.73
537.74	55650.92
537.91	55789.01
538.08	55718.79
538.25	55285.79
538.42	55751.56
538.59	55927.10
538.75	55842.84
538.92	56133.07
539.09	56198.60
539.26	55962.21
539.43	55950.51
539.60	56189.24
539.77	56144.77
539.94	56378.82
540.11	56219.67
540.28	56238.39
540.44	56451.38
540.61	56381.16
540.78	56425.64
540.95	56238.39
541.12	56294.56
541.29	56362.44
541.46	56449.04
541.62	56236.05
541.79	56320.31
541.96	56322.65
542.13	56582.45
542.30	56563.73
542.47	56540.32
542.63	56863.32
542.80	56856.29
542.97	57045.88
543.14	57286.95
543.31	57158.22
543.48	57120.77
543.64	57162.90
543.81	57240.14
543.98	57319.72
544.15	57286.95
544.32	57155.88
544.48	57436.75
544.65	57364.19
544.82	57212.06
544.99	57097.37
545.16	57476.54
545.32	57022.47
545.49	57584.20
545.66	57542.07
545.83	57523.35
546.00	57581.86
546.16	57403.98
546.33	57616.97
546.50	57319.72
546.67	57616.97
546.83	57277.59
547.00	57729.31
547.17	57668.46
547.34	57670.80
547.50	57631.01
547.67	58038.26
547.84	58108.48
548.00	57930.60
548.17	58038.26
548.34	58061.67
548.51	57890.81
548.67	57977.41
548.84	58164.65
549.01	57879.11
549.18	57984.43
549.34	58174.02
549.51	58248.91
549.68	58087.42
549.84	58199.76
550.01	58246.57
550.18	58164.65
550.34	58384.66
550.51	58244.23
550.68	58436.16
550.84	58010.18
551.01	58401.05
551.18	58358.92
551.34	58370.62
551.51	58417.43
551.68	58546.16
551.84	58607.01
552.01	58279.34
552.18	58342.53
552.34	58450.20
552.51	58564.88
552.68	58543.82
552.84	58440.84
553.01	58714.68
553.18	58504.03
553.34	58845.75
553.51	58817.66
553.67	58712.34
553.84	58752.13
554.01	58834.05
554.17	58890.22
554.34	58904.26
554.51	58843.41
554.67	58911.28
554.84	58932.35
555.00	58932.35
555.17	58681.91
555.33	58967.46
555.50	58803.62
555.67	58930.01
555.83	58848.09
556.00	59016.61
556.16	59330.24
556.33	59114.91
556.50	59131.29
556.66	59100.87
556.83	58960.44
556.99	59269.39
557.16	59414.50
557.32	59323.22
557.49	59360.67
557.65	59096.19
557.82	58937.03
557.98	59262.36
558.15	59248.32
558.32	59423.86
558.48	59290.45
558.65	59269.39
558.81	59213.21
558.98	59405.14
559.14	59533.87
559.31	59358.33
559.47	59465.99
559.64	59515.14
559.80	59608.76
559.97	59678.98
560.13	59526.84
560.30	59622.81
560.46	59543.23
560.63	59508.12
560.79	59540.89
560.96	59749.20
561.12	59554.93
561.29	59877.93
561.45	59634.51
561.61	59744.51
561.78	59662.60
561.94	59529.19
562.11	59611.10
562.27	59751.54
562.44	59845.16
562.60	59774.94
562.77	59884.95
562.93	59866.22
563.10	59978.57
563.26	59695.36
563.42	60009.00
563.59	60041.76
563.75	60001.97
563.92	59833.46
564.08	59854.52
564.24	60013.68
564.41	59936.44
564.57	60004.31
564.74	60076.87
564.90	60102.62
565.07	60074.53
565.23	59889.63
565.39	60039.42
565.56	60121.34
565.72	60060.49
565.88	60130.70
566.05	60104.96
566.21	60055.81
566.38	60186.88
566.54	60198.58
566.70	60236.03
566.87	60273.48
567.03	60123.68
567.19	60437.31
567.36	60133.04
567.52	60093.25
567.68	60266.45
567.85	60226.66
568.01	60399.86
568.17	60179.85
568.34	60275.82
568.50	60184.54
568.66	60186.88
568.83	60203.26
568.99	60346.03
569.15	60151.77
569.32	60245.39
569.48	60090.91
569.64	60472.42
569.81	60364.76
569.97	60123.68
570.13	60245.39
570.30	60303.90
570.46	60437.31
570.62	60516.89
570.78	60456.04
570.95	60367.10
571.11	60680.73
571.27	60388.16
571.43	60247.73
571.60	60458.38
571.76	60266.45
571.92	60608.17
572.09	60465.40
572.25	60467.74
572.41	60240.71
572.57	60327.31
572.74	60708.82
572.90	60322.63
573.06	60439.65
573.22	60570.72
573.38	60582.43
573.55	60486.46
573.71	60615.19
573.87	60664.35
574.03	60591.79
574.20	60718.18
574.36	60346.03
574.52	60612.85
574.68	60589.45
574.84	60678.39
575.01	60676.05
575.17	60582.43
575.33	60589.45
575.49	60575.40
575.65	60537.96
575.82	60683.07
575.98	60521.57
576.14	60938.19
576.30	60746.26
576.46	60591.79
576.62	60556.68
576.79	60673.71
576.95	60514.55
577.11	60601.15
577.27	60919.46
577.43	60575.40
577.59	60605.83
577.75	60612.85
577.92	60467.74
578.08	60420.93
578.24	60566.04
578.40	60858.61
578.56	60804.78
578.72	60657.32
578.88	61197.99
579.04	60786.05
579.21	60720.52
579.37	60900.74
579.53	60914.78
579.69	60584.77
579.85	60650.30
580.01	60654.98
580.17	60603.49
580.33	60746.26
580.49	60947.55
580.65	60746.26
580.82	60879.67
580.98	60797.76
581.14	60566.04
581.30	60856.27
581.46	60500.51
581.62	60931.17
581.78	60596.47
581.94	60996.70
582.10	60800.10
582.26	60814.14
582.42	60680.73
582.58	60825.84
582.74	60748.60
582.90	60942.87
583.06	60671.37
583.22	60481.78
583.38	60800.10
583.54	60713.50
583.70	60872.65
583.86	60928.83
584.02	60809.46
584.18	61050.53
584.34	60844.57
584.50	60849.25
584.66	60793.07
584.82	60708.82
584.98	60970.96
585.14	61071.60
585.30	60804.78
585.46	60800.10
585.62	60982.66
585.78	61062.24
585.94	60734.56
586.10	60898.40
586.26	60903.08
586.42	60874.99
586.58	60860.95
586.74	60914.78
586.90	60924.14
587.06	60809.46
587.22	61015.43
587.38	60654.98
587.54	61003.72
587.70	61036.49
587.86	60945.21
588.02	60914.78
588.18	61162.88
588.34	60814.14
588.49	60926.49
