SpectraSuite Data File
++++++++++++++++++++++++++++++++++++
Date: Fri Oct 25 10:44:44 EDT 2013
User: price-jones
Dark Spectrum Present: No
Reference Spectrum Present: No
Number of Sampled Component Spectra: 1
Spectrometers: USB2+H05261
Integration Time (usec): 100000 (USB2+H05261)
Spectra Averaged: 1 (USB2+H05261)
Boxcar Smoothing: 0 (USB2+H05261)
Correct for Electrical Dark: No (USB2+H05261)
Strobe/Lamp Enabled: No (USB2+H05261)
Correct for Detector Non-linearity: No (USB2+H05261)
Correct for Stray Light: No (USB2+H05261)
Number of Pixels in Processed Spectrum: 2048
>>>>>Begin Processed Spectral Data<<<<<
365.73	121.71
365.92	121.71
366.12	121.71
366.32	98.30
366.52	0.00
366.72	2.34
366.91	0.00
367.11	0.00
367.31	0.00
367.51	56.17
367.70	4.68
367.90	28.09
368.10	0.00
368.30	28.09
368.49	0.00
368.69	39.79
368.89	39.79
369.09	0.00
369.28	53.83
369.48	63.19
369.68	70.22
369.87	100.64
370.07	138.09
370.27	152.13
370.47	152.13
370.66	341.72
370.86	456.40
371.06	451.72
371.25	383.85
371.45	386.19
371.65	404.91
371.84	454.06
372.04	423.64
372.24	491.51
372.44	507.90
372.63	552.37
372.83	479.81
373.03	463.43
373.22	447.04
373.42	468.11
373.62	507.90
373.81	486.83
374.01	552.37
374.21	507.90
374.40	512.58
374.60	535.98
374.79	587.47
374.99	594.50
375.19	521.94
375.38	503.22
375.58	505.56
375.78	526.62
375.97	510.24
376.17	585.13
376.37	594.50
376.56	580.45
376.76	559.39
376.95	601.52
377.15	620.24
377.35	514.92
377.54	622.58
377.74	599.18
377.93	613.22
378.13	634.29
378.33	664.71
378.52	631.94
378.72	624.92
378.91	601.52
379.11	601.52
379.31	606.20
379.50	580.45
379.70	657.69
379.89	648.33
380.09	599.18
380.28	613.22
380.48	645.99
380.68	702.16
380.87	681.10
381.07	610.88
381.26	697.48
381.46	695.14
381.65	669.39
381.85	638.97
382.04	653.01
382.24	629.60
382.43	741.95
382.63	669.39
382.83	713.86
383.02	655.35
383.22	645.99
383.41	667.05
383.61	765.36
383.80	791.10
384.00	772.38
384.19	746.63
384.39	641.31
384.58	713.86
384.78	755.99
384.97	748.97
385.17	748.97
385.36	784.08
385.56	809.83
385.75	755.99
385.95	760.67
386.14	767.70
386.34	737.27
386.53	858.98
386.72	793.44
386.92	795.78
387.11	828.55
387.31	837.91
387.50	784.08
387.70	833.23
387.89	863.66
388.09	826.21
388.28	844.93
388.48	823.87
388.67	833.23
388.86	873.02
389.06	842.59
389.25	858.98
389.45	858.98
389.64	873.02
389.84	990.05
390.03	987.71
390.22	929.19
390.42	924.51
390.61	938.55
390.81	833.23
391.00	854.30
391.19	1060.26
391.39	943.24
391.58	983.02
391.78	903.45
391.97	973.66
392.16	954.94
392.36	929.19
392.55	961.96
392.75	1020.47
392.94	912.81
393.13	924.51
393.33	959.62
393.52	1041.54
393.71	1043.88
393.91	1095.37
394.10	983.02
394.29	1064.94
394.49	1095.37
394.68	1095.37
394.88	1144.52
395.07	1146.86
395.26	1088.35
395.46	1142.18
395.65	1156.22
395.84	1139.84
396.04	1158.57
396.23	1151.54
396.42	1095.37
396.62	1118.78
396.81	1137.50
397.00	1135.16
397.19	1100.05
397.39	1196.01
397.58	1249.85
397.77	1254.53
397.97	1315.38
398.16	1249.85
398.35	1273.25
398.55	1165.59
398.74	1359.85
398.93	1329.42
399.12	1317.72
399.32	1299.00
399.51	1378.58
399.70	1394.96
399.90	1362.19
400.09	1418.36
400.28	1413.68
400.47	1451.13
400.67	1423.05
400.86	1448.79
401.05	1479.22
401.24	1504.96
401.44	1448.79
401.63	1530.71
401.82	1535.39
402.01	1542.41
402.21	1483.90
402.40	1554.12
402.59	1530.71
402.78	1636.03
402.97	1591.56
403.17	1575.18
403.36	1596.25
403.55	1732.00
403.74	1734.34
403.93	1631.35
404.13	1727.32
404.32	1661.78
404.51	1710.93
404.70	1767.10
404.89	1717.95
405.09	1856.04
405.28	1685.19
405.47	1694.55
405.66	1790.51
405.85	1781.15
406.05	1837.32
406.24	1708.59
406.43	1846.68
406.62	1893.49
406.81	1916.90
407.00	1914.56
407.20	1753.06
407.39	1888.81
407.58	1968.39
407.77	1942.64
407.96	1959.03
408.15	1886.47
408.34	2080.74
408.54	2078.40
408.73	2029.24
408.92	2087.76
409.11	2033.93
409.30	2001.16
409.49	2031.58
409.68	2001.16
409.87	2015.20
410.07	2076.06
410.26	2193.08
410.45	2101.80
410.64	2232.87
410.83	2340.54
411.02	2150.95
411.21	2195.42
411.40	2363.94
411.59	2385.01
411.78	2328.83
411.98	2317.13
412.17	2370.96
412.36	2464.58
412.55	2403.73
412.74	2457.56
412.93	2415.43
413.12	2471.61
413.31	2640.12
413.50	2513.74
413.69	2457.56
413.88	2560.55
414.07	2537.14
414.26	2637.78
414.45	2693.96
414.64	2651.83
414.83	2820.35
415.02	2630.76
415.22	2832.05
415.41	2682.25
415.60	2801.62
415.79	2836.73
415.98	2993.55
416.17	2871.84
416.36	2892.90
416.55	2958.44
416.74	3014.61
416.93	3068.44
417.12	3038.02
417.31	3105.89
417.50	2979.50
417.69	3194.83
417.88	3115.25
418.07	3176.11
418.26	3176.11
418.45	3178.45
418.64	3300.16
418.83	3180.79
419.02	3159.72
419.21	3258.03
419.39	3461.65
419.58	3169.09
419.77	3220.58
419.96	3346.97
420.15	3243.98
420.34	3267.39
420.53	3372.71
420.72	3377.39
420.91	3463.99
421.10	3492.08
421.29	3529.53
421.48	3552.93
421.67	3419.52
421.86	3496.76
422.05	3478.04
422.24	3461.65
422.43	3520.17
422.61	3480.38
422.80	3566.98
422.99	3691.02
423.18	3634.85
423.37	3665.28
423.56	3630.17
423.75	3576.34
423.94	3543.57
424.13	3309.52
424.32	3503.78
424.50	3578.68
424.69	3819.75
424.88	3695.71
425.07	3494.42
425.26	3574.00
425.45	3665.28
425.64	3583.36
425.83	3480.38
426.01	3782.31
426.20	3681.66
426.39	3609.11
426.58	3599.74
426.77	3613.79
426.96	3588.04
427.15	3728.47
427.33	3826.78
427.52	3630.17
427.71	3864.22
427.90	3712.09
428.09	3716.77
428.28	3840.82
428.46	3791.67
428.65	3810.39
428.84	4084.23
429.03	3953.16
429.22	3758.90
429.40	3794.01
429.59	3815.07
429.78	3777.62
429.97	3744.86
430.16	3871.25
430.34	3831.46
430.53	3920.40
430.72	3953.16
430.91	3822.09
431.10	3969.55
431.28	4067.85
431.47	4170.83
431.66	4252.75
431.85	4086.58
432.03	4168.49
432.22	4461.06
432.41	4201.26
432.60	4074.87
432.79	4257.43
432.97	4411.91
433.16	4367.44
433.35	4182.54
433.54	4294.88
433.72	4287.86
433.91	4278.50
434.10	4475.10
434.28	4423.61
434.47	4542.98
434.66	4486.81
434.85	4545.32
435.03	4449.36
435.22	4444.68
435.41	4713.84
435.59	4608.51
435.78	4744.27
435.97	4723.20
436.16	4702.14
436.34	4755.97
436.53	4592.13
436.72	4781.71
436.90	4692.77
437.09	4737.24
437.28	4716.18
437.46	4788.74
437.65	4723.20
437.84	4884.70
438.02	4713.84
438.21	4645.96
438.40	4695.11
438.58	4870.65
438.77	4910.44
438.96	4980.66
439.14	5118.75
439.33	5217.05
439.52	5114.07
439.70	5212.37
439.89	5221.74
440.08	5303.65
440.26	5291.95
440.45	5249.82
440.63	5500.26
440.82	5488.56
441.01	5352.81
441.19	5401.96
441.38	5652.39
441.57	5673.46
441.75	5511.96
441.94	5827.93
442.12	5610.26
442.31	5729.63
442.50	5710.91
442.68	5715.59
442.87	5900.49
443.05	5734.31
443.24	6026.88
443.43	5776.44
443.61	5809.21
443.80	6162.63
443.98	5839.64
444.17	5687.50
444.35	5994.11
444.54	6216.46
444.73	6003.47
444.91	5785.80
445.10	5987.09
445.28	5907.51
445.47	5816.23
445.65	5872.40
445.84	5984.75
446.02	5898.15
446.21	5940.28
446.39	6005.81
446.58	6148.59
446.77	6104.12
446.95	5996.45
447.14	6118.16
447.32	6132.20
447.51	5963.68
447.69	5975.39
447.88	6160.29
448.06	6146.25
448.25	6003.47
448.43	6155.61
448.62	6015.18
448.80	6078.37
448.99	6258.59
449.17	6160.29
449.36	6134.54
449.54	6420.09
449.73	6466.90
449.91	6471.58
450.10	6366.26
450.28	6656.48
450.46	6403.71
450.65	6537.12
450.83	6487.96
451.02	6509.03
451.20	6733.72
451.39	6757.13
451.57	6623.72
451.76	6604.99
451.94	6597.97
452.13	6525.41
452.31	6607.33
452.49	6380.30
452.68	6621.38
452.86	6455.20
453.05	6560.52
453.23	6583.93
453.42	6651.80
453.60	6724.36
453.78	6707.98
453.97	6738.40
454.15	6853.09
454.34	6813.30
454.52	6796.92
454.70	6949.05
454.89	6806.28
455.07	6883.52
455.26	6965.43
455.44	7012.24
455.62	7033.31
455.81	7229.91
455.99	7222.89
456.17	7208.85
456.36	7131.61
456.54	7138.63
456.73	7290.77
456.91	7459.29
457.09	7318.86
457.28	7386.73
457.46	7328.22
457.64	7424.18
457.83	7368.01
458.01	7314.17
458.19	7573.97
458.38	7527.16
458.56	7513.12
458.74	7637.17
458.93	7569.29
459.11	7609.08
459.29	7527.16
459.48	7772.92
459.66	7508.44
459.84	7566.95
460.03	7599.72
460.21	7833.77
460.39	7852.50
460.57	7726.11
460.76	7911.01
460.94	8028.04
461.12	7779.94
461.31	7833.77
461.49	7868.88
461.67	7782.28
461.85	8056.12
462.04	8142.72
462.22	8166.13
462.40	8107.62
462.59	8138.04
462.77	8077.19
462.95	8306.56
463.13	8486.78
463.32	8163.79
463.50	8156.77
463.68	8336.99
463.86	8379.12
464.05	8152.09
464.23	8187.19
464.41	8351.03
464.59	8208.26
464.78	8552.32
464.96	8395.50
465.14	8348.69
465.32	8381.46
465.50	8690.41
465.69	8517.21
465.87	8528.91
466.05	8496.14
466.23	8341.67
466.41	8683.39
466.60	8769.99
466.78	8538.27
466.96	8388.48
467.14	8624.87
467.32	8514.87
467.51	8603.81
467.69	8461.04
467.87	8760.63
468.05	8842.54
468.23	8627.21
468.41	8957.23
468.60	8676.37
468.78	8905.74
468.96	8833.18
469.14	8849.57
469.32	8973.61
469.50	8798.07
469.69	8837.86
469.87	8917.44
470.05	9029.79
470.23	8971.27
470.41	8952.55
470.59	9121.07
470.77	9069.58
470.95	9174.90
471.14	9322.35
471.32	9114.05
471.50	9547.05
471.68	9301.29
471.86	9516.62
472.04	9458.10
472.22	9624.28
472.40	9376.19
472.58	9771.74
472.77	9694.50
472.95	9729.61
473.13	9916.85
473.31	9785.78
473.49	9825.57
473.67	9652.37
473.85	9891.10
474.03	10202.40
474.21	9881.74
474.39	10195.37
474.57	10106.43
474.75	10303.04
474.93	10328.78
475.12	10286.65
475.30	10373.25
475.48	10279.63
475.66	10626.03
475.84	10565.18
476.02	10490.28
476.20	10532.41
476.38	10853.06
476.56	11073.07
476.74	10895.19
476.92	11122.23
477.10	11077.76
477.28	11019.24
477.46	11140.95
477.64	11311.81
477.82	11297.77
478.00	11531.82
478.18	11592.67
478.36	11655.87
478.54	11566.93
478.72	11583.31
478.90	11887.58
479.08	11992.90
479.26	12135.68
479.44	12112.27
479.62	12259.73
479.80	12257.39
479.98	12135.68
480.16	12678.68
480.34	12390.80
480.52	12840.18
480.70	12809.75
480.88	12498.46
481.06	12805.07
481.24	12795.71
481.41	13118.70
481.59	13418.29
481.77	13186.58
481.95	13341.05
482.13	13734.26
482.31	13460.42
482.49	13710.86
482.67	13570.43
482.85	13855.97
483.03	13827.88
483.21	13996.40
483.39	14134.50
483.57	14111.09
483.74	14295.99
483.92	14588.56
484.10	14408.34
484.28	14450.47
484.46	14895.17
484.64	15091.77
484.82	14937.30
485.00	15166.67
485.18	15087.09
485.35	15325.83
485.53	15211.14
485.71	15080.07
485.89	15594.99
486.07	15456.90
486.25	15349.23
486.43	15756.49
486.61	16046.71
486.78	15836.06
486.96	16540.57
487.14	16379.07
487.32	16339.28
487.50	16760.58
487.68	16849.52
487.85	16980.59
488.03	17221.66
488.21	17289.54
488.39	17348.05
488.57	17177.19
488.75	17745.94
488.92	17783.39
489.10	18019.78
489.28	17914.46
489.46	18157.88
489.64	18403.63
489.81	18682.16
489.99	18483.21
490.17	18492.57
490.35	19154.94
490.53	18525.34
490.70	19323.46
490.88	19030.90
491.06	19288.35
491.24	19140.90
491.41	19426.45
491.59	19559.86
491.77	19281.33
491.95	19913.28
492.13	19946.05
492.30	20002.22
492.48	20032.65
492.66	20334.57
492.84	20444.58
493.01	20339.26
493.19	20243.29
493.37	20610.76
493.54	20814.38
493.72	21109.29
493.90	21172.49
494.08	21249.72
494.25	21809.11
494.43	21656.98
494.61	21504.84
494.79	21783.37
494.96	21774.00
495.14	21851.24
495.32	21898.05
495.49	22094.66
495.67	22188.28
495.85	22508.93
496.02	22668.09
496.20	22366.16
496.38	22745.33
496.55	22885.76
496.73	23234.50
496.91	22895.12
497.09	23262.58
497.26	23440.47
497.44	23480.25
497.62	23311.74
497.79	23658.14
497.97	23339.82
498.14	23906.23
498.32	23836.02
498.50	24058.37
498.67	24208.16
498.85	24283.06
499.03	24306.46
499.20	24687.97
499.38	24070.07
499.56	24189.44
499.73	24627.12
499.91	24931.39
500.08	25212.25
500.26	24566.26
500.44	25280.13
500.61	25291.83
500.79	24781.59
500.97	25153.74
501.14	25752.91
501.32	25476.73
501.49	25507.16
501.67	25357.36
501.84	25617.16
502.02	25577.37
502.20	25596.10
502.37	25764.62
502.55	26008.03
502.72	26101.65
502.90	26274.85
503.07	26274.85
503.25	26328.69
503.43	26237.41
503.60	26169.53
503.78	26370.82
503.95	26340.39
504.13	26384.86
504.30	27080.00
504.48	26913.82
504.65	27082.34
504.83	26569.76
505.01	27480.23
505.18	27012.12
505.36	27555.13
505.53	27550.45
505.71	27651.09
505.88	27723.65
506.06	27278.94
506.23	27447.46
506.41	27651.09
506.58	28151.96
506.76	27999.83
506.93	28350.91
507.11	28034.94
507.28	28257.29
507.46	28081.75
507.63	28151.96
507.81	28362.61
507.98	28257.29
508.16	28425.81
508.33	28554.54
508.50	28720.71
508.68	29083.50
508.85	29149.03
509.03	28975.83
509.20	29371.38
509.38	29109.24
509.55	29338.62
509.73	28842.42
509.90	29301.17
510.08	29401.81
510.25	29305.85
510.42	29797.36
510.60	29806.72
510.77	29790.34
510.95	30115.67
511.12	30031.41
511.30	30260.79
511.47	30504.20
511.64	30373.13
511.82	30398.88
511.99	30373.13
512.17	30728.89
512.34	30377.81
512.51	30661.02
512.69	30969.97
512.86	30735.92
513.04	30859.96
513.21	31124.44
513.38	31124.44
513.56	31197.00
513.73	30740.60
513.90	31622.98
514.08	30682.08
514.25	31613.62
514.43	31346.79
514.60	31164.23
514.77	31192.32
514.95	31927.25
515.12	31332.75
515.29	31908.52
515.47	31681.49
515.64	32147.26
515.81	31805.54
515.99	31997.46
516.16	31845.33
516.33	31599.57
516.51	32259.60
516.68	31798.52
516.85	31796.18
517.03	32325.14
517.20	31934.27
517.37	32243.22
517.54	32947.72
517.72	32538.13
517.89	32425.78
518.06	32318.12
518.24	32002.14
518.41	32549.83
518.58	32545.15
518.75	32680.90
518.93	33127.94
519.10	32910.27
519.27	33376.04
519.45	33106.88
519.62	33209.86
519.79	33525.83
519.96	33883.94
520.14	33738.82
520.31	33315.19
520.48	33558.60
520.65	33766.91
520.83	34162.46
521.00	34047.77
521.17	33869.89
521.34	33942.45
521.52	34120.33
521.69	33895.64
521.86	34237.36
522.03	34349.70
522.20	34534.60
522.38	34478.43
522.55	34623.54
522.72	34478.43
522.89	34719.51
523.07	34572.05
523.24	34382.47
523.41	35058.88
523.58	34529.92
523.75	35271.87
523.92	35414.65
524.10	35569.12
524.27	35395.92
524.44	34948.88
524.61	35218.04
524.78	35400.60
524.96	35503.59
525.13	35496.56
525.30	35531.67
525.47	35866.37
525.64	35842.96
525.81	35555.08
525.98	35711.89
526.16	35742.32
526.33	35896.80
526.50	36016.16
526.67	35824.24
526.84	35395.92
527.01	35583.16
527.18	36135.53
527.36	36542.78
527.53	36407.03
527.70	36397.67
527.87	36133.19
528.04	36409.37
528.21	36683.22
528.38	36378.95
528.55	36802.58
528.72	36952.38
528.89	36842.37
529.07	37085.79
529.24	37010.89
529.41	37029.62
529.58	36713.64
529.75	37076.43
529.92	37067.06
530.09	36807.26
530.26	37464.96
530.43	37326.86
530.60	36659.81
530.77	37057.70
530.94	37235.58
531.11	37308.14
531.28	37216.86
531.46	37638.15
531.63	37230.90
531.80	37354.95
531.97	37804.33
532.14	37596.03
532.31	37670.92
532.48	37530.49
532.65	37755.18
532.82	37860.51
532.99	37949.45
533.16	37790.29
533.33	37799.65
533.50	38309.89
533.67	37741.14
533.84	38148.39
534.01	38073.49
534.18	38202.22
534.35	37951.79
534.52	37996.26
534.69	38335.63
534.86	38644.59
535.03	38426.92
535.20	38714.80
535.37	38953.54
535.54	39075.24
535.71	38836.51
535.88	38408.19
536.05	38576.71
536.22	38735.87
536.38	39028.43
536.55	39037.80
536.72	38792.04
536.89	38766.29
537.06	38955.88
537.23	38904.38
537.40	38714.80
537.57	38827.15
537.74	39124.40
537.91	39583.14
538.08	39494.20
538.25	39065.88
538.42	39239.08
538.59	39508.24
538.75	39075.24
538.92	39304.62
539.09	39501.22
539.26	39407.60
539.43	39810.17
539.60	39452.07
539.77	39386.54
539.94	39665.06
540.11	39159.50
540.28	39746.98
540.44	39583.14
540.61	39768.04
540.78	39576.12
540.95	39601.86
541.12	39477.82
541.29	39838.26
541.46	39931.88
541.62	39929.54
541.79	39931.88
541.96	39704.85
542.13	39819.53
542.30	39873.37
542.47	40254.87
542.63	40006.78
542.80	40315.73
542.97	40748.73
543.14	40989.80
543.31	40835.33
543.48	40591.91
543.64	41242.58
543.81	40769.79
543.98	41326.84
544.15	40690.21
544.32	40512.33
544.48	41090.44
544.65	40994.48
544.82	41078.74
544.99	41160.66
545.16	41048.32
545.32	40877.46
545.49	41464.93
545.66	41446.21
545.83	40849.37
546.00	41338.54
546.16	41532.81
546.33	41415.78
546.50	41123.21
546.67	41603.02
546.83	41258.96
547.00	41626.43
547.17	41067.04
547.34	41509.40
547.50	41607.70
547.67	41350.24
547.84	41855.80
548.00	41572.60
548.17	41846.44
548.34	42204.54
548.51	41677.92
548.67	42103.90
548.84	42218.58
549.01	42052.41
549.18	41858.14
549.34	41949.42
549.51	42160.07
549.68	42124.96
549.84	42010.28
550.01	41996.23
550.18	42349.65
550.34	42188.16
550.51	42462.00
550.68	42490.09
550.84	41633.45
551.01	42408.17
551.18	42080.49
551.34	42340.29
551.51	42265.39
551.68	42234.97
551.84	42415.19
552.01	42162.41
552.18	42539.24
552.34	42518.17
552.51	42857.55
552.68	42321.57
552.84	43009.68
553.01	42728.82
553.18	42951.17
553.34	42731.16
553.51	42588.39
553.67	42677.33
553.84	42951.17
554.01	42852.87
554.17	43007.34
554.34	42866.91
554.51	43316.29
554.67	43159.48
554.84	42965.21
555.00	42256.03
555.17	42895.00
555.33	43208.63
555.50	42749.88
555.67	42766.27
555.83	42986.28
556.00	43365.45
556.16	43054.15
556.33	43519.92
556.50	42862.23
556.66	43215.65
556.83	43241.40
556.99	43660.35
557.16	43522.26
557.32	43784.40
557.49	43274.16
557.65	43234.38
557.82	43402.89
557.98	43388.85
558.15	43318.64
558.32	43880.36
558.48	43454.39
558.65	43330.34
558.81	42972.24
558.98	43395.87
559.14	43489.49
559.31	43576.09
559.47	44109.74
559.64	43761.00
559.80	43899.09
559.97	43711.84
560.13	43756.32
560.30	43360.76
560.46	43409.92
560.63	43501.20
560.79	43859.30
560.96	44598.91
561.12	43807.81
561.29	43929.51
561.45	43922.49
561.61	43658.01
561.78	43861.64
561.94	43599.50
562.11	43709.50
562.27	43981.01
562.44	43983.35
562.60	43973.98
562.77	44308.68
562.93	44233.78
563.10	44404.64
563.26	43777.38
563.42	44006.75
563.59	43871.00
563.75	44011.43
563.92	43983.35
564.08	44226.76
564.24	44151.87
564.41	44158.89
564.57	44051.22
564.74	43772.70
564.90	44329.75
565.07	44095.69
565.23	44030.16
565.39	43964.62
565.56	44055.90
565.72	44158.89
565.88	43988.03
566.05	44032.50
566.21	44098.03
566.38	43793.76
566.54	44100.37
566.70	43955.26
566.87	44694.87
567.03	44545.08
567.19	44882.11
567.36	44414.01
567.52	44392.94
567.68	44332.09
567.85	44006.75
568.01	44299.32
568.17	44346.13
568.34	44472.52
568.50	44105.06
568.66	44435.07
568.83	44509.97
568.99	44032.50
569.15	44247.83
569.32	43559.71
569.48	44498.26
569.64	44933.60
569.81	44165.91
569.97	44402.30
570.13	44947.65
570.30	44198.68
570.46	44189.31
570.62	43966.96
570.78	44280.60
570.95	44697.21
571.11	44311.02
571.27	44458.48
571.43	44320.38
571.60	44299.32
571.76	44395.28
571.92	44465.50
572.09	44425.71
572.25	43849.94
572.41	44332.09
572.57	44767.43
572.74	44507.63
572.90	44573.16
573.06	44673.81
573.22	44318.04
573.38	44535.71
573.55	44596.57
573.71	44788.49
573.87	44327.41
574.03	44083.99
574.20	44584.86
574.36	44713.59
574.52	44374.22
574.68	44500.61
574.84	44268.89
575.01	44355.49
575.17	44126.12
575.33	44580.18
575.49	44336.77
575.65	44355.49
575.82	44746.36
575.98	44364.85
576.14	44502.95
576.30	44114.42
576.46	44940.63
576.62	44498.26
576.79	44617.63
576.95	44191.65
577.11	45083.40
577.27	45193.40
577.43	44493.58
577.59	44507.63
577.75	44626.99
577.92	44474.86
578.08	44514.65
578.24	44289.96
578.40	44556.78
578.56	44760.40
578.72	44601.25
578.88	44685.51
579.04	44842.32
579.21	44907.86
579.37	44971.05
579.53	44629.34
579.69	44662.10
579.85	44308.68
580.01	45148.93
580.17	44524.01
580.33	44978.07
580.49	44678.49
580.65	44933.60
580.82	44938.29
580.98	44083.99
581.14	44474.86
581.30	44964.03
581.46	45167.66
581.62	45013.18
581.78	44844.66
581.94	44949.99
582.10	44481.88
582.26	44575.50
582.42	44296.98
582.58	44739.34
582.74	44357.83
582.90	44755.72
583.06	44921.90
583.22	44912.54
583.38	44837.64
583.54	45074.04
583.70	44811.90
583.86	44762.75
584.02	44610.61
584.18	44800.19
584.34	44406.98
584.50	44617.63
584.66	44830.62
584.82	44851.69
584.98	45179.36
585.14	44837.64
585.30	44636.36
585.46	44687.85
585.62	44360.17
585.78	44891.48
585.94	44135.48
586.10	44762.75
586.26	44676.15
586.42	45064.67
586.58	45050.63
586.74	45036.59
586.90	44355.49
587.06	44502.95
587.22	45036.59
587.38	44390.60
587.54	44825.94
587.70	44947.65
587.86	44800.19
588.02	44711.25
588.18	44910.20
588.34	44683.17
588.49	44968.71
588.65	43976.33
588.81	44509.97
588.97	44823.60
589.13	44545.08
589.29	44538.05
589.45	45282.34
589.61	45076.38
589.77	45179.36
589.93	45095.10
590.08	45069.36
590.24	45207.45
