SpectraSuite Data File
++++++++++++++++++++++++++++++++++++
Date: Fri Oct 25 11:25:41 EDT 2013
User: price-jones
Dark Spectrum Present: No
Reference Spectrum Present: No
Number of Sampled Component Spectra: 1
Spectrometers: USB2+H05261
Integration Time (usec): 100000 (USB2+H05261)
Spectra Averaged: 1 (USB2+H05261)
Boxcar Smoothing: 0 (USB2+H05261)
Correct for Electrical Dark: No (USB2+H05261)
Strobe/Lamp Enabled: No (USB2+H05261)
Correct for Detector Non-linearity: No (USB2+H05261)
Correct for Stray Light: No (USB2+H05261)
Number of Pixels in Processed Spectrum: 2048
>>>>>Begin Processed Spectral Data<<<<<
365.73	299.59
365.92	299.59
366.12	299.59
366.32	121.71
366.52	175.54
366.72	166.18
366.91	119.37
367.11	133.41
367.31	131.07
367.51	152.13
367.70	117.03
367.90	117.03
368.10	184.90
368.30	126.39
368.49	117.03
368.69	198.95
368.89	191.92
369.09	149.79
369.28	117.03
369.48	163.84
369.68	107.66
369.87	198.95
370.07	238.73
370.27	245.76
370.47	367.46
370.66	580.45
370.86	624.92
371.06	669.39
371.25	739.61
371.45	695.14
371.65	627.26
371.84	676.41
372.04	645.99
372.24	627.26
372.44	730.25
372.63	716.20
372.83	718.54
373.03	688.12
373.22	772.38
373.42	774.72
373.62	802.80
373.81	854.30
374.01	858.98
374.21	868.34
374.40	788.76
374.60	784.08
374.79	784.08
374.99	805.14
375.19	854.30
375.38	866.00
375.58	931.53
375.78	917.49
375.97	861.32
376.17	875.36
376.37	880.04
376.56	835.57
376.76	784.08
376.95	828.55
377.15	826.21
377.35	828.55
377.54	805.14
377.74	875.36
377.93	966.64
378.13	931.53
378.33	980.68
378.52	931.53
378.72	884.72
378.91	983.02
379.11	957.28
379.31	931.53
379.50	856.64
379.70	943.24
379.89	990.05
380.09	940.90
380.28	1046.22
380.48	1006.43
380.68	978.34
380.87	983.02
381.07	1036.86
381.26	964.30
381.46	1034.52
381.65	1050.90
381.85	954.94
382.04	1057.92
382.24	1090.69
382.43	1048.56
382.63	1069.62
382.83	1076.65
383.02	1111.75
383.22	1097.71
383.41	1074.31
383.61	1137.50
383.80	1177.29
384.00	1078.99
384.19	1181.97
384.39	1071.97
384.58	1205.38
384.78	1170.27
384.97	1139.84
385.17	1184.31
385.36	1184.31
385.56	1156.22
385.75	1132.82
385.95	1193.67
386.14	1226.44
386.34	1200.69
386.53	1254.53
386.72	1217.08
386.92	1210.06
387.11	1203.04
387.31	1212.40
387.50	1224.10
387.70	1252.19
387.89	1287.29
388.09	1270.91
388.28	1186.65
388.48	1247.51
388.67	1275.59
388.86	1263.89
389.06	1275.59
389.25	1357.51
389.45	1343.47
389.64	1313.04
389.84	1315.38
390.03	1423.05
390.22	1331.76
390.42	1423.05
390.61	1460.49
390.81	1366.87
391.00	1327.08
391.19	1425.39
391.39	1444.11
391.58	1483.90
391.78	1355.17
391.97	1624.33
392.16	1535.39
392.36	1507.30
392.55	1462.83
392.75	1535.39
392.94	1570.50
393.13	1511.99
393.33	1549.43
393.52	1600.93
393.71	1589.22
393.91	1535.39
394.10	1502.62
394.29	1596.25
394.49	1614.97
394.68	1582.20
394.88	1708.59
395.07	1638.38
395.26	1640.72
395.46	1568.16
395.65	1664.12
395.84	1703.91
396.04	1776.47
396.23	1746.04
396.42	1713.27
396.62	1724.97
396.81	1771.79
397.00	1827.96
397.19	1834.98
397.39	1905.20
397.58	1767.10
397.77	1856.04
397.97	1795.19
398.16	1870.09
398.35	1778.81
398.55	1863.07
398.74	1788.17
398.93	1954.35
399.12	1914.56
399.32	1886.47
399.51	1926.26
399.70	2012.86
399.90	1926.26
400.09	2090.10
400.28	2085.42
400.47	2099.46
400.67	2010.52
400.86	2115.84
401.05	2094.78
401.24	2097.12
401.44	2097.12
401.63	2101.80
401.82	2169.68
402.01	2099.46
402.21	2139.25
402.40	2047.97
402.59	2150.95
402.78	2296.07
402.97	2305.43
403.17	2223.51
403.36	2251.60
403.55	2265.64
403.74	2305.43
403.93	2239.89
404.13	2263.30
404.32	2342.88
404.51	2399.05
404.70	2415.43
404.89	2345.22
405.09	2457.56
405.28	2495.01
405.47	2448.20
405.66	2363.94
405.85	2406.07
406.05	2499.69
406.24	2530.12
406.43	2518.42
406.62	2700.98
406.81	2619.06
407.00	2534.80
407.20	2523.10
407.39	2626.08
407.58	2773.53
407.77	2719.70
407.96	2710.34
408.15	2764.17
408.34	2738.43
408.54	2841.41
408.73	2841.41
408.92	2719.70
409.11	2860.13
409.30	2822.69
409.49	2818.00
409.68	2885.88
409.87	2932.69
410.07	3028.65
410.26	3005.25
410.45	2967.80
410.64	3026.31
410.83	3075.46
411.02	2923.33
411.21	3197.17
411.40	3164.40
411.59	3262.71
411.78	3152.70
411.98	3232.28
412.17	3351.65
412.36	3251.00
412.55	3258.03
412.74	3384.41
412.93	3346.97
413.12	3269.73
413.31	3435.91
413.50	3370.37
413.69	3435.91
413.88	3655.92
414.07	3550.59
414.26	3588.04
414.45	3667.62
414.64	3639.53
414.83	3772.94
415.02	3749.54
415.22	3911.04
415.41	3810.39
415.60	3847.84
415.79	3892.31
415.98	3854.86
416.17	3831.46
416.36	4042.11
416.55	4095.94
416.74	4058.49
416.93	3955.51
417.12	4182.54
417.31	4112.32
417.50	4215.30
417.69	4269.14
417.88	4294.88
418.07	4124.02
418.26	4234.03
418.45	4264.46
418.64	4425.95
418.83	4351.06
419.02	4421.27
419.21	4547.66
419.39	4397.87
419.58	4442.34
419.77	4416.59
419.96	4573.41
420.15	4627.24
420.34	4690.43
420.53	4484.47
420.72	4744.27
420.91	4770.01
421.10	4652.98
421.29	4908.10
421.48	4720.86
421.67	4571.07
421.86	4748.95
422.05	4802.78
422.24	4770.01
422.43	4760.65
422.61	4929.17
422.80	4987.68
422.99	4873.00
423.18	5109.39
423.37	4929.17
423.56	4901.08
423.75	4772.35
423.94	5001.72
424.13	4542.98
424.32	4828.53
424.50	4915.12
424.69	5104.71
424.88	5064.92
425.07	5102.37
425.26	4954.91
425.45	4943.21
425.64	4985.34
425.83	5013.43
426.01	5048.54
426.20	5078.96
426.39	4997.04
426.58	5186.63
426.77	4943.21
426.96	4978.32
427.15	5102.37
427.33	5085.98
427.52	4973.64
427.71	5275.57
427.90	5181.95
428.09	5350.46
428.28	5373.87
428.46	5383.23
428.65	5303.65
428.84	5425.36
429.03	5408.98
429.22	5280.25
429.40	5420.68
429.59	5385.57
429.78	5303.65
429.97	5282.59
430.16	5427.70
430.34	5462.81
430.53	5579.84
430.72	5823.25
430.91	5350.46
431.10	5628.99
431.28	5760.06
431.47	5736.65
431.66	5891.13
431.85	5558.77
432.03	5919.21
432.22	5912.19
432.41	5806.87
432.60	5935.60
432.79	5942.62
432.97	5919.21
433.16	5961.34
433.35	5863.04
433.54	6071.35
433.72	6029.22
433.91	5949.64
434.10	6174.33
434.28	5961.34
434.47	6146.25
434.66	6340.51
434.85	6207.10
435.03	6188.38
435.22	6282.00
435.41	6443.49
435.59	6293.70
435.78	6312.42
435.97	6408.39
436.16	6356.90
436.34	6312.42
436.53	6469.24
436.72	6588.61
436.90	6312.42
437.09	6658.82
437.28	6593.29
437.46	6590.95
437.65	6670.53
437.84	6745.42
438.02	6750.10
438.21	6604.99
438.40	6729.04
438.58	6775.85
438.77	6832.02
438.96	6832.02
439.14	6993.52
439.33	7220.55
439.52	7255.66
439.70	7267.36
439.89	7030.97
440.08	7178.42
440.26	7386.73
440.45	7295.45
440.63	7433.54
440.82	7400.77
441.01	7616.10
441.19	7588.02
441.38	7655.89
441.57	7662.91
441.75	7840.79
441.94	7955.48
442.12	7939.10
442.31	7906.33
442.50	7927.39
442.68	7824.41
442.87	7901.65
443.05	8039.74
443.24	8023.36
443.43	8051.44
443.61	8126.34
443.80	8329.97
443.98	7999.95
444.17	7896.97
444.35	8194.22
444.54	8449.33
444.73	8348.69
444.91	8454.02
445.10	8393.16
445.28	8278.47
445.47	8196.56
445.65	8355.71
445.84	8313.58
446.02	8414.23
446.21	8454.02
446.39	8311.24
446.58	8376.78
446.77	8327.63
446.95	8301.88
447.14	8205.92
447.32	8524.23
447.51	8575.72
447.69	8458.70
447.88	8608.49
448.06	8510.19
448.25	8393.16
448.43	8388.48
448.62	8655.30
448.80	8449.33
448.99	8667.00
449.17	8784.03
449.36	8596.79
449.54	8702.11
449.73	8896.38
449.91	8898.72
450.10	9060.21
450.28	9062.55
450.46	9053.19
450.65	8823.82
450.83	8840.20
451.02	9121.07
451.20	9252.14
451.39	9039.15
451.57	9247.46
451.76	8987.66
451.94	9132.77
452.13	9179.58
452.31	9231.07
452.49	9114.05
452.68	9312.99
452.86	9380.87
453.05	9383.21
453.23	9455.76
453.42	9277.88
453.60	9160.86
453.78	9413.63
453.97	9441.72
454.15	9312.99
454.34	9338.74
454.52	9495.55
454.70	9724.93
454.89	9675.77
455.07	9762.37
455.26	9935.57
455.44	9825.57
455.62	9748.33
455.81	9966.00
455.99	9973.02
456.17	10071.33
456.36	10008.13
456.54	10307.72
456.73	10312.40
456.91	10466.88
457.09	10457.51
457.28	10583.90
457.46	10375.59
457.64	10394.32
457.83	10417.72
458.01	10406.02
458.19	10593.26
458.38	10466.88
458.56	10752.42
458.74	10562.84
458.93	10588.58
459.11	10569.86
459.29	10794.55
459.48	10864.77
459.66	10565.18
459.84	10846.04
460.03	10960.73
460.21	10878.81
460.39	10918.60
460.57	10972.43
460.76	10974.77
460.94	11330.53
461.12	10925.62
461.31	10934.98
461.49	11197.12
461.67	11166.70
461.85	11360.96
462.04	11372.66
462.22	11761.19
462.40	11531.82
462.59	11419.47
462.77	11527.14
462.95	11756.51
463.13	11580.97
463.32	11648.85
463.50	11602.04
463.68	11517.78
463.86	11702.68
464.05	11623.10
464.23	11735.45
464.41	11896.94
464.59	11627.78
464.78	12222.28
464.96	11915.67
465.14	11866.52
465.32	12224.62
465.50	11894.60
465.69	11927.37
465.87	12116.95
466.05	12154.40
466.23	11962.48
466.41	12161.42
466.60	12812.09
466.78	12238.66
466.96	12100.57
467.14	12145.04
467.32	12255.04
467.51	12411.86
467.69	11990.56
467.87	12449.31
468.05	12870.61
468.23	12369.73
468.41	12407.18
468.60	12325.26
468.78	12662.30
468.96	12538.25
469.14	12800.39
469.32	12989.97
469.50	12666.98
469.69	12751.24
469.87	13006.36
470.05	13074.23
470.23	13085.94
470.41	12966.57
470.59	13448.72
470.77	13083.59
470.95	12952.52
471.14	13556.38
471.32	13137.43
471.50	13727.24
471.68	13453.40
471.86	13586.81
472.04	13308.29
472.22	14104.07
472.40	13579.79
472.58	13675.75
472.77	13848.95
472.95	14260.88
473.13	14527.71
473.31	14012.79
473.49	13809.16
473.67	14171.94
473.85	14026.83
474.03	14595.58
474.21	14485.58
474.39	14574.52
474.57	14406.00
474.75	14785.16
474.93	14661.12
475.12	14707.93
475.30	15066.03
475.48	14965.39
475.66	15218.16
475.84	14937.30
476.02	15391.36
476.20	15178.37
476.38	15543.50
476.56	15749.46
476.74	15768.19
476.92	15630.10
477.10	15470.94
477.28	15922.66
477.46	16287.79
477.64	16369.71
477.82	16521.84
478.00	16681.00
478.18	16809.73
478.36	16741.85
478.54	17074.21
478.72	16994.63
478.90	17266.13
479.08	17444.01
479.26	17436.99
479.44	17682.75
479.62	17687.43
479.80	18029.15
479.98	18094.68
480.16	18375.55
480.34	18274.90
480.52	18377.89
480.70	18670.45
480.88	18090.00
481.06	18497.25
481.24	18904.51
481.41	19110.47
481.59	19253.25
481.77	19412.40
481.95	19309.42
482.13	19662.84
482.31	19658.16
482.49	20020.94
482.67	19990.52
482.85	20334.57
483.03	20350.96
483.21	20589.69
483.39	20987.58
483.57	20573.31
483.74	21181.85
483.92	21231.00
484.10	21331.64
484.28	21392.50
484.46	22057.21
484.64	22335.73
484.82	21766.98
485.00	22373.18
485.18	22719.58
485.35	22773.41
485.53	22724.26
485.71	22665.75
485.89	23421.74
486.07	23173.64
486.25	23494.30
486.43	23222.80
486.61	23660.48
486.78	23747.08
486.96	23850.06
487.14	24458.60
487.32	24336.89
487.50	24989.90
487.68	24760.53
487.85	25221.61
488.03	25226.29
488.21	25696.74
488.39	25486.09
488.57	25668.66
488.75	25867.60
488.92	26033.78
489.10	26764.03
489.28	26635.30
489.46	26766.37
489.64	26724.24
489.81	27405.33
489.99	27576.19
490.17	27414.69
490.35	28098.13
490.53	28229.20
490.70	28261.97
490.88	28386.02
491.06	28861.15
491.24	28514.75
491.41	28992.22
491.59	28835.40
491.77	29280.10
491.95	29338.62
492.13	29851.19
492.30	29975.24
492.48	29937.79
492.66	30183.55
492.84	30164.82
493.01	30789.75
493.19	30546.33
493.37	31000.40
493.54	31264.88
493.72	31140.83
493.90	31501.27
494.08	31473.18
494.25	31784.48
494.43	32418.76
494.61	31868.73
494.79	32545.15
494.96	32491.32
495.14	32479.61
495.32	32833.04
495.49	32903.25
495.67	33214.54
495.85	33287.10
496.02	33558.60
496.20	34183.52
496.38	33909.68
496.55	34017.35
496.73	34506.52
496.91	34508.86
497.09	34660.99
497.26	34885.68
497.44	34639.93
497.62	35129.10
497.79	35819.56
497.97	35239.11
498.14	35601.89
498.32	35840.62
498.50	35906.16
498.67	36290.01
498.85	36053.61
499.03	36573.21
499.20	36477.25
499.38	36755.77
499.56	37036.64
499.73	37050.68
499.91	37338.57
500.08	37368.99
500.26	36854.08
500.44	37462.61
500.61	38066.47
500.79	37633.47
500.97	37848.80
501.14	38888.00
501.32	38071.15
501.49	38646.93
501.67	38291.16
501.84	38548.62
502.02	38642.24
502.20	38562.67
502.37	38838.85
502.55	39260.15
502.72	39171.21
502.90	39229.72
503.07	39218.02
503.25	39363.13
503.43	39573.78
503.60	39915.50
503.78	39714.21
503.95	40095.72
504.13	40107.42
504.30	40458.50
504.48	40514.67
504.65	40786.18
504.83	40739.36
505.01	41200.45
505.18	40996.82
505.36	41118.53
505.53	41137.26
505.71	41317.48
505.88	41214.49
506.06	40917.25
506.23	42106.24
506.41	41724.73
506.58	41743.45
506.76	42087.51
506.93	42356.67
507.11	42019.64
507.28	42178.79
507.46	42319.23
507.63	42979.26
507.81	42887.98
507.98	42471.36
508.16	43129.05
508.33	43070.54
508.50	43405.23
508.68	43346.72
508.85	43629.93
509.03	43459.07
509.20	43669.72
509.38	44385.92
509.55	44177.61
509.73	44311.02
509.90	44011.43
510.08	44282.94
510.25	44636.36
510.42	44282.94
510.60	44989.78
510.77	45043.61
510.95	45413.41
511.12	45102.12
511.30	44809.56
511.47	45155.96
511.64	45565.55
511.82	45401.71
511.99	45244.90
512.17	45947.06
512.34	45631.08
512.51	45930.67
512.69	45921.31
512.86	46211.54
513.04	46340.27
513.21	46148.34
513.38	46436.23
513.56	46721.77
513.73	46527.51
513.90	46670.28
514.08	46581.34
514.25	46773.27
514.43	47283.50
514.60	47227.33
514.77	47414.57
514.95	47592.45
515.12	46717.09
515.29	47320.95
515.47	47459.04
515.64	47852.25
515.81	47756.29
515.99	47566.71
516.16	48315.68
516.33	48025.45
516.51	48516.96
516.68	48018.43
516.85	48205.67
517.03	48442.07
517.20	48732.29
517.37	48940.60
517.54	48657.40
517.72	48224.40
517.89	48868.05
518.06	48802.51
518.24	49029.54
518.41	49155.93
518.58	48971.03
518.75	48849.32
518.93	49439.14
519.10	49116.14
519.27	49656.81
519.45	49560.84
519.62	49804.26
519.79	49780.85
519.96	49794.90
520.14	50078.10
520.31	49785.54
520.48	50759.20
520.65	49797.24
520.83	50628.13
521.00	50410.46
521.17	50216.19
521.34	50365.99
521.52	50873.88
521.69	50394.07
521.86	50595.36
522.03	50770.90
522.20	51274.12
522.38	51327.95
522.55	51398.16
522.72	50691.32
522.89	51253.05
523.07	51210.92
523.24	51213.26
523.41	51590.09
523.58	51239.01
523.75	51770.31
523.92	51505.83
524.10	51760.95
524.27	52186.92
524.44	51716.48
524.61	51945.85
524.78	52154.16
524.96	52140.11
525.13	52229.05
525.30	52168.20
525.47	52301.61
525.64	52470.13
525.81	52435.02
525.98	52423.32
526.16	52196.29
526.33	52533.32
526.50	52711.20
526.67	52472.47
526.84	52673.76
527.01	52816.53
527.18	52577.79
527.36	52734.61
527.53	52755.68
527.70	53242.51
527.87	53055.26
528.04	53169.95
528.21	53036.54
528.38	53310.38
528.55	53223.78
528.72	53081.01
528.89	53326.77
529.07	53137.18
529.24	53364.21
529.41	53432.09
529.58	53588.91
529.75	53310.38
529.92	53567.84
530.09	53839.34
530.26	53858.07
530.43	53876.79
530.60	53766.79
530.77	53734.02
530.94	53808.92
531.11	53883.81
531.28	54005.52
531.46	53923.60
531.63	53909.56
531.80	53998.50
531.97	54265.32
532.14	54422.14
532.31	54286.39
532.48	54419.80
532.65	54475.97
532.82	54380.01
532.99	54670.23
533.16	54480.65
533.33	54726.41
533.50	54749.81
533.67	54452.56
533.84	54424.48
534.01	54508.74
534.18	54658.53
534.35	55140.68
534.52	54955.78
534.69	55044.72
534.86	54997.91
535.03	54892.58
535.20	54824.71
535.37	55093.87
535.54	55098.55
535.71	55295.16
535.88	55253.03
536.05	55341.97
536.22	55018.97
536.38	55253.03
536.55	55636.87
536.72	55274.09
536.89	55405.16
537.06	55732.84
537.23	55669.64
537.40	55501.12
537.57	55707.09
537.74	55667.30
537.91	55716.45
538.08	55896.67
538.25	55583.04
538.42	55826.46
538.59	55819.44
538.75	55889.65
538.92	56151.79
539.09	55884.97
539.26	55758.58
539.43	55819.44
539.60	56060.51
539.77	56081.58
539.94	56217.33
540.11	56362.44
540.28	56339.04
540.44	56385.85
540.61	56439.68
540.78	56097.96
540.95	56310.95
541.12	56369.46
541.29	56121.37
541.46	56563.73
541.62	56699.48
541.79	56114.34
541.96	56257.12
542.13	56683.09
542.30	56413.93
542.47	56870.34
542.63	56655.01
542.80	56807.14
542.97	57022.47
543.14	56912.47
543.31	56938.21
543.48	57078.64
543.64	57193.33
543.81	57006.09
543.98	57132.48
544.15	57298.65
544.32	57181.63
544.48	57380.57
544.65	57305.68
544.82	57296.31
544.99	56853.95
545.16	57481.22
545.32	57284.61
545.49	57411.00
545.66	57537.39
545.83	57413.34
546.00	57595.90
546.16	57212.06
546.33	57425.04
546.50	57506.96
546.67	57446.11
546.83	57317.38
547.00	57453.13
547.17	57752.72
547.34	57478.88
547.50	57762.08
547.67	57902.51
547.84	57916.56
548.00	58064.01
548.17	58176.36
548.34	57989.11
548.51	58166.99
548.67	58176.36
548.84	58202.10
549.01	58026.56
549.18	57982.09
549.34	57998.48
549.51	58176.36
549.68	57872.09
549.84	57996.13
550.01	58277.00
550.18	58176.36
550.34	58387.00
550.51	58246.57
550.68	58356.58
550.84	58141.25
551.01	58466.58
551.18	58583.61
551.34	58387.00
551.51	58468.92
551.68	58468.92
551.84	58543.82
552.01	58312.11
552.18	58424.45
552.34	58162.31
552.51	58384.66
552.68	58508.71
552.84	58527.44
553.01	58852.77
553.18	58576.59
553.34	58766.17
553.51	58553.18
553.67	58429.13
553.84	59014.27
554.01	58740.42
554.17	58887.88
554.34	58965.12
554.51	58775.53
554.67	58944.05
554.84	58974.48
555.00	58892.56
555.17	58707.66
555.33	58808.30
555.50	58756.81
555.67	58878.52
555.83	58862.13
556.00	59016.61
556.16	59461.31
556.33	59180.45
556.50	59173.42
556.66	59138.32
556.83	58890.22
556.99	59323.22
557.16	59253.00
557.32	59426.20
557.49	59524.50
557.65	59119.59
557.82	59173.42
557.98	59203.85
558.15	59248.32
558.32	59309.18
558.48	59384.07
558.65	59372.37
558.81	59423.86
558.98	59664.94
559.14	59367.69
559.31	59725.79
559.47	59536.21
559.64	59580.68
559.80	59702.38
559.97	59585.36
560.13	59571.32
560.30	59627.49
560.46	59767.92
560.63	59817.07
560.79	59557.27
560.96	59611.10
561.12	59756.22
561.29	59718.77
561.45	59798.35
561.61	59671.96
561.78	59688.34
561.94	59613.44
562.11	59554.93
562.27	59800.69
562.44	59882.61
562.60	59695.36
562.77	59845.16
562.93	59723.45
563.10	60004.31
563.26	59751.54
563.42	60072.19
563.59	59774.94
563.75	59831.11
563.92	59845.16
564.08	59875.58
564.24	59994.95
564.41	60023.04
564.57	60191.56
564.74	59943.46
564.90	59990.27
565.07	60053.47
565.23	60004.31
565.39	59880.27
565.56	59999.63
565.72	59945.80
565.88	60032.40
566.05	60025.38
566.21	60205.60
566.38	60001.97
566.54	60170.49
566.70	60179.85
566.87	60198.58
567.03	59913.03
567.19	60212.62
567.36	60093.25
567.52	60172.83
567.68	60631.58
567.85	60299.22
568.01	60488.80
568.17	60037.08
568.34	60259.43
568.50	60383.48
568.66	60065.17
568.83	60294.54
568.99	60011.34
569.15	60193.90
569.32	60198.58
569.48	60044.10
569.64	60198.58
569.81	60320.29
569.97	60409.23
570.13	60320.29
570.30	60289.86
570.46	60226.66
570.62	60561.36
570.78	60463.06
570.95	60533.28
571.11	60537.96
571.27	60313.26
571.43	60182.19
571.60	60502.85
571.76	60212.62
571.92	60629.24
572.09	60577.75
572.25	60341.35
572.41	60346.03
572.57	60374.12
572.74	60570.72
572.90	60317.95
573.06	60748.60
573.22	60439.65
573.38	60519.23
573.55	60605.83
573.71	60718.18
573.87	60413.91
574.03	60432.63
574.20	60491.15
574.36	60594.13
574.52	60626.90
574.68	60645.62
574.84	60687.75
575.01	60449.02
575.17	60507.53
575.33	60516.89
575.49	60526.25
575.65	60561.36
575.82	60804.78
575.98	60556.68
576.14	60807.12
576.30	60678.39
576.46	60413.91
576.62	60669.03
576.79	60706.47
576.95	60697.11
577.11	60734.56
577.27	60669.03
577.43	60739.24
577.59	60725.20
577.75	60542.64
577.92	60860.95
578.08	60673.71
578.24	60664.35
578.40	60919.46
578.56	60882.02
578.72	60694.77
578.88	60828.18
579.04	60867.97
579.21	60814.14
579.37	60926.49
579.53	60977.98
579.69	60552.00
579.85	60788.39
580.01	60757.97
580.17	60495.83
580.33	60739.24
580.49	60732.22
580.65	60839.89
580.82	60732.22
580.98	60561.36
581.14	60626.90
581.30	61055.21
581.46	60774.35
581.62	60931.17
581.78	60559.02
581.94	60856.27
582.10	60638.60
582.26	60779.03
582.42	60832.86
582.58	60882.02
582.74	60755.63
582.90	60928.83
583.06	60912.44
583.22	60549.66
583.38	60811.80
583.54	60772.01
583.70	60835.20
583.86	60858.61
584.02	60889.04
584.18	61013.08
584.34	60741.58
584.50	60729.88
584.66	60832.86
584.82	60676.05
584.98	61113.73
585.14	60959.25
585.30	60757.97
585.46	60853.93
585.62	60963.93
585.78	61104.37
585.94	60629.24
586.10	60867.97
586.26	61034.15
586.42	61160.54
586.58	60912.44
586.74	60837.54
586.90	60865.63
587.06	60821.16
587.22	61006.06
587.38	60753.29
587.54	60966.27
587.70	61209.69
587.86	60893.72
588.02	60935.85
588.18	61034.15
588.34	60877.33
588.49	60914.78
