SpectraSuite Data File
++++++++++++++++++++++++++++++++++++
Date: Fri Oct 25 10:44:25 EDT 2013
User: price-jones
Dark Spectrum Present: No
Reference Spectrum Present: No
Number of Sampled Component Spectra: 1
Spectrometers: USB2+H05261
Integration Time (usec): 100000 (USB2+H05261)
Spectra Averaged: 1 (USB2+H05261)
Boxcar Smoothing: 0 (USB2+H05261)
Correct for Electrical Dark: No (USB2+H05261)
Strobe/Lamp Enabled: No (USB2+H05261)
Correct for Detector Non-linearity: No (USB2+H05261)
Correct for Stray Light: No (USB2+H05261)
Number of Pixels in Processed Spectrum: 2048
>>>>>Begin Processed Spectral Data<<<<<
365.73	107.66
365.92	107.66
366.12	107.66
366.32	28.09
366.52	16.38
366.72	0.00
366.91	0.00
367.11	0.00
367.31	2.34
367.51	32.77
367.70	7.02
367.90	0.00
368.10	0.00
368.30	0.00
368.49	58.51
368.69	18.72
368.89	91.28
369.09	39.79
369.28	39.79
369.48	35.11
369.68	70.22
369.87	128.73
370.07	51.49
370.27	60.85
370.47	152.13
370.66	435.34
370.86	400.23
371.06	423.64
371.25	531.30
371.45	428.32
371.65	468.11
371.84	435.34
372.04	409.59
372.24	543.00
372.44	491.51
372.63	503.22
372.83	475.13
373.03	526.62
373.22	519.60
373.42	559.39
373.62	482.15
373.81	514.92
374.01	540.66
374.21	594.50
374.40	554.71
374.60	571.09
374.79	596.84
374.99	554.71
375.19	578.11
375.38	615.56
375.58	493.85
375.78	634.29
375.97	526.62
376.17	660.03
376.37	592.16
376.56	606.20
376.76	606.20
376.95	585.13
377.15	760.67
377.35	718.54
377.54	699.82
377.74	645.99
377.93	631.94
378.13	727.91
378.33	716.20
378.52	678.76
378.72	678.76
378.91	667.05
379.11	587.47
379.31	676.41
379.50	643.65
379.70	720.88
379.89	704.50
380.09	685.78
380.28	716.20
380.48	711.52
380.68	734.93
380.87	699.82
381.07	809.83
381.26	744.29
381.46	723.23
381.65	741.95
381.85	636.63
382.04	781.74
382.24	730.25
382.43	781.74
382.63	695.14
382.83	763.01
383.02	802.80
383.22	772.38
383.41	777.06
383.61	781.74
383.80	748.97
384.00	898.77
384.19	767.70
384.39	772.38
384.58	753.65
384.78	814.51
384.97	814.51
385.17	800.46
385.36	772.38
385.56	807.48
385.75	791.10
385.95	805.14
386.14	844.93
386.34	828.55
386.53	889.40
386.72	896.43
386.92	877.70
387.11	950.26
387.31	910.47
387.50	924.51
387.70	887.06
387.89	851.96
388.09	901.11
388.28	985.37
388.48	966.64
388.67	997.07
388.86	1004.09
389.06	976.00
389.25	1064.94
389.45	959.62
389.64	926.85
389.84	1060.26
390.03	1055.58
390.22	1123.46
390.42	1125.80
390.61	1015.79
390.81	1100.05
391.00	1046.22
391.19	1088.35
391.39	1109.41
391.58	1151.54
391.78	1102.39
391.97	1121.12
392.16	1020.47
392.36	1076.65
392.55	987.71
392.75	1050.90
392.94	1078.99
393.13	1046.22
393.33	1067.28
393.52	1046.22
393.71	1109.41
393.91	1116.44
394.10	1109.41
394.29	1179.63
394.49	1320.06
394.68	1174.95
394.88	1268.57
395.07	1231.12
395.26	1252.19
395.46	1205.38
395.65	1313.04
395.84	1296.66
396.04	1268.57
396.23	1186.65
396.42	1186.65
396.62	1102.39
396.81	1238.14
397.00	1188.99
397.19	1329.42
397.39	1364.53
397.58	1453.47
397.77	1380.92
397.97	1453.47
398.16	1359.85
398.35	1600.93
398.55	1462.83
398.74	1469.86
398.93	1600.93
399.12	1577.52
399.32	1544.75
399.51	1526.03
399.70	1619.65
399.90	1640.72
400.09	1701.57
400.28	1687.53
400.47	1652.42
400.67	1614.97
400.86	1778.81
401.05	1813.92
401.24	1708.59
401.44	1877.11
401.63	1771.79
401.82	1820.94
402.01	1769.44
402.21	1799.87
402.40	1792.85
402.59	1830.30
402.78	1844.34
402.97	1783.49
403.17	1874.77
403.36	1909.88
403.55	1877.11
403.74	1846.68
403.93	1849.02
404.13	1900.52
404.32	1982.43
404.51	1947.33
404.70	1942.64
404.89	1935.62
405.09	2040.95
405.28	2090.10
405.47	1926.26
405.66	1982.43
405.85	2071.37
406.05	2043.29
406.24	2172.02
406.43	2127.55
406.62	2202.44
406.81	2132.23
407.00	2108.82
407.20	2090.10
407.39	2132.23
407.58	2125.21
407.77	2146.27
407.96	2237.55
408.15	2340.54
408.34	2340.54
408.54	2265.64
408.73	2298.41
408.92	2305.43
409.11	2349.90
409.30	2345.22
409.49	2385.01
409.68	2363.94
409.87	2415.43
410.07	2438.84
410.26	2366.28
410.45	2466.92
410.64	2502.03
410.83	2469.27
411.02	2464.58
411.21	2647.15
411.40	2766.51
411.59	2768.85
411.78	2600.34
411.98	2567.57
412.17	2656.51
412.36	2764.17
412.55	2822.69
412.74	2855.45
412.93	2841.41
413.12	2757.15
413.31	3005.25
413.50	2923.33
413.69	2850.77
413.88	2993.55
414.07	2965.46
414.26	3084.83
414.45	2993.55
414.64	3087.17
414.83	3108.23
415.02	3190.15
415.22	3141.00
415.41	3112.91
415.60	3262.71
415.79	3389.10
415.98	3426.54
416.17	3440.59
416.36	3349.31
416.55	3276.75
416.74	3368.03
416.93	3281.43
417.12	3447.61
417.31	3321.22
417.50	3389.10
417.69	3442.93
417.88	3517.83
418.07	3475.70
418.26	3522.51
418.45	3665.28
418.64	3751.88
418.83	3749.54
419.02	3613.79
419.21	3801.03
419.39	3623.15
419.58	3660.60
419.77	3686.34
419.96	3702.73
420.15	3742.52
420.34	3620.81
420.53	3866.56
420.72	3934.44
420.91	3843.16
421.10	3983.59
421.29	4032.74
421.48	3908.69
421.67	4016.36
421.86	3929.76
422.05	3845.50
422.24	3885.29
422.43	3789.33
422.61	4011.68
422.80	4037.42
422.99	4025.72
423.18	3953.16
423.37	4142.75
423.56	4088.92
423.75	4145.09
423.94	4180.20
424.13	3765.92
424.32	3894.65
424.50	4051.47
424.69	4168.49
424.88	4205.94
425.07	3901.67
425.26	3985.93
425.45	4051.47
425.64	3971.89
425.83	4018.70
426.01	4191.90
426.20	4109.98
426.39	4114.66
426.58	4042.11
426.77	4035.08
426.96	4065.51
427.15	4145.09
427.33	4351.06
427.52	4079.55
427.71	4346.37
427.90	4386.16
428.09	4299.56
428.28	4273.82
428.46	4248.07
428.65	4161.47
428.84	4402.55
429.03	4320.63
429.22	4194.24
429.40	4299.56
429.59	4348.72
429.78	4081.89
429.97	3969.55
430.16	4112.32
430.34	4224.67
430.53	4180.20
430.72	4388.50
430.91	4447.02
431.10	4538.30
431.28	4657.67
431.47	4737.24
431.66	4854.27
431.85	4540.64
432.03	4777.03
432.22	4861.29
432.41	4720.86
432.60	4814.48
432.79	5011.09
432.97	4945.55
433.16	4961.94
433.35	4802.78
433.54	4774.69
433.72	4652.98
433.91	4730.22
434.10	4887.04
434.28	4891.72
434.47	5008.75
434.66	5071.94
434.85	5060.24
435.03	5160.88
435.22	5188.97
435.41	5420.68
435.59	5158.54
435.78	5294.29
435.97	5329.40
436.16	5039.17
436.34	5210.03
436.53	5294.29
436.72	5352.81
436.90	5294.29
437.09	5303.65
437.28	5242.80
437.46	5231.10
437.65	5423.02
437.84	5242.80
438.02	5324.72
438.21	5472.17
438.40	5266.21
438.58	5558.77
438.77	5565.79
438.96	5638.35
439.14	5699.20
439.33	5783.46
439.52	5664.10
439.70	5804.53
439.89	5865.38
440.08	5785.80
440.26	5893.47
440.45	5905.17
440.63	5921.56
440.82	6258.59
441.01	6230.51
441.19	6232.85
441.38	6183.70
441.57	6375.62
441.75	6415.41
441.94	6431.79
442.12	6466.90
442.31	6626.06
442.50	6766.49
442.68	6553.50
442.87	6401.37
443.05	6597.97
443.24	6644.78
443.43	6663.51
443.61	6614.35
443.80	6773.51
443.98	6604.99
444.17	6532.44
444.35	6642.44
444.54	6927.99
444.73	6651.80
444.91	6630.74
445.10	6609.67
445.28	6509.03
445.47	6619.04
445.65	6724.36
445.84	6675.21
446.02	6752.45
446.21	6766.49
446.39	6750.10
446.58	6862.45
446.77	6876.49
446.95	6651.80
447.14	7056.72
447.32	6965.43
447.51	6759.47
447.69	6722.02
447.88	6932.67
448.06	6942.03
448.25	6995.86
448.43	6878.83
448.62	6920.96
448.80	6782.87
448.99	6986.50
449.17	7009.90
449.36	6988.84
449.54	7152.68
449.73	7131.61
449.91	7379.71
450.10	7358.64
450.28	7527.16
450.46	7398.43
450.65	7407.80
450.83	7543.55
451.02	7414.82
451.20	7428.86
451.39	7454.61
451.57	7375.03
451.76	7372.69
451.94	7447.58
452.13	7494.40
452.31	7391.41
452.49	7342.26
452.68	7428.86
452.86	7360.98
453.05	7555.25
453.23	7559.93
453.42	7384.39
453.60	7527.16
453.78	7770.58
453.97	7623.12
454.15	7646.53
454.34	7728.45
454.52	7784.62
454.70	7744.83
454.89	7639.51
455.07	7861.86
455.26	7920.37
455.44	8109.96
455.62	7829.09
455.81	7985.91
455.99	7946.12
456.17	8084.21
456.36	8044.42
456.54	8224.64
456.73	8238.69
456.91	8456.36
457.09	8292.52
457.28	8362.73
457.46	8081.87
457.64	8444.65
457.83	8573.38
458.01	8351.03
458.19	8571.04
458.38	8491.46
458.56	8442.31
458.74	8531.25
458.93	8587.43
459.11	8643.60
459.29	8456.36
459.48	8557.00
459.66	8468.06
459.84	8435.29
460.03	8788.71
460.21	8765.31
460.39	8807.44
460.57	8872.97
460.76	8982.98
460.94	8990.00
461.12	8739.56
461.31	8842.54
461.49	8959.57
461.67	8994.68
461.85	9088.30
462.04	9022.77
462.22	9221.71
462.40	9165.54
462.59	9158.52
462.77	9055.53
462.95	9184.26
463.13	9401.93
463.32	9280.22
463.50	9371.50
463.68	9275.54
463.86	9130.43
464.05	9174.90
464.23	9317.67
464.41	9231.07
464.59	9111.71
464.78	9523.64
464.96	9238.09
465.14	9095.32
465.32	9586.83
465.50	9561.09
465.69	9652.37
465.87	9453.42
466.05	9474.49
466.23	9542.36
466.41	9511.94
466.60	9607.90
466.78	9376.19
466.96	9586.83
467.14	9561.09
467.32	9825.57
467.51	9860.68
467.69	9273.20
467.87	9654.71
468.05	9879.40
468.23	9617.26
468.41	9638.33
468.60	9820.89
468.78	9909.83
468.96	9874.72
469.14	9884.08
469.32	10104.09
469.50	9837.27
469.69	9792.80
469.87	10054.94
470.05	10054.94
470.23	10104.09
470.41	10101.75
470.59	10225.80
470.77	10167.29
470.95	10242.18
471.14	10443.47
471.32	10441.13
471.50	10574.54
471.68	10567.52
471.86	10501.98
472.04	10628.37
472.22	11073.07
472.40	10932.64
472.58	10649.44
472.77	10614.33
472.95	10738.38
473.13	11140.95
473.31	11014.56
473.49	10949.03
473.67	11112.86
473.85	10937.32
474.03	11288.40
474.21	11297.77
474.39	11382.03
474.57	11363.30
474.75	11351.60
474.93	11321.17
475.12	11489.69
475.30	11826.73
475.48	11403.09
475.66	11573.95
475.84	11377.34
476.02	11723.74
476.20	11667.57
476.38	11955.46
476.56	12416.54
476.74	12236.32
476.92	12205.89
477.10	12147.38
477.28	12453.99
477.46	12507.82
477.64	12706.77
477.82	12634.21
478.00	12957.21
478.18	12739.54
478.36	12884.65
478.54	13153.81
478.72	13193.60
478.90	13422.97
479.08	13453.40
479.26	13626.60
479.44	13741.29
479.62	13504.89
479.80	13671.07
479.98	13813.84
480.16	13895.76
480.34	14085.34
480.52	14113.43
480.70	14288.97
480.88	14153.22
481.06	14291.31
481.24	14485.58
481.41	14822.61
481.59	14796.87
481.77	14923.26
481.95	14843.68
482.13	14635.37
482.31	14745.38
482.49	15295.40
482.67	15201.78
482.85	15255.61
483.03	15637.12
483.21	15627.76
483.39	15700.31
483.57	15831.38
483.74	16025.65
483.92	16119.27
484.10	15777.55
484.28	16322.90
484.46	16695.04
484.64	16978.25
484.82	16320.56
485.00	16437.58
485.18	16872.92
485.35	16814.41
485.53	16453.97
485.71	16645.89
485.89	16648.23
486.07	16727.81
486.25	17011.01
486.43	17298.90
486.61	17380.82
486.78	17577.42
486.96	17722.54
487.14	18167.24
487.32	18157.88
487.50	18354.48
487.68	18757.05
487.85	18948.98
488.03	18909.19
488.21	18885.78
488.39	19101.11
488.57	19077.71
488.75	19424.11
488.92	19653.48
489.10	19690.93
489.28	20156.69
489.46	20285.42
489.64	20219.89
489.81	20847.15
489.99	20762.89
490.17	20587.35
490.35	21137.38
490.53	20891.62
490.70	20900.98
490.88	21020.35
491.06	21598.46
491.24	21432.29
491.41	21383.13
491.59	21074.18
491.77	21434.63
491.95	21465.05
492.13	21734.21
492.30	22125.08
492.48	22171.89
492.66	22424.67
492.84	22335.73
493.01	22443.40
493.19	22623.62
493.37	22562.76
493.54	22836.61
493.72	23115.13
493.90	23154.92
494.08	23438.12
494.25	23683.88
494.43	23653.45
494.61	23924.96
494.79	24428.17
494.96	24144.97
495.14	24079.43
495.32	24163.69
495.49	24374.34
495.67	24477.32
495.85	24697.33
496.02	24957.13
496.20	24788.61
496.38	24968.84
496.55	25544.61
496.73	25591.42
496.91	25153.74
497.09	25748.23
497.26	25923.77
497.44	25759.94
497.62	25860.58
497.79	25998.67
497.97	25883.98
498.14	25860.58
498.32	25998.67
498.50	26230.38
498.67	27065.96
498.85	26714.87
499.03	26703.17
499.20	26728.92
499.38	26897.44
499.56	26778.07
499.73	27201.71
499.91	27438.10
500.08	27332.78
500.26	26995.74
500.44	27391.29
500.61	27550.45
500.79	27108.08
500.97	27524.70
501.14	27953.02
501.32	27812.59
501.49	27730.67
501.67	28065.36
501.84	28102.81
502.02	28210.48
502.20	28355.59
502.37	28348.57
502.55	28528.79
502.72	28692.63
502.90	28872.85
503.07	28662.20
503.25	28861.15
503.43	28814.34
503.60	28577.94
503.78	28687.95
503.95	29144.35
504.13	29507.13
504.30	29603.10
504.48	29193.50
504.65	29717.78
504.83	29701.40
505.01	30059.50
505.18	29703.74
505.36	30155.46
505.53	30122.69
505.71	30803.79
505.88	30546.33
506.06	29757.57
506.23	30450.37
506.41	30291.21
506.58	30352.07
506.76	30445.69
506.93	30749.96
507.11	30614.21
507.28	30834.22
507.46	30497.18
507.63	31370.20
507.81	31314.03
507.98	30714.85
508.16	31180.62
508.33	31388.92
508.50	31702.56
508.68	31681.49
508.85	31927.25
509.03	31812.56
509.20	31871.07
509.38	31927.25
509.55	32088.74
509.73	32170.66
509.90	31807.88
510.08	31868.73
510.25	31875.76
510.42	32020.87
510.60	32809.63
510.77	32865.80
510.95	32772.18
511.12	32973.47
511.30	32868.14
511.47	33184.12
511.64	33074.11
511.82	33076.45
511.99	32816.65
512.17	33116.24
512.34	33015.60
512.51	33680.31
512.69	33811.38
512.86	33736.48
513.04	33783.29
513.21	33905.00
513.38	33731.80
513.56	33507.11
513.73	33659.24
513.90	34022.03
514.08	33954.15
514.25	34101.61
514.43	33713.08
514.60	33799.68
514.77	34150.76
514.95	34380.13
515.12	34653.97
515.29	34501.84
515.47	34707.80
515.64	34878.66
515.81	34740.57
515.99	34586.10
516.16	34436.30
516.33	34391.83
516.51	34033.73
516.68	33645.20
516.85	34080.54
517.03	34185.86
517.20	34649.29
517.37	34822.49
517.54	35192.30
517.72	34925.47
517.89	35112.72
518.06	34714.83
518.24	34829.51
518.41	35152.51
518.58	35281.24
518.75	35335.07
518.93	35639.34
519.10	35749.34
519.27	35807.86
519.45	36175.32
519.62	36254.90
519.79	36175.32
519.96	36187.02
520.14	36596.62
520.31	36250.22
520.48	36020.84
520.65	35988.08
520.83	36442.14
521.00	36837.69
521.17	36561.51
521.34	37078.77
521.52	37134.94
521.69	36783.86
521.86	37525.81
522.03	37198.13
522.20	36954.72
522.38	36950.04
522.55	37376.01
522.72	37275.37
522.89	37099.83
523.07	37846.46
523.24	37553.90
523.41	37738.80
523.58	37399.42
523.75	37998.60
523.92	37944.76
524.10	38431.60
524.27	38043.07
524.44	37972.85
524.61	38373.08
524.78	38143.71
524.96	38274.78
525.13	38579.05
525.30	38733.53
525.47	38911.41
525.64	38714.80
525.81	38490.11
525.98	38176.48
526.16	38124.99
526.33	37904.98
526.50	38504.15
526.67	37832.42
526.84	37951.79
527.01	38349.68
527.18	38478.41
527.36	39189.93
527.53	38948.85
527.70	39365.47
527.87	39136.10
528.04	39150.14
528.21	39196.95
528.38	39271.85
528.55	39936.56
528.72	39749.32
528.89	39526.97
529.07	39332.70
529.24	39374.83
529.41	39686.12
529.58	39529.31
529.75	39878.05
529.92	39461.43
530.09	39936.56
530.26	40271.26
530.43	40259.55
530.60	39978.69
530.77	39718.89
530.94	40215.08
531.11	40299.34
531.28	40360.20
531.46	40502.97
531.63	40217.43
531.80	40376.58
531.97	40687.87
532.14	40142.53
532.31	40182.32
532.48	40084.01
532.65	40299.34
532.82	40229.13
532.99	40687.87
533.16	40208.06
533.33	40467.86
533.50	40779.15
533.67	40882.14
533.84	40910.22
534.01	40872.78
534.18	41083.42
534.35	41612.38
534.52	40921.93
534.69	41308.11
534.86	41127.89
535.03	41621.75
535.20	41750.48
535.37	41684.94
535.54	41371.31
535.71	41474.29
535.88	41640.47
536.05	41507.06
536.22	41914.31
536.38	42068.79
536.55	41207.47
536.72	41528.13
536.89	41785.58
537.06	41823.03
537.23	42033.68
537.40	41773.88
537.57	42092.19
537.74	41844.10
537.91	42202.20
538.08	41914.31
538.25	41804.31
538.42	41691.96
538.59	42284.12
538.75	41783.24
538.92	42103.90
539.09	41897.93
539.26	42003.25
539.43	41930.70
539.60	42234.97
539.77	42103.90
539.94	42038.36
540.11	42588.39
540.28	42265.39
540.44	42384.76
540.61	42752.23
540.78	41968.15
540.95	42576.69
541.12	42288.80
541.29	42426.89
541.46	42576.69
541.62	42962.87
541.79	43089.26
541.96	42653.92
542.13	42527.53
542.30	42616.47
542.47	42602.43
542.63	42960.53
542.80	43077.56
542.97	43232.04
543.14	43669.72
543.31	43550.35
543.48	43274.16
543.64	44016.11
543.81	43608.86
543.98	43505.88
544.15	43807.81
544.32	43981.01
544.48	44467.84
544.65	43566.73
544.82	43798.44
544.99	43519.92
545.16	43711.84
545.32	44023.14
545.49	44343.79
545.66	44168.25
545.83	44449.11
546.00	44041.86
546.16	44545.08
546.33	43723.55
546.50	43606.52
546.67	44025.48
546.83	44088.67
547.00	43618.22
547.17	43833.55
547.34	44332.09
547.50	44161.23
547.67	43908.45
547.84	44362.51
548.00	44533.37
548.17	44638.70
548.34	44531.03
548.51	44734.66
548.67	44889.13
548.84	44540.39
549.01	44296.98
549.18	44252.51
549.34	44598.91
549.51	44645.72
549.68	45090.42
549.84	44488.90
550.01	44535.71
550.18	44634.02
550.34	44933.60
550.51	45207.45
550.68	44959.35
550.84	44390.60
551.01	44823.60
551.18	44706.57
551.34	44978.07
551.51	45090.42
551.68	45249.58
551.84	45450.86
552.01	45015.52
552.18	45289.37
552.34	45062.33
552.51	45247.24
552.68	45263.62
552.84	45315.11
553.01	45256.60
553.18	45530.44
553.34	45160.64
553.51	45233.19
553.67	45797.26
553.84	45731.73
554.01	45507.04
554.17	45399.37
554.34	45619.38
554.51	45595.98
554.67	45801.94
554.84	45462.57
555.00	45123.19
555.17	45729.39
555.33	45591.30
555.50	45518.74
555.67	45621.72
555.83	46092.17
556.00	45731.73
556.16	46202.18
556.33	45666.19
556.50	45303.41
556.66	45551.51
556.83	45460.23
556.99	46167.07
557.16	45462.57
557.32	45982.16
557.49	45551.51
557.65	45237.87
557.82	45818.33
557.98	45865.14
558.15	45736.41
558.32	45757.47
558.48	45467.25
558.65	45858.12
558.81	45535.12
558.98	45535.12
559.14	45984.51
559.31	45565.55
559.47	46113.23
559.64	45703.64
559.80	46476.02
559.97	46333.24
560.13	45708.32
560.30	46328.56
560.46	46054.72
560.63	46380.06
560.79	46183.45
560.96	46337.93
561.12	46216.22
561.29	46300.48
561.45	46138.98
561.61	45820.67
561.78	46096.85
561.94	45872.16
562.11	46471.34
562.27	46251.33
562.44	46253.67
562.60	46595.38
562.77	46740.50
562.93	46347.29
563.10	46361.33
563.26	46190.47
563.42	46358.99
563.59	46319.20
563.75	46092.17
563.92	46670.28
564.08	46422.19
564.24	46480.70
564.41	46064.08
564.57	46492.40
564.74	46309.84
564.90	46256.01
565.07	46443.25
565.23	46569.64
565.39	46188.13
565.56	46342.61
565.72	45722.37
565.88	46124.94
566.05	46590.70
566.21	46412.82
566.38	46408.14
566.54	46543.89
566.70	46553.26
566.87	47241.37
567.03	46766.24
567.19	47114.98
567.36	46909.02
567.52	46403.46
567.68	46681.98
567.85	46761.56
568.01	46426.87
568.17	46162.39
568.34	46979.23
568.50	46714.75
568.66	46433.89
568.83	46890.29
568.99	46256.01
569.15	46300.48
569.32	46735.82
569.48	46632.83
569.64	47054.13
569.81	46838.80
569.97	46705.39
570.13	46543.89
570.30	46490.06
570.46	46244.30
570.62	46426.87
570.78	46480.70
570.95	46433.89
571.11	46684.33
571.27	46681.98
571.43	46436.23
571.60	46567.30
571.76	46548.57
571.92	46415.16
572.09	46602.41
572.25	46763.90
572.41	46883.27
572.57	46944.12
572.74	47271.80
572.90	47154.77
573.06	46852.84
573.22	46710.07
573.38	46529.85
573.55	46660.92
573.71	46871.57
573.87	46906.68
574.03	46438.57
574.20	46918.38
574.36	46335.59
574.52	46787.31
574.68	46974.55
574.84	46934.76
575.01	46560.28
575.17	46658.58
575.33	46763.90
575.49	46681.98
575.65	47412.23
575.82	46939.44
575.98	46941.78
576.14	47065.83
576.30	46796.67
576.46	46630.49
576.62	46646.88
576.79	46934.76
576.95	46429.21
577.11	46946.47
577.27	46740.50
577.43	46827.10
577.59	46686.67
577.75	46674.96
577.92	46546.23
578.08	46522.83
578.24	46211.54
578.40	47049.45
578.56	46955.83
578.72	46590.70
578.88	46927.74
579.04	47246.05
579.21	46946.47
579.37	47033.07
579.53	46485.38
579.69	46887.95
579.85	46759.22
580.01	46855.18
580.17	46738.16
580.33	46754.54
580.49	47110.30
580.65	46892.63
580.82	47002.64
580.98	47056.47
581.14	46735.82
581.30	47007.32
581.46	47002.64
581.62	47159.45
581.78	46911.36
581.94	47267.12
582.10	47145.41
582.26	46630.49
582.42	46595.38
582.58	46735.82
582.74	46665.60
582.90	47079.88
583.06	47185.20
583.22	47103.28
583.38	47098.60
583.54	47370.10
583.70	47122.01
583.86	47428.62
584.02	46567.30
584.18	47047.11
584.34	46976.89
584.50	47224.99
584.66	46806.03
584.82	46763.90
584.98	46918.38
585.14	47262.44
585.30	46916.04
585.46	46829.44
585.62	46726.46
585.78	46768.58
585.94	46265.37
586.10	46955.83
586.26	46761.56
586.42	46763.90
586.58	47196.90
586.74	46618.79
586.90	47056.47
587.06	46796.67
587.22	47114.98
587.38	46314.52
587.54	47096.26
587.70	47096.26
587.86	46946.47
588.02	46827.10
588.18	47070.51
588.34	46335.59
588.49	46323.88
588.65	46370.69
588.81	46216.22
588.97	46602.41
589.13	46564.96
589.29	46733.48
589.45	46752.20
589.61	46698.37
589.77	46604.75
589.93	46728.80
